SpectraSuite Data File
++++++++++++++++++++++++++++++++++++
Date: Fri Oct 25 11:33:43 EDT 2013
User: price-jones
Dark Spectrum Present: No
Reference Spectrum Present: No
Number of Sampled Component Spectra: 1
Spectrometers: USB2+H05261
Integration Time (usec): 100000 (USB2+H05261)
Spectra Averaged: 1 (USB2+H05261)
Boxcar Smoothing: 0 (USB2+H05261)
Correct for Electrical Dark: No (USB2+H05261)
Strobe/Lamp Enabled: No (USB2+H05261)
Correct for Detector Non-linearity: No (USB2+H05261)
Correct for Stray Light: No (USB2+H05261)
Number of Pixels in Processed Spectrum: 2048
>>>>>Begin Processed Spectral Data<<<<<
365.73	297.25
365.92	297.25
366.12	297.25
366.32	128.73
366.52	173.20
366.72	159.16
366.91	194.26
367.11	145.11
367.31	173.20
367.51	159.16
367.70	159.16
367.90	133.41
368.10	128.73
368.30	159.16
368.49	126.39
368.69	203.63
368.89	222.35
369.09	224.69
369.28	283.20
369.48	243.42
369.68	196.60
369.87	283.20
370.07	220.01
370.27	210.65
370.47	337.04
370.66	456.40
370.86	500.87
371.06	503.22
371.25	603.86
371.45	587.47
371.65	580.45
371.84	552.37
372.04	571.09
372.24	596.84
372.44	575.77
372.63	622.58
372.83	683.44
373.03	610.88
373.22	540.66
373.42	538.32
373.62	601.52
373.81	535.98
374.01	702.16
374.21	697.48
374.40	603.86
374.60	638.97
374.79	645.99
374.99	622.58
375.19	648.33
375.38	667.05
375.58	589.82
375.78	676.41
375.97	671.73
376.17	655.35
376.37	683.44
376.56	678.76
376.76	699.82
376.95	638.97
377.15	704.50
377.35	690.46
377.54	685.78
377.74	730.25
377.93	690.46
378.13	774.72
378.33	664.71
378.52	690.46
378.72	763.01
378.91	713.86
379.11	667.05
379.31	688.12
379.50	634.29
379.70	713.86
379.89	713.86
380.09	760.67
380.28	730.25
380.48	737.27
380.68	753.65
380.87	697.48
381.07	716.20
381.26	765.36
381.46	765.36
381.65	690.46
381.85	709.18
382.04	730.25
382.24	753.65
382.43	763.01
382.63	816.85
382.83	683.44
383.02	758.33
383.22	863.66
383.41	739.61
383.61	798.12
383.80	835.57
384.00	777.06
384.19	770.04
384.39	744.29
384.58	795.78
384.78	812.17
384.97	880.04
385.17	798.12
385.36	830.89
385.56	807.48
385.75	777.06
385.95	842.59
386.14	861.32
386.34	809.83
386.53	861.32
386.72	770.04
386.92	905.79
387.11	947.92
387.31	833.23
387.50	858.98
387.70	957.28
387.89	837.91
388.09	840.25
388.28	931.53
388.48	947.92
388.67	931.53
388.86	968.98
389.06	910.47
389.25	933.87
389.45	961.96
389.64	940.90
389.84	922.17
390.03	1027.50
390.22	1013.45
390.42	987.71
390.61	1032.18
390.81	891.74
391.00	1022.81
391.19	966.64
391.39	1006.43
391.58	1060.26
391.78	987.71
391.97	994.73
392.16	1029.84
392.36	1022.81
392.55	1032.18
392.75	1046.22
392.94	1086.01
393.13	1069.62
393.33	1006.43
393.52	1097.71
393.71	1114.10
393.91	1036.86
394.10	1118.78
394.29	1121.12
394.49	1181.97
394.68	1153.88
394.88	1188.99
395.07	1184.31
395.26	1088.35
395.46	1160.91
395.65	1212.40
395.84	1165.59
396.04	1193.67
396.23	1205.38
396.42	1200.69
396.62	1228.78
396.81	1226.44
397.00	1184.31
397.19	1268.57
397.39	1130.48
397.58	1315.38
397.77	1231.12
397.97	1270.91
398.16	1235.80
398.35	1327.08
398.55	1280.27
398.74	1242.82
398.93	1315.38
399.12	1338.79
399.32	1256.87
399.51	1320.06
399.70	1390.28
399.90	1416.02
400.09	1371.55
400.28	1352.83
400.47	1455.81
400.67	1406.66
400.86	1392.62
401.05	1488.58
401.24	1451.13
401.44	1474.54
401.63	1434.75
401.82	1458.15
402.01	1409.00
402.21	1401.98
402.40	1502.62
402.59	1504.96
402.78	1467.52
402.97	1598.59
403.17	1607.95
403.36	1535.39
403.55	1467.52
403.74	1575.18
403.93	1650.08
404.13	1671.14
404.32	1591.56
404.51	1586.88
404.70	1750.72
404.89	1631.35
405.09	1671.14
405.28	1687.53
405.47	1687.53
405.66	1673.48
405.85	1760.08
406.05	1722.63
406.24	1675.82
406.43	1764.76
406.62	1811.57
406.81	1799.87
407.00	1687.53
407.20	1741.36
407.39	1832.64
407.58	1837.32
407.77	1994.14
407.96	1825.62
408.15	1956.69
408.34	1856.04
408.54	1923.92
408.73	1940.30
408.92	1998.82
409.11	1923.92
409.30	2005.84
409.49	1952.01
409.68	1797.53
409.87	2033.93
410.07	2054.99
410.26	2118.18
410.45	1982.43
410.64	2129.89
410.83	2069.03
411.02	2033.93
411.21	2148.61
411.40	2204.78
411.59	2113.50
411.78	2193.08
411.98	2235.21
412.17	2216.49
412.36	2204.78
412.55	2293.72
412.74	2282.02
412.93	2389.69
413.12	2235.21
413.31	2462.24
413.50	2462.24
413.69	2462.24
413.88	2553.52
414.07	2354.58
414.26	2429.48
414.45	2520.76
414.64	2576.93
414.83	2576.93
415.02	2649.49
415.22	2605.02
415.41	2656.51
415.60	2588.63
415.79	2635.44
415.98	2679.91
416.17	2705.66
416.36	2733.75
416.55	2682.25
416.74	2799.28
416.93	2944.39
417.12	2899.92
417.31	2890.56
417.50	2853.11
417.69	2780.56
417.88	2979.50
418.07	2939.71
418.26	2977.16
418.45	3014.61
418.64	2970.14
418.83	3019.29
419.02	2988.86
419.21	3073.12
419.39	3148.02
419.58	3047.38
419.77	3082.49
419.96	3115.25
420.15	3300.16
420.34	3199.51
420.53	3169.09
420.72	3330.58
420.91	3229.94
421.10	3260.37
421.29	3269.73
421.48	3197.17
421.67	3368.03
421.86	3454.63
422.05	3396.12
422.24	3358.67
422.43	3382.07
422.61	3386.76
422.80	3309.52
422.99	3424.20
423.18	3346.97
423.37	3590.38
423.56	3398.46
423.75	3330.58
423.94	3365.69
424.13	3311.86
424.32	3311.86
424.50	3428.88
424.69	3489.74
424.88	3531.87
425.07	3454.63
425.26	3445.27
425.45	3482.72
425.64	3445.27
425.83	3468.67
426.01	3468.67
426.20	3506.12
426.39	3597.40
426.58	3419.52
426.77	3527.19
426.96	3566.98
427.15	3569.32
427.33	3618.47
427.52	3562.30
427.71	3574.00
427.90	3543.57
428.09	3599.74
428.28	3653.58
428.46	3641.87
428.65	3698.05
428.84	3763.58
429.03	3871.25
429.22	3688.68
429.40	3763.58
429.59	3803.37
429.78	3667.62
429.97	3686.34
430.16	3749.54
430.34	3805.71
430.53	3904.01
430.72	3840.82
430.91	3798.69
431.10	3840.82
431.28	3943.80
431.47	3901.67
431.66	3974.23
431.85	3964.87
432.03	3838.48
432.22	4156.79
432.41	4046.79
432.60	4128.70
432.79	4093.60
432.97	4177.86
433.16	3978.91
433.35	4039.76
433.54	4203.60
433.72	4079.55
433.91	4119.34
434.10	4161.47
434.28	4198.92
434.47	4257.43
434.66	4329.99
434.85	4269.14
435.03	4306.59
435.22	4219.99
435.41	4493.83
435.59	4411.91
435.78	4486.81
435.97	4351.06
436.16	4245.73
436.34	4341.69
436.53	4379.14
436.72	4599.15
436.90	4475.10
437.09	4482.13
437.28	4552.34
437.46	4514.89
437.65	4416.59
437.84	4559.36
438.02	4393.19
438.21	4613.20
438.40	4564.04
438.58	4795.76
438.77	4765.33
438.96	4772.35
439.14	4833.21
439.33	4884.70
439.52	4847.25
439.70	4945.55
439.89	5081.30
440.08	5156.20
440.26	4873.00
440.45	5015.77
440.63	5064.92
440.82	5242.80
441.01	5060.24
441.19	5146.84
441.38	5193.65
441.57	5111.73
441.75	5217.05
441.94	5329.40
442.12	5235.78
442.31	5521.32
442.50	5495.58
442.68	5385.57
442.87	5411.32
443.05	5448.77
443.24	5596.22
443.43	5596.22
443.61	5570.48
443.80	5792.83
443.98	5481.53
444.17	5170.24
444.35	5643.03
444.54	5708.57
444.73	5467.49
444.91	5589.20
445.10	5652.39
445.28	5753.04
445.47	5544.73
445.65	5568.13
445.84	5612.60
446.02	5731.97
446.21	5804.53
446.39	5811.55
446.58	5891.13
446.77	5809.21
446.95	5544.73
447.14	5692.18
447.32	5863.04
447.51	5724.95
447.69	5628.99
447.88	5717.93
448.06	5680.48
448.25	5790.49
448.43	5858.36
448.62	5729.63
448.80	5734.31
448.99	5895.81
449.17	5877.09
449.36	5825.59
449.54	6022.20
449.73	6150.93
449.91	6211.78
450.10	6038.58
450.28	6160.29
450.46	6162.63
450.65	6099.44
450.83	6202.42
451.02	6356.90
451.20	6211.78
451.39	6111.14
451.57	6129.86
451.76	6033.90
451.94	6064.33
452.13	6162.63
452.31	6242.21
452.49	6164.97
452.68	6279.66
452.86	6389.66
453.05	6349.87
453.23	6459.88
453.42	6246.89
453.60	6263.27
453.78	6518.39
453.97	6228.17
454.15	6436.47
454.34	6389.66
454.52	6562.86
454.70	6607.33
454.89	6703.29
455.07	6551.16
455.26	6693.93
455.44	6726.70
455.62	6619.04
455.81	6637.76
455.99	6909.26
456.17	6663.51
456.36	6796.92
456.54	6848.41
456.73	6848.41
456.91	7049.69
457.09	6906.92
457.28	7047.35
457.46	6829.68
457.64	7084.80
457.83	7133.95
458.01	6803.94
458.19	7180.76
458.38	7236.94
458.56	7248.64
458.74	7201.83
458.93	7140.97
459.11	7124.59
459.29	7342.26
459.48	7304.81
459.66	7274.38
459.84	7293.11
460.03	7473.33
460.21	7250.98
460.39	7370.35
460.57	7304.81
460.76	7227.57
460.94	7428.86
461.12	7606.74
461.31	7616.10
461.49	7438.22
461.67	7524.82
461.85	7644.19
462.04	7651.21
462.22	7908.67
462.40	7772.92
462.59	7716.75
462.77	7810.37
462.95	7899.31
463.13	7864.20
463.32	7709.72
463.50	7798.66
463.68	7859.52
463.86	7850.16
464.05	7747.17
464.23	7911.01
464.41	7964.84
464.59	7882.92
464.78	8021.02
464.96	7913.35
465.14	8107.62
465.32	8142.72
465.50	8278.47
465.69	8259.75
465.87	8002.29
466.05	8154.43
466.23	8084.21
466.41	8273.79
466.60	8177.83
466.78	8018.68
466.96	8243.37
467.14	8124.00
467.32	8353.37
467.51	8444.65
467.69	8126.34
467.87	8390.82
468.05	8425.93
468.23	8369.76
468.41	8458.70
468.60	8381.46
468.78	8575.72
468.96	8322.94
469.14	8454.02
469.32	8837.86
469.50	8582.74
469.69	8800.41
469.87	8596.79
470.05	8816.80
470.23	8828.50
470.41	8676.37
470.59	8727.86
470.77	8887.01
470.95	9011.06
471.14	9041.49
471.32	8580.40
471.50	9090.64
471.68	8978.30
471.86	9184.26
472.04	8961.91
472.22	9385.55
472.40	9020.42
472.58	9202.99
472.77	9336.40
472.95	9415.98
473.13	9685.14
473.31	9261.50
473.49	9533.00
473.67	9446.40
473.85	9589.17
474.03	9437.04
474.21	9799.82
474.39	9799.82
474.57	9858.34
474.75	9912.17
474.93	10022.17
475.12	9891.10
475.30	10078.35
475.48	10132.18
475.66	10237.50
475.84	10024.51
476.02	10031.54
476.20	10237.50
476.38	10420.06
476.56	10604.97
476.74	10354.53
476.92	10504.32
477.10	10480.92
477.28	10857.75
477.46	10476.24
477.64	10693.91
477.82	10977.11
478.00	11052.01
478.18	11012.22
478.36	11204.14
478.54	11393.73
478.72	11400.75
478.90	11578.63
479.08	11499.05
479.26	11662.89
479.44	11452.24
479.62	11744.81
479.80	12013.97
479.98	12009.29
480.16	12081.85
480.34	12224.62
480.52	12187.17
480.70	12367.39
480.88	12060.78
481.06	12269.09
481.24	12416.54
481.41	12606.13
481.59	12683.36
481.77	12795.71
481.95	12786.35
482.13	13011.04
482.31	12854.22
482.49	13142.11
482.67	13500.21
482.85	13654.69
483.03	13495.53
483.21	13752.99
483.39	13561.06
483.57	13760.01
483.74	13907.46
483.92	13975.34
484.10	14073.64
484.28	14288.97
484.46	14319.40
484.64	14803.89
484.82	14504.30
485.00	14705.59
485.18	14810.91
485.35	15007.52
485.53	15276.68
485.71	15255.61
485.89	15424.13
486.07	15089.43
486.25	15452.22
486.43	15384.34
486.61	15660.52
486.78	15796.28
486.96	15822.02
487.14	16208.21
487.32	16126.29
487.50	16390.77
487.68	16372.05
487.85	16332.26
488.03	16819.09
488.21	17186.55
488.39	17081.23
488.57	17123.36
488.75	17172.51
488.92	17336.35
489.10	17504.87
489.28	17476.78
489.46	17839.56
489.64	17788.07
489.81	18111.07
489.99	18195.32
490.17	18022.12
490.35	18616.62
490.53	18644.71
490.70	18618.96
490.88	18635.35
491.06	19105.79
491.24	18560.45
491.41	19075.37
491.59	19288.35
491.77	19356.23
491.95	19520.07
492.13	19293.04
492.30	19704.97
492.48	19620.71
492.66	19941.36
492.84	19960.09
493.01	20072.43
493.19	20051.37
493.37	20233.93
493.54	20355.64
493.72	20475.01
493.90	20606.08
494.08	20676.29
494.25	21013.33
494.43	21081.21
494.61	21291.85
494.79	21329.30
494.96	21160.78
495.14	21546.97
495.32	21701.45
495.49	21717.83
495.67	21937.84
495.85	21717.83
496.02	21820.81
496.20	22249.13
496.38	22324.03
496.55	22391.91
496.73	23063.64
496.91	22815.54
497.09	22621.28
497.26	22960.66
497.44	23297.69
497.62	23075.34
497.79	23718.99
497.97	23482.59
498.14	23733.03
498.32	23641.75
498.50	23608.98
498.67	23543.45
498.85	23866.44
499.03	23917.93
499.20	24306.46
499.38	24416.47
499.56	24299.44
499.73	24308.80
499.91	24528.81
500.08	24528.81
500.26	24421.15
500.44	24994.58
500.61	24989.90
500.79	24641.16
500.97	25270.76
501.14	25394.81
501.32	25289.49
501.49	25010.96
501.67	25291.83
501.84	25394.81
502.02	25713.13
502.20	25504.82
502.37	25790.36
502.55	25860.58
502.72	25898.03
502.90	25982.29
503.07	25848.88
503.25	26267.83
503.43	25921.43
503.60	26544.02
503.78	26410.60
503.95	26380.18
504.13	26558.06
504.30	26923.18
504.48	26462.10
504.65	26419.97
504.83	27087.02
505.01	27400.65
505.18	26998.08
505.36	27353.84
505.53	27267.24
505.71	27274.26
505.88	27480.23
506.06	27253.20
506.23	27501.29
506.41	27402.99
506.58	27674.49
506.76	27590.24
506.93	28105.15
507.11	28123.88
507.28	28009.19
507.46	28156.64
507.63	28252.61
507.81	28261.97
507.98	28381.34
508.16	28479.64
508.33	28680.92
508.50	28687.95
508.68	28276.01
508.85	28821.36
509.03	28709.01
509.20	28765.18
509.38	29340.96
509.55	29247.33
509.73	29275.42
509.90	29766.93
510.08	29167.76
510.25	29118.60
510.42	29668.63
510.60	29811.40
510.77	29975.24
510.95	30015.03
511.12	30148.44
511.30	30043.12
511.47	30054.82
511.64	29825.45
511.82	30291.21
511.99	30476.12
512.17	30426.96
512.34	30272.49
512.51	30925.50
512.69	30974.65
512.86	30696.13
513.04	30801.45
513.21	31072.95
513.38	31192.32
513.56	30845.92
513.73	31283.60
513.90	31096.36
514.08	31274.24
514.25	31674.47
514.43	31449.78
514.60	31555.10
514.77	31508.29
514.95	31875.76
515.12	31700.22
515.29	31421.69
515.47	32128.53
515.64	32322.80
515.81	31882.78
515.99	32081.72
516.16	32685.58
516.33	32205.77
516.51	32226.84
516.68	32629.41
516.85	32500.68
517.03	32573.24
517.20	32921.98
517.37	32381.31
517.54	32891.55
517.72	32884.53
517.89	32624.73
518.06	32737.07
518.24	33041.34
518.41	33256.67
518.58	33074.11
518.75	33039.00
518.93	33195.82
519.10	33715.42
519.27	33743.50
519.45	33167.73
519.62	33273.06
519.79	33572.64
519.96	33256.67
520.14	33713.08
520.31	33394.76
520.48	34265.44
520.65	33778.61
520.83	34455.03
521.00	34466.73
521.17	34249.06
521.34	34527.58
521.52	34614.18
521.69	34338.00
521.86	34630.57
522.03	34632.91
522.20	34864.62
522.38	35250.81
522.55	34761.64
522.72	35070.59
522.89	35218.04
523.07	35314.00
523.24	35391.24
523.41	35276.55
523.58	34993.35
523.75	35229.74
523.92	35297.62
524.10	35445.07
524.27	35470.82
524.44	35618.27
524.61	35629.98
524.78	35896.80
524.96	36282.98
525.13	35974.03
525.30	36409.37
525.47	35716.58
525.64	36168.30
525.81	36177.66
525.98	36275.96
526.16	36140.21
526.33	36074.68
526.50	36676.19
526.67	36421.08
526.84	36458.52
527.01	36587.25
527.18	36711.30
527.36	36954.72
527.53	36950.04
527.70	37497.72
527.87	37170.05
528.04	36481.93
528.21	36966.42
528.38	37031.96
528.55	37514.11
528.72	37333.89
528.89	37256.65
529.07	37266.01
529.24	37312.82
529.41	37656.88
529.58	37464.96
529.75	37738.80
529.92	37361.97
530.09	37364.31
530.26	37425.17
530.43	37631.13
530.60	37532.83
530.77	37654.54
530.94	38080.52
531.11	37560.92
531.28	38258.40
531.46	38113.28
531.63	38031.36
531.80	38326.27
531.97	38550.96
532.14	38075.84
532.31	38419.89
532.48	38600.12
532.65	38532.24
532.82	38469.04
532.99	38719.48
533.16	38527.56
533.33	39019.07
533.50	38522.88
533.67	38438.62
533.84	38916.09
534.01	38735.87
534.18	38576.71
534.35	39318.66
534.52	39199.29
534.69	39716.55
534.86	39409.94
535.03	39278.87
535.20	39210.99
535.37	38941.83
535.54	39543.35
535.71	39229.72
535.88	39349.09
536.05	39250.78
536.22	39367.81
536.38	39915.50
536.55	39381.85
536.72	40011.46
536.89	39311.64
537.06	39695.49
537.23	40187.00
537.40	39342.06
537.57	40149.55
537.74	39934.22
537.91	40177.64
538.08	39882.73
538.25	39681.44
538.42	40072.31
538.59	40528.72
538.75	40329.77
538.92	40261.90
539.09	40477.22
539.26	40545.10
539.43	40184.66
539.60	40456.16
539.77	40645.74
539.94	40877.46
540.11	40437.44
540.28	41137.26
540.44	40844.69
540.61	40414.03
540.78	40594.25
540.95	40992.14
541.12	40961.72
541.29	40676.17
541.46	41029.59
541.62	40886.82
541.79	41146.62
541.96	40711.28
542.13	40856.39
542.30	41280.03
542.47	41436.84
542.63	40966.40
542.80	41453.23
542.97	41645.15
543.14	42078.15
543.31	42017.30
543.48	41649.83
543.64	42232.63
543.81	41961.12
543.98	42225.60
544.15	41993.89
544.32	41911.97
544.48	42288.80
544.65	42103.90
544.82	42438.59
544.99	41734.09
545.16	42246.67
545.32	42202.20
545.49	42457.32
545.66	42735.84
545.83	42696.05
546.00	42602.43
546.16	42586.05
546.33	42534.56
546.50	42623.50
546.67	43122.03
546.83	41916.65
547.00	42824.78
547.17	42843.51
547.34	42550.94
547.50	43115.01
547.67	43124.37
547.84	43409.92
548.00	42721.80
548.17	43388.85
548.34	42965.21
548.51	43126.71
548.67	43150.12
548.84	42972.24
549.01	43320.98
549.18	43213.31
549.34	43393.53
549.51	43562.05
549.68	43555.03
549.84	43438.00
550.01	43239.06
550.18	43491.83
550.34	43271.82
550.51	43463.75
550.68	43758.66
550.84	43400.55
551.01	43545.67
551.18	43332.68
551.34	43529.28
551.51	44095.69
551.68	43533.96
551.84	43882.70
552.01	43969.30
552.18	43910.79
552.34	43758.66
552.51	43880.36
552.68	43503.54
552.84	44355.49
553.01	44165.91
553.18	43721.21
553.34	44055.90
553.51	43779.72
553.67	44418.69
553.84	44247.83
554.01	44226.76
554.17	44608.27
554.34	44304.00
554.51	44030.16
554.67	45284.68
554.84	44610.61
555.00	44472.52
555.17	44498.26
555.33	44612.95
555.50	44678.49
555.67	44664.44
555.83	44741.68
556.00	44882.11
556.16	45202.77
556.33	45106.80
556.50	45553.85
556.66	44584.86
556.83	44493.58
556.99	45085.74
557.16	44975.73
557.32	45251.92
557.49	45120.85
557.65	44399.96
557.82	44898.50
557.98	44868.07
558.15	44935.95
558.32	45148.93
558.48	44872.75
558.65	44954.67
558.81	45380.65
558.98	45265.96
559.14	45427.46
559.31	45315.11
559.47	45193.40
559.64	45244.90
559.80	45282.34
559.97	45570.23
560.13	45492.99
560.30	45521.08
560.46	45312.77
560.63	45425.12
560.79	46014.93
560.96	45801.94
561.12	45317.45
561.29	45296.39
561.45	45516.40
561.61	45673.21
561.78	45361.92
561.94	45734.07
562.11	45350.22
562.27	45593.64
562.44	45382.99
562.60	45916.63
562.77	45975.14
562.93	45502.35
563.10	46040.68
563.26	45724.71
563.42	46281.75
563.59	46150.68
563.75	45867.48
563.92	45867.48
564.08	45977.48
564.24	45837.05
564.41	45869.82
564.57	45881.52
564.74	46199.83
564.90	46354.31
565.07	46059.40
565.23	46169.41
565.39	46050.04
565.56	46087.49
565.72	46038.34
565.88	46218.56
566.05	45839.39
566.21	46026.63
566.38	46059.40
566.54	46263.03
566.70	46380.06
566.87	45881.52
567.03	46033.66
567.19	46515.81
567.36	45937.69
567.52	46361.33
567.68	46651.56
567.85	46770.93
568.01	46527.51
568.17	46700.71
568.34	46389.42
568.50	46506.44
568.66	46146.00
568.83	46665.60
568.99	46387.08
569.15	45937.69
569.32	46579.00
569.48	46433.89
569.64	46955.83
569.81	46735.82
569.97	46344.95
570.13	46557.94
570.30	46747.52
570.46	46459.63
570.62	46515.81
570.78	46817.74
570.95	46784.97
571.11	46827.10
571.27	46277.07
571.43	46239.62
571.60	46417.50
571.76	46611.77
571.92	46539.21
572.09	46560.28
572.25	46733.48
572.41	46899.65
572.57	46684.33
572.74	47208.61
572.90	46504.10
573.06	46574.32
573.22	46429.21
573.38	47096.26
573.55	46979.23
573.71	47351.38
573.87	47423.93
574.03	46759.22
574.20	47107.96
574.36	46780.29
574.52	46546.23
574.68	46651.56
574.84	47185.20
575.01	46815.40
575.17	47264.78
575.33	47381.80
575.49	47068.17
575.65	47000.30
575.82	47327.97
575.98	46841.14
576.14	47253.08
576.30	47325.63
576.46	47229.67
576.62	46515.81
576.79	46770.93
576.95	46454.95
577.11	46663.26
577.27	47166.48
577.43	46768.58
577.59	46986.25
577.75	46852.84
577.92	46997.96
578.08	47114.98
578.24	47100.94
578.40	47061.15
578.56	47203.92
578.72	46539.21
578.88	47171.16
579.04	47096.26
579.21	46550.91
579.37	47007.32
579.53	47178.18
579.69	47054.13
579.85	46639.86
580.01	47250.74
580.17	47040.09
580.33	47229.67
580.49	47084.56
580.65	47339.68
580.82	47000.30
580.98	47012.00
581.14	46763.90
581.30	47227.33
581.46	47021.36
581.62	46857.52
581.78	46995.62
581.94	47278.82
582.10	47395.85
582.26	47203.92
582.42	47152.43
582.58	46995.62
582.74	47370.10
582.90	47236.69
583.06	47592.45
583.22	47065.83
583.38	47480.11
583.54	47248.39
583.70	47180.52
583.86	47545.64
584.02	47206.26
584.18	47573.73
584.34	47519.90
584.50	47725.86
584.66	47597.13
584.82	47643.94
584.98	47657.99
585.14	47257.76
585.30	47295.21
585.46	47344.36
585.62	46866.89
585.78	47449.68
585.94	47019.02
586.10	47526.92
586.26	47304.57
586.42	46972.21
586.58	47173.50
586.74	47166.48
586.90	47437.98
587.06	46855.18
587.22	47437.98
587.38	47194.56
587.54	47487.13
587.70	47957.58
587.86	47430.96
588.02	47384.15
588.18	47559.69
588.34	47498.83
588.49	47213.29
588.65	47152.43
588.81	47484.79
588.97	47746.93
589.13	47629.90
589.29	47487.13
589.45	47524.58
589.61	47737.57
589.77	47463.72
589.93	47835.87
