SpectraSuite Data File
++++++++++++++++++++++++++++++++++++
Date: Fri Oct 25 10:48:10 EDT 2013
User: price-jones
Dark Spectrum Present: No
Reference Spectrum Present: No
Number of Sampled Component Spectra: 1
Spectrometers: USB2+H05261
Integration Time (usec): 100000 (USB2+H05261)
Spectra Averaged: 1 (USB2+H05261)
Boxcar Smoothing: 0 (USB2+H05261)
Correct for Electrical Dark: No (USB2+H05261)
Strobe/Lamp Enabled: No (USB2+H05261)
Correct for Detector Non-linearity: No (USB2+H05261)
Correct for Stray Light: No (USB2+H05261)
Number of Pixels in Processed Spectrum: 2048
>>>>>Begin Processed Spectral Data<<<<<
365.73	117.03
365.92	117.03
366.12	117.03
366.32	107.66
366.52	0.00
366.72	72.56
366.91	93.62
367.11	70.22
367.31	46.81
367.51	74.90
367.70	93.62
367.90	81.92
368.10	0.00
368.30	91.28
368.49	4.68
368.69	110.01
368.89	67.88
369.09	63.19
369.28	65.54
369.48	100.64
369.68	126.39
369.87	131.07
370.07	98.30
370.27	159.16
370.47	198.95
370.66	395.55
370.86	482.15
371.06	500.87
371.25	470.45
371.45	454.06
371.65	498.53
371.84	500.87
372.04	505.56
372.24	442.36
372.44	477.47
372.63	493.85
372.83	470.45
373.03	531.30
373.22	491.51
373.42	435.34
373.62	599.18
373.81	489.17
374.01	594.50
374.21	559.39
374.40	531.30
374.60	535.98
374.79	528.96
374.99	559.39
375.19	498.53
375.38	580.45
375.58	580.45
375.78	613.22
375.97	517.26
376.17	547.69
376.37	526.62
376.56	627.26
376.76	533.64
376.95	543.00
377.15	538.32
377.35	606.20
377.54	594.50
377.74	559.39
377.93	636.63
378.13	592.16
378.33	655.35
378.52	568.75
378.72	589.82
378.91	571.09
379.11	596.84
379.31	580.45
379.50	599.18
379.70	615.56
379.89	683.44
380.09	634.29
380.28	603.86
380.48	727.91
380.68	617.90
380.87	645.99
381.07	678.76
381.26	685.78
381.46	660.03
381.65	723.23
381.85	688.12
382.04	667.05
382.24	704.50
382.43	631.94
382.63	685.78
382.83	767.70
383.02	699.82
383.22	791.10
383.41	674.07
383.61	669.39
383.80	779.40
384.00	739.61
384.19	702.16
384.39	753.65
384.58	737.27
384.78	793.44
384.97	753.65
385.17	716.20
385.36	847.27
385.56	847.27
385.75	734.93
385.95	674.07
386.14	788.76
386.34	823.87
386.53	861.32
386.72	795.78
386.92	863.66
387.11	779.40
387.31	765.36
387.50	807.48
387.70	751.31
387.89	875.36
388.09	744.29
388.28	791.10
388.48	812.17
388.67	980.68
388.86	826.21
389.06	910.47
389.25	887.06
389.45	929.19
389.64	863.66
389.84	919.83
390.03	971.32
390.22	910.47
390.42	908.13
390.61	961.96
390.81	936.21
391.00	992.39
391.19	940.90
391.39	922.17
391.58	1039.20
391.78	844.93
391.97	924.51
392.16	959.62
392.36	980.68
392.55	994.73
392.75	1064.94
392.94	1004.09
393.13	931.53
393.33	926.85
393.52	1015.79
393.71	1006.43
393.91	1004.09
394.10	1069.62
394.29	1095.37
394.49	999.41
394.68	1034.52
394.88	1071.97
395.07	1083.67
395.26	1071.97
395.46	1057.92
395.65	1109.41
395.84	1158.57
396.04	1121.12
396.23	1121.12
396.42	1149.20
396.62	1116.44
396.81	1116.44
397.00	1158.57
397.19	1097.71
397.39	1156.22
397.58	1245.16
397.77	1261.55
397.97	1315.38
398.16	1158.57
398.35	1355.17
398.55	1259.21
398.74	1331.76
398.93	1341.13
399.12	1256.87
399.32	1359.85
399.51	1310.70
399.70	1427.73
399.90	1439.43
400.09	1380.92
400.28	1373.89
400.47	1397.30
400.67	1348.15
400.86	1479.22
401.05	1521.35
401.24	1416.02
401.44	1504.96
401.63	1465.18
401.82	1483.90
402.01	1535.39
402.21	1523.69
402.40	1486.24
402.59	1549.43
402.78	1528.37
402.97	1549.43
403.17	1565.82
403.36	1612.63
403.55	1568.16
403.74	1547.09
403.93	1703.91
404.13	1636.03
404.32	1682.85
404.51	1720.29
404.70	1652.42
404.89	1629.01
405.09	1760.08
405.28	1802.21
405.47	1710.93
405.66	1834.98
405.85	1776.47
406.05	1727.32
406.24	1703.91
406.43	1729.66
406.62	1767.10
406.81	1879.45
407.00	1858.39
407.20	1802.21
407.39	1858.39
407.58	1856.04
407.77	1874.77
407.96	1872.43
408.15	1832.64
408.34	2040.95
408.54	1944.99
408.73	2040.95
408.92	1994.14
409.11	1970.73
409.30	2022.22
409.49	1977.75
409.68	2022.22
409.87	2064.35
410.07	2099.46
410.26	2181.38
410.45	2108.82
410.64	1959.03
410.83	2129.89
411.02	2251.60
411.21	2253.94
411.40	2312.45
411.59	2361.60
411.78	2314.79
411.98	2239.89
412.17	2305.43
412.36	2331.17
412.55	2392.03
412.74	2476.29
412.93	2366.28
413.12	2209.47
413.31	2410.75
413.50	2356.92
413.69	2492.67
413.88	2532.46
414.07	2509.05
414.26	2562.89
414.45	2619.06
414.64	2663.53
414.83	2698.64
415.02	2637.78
415.22	2719.70
415.41	2771.19
415.60	2841.41
415.79	2820.35
415.98	2913.97
416.17	2972.48
416.36	2726.72
416.55	2818.00
416.74	3040.36
416.93	2909.29
417.12	2970.14
417.31	2916.31
417.50	2890.56
417.69	3049.72
417.88	3126.96
418.07	3080.14
418.26	3066.10
418.45	3199.51
418.64	3145.68
418.83	3171.43
419.02	3133.98
419.21	3225.26
419.39	3176.11
419.58	3126.96
419.77	3030.99
419.96	3260.37
420.15	3346.97
420.34	3246.32
420.53	3344.63
420.72	3447.61
420.91	3365.69
421.10	3232.28
421.29	3372.71
421.48	3358.67
421.67	3417.18
421.86	3302.50
422.05	3391.44
422.24	3379.73
422.43	3353.99
422.61	3463.99
422.80	3440.59
422.99	3529.53
423.18	3571.66
423.37	3585.70
423.56	3555.27
423.75	3445.27
423.94	3414.84
424.13	3375.05
424.32	3346.97
424.50	3475.70
424.69	3669.96
424.88	3536.55
425.07	3471.01
425.26	3555.27
425.45	3407.82
425.64	3471.01
425.83	3496.76
426.01	3548.25
426.20	3508.46
426.39	3538.89
426.58	3744.86
426.77	3651.24
426.96	3632.51
427.15	3555.27
427.33	3545.91
427.52	3562.30
427.71	3695.71
427.90	3674.64
428.09	3585.70
428.28	3695.71
428.46	3700.39
428.65	3812.73
428.84	3840.82
429.03	3765.92
429.22	3691.02
429.40	3840.82
429.59	3808.05
429.78	3779.97
429.97	3705.07
430.16	3716.77
430.34	3852.52
430.53	3950.82
430.72	3911.04
430.91	3854.86
431.10	3950.82
431.28	4070.19
431.47	4095.94
431.66	4002.32
431.85	3985.93
432.03	4173.18
432.22	4074.87
432.41	4173.18
432.60	4243.39
432.79	4297.22
432.97	4315.95
433.16	4107.64
433.35	4217.65
433.54	4285.52
433.72	4257.43
433.91	4273.82
434.10	4222.33
434.28	4248.07
434.47	4329.99
434.66	4409.57
434.85	4414.25
435.03	4444.68
435.22	4493.83
435.41	4758.31
435.59	4461.06
435.78	4454.04
435.97	4498.51
436.16	4638.94
436.34	4475.10
436.53	4603.83
436.72	4617.88
436.90	4685.75
437.09	4608.51
437.28	4643.62
437.46	4573.41
437.65	4748.95
437.84	4610.86
438.02	4678.73
438.21	4734.90
438.40	4643.62
438.58	4887.04
438.77	4917.47
438.96	4784.06
439.14	4873.00
439.33	4959.60
439.52	5018.11
439.70	4983.00
439.89	5064.92
440.08	5118.75
440.26	5128.11
440.45	5179.61
440.63	5345.78
440.82	5273.23
441.01	5259.18
441.19	5338.76
441.38	5460.47
441.57	5263.86
441.75	5549.41
441.94	5661.76
442.12	5589.20
442.31	5612.60
442.50	5364.51
442.68	5638.35
442.87	5701.54
443.05	5619.63
443.24	5650.05
443.43	5659.42
443.61	5741.33
443.80	5870.06
443.98	5621.97
444.17	5575.16
444.35	5659.42
444.54	5729.63
444.73	5881.77
444.91	5778.78
445.10	5881.77
445.28	5851.34
445.47	5806.87
445.65	5874.74
445.84	5741.33
446.02	5998.79
446.21	5741.33
446.39	5909.85
446.58	5898.15
446.77	6059.65
446.95	5980.07
447.14	5734.31
447.32	6099.44
447.51	6078.37
447.69	5942.62
447.88	5870.06
448.06	5970.71
448.25	5898.15
448.43	6155.61
448.62	5996.45
448.80	5823.25
448.99	6033.90
449.17	5989.43
449.36	6069.01
449.54	6036.24
449.73	6167.31
449.91	6202.42
450.10	6347.53
450.28	6558.18
450.46	6420.09
450.65	6389.66
450.83	6394.34
451.02	6314.77
451.20	6345.19
451.39	6361.58
451.57	6237.53
451.76	6352.21
451.94	6403.71
452.13	6485.62
452.31	6410.73
452.49	6546.48
452.68	6450.52
452.86	6361.58
453.05	6593.29
453.23	6478.60
453.42	6523.07
453.60	6595.63
453.78	6649.46
453.97	6520.73
454.15	6569.88
454.34	6530.09
454.52	6684.57
454.70	6670.53
454.89	6750.10
455.07	6771.17
455.26	6754.79
455.44	6813.30
455.62	6686.91
455.81	6806.28
455.99	7185.44
456.17	7026.29
456.36	7033.31
456.54	7000.54
456.73	7122.25
456.91	7208.85
457.09	7211.19
457.28	7246.30
457.46	7152.68
457.64	7391.41
457.83	7353.96
458.01	7056.72
458.19	7337.58
458.38	7265.02
458.56	7304.81
458.74	7332.90
458.93	7339.92
459.11	7461.63
459.29	7485.03
459.48	7538.87
459.66	7485.03
459.84	7440.56
460.03	7536.52
460.21	7555.25
460.39	7688.66
460.57	7550.57
460.76	7705.04
460.94	7676.96
461.12	7691.00
461.31	7686.32
461.49	7810.37
461.67	7779.94
461.85	7915.69
462.04	7742.49
462.22	8280.82
462.40	7934.42
462.59	7906.33
462.77	8042.08
462.95	7843.14
463.13	7981.23
463.32	8116.98
463.50	8063.15
463.68	8095.91
463.86	7880.58
464.05	7964.84
464.23	8105.28
464.41	8219.96
464.59	7943.78
464.78	8327.63
464.96	8156.77
465.14	7889.95
465.32	8234.00
465.50	8297.20
465.69	8432.95
465.87	8243.37
466.05	8271.45
466.23	8053.78
466.41	8353.37
466.60	8498.49
466.78	8325.29
466.96	8245.71
467.14	8322.94
467.32	8306.56
467.51	8444.65
467.69	8435.29
467.87	8599.13
468.05	8580.40
468.23	8645.94
468.41	8482.10
468.60	8627.21
468.78	8676.37
468.96	8690.41
469.14	8833.18
469.32	8800.41
469.50	8582.74
469.69	8720.84
469.87	8795.73
470.05	8842.54
470.23	8854.25
470.41	8800.41
470.59	8849.57
470.77	8952.55
470.95	9048.51
471.14	9046.17
471.32	9022.77
471.50	9181.92
471.68	9284.91
471.86	9277.88
472.04	9254.48
472.22	9378.53
472.40	9294.27
472.58	9240.44
472.77	9186.60
472.95	9540.02
473.13	9844.29
473.31	9607.90
473.49	9331.72
473.67	9542.36
473.85	9603.22
474.03	9783.44
474.21	9844.29
474.39	9830.25
474.57	9879.40
474.75	10181.33
474.93	10181.33
475.12	9872.38
475.30	10293.68
475.48	10125.16
475.66	10399.00
475.84	10310.06
476.02	10274.95
476.20	10359.21
476.38	10436.45
476.56	10925.62
476.74	10672.84
476.92	10665.82
477.10	10602.63
477.28	10775.83
477.46	10853.06
477.64	10937.32
477.82	11019.24
478.00	11133.93
478.18	11304.79
478.36	11307.13
478.54	11445.22
478.72	11452.24
478.90	11901.62
479.08	11613.74
479.26	11925.03
479.44	11772.89
479.62	11978.86
479.80	11950.78
479.98	12271.43
480.16	12259.73
480.34	12248.02
480.52	12458.67
480.70	12479.74
480.88	12507.82
481.06	12484.42
481.24	12360.37
481.41	12828.48
481.59	12751.24
481.77	12964.23
481.95	12870.61
482.13	13195.94
482.31	13053.17
482.49	13626.60
482.67	13415.95
482.85	13650.00
483.03	13647.66
483.21	13738.94
483.39	14090.02
483.57	13980.02
483.74	14003.43
483.92	14174.28
484.10	14071.30
484.28	14279.61
484.46	14590.90
484.64	15105.82
484.82	14721.97
485.00	14633.03
485.18	15033.26
485.35	14916.23
485.53	14871.76
485.71	15094.11
485.89	14946.66
486.07	15176.03
486.25	15253.27
486.43	15609.03
486.61	15669.89
486.78	15676.91
486.96	16011.60
487.14	16276.09
487.32	16308.85
487.50	16517.16
487.68	16299.49
487.85	16615.46
488.03	16762.92
488.21	17018.04
488.39	16753.55
488.57	16898.67
488.75	17158.47
488.92	17582.10
489.10	17668.70
489.28	17661.68
489.46	17589.13
489.64	17989.36
489.81	18204.69
489.99	18326.39
490.17	18333.42
490.35	18743.01
490.53	18813.23
490.70	18616.62
490.88	18546.40
491.06	18801.52
491.24	18633.00
491.41	18932.59
491.59	18696.20
491.77	19236.86
491.95	19143.24
492.13	19644.12
492.30	19651.14
492.48	20086.48
492.66	19733.06
492.84	19812.63
493.01	20016.26
493.19	20240.95
493.37	20563.95
493.54	20559.27
493.72	20622.46
493.90	20685.65
494.08	20802.68
494.25	20947.79
494.43	21163.12
494.61	21282.49
494.79	21366.75
494.96	21132.70
495.14	21348.03
495.32	21701.45
495.49	21717.83
495.67	21970.61
495.85	22113.38
496.02	22422.33
496.20	22157.85
496.38	22314.67
496.55	22513.61
496.73	23065.98
496.91	22448.08
497.09	22579.15
497.26	22803.84
497.44	22948.95
497.62	23037.89
497.79	23513.02
497.97	23112.79
498.14	23641.75
498.32	23424.08
498.50	23599.62
498.67	23960.06
498.85	23730.69
499.03	24231.57
499.20	23730.69
499.38	24156.67
499.56	24313.48
499.73	24442.21
499.91	24533.50
500.08	24821.38
500.26	24343.91
500.44	24713.72
500.61	24989.90
500.79	24549.88
500.97	24987.56
501.14	25081.18
501.32	25326.94
501.49	25001.60
501.67	25666.31
501.84	25226.29
502.02	25427.58
502.20	25483.75
502.37	25500.14
502.55	25663.97
502.72	25818.45
502.90	25883.98
503.07	25883.98
503.25	26038.46
503.43	25961.22
503.60	26094.63
503.78	26221.02
503.95	26281.88
504.13	26340.39
504.30	26651.68
504.48	26324.01
504.65	26494.86
504.83	26572.10
505.01	26939.57
505.18	26930.20
505.36	27197.02
505.53	27035.53
505.71	27124.47
505.88	27407.67
506.06	27187.66
506.23	27536.40
506.41	27061.27
506.58	27737.69
506.76	27461.51
506.93	27735.35
507.11	27770.46
507.28	28009.19
507.46	27627.68
507.63	28093.45
507.81	27740.03
507.98	27821.95
508.16	27889.82
508.33	28453.89
508.50	28112.17
508.68	28360.27
508.85	28746.46
509.03	28496.02
509.20	28964.13
509.38	28973.49
509.55	28636.45
509.73	28690.29
509.90	29214.57
510.08	29146.69
510.25	29153.71
510.42	29034.35
510.60	29427.56
510.77	29216.91
510.95	29804.38
511.12	29418.19
511.30	29640.54
511.47	30321.64
511.64	30052.48
511.82	30003.33
511.99	29626.50
512.17	30333.34
512.34	29869.92
512.51	30328.66
512.69	30604.84
512.86	30307.60
513.04	30492.50
513.21	30527.61
513.38	30593.14
513.56	30649.32
513.73	30433.99
513.90	30658.68
514.08	30635.27
514.25	30916.14
514.43	30359.09
514.60	31143.17
514.77	30962.95
514.95	31173.60
515.12	31061.25
515.29	31154.87
515.47	31901.50
515.64	31742.35
515.81	31229.77
515.99	31789.16
516.16	31971.72
516.33	31548.08
516.51	31707.24
516.68	31505.95
516.85	31723.62
517.03	32107.47
517.20	31323.39
517.37	31835.97
517.54	32140.24
517.72	32144.92
517.89	31775.11
518.06	32348.54
518.24	32222.16
518.41	31941.29
518.58	32591.96
518.75	32226.84
518.93	32900.91
519.10	32388.33
519.27	32814.31
519.45	32823.67
519.62	33006.23
519.79	32968.79
519.96	32737.07
520.14	33563.28
520.31	32608.34
520.48	33366.68
520.65	33184.12
520.83	33289.44
521.00	33713.08
521.17	33422.85
521.34	33479.02
521.52	33975.22
521.69	33661.58
521.86	33865.21
522.03	33919.04
522.20	34113.31
522.38	34064.16
522.55	34459.71
522.72	33942.45
522.89	34080.54
523.07	34574.39
523.24	33963.51
523.41	34469.07
523.58	34270.12
523.75	35306.98
523.92	34532.26
524.10	34682.06
524.27	34873.98
524.44	34909.09
524.61	35384.22
524.78	34834.19
524.96	35206.34
525.13	35222.72
525.30	35234.42
525.47	35295.28
525.64	35189.95
525.81	35126.76
525.98	35332.73
526.16	34955.90
526.33	35639.34
526.50	35505.93
526.67	35501.25
526.84	35449.75
527.01	35227.40
527.18	35557.42
527.36	35826.58
527.53	35725.94
527.70	36072.34
527.87	36362.56
528.04	35938.93
528.21	36224.47
528.38	35974.03
528.55	36224.47
528.72	36346.18
528.89	36748.75
529.07	36488.95
529.24	36030.21
529.41	36336.82
529.58	36259.58
529.75	36278.30
529.92	36872.80
530.09	36364.90
530.26	36748.75
530.43	36549.81
530.60	36608.32
530.77	36535.76
530.94	36851.73
531.11	36638.75
531.28	37188.77
531.46	36959.40
531.63	37188.77
531.80	37132.60
531.97	36748.75
532.14	37181.75
532.31	37038.98
532.48	37394.74
532.65	37354.95
532.82	37258.99
532.99	37694.33
533.16	37223.88
533.33	37308.14
533.50	37979.87
533.67	37757.52
533.84	37268.35
534.01	37769.22
534.18	37965.83
534.35	38469.04
534.52	37792.63
534.69	37940.08
534.86	37567.94
535.03	38068.81
535.20	38127.33
535.37	38267.76
535.54	38431.60
535.71	38644.59
535.88	38644.59
536.05	38438.62
536.22	38033.71
536.38	38000.94
536.55	38253.72
536.72	38396.49
536.89	38698.42
537.06	38293.50
537.23	38670.33
537.40	38258.40
537.57	38808.42
537.74	38885.66
537.91	39173.55
538.08	38918.43
538.25	38110.94
538.42	38803.74
538.59	39185.25
538.75	38604.80
538.92	38983.96
539.09	39459.09
539.26	38862.26
539.43	39421.64
539.60	39367.81
539.77	38979.28
539.94	39072.90
540.11	38988.64
540.28	39566.76
540.44	39227.38
540.61	39533.99
540.78	39409.94
540.95	39171.21
541.12	38913.75
541.29	39452.07
541.46	39880.39
541.62	39604.20
541.79	39697.83
541.96	39285.89
542.13	39557.39
542.30	40184.66
542.47	39978.69
542.63	39658.04
542.80	40161.25
542.97	40453.82
543.14	40556.80
543.31	40582.55
543.48	40428.07
543.64	40428.07
543.81	40624.68
543.98	40236.15
544.15	40545.10
544.32	40545.10
544.48	41038.95
544.65	40762.77
544.82	40898.52
544.99	40486.59
545.16	40748.73
545.32	40730.00
545.49	40910.22
545.66	41170.02
545.83	40828.30
546.00	40954.69
546.16	41141.94
546.33	41125.55
546.50	40669.15
546.67	40804.90
546.83	40781.49
547.00	40559.14
547.17	41038.95
547.34	40912.56
547.50	41509.40
547.67	41265.99
547.84	41542.17
548.00	41462.59
548.17	41610.04
548.34	41687.28
548.51	41483.66
548.67	41387.69
548.84	41635.79
549.01	41535.15
549.18	41502.38
549.34	41649.83
549.51	42014.96
549.68	42040.70
549.84	41855.80
550.01	41757.50
550.18	42017.30
550.34	42120.28
550.51	42220.92
550.68	41696.64
550.84	41633.45
551.01	42099.22
551.18	41675.58
551.34	42064.11
551.51	42113.26
551.68	42401.14
551.84	42019.64
552.01	42284.12
552.18	42284.12
552.34	42181.13
552.51	42253.69
552.68	42188.16
552.84	42490.09
553.01	42806.06
553.18	42389.44
553.34	42391.78
553.51	42089.85
553.67	42759.25
553.84	42473.70
554.01	42295.82
554.17	42677.33
554.34	42745.20
554.51	42684.35
554.67	42777.97
554.84	43012.02
555.00	42384.76
555.17	42667.97
555.33	42185.82
555.50	42649.24
555.67	43206.29
555.83	42815.42
556.00	43049.47
556.16	43346.72
556.33	42679.67
556.50	43103.31
556.66	43508.22
556.83	42564.98
556.99	43119.69
557.16	43309.27
557.32	42885.64
557.49	42752.23
557.65	42621.16
557.82	43133.73
557.98	42789.67
558.15	43037.77
558.32	43391.19
558.48	43292.89
558.65	43019.05
558.81	43248.42
558.98	43089.26
559.14	43332.68
559.31	42967.55
559.47	43393.53
559.64	43543.33
559.80	43452.05
559.97	43878.02
560.13	43143.09
560.30	43267.14
560.46	43199.27
560.63	43091.60
560.79	43552.69
560.96	43587.80
561.12	43667.37
561.29	43966.96
561.45	43793.76
561.61	43660.35
561.78	43669.72
561.94	43353.74
562.11	43344.38
562.27	43313.95
562.44	43208.63
562.60	44030.16
562.77	43828.87
562.93	43587.80
563.10	43931.86
563.26	43267.14
563.42	43931.86
563.59	43730.57
563.75	43360.76
563.92	43688.44
564.08	43924.83
564.24	43896.75
564.41	43910.79
564.57	43716.53
564.74	43831.21
564.90	43672.06
565.07	43842.92
565.23	43840.57
565.39	43798.44
565.56	44292.30
565.72	43889.73
565.88	44083.99
566.05	43742.27
566.21	43650.99
566.38	43997.39
566.54	43379.49
566.70	44289.96
566.87	44409.32
567.03	43957.60
567.19	44442.09
567.36	44091.01
567.52	44013.77
567.68	44346.13
567.85	44020.80
568.01	43966.96
568.17	44016.11
568.34	44292.30
568.50	43913.13
568.66	43723.55
568.83	44196.34
568.99	43821.85
569.15	44170.59
569.32	44041.86
569.48	44006.75
569.64	44170.59
569.81	44268.89
569.97	44404.64
570.13	44282.94
570.30	44259.53
570.46	44177.61
570.62	44055.90
570.78	44006.75
570.95	44023.14
571.11	44116.76
571.27	44210.38
571.43	44432.73
571.60	44308.68
571.76	44463.16
571.92	44388.26
572.09	44341.45
572.25	44491.24
572.41	44397.62
572.57	44250.17
572.74	44713.59
572.90	44563.80
573.06	44238.47
573.22	44516.99
573.38	44755.72
573.55	44224.42
573.71	44399.96
573.87	44165.91
574.03	44151.87
574.20	44346.13
574.36	44683.17
574.52	44472.52
574.68	44678.49
574.84	44409.32
575.01	44271.23
575.17	44280.60
575.33	44177.61
575.49	44549.76
575.65	44378.90
575.82	44692.53
575.98	44790.83
576.14	44671.46
576.30	44168.25
576.46	44364.85
576.62	44039.52
576.79	44610.61
576.95	44474.86
577.11	44353.15
577.27	44554.44
577.43	44980.42
577.59	44474.86
577.75	44257.19
577.92	44458.48
578.08	44128.46
578.24	44133.14
578.40	44561.46
578.56	44734.66
578.72	44559.12
578.88	44722.96
579.04	44608.27
579.21	44294.64
579.37	44451.45
579.53	44147.18
579.69	44435.07
579.85	44629.34
580.01	44619.97
580.17	44652.74
580.33	44968.71
580.49	44360.17
580.65	44795.51
580.82	44638.70
580.98	44715.93
581.14	44294.64
581.30	45017.86
581.46	44748.70
581.62	44545.08
581.78	44748.70
581.94	45099.78
582.10	44512.31
582.26	44708.91
582.42	44636.36
582.58	44671.46
582.74	44697.21
582.90	44610.61
583.06	45069.36
583.22	44954.67
583.38	44500.61
583.54	44069.95
583.70	44905.52
583.86	44725.30
584.02	44346.13
584.18	45350.22
584.34	44643.38
584.50	44645.72
584.66	44563.80
584.82	44776.79
584.98	44891.48
585.14	44765.09
585.30	44657.42
585.46	44797.85
585.62	44254.85
585.78	44484.22
585.94	44549.76
586.10	44945.31
586.26	44421.03
586.42	44844.66
586.58	44643.38
586.74	44376.56
586.90	44760.40
587.06	44676.15
587.22	44690.19
587.38	44509.97
587.54	45106.80
587.70	45027.23
587.86	44865.73
588.02	44741.68
588.18	44783.81
588.34	44882.11
588.49	44491.24
588.65	44858.71
588.81	44655.08
588.97	44362.51
589.13	44088.67
589.29	44718.28
589.45	44762.75
589.61	44563.80
589.77	44772.11
589.93	44708.91
590.08	44994.46
590.24	44919.56
