SpectraSuite Data File
++++++++++++++++++++++++++++++++++++
Date: Fri Oct 25 11:23:17 EDT 2013
User: price-jones
Dark Spectrum Present: No
Reference Spectrum Present: No
Number of Sampled Component Spectra: 1
Spectrometers: USB2+H05261
Integration Time (usec): 100000 (USB2+H05261)
Spectra Averaged: 1 (USB2+H05261)
Boxcar Smoothing: 0 (USB2+H05261)
Correct for Electrical Dark: No (USB2+H05261)
Strobe/Lamp Enabled: No (USB2+H05261)
Correct for Detector Non-linearity: No (USB2+H05261)
Correct for Stray Light: No (USB2+H05261)
Number of Pixels in Processed Spectrum: 2048
>>>>>Begin Processed Spectral Data<<<<<
365.73	224.69
365.92	224.69
366.12	224.69
366.32	175.54
366.52	126.39
366.72	65.54
366.91	91.28
367.11	175.54
367.31	133.41
367.51	149.79
367.70	173.20
367.90	53.83
368.10	163.84
368.30	98.30
368.49	149.79
368.69	180.22
368.89	154.48
369.09	133.41
369.28	72.56
369.48	182.56
369.68	163.84
369.87	175.54
370.07	191.92
370.27	259.80
370.47	358.10
370.66	610.88
370.86	606.20
371.06	601.52
371.25	662.37
371.45	678.76
371.65	737.27
371.84	681.10
372.04	671.73
372.24	695.14
372.44	716.20
372.63	667.05
372.83	774.72
373.03	772.38
373.22	692.80
373.42	816.85
373.62	758.33
373.81	753.65
374.01	737.27
374.21	814.51
374.40	816.85
374.60	830.89
374.79	819.19
374.99	840.25
375.19	786.42
375.38	868.34
375.58	805.14
375.78	849.61
375.97	943.24
376.17	891.74
376.37	926.85
376.56	882.38
376.76	894.08
376.95	823.87
377.15	1001.75
377.35	929.19
377.54	884.72
377.74	908.13
377.93	858.98
378.13	938.55
378.33	912.81
378.52	950.26
378.72	952.60
378.91	999.41
379.11	997.07
379.31	990.05
379.50	847.27
379.70	943.24
379.89	1008.77
380.09	1013.45
380.28	990.05
380.48	1039.20
380.68	908.13
380.87	978.34
381.07	997.07
381.26	973.66
381.46	943.24
381.65	1046.22
381.85	978.34
382.04	1008.77
382.24	1130.48
382.43	987.71
382.63	1020.47
382.83	1081.33
383.02	1095.37
383.22	1184.31
383.41	1069.62
383.61	1125.80
383.80	1074.31
384.00	1076.65
384.19	1130.48
384.39	1200.69
384.58	1184.31
384.78	1142.18
384.97	1116.44
385.17	1132.82
385.36	1114.10
385.56	1163.25
385.75	1256.87
385.95	1254.53
386.14	1231.12
386.34	1097.71
386.53	1123.46
386.72	1205.38
386.92	1240.48
387.11	1219.42
387.31	1277.93
387.50	1179.63
387.70	1263.89
387.89	1259.21
388.09	1256.87
388.28	1306.02
388.48	1364.53
388.67	1259.21
388.86	1273.25
389.06	1296.66
389.25	1352.83
389.45	1277.93
389.64	1313.04
389.84	1383.26
390.03	1378.58
390.22	1420.71
390.42	1451.13
390.61	1324.74
390.81	1350.49
391.00	1345.81
391.19	1425.39
391.39	1507.30
391.58	1446.45
391.78	1528.37
391.97	1423.05
392.16	1514.33
392.36	1586.88
392.55	1526.03
392.75	1572.84
392.94	1511.99
393.13	1519.01
393.33	1575.18
393.52	1526.03
393.71	1540.07
393.91	1530.71
394.10	1563.48
394.29	1570.50
394.49	1549.43
394.68	1671.14
394.88	1743.70
395.07	1706.25
395.26	1633.69
395.46	1722.63
395.65	1762.42
395.84	1792.85
396.04	1797.53
396.23	1767.10
396.42	1736.68
396.62	1769.44
396.81	1774.13
397.00	1769.44
397.19	1795.19
397.39	1694.55
397.58	1891.15
397.77	1809.23
397.97	1900.52
398.16	1825.62
398.35	1919.24
398.55	1935.62
398.74	1849.02
398.93	1907.54
399.12	1893.49
399.32	1842.00
399.51	1949.67
399.70	1998.82
399.90	1963.71
400.09	1968.39
400.28	2066.69
400.47	2087.76
400.67	2026.90
400.86	2066.69
401.05	2106.48
401.24	2080.74
401.44	2085.42
401.63	2209.47
401.82	2111.16
402.01	2153.29
402.21	2211.81
402.40	2169.68
402.59	2230.53
402.78	2179.04
402.97	2188.40
403.17	2202.44
403.36	2331.17
403.55	2361.60
403.74	2370.96
403.93	2363.94
404.13	2333.51
404.32	2319.47
404.51	2406.07
404.70	2396.71
404.89	2450.54
405.09	2516.08
405.28	2478.63
405.47	2385.01
405.66	2574.59
405.85	2628.42
406.05	2427.14
406.24	2520.76
406.43	2586.29
406.62	2654.17
406.81	2649.49
407.00	2562.89
407.20	2532.46
407.39	2689.28
407.58	2757.15
407.77	2782.90
407.96	2731.41
408.15	2801.62
408.34	2710.34
408.54	2902.26
408.73	2939.71
408.92	2855.45
409.11	2883.54
409.30	3061.42
409.49	2878.86
409.68	2928.01
409.87	2920.99
410.07	3080.14
410.26	2965.46
410.45	2951.42
410.64	3096.53
410.83	3171.43
411.02	3040.36
411.21	3236.96
411.40	3103.55
411.59	3288.45
411.78	3206.53
411.98	3070.78
412.17	3262.71
412.36	3262.71
412.55	3447.61
412.74	3302.50
412.93	3405.48
413.12	3363.35
413.31	3524.85
413.50	3419.52
413.69	3471.01
413.88	3588.04
414.07	3592.72
414.26	3768.26
414.45	3625.49
414.64	3688.68
414.83	3761.24
415.02	3808.05
415.22	3815.07
415.41	3885.29
415.60	3878.27
415.79	3906.35
415.98	4074.87
416.17	3985.93
416.36	4016.36
416.55	4065.51
416.74	4109.98
416.93	4170.83
417.12	4007.00
417.31	4145.09
417.50	4273.82
417.69	4334.67
417.88	4379.14
418.07	4341.69
418.26	4381.48
418.45	4376.80
418.64	4479.79
418.83	4521.92
419.02	4547.66
419.21	4503.19
419.39	4674.05
419.58	4573.41
419.77	4454.04
419.96	4674.05
420.15	4624.90
420.34	4535.96
420.53	4629.58
420.72	4751.29
420.91	4709.16
421.10	4730.22
421.29	4849.59
421.48	4786.40
421.67	4765.33
421.86	4821.50
422.05	4840.23
422.24	4922.15
422.43	4868.31
422.61	4950.23
422.80	5151.52
422.99	4933.85
423.18	4952.57
423.37	4994.70
423.56	5076.62
423.75	5076.62
423.94	4788.74
424.13	4552.34
424.32	4812.14
424.50	4978.32
424.69	5174.92
424.88	5137.48
425.07	5076.62
425.26	4901.08
425.45	5109.39
425.64	5020.45
425.83	4931.51
426.01	5186.63
426.20	4884.70
426.39	5022.79
426.58	5034.49
426.77	4994.70
426.96	5135.14
427.15	5242.80
427.33	5146.84
427.52	5233.44
427.71	5228.76
427.90	5266.21
428.09	5364.51
428.28	5249.82
428.46	5481.53
428.65	5490.90
428.84	5572.82
429.03	5631.33
429.22	5373.87
429.40	5460.47
429.59	5497.92
429.78	5270.89
429.97	5210.03
430.16	5523.66
430.34	5577.50
430.53	5703.89
430.72	5643.03
430.91	5781.12
431.10	5607.92
431.28	5809.21
431.47	5802.19
431.66	5837.30
431.85	6003.47
432.03	6003.47
432.22	6045.60
432.41	6080.71
432.60	5977.73
432.79	6047.94
432.97	6094.76
433.16	6061.99
433.35	6022.20
433.54	6260.93
433.72	6345.19
433.91	6216.46
434.10	6108.80
434.28	6200.08
434.47	6195.40
434.66	6296.04
434.85	6457.54
435.03	6539.46
435.22	6193.06
435.41	6614.35
435.59	6305.40
435.78	6473.92
435.97	6565.20
436.16	6551.16
436.34	6525.41
436.53	6722.02
436.72	6677.55
436.90	6466.90
437.09	6520.73
437.28	6532.44
437.46	6588.61
437.65	6916.28
437.84	6827.34
438.02	6834.36
438.21	6949.05
438.40	6794.58
438.58	6916.28
438.77	7082.46
438.96	7112.89
439.14	7239.28
439.33	7225.23
439.52	7286.09
439.70	7297.79
439.89	7281.41
440.08	7358.64
440.26	7330.56
440.45	7370.35
440.63	7592.70
440.82	7744.83
441.01	7588.02
441.19	7592.70
441.38	7793.98
441.57	7840.79
441.75	7819.73
441.94	7943.78
442.12	7988.25
442.31	8135.70
442.50	8116.98
442.68	8084.21
442.87	8032.72
443.05	8348.69
443.24	8355.71
443.43	8051.44
443.61	8458.70
443.80	8627.21
443.98	8131.02
444.17	7918.03
444.35	8229.32
444.54	8259.75
444.73	8292.52
444.91	8243.37
445.10	8226.98
445.28	8510.19
445.47	8421.25
445.65	8432.95
445.84	8458.70
446.02	8411.89
446.21	8451.67
446.39	8461.04
446.58	8601.47
446.77	8615.51
446.95	8283.16
447.14	8571.04
447.32	8542.96
447.51	8578.06
447.69	8456.36
447.88	8557.00
448.06	8608.49
448.25	8589.77
448.43	8723.18
448.62	8887.01
448.80	8468.06
448.99	8683.39
449.17	8608.49
449.36	8580.40
449.54	8877.65
449.73	9092.98
449.91	9102.34
450.10	9083.62
450.28	9123.41
450.46	9193.62
450.65	9186.60
450.83	9118.73
451.02	9074.26
451.20	9322.35
451.39	9291.93
451.57	9240.44
451.76	9109.36
451.94	9228.73
452.13	9563.43
452.31	9385.55
452.49	9184.26
452.68	9561.09
452.86	9439.38
453.05	9469.81
453.23	9626.62
453.42	9366.82
453.60	9500.23
453.78	9654.71
453.97	9525.98
454.15	9540.02
454.34	9673.43
454.52	9867.70
454.70	9813.87
454.89	9877.06
455.07	9760.03
455.26	9928.55
455.44	10148.56
455.62	10097.07
455.81	9912.17
455.99	10115.80
456.17	10076.01
456.36	10073.67
456.54	10289.00
456.73	10485.60
456.91	10413.04
457.09	10501.98
457.28	10682.20
457.46	10375.59
457.64	10663.48
457.83	10602.63
458.01	10511.35
458.19	10761.78
458.38	10668.16
458.56	10750.08
458.74	10836.68
458.93	10754.76
459.11	10981.79
459.29	10827.32
459.48	11056.69
459.66	10951.37
459.84	10965.41
460.03	11192.44
460.21	11049.67
460.39	11194.78
460.57	11040.31
460.76	11215.85
460.94	11332.87
461.12	11239.25
461.31	11283.72
461.49	11274.36
461.67	11391.39
461.85	11400.75
462.04	11463.94
462.22	11587.99
462.40	11812.68
462.59	11580.97
462.77	11627.78
462.95	11775.24
463.13	11852.47
463.32	11782.26
463.50	11908.65
463.68	11950.78
463.86	11960.14
464.05	11733.11
464.23	11796.30
464.41	12187.17
464.59	11894.60
464.78	12255.04
464.96	12177.81
465.14	11936.73
465.32	12147.38
465.50	12126.32
465.69	12453.99
465.87	12259.73
466.05	12229.30
466.23	12149.72
466.41	12409.52
466.60	12732.51
466.78	12315.90
466.96	12465.69
467.14	12437.61
467.32	12505.48
467.51	12718.47
467.69	12334.62
467.87	12774.64
468.05	12929.12
468.23	12554.63
468.41	12582.72
468.60	12608.47
468.78	12961.89
468.96	12573.36
469.14	12755.92
469.32	13231.05
469.50	12875.29
469.69	13149.13
469.87	13263.82
470.05	13170.19
470.23	13125.72
470.41	13275.52
470.59	13364.46
470.77	13050.83
470.95	13521.27
471.14	13748.31
471.32	13018.06
471.50	13610.22
471.68	13617.24
471.86	13858.31
472.04	14078.32
472.22	14104.07
472.40	13860.65
472.58	13776.39
472.77	14195.35
472.95	14391.95
473.13	15056.67
473.31	14246.84
473.49	14373.23
473.67	14438.76
473.85	14562.81
474.03	14649.41
474.21	14752.40
474.39	14869.42
474.57	14806.23
474.75	15101.14
474.93	15403.07
475.12	14787.50
475.30	15389.02
475.48	15253.27
475.66	15749.46
475.84	15201.78
476.02	15681.59
476.20	15470.94
476.38	15868.83
476.56	16039.69
476.74	15978.84
476.92	15899.26
477.10	16086.50
477.28	16472.69
477.46	16510.14
477.64	16589.72
477.82	16908.03
478.00	17025.06
478.18	16908.03
478.36	17277.83
478.54	17270.81
478.72	17352.73
478.90	17465.08
479.08	17635.94
479.26	17736.58
479.44	17994.04
479.62	18200.01
479.80	18429.38
479.98	18225.75
480.16	18743.01
480.34	18537.04
480.52	18698.54
480.70	18831.95
480.88	18485.55
481.06	18813.23
481.24	18787.48
481.41	19262.61
481.59	19604.33
481.77	19583.26
481.95	19829.02
482.13	19948.39
482.31	19915.62
482.49	20446.92
482.67	20290.10
482.85	20648.21
483.03	20685.65
483.21	21088.23
483.39	21249.72
483.57	21102.27
483.74	21666.34
483.92	21341.00
484.10	21582.08
484.28	22169.55
484.46	22263.18
484.64	22726.60
484.82	22202.32
485.00	22661.07
485.18	23150.24
485.35	23211.09
485.53	23014.49
485.71	22902.14
485.89	23742.39
486.07	23618.35
486.25	23569.19
486.43	24079.43
486.61	24046.66
486.78	24238.59
486.96	24306.46
487.14	24891.60
487.32	24769.89
487.50	25191.19
487.68	25266.08
487.85	25160.76
488.03	26061.87
488.21	26300.60
488.39	26171.87
488.57	26405.92
488.75	26429.33
488.92	26593.17
489.10	26981.70
489.28	26995.74
489.46	27173.62
489.64	27571.51
489.81	28259.63
489.99	28121.54
490.17	27835.99
490.35	28451.55
490.53	28753.48
490.70	28727.74
490.88	28505.38
491.06	29268.40
491.24	29142.01
491.41	29097.54
491.59	29237.97
491.77	29584.37
491.95	29975.24
492.13	29961.20
492.30	29928.43
492.48	30015.03
492.66	30529.95
492.84	30845.92
493.01	30941.88
493.19	31075.29
493.37	30843.58
493.54	31360.84
493.72	31786.82
493.90	31903.84
494.08	32645.79
494.25	32456.21
494.43	32247.90
494.61	32655.15
494.79	32706.65
494.96	32732.39
495.14	32898.57
495.32	33869.89
495.49	33193.48
495.67	33663.93
495.85	33748.18
496.02	34330.98
496.20	34440.98
496.38	34497.16
496.55	34600.14
496.73	34934.84
496.91	34960.58
497.09	35653.38
497.26	35559.76
497.44	35480.18
497.62	35590.19
497.79	35637.00
497.97	35938.93
498.14	36275.96
498.32	36704.28
498.50	36676.19
498.67	36872.80
498.85	36849.39
499.03	37106.85
499.20	37350.27
499.38	37266.01
499.56	37329.20
499.73	37581.98
499.91	37467.30
500.08	38171.80
500.26	37670.92
500.44	38628.20
500.61	37879.23
500.79	38080.52
500.97	38586.07
501.14	39129.08
501.32	38792.04
501.49	38871.62
501.67	38951.20
501.84	39349.09
502.02	39147.80
502.20	39702.51
502.37	39889.75
502.55	39274.19
502.72	40198.70
502.90	39524.63
503.07	39676.76
503.25	40278.28
503.43	40023.16
503.60	40460.84
503.78	40648.08
503.95	40517.01
504.13	40832.99
504.30	40989.80
504.48	41287.05
504.65	41542.17
504.83	41048.32
505.01	41298.75
505.18	40971.08
505.36	41668.56
505.53	42129.64
505.71	41811.33
505.88	41806.65
506.06	41918.99
506.23	42253.69
506.41	42043.04
506.58	42834.14
506.76	42677.33
506.93	42983.94
507.11	42438.59
507.28	43035.43
507.46	43112.67
507.63	43416.94
507.81	43643.97
507.98	43194.59
508.16	43255.44
508.33	44039.52
508.50	43943.56
508.68	44233.78
508.85	44151.87
509.03	44069.95
509.20	44659.76
509.38	44664.44
509.55	45125.53
509.73	45022.54
509.90	45146.59
510.08	45230.85
510.25	45352.56
510.42	45219.15
510.60	45146.59
510.77	45443.84
510.95	46050.04
511.12	45553.85
511.30	45441.50
511.47	45965.78
511.64	45801.94
511.82	46368.35
511.99	46218.56
512.17	46185.79
512.34	46501.76
512.51	46637.51
512.69	46890.29
512.86	47133.71
513.04	47129.03
513.21	46866.89
513.38	47337.33
513.56	47433.30
513.73	47433.30
513.90	47622.88
514.08	47372.44
514.25	47679.05
514.43	47927.15
514.60	48004.39
514.77	48081.63
514.95	48313.34
515.12	48037.16
515.29	47973.96
515.47	48542.71
515.64	48692.50
515.81	48240.78
515.99	48484.20
516.16	49024.86
516.33	48519.31
516.51	49038.90
516.68	48779.10
516.85	49027.20
517.03	49144.23
517.20	49308.07
517.37	48879.75
517.54	49291.68
517.72	49155.93
517.89	49460.20
518.06	49668.51
518.24	49682.55
518.41	49577.23
518.58	49631.06
518.75	49722.34
518.93	49937.67
519.10	49689.57
519.27	50122.57
519.45	49986.82
519.62	50192.79
519.79	50532.17
519.96	50415.14
520.14	50478.33
520.31	50642.17
520.48	50831.75
520.65	50869.20
520.83	51011.98
521.00	50995.59
521.17	50817.71
521.34	51042.40
521.52	51217.94
521.69	51487.10
521.86	51175.81
522.03	51452.00
522.20	51742.22
522.38	51716.48
522.55	51405.19
522.72	51613.49
522.89	51519.87
523.07	52102.67
523.24	52006.70
523.41	52079.26
523.58	51955.21
523.75	52222.03
523.92	52107.35
524.10	52371.83
524.27	52512.26
524.44	52498.22
524.61	52102.67
524.78	52690.14
524.96	52479.49
525.13	52704.18
525.30	52996.75
525.47	53043.56
525.64	52879.72
525.81	53127.82
525.98	53179.31
526.16	52973.34
526.33	53052.92
526.50	53532.73
526.67	52952.28
526.84	53354.85
527.01	52968.66
527.18	52949.94
527.36	53130.16
527.53	53265.91
527.70	53687.21
527.87	53537.41
528.04	53392.30
528.21	53640.40
528.38	53628.69
528.55	53900.20
528.72	53947.01
528.89	53741.04
529.07	53642.74
529.24	53815.94
529.41	54033.61
529.58	53961.05
529.75	54028.93
529.92	53844.02
530.09	54012.54
530.26	54372.99
530.43	54499.37
530.60	54124.89
530.77	53907.22
530.94	54548.53
531.11	54347.24
531.28	54468.95
531.46	54232.55
531.63	54291.07
531.80	54681.94
531.97	54871.52
532.14	54763.85
532.31	54700.66
532.48	54852.80
532.65	54838.75
532.82	54810.67
532.99	55114.94
533.16	54890.24
533.33	55243.66
533.50	55124.30
533.67	55133.66
533.84	54805.98
534.01	55061.10
534.18	55309.20
534.35	55374.73
534.52	55559.64
534.69	55627.51
534.86	55540.91
535.03	55323.24
535.20	55508.14
535.37	55625.17
535.54	55732.84
535.71	55515.17
535.88	55517.51
536.05	55695.39
536.22	56018.38
536.38	56062.85
536.55	55969.23
536.72	55805.39
536.89	55880.29
537.06	55821.78
537.23	56214.99
537.40	55732.84
537.57	56097.96
537.74	56217.33
537.91	56479.47
538.08	56247.75
538.25	56126.05
538.42	56102.64
538.59	56416.27
538.75	56144.77
538.92	56184.56
539.09	56694.80
539.26	56453.72
539.43	56519.26
539.60	56353.08
539.77	56694.80
539.94	56774.37
540.11	56713.52
540.28	56420.95
540.44	56570.75
540.61	56832.89
540.78	56561.39
540.95	56727.56
541.12	56463.08
541.29	56598.83
541.46	56739.27
541.62	56961.62
541.79	56825.87
541.96	56701.82
542.13	56914.81
542.30	56872.68
542.47	57066.94
542.63	57272.91
542.80	57034.17
542.97	57415.68
543.14	57183.97
543.31	57396.96
543.48	57380.57
543.64	57703.57
543.81	57537.39
543.98	57614.63
544.15	57535.05
544.32	57626.33
544.48	57766.76
544.65	57612.29
544.82	57663.78
544.99	57497.60
545.16	57799.53
545.32	57827.62
545.49	57865.06
545.66	58005.50
545.83	57963.37
546.00	58085.07
546.16	57799.53
546.33	57614.63
546.50	57841.66
546.67	57972.73
546.83	57806.55
547.00	58061.67
547.17	57998.48
547.34	58136.57
547.50	58122.52
547.67	58489.99
547.84	58150.61
548.00	58384.66
548.17	58452.54
548.34	58192.74
548.51	58473.60
548.67	58564.88
548.84	58379.98
549.01	58351.90
549.18	58426.79
549.34	58459.56
549.51	58450.20
549.68	58557.86
549.84	58623.40
550.01	58543.82
550.18	58534.46
550.34	58599.99
550.51	58805.96
550.68	58756.81
550.84	58314.45
551.01	58768.51
551.18	58508.71
551.34	58714.68
551.51	58796.60
551.68	58880.86
551.84	59079.80
552.01	58836.39
552.18	58901.92
552.34	58787.24
552.51	58848.09
552.68	58827.02
552.84	58948.73
553.01	58972.14
553.18	59030.65
553.34	59250.66
553.51	58887.88
553.67	59084.48
553.84	59119.59
554.01	59058.74
554.17	59311.52
554.34	59311.52
554.51	59147.68
554.67	59405.14
554.84	59192.15
555.00	59126.61
555.17	59140.66
555.33	59243.64
555.50	59199.17
555.67	59320.88
555.83	59330.24
556.00	59248.32
556.16	59540.89
556.33	59590.04
556.50	59334.92
556.66	59625.15
556.83	59367.69
556.99	59576.00
557.16	59803.03
557.32	59753.88
557.49	59854.52
557.65	59625.15
557.82	59688.34
557.98	59587.70
558.15	59704.73
558.32	59524.50
558.48	59554.93
558.65	59683.66
558.81	59732.81
558.98	59688.34
559.14	59908.35
559.31	59704.73
559.47	59941.12
559.64	59941.12
559.80	59861.54
559.97	60055.81
560.13	59868.56
560.30	59966.87
560.46	59966.87
560.63	60142.41
560.79	60179.85
560.96	60140.07
561.12	60086.23
561.29	60027.72
561.45	60121.34
561.61	60030.06
561.78	60275.82
561.94	60126.02
562.11	60147.09
562.27	60189.22
562.44	60254.75
562.60	60362.42
562.77	60252.41
562.93	60168.15
563.10	60315.61
563.26	60196.24
563.42	60509.87
563.59	60051.12
563.75	59976.23
563.92	60439.65
564.08	60261.77
564.24	60406.89
564.41	60339.01
564.57	60453.70
564.74	60413.91
564.90	60273.48
565.07	60243.05
565.23	60285.18
565.39	60353.05
565.56	60552.00
565.72	60547.32
565.88	60388.16
566.05	60245.39
566.21	60474.76
566.38	60320.29
566.54	60645.62
566.70	60580.09
566.87	60589.45
567.03	60397.52
567.19	60657.32
567.36	60587.11
567.52	60575.40
567.68	60561.36
567.85	60474.76
568.01	60741.58
568.17	60477.10
568.34	60507.53
568.50	60575.40
568.66	60549.66
568.83	60610.51
568.99	60533.28
569.15	60708.82
569.32	60683.07
569.48	60596.47
569.64	60739.24
569.81	60725.20
569.97	60699.45
570.13	60727.54
570.30	60605.83
570.46	60760.31
570.62	60753.29
570.78	60846.91
570.95	60828.18
571.11	60884.36
571.27	60725.20
571.43	60582.43
571.60	60753.29
571.76	60779.03
571.92	60718.18
572.09	60933.51
572.25	60835.20
572.41	60769.67
572.57	60977.98
572.74	60961.59
572.90	60741.58
573.06	60804.78
573.22	60849.25
573.38	60772.01
573.55	60893.72
573.71	61020.11
573.87	60891.38
574.03	60877.33
574.20	60865.63
574.36	60905.42
574.52	60889.04
574.68	60926.49
574.84	60945.21
575.01	60743.92
575.17	60914.78
575.33	61001.38
575.49	60790.73
575.65	60919.46
575.82	61254.16
575.98	61092.66
576.14	60900.74
576.30	61127.77
576.46	60973.30
576.62	60753.29
576.79	61132.45
576.95	60926.49
577.11	61162.88
577.27	61087.98
577.43	61029.47
577.59	60907.76
577.75	61020.11
577.92	60963.93
578.08	61080.96
578.24	61151.18
578.40	61240.12
578.56	61315.01
578.72	61144.16
578.88	61162.88
579.04	61263.52
579.21	61277.57
579.37	61076.28
579.53	61181.60
579.69	60860.95
579.85	61200.33
580.01	60996.70
580.17	60898.40
580.33	61212.03
580.49	61394.59
580.65	61134.79
580.82	61174.58
580.98	61123.09
581.14	60975.64
581.30	61186.28
581.46	61155.86
581.62	61247.14
581.78	61139.47
581.94	61179.26
582.10	61120.75
582.26	61193.31
582.42	61158.20
582.58	61268.20
582.74	61109.05
582.90	61076.28
583.06	60933.51
583.22	61010.74
583.38	61228.41
583.54	61111.39
583.70	61354.80
583.86	61336.08
584.02	60975.64
584.18	61216.71
584.34	61366.51
584.50	61102.03
584.66	60999.04
584.82	61048.19
584.98	61319.70
585.14	61132.45
585.30	61233.10
585.46	61371.19
585.62	61123.09
585.78	61525.66
585.94	61116.07
586.10	61366.51
586.26	61387.57
586.42	61205.01
586.58	61300.97
586.74	61251.82
586.90	61235.44
587.06	61347.78
587.22	61420.34
587.38	61015.43
587.54	61413.32
587.70	61464.81
587.86	61366.51
588.02	61296.29
588.18	61277.57
588.34	61579.49
588.49	61219.05
