SpectraSuite Data File
++++++++++++++++++++++++++++++++++++
Date: Fri Oct 25 11:23:27 EDT 2013
User: price-jones
Dark Spectrum Present: No
Reference Spectrum Present: No
Number of Sampled Component Spectra: 1
Spectrometers: USB2+H05261
Integration Time (usec): 100000 (USB2+H05261)
Spectra Averaged: 1 (USB2+H05261)
Boxcar Smoothing: 0 (USB2+H05261)
Correct for Electrical Dark: No (USB2+H05261)
Strobe/Lamp Enabled: No (USB2+H05261)
Correct for Detector Non-linearity: No (USB2+H05261)
Correct for Stray Light: No (USB2+H05261)
Number of Pixels in Processed Spectrum: 2048
>>>>>Begin Processed Spectral Data<<<<<
365.73	229.37
365.92	229.37
366.12	229.37
366.32	84.26
366.52	131.07
366.72	21.06
366.91	105.32
367.11	117.03
367.31	135.75
367.51	98.30
367.70	58.51
367.90	114.69
368.10	138.09
368.30	84.26
368.49	117.03
368.69	159.16
368.89	184.90
369.09	142.77
369.28	163.84
369.48	98.30
369.68	191.92
369.87	222.35
370.07	112.35
370.27	236.39
370.47	283.20
370.66	631.94
370.86	645.99
371.06	601.52
371.25	645.99
371.45	608.54
371.65	720.88
371.84	709.18
372.04	653.01
372.24	692.80
372.44	594.50
372.63	737.27
372.83	702.16
373.03	828.55
373.22	704.50
373.42	793.44
373.62	791.10
373.81	746.63
374.01	826.21
374.21	802.80
374.40	856.64
374.60	870.68
374.79	851.96
374.99	807.48
375.19	732.59
375.38	830.89
375.58	873.02
375.78	805.14
375.97	882.38
376.17	1013.45
376.37	894.08
376.56	861.32
376.76	763.01
376.95	826.21
377.15	910.47
377.35	917.49
377.54	908.13
377.74	858.98
377.93	922.17
378.13	957.28
378.33	940.90
378.52	908.13
378.72	926.85
378.91	952.60
379.11	898.77
379.31	971.32
379.50	905.79
379.70	954.94
379.89	940.90
380.09	971.32
380.28	866.00
380.48	1006.43
380.68	933.87
380.87	1029.84
381.07	1074.31
381.26	1004.09
381.46	1032.18
381.65	943.24
381.85	1046.22
382.04	1034.52
382.24	1001.75
382.43	1107.07
382.63	1090.69
382.83	1048.56
383.02	1146.86
383.22	1132.82
383.41	1055.58
383.61	1062.60
383.80	1078.99
384.00	1107.07
384.19	1132.82
384.39	1069.62
384.58	1102.39
384.78	1093.03
384.97	1090.69
385.17	1104.73
385.36	1191.33
385.56	1100.05
385.75	1109.41
385.95	1217.08
386.14	1277.93
386.34	1205.38
386.53	1282.61
386.72	1086.01
386.92	1174.95
387.11	1233.46
387.31	1219.42
387.50	1240.48
387.70	1275.59
387.89	1324.74
388.09	1291.98
388.28	1196.01
388.48	1334.11
388.67	1280.27
388.86	1348.15
389.06	1336.45
389.25	1256.87
389.45	1343.47
389.64	1371.55
389.84	1441.77
390.03	1416.02
390.22	1483.90
390.42	1385.60
390.61	1385.60
390.81	1327.08
391.00	1453.47
391.19	1390.28
391.39	1521.35
391.58	1406.66
391.78	1432.41
391.97	1448.79
392.16	1455.81
392.36	1401.98
392.55	1425.39
392.75	1519.01
392.94	1490.92
393.13	1556.46
393.33	1535.39
393.52	1556.46
393.71	1533.05
393.91	1605.61
394.10	1554.12
394.29	1514.33
394.49	1565.82
394.68	1680.50
394.88	1572.84
395.07	1687.53
395.26	1650.08
395.46	1661.78
395.65	1715.61
395.84	1657.10
396.04	1736.68
396.23	1715.61
396.42	1771.79
396.62	1680.50
396.81	1820.94
397.00	1708.59
397.19	1746.04
397.39	1769.44
397.58	1799.87
397.77	1792.85
397.97	1898.17
398.16	1851.36
398.35	1881.79
398.55	1949.67
398.74	1935.62
398.93	1900.52
399.12	1905.20
399.32	1905.20
399.51	1870.09
399.70	2024.56
399.90	1968.39
400.09	2052.65
400.28	1984.77
400.47	2019.88
400.67	2022.22
400.86	2047.97
401.05	2036.27
401.24	1963.71
401.44	2223.51
401.63	2118.18
401.82	1989.46
402.01	2099.46
402.21	2162.66
402.40	2253.94
402.59	2230.53
402.78	2232.87
402.97	2190.74
403.17	2277.34
403.36	2195.42
403.55	2225.85
403.74	2373.30
403.93	2331.17
404.13	2289.04
404.32	2403.73
404.51	2382.67
404.70	2471.61
404.89	2415.43
405.09	2527.78
405.28	2443.52
405.47	2478.63
405.66	2497.35
405.85	2452.88
406.05	2518.42
406.24	2635.44
406.43	2565.23
406.62	2523.10
406.81	2696.30
407.00	2619.06
407.20	2579.27
407.39	2609.70
407.58	2684.59
407.77	2686.94
407.96	2630.76
408.15	2799.28
408.34	2644.81
408.54	2871.84
408.73	2810.98
408.92	2885.88
409.11	2818.00
409.30	2913.97
409.49	2909.29
409.68	3021.63
409.87	2960.78
410.07	2944.39
410.26	3030.99
410.45	2993.55
410.64	2946.73
410.83	3108.23
411.02	3063.76
411.21	3141.00
411.40	3103.55
411.59	3211.22
411.78	3089.51
411.98	3173.77
412.17	3276.75
412.36	3211.22
412.55	3307.18
412.74	3414.84
412.93	3393.78
413.12	3262.71
413.31	3644.21
413.50	3520.17
413.69	3604.42
413.88	3590.38
414.07	3452.29
414.26	3627.83
414.45	3794.01
414.64	3667.62
414.83	3805.71
415.02	3772.94
415.22	3850.18
415.41	3943.80
415.60	3765.92
415.79	3913.38
415.98	3927.42
416.17	3978.91
416.36	3922.74
416.55	3929.76
416.74	4086.58
416.93	3960.19
417.12	4039.76
417.31	4095.94
417.50	4102.96
417.69	4346.37
417.88	4362.76
418.07	4285.52
418.26	4311.27
418.45	4287.86
418.64	4435.32
418.83	4397.87
419.02	4512.55
419.21	4606.17
419.39	4486.81
419.58	4678.73
419.77	4528.94
419.96	4617.88
420.15	4631.92
420.34	4578.09
420.53	4788.74
420.72	4683.41
420.91	4627.24
421.10	4835.55
421.29	4826.18
421.48	4730.22
421.67	4730.22
421.86	4716.18
422.05	4882.36
422.24	4676.39
422.43	4924.49
422.61	4912.78
422.80	4997.04
422.99	4868.31
423.18	4990.02
423.37	5118.75
423.56	5053.22
423.75	4968.96
423.94	4858.95
424.13	4557.02
424.32	4699.80
424.50	5128.11
424.69	5036.83
424.88	4952.57
425.07	4933.85
425.26	5025.13
425.45	4980.66
425.64	4854.27
425.83	4954.91
426.01	4992.36
426.20	5062.58
426.39	5130.45
426.58	5069.60
426.77	5064.92
426.96	5004.07
427.15	5060.24
427.33	5191.31
427.52	5165.56
427.71	5252.16
427.90	5195.99
428.09	5348.12
428.28	5301.31
428.46	5439.40
428.65	5497.92
428.84	5537.71
429.03	5633.67
429.22	5387.91
429.40	5500.26
429.59	5563.45
429.78	5416.00
429.97	5348.12
430.16	5518.98
430.34	5643.03
430.53	5680.48
430.72	5694.52
430.91	5701.54
431.10	5633.67
431.28	5738.99
431.47	5757.72
431.66	5820.91
431.85	5731.97
432.03	5844.32
432.22	5874.74
432.41	6022.20
432.60	6024.54
432.79	6012.84
432.97	5870.06
433.16	5996.45
433.35	6015.18
433.54	6017.52
433.72	6160.29
433.91	6099.44
434.10	6045.60
434.28	6148.59
434.47	6282.00
434.66	6282.00
434.85	6389.66
435.03	6455.20
435.22	6216.46
435.41	6429.45
435.59	6349.87
435.78	6635.42
435.97	6462.22
436.16	6349.87
436.34	6523.07
436.53	6513.71
436.72	6644.78
436.90	6530.09
437.09	6640.10
437.28	6462.22
437.46	6665.85
437.65	6663.51
437.84	6813.30
438.02	6675.21
438.21	6855.43
438.40	6799.26
438.58	6944.37
438.77	7183.10
438.96	7145.66
439.14	7016.93
439.33	7023.95
439.52	7206.51
439.70	7201.83
439.89	7421.84
440.08	7323.54
440.26	7349.28
440.45	7492.05
440.63	7625.47
440.82	7599.72
441.01	7499.08
441.19	7506.10
441.38	7726.11
441.57	7826.75
441.75	7740.15
441.94	7868.88
442.12	7901.65
442.31	8056.12
442.50	8070.17
442.68	7927.39
442.87	7845.48
443.05	8100.59
443.24	8252.73
443.43	8088.89
443.61	8409.54
443.80	8620.19
443.98	8009.31
444.17	7866.54
444.35	8339.33
444.54	8500.83
444.73	8400.18
444.91	8217.62
445.10	8606.15
445.28	8318.26
445.47	8102.93
445.65	8393.16
445.84	8458.70
446.02	8526.57
446.21	8535.93
446.39	8533.59
446.58	8631.90
446.77	8428.27
446.95	8222.30
447.14	8517.21
447.32	8643.60
447.51	8615.51
447.69	8557.00
447.88	8564.02
448.06	8425.93
448.25	8505.51
448.43	8755.94
448.62	8667.00
448.80	8592.11
448.99	8709.13
449.17	8706.79
449.36	8566.36
449.54	8896.38
449.73	8898.72
449.91	9156.18
450.10	8950.21
450.28	9083.62
450.46	8975.95
450.65	9102.34
450.83	9233.41
451.02	9198.31
451.20	9085.96
451.39	9104.68
451.57	9146.81
451.76	9186.60
451.94	9303.63
452.13	9362.14
452.31	9329.38
452.49	9228.73
452.68	9511.94
452.86	9521.30
453.05	9472.15
453.23	9411.29
453.42	9635.99
453.60	9238.09
453.78	9355.12
453.97	9472.15
454.15	9675.77
454.34	9430.02
454.52	9708.54
454.70	9724.93
454.89	9738.97
455.07	9823.23
455.26	9970.68
455.44	10078.35
455.62	9984.73
455.81	10076.01
455.99	10017.49
456.17	10003.45
456.36	10043.24
456.54	10260.91
456.73	10436.45
456.91	10422.41
457.09	10303.04
457.28	10684.55
457.46	10649.44
457.64	10654.12
457.83	10691.57
458.01	10363.89
458.19	10602.63
458.38	10602.63
458.56	10782.85
458.74	10651.78
458.93	10803.91
459.11	10792.21
459.29	10684.55
459.48	10977.11
459.66	10991.16
459.84	10740.72
460.03	10949.03
460.21	11115.20
460.39	10768.80
460.57	11346.92
460.76	11178.40
460.94	11213.51
461.12	11183.08
461.31	11047.33
461.49	11318.83
461.67	11318.83
461.85	11590.33
462.04	11541.18
462.22	11903.96
462.40	11480.33
462.59	11419.47
462.77	11674.59
462.95	11667.57
463.13	11644.17
463.32	11709.70
463.50	11800.98
463.68	11751.83
463.86	11880.56
464.05	11815.02
464.23	11805.66
464.41	11939.07
464.59	11695.66
464.78	12163.76
464.96	11946.09
465.14	11943.75
465.32	12044.40
465.50	12131.00
465.69	12189.51
465.87	12145.04
466.05	12208.23
466.23	12311.22
466.41	12519.53
466.60	12606.13
466.78	12283.13
466.96	12353.35
467.14	12203.55
467.32	12439.95
467.51	12695.07
467.69	12203.55
467.87	12304.20
468.05	12514.84
468.23	12453.99
468.41	12643.57
468.60	12727.83
468.78	12936.14
468.96	12571.02
469.14	12886.99
469.32	12980.61
469.50	12505.48
469.69	12826.14
469.87	13556.38
470.05	13132.75
470.23	13207.64
470.41	13090.62
470.59	13298.92
470.77	13270.84
470.95	13415.95
471.14	13647.66
471.32	13364.46
471.50	13685.11
471.68	13755.33
471.86	13638.30
472.04	13881.72
472.22	14019.81
472.40	13951.93
472.58	13788.10
472.77	13987.04
472.95	14005.77
473.13	14616.65
473.31	14132.15
473.49	14146.20
473.67	14101.73
473.85	14312.38
474.03	14911.55
474.21	14565.15
474.39	15005.17
474.57	14979.43
474.75	15089.43
474.93	15023.90
475.12	15075.39
475.30	14995.81
475.48	15089.43
475.66	15283.70
475.84	15447.54
476.02	15412.43
476.20	15576.27
476.38	15625.42
476.56	16088.84
476.74	16079.48
476.92	15892.24
477.10	15950.75
477.28	16030.33
477.46	16526.52
477.64	16547.59
477.82	16695.04
478.00	16966.54
478.18	16570.99
478.36	17095.27
478.54	17247.41
478.72	16926.75
478.90	17689.77
479.08	17680.41
479.26	18047.87
479.44	17867.65
479.62	17619.55
479.80	18015.10
479.98	18211.71
480.16	18834.29
480.34	18504.28
480.52	18717.26
480.70	18724.29
480.88	18604.92
481.06	18862.38
481.24	18789.82
481.41	18965.36
481.59	19447.51
481.77	19461.55
481.95	19543.47
482.13	19770.51
482.31	19747.10
482.49	20428.20
482.67	20376.70
482.85	20549.90
483.03	20783.96
483.21	20671.61
483.39	21123.33
483.57	21277.81
483.74	21170.15
483.92	21596.12
484.10	21097.59
484.28	21743.58
484.46	21893.37
484.64	22309.99
484.82	22370.84
485.00	22668.09
485.18	23087.04
485.35	22885.76
485.53	22843.63
485.71	23227.48
485.89	23632.39
486.07	23510.68
486.25	23346.84
486.43	23688.56
486.61	23644.09
486.78	24163.69
486.96	24334.55
487.14	24718.40
487.32	24865.85
487.50	24884.58
487.68	24851.81
487.85	25502.48
488.03	25692.06
488.21	25883.98
488.39	25584.40
488.57	26082.93
488.75	26199.96
488.92	26471.46
489.10	26551.04
489.28	26934.88
489.46	27630.02
489.64	27190.00
489.81	27431.08
489.99	27421.72
490.17	28135.58
490.35	28591.98
490.53	28388.36
490.70	28339.21
490.88	28395.38
491.06	28730.08
491.24	29193.50
491.41	29390.11
491.59	29216.91
491.77	29680.33
491.95	29598.41
492.13	29687.36
492.30	30139.08
492.48	30223.34
492.66	30174.19
492.84	30195.25
493.01	31063.59
493.19	30534.63
493.37	31110.40
493.54	31157.21
493.72	31281.26
493.90	31805.54
494.08	31960.02
494.25	31868.73
494.43	31665.11
494.61	32446.85
494.79	32472.59
494.96	32606.00
495.14	33144.33
495.32	33233.27
495.49	33366.68
495.67	33383.06
495.85	33764.57
496.02	33715.42
496.20	34139.05
496.38	34309.91
496.55	33916.70
496.73	34574.39
496.91	34412.90
497.09	34799.08
497.26	35061.22
497.44	34953.56
497.62	35000.37
497.79	35534.01
497.97	35777.43
498.14	35831.26
498.32	36346.18
498.50	36460.87
498.67	36772.16
498.85	36470.23
499.03	36891.52
499.20	37132.60
499.38	36980.46
499.56	37462.61
499.73	37298.78
499.91	37610.07
500.08	37801.99
500.26	37546.87
500.44	37780.93
500.61	38029.02
500.79	37687.31
500.97	38366.06
501.14	38822.47
501.32	38698.42
501.49	38450.32
501.67	39122.05
501.84	39257.81
502.02	38946.51
502.20	39449.73
502.37	39531.65
502.55	39541.01
502.72	39945.92
502.90	39573.78
503.07	39674.42
503.25	39824.22
503.43	39901.45
503.60	40261.90
503.78	40203.38
503.95	40470.20
504.13	40840.01
504.30	40982.78
504.48	40636.38
504.65	41476.63
504.83	40788.52
505.01	41453.23
505.18	41186.41
505.36	41773.88
505.53	41614.72
505.71	41748.14
505.88	42258.37
506.06	41963.46
506.23	42066.45
506.41	41703.67
506.58	42321.57
506.76	42492.43
506.93	42789.67
507.11	42209.22
507.28	42845.85
507.46	43089.26
507.63	42951.17
507.81	43716.53
507.98	42941.81
508.16	43206.29
508.33	43349.06
508.50	43669.72
508.68	44231.44
508.85	44421.03
509.03	43501.20
509.20	44500.61
509.38	44509.97
509.55	44542.74
509.73	44521.67
509.90	45010.84
510.08	44737.00
510.25	44795.51
510.42	44989.78
510.60	45315.11
510.77	45174.68
510.95	45153.62
511.12	45230.85
511.30	45457.88
511.47	45677.90
511.64	45801.94
511.82	46148.34
511.99	45951.74
512.17	46284.09
512.34	45823.01
512.51	46735.82
512.69	46838.80
512.86	46883.27
513.04	46813.05
513.21	46904.34
513.38	47023.70
513.56	46759.22
513.73	47014.34
513.90	47016.68
514.08	47019.02
514.25	47739.91
514.43	47297.55
514.60	47716.50
514.77	47257.76
514.95	47922.47
515.12	47547.98
515.29	47927.15
515.47	48350.79
515.64	48222.06
515.81	48074.60
515.99	48411.64
516.16	48708.89
516.33	48301.64
516.51	48938.26
516.68	48596.54
516.85	48545.05
517.03	49020.18
517.20	49272.96
517.37	48868.05
517.54	49048.27
517.72	49326.79
517.89	49478.92
518.06	49221.47
518.24	49272.96
518.41	49626.38
518.58	49537.44
518.75	49560.84
518.93	49947.03
519.10	49993.84
519.27	49853.41
519.45	49450.84
519.62	50337.90
519.79	50089.80
519.96	49890.86
520.14	50368.33
520.31	50143.64
520.48	50380.03
520.65	50337.90
520.83	50782.60
521.00	50775.58
521.17	50693.66
521.34	50775.58
521.52	51009.64
521.69	50815.37
521.86	51126.66
522.03	51512.85
522.20	51503.49
522.38	51447.32
522.55	51229.65
522.72	50997.93
522.89	51306.88
523.07	51672.01
523.24	51877.97
523.41	51870.95
523.58	51709.46
523.75	52172.88
523.92	51686.05
524.10	52432.68
524.27	52200.97
524.44	52165.86
524.61	52046.49
524.78	52360.12
524.96	52240.76
525.13	52385.87
525.30	52598.86
525.47	52650.35
525.64	52573.11
525.81	52811.85
525.98	53059.94
526.16	52624.60
526.33	52905.47
526.50	53214.42
526.67	52734.61
526.84	53052.92
527.01	53036.54
527.18	53099.73
527.36	52973.34
527.53	53134.84
527.70	53492.94
527.87	53640.40
528.04	53509.33
528.21	53443.79
528.38	53450.81
528.55	53586.57
528.72	53404.00
528.89	53904.88
529.07	53205.06
529.24	53577.20
529.41	54049.99
529.58	53764.45
529.75	53565.50
529.92	53935.30
530.09	53815.94
530.26	53858.07
530.43	54288.73
530.60	53687.21
530.77	53652.10
530.94	54190.42
531.11	54160.00
531.28	54501.71
531.46	54377.67
531.63	54213.83
531.80	54436.18
531.97	54347.24
532.14	54604.70
532.31	54628.10
532.48	54492.35
532.65	54677.25
532.82	54651.51
532.99	54780.24
533.16	54930.03
533.33	55054.08
533.50	55047.06
533.67	54878.54
533.84	54930.03
534.01	55084.51
534.18	55086.85
534.35	55491.76
534.52	55128.98
534.69	55449.63
534.86	55449.63
535.03	55192.17
535.20	55318.56
535.37	55447.29
535.54	55454.31
535.71	55304.52
535.88	55681.34
536.05	55489.42
536.22	55646.24
536.38	55760.92
536.55	55599.43
536.72	55711.77
536.89	55430.91
537.06	55679.00
537.23	55819.44
537.40	55569.00
537.57	55866.25
537.74	56041.79
537.91	56170.52
538.08	55969.23
538.25	55599.43
538.42	55978.59
538.59	56067.53
538.75	56020.72
538.92	56275.84
539.09	56498.19
539.26	56182.22
539.43	56432.66
539.60	56381.16
539.77	56364.78
539.94	56371.80
540.11	56404.57
540.28	56570.75
540.44	56856.29
540.61	56399.89
540.78	56750.97
540.95	56451.38
541.12	56432.66
541.29	56456.06
541.46	56816.50
541.62	56547.34
541.79	56704.16
541.96	56601.18
542.13	56638.62
542.30	57062.26
542.47	56898.42
542.63	57010.77
542.80	57151.20
542.97	57389.94
543.14	57378.23
543.31	57209.71
543.48	57481.22
543.64	57553.77
543.81	57343.12
543.98	57373.55
544.15	57368.87
544.32	57764.42
544.48	57783.15
544.65	57291.63
544.82	57586.54
544.99	57368.87
545.16	57733.99
545.32	57490.58
545.49	57780.81
545.66	57642.71
545.83	57902.51
546.00	57474.20
546.16	57649.74
546.33	57748.04
546.50	57298.65
546.67	57801.87
546.83	57710.59
547.00	57900.17
547.17	57951.66
547.34	57858.04
547.50	57972.73
547.67	58122.52
547.84	57935.28
548.00	58211.46
548.17	58398.71
548.34	58108.48
548.51	58216.14
548.67	58176.36
548.84	58197.42
549.01	58113.16
549.18	58213.80
549.34	58244.23
549.51	58415.09
549.68	58349.56
549.84	58628.08
550.01	58656.17
550.18	58384.66
550.34	58588.29
550.51	58672.55
550.68	58560.20
550.84	58424.45
551.01	58721.70
551.18	58632.76
551.34	58780.21
551.51	58775.53
551.68	58550.84
551.84	58724.04
552.01	58616.38
552.18	58672.55
552.34	58688.93
552.51	58761.49
552.68	58656.17
552.84	58672.55
553.01	59147.68
553.18	59030.65
553.34	59166.40
553.51	58969.80
553.67	58894.90
553.84	58974.48
554.01	59009.59
554.17	59077.46
554.34	59196.83
554.51	59007.25
554.67	59353.65
554.84	59147.68
555.00	59365.35
555.17	59283.43
555.33	59215.55
555.50	59238.96
555.67	58958.09
555.83	59063.42
556.00	59096.19
556.16	59512.80
556.33	59318.54
556.50	59372.37
556.66	59323.22
556.83	59271.73
556.99	59678.98
557.16	59494.08
557.32	59400.46
557.49	59594.72
557.65	59613.44
557.82	59405.14
557.98	59543.23
558.15	59461.31
558.32	59758.56
558.48	59405.14
558.65	59742.17
558.81	59487.06
558.98	59704.73
559.14	59641.53
559.31	59723.45
559.47	59779.62
559.64	59812.39
559.80	59784.30
559.97	59913.03
560.13	59863.88
560.30	59751.54
560.46	59767.92
560.63	60062.83
560.79	59938.78
560.96	60107.30
561.12	60093.25
561.29	59826.43
561.45	59987.93
561.61	59828.77
561.78	59828.77
561.94	59854.52
562.11	60027.72
562.27	59868.56
562.44	60184.54
562.60	60076.87
562.77	60163.47
562.93	59873.24
563.10	60083.89
563.26	59987.93
563.42	60449.02
563.59	60212.62
563.75	60037.08
563.92	60278.16
564.08	60198.58
564.24	60317.95
564.41	60350.71
564.57	60315.61
564.74	60191.56
564.90	60156.45
565.07	60219.64
565.23	60229.01
565.39	60165.81
565.56	60357.74
565.72	60306.24
565.88	60231.35
566.05	60189.22
566.21	60261.77
566.38	60341.35
566.54	60203.26
566.70	60526.25
566.87	60460.72
567.03	60346.03
567.19	60659.66
567.36	60423.27
567.52	60481.78
567.68	60673.71
567.85	60287.52
568.01	60598.81
568.17	60383.48
568.34	60500.51
568.50	60399.86
568.66	60413.91
568.83	60463.06
568.99	60528.59
569.15	60673.71
569.32	60523.91
569.48	60411.57
569.64	60647.96
569.81	60603.49
569.97	60460.72
570.13	60643.28
570.30	60488.80
570.46	60669.03
570.62	60666.69
570.78	60505.19
570.95	60729.88
571.11	60786.05
571.27	60687.75
571.43	60678.39
571.60	60772.01
571.76	60561.36
571.92	60739.24
572.09	60472.42
572.25	60870.31
572.41	60825.84
572.57	60741.58
572.74	60954.57
572.90	60664.35
573.06	60790.73
573.22	60711.16
573.38	60741.58
573.55	60832.86
573.71	60786.05
573.87	60807.12
574.03	60610.51
574.20	60914.78
574.36	60818.82
574.52	60853.93
574.68	60732.22
574.84	60889.04
575.01	60874.99
575.17	60877.33
575.33	60825.84
575.49	60750.94
575.65	60968.61
575.82	60914.78
575.98	60905.42
576.14	61176.92
576.30	61109.05
576.46	60952.23
576.62	60786.05
576.79	60926.49
576.95	60762.65
577.11	61043.51
577.27	60954.57
577.43	60893.72
577.59	60722.86
577.75	60718.18
577.92	60664.35
578.08	60933.51
578.24	61186.28
578.40	61176.92
578.56	60973.30
578.72	60853.93
578.88	60865.63
579.04	60996.70
579.21	61090.32
579.37	61013.08
579.53	61057.56
579.69	60858.61
579.85	60863.29
580.01	60973.30
580.17	60736.90
580.33	60910.10
580.49	61048.19
580.65	60914.78
580.82	60804.78
580.98	60870.31
581.14	61022.45
581.30	61048.19
581.46	60954.57
581.62	61003.72
581.78	61017.77
581.94	61073.94
582.10	60987.34
582.26	61099.68
582.42	60907.76
582.58	61045.85
582.74	61013.08
582.90	60910.10
583.06	60973.30
583.22	60891.38
583.38	61031.81
583.54	60996.70
583.70	61106.71
583.86	61003.72
584.02	60832.86
584.18	61165.22
584.34	61008.40
584.50	60977.98
584.66	60968.61
584.82	61015.43
584.98	61144.16
585.14	61214.37
585.30	61043.51
585.46	61099.68
585.62	61179.26
585.78	61300.97
585.94	61162.88
586.10	61230.75
586.26	61298.63
586.42	61013.08
586.58	61368.85
586.74	61158.20
586.90	61258.84
587.06	61073.94
587.22	61226.07
587.38	60947.55
587.54	61174.58
587.70	61408.64
587.86	61020.11
588.02	61345.44
588.18	61364.17
588.34	61146.50
588.49	61080.96
