SpectraSuite Data File
++++++++++++++++++++++++++++++++++++
Date: Fri Oct 25 11:25:57 EDT 2013
User: price-jones
Dark Spectrum Present: No
Reference Spectrum Present: No
Number of Sampled Component Spectra: 1
Spectrometers: USB2+H05261
Integration Time (usec): 100000 (USB2+H05261)
Spectra Averaged: 1 (USB2+H05261)
Boxcar Smoothing: 0 (USB2+H05261)
Correct for Electrical Dark: No (USB2+H05261)
Strobe/Lamp Enabled: No (USB2+H05261)
Correct for Detector Non-linearity: No (USB2+H05261)
Correct for Stray Light: No (USB2+H05261)
Number of Pixels in Processed Spectrum: 2048
>>>>>Begin Processed Spectral Data<<<<<
365.73	252.78
365.92	252.78
366.12	252.78
366.32	117.03
366.52	168.52
366.72	161.50
366.91	163.84
367.11	191.92
367.31	135.75
367.51	126.39
367.70	110.01
367.90	152.13
368.10	114.69
368.30	145.11
368.49	58.51
368.69	147.45
368.89	170.86
369.09	121.71
369.28	196.60
369.48	166.18
369.68	128.73
369.87	180.22
370.07	245.76
370.27	231.71
370.47	311.29
370.66	566.41
370.86	608.54
371.06	655.35
371.25	664.71
371.45	692.80
371.65	676.41
371.84	681.10
372.04	711.52
372.24	697.48
372.44	688.12
372.63	741.95
372.83	727.91
373.03	802.80
373.22	823.87
373.42	791.10
373.62	840.25
373.81	767.70
374.01	807.48
374.21	828.55
374.40	833.23
374.60	784.08
374.79	791.10
374.99	814.51
375.19	877.70
375.38	835.57
375.58	887.06
375.78	858.98
375.97	875.36
376.17	821.53
376.37	863.66
376.56	908.13
376.76	884.72
376.95	828.55
377.15	884.72
377.35	947.92
377.54	964.30
377.74	849.61
377.93	894.08
378.13	863.66
378.33	987.71
378.52	1004.09
378.72	1011.11
378.91	1006.43
379.11	950.26
379.31	840.25
379.50	954.94
379.70	1029.84
379.89	968.98
380.09	929.19
380.28	1090.69
380.48	968.98
380.68	905.79
380.87	922.17
381.07	1015.79
381.26	940.90
381.46	957.28
381.65	994.73
381.85	964.30
382.04	1004.09
382.24	1050.90
382.43	1022.81
382.63	957.28
382.83	1034.52
383.02	1104.73
383.22	1139.84
383.41	1093.03
383.61	1170.27
383.80	1149.20
384.00	1032.18
384.19	1153.88
384.39	1097.71
384.58	1116.44
384.78	1167.93
384.97	1233.46
385.17	1191.33
385.36	1212.40
385.56	1123.46
385.75	1114.10
385.95	1268.57
386.14	1188.99
386.34	1235.80
386.53	1135.16
386.72	1254.53
386.92	1266.23
387.11	1163.25
387.31	1306.02
387.50	1219.42
387.70	1303.68
387.89	1296.66
388.09	1289.64
388.28	1350.49
388.48	1219.42
388.67	1364.53
388.86	1268.57
389.06	1341.13
389.25	1394.96
389.45	1308.36
389.64	1390.28
389.84	1324.74
390.03	1327.08
390.22	1472.20
390.42	1416.02
390.61	1294.32
390.81	1380.92
391.00	1411.34
391.19	1526.03
391.39	1432.41
391.58	1483.90
391.78	1448.79
391.97	1472.20
392.16	1465.18
392.36	1554.12
392.55	1619.65
392.75	1495.60
392.94	1565.82
393.13	1568.16
393.33	1521.35
393.52	1514.33
393.71	1603.27
393.91	1547.09
394.10	1598.59
394.29	1687.53
394.49	1640.72
394.68	1650.08
394.88	1621.99
395.07	1659.44
395.26	1685.19
395.46	1715.61
395.65	1708.59
395.84	1717.95
396.04	1713.27
396.23	1743.70
396.42	1825.62
396.62	1771.79
396.81	1764.76
397.00	1741.36
397.19	1781.15
397.39	1795.19
397.58	1844.34
397.77	1820.94
397.97	1865.41
398.16	1907.54
398.35	1856.04
398.55	1977.75
398.74	1863.07
398.93	1977.75
399.12	1870.09
399.32	1837.32
399.51	1872.43
399.70	2146.27
399.90	1984.77
400.09	2010.52
400.28	1991.80
400.47	2118.18
400.67	2080.74
400.86	1980.09
401.05	2136.91
401.24	2045.63
401.44	2043.29
401.63	2174.36
401.82	2129.89
402.01	1977.75
402.21	2165.00
402.40	2059.67
402.59	2174.36
402.78	2235.21
402.97	2232.87
403.17	2120.53
403.36	2270.32
403.55	2293.72
403.74	2338.20
403.93	2434.16
404.13	2333.51
404.32	2359.26
404.51	2427.14
404.70	2401.39
404.89	2455.22
405.09	2478.63
405.28	2436.50
405.47	2375.64
405.66	2464.58
405.85	2609.70
406.05	2459.90
406.24	2562.89
406.43	2600.34
406.62	2530.12
406.81	2705.66
407.00	2649.49
407.20	2614.38
407.39	2649.49
407.58	2686.94
407.77	2698.64
407.96	2813.32
408.15	2918.65
408.34	2736.09
408.54	2722.04
408.73	2768.85
408.92	2839.07
409.11	2902.26
409.30	2796.94
409.49	2881.20
409.68	2869.50
409.87	2904.60
410.07	3056.74
410.26	2993.55
410.45	2832.05
410.64	3009.93
410.83	2998.23
411.02	3108.23
411.21	3204.19
411.40	3110.57
411.59	3321.22
411.78	3155.04
411.98	3234.62
412.17	3155.04
412.36	3328.24
412.55	3351.65
412.74	3421.86
412.93	3421.86
413.12	3351.65
413.31	3562.30
413.50	3438.25
413.69	3499.10
413.88	3527.19
414.07	3595.06
414.26	3559.95
414.45	3695.71
414.64	3679.32
414.83	3698.05
415.02	3845.50
415.22	3658.26
415.41	3712.09
415.60	3854.86
415.79	3955.51
415.98	4086.58
416.17	3974.23
416.36	4011.68
416.55	3932.10
416.74	4009.34
416.93	4037.42
417.12	4138.07
417.31	4109.98
417.50	4102.96
417.69	4269.14
417.88	4369.78
418.07	4257.43
418.26	4245.73
418.45	4273.82
418.64	4552.34
418.83	4386.16
419.02	4372.12
419.21	4468.08
419.39	4533.62
419.58	4365.10
419.77	4472.76
419.96	4578.09
420.15	4559.36
420.34	4524.26
420.53	4568.73
420.72	4741.93
420.91	4725.54
421.10	4662.35
421.29	4802.78
421.48	4512.55
421.67	4798.10
421.86	4739.58
422.05	4833.21
422.24	4807.46
422.43	4784.06
422.61	4840.23
422.80	4884.70
422.99	4882.36
423.18	4882.36
423.37	4936.19
423.56	4990.02
423.75	4753.63
423.94	4678.73
424.13	4559.36
424.32	4791.08
424.50	5055.56
424.69	5114.07
424.88	5011.09
425.07	4943.21
425.26	4922.15
425.45	4959.60
425.64	4917.47
425.83	5032.15
426.01	5001.72
426.20	4833.21
426.39	5067.26
426.58	5071.94
426.77	5027.47
426.96	5163.22
427.15	5090.67
427.33	5198.33
427.52	5041.51
427.71	5273.23
427.90	5142.16
428.09	5221.74
428.28	5523.66
428.46	5380.89
428.65	5167.90
428.84	5327.06
429.03	5437.06
429.22	5411.32
429.40	5528.35
429.59	5406.64
429.78	5310.68
429.97	5123.43
430.16	5465.15
430.34	5547.07
430.53	5589.20
430.72	5514.30
430.91	5731.97
431.10	5668.78
431.28	5760.06
431.47	5687.50
431.66	5989.43
431.85	5778.78
432.03	5987.09
432.22	6069.01
432.41	5893.47
432.60	5874.74
432.79	5921.56
432.97	6054.97
433.16	5898.15
433.35	5959.00
433.54	6160.29
433.72	6113.48
433.91	6047.94
434.10	6143.91
434.28	6129.86
434.47	6258.59
434.66	6169.65
434.85	6541.80
435.03	6265.61
435.22	6153.27
435.41	6394.34
435.59	6260.93
435.78	6384.98
435.97	6553.50
436.16	6427.11
436.34	6223.48
436.53	6581.59
436.72	6630.74
436.90	6623.72
437.09	6483.28
437.28	6483.28
437.46	6579.25
437.65	6560.52
437.84	6707.98
438.02	6691.59
438.21	6773.51
438.40	6616.69
438.58	7082.46
438.77	6981.82
438.96	6939.69
439.14	7052.03
439.33	7009.90
439.52	7094.16
439.70	7276.73
439.89	7386.73
440.08	7335.24
440.26	7332.90
440.45	7293.11
440.63	7431.20
440.82	7510.78
441.01	7309.49
441.19	7531.84
441.38	7691.00
441.57	7730.79
441.75	7737.81
441.94	7719.09
442.12	7911.01
442.31	7861.86
442.50	8189.53
442.68	8051.44
442.87	8072.51
443.05	8226.98
443.24	8280.82
443.43	8088.89
443.61	8159.11
443.80	8498.49
443.98	8042.08
444.17	7812.71
444.35	8276.13
444.54	8439.97
444.73	8386.14
444.91	8252.73
445.10	8278.47
445.28	8322.94
445.47	8257.41
445.65	8372.10
445.84	8535.93
446.02	8491.46
446.21	8205.92
446.39	8301.88
446.58	8549.98
446.77	8437.63
446.95	8201.24
447.14	8259.75
447.32	8531.25
447.51	8355.71
447.69	8409.54
447.88	8402.52
448.06	8444.65
448.25	8451.67
448.43	8617.85
448.62	8662.32
448.80	8463.38
448.99	8599.13
449.17	8599.13
449.36	8732.54
449.54	8887.01
449.73	9008.72
449.91	8926.80
450.10	8774.67
450.28	9048.51
450.46	8919.78
450.65	9240.44
450.83	9006.38
451.02	9252.14
451.20	9312.99
451.39	9085.96
451.57	8961.91
451.76	9081.28
451.94	9369.16
452.13	9364.48
452.31	9345.76
452.49	9221.71
452.68	9219.37
452.86	8997.02
453.05	9434.70
453.23	9460.45
453.42	9261.50
453.60	9380.87
453.78	9535.34
453.97	9383.21
454.15	9460.45
454.34	9626.62
454.52	9694.50
454.70	9603.22
454.89	9783.44
455.07	9839.61
455.26	9687.48
455.44	10064.30
455.62	9888.76
455.81	9755.35
455.99	10080.69
456.17	9865.36
456.36	10043.24
456.54	10200.05
456.73	9856.00
456.91	10380.28
457.09	10352.19
457.28	10558.16
457.46	10380.28
457.64	10616.67
457.83	10462.19
458.01	10160.27
458.19	10593.26
458.38	10544.11
458.56	10733.70
458.74	10698.59
458.93	10689.23
459.11	10593.26
459.29	10443.47
459.48	10864.77
459.66	10761.78
459.84	10967.75
460.03	10963.07
460.21	11049.67
460.39	11105.84
460.57	10939.66
460.76	11157.33
460.94	11166.70
461.12	11061.37
461.31	11115.20
461.49	11096.48
461.67	11330.53
461.85	11426.50
462.04	11351.60
462.22	11920.35
462.40	11735.45
462.59	11417.13
462.77	11562.25
462.95	11548.20
463.13	11669.91
463.32	11763.53
463.50	11826.73
463.68	11541.18
463.86	11726.08
464.05	11623.10
464.23	11655.87
464.41	11967.16
464.59	11616.08
464.78	12198.87
464.96	11866.52
465.14	11602.04
465.32	12105.25
465.50	12091.21
465.69	12245.68
465.87	12203.55
466.05	11948.43
466.23	12119.29
466.41	12215.26
466.60	12355.69
466.78	12074.82
466.96	12191.85
467.14	12348.67
467.32	12453.99
467.51	12453.99
467.69	12217.60
467.87	12463.35
468.05	12421.22
468.23	12341.64
468.41	12362.71
468.60	12704.43
468.78	12662.30
468.96	12500.80
469.14	12760.60
469.32	12685.70
469.50	12781.67
469.69	12964.23
469.87	13186.58
470.05	13069.55
470.23	13064.87
470.41	13156.15
470.59	13137.43
470.77	13291.90
470.95	13425.31
471.14	13750.65
471.32	13336.37
471.50	13532.98
471.68	13729.58
471.86	13860.65
472.04	13631.28
472.22	13994.06
472.40	13654.69
472.58	13645.32
472.77	13912.14
472.95	14218.75
473.13	14497.28
473.31	14066.62
473.49	14209.39
473.67	14251.52
473.85	14064.28
474.03	14743.03
474.21	14626.01
474.39	14693.88
474.57	14513.66
474.75	14850.70
474.93	14909.21
475.12	14941.98
475.30	15229.87
475.48	14775.80
475.66	15410.09
475.84	15073.05
476.02	15061.35
476.20	15447.54
476.38	15793.94
476.56	16039.69
476.74	15885.22
476.92	15791.59
477.10	15789.25
477.28	16105.23
477.46	16042.03
477.64	16311.19
477.82	16556.95
478.00	16791.00
478.18	16692.70
478.36	16774.62
478.54	16868.24
478.72	17029.74
478.90	17549.34
479.08	17427.63
479.26	17568.06
479.44	17455.72
479.62	17799.77
479.80	18216.39
479.98	18108.72
480.16	18279.58
480.34	18408.31
480.52	18368.52
480.70	18754.71
480.88	18230.43
481.06	18476.19
481.24	19140.90
481.41	19295.38
481.59	19152.60
481.77	19370.27
481.95	19550.49
482.13	19503.68
482.31	19487.30
482.49	20446.92
482.67	19983.49
482.85	20016.26
483.03	20526.50
483.21	20528.84
483.39	20776.94
483.57	20769.91
483.74	20889.28
483.92	21294.19
484.10	20915.03
484.28	21734.21
484.46	21844.22
484.64	22335.73
484.82	21837.20
485.00	22251.47
485.18	22836.61
485.35	22991.08
485.53	22750.01
485.71	23073.00
485.89	23337.48
486.07	23143.22
486.25	23480.25
486.43	23590.26
486.61	23896.87
486.78	23840.70
486.96	24086.45
487.14	24589.67
487.32	24467.96
487.50	24734.78
487.68	24882.24
487.85	25151.40
488.03	25340.98
488.21	25876.96
488.39	25989.31
488.57	26192.94
488.75	25916.75
488.92	26553.38
489.10	26429.33
489.28	26394.22
489.46	27480.23
489.64	27194.68
489.81	27639.39
489.99	27445.12
490.17	27779.82
490.35	27946.00
490.53	28126.22
490.70	28100.47
490.88	28191.75
491.06	28388.36
491.24	28701.99
491.41	28877.53
491.59	29226.27
491.77	29329.25
491.95	29338.62
492.13	29626.50
492.30	30054.82
492.48	29769.27
492.66	30464.41
492.84	30333.34
493.01	30525.27
493.19	30459.73
493.37	31096.36
493.54	31171.25
493.72	31189.98
493.90	31318.71
494.08	31459.14
494.25	32032.57
494.43	31997.46
494.61	32046.62
494.79	32418.76
494.96	32226.84
495.14	33001.55
495.32	33151.35
495.49	33090.49
495.67	33060.07
495.85	33862.87
496.02	33457.96
496.20	33921.38
496.38	34003.30
496.55	34040.75
496.73	34820.15
496.91	34277.15
497.09	34527.58
497.26	35019.10
497.44	35229.74
497.62	35644.02
497.79	35346.77
497.97	35367.84
498.14	35693.17
498.32	35655.72
498.50	36521.72
498.67	36421.08
498.85	36261.92
499.03	36510.02
499.20	36385.97
499.38	36905.57
499.56	36985.15
499.73	37010.89
499.91	37067.06
500.08	37558.58
500.26	37539.85
500.44	37474.32
500.61	37570.28
500.79	37399.42
500.97	37748.16
501.14	38330.95
501.32	38099.24
501.49	38447.98
501.67	38574.37
501.84	38918.43
502.02	38703.10
502.20	39028.43
502.37	39091.63
502.55	39316.32
502.72	39269.51
502.90	39201.63
503.07	39337.38
503.25	39674.42
503.43	39842.94
503.60	40177.64
503.78	40098.06
503.95	40074.65
504.13	40280.62
504.30	40446.80
504.48	40177.64
504.65	40533.40
504.83	40697.24
505.01	41256.62
505.18	40594.25
505.36	41507.06
505.53	41010.87
505.71	41460.25
505.88	41701.32
506.06	41762.18
506.23	41563.23
506.41	41769.20
506.58	42000.91
506.76	42462.00
506.93	42302.84
507.11	42347.31
507.28	42314.55
507.46	42431.57
507.63	42454.98
507.81	42923.08
507.98	42630.52
508.16	43164.16
508.33	43391.19
508.50	43718.87
508.68	43203.95
508.85	43746.95
509.03	43737.59
509.20	43650.99
509.38	44226.76
509.55	44313.36
509.73	44711.25
509.90	44423.37
510.08	44538.05
510.25	44603.59
510.42	44868.07
510.60	44931.26
510.77	45062.33
510.95	44687.85
511.12	45120.85
511.30	44851.69
511.47	45352.56
511.64	45195.74
511.82	46007.91
511.99	45570.23
512.17	45551.51
512.34	45888.54
512.51	46258.35
512.69	46094.51
512.86	46157.70
513.04	46424.53
513.21	46808.37
513.38	46234.94
513.56	46770.93
513.73	46611.77
513.90	47051.79
514.08	46604.75
514.25	47089.24
514.43	47260.10
514.60	47639.26
514.77	47377.12
514.95	47618.20
515.12	47849.91
515.29	47491.81
515.47	47365.42
515.64	48020.77
515.81	47969.28
515.99	48069.92
516.16	48301.64
516.33	48128.44
516.51	48390.58
516.68	48535.69
516.85	48552.07
517.03	48676.12
517.20	48495.90
517.37	48685.48
517.54	48973.37
517.72	49123.16
517.89	49066.99
518.06	48910.17
518.24	49296.36
518.41	49169.97
518.58	49043.59
518.75	49633.40
518.93	49258.91
519.10	49420.41
519.27	49518.71
519.45	49401.69
519.62	49937.67
519.79	49865.11
519.96	50000.86
520.14	50071.08
520.31	49982.14
520.48	50169.38
520.65	50295.77
520.83	50768.56
521.00	50901.97
521.17	50232.58
521.34	50473.65
521.52	50578.98
521.69	50827.07
521.86	50850.48
522.03	50871.54
522.20	51323.27
522.38	51426.25
522.55	51468.38
522.72	51491.79
522.89	51407.53
523.07	51440.29
523.24	51019.00
523.41	51550.30
523.58	51227.31
523.75	51660.30
523.92	51679.03
524.10	52009.04
524.27	51901.38
524.44	51791.37
524.61	52067.56
524.78	51924.78
524.96	52095.64
525.13	52212.67
525.30	52271.18
525.47	52385.87
525.64	52388.21
525.81	52547.37
525.98	52472.47
526.16	52378.85
526.33	52409.28
526.50	52858.66
526.67	52893.77
526.84	52858.66
527.01	52861.00
527.18	52823.55
527.36	52556.73
527.53	52982.71
527.70	53315.06
527.87	53102.07
528.04	53249.53
528.21	53488.26
528.38	53371.24
528.55	53567.84
528.72	53455.50
528.89	53443.79
529.07	53418.05
529.24	53324.43
529.41	53712.95
529.58	53502.31
529.75	53612.31
529.92	53401.66
530.09	53799.55
530.26	53734.02
530.43	53984.46
530.60	53801.89
530.77	53684.87
530.94	54106.16
531.11	54087.44
531.28	54124.89
531.46	54174.04
531.63	54255.96
531.80	53893.18
531.97	54117.87
532.14	54419.80
532.31	54319.15
532.48	54262.98
532.65	54663.21
532.82	54450.22
532.99	54658.53
533.16	54384.69
533.33	54686.62
533.50	54962.80
533.67	54585.97
533.84	54468.95
534.01	54679.60
534.18	55075.15
534.35	55400.48
534.52	54862.16
534.69	55126.64
534.86	55206.22
535.03	55168.77
535.20	55093.87
535.37	55297.50
535.54	55126.64
535.71	55192.17
535.88	55271.75
536.05	55313.88
536.22	55606.45
536.38	55529.21
536.55	55552.62
536.72	55395.80
536.89	55330.26
537.06	55461.33
537.23	55819.44
537.40	55412.18
537.57	55594.74
537.74	55679.00
537.91	55917.74
538.08	55913.06
538.25	55625.17
538.42	55959.87
538.59	56137.75
538.75	55716.45
538.92	56142.43
539.09	56027.74
539.26	56088.60
539.43	55973.91
539.60	56282.86
539.77	56126.05
539.94	56317.97
540.11	56573.09
540.28	56430.32
540.44	56336.69
540.61	56149.45
540.78	56142.43
540.95	56425.64
541.12	56231.37
541.29	56350.74
541.46	56413.93
541.62	56357.76
541.79	56676.07
541.96	56278.18
542.13	56587.13
542.30	56671.39
542.47	56912.47
542.63	56692.46
542.80	56797.78
542.97	57010.77
543.14	57364.19
543.31	57230.78
543.48	57188.65
543.64	57375.89
543.81	57457.81
543.98	57303.34
544.15	57038.86
544.32	57050.56
544.48	57329.08
544.65	57137.16
544.82	57392.28
544.99	57291.63
545.16	57474.20
545.32	57158.22
545.49	57549.09
545.66	57584.20
545.83	57485.90
546.00	57556.11
546.16	57499.94
546.33	57577.18
546.50	57361.85
546.67	57703.57
546.83	57528.03
547.00	57757.40
547.17	57677.82
547.34	57757.40
547.50	57890.81
547.67	57806.55
547.84	57937.62
548.00	57853.36
548.17	58000.82
548.34	58059.33
548.51	58143.59
548.67	58258.27
548.84	57961.03
549.01	58064.01
549.18	58078.05
549.34	58185.72
549.51	58096.78
549.68	58302.74
549.84	58337.85
550.01	58344.87
550.18	58246.57
550.34	58546.16
550.51	58499.35
550.68	58284.02
550.84	58155.29
551.01	58391.68
551.18	58431.47
551.34	58656.17
551.51	58749.79
551.68	58501.69
551.84	58543.82
552.01	58354.24
552.18	58426.79
552.34	58539.14
552.51	58773.19
552.68	58370.62
552.84	58665.53
553.01	58677.23
553.18	58562.54
553.34	58927.67
553.51	58557.86
553.67	58735.74
553.84	58932.35
554.01	59004.91
554.17	58862.13
554.34	59044.69
554.51	58920.65
554.67	58869.15
554.84	58941.71
555.00	58969.80
555.17	58901.92
555.33	59182.79
555.50	58899.58
555.67	58972.14
555.83	59096.19
556.00	59075.12
556.16	59250.66
556.33	59189.81
556.50	59150.02
556.66	59281.09
556.83	59037.67
556.99	59234.28
557.16	59517.48
557.32	59442.59
557.49	59458.97
557.65	59042.35
557.82	59234.28
557.98	59309.18
558.15	59405.14
558.32	59304.49
558.48	59253.00
558.65	59622.81
558.81	59498.76
558.98	59330.24
559.14	59681.32
559.31	59622.81
559.47	59735.15
559.64	59611.10
559.80	59613.44
559.97	59662.60
560.13	59505.78
560.30	59475.35
560.46	59639.19
560.63	59641.53
560.79	59742.17
560.96	59618.13
561.12	59746.86
561.29	59814.73
561.45	59700.04
561.61	59627.49
561.78	59863.88
561.94	59739.83
562.11	59690.68
562.27	59728.13
562.44	59966.87
562.60	59992.61
562.77	59889.63
562.93	59749.20
563.10	59969.21
563.26	59913.03
563.42	60175.17
563.59	59901.33
563.75	59828.77
563.92	59910.69
564.08	59999.63
564.24	60259.43
564.41	59999.63
564.57	59683.66
564.74	60177.51
564.90	60020.70
565.07	59952.82
565.23	59941.12
565.39	60090.91
565.56	60200.92
565.72	60200.92
565.88	60093.25
566.05	59910.69
566.21	60221.98
566.38	60027.72
566.54	60027.72
566.70	60217.30
566.87	60214.96
567.03	60261.77
567.19	60355.39
567.36	60233.69
567.52	60130.70
567.68	60643.28
567.85	60238.37
568.01	60416.25
568.17	60397.52
568.34	60432.63
568.50	60165.81
568.66	60416.25
568.83	60523.91
568.99	60172.83
569.15	60296.88
569.32	60303.90
569.48	60331.99
569.64	60247.73
569.81	60465.40
569.97	60104.96
570.13	60322.63
570.30	60252.41
570.46	60500.51
570.62	60528.59
570.78	60449.02
570.95	60371.78
571.11	60678.39
571.27	60392.84
571.43	60374.12
571.60	60507.53
571.76	60273.48
571.92	60500.51
572.09	60486.46
572.25	60535.62
572.41	60409.23
572.57	60484.12
572.74	60760.31
572.90	60502.85
573.06	60273.48
573.22	60544.98
573.38	60617.53
573.55	60608.17
573.71	60795.42
573.87	60643.28
574.03	60802.44
574.20	60465.40
574.36	60537.96
574.52	60568.38
574.68	60552.00
574.84	60837.54
575.01	60666.69
575.17	60573.06
575.33	60533.28
575.49	60549.66
575.65	60807.12
575.82	60683.07
575.98	60575.40
576.14	60842.23
576.30	60729.88
576.46	60530.93
576.62	60858.61
576.79	60479.44
576.95	60456.04
577.11	60687.75
577.27	60786.05
577.43	60970.96
577.59	60821.16
577.75	60739.24
577.92	60465.40
578.08	60750.94
578.24	60807.12
578.40	61013.08
578.56	61038.83
578.72	60790.73
578.88	60905.42
579.04	61038.83
579.21	60729.88
579.37	60816.48
579.53	60762.65
579.69	60570.72
579.85	60704.13
580.01	60779.03
580.17	60673.71
580.33	60753.29
580.49	60680.73
580.65	60874.99
580.82	60940.53
580.98	60919.46
581.14	60669.03
581.30	61022.45
581.46	60711.16
581.62	60870.31
581.78	60573.06
581.94	60956.91
582.10	60676.05
582.26	60877.33
582.42	60636.26
582.58	61022.45
582.74	60788.39
582.90	60889.04
583.06	60863.29
583.22	60626.90
583.38	60729.88
583.54	60874.99
583.70	60914.78
583.86	60832.86
584.02	60694.77
584.18	60889.04
584.34	60933.51
584.50	60919.46
584.66	60900.74
584.82	60552.00
584.98	61015.43
585.14	61062.24
585.30	60874.99
585.46	60872.65
585.62	60919.46
585.78	61144.16
585.94	60860.95
586.10	61038.83
586.26	61010.74
586.42	61148.84
586.58	61080.96
586.74	61071.60
586.90	60891.38
587.06	61036.49
587.22	61043.51
587.38	60851.59
587.54	61034.15
587.70	61190.97
587.86	60905.42
588.02	60931.17
588.18	61076.28
588.34	60914.78
588.49	61123.09
