SpectraSuite Data File
++++++++++++++++++++++++++++++++++++
Date: Fri Oct 25 10:47:40 EDT 2013
User: price-jones
Dark Spectrum Present: No
Reference Spectrum Present: No
Number of Sampled Component Spectra: 1
Spectrometers: USB2+H05261
Integration Time (usec): 100000 (USB2+H05261)
Spectra Averaged: 1 (USB2+H05261)
Boxcar Smoothing: 0 (USB2+H05261)
Correct for Electrical Dark: No (USB2+H05261)
Strobe/Lamp Enabled: No (USB2+H05261)
Correct for Detector Non-linearity: No (USB2+H05261)
Correct for Stray Light: No (USB2+H05261)
Number of Pixels in Processed Spectrum: 2048
>>>>>Begin Processed Spectral Data<<<<<
365.73	184.90
365.92	184.90
366.12	184.90
366.32	105.32
366.52	46.81
366.72	95.96
366.91	14.04
367.11	25.75
367.31	23.41
367.51	0.00
367.70	88.94
367.90	51.49
368.10	0.00
368.30	49.15
368.49	46.81
368.69	23.41
368.89	117.03
369.09	81.92
369.28	98.30
369.48	74.90
369.68	81.92
369.87	53.83
370.07	56.17
370.27	112.35
370.47	142.77
370.66	313.63
370.86	423.64
371.06	435.34
371.25	496.19
371.45	421.30
371.65	475.13
371.84	404.91
372.04	468.11
372.24	491.51
372.44	449.38
372.63	526.62
372.83	512.58
373.03	500.87
373.22	550.03
373.42	528.96
373.62	559.39
373.81	510.24
374.01	594.50
374.21	681.10
374.40	496.19
374.60	531.30
374.79	491.51
374.99	561.73
375.19	617.90
375.38	578.11
375.58	580.45
375.78	594.50
375.97	587.47
376.17	599.18
376.37	643.65
376.56	617.90
376.76	634.29
376.95	622.58
377.15	617.90
377.35	564.07
377.54	596.84
377.74	587.47
377.93	585.13
378.13	620.24
378.33	681.10
378.52	650.67
378.72	685.78
378.91	608.54
379.11	664.71
379.31	653.01
379.50	589.82
379.70	713.86
379.89	657.69
380.09	655.35
380.28	634.29
380.48	629.60
380.68	638.97
380.87	669.39
381.07	690.46
381.26	720.88
381.46	655.35
381.65	641.31
381.85	695.14
382.04	660.03
382.24	653.01
382.43	709.18
382.63	643.65
382.83	692.80
383.02	718.54
383.22	786.42
383.41	767.70
383.61	629.60
383.80	723.23
384.00	744.29
384.19	716.20
384.39	755.99
384.58	774.72
384.78	779.40
384.97	760.67
385.17	798.12
385.36	716.20
385.56	713.86
385.75	753.65
385.95	788.76
386.14	826.21
386.34	837.91
386.53	767.70
386.72	692.80
386.92	898.77
387.11	755.99
387.31	781.74
387.50	814.51
387.70	765.36
387.89	910.47
388.09	854.30
388.28	873.02
388.48	837.91
388.67	861.32
388.86	858.98
389.06	919.83
389.25	919.83
389.45	882.38
389.64	912.81
389.84	903.45
390.03	889.40
390.22	1020.47
390.42	884.72
390.61	833.23
390.81	1032.18
391.00	985.37
391.19	959.62
391.39	910.47
391.58	1013.45
391.78	992.39
391.97	994.73
392.16	973.66
392.36	992.39
392.55	968.98
392.75	964.30
392.94	1034.52
393.13	997.07
393.33	957.28
393.52	1022.81
393.71	1104.73
393.91	973.66
394.10	1097.71
394.29	1020.47
394.49	1123.46
394.68	1165.59
394.88	1116.44
395.07	1144.52
395.26	1160.91
395.46	1146.86
395.65	1111.75
395.84	1071.97
396.04	1130.48
396.23	1142.18
396.42	1055.58
396.62	1167.93
396.81	1181.97
397.00	1170.27
397.19	1270.91
397.39	1256.87
397.58	1226.44
397.77	1324.74
397.97	1336.45
398.16	1270.91
398.35	1350.49
398.55	1315.38
398.74	1261.55
398.93	1327.08
399.12	1322.40
399.32	1313.04
399.51	1355.17
399.70	1427.73
399.90	1430.07
400.09	1418.36
400.28	1420.71
400.47	1462.83
400.67	1540.07
400.86	1413.68
401.05	1467.52
401.24	1582.20
401.44	1535.39
401.63	1523.69
401.82	1551.78
402.01	1439.43
402.21	1483.90
402.40	1586.88
402.59	1575.18
402.78	1689.87
402.97	1542.41
403.17	1547.09
403.36	1603.27
403.55	1603.27
403.74	1629.01
403.93	1659.44
404.13	1685.19
404.32	1708.59
404.51	1715.61
404.70	1748.38
404.89	1710.93
405.09	1682.85
405.28	1729.66
405.47	1722.63
405.66	1771.79
405.85	1902.86
406.05	1790.51
406.24	1816.26
406.43	1827.96
406.62	1844.34
406.81	1919.24
407.00	1757.74
407.20	1743.70
407.39	1914.56
407.58	2003.50
407.77	1879.45
407.96	2047.97
408.15	2017.54
408.34	1961.37
408.54	1984.77
408.73	2047.97
408.92	2148.61
409.11	1982.43
409.30	2139.25
409.49	2106.48
409.68	2064.35
409.87	2038.61
410.07	2101.80
410.26	2066.69
410.45	2223.51
410.64	2106.48
410.83	2317.13
411.02	2232.87
411.21	2307.77
411.40	2293.72
411.59	2377.98
411.78	2293.72
411.98	2303.09
412.17	2406.07
412.36	2312.45
412.55	2347.56
412.74	2413.09
412.93	2506.71
413.12	2349.90
413.31	2579.27
413.50	2459.90
413.69	2530.12
413.88	2703.32
414.07	2506.71
414.26	2642.46
414.45	2696.30
414.64	2726.72
414.83	2710.34
415.02	2712.68
415.22	2878.86
415.41	2923.33
415.60	2747.79
415.79	2829.71
415.98	2890.56
416.17	2939.71
416.36	2913.97
416.55	2998.23
416.74	2897.58
416.93	2928.01
417.12	2932.69
417.31	3040.36
417.50	2939.71
417.69	3061.42
417.88	3108.23
418.07	3101.21
418.26	3152.70
418.45	3138.66
418.64	3215.90
418.83	3246.32
419.02	3197.17
419.21	3229.94
419.39	3197.17
419.58	3288.45
419.77	3281.43
419.96	3286.11
420.15	3405.48
420.34	3407.82
420.53	3421.86
420.72	3534.21
420.91	3445.27
421.10	3489.74
421.29	3449.95
421.48	3375.05
421.67	3382.07
421.86	3445.27
422.05	3314.20
422.24	3440.59
422.43	3494.42
422.61	3471.01
422.80	3281.43
422.99	3564.64
423.18	3534.21
423.37	3651.24
423.56	3604.42
423.75	3506.12
423.94	3475.70
424.13	3419.52
424.32	3405.48
424.50	3576.34
424.69	3620.81
424.88	3508.46
425.07	3562.30
425.26	3651.24
425.45	3583.36
425.64	3501.44
425.83	3550.59
426.01	3779.97
426.20	3590.38
426.39	3609.11
426.58	3655.92
426.77	3463.99
426.96	3616.13
427.15	3644.21
427.33	3728.47
427.52	3768.26
427.71	3843.16
427.90	3805.71
428.09	3854.86
428.28	3728.47
428.46	3822.09
428.65	3805.71
428.84	3894.65
429.03	3955.51
429.22	3702.73
429.40	3861.88
429.59	3981.25
429.78	3740.18
429.97	3646.55
430.16	3817.41
430.34	3714.43
430.53	3887.63
430.72	3995.29
430.91	3880.61
431.10	3962.53
431.28	4184.88
431.47	4166.15
431.66	4224.67
431.85	4147.43
432.03	4390.84
432.22	4219.99
432.41	4198.92
432.60	4189.56
432.79	4187.22
432.97	4322.97
433.16	4386.16
433.35	4229.35
433.54	4189.56
433.72	4173.18
433.91	4390.84
434.10	4395.53
434.28	4187.22
434.47	4470.42
434.66	4451.70
434.85	4388.50
435.03	4491.49
435.22	4475.10
435.41	4585.11
435.59	4622.56
435.78	4575.75
435.97	4596.81
436.16	4606.17
436.34	4533.62
436.53	4620.22
436.72	4835.55
436.90	4545.32
437.09	4660.01
437.28	4631.92
437.46	4795.76
437.65	4816.82
437.84	4737.24
438.02	4671.71
438.21	4910.44
438.40	4788.74
438.58	4898.74
438.77	4924.49
438.96	4947.89
439.14	5036.83
439.33	5093.01
439.52	5137.48
439.70	5090.67
439.89	5226.42
440.08	5217.05
440.26	5188.97
440.45	5308.34
440.63	5432.38
440.82	5408.98
441.01	5490.90
441.19	5462.81
441.38	5584.52
441.57	5509.62
441.75	5582.18
441.94	5575.16
442.12	5886.45
442.31	5769.42
442.50	5624.31
442.68	5572.82
442.87	5624.31
443.05	5776.44
443.24	5905.17
443.43	5778.78
443.61	5788.14
443.80	6211.78
443.98	5694.52
444.17	5614.95
444.35	5799.85
444.54	6031.56
444.73	5865.38
444.91	5926.24
445.10	5827.93
445.28	5912.19
445.47	5893.47
445.65	5937.94
445.84	5912.19
446.02	6001.13
446.21	5891.13
446.39	5987.09
446.58	5951.98
446.77	6076.03
446.95	5926.24
447.14	5937.94
447.32	6190.72
447.51	6047.94
447.69	6015.18
447.88	6083.05
448.06	6057.31
448.25	6106.46
448.43	6186.04
448.62	6141.57
448.80	6080.71
448.99	6232.85
449.17	6310.08
449.36	6380.30
449.54	6340.51
449.73	6347.53
449.91	6232.85
450.10	6328.81
450.28	6427.11
450.46	6377.96
450.65	6583.93
450.83	6476.26
451.02	6303.06
451.20	6672.87
451.39	6518.39
451.57	6565.20
451.76	6431.79
451.94	6562.86
452.13	6574.56
452.31	6696.27
452.49	6384.98
452.68	6518.39
452.86	6464.56
453.05	6609.67
453.23	6731.38
453.42	6649.46
453.60	6750.10
453.78	6867.13
453.97	6689.25
454.15	6832.02
454.34	6829.68
454.52	6832.02
454.70	6984.16
454.89	6806.28
455.07	6703.29
455.26	6836.70
455.44	7110.55
455.62	6904.58
455.81	7218.21
455.99	6998.20
456.17	7133.95
456.36	7176.08
456.54	7267.36
456.73	7255.66
456.91	7403.11
457.09	7419.50
457.28	7513.12
457.46	7218.21
457.64	7508.44
457.83	7339.92
458.01	7300.13
458.19	7489.71
458.38	7325.88
458.56	7646.53
458.74	7489.71
458.93	7456.95
459.11	7543.55
459.29	7506.10
459.48	7538.87
459.66	7534.18
459.84	7779.94
460.03	7709.72
460.21	7627.81
460.39	7765.90
460.57	7702.70
460.76	7740.15
460.94	7749.51
461.12	7962.50
461.31	7812.71
461.49	7740.15
461.67	7843.14
461.85	7847.82
462.04	7749.51
462.22	8486.78
462.40	8032.72
462.59	8009.31
462.77	8095.91
462.95	8030.38
463.13	8315.92
463.32	8259.75
463.50	8255.07
463.68	8163.79
463.86	8245.71
464.05	8257.41
464.23	8116.98
464.41	8449.33
464.59	8184.85
464.78	8226.98
464.96	8397.84
465.14	8210.60
465.32	8320.60
465.50	8542.96
465.69	8493.80
465.87	8461.04
466.05	8514.87
466.23	8322.94
466.41	8386.14
466.60	8571.04
466.78	8348.69
466.96	8566.36
467.14	8613.17
467.32	8638.92
467.51	8482.10
467.69	8376.78
467.87	8608.49
468.05	8777.01
468.23	8667.00
468.41	8772.33
468.60	8500.83
468.78	8762.97
468.96	8542.96
469.14	8849.57
469.32	8875.31
469.50	8784.03
469.69	8840.20
469.87	9247.46
470.05	9083.62
470.23	9100.00
470.41	9118.73
470.59	9128.09
470.77	8952.55
470.95	9331.72
471.14	9151.49
471.32	9256.82
471.50	9441.72
471.68	9291.93
471.86	9362.14
472.04	9420.66
472.22	9603.22
472.40	9430.02
472.58	9387.89
472.77	9689.82
472.95	9654.71
473.13	10106.43
473.31	9692.16
473.49	9776.42
473.67	9750.67
473.85	9788.12
474.03	10019.83
474.21	10005.79
474.39	10169.63
474.57	10101.75
474.75	10265.59
474.93	10450.49
475.12	10462.19
475.30	10417.72
475.48	10377.94
475.66	10541.77
475.84	10279.63
476.02	10366.23
476.20	10555.82
476.38	10736.04
476.56	10832.00
476.74	10803.91
476.92	10883.49
477.10	10668.16
477.28	11248.61
477.46	10904.56
477.64	11372.66
477.82	11339.90
478.00	11536.50
478.18	11506.07
478.36	11566.93
478.54	11761.19
478.72	11618.42
478.90	11920.35
479.08	11943.75
479.26	12131.00
479.44	12173.13
479.62	12182.49
479.80	12461.01
479.98	12189.51
480.16	12514.84
480.34	12463.35
480.52	12746.56
480.70	12528.89
480.88	12716.13
481.06	12821.45
481.24	12788.69
481.41	13027.42
481.59	13209.98
481.77	13172.54
481.95	13172.54
482.13	13610.22
482.31	13315.31
482.49	13680.43
482.67	13888.74
482.85	13839.59
483.03	14029.17
483.21	14246.84
483.39	13996.40
483.57	14045.55
483.74	14590.90
483.92	14590.90
484.10	14457.49
484.28	14801.55
484.46	14831.97
484.64	15192.42
484.82	14682.18
485.00	14934.96
485.18	15262.63
485.35	15337.53
485.53	15246.25
485.71	15201.78
485.89	15573.92
486.07	15335.19
486.25	15400.72
486.43	15480.30
486.61	15889.90
486.78	16161.40
486.96	16226.93
487.14	16423.54
487.32	16271.40
487.50	16673.98
487.68	16905.69
487.85	17247.41
488.03	17170.17
488.21	17415.93
488.39	17425.29
488.57	17408.90
488.75	17387.84
488.92	17713.17
489.10	17984.68
489.28	17963.61
489.46	18099.36
489.64	18169.58
489.81	18698.54
489.99	18527.68
490.17	18745.35
490.35	18867.06
490.53	19000.47
490.70	19112.81
490.88	19075.37
491.06	19264.95
491.24	19337.51
491.41	19379.64
491.59	19176.01
491.77	19522.41
491.95	19644.12
492.13	19932.00
492.30	20105.20
492.48	20173.08
492.66	19953.07
492.84	19985.83
493.01	20439.90
493.19	20365.00
493.37	20779.28
493.54	20652.89
493.72	21013.33
493.90	21090.57
494.08	21577.40
494.25	21621.87
494.43	21422.92
494.61	21298.88
494.79	21404.20
494.96	21579.74
495.14	21556.33
495.32	22104.02
495.49	22150.83
495.67	22099.34
495.85	22309.99
496.02	22359.14
496.20	22740.64
496.38	22857.67
496.55	22661.07
496.73	23243.86
496.91	23096.41
497.09	23185.35
497.26	23278.97
497.44	23274.29
497.62	23377.27
497.79	23765.80
497.97	23583.24
498.14	23702.61
498.32	23356.21
498.50	24049.00
498.67	24425.83
498.85	24149.65
499.03	24147.31
499.20	24243.27
499.38	24692.65
499.56	24517.11
499.73	24924.36
499.91	24968.84
500.08	24957.13
500.26	24723.08
500.44	24783.93
500.61	24830.74
500.79	24760.53
500.97	24961.81
501.14	25560.99
501.32	25046.07
501.49	25490.77
501.67	25710.78
501.84	25654.61
502.02	25596.10
502.20	25972.92
502.37	26120.38
502.55	25764.62
502.72	25895.69
502.90	26139.10
503.07	26036.12
503.25	26459.76
503.43	26162.51
503.60	26408.26
503.78	26864.67
503.95	26810.84
504.13	26813.18
504.30	26845.94
504.48	27014.46
504.65	26951.27
504.83	26934.88
505.01	27065.96
505.18	27524.70
505.36	27278.94
505.53	27564.49
505.71	27604.28
505.88	27702.58
506.06	27744.71
506.23	27550.45
506.41	27943.66
506.58	27978.76
506.76	27789.18
506.93	28231.54
507.11	27913.23
507.28	28184.73
507.46	27983.44
507.63	28184.73
507.81	28514.75
507.98	28264.31
508.16	28821.36
508.33	28629.43
508.50	29039.03
508.68	28900.94
508.85	29191.16
509.03	28938.38
509.20	29345.64
509.38	29043.71
509.55	29296.49
509.73	29465.00
509.90	29371.38
510.08	29511.81
510.25	29645.23
510.42	29652.25
510.60	29844.17
510.77	30178.87
510.95	30057.16
511.12	29738.85
511.30	29846.51
511.47	30242.06
511.64	30251.42
511.82	30251.42
511.99	30270.15
512.17	30445.69
512.34	30504.20
512.51	30525.27
512.69	30663.36
512.86	30635.27
513.04	30976.99
513.21	31115.08
513.38	30967.63
513.56	31014.44
513.73	30749.96
513.90	30906.77
514.08	30976.99
514.25	31171.25
514.43	31536.38
514.60	31159.55
514.77	31271.90
514.95	31604.25
515.12	31920.23
515.29	31571.49
515.47	31999.80
515.64	32016.19
515.81	31775.11
515.99	32149.60
516.16	31639.36
516.33	32460.89
516.51	32268.97
516.68	31592.55
516.85	31927.25
517.03	32114.49
517.20	32332.16
517.37	32273.65
517.54	32671.54
517.72	32165.98
517.89	32229.18
518.06	32437.48
518.24	32465.57
518.41	32542.81
518.58	32622.39
518.75	32694.94
518.93	33251.99
519.10	32926.66
519.27	33205.18
519.45	33488.38
519.62	33153.69
519.79	33097.52
519.96	33146.67
520.14	33352.63
520.31	33181.77
520.48	33823.08
520.65	33701.37
520.83	33942.45
521.00	33734.14
521.17	34263.10
521.34	34059.48
521.52	34237.36
521.69	34195.23
521.86	34267.78
522.03	33820.74
522.20	34543.97
522.38	34745.25
522.55	34682.06
522.72	34473.75
522.89	34417.58
523.07	34817.81
523.24	34550.99
523.41	34632.91
523.58	34813.13
523.75	35487.20
523.92	35330.39
524.10	35442.73
524.27	35564.44
524.44	35262.51
524.61	35585.50
524.78	35573.80
524.96	35482.52
525.13	35529.33
525.30	35915.52
525.47	35917.86
525.64	35681.47
525.81	36053.61
525.98	35892.12
526.16	35590.19
526.33	35175.91
526.50	36222.13
526.67	35978.72
526.84	36016.16
527.01	35711.89
527.18	36491.29
527.36	36266.60
527.53	36058.29
527.70	36762.79
527.87	36561.51
528.04	36065.31
528.21	36376.61
528.38	36730.03
528.55	36477.25
528.72	36671.51
528.89	37233.24
529.07	36882.16
529.24	37022.59
529.41	36774.50
529.58	37083.45
529.75	37046.00
529.92	37095.15
530.09	37237.92
530.26	36992.17
530.43	37469.64
530.60	36800.24
530.77	37364.31
530.94	37752.84
531.11	37448.57
531.28	37757.52
531.46	37563.26
531.63	37612.41
531.80	37509.43
531.97	37647.52
532.14	37790.29
532.31	37471.98
532.48	37801.99
532.65	37834.76
532.82	38073.49
532.99	37886.25
533.16	37923.70
533.33	38000.94
533.50	38335.63
533.67	38082.86
533.84	38117.96
534.01	38242.01
534.18	37745.82
534.35	38550.96
534.52	38153.07
534.69	38696.08
534.86	38506.49
535.03	38153.07
535.20	38759.27
535.37	38838.85
535.54	39325.68
535.71	38892.68
535.88	38703.10
536.05	38756.93
536.22	38897.36
536.38	38792.04
536.55	38733.53
536.72	38670.33
536.89	39220.36
537.06	38866.94
537.23	39285.89
537.40	38899.70
537.57	39126.74
537.74	39236.74
537.91	39629.95
538.08	39070.56
538.25	39178.23
538.42	39494.20
538.59	39463.77
538.75	38820.13
538.92	39807.83
539.09	39510.58
539.26	39861.66
539.43	39510.58
539.60	39564.42
539.77	39796.13
539.94	39864.00
540.11	39751.66
540.28	39519.95
540.44	39487.18
540.61	39763.36
540.78	39861.66
540.95	39966.99
541.12	40088.70
541.29	39934.22
541.46	39782.09
541.62	40282.96
541.79	39988.05
541.96	39938.90
542.13	39908.47
542.30	40053.59
542.47	40495.95
542.63	40559.14
542.80	40957.03
542.97	40832.99
543.14	41067.04
543.31	40835.33
543.48	40517.01
543.64	40975.76
543.81	41118.53
543.98	40795.54
544.15	40982.78
544.32	41134.92
544.48	41181.73
544.65	41263.64
544.82	40779.15
544.99	40765.11
545.16	41343.22
545.32	40950.01
545.49	41525.78
545.66	41687.28
545.83	41081.08
546.00	41411.10
546.16	41434.50
546.33	41593.66
546.50	40957.03
546.67	41378.33
546.83	41167.68
547.00	41312.80
547.17	41457.91
547.34	41385.35
547.50	41642.81
547.67	42026.66
547.84	41724.73
548.00	42146.03
548.17	42066.45
548.34	41553.87
548.51	42174.11
548.67	42344.97
548.84	42117.94
549.01	42141.35
549.18	41874.52
549.34	42431.57
549.51	42417.53
549.68	42433.91
549.84	42373.06
550.01	42344.97
550.18	42139.00
550.34	41918.99
550.51	42197.52
550.68	41947.08
550.84	41916.65
551.01	42211.56
551.18	42300.50
551.34	42153.05
551.51	42389.44
551.68	42403.49
551.84	42937.13
552.01	42328.59
552.18	42600.09
552.34	42377.74
552.51	42841.17
552.68	42887.98
552.84	42583.71
553.01	43093.94
553.18	42714.78
553.34	42710.10
553.51	42504.13
553.67	43002.66
553.84	43185.22
554.01	43346.72
554.17	43150.12
554.34	43239.06
554.51	43131.39
554.67	43138.41
554.84	43435.66
555.00	43016.71
555.17	42834.14
555.33	43412.26
555.50	42864.57
555.67	43454.39
555.83	43353.74
556.00	43257.78
556.16	43564.39
556.33	43648.65
556.50	43414.60
556.66	43580.78
556.83	43564.39
556.99	43868.66
557.16	43433.32
557.32	43639.29
557.49	43054.15
557.65	43061.18
557.82	43068.20
557.98	43548.01
558.15	43353.74
558.32	43775.04
558.48	43433.32
558.65	43566.73
558.81	43358.42
558.98	43421.62
559.14	43887.39
559.31	43526.94
559.47	43716.53
559.64	43665.03
559.80	43709.50
559.97	43805.47
560.13	43840.57
560.30	43662.69
560.46	43634.61
560.63	43955.26
560.79	44259.53
560.96	44051.22
561.12	43634.61
561.29	44128.46
561.45	43583.12
561.61	43803.13
561.78	43880.36
561.94	44048.88
562.11	43735.25
562.27	43927.17
562.44	43548.01
562.60	44402.30
562.77	44105.06
562.93	44107.40
563.10	44196.34
563.26	43903.77
563.42	44100.37
563.59	44388.26
563.75	44320.38
563.92	44744.02
564.08	44418.69
564.24	44151.87
564.41	44336.77
564.57	44376.56
564.74	43941.22
564.90	44648.06
565.07	44329.75
565.23	44062.93
565.39	43927.17
565.56	44442.09
565.72	44032.50
565.88	44781.47
566.05	44233.78
566.21	44362.51
566.38	44800.19
566.54	44645.72
566.70	44374.22
566.87	44877.43
567.03	44123.78
567.19	44839.98
567.36	44540.39
567.52	44362.51
567.68	44751.04
567.85	44495.92
568.01	44898.50
568.17	44432.73
568.34	44556.78
568.50	44774.45
568.66	44240.81
568.83	44507.63
568.99	44362.51
569.15	44481.88
569.32	44224.42
569.48	44315.70
569.64	44725.30
569.81	44591.89
569.97	44456.14
570.13	44362.51
570.30	44170.59
570.46	44357.83
570.62	44360.17
570.78	44353.15
570.95	44339.11
571.11	44912.54
571.27	44737.00
571.43	44172.93
571.60	44910.20
571.76	44404.64
571.92	44526.35
572.09	44584.86
572.25	44552.10
572.41	44830.62
572.57	44591.89
572.74	44928.92
572.90	44921.90
573.06	44774.45
573.22	44767.43
573.38	44629.34
573.55	44629.34
573.71	44568.48
573.87	44851.69
574.03	44374.22
574.20	44758.06
574.36	44502.95
574.52	44949.99
574.68	44809.56
574.84	44547.42
575.01	44655.08
575.17	45247.24
575.33	44552.10
575.49	44601.25
575.65	44744.02
575.82	45350.22
575.98	44854.03
576.14	45139.57
576.30	44882.11
576.46	44325.07
576.62	44715.93
576.79	44594.23
576.95	44914.88
577.11	44758.06
577.27	45177.02
577.43	44851.69
577.59	44739.34
577.75	44832.96
577.92	44404.64
578.08	44493.58
578.24	44634.02
578.40	44509.97
578.56	44547.42
578.72	44776.79
578.88	45160.64
579.04	44823.60
579.21	44622.31
579.37	44568.48
579.53	44758.06
579.69	44512.31
579.85	44964.03
580.01	44821.26
580.17	44964.03
580.33	45406.39
580.49	44903.18
580.65	44863.39
580.82	44891.48
580.98	44931.26
581.14	44849.35
581.30	44849.35
581.46	45216.81
581.62	45191.06
581.78	45074.04
581.94	45076.38
582.10	45109.14
582.26	44811.90
582.42	44795.51
582.58	45029.57
582.74	45104.46
582.90	45045.95
583.06	44870.41
583.22	45294.05
583.38	45207.45
583.54	44952.33
583.70	44772.11
583.86	45038.93
584.02	44697.21
584.18	45020.20
584.34	45240.21
584.50	44935.95
584.66	44914.88
584.82	44966.37
584.98	45244.90
585.14	44825.94
585.30	44809.56
585.46	44903.18
585.62	44994.46
585.78	44961.69
585.94	44678.49
586.10	44828.28
586.26	44687.85
586.42	44762.75
586.58	45296.39
586.74	45500.01
586.90	44903.18
587.06	44746.36
587.22	45120.85
587.38	44425.71
587.54	45471.93
587.70	45359.58
587.86	45179.36
588.02	44804.88
588.18	45560.87
588.34	44507.63
588.49	44821.26
588.65	45022.54
588.81	44823.60
588.97	44823.60
589.13	44999.14
589.29	45029.57
589.45	44823.60
589.61	45055.31
589.77	45418.10
589.93	45118.51
590.08	45202.77
590.24	45013.18
