SpectraSuite Data File
++++++++++++++++++++++++++++++++++++
Date: Fri Oct 25 11:25:07 EDT 2013
User: price-jones
Dark Spectrum Present: No
Reference Spectrum Present: No
Number of Sampled Component Spectra: 1
Spectrometers: USB2+H05261
Integration Time (usec): 100000 (USB2+H05261)
Spectra Averaged: 1 (USB2+H05261)
Boxcar Smoothing: 0 (USB2+H05261)
Correct for Electrical Dark: No (USB2+H05261)
Strobe/Lamp Enabled: No (USB2+H05261)
Correct for Detector Non-linearity: No (USB2+H05261)
Correct for Stray Light: No (USB2+H05261)
Number of Pixels in Processed Spectrum: 2048
>>>>>Begin Processed Spectral Data<<<<<
365.73	255.12
365.92	255.12
366.12	255.12
366.32	91.28
366.52	124.05
366.72	194.26
366.91	100.64
367.11	138.09
367.31	91.28
367.51	131.07
367.70	196.60
367.90	135.75
368.10	84.26
368.30	170.86
368.49	84.26
368.69	180.22
368.89	121.71
369.09	147.45
369.28	241.08
369.48	170.86
369.68	217.67
369.87	177.88
370.07	107.66
370.27	236.39
370.47	325.33
370.66	566.41
370.86	655.35
371.06	711.52
371.25	727.91
371.45	638.97
371.65	709.18
371.84	695.14
372.04	716.20
372.24	674.07
372.44	737.27
372.63	741.95
372.83	720.88
373.03	770.04
373.22	767.70
373.42	734.93
373.62	667.05
373.81	802.80
374.01	828.55
374.21	823.87
374.40	697.48
374.60	812.17
374.79	793.44
374.99	866.00
375.19	830.89
375.38	793.44
375.58	823.87
375.78	842.59
375.97	826.21
376.17	915.15
376.37	812.17
376.56	837.91
376.76	898.77
376.95	844.93
377.15	952.60
377.35	947.92
377.54	908.13
377.74	891.74
377.93	922.17
378.13	887.06
378.33	884.72
378.52	922.17
378.72	954.94
378.91	1060.26
379.11	985.37
379.31	896.43
379.50	936.21
379.70	997.07
379.89	973.66
380.09	950.26
380.28	973.66
380.48	997.07
380.68	912.81
380.87	898.77
381.07	1046.22
381.26	1022.81
381.46	926.85
381.65	973.66
381.85	1013.45
382.04	1034.52
382.24	1086.01
382.43	1165.59
382.63	1043.88
382.83	957.28
383.02	987.71
383.22	1071.97
383.41	1057.92
383.61	1095.37
383.80	1172.61
384.00	1067.28
384.19	1104.73
384.39	1095.37
384.58	1118.78
384.78	1170.27
384.97	1240.48
385.17	1142.18
385.36	1151.54
385.56	1165.59
385.75	1174.95
385.95	1156.22
386.14	1203.04
386.34	1177.29
386.53	1191.33
386.72	1207.72
386.92	1212.40
387.11	1259.21
387.31	1256.87
387.50	1205.38
387.70	1259.21
387.89	1247.51
388.09	1217.08
388.28	1275.59
388.48	1376.24
388.67	1224.10
388.86	1306.02
389.06	1224.10
389.25	1390.28
389.45	1420.71
389.64	1397.30
389.84	1366.87
390.03	1336.45
390.22	1413.68
390.42	1439.43
390.61	1416.02
390.81	1357.51
391.00	1317.72
391.19	1514.33
391.39	1364.53
391.58	1373.89
391.78	1420.71
391.97	1488.58
392.16	1469.86
392.36	1502.62
392.55	1558.80
392.75	1472.20
392.94	1582.20
393.13	1547.09
393.33	1523.69
393.52	1521.35
393.71	1640.72
393.91	1582.20
394.10	1488.58
394.29	1586.88
394.49	1526.03
394.68	1638.38
394.88	1687.53
395.07	1675.82
395.26	1689.87
395.46	1755.40
395.65	1685.19
395.84	1673.48
396.04	1797.53
396.23	1776.47
396.42	1774.13
396.62	1729.66
396.81	1806.89
397.00	1750.72
397.19	1839.66
397.39	1806.89
397.58	1818.60
397.77	1673.48
397.97	1783.49
398.16	1856.04
398.35	1872.43
398.55	1937.96
398.74	1907.54
398.93	1867.75
399.12	1872.43
399.32	1902.86
399.51	1956.69
399.70	1968.39
399.90	1935.62
400.09	1989.46
400.28	2085.42
400.47	2069.03
400.67	2146.27
400.86	2099.46
401.05	2026.90
401.24	2099.46
401.44	2136.91
401.63	2127.55
401.82	2001.16
402.01	2120.53
402.21	2160.31
402.40	2228.19
402.59	2190.74
402.78	2162.66
402.97	2174.36
403.17	2279.68
403.36	2136.91
403.55	2286.70
403.74	2319.47
403.93	2216.49
404.13	2282.02
404.32	2445.86
404.51	2263.30
404.70	2399.05
404.89	2370.96
405.09	2450.54
405.28	2480.97
405.47	2495.01
405.66	2466.92
405.85	2527.78
406.05	2422.45
406.24	2614.38
406.43	2483.31
406.62	2485.65
406.81	2722.04
407.00	2647.15
407.20	2572.25
407.39	2558.21
407.58	2710.34
407.77	2750.13
407.96	2696.30
408.15	2633.10
408.34	2715.02
408.54	2902.26
408.73	2782.90
408.92	2785.24
409.11	2930.35
409.30	2932.69
409.49	3000.57
409.68	2960.78
409.87	2937.37
410.07	2876.52
410.26	2925.67
410.45	3038.02
410.64	2988.86
410.83	3080.14
411.02	3056.74
411.21	3232.28
411.40	3110.57
411.59	3185.47
411.78	3124.62
411.98	3159.72
412.17	3251.00
412.36	3248.66
412.55	3314.20
412.74	3330.58
412.93	3316.54
413.12	3494.42
413.31	3407.82
413.50	3384.41
413.69	3393.78
413.88	3599.74
414.07	3428.88
414.26	3527.19
414.45	3665.28
414.64	3541.23
414.83	3829.12
415.02	3775.28
415.22	3805.71
415.41	3892.31
415.60	3953.16
415.79	3854.86
415.98	3953.16
416.17	4002.32
416.36	3964.87
416.55	4051.47
416.74	4058.49
416.93	4042.11
417.12	4147.43
417.31	4145.09
417.50	4182.54
417.69	4360.42
417.88	4428.29
418.07	4255.09
418.26	4379.14
418.45	4229.35
418.64	4379.14
418.83	4425.95
419.02	4311.27
419.21	4458.72
419.39	4528.94
419.58	4484.47
419.77	4533.62
419.96	4528.94
420.15	4629.58
420.34	4585.11
420.53	4589.79
420.72	4727.88
420.91	4662.35
421.10	4636.60
421.29	4858.95
421.48	4711.50
421.67	4681.07
421.86	4709.16
422.05	4683.41
422.24	4774.69
422.43	4919.81
422.61	4856.61
422.80	4814.48
422.99	4894.06
423.18	5001.72
423.37	5125.77
423.56	4917.47
423.75	4861.29
423.94	4758.31
424.13	4582.77
424.32	4788.74
424.50	4975.98
424.69	5174.92
424.88	5088.32
425.07	4980.66
425.26	4863.63
425.45	4926.83
425.64	5057.90
425.83	5027.47
426.01	4952.57
426.20	5025.13
426.39	4933.85
426.58	4938.53
426.77	5018.11
426.96	4915.12
427.15	5135.14
427.33	5111.73
427.52	5188.97
427.71	5219.39
427.90	5179.61
428.09	5193.65
428.28	5193.65
428.46	5387.91
428.65	5273.23
428.84	5488.56
429.03	5380.89
429.22	5165.56
429.40	5514.30
429.59	5451.11
429.78	5336.42
429.97	5329.40
430.16	5483.88
430.34	5462.81
430.53	5591.54
430.72	5479.19
430.91	5586.86
431.10	5497.92
431.28	5713.25
431.47	5797.51
431.66	5849.00
431.85	5689.84
432.03	5944.96
432.22	5851.34
432.41	5907.51
432.60	5820.91
432.79	5863.04
432.97	5966.03
433.16	5886.45
433.35	5933.26
433.54	5942.62
433.72	5975.39
433.91	6186.04
434.10	6071.35
434.28	5949.64
434.47	6279.66
434.66	6221.14
434.85	6265.61
435.03	6253.91
435.22	6139.23
435.41	6387.32
435.59	6356.90
435.78	6455.20
435.97	6469.24
436.16	6506.69
436.34	6324.13
436.53	6607.33
436.72	6633.08
436.90	6328.81
437.09	6574.56
437.28	6394.34
437.46	6581.59
437.65	6773.51
437.84	6684.57
438.02	6572.22
438.21	6672.87
438.40	6731.38
438.58	6895.22
438.77	7052.03
438.96	6951.39
439.14	7052.03
439.33	7115.23
439.52	6963.09
439.70	7192.47
439.89	7372.69
440.08	7236.94
440.26	7442.90
440.45	7145.66
440.63	7351.62
440.82	7613.76
441.01	7470.99
441.19	7616.10
441.38	7564.61
441.57	7691.00
441.75	7632.49
441.94	7911.01
442.12	7934.42
442.31	7871.22
442.50	8135.70
442.68	7772.92
442.87	8032.72
443.05	7946.12
443.24	8046.76
443.43	7988.25
443.61	8163.79
443.80	8224.64
443.98	8088.89
444.17	7758.88
444.35	8379.12
444.54	8362.73
444.73	8205.92
444.91	8152.09
445.10	8400.18
445.28	8189.53
445.47	8114.64
445.65	8322.94
445.84	8500.83
446.02	8369.76
446.21	8304.22
446.39	8442.31
446.58	8395.50
446.77	8507.85
446.95	8257.41
447.14	8294.86
447.32	8594.45
447.51	8681.05
447.69	8409.54
447.88	8437.63
448.06	8297.20
448.25	8355.71
448.43	8592.11
448.62	8454.02
448.80	8428.27
448.99	8568.70
449.17	8702.11
449.36	8730.20
449.54	8718.50
449.73	8903.40
449.91	8957.23
450.10	9006.38
450.28	8933.82
450.46	8915.10
450.65	8975.95
450.83	9132.77
451.02	9055.53
451.20	9100.00
451.39	9118.73
451.57	9195.96
451.76	9013.40
451.94	9107.02
452.13	9219.37
452.31	9217.03
452.49	9221.71
452.68	9312.99
452.86	9320.01
453.05	9500.23
453.23	9413.63
453.42	9263.84
453.60	9310.65
453.78	9486.19
453.97	9343.42
454.15	9329.38
454.34	9355.12
454.52	9462.79
454.70	9582.15
454.89	9729.61
455.07	9792.80
455.26	9687.48
455.44	9837.27
455.62	9844.29
455.81	9675.77
455.99	9692.16
456.17	9811.53
456.36	9865.36
456.54	10080.69
456.73	10040.90
456.91	10623.69
457.09	10373.25
457.28	10246.87
457.46	10244.52
457.64	10579.22
457.83	10455.17
458.01	10436.45
458.19	10696.25
458.38	10604.97
458.56	10693.91
458.74	10607.31
458.93	10487.94
459.11	10682.20
459.29	10714.97
459.48	10569.86
459.66	10878.81
459.84	10860.09
460.03	10995.84
460.21	10974.77
460.39	10869.45
460.57	10834.34
460.76	10977.11
460.94	11066.05
461.12	11335.21
461.31	11110.52
461.49	11044.99
461.67	11070.73
461.85	11431.18
462.04	11145.63
462.22	11545.86
462.40	11548.20
462.59	11379.68
462.77	11365.64
462.95	11433.52
463.13	11639.48
463.32	11386.71
463.50	11672.25
463.68	11623.10
463.86	11660.55
464.05	11412.45
464.23	11611.40
464.41	12060.78
464.59	11620.76
464.78	12023.33
464.96	11864.18
465.14	11969.50
465.32	11903.96
465.50	11875.88
465.69	12168.45
465.87	11969.50
466.05	12025.67
466.23	11927.37
466.41	12173.13
466.60	12432.93
466.78	12067.80
466.96	12030.35
467.14	12238.66
467.32	12531.23
467.51	12212.92
467.69	12065.46
467.87	12451.65
468.05	12322.92
468.23	12390.80
468.41	12397.82
468.60	12437.61
468.78	12659.96
468.96	12519.53
469.14	12571.02
469.32	12987.63
469.50	12662.30
469.69	12987.63
469.87	13142.11
470.05	12924.44
470.23	13270.84
470.41	12952.52
470.59	13266.16
470.77	13174.88
470.95	13146.79
471.14	13366.80
471.32	12896.35
471.50	13598.51
471.68	13841.93
471.86	13565.74
472.04	13490.85
472.22	14225.78
472.40	13472.12
472.58	13799.80
472.77	13816.18
472.95	14038.53
473.13	14668.14
473.31	14019.81
473.49	14017.47
473.67	13921.51
473.85	14263.22
474.03	14518.34
474.21	14436.42
474.39	14820.27
474.57	14647.07
474.75	14782.82
474.93	14647.07
475.12	15054.33
475.30	14899.85
475.48	14876.44
475.66	15194.76
475.84	14984.11
476.02	15466.26
476.20	15330.51
476.38	15569.24
476.56	15903.94
476.74	15922.66
476.92	16100.55
477.10	15704.99
477.28	15719.04
477.46	16137.99
477.64	16325.24
477.82	16285.45
478.00	16781.64
478.18	16858.88
478.36	16723.13
478.54	17067.19
478.72	16800.37
478.90	17249.75
479.08	17539.97
479.26	17603.17
479.44	17600.83
479.62	17455.72
479.80	18001.06
479.98	17893.40
480.16	18541.72
480.34	18302.99
480.52	18349.80
480.70	18487.89
480.88	18281.92
481.06	18759.39
481.24	18775.78
481.41	18881.10
481.59	19152.60
481.77	19260.27
481.95	19332.82
482.13	19433.47
482.31	19466.24
482.49	20144.99
482.67	19976.47
482.85	20236.27
483.03	20477.35
483.21	20659.91
483.39	20559.27
483.57	20680.97
483.74	20975.88
483.92	21221.64
484.10	21432.29
484.28	21579.74
484.46	21654.64
484.64	22082.95
484.82	21703.79
485.00	22183.60
485.18	22574.47
485.35	22775.75
485.53	22986.40
485.71	22878.74
485.89	23562.17
486.07	22974.70
486.25	23028.53
486.43	23199.39
486.61	23756.44
486.78	24044.32
486.96	24229.23
487.14	24458.60
487.32	24280.72
487.50	24442.21
487.68	24514.77
487.85	25282.47
488.03	25111.61
488.21	25390.13
488.39	25986.97
488.57	25790.36
488.75	26064.21
488.92	26586.15
489.10	26539.33
489.28	26691.47
489.46	26757.00
489.64	26754.66
489.81	27704.92
489.99	27735.35
490.17	27754.07
490.35	28163.67
490.53	28173.03
490.70	28353.25
490.88	28212.82
491.06	28591.98
491.24	28666.88
491.41	28821.36
491.59	29022.64
491.77	28730.08
491.95	29294.14
492.13	29425.22
492.30	29900.34
492.48	30043.12
492.66	30022.05
492.84	30050.14
493.01	30506.54
493.19	30721.87
493.37	30726.55
493.54	30941.88
493.72	31302.32
493.90	31192.32
494.08	31548.08
494.25	31812.56
494.43	31711.92
494.61	32201.09
494.79	32381.31
494.96	32381.31
495.14	32533.45
495.32	33062.41
495.49	32847.08
495.67	33181.77
495.85	33081.13
496.02	33748.18
496.20	33879.25
496.38	33982.24
496.55	33855.85
496.73	34749.93
496.91	34319.28
497.09	34515.88
497.26	34920.79
497.44	34827.17
497.62	35321.02
497.79	35917.86
497.97	34986.33
498.14	35742.32
498.32	35747.00
498.50	35859.35
498.67	36552.15
498.85	36287.67
499.03	36481.93
499.20	36446.82
499.38	36610.66
499.56	36582.57
499.73	36732.37
499.91	37291.76
500.08	37881.57
500.26	37207.50
500.44	37057.70
500.61	37537.51
500.79	37818.38
500.97	37677.94
501.14	38443.30
501.32	38361.38
501.49	38492.45
501.67	38717.14
501.84	38733.53
502.02	38356.70
502.20	38778.00
502.37	38988.64
502.55	39072.90
502.72	39257.81
502.90	39199.29
503.07	39592.50
503.25	39622.93
503.43	39587.82
503.60	39702.51
503.78	39995.07
503.95	40025.50
504.13	40273.60
504.30	40320.41
504.48	40172.96
504.65	40362.54
504.83	40664.47
505.01	40935.97
505.18	41106.83
505.36	41345.56
505.53	40987.46
505.71	41542.17
505.88	41329.18
506.06	41057.68
506.23	41944.74
506.41	41647.49
506.58	42085.17
506.76	42029.00
506.93	41911.97
507.11	42476.04
507.28	42377.74
507.46	42340.29
507.63	42522.85
507.81	42745.20
507.98	42752.23
508.16	43306.93
508.33	43225.01
508.50	43089.26
508.68	43672.06
508.85	43695.46
509.03	43468.43
509.20	43550.35
509.38	44107.40
509.55	44062.93
509.73	44500.61
509.90	44486.56
510.08	44098.03
510.25	44229.10
510.42	44580.18
510.60	44594.23
510.77	45272.98
510.95	45130.21
511.12	44786.15
511.30	45219.15
511.47	45221.49
511.64	45380.65
511.82	45811.31
511.99	45500.01
512.17	45610.02
512.34	45874.50
512.51	46281.75
512.69	46141.32
512.86	46232.60
513.04	46342.61
513.21	46466.66
513.38	46738.16
513.56	46784.97
513.73	46314.52
513.90	46813.05
514.08	46358.99
514.25	46969.87
514.43	47033.07
514.60	47402.87
514.77	46944.12
514.95	47253.08
515.12	47100.94
515.29	47482.45
515.47	48102.69
515.64	47842.89
515.81	47896.72
515.99	48013.75
516.16	48114.39
516.33	48203.33
516.51	48704.21
516.68	47952.90
516.85	48332.06
517.03	48556.75
517.20	48678.46
517.37	48444.41
517.54	48243.12
517.72	48240.78
517.89	48718.25
518.06	48416.32
518.24	49223.81
518.41	49228.49
518.58	49151.25
518.75	49055.29
518.93	49729.36
519.10	49120.82
519.27	49514.03
519.45	49869.79
519.62	49483.61
519.79	50064.06
519.96	49986.82
520.14	49579.57
520.31	49804.26
520.48	50218.53
520.65	50078.10
520.83	50504.08
521.00	50307.47
521.17	50623.45
521.34	50145.98
521.52	50782.60
521.69	50438.54
521.86	50752.18
522.03	50660.90
522.20	51110.28
522.38	51049.42
522.55	51133.68
522.72	51124.32
522.89	51124.32
523.07	51674.35
523.24	51421.57
523.41	51452.00
523.58	51119.64
523.75	51892.02
523.92	51557.32
524.10	51641.58
524.27	51882.66
524.44	51648.60
524.61	52023.09
524.78	51950.53
524.96	51934.15
525.13	51971.60
525.30	52072.24
525.47	52226.71
525.64	52289.91
525.81	52413.96
525.98	52325.02
526.16	52018.41
526.33	52699.50
526.50	52830.57
526.67	52596.52
526.84	52552.05
527.01	52701.84
527.18	52687.80
527.36	52800.15
527.53	52615.24
527.70	53331.45
527.87	53151.23
528.04	52893.77
528.21	53088.03
528.38	52963.98
528.55	52842.27
528.72	53308.04
528.89	53268.25
529.07	53099.73
529.24	53462.52
529.41	53415.71
529.58	53366.55
529.75	53588.91
529.92	53481.24
530.09	53851.05
530.26	53886.15
530.43	53719.98
530.60	53558.48
530.77	53256.55
530.94	53881.47
531.11	53879.13
531.28	54021.90
531.46	54026.59
531.63	54138.93
531.80	54124.89
531.97	54167.02
532.14	54424.48
532.31	54218.51
532.48	54490.01
532.65	54674.91
532.82	54262.98
532.99	54618.74
533.16	54431.50
533.33	54801.30
533.50	54726.41
533.67	54600.02
533.84	54482.99
534.01	54679.60
534.18	54707.68
534.35	55128.98
534.52	54925.35
534.69	55201.53
534.86	55030.68
535.03	55262.39
535.20	55075.15
535.37	55028.34
535.54	55227.28
535.71	55166.43
535.88	55337.29
536.05	55318.56
536.22	55358.35
536.38	55402.82
536.55	55224.94
536.72	55351.33
536.89	55208.56
537.06	55578.36
537.23	55634.53
537.40	55351.33
537.57	55428.57
537.74	55512.83
537.91	55573.68
538.08	55793.69
538.25	55730.50
538.42	55573.68
538.59	55896.67
538.75	55723.47
538.92	56023.06
539.09	56041.79
539.26	55882.63
539.43	56020.72
539.60	55875.61
539.77	56172.86
539.94	56203.28
540.11	56210.31
540.28	56357.76
540.44	56348.40
540.61	56238.39
540.78	56097.96
540.95	56439.68
541.12	56449.04
541.29	56296.91
541.46	56301.59
541.62	56755.65
541.79	56640.96
541.96	56226.69
542.13	56493.51
542.30	56530.96
542.47	56549.68
542.63	56832.89
542.80	56816.50
542.97	56931.19
543.14	57254.18
543.31	56863.32
543.48	57057.58
543.64	57359.51
543.81	57219.08
543.98	56956.94
544.15	57193.33
544.32	57226.10
544.48	57602.92
544.65	57228.44
544.82	57176.95
544.99	57076.30
545.16	57233.12
545.32	57071.62
545.49	57422.70
545.66	57460.15
545.83	57450.79
546.00	57792.51
546.16	57551.43
546.33	57190.99
546.50	57286.95
546.67	57717.61
546.83	57268.23
547.00	57808.89
547.17	57670.80
547.34	57509.30
547.50	57893.15
547.67	57771.44
547.84	58035.92
548.00	58005.50
548.17	57811.23
548.34	58099.12
548.51	58110.82
548.67	58218.49
548.84	57949.32
549.01	57808.89
549.18	58064.01
549.34	57989.11
549.51	58106.14
549.68	58239.55
549.84	58197.42
550.01	58403.39
550.18	58012.52
550.34	58375.30
550.51	58445.52
550.68	58174.02
550.84	58110.82
551.01	58370.62
551.18	58354.24
551.34	58323.81
551.51	58543.82
551.68	58506.37
551.84	58482.97
552.01	58150.61
552.18	58546.16
552.34	58452.54
552.51	58574.25
552.68	58356.58
552.84	58415.09
553.01	58745.11
553.18	58791.92
553.34	58635.10
553.51	58721.70
553.67	58688.93
553.84	58915.96
554.01	58717.02
554.17	58822.34
554.34	58948.73
554.51	58925.33
554.67	59047.04
554.84	58906.60
555.00	59089.16
555.17	58911.28
555.33	58834.05
555.50	58857.45
555.67	58845.75
555.83	58920.65
556.00	58948.73
556.16	59131.29
556.33	59150.02
556.50	59093.85
556.66	59075.12
556.83	58848.09
556.99	59220.23
557.16	59292.79
557.32	59260.02
557.49	59250.66
557.65	59121.93
557.82	59084.48
557.98	59222.58
558.15	59285.77
558.32	59323.22
558.48	59185.13
558.65	59480.03
558.81	59222.58
558.98	59264.70
559.14	59517.48
559.31	59526.84
559.47	59547.91
559.64	59686.00
559.80	59402.80
559.97	59611.10
560.13	59346.62
560.30	59557.27
560.46	59632.17
560.63	59686.00
560.79	59913.03
560.96	59585.36
561.12	59690.68
561.29	59639.19
561.45	59735.15
561.61	59669.62
561.78	59788.98
561.94	59686.00
562.11	59920.05
562.27	59756.22
562.44	59870.90
562.60	59962.18
562.77	59901.33
562.93	59753.88
563.10	59749.20
563.26	59646.21
563.42	60177.51
563.59	60034.74
563.75	59702.38
563.92	59807.71
564.08	59831.11
564.24	59945.80
564.41	59915.37
564.57	59910.69
564.74	60198.58
564.90	59997.29
565.07	59863.88
565.23	60027.72
565.39	60032.40
565.56	60205.60
565.72	60186.88
565.88	59978.57
566.05	59971.55
566.21	59938.78
566.38	59913.03
566.54	60158.79
566.70	60266.45
566.87	60102.62
567.03	59894.31
567.19	60114.32
567.36	60165.81
567.52	60189.22
567.68	60378.80
567.85	60238.37
568.01	60280.50
568.17	60369.44
568.34	60207.94
568.50	60430.29
568.66	60081.55
568.83	60266.45
568.99	60231.35
569.15	60362.42
569.32	60341.35
569.48	60046.44
569.64	60217.30
569.81	60390.50
569.97	60126.02
570.13	60397.52
570.30	60271.14
570.46	60411.57
570.62	60488.80
570.78	60350.71
570.95	60327.31
571.11	60676.05
571.27	60243.05
571.43	60320.29
571.60	60346.03
571.76	60210.28
571.92	60413.91
572.09	60495.83
572.25	60523.91
572.41	60474.76
572.57	60409.23
572.74	60828.18
572.90	60617.53
573.06	60446.68
573.22	60479.44
573.38	60591.79
573.55	60339.01
573.71	60676.05
573.87	60416.25
574.03	60392.84
574.20	60615.19
574.36	60552.00
574.52	60465.40
574.68	60729.88
574.84	60715.84
575.01	60610.51
575.17	60474.76
575.33	60657.32
575.49	60654.98
575.65	60615.19
575.82	60619.88
575.98	60636.26
576.14	60676.05
576.30	60601.15
576.46	60713.50
576.62	60488.80
576.79	60697.11
576.95	60413.91
577.11	60755.63
577.27	60582.43
577.43	60713.50
577.59	60638.60
577.75	60783.71
577.92	60741.58
578.08	60406.89
578.24	60776.69
578.40	60739.24
578.56	60739.24
578.72	60657.32
578.88	61015.43
579.04	60903.08
579.21	60959.25
579.37	60921.80
579.53	60692.43
579.69	60713.50
579.85	60465.40
580.01	60807.12
580.17	60750.94
580.33	60755.63
580.49	60977.98
580.65	60715.84
580.82	60856.27
580.98	60654.98
581.14	60568.38
581.30	60933.51
581.46	60610.51
581.62	60891.38
581.78	60640.94
581.94	60816.48
582.10	60809.46
582.26	60598.81
582.42	60910.10
582.58	60699.45
582.74	60900.74
582.90	60748.60
583.06	60933.51
583.22	60491.15
583.38	60650.30
583.54	60846.91
583.70	60942.87
583.86	60896.06
584.02	60725.20
584.18	61120.75
584.34	61113.73
584.50	60949.89
584.66	60877.33
584.82	60793.07
584.98	61036.49
585.14	61010.74
585.30	60701.79
585.46	60907.76
585.62	60905.42
585.78	60987.34
585.94	60750.94
586.10	60802.44
586.26	60825.84
586.42	60809.46
586.58	61027.13
586.74	60912.44
586.90	60687.75
587.06	60818.82
587.22	60994.36
587.38	60828.18
587.54	60963.93
587.70	61092.66
587.86	60931.17
588.02	61029.47
588.18	60893.72
588.34	60830.52
588.49	60786.05
