SpectraSuite Data File
++++++++++++++++++++++++++++++++++++
Date: Fri Oct 25 11:22:30 EDT 2013
User: price-jones
Dark Spectrum Present: No
Reference Spectrum Present: No
Number of Sampled Component Spectra: 1
Spectrometers: USB2+H05261
Integration Time (usec): 100000 (USB2+H05261)
Spectra Averaged: 1 (USB2+H05261)
Boxcar Smoothing: 0 (USB2+H05261)
Correct for Electrical Dark: No (USB2+H05261)
Strobe/Lamp Enabled: No (USB2+H05261)
Correct for Detector Non-linearity: No (USB2+H05261)
Correct for Stray Light: No (USB2+H05261)
Number of Pixels in Processed Spectrum: 2048
>>>>>Begin Processed Spectral Data<<<<<
365.73	177.88
365.92	177.88
366.12	177.88
366.32	121.71
366.52	37.45
366.72	105.32
366.91	145.11
367.11	79.58
367.31	58.51
367.51	91.28
367.70	107.66
367.90	163.84
368.10	138.09
368.30	25.75
368.49	77.24
368.69	124.05
368.89	238.73
369.09	231.71
369.28	180.22
369.48	152.13
369.68	168.52
369.87	198.95
370.07	212.99
370.27	234.05
370.47	358.10
370.66	561.73
370.86	634.29
371.06	709.18
371.25	741.95
371.45	608.54
371.65	610.88
371.84	648.33
372.04	716.20
372.24	760.67
372.44	706.84
372.63	681.10
372.83	725.57
373.03	702.16
373.22	795.78
373.42	739.61
373.62	732.59
373.81	751.31
374.01	819.19
374.21	800.46
374.40	807.48
374.60	755.99
374.79	835.57
374.99	922.17
375.19	821.53
375.38	835.57
375.58	833.23
375.78	868.34
375.97	877.70
376.17	919.83
376.37	905.79
376.56	898.77
376.76	786.42
376.95	873.02
377.15	870.68
377.35	882.38
377.54	854.30
377.74	828.55
377.93	931.53
378.13	938.55
378.33	910.47
378.52	917.49
378.72	966.64
378.91	1018.13
379.11	954.94
379.31	938.55
379.50	877.70
379.70	968.98
379.89	938.55
380.09	1107.07
380.28	1015.79
380.48	919.83
380.68	961.96
380.87	985.37
381.07	1004.09
381.26	994.73
381.46	1006.43
381.65	1032.18
381.85	1076.65
382.04	1121.12
382.24	1078.99
382.43	1088.35
382.63	1015.79
382.83	1055.58
383.02	1097.71
383.22	1086.01
383.41	1083.67
383.61	1020.47
383.80	1034.52
384.00	1111.75
384.19	1181.97
384.39	1149.20
384.58	1153.88
384.78	1057.92
384.97	1146.86
385.17	1123.46
385.36	1191.33
385.56	1153.88
385.75	1210.06
385.95	1153.88
386.14	1240.48
386.34	1212.40
386.53	1200.69
386.72	1191.33
386.92	1273.25
387.11	1156.22
387.31	1277.93
387.50	1270.91
387.70	1203.04
387.89	1289.64
388.09	1221.76
388.28	1207.72
388.48	1322.40
388.67	1280.27
388.86	1399.64
389.06	1273.25
389.25	1390.28
389.45	1338.79
389.64	1275.59
389.84	1245.16
390.03	1411.34
390.22	1392.62
390.42	1406.66
390.61	1397.30
390.81	1343.47
391.00	1432.41
391.19	1497.94
391.39	1483.90
391.58	1509.65
391.78	1537.73
391.97	1441.77
392.16	1537.73
392.36	1565.82
392.55	1542.41
392.75	1460.49
392.94	1502.62
393.13	1570.50
393.33	1577.52
393.52	1640.72
393.71	1563.48
393.91	1561.14
394.10	1614.97
394.29	1561.14
394.49	1593.90
394.68	1685.19
394.88	1647.74
395.07	1664.12
395.26	1746.04
395.46	1673.48
395.65	1741.36
395.84	1685.19
396.04	1732.00
396.23	1783.49
396.42	1687.53
396.62	1713.27
396.81	1767.10
397.00	1703.91
397.19	1757.74
397.39	1713.27
397.58	1811.57
397.77	1753.06
397.97	1816.26
398.16	1900.52
398.35	1909.88
398.55	1846.68
398.74	1877.11
398.93	1942.64
399.12	1895.83
399.32	1921.58
399.51	1996.48
399.70	1905.20
399.90	1893.49
400.09	2001.16
400.28	2087.76
400.47	2008.18
400.67	2073.71
400.86	2188.40
401.05	2111.16
401.24	2134.57
401.44	2160.31
401.63	2104.14
401.82	2228.19
402.01	2132.23
402.21	2157.97
402.40	2200.10
402.59	2197.76
402.78	2214.15
402.97	2181.38
403.17	2204.78
403.36	2312.45
403.55	2251.60
403.74	2429.48
403.93	2382.67
404.13	2380.32
404.32	2382.67
404.51	2420.11
404.70	2427.14
404.89	2403.73
405.09	2459.90
405.28	2541.82
405.47	2595.65
405.66	2572.25
405.85	2558.21
406.05	2548.84
406.24	2567.57
406.43	2562.89
406.62	2651.83
406.81	2715.02
407.00	2633.10
407.20	2597.99
407.39	2588.63
407.58	2679.91
407.77	2801.62
407.96	2906.95
408.15	2850.77
408.34	2771.19
408.54	2815.66
408.73	2759.49
408.92	2759.49
409.11	2857.79
409.30	2857.79
409.49	2970.14
409.68	2818.00
409.87	2970.14
410.07	3047.38
410.26	2946.73
410.45	3023.97
410.64	3016.95
410.83	3033.33
411.02	3049.72
411.21	3236.96
411.40	3150.36
411.59	3222.92
411.78	3138.66
411.98	3246.32
412.17	3274.41
412.36	3325.90
412.55	3293.13
412.74	3372.71
412.93	3433.57
413.12	3384.41
413.31	3513.14
413.50	3545.91
413.69	3541.23
413.88	3517.83
414.07	3644.21
414.26	3653.58
414.45	3588.04
414.64	3688.68
414.83	3719.11
415.02	3789.33
415.22	3868.91
415.41	3908.69
415.60	3775.28
415.79	3873.59
415.98	3981.25
416.17	3932.10
416.36	4002.32
416.55	4095.94
416.74	4074.87
416.93	4077.21
417.12	4184.88
417.31	4140.41
417.50	4222.33
417.69	4264.46
417.88	4376.80
418.07	4269.14
418.26	4175.52
418.45	4411.91
418.64	4444.68
418.83	4440.00
419.02	4348.72
419.21	4489.15
419.39	4603.83
419.58	4507.87
419.77	4594.47
419.96	4620.22
420.15	4615.54
420.34	4685.75
420.53	4737.24
420.72	4615.54
420.91	4650.64
421.10	4800.44
421.29	4638.94
421.48	4814.48
421.67	4777.03
421.86	4777.03
422.05	4770.01
422.24	4945.55
422.43	4837.89
422.61	5020.45
422.80	5041.51
422.99	5062.58
423.18	4802.78
423.37	5074.28
423.56	4980.66
423.75	4980.66
423.94	4980.66
424.13	4741.93
424.32	4746.61
424.50	4919.81
424.69	5018.11
424.88	4966.62
425.07	5067.26
425.26	4973.64
425.45	5060.24
425.64	4952.57
425.83	4975.98
426.01	5097.69
426.20	5050.88
426.39	5200.67
426.58	4966.62
426.77	5111.73
426.96	5069.60
427.15	5186.63
427.33	5336.42
427.52	5062.58
427.71	5263.86
427.90	5214.71
428.09	5355.15
428.28	5469.83
428.46	5329.40
428.65	5348.12
428.84	5584.52
429.03	5694.52
429.22	5530.69
429.40	5600.90
429.59	5727.29
429.78	5383.23
429.97	5289.61
430.16	5607.92
430.34	5717.93
430.53	5685.16
430.72	5743.67
430.91	5526.00
431.10	5603.24
431.28	5926.24
431.47	5874.74
431.66	5928.58
431.85	5781.12
432.03	6017.52
432.22	6033.90
432.41	5912.19
432.60	6085.39
432.79	5867.72
432.97	6155.61
433.16	6113.48
433.35	5930.92
433.54	6195.40
433.72	6113.48
433.91	6263.27
434.10	6289.02
434.28	6256.25
434.47	6267.95
434.66	6420.09
434.85	6174.33
435.03	6403.71
435.22	6326.47
435.41	6600.31
435.59	6677.55
435.78	6429.45
435.97	6712.66
436.16	6328.81
436.34	6626.06
436.53	6644.78
436.72	6609.67
436.90	6499.67
437.09	6764.15
437.28	6370.94
437.46	6520.73
437.65	6747.76
437.84	6712.66
438.02	6808.62
438.21	6759.47
438.40	6644.78
438.58	7049.69
438.77	7197.15
438.96	7105.87
439.14	7173.74
439.33	7232.26
439.52	7206.51
439.70	7396.09
439.89	7522.48
440.08	7536.52
440.26	7370.35
440.45	7543.55
440.63	7503.76
440.82	7545.89
441.01	7653.55
441.19	7796.32
441.38	7784.62
441.57	7700.36
441.75	7957.82
441.94	7932.08
442.12	7974.21
442.31	7948.46
442.50	7971.86
442.68	8135.70
442.87	8168.47
443.05	8376.78
443.24	8215.28
443.43	8210.60
443.61	8159.11
443.80	8475.08
443.98	8088.89
444.17	7906.33
444.35	8294.86
444.54	8601.47
444.73	8442.31
444.91	8273.79
445.10	8374.44
445.28	8311.24
445.47	8163.79
445.65	8217.62
445.84	8521.89
446.02	8751.26
446.21	8650.62
446.39	8344.01
446.58	8589.77
446.77	8568.70
446.95	8346.35
447.14	8554.66
447.32	8549.98
447.51	8634.24
447.69	8470.40
447.88	8575.72
448.06	8575.72
448.25	8500.83
448.43	8578.06
448.62	8753.60
448.80	8631.90
448.99	8606.15
449.17	8786.37
449.36	8571.04
449.54	8774.67
449.73	8896.38
449.91	9032.13
450.10	8849.57
450.28	9242.78
450.46	9193.62
450.65	9212.35
450.83	9149.15
451.02	9123.41
451.20	9401.93
451.39	9348.10
451.57	9317.67
451.76	9165.54
451.94	9231.07
452.13	9261.50
452.31	9327.03
452.49	9291.93
452.68	9425.34
452.86	9366.82
453.05	9500.23
453.23	9584.49
453.42	9348.10
453.60	9397.25
453.78	9811.53
453.97	9579.81
454.15	9511.94
454.34	9631.30
454.52	9638.33
454.70	9675.77
454.89	9858.34
455.07	9888.76
455.26	9832.59
455.44	10139.20
455.62	10305.38
455.81	10071.33
455.99	10017.49
456.17	10033.88
456.36	10204.74
456.54	10328.78
456.73	10471.56
456.91	10651.78
457.09	10523.05
457.28	10663.48
457.46	10335.81
457.64	10876.47
457.83	10527.73
458.01	10483.26
458.19	10782.85
458.38	10731.36
458.56	10869.45
458.74	10771.15
458.93	10771.15
459.11	10544.11
459.29	11000.52
459.48	10888.17
459.66	10927.96
459.84	10977.11
460.03	11194.78
460.21	11232.23
460.39	10904.56
460.57	11014.56
460.76	11117.54
460.94	11257.98
461.12	11192.44
461.31	11166.70
461.49	11377.34
461.67	11349.26
461.85	11353.94
462.04	11365.64
462.22	12131.00
462.40	11749.49
462.59	11578.63
462.77	11527.14
462.95	11571.61
463.13	11688.64
463.32	12004.61
463.50	11882.90
463.68	12013.97
463.86	11831.41
464.05	11800.98
464.23	11969.50
464.41	12056.10
464.59	11597.35
464.78	12168.45
464.96	12243.34
465.14	11866.52
465.32	12297.17
465.50	12180.15
465.69	12365.05
465.87	12313.56
466.05	12166.10
466.23	12348.67
466.41	12564.00
466.60	12601.44
466.78	12390.80
466.96	12320.58
467.14	12334.62
467.32	12444.63
467.51	12603.78
467.69	12194.19
467.87	12716.13
468.05	12994.65
468.23	12571.02
468.41	12465.69
468.60	12798.05
468.78	12664.64
468.96	12564.00
469.14	12830.82
469.32	13163.17
469.50	12638.89
469.69	13144.45
469.87	13324.67
470.05	13341.05
470.23	13362.12
470.41	13359.78
470.59	13448.72
470.77	13437.02
470.95	13511.91
471.14	13865.33
471.32	13195.94
471.50	13755.33
471.68	13958.96
471.86	13738.94
472.04	13996.40
472.22	14136.84
472.40	13724.90
472.58	13975.34
472.77	13818.52
472.95	14178.97
473.13	14787.50
473.31	14221.10
473.49	14214.07
473.67	14356.85
473.85	14424.72
474.03	14546.43
474.21	14712.61
474.39	15012.20
474.57	14850.70
474.75	14792.19
474.93	15014.54
475.12	14923.26
475.30	15084.75
475.48	15154.97
475.66	15267.31
475.84	15517.75
476.02	15314.13
476.20	15676.91
476.38	15859.47
476.56	15981.18
476.74	16065.44
476.92	15971.82
477.10	16070.12
477.28	16269.06
477.46	16514.82
477.64	16383.75
477.82	16856.54
478.00	17034.42
478.18	16877.60
478.36	17111.66
478.54	17266.13
478.72	17371.46
478.90	17504.87
479.08	17745.94
479.26	17853.61
479.44	17928.50
479.62	18218.73
479.80	18155.54
479.98	18284.26
480.16	18506.62
480.34	18384.91
480.52	18904.51
480.70	18576.83
480.88	18654.07
481.06	18972.38
481.24	19051.96
481.41	19463.90
481.59	19410.06
481.77	19786.89
481.95	19936.68
482.13	20198.82
482.31	19704.97
482.49	20449.26
482.67	19861.79
482.85	20774.60
483.03	20673.95
483.21	21029.71
483.39	21167.80
483.57	20856.51
483.74	21336.32
483.92	21397.18
484.10	21170.15
484.28	21788.05
484.46	22127.42
484.64	22789.80
484.82	22347.44
485.00	22478.50
485.18	23049.60
485.35	23150.24
485.53	23049.60
485.71	23183.01
485.89	24011.56
486.07	23438.12
486.25	23662.82
486.43	23793.89
486.61	24180.07
486.78	24140.29
486.96	24336.89
487.14	24814.36
487.32	24758.19
487.50	24882.24
487.68	25163.10
487.85	25516.52
488.03	26129.74
488.21	26066.55
488.39	26108.68
488.57	26387.20
488.75	26419.97
488.92	26848.29
489.10	27007.44
489.28	27061.27
489.46	27473.21
489.64	27035.53
489.81	27854.72
489.99	28081.75
490.17	28182.39
490.35	28123.88
490.53	28278.35
490.70	28587.30
490.88	28297.08
491.06	28737.10
491.24	29123.29
491.41	29172.44
491.59	29380.74
491.77	29191.16
491.95	29984.60
492.13	30232.70
492.30	30188.23
492.48	30412.92
492.66	30719.53
492.84	30270.15
493.01	31178.28
493.19	30845.92
493.37	31236.79
493.54	31309.35
493.72	31625.32
493.90	31768.09
494.08	32121.51
494.25	32449.19
494.43	32416.42
494.61	32636.43
494.79	32783.88
494.96	32217.47
495.14	33233.27
495.32	33364.34
495.49	33619.46
495.67	33362.00
495.85	33708.40
496.02	34359.06
496.20	33935.43
496.38	34375.45
496.55	34244.38
496.73	35377.20
496.91	34611.84
497.09	34972.28
497.26	35314.00
497.44	35264.85
497.62	35468.48
497.79	36222.13
497.97	35702.53
498.14	36357.88
498.32	36332.14
498.50	35952.97
498.67	36818.97
498.85	37064.72
499.03	37055.36
499.20	36629.38
499.38	37820.72
499.56	37567.94
499.73	37675.60
499.91	37919.02
500.08	38429.26
500.26	37797.31
500.44	38679.69
500.61	38288.82
500.79	38113.28
500.97	38312.23
501.14	38934.81
501.32	39077.58
501.49	38597.77
501.67	38930.13
501.84	39239.08
502.02	38878.64
502.20	39423.98
502.37	39608.89
502.55	39714.21
502.72	39552.71
502.90	40334.45
503.07	40034.86
503.25	40395.31
503.43	40390.62
503.60	40601.27
503.78	40573.19
503.95	40432.75
504.13	40795.54
504.30	41144.28
504.48	40877.46
504.65	41095.13
504.83	41230.88
505.01	41518.76
505.18	41446.21
505.36	41813.67
505.53	41298.75
505.71	41504.72
505.88	42075.81
506.06	41687.28
506.23	42146.03
506.41	42202.20
506.58	42295.82
506.76	42162.41
506.93	42621.16
507.11	42934.79
507.28	42913.72
507.46	43131.39
507.63	43229.69
507.81	43494.18
507.98	43009.68
508.16	43159.48
508.33	43894.41
508.50	44149.53
508.68	43690.78
508.85	44273.57
509.03	44121.44
509.20	44315.70
509.38	44978.07
509.55	44687.85
509.73	44896.16
509.90	45202.77
510.08	45001.48
510.25	44662.10
510.42	45366.60
510.60	45593.64
510.77	45364.26
510.95	45687.26
511.12	45748.11
511.30	45638.11
511.47	45462.57
511.64	45759.81
511.82	46405.80
511.99	45972.80
512.17	46349.63
512.34	46071.10
512.51	46663.26
512.69	47124.35
512.86	46457.29
513.04	46663.26
513.21	46831.78
513.38	46712.41
513.56	47419.25
513.73	46871.57
513.90	47442.66
514.08	47213.29
514.25	47718.84
514.43	47863.96
514.60	47800.76
514.77	47643.94
514.95	47913.11
515.12	47880.34
515.29	48144.82
515.47	48212.70
515.64	48332.06
515.81	48570.80
515.99	48432.71
516.16	48896.13
516.33	48357.81
516.51	48877.41
516.68	48418.66
516.85	48811.87
517.03	49401.69
517.20	49198.06
517.37	49195.72
517.54	49102.10
517.72	49359.56
517.89	49502.33
518.06	49294.02
518.24	49776.17
518.41	49511.69
518.58	49818.30
518.75	49668.51
518.93	50026.61
519.10	49668.51
519.27	50167.04
519.45	49848.73
519.62	50148.32
519.79	50288.75
519.96	50047.68
520.14	50710.05
520.31	50445.57
520.48	50911.33
520.65	50660.90
520.83	51243.69
521.00	50733.45
521.17	50728.77
521.34	50829.41
521.52	50920.70
521.69	51058.79
521.86	51049.42
522.03	51531.57
522.20	51714.14
522.38	51601.79
522.55	51849.89
522.72	51767.97
522.89	51882.66
523.07	51812.44
523.24	51910.74
523.41	51817.12
523.58	51650.94
523.75	52322.68
523.92	51917.76
524.10	52275.87
524.27	52584.82
524.44	52210.33
524.61	52289.91
524.78	52701.84
524.96	52428.00
525.13	52605.88
525.30	52694.82
525.47	52872.70
525.64	52622.26
525.81	53043.56
525.98	52996.75
526.16	53099.73
526.33	53071.65
526.50	53155.91
526.67	53109.10
526.84	53198.04
527.01	53172.29
527.18	53228.46
527.36	53174.63
527.53	53235.48
527.70	53497.62
527.87	53703.59
528.04	53441.45
528.21	53539.75
528.38	53319.74
528.55	53993.82
528.72	53478.90
528.89	53860.41
529.07	53719.98
529.24	53616.99
529.41	54220.85
529.58	53954.03
529.75	53883.81
529.92	54000.84
530.09	54042.97
530.26	54094.46
530.43	54490.01
530.60	54045.31
530.77	54136.59
530.94	54525.12
531.11	54354.26
531.28	54396.39
531.46	54735.77
531.63	54464.27
531.80	54700.66
531.97	54637.47
532.14	54646.83
532.31	54548.53
532.48	55018.97
532.65	54691.30
532.82	54703.00
532.99	54995.57
533.16	54719.38
533.33	54948.76
533.50	55339.63
533.67	54981.52
533.84	55004.93
534.01	55332.60
534.18	55290.48
534.35	55442.61
534.52	55377.08
534.69	55466.02
534.86	55554.96
535.03	55480.06
535.20	55547.93
535.37	55725.81
535.54	55496.44
535.71	55426.23
535.88	55973.91
536.05	55608.79
536.22	56067.53
536.38	55758.58
536.55	55789.01
536.72	55805.39
536.89	55950.51
537.06	55901.36
537.23	56154.13
537.40	55807.73
537.57	55824.12
537.74	56112.00
537.91	56226.69
538.08	56200.94
538.25	56175.20
538.42	56065.19
538.59	56282.86
538.75	56287.54
538.92	56257.12
539.09	56383.51
539.26	56156.47
539.43	56420.95
539.60	56451.38
539.77	56343.72
539.94	56439.68
540.11	56842.25
540.28	56678.41
540.44	56685.43
540.61	56952.26
540.78	56493.51
540.95	56587.13
541.12	56552.02
541.29	56699.48
541.46	56788.42
541.62	56884.38
541.79	56935.87
541.96	56739.27
542.13	56884.38
542.30	56952.26
542.47	57146.52
542.63	57045.88
542.80	57024.81
542.97	57368.87
543.14	57265.89
543.31	57279.93
543.48	57616.97
543.64	57717.61
543.81	57513.98
543.98	57263.55
544.15	57654.42
544.32	57673.14
544.48	57986.77
544.65	57647.39
544.82	57623.99
544.99	57640.37
545.16	57642.71
545.32	57525.69
545.49	57897.83
545.66	57844.00
545.83	57874.43
546.00	57928.26
546.16	58047.63
546.33	57661.44
546.50	57724.63
546.67	58092.10
546.83	57682.50
547.00	58035.92
547.17	57937.62
547.34	58176.36
547.50	58033.58
547.67	58265.30
547.84	58262.96
548.00	58211.46
548.17	58494.67
548.34	58260.62
548.51	58557.86
548.67	58485.31
548.84	58356.58
549.01	58415.09
549.18	58564.88
549.34	58422.11
549.51	58417.43
549.68	58578.93
549.84	58478.28
550.01	58567.23
550.18	58525.10
550.34	58679.57
550.51	58733.40
550.68	58733.40
550.84	58609.35
551.01	58869.15
551.18	58700.64
551.34	58719.36
551.51	58817.66
551.68	58915.96
551.84	58745.11
552.01	58543.82
552.18	58866.81
552.34	58866.81
552.51	59143.00
552.68	58717.02
552.84	59147.68
553.01	59253.00
553.18	59093.85
553.34	58953.41
553.51	58920.65
553.67	59007.25
553.84	59105.55
554.01	59075.12
554.17	59276.41
554.34	59309.18
554.51	59054.06
554.67	59395.77
554.84	59147.68
555.00	59152.36
555.17	58885.54
555.33	59117.25
555.50	59152.36
555.67	59281.09
555.83	59224.92
556.00	59121.93
556.16	59643.87
556.33	59662.60
556.50	59451.95
556.66	59817.07
556.83	59367.69
556.99	59461.31
557.16	59636.85
557.32	59618.13
557.49	59749.20
557.65	59419.18
557.82	59587.70
557.98	59426.20
558.15	59660.26
558.32	59770.26
558.48	59536.21
558.65	59770.26
558.81	59779.62
558.98	59730.47
559.14	60009.00
559.31	59908.35
559.47	60013.68
559.64	60030.06
559.80	60093.25
559.97	59931.76
560.13	59753.88
560.30	59915.37
560.46	59845.16
560.63	59927.08
560.79	60009.00
560.96	60107.30
561.12	60140.07
561.29	60062.83
561.45	60074.53
561.61	60137.72
561.78	59999.63
561.94	59931.76
562.11	60116.66
562.27	59966.87
562.44	60289.86
562.60	60303.90
562.77	60236.03
562.93	59983.25
563.10	60331.99
563.26	59891.97
563.42	60427.95
563.59	60247.73
563.75	60292.20
563.92	60151.77
564.08	60210.28
564.24	60301.56
564.41	60214.96
564.57	60381.14
564.74	60470.08
564.90	60299.22
565.07	60334.33
565.23	60390.50
565.39	60348.37
565.56	60259.43
565.72	60303.90
565.88	60427.95
566.05	60388.16
566.21	60378.80
566.38	60568.38
566.54	60385.82
566.70	60645.62
566.87	60706.47
567.03	60282.84
567.19	60636.26
567.36	60523.91
567.52	60446.68
567.68	60769.67
567.85	60697.11
568.01	60669.03
568.17	60615.19
568.34	60580.09
568.50	60610.51
568.66	60552.00
568.83	60594.13
568.99	60491.15
569.15	60727.54
569.32	60622.22
569.48	60491.15
569.64	60643.28
569.81	60591.79
569.97	60603.49
570.13	60500.51
570.30	60715.84
570.46	60816.48
570.62	60669.03
570.78	60706.47
570.95	60666.69
571.11	60851.59
571.27	60537.96
571.43	60750.94
571.60	60947.55
571.76	60793.07
571.92	60776.69
572.09	60760.31
572.25	60622.22
572.41	60713.50
572.57	60865.63
572.74	61085.64
572.90	60956.91
573.06	60830.52
573.22	60882.02
573.38	60938.19
573.55	60860.95
573.71	61076.28
573.87	60849.25
574.03	60786.05
574.20	60947.55
574.36	60963.93
574.52	60956.91
574.68	60849.25
574.84	60926.49
575.01	61097.34
575.17	60804.78
575.33	60814.14
575.49	60753.29
575.65	60968.61
575.82	60945.21
575.98	60633.92
576.14	61132.45
576.30	61038.83
576.46	60959.25
576.62	60949.89
576.79	61078.62
576.95	60999.04
577.11	60762.65
577.27	61097.34
577.43	61001.38
577.59	61038.83
577.75	60828.18
577.92	61017.77
578.08	60931.17
578.24	61095.00
578.40	61165.22
578.56	61251.82
578.72	61071.60
578.88	61095.00
579.04	61197.99
579.21	60992.02
579.37	61041.17
579.53	61265.86
579.69	60795.42
579.85	61212.03
580.01	61078.62
580.17	60884.36
580.33	61076.28
580.49	61179.26
580.65	61207.35
580.82	60903.08
580.98	60985.00
581.14	61017.77
581.30	60985.00
581.46	61057.56
581.62	61003.72
581.78	61024.79
581.94	61237.78
582.10	61160.54
582.26	60982.66
582.42	61080.96
582.58	61275.22
582.74	61059.90
582.90	61155.86
583.06	61078.62
583.22	61029.47
583.38	61095.00
583.54	61268.20
583.70	61240.12
583.86	61296.29
584.02	60966.27
584.18	61237.78
584.34	61162.88
584.50	61233.10
584.66	60996.70
584.82	61024.79
584.98	61352.46
585.14	61230.75
585.30	61158.20
585.46	61286.93
585.62	61357.14
585.78	61392.25
585.94	61097.34
586.10	61057.56
586.26	61235.44
586.42	61352.46
586.58	61286.93
586.74	61207.35
586.90	61272.88
587.06	61104.37
587.22	61523.32
587.38	61249.48
587.54	61492.89
587.70	61518.64
587.86	61268.20
588.02	61181.60
588.18	61300.97
588.34	61350.12
588.49	61310.33
