SpectraSuite Data File
++++++++++++++++++++++++++++++++++++
Date: Fri Oct 25 11:23:27 EDT 2013
User: price-jones
Dark Spectrum Present: No
Reference Spectrum Present: No
Number of Sampled Component Spectra: 1
Spectrometers: USB2+H05261
Integration Time (usec): 100000 (USB2+H05261)
Spectra Averaged: 1 (USB2+H05261)
Boxcar Smoothing: 0 (USB2+H05261)
Correct for Electrical Dark: No (USB2+H05261)
Strobe/Lamp Enabled: No (USB2+H05261)
Correct for Detector Non-linearity: No (USB2+H05261)
Correct for Stray Light: No (USB2+H05261)
Number of Pixels in Processed Spectrum: 2048
>>>>>Begin Processed Spectral Data<<<<<
365.73	210.65
365.92	210.65
366.12	210.65
366.32	142.77
366.52	117.03
366.72	119.37
366.91	105.32
367.11	152.13
367.31	154.48
367.51	184.90
367.70	168.52
367.90	182.56
368.10	95.96
368.30	187.24
368.49	72.56
368.69	102.98
368.89	105.32
369.09	105.32
369.28	168.52
369.48	140.43
369.68	147.45
369.87	210.65
370.07	196.60
370.27	245.76
370.47	322.99
370.66	596.84
370.86	608.54
371.06	608.54
371.25	695.14
371.45	648.33
371.65	645.99
371.84	667.05
372.04	755.99
372.24	725.57
372.44	676.41
372.63	732.59
372.83	711.52
373.03	826.21
373.22	671.73
373.42	758.33
373.62	732.59
373.81	833.23
374.01	828.55
374.21	823.87
374.40	809.83
374.60	823.87
374.79	781.74
374.99	870.68
375.19	835.57
375.38	791.10
375.58	798.12
375.78	835.57
375.97	873.02
376.17	926.85
376.37	931.53
376.56	898.77
376.76	833.23
376.95	868.34
377.15	966.64
377.35	877.70
377.54	861.32
377.74	964.30
377.93	891.74
378.13	943.24
378.33	987.71
378.52	1048.56
378.72	936.21
378.91	938.55
379.11	894.08
379.31	910.47
379.50	849.61
379.70	973.66
379.89	919.83
380.09	950.26
380.28	1022.81
380.48	943.24
380.68	959.62
380.87	952.60
381.07	997.07
381.26	1046.22
381.46	1053.24
381.65	1027.50
381.85	1015.79
382.04	1027.50
382.24	1011.11
382.43	1074.31
382.63	1057.92
382.83	1015.79
383.02	1083.67
383.22	1067.28
383.41	964.30
383.61	1121.12
383.80	1102.39
384.00	1149.20
384.19	1067.28
384.39	1100.05
384.58	1046.22
384.78	1137.50
384.97	1181.97
385.17	1158.57
385.36	1109.41
385.56	1071.97
385.75	1186.65
385.95	1186.65
386.14	1200.69
386.34	1151.54
386.53	1135.16
386.72	1273.25
386.92	1296.66
387.11	1291.98
387.31	1317.72
387.50	1273.25
387.70	1214.74
387.89	1315.38
388.09	1217.08
388.28	1284.95
388.48	1252.19
388.67	1320.06
388.86	1252.19
389.06	1310.70
389.25	1317.72
389.45	1327.08
389.64	1364.53
389.84	1392.62
390.03	1369.21
390.22	1355.17
390.42	1399.64
390.61	1364.53
390.81	1413.68
391.00	1434.75
391.19	1409.00
391.39	1488.58
391.58	1462.83
391.78	1486.24
391.97	1533.05
392.16	1420.71
392.36	1547.09
392.55	1493.26
392.75	1584.54
392.94	1600.93
393.13	1530.71
393.33	1533.05
393.52	1519.01
393.71	1486.24
393.91	1596.25
394.10	1551.78
394.29	1603.27
394.49	1643.06
394.68	1530.71
394.88	1582.20
395.07	1741.36
395.26	1619.65
395.46	1703.91
395.65	1652.42
395.84	1741.36
396.04	1778.81
396.23	1701.57
396.42	1760.08
396.62	1739.02
396.81	1837.32
397.00	1799.87
397.19	1813.92
397.39	1853.70
397.58	1806.89
397.77	1727.32
397.97	1778.81
398.16	1790.51
398.35	1879.45
398.55	1994.14
398.74	1935.62
398.93	2022.22
399.12	1944.99
399.32	1970.73
399.51	1942.64
399.70	1996.48
399.90	1973.07
400.09	2022.22
400.28	2120.53
400.47	2047.97
400.67	2101.80
400.86	2029.24
401.05	2071.37
401.24	2115.84
401.44	2066.69
401.63	2008.18
401.82	2186.06
402.01	2207.13
402.21	2106.48
402.40	2202.44
402.59	2263.30
402.78	2179.04
402.97	2265.64
403.17	2291.38
403.36	2239.89
403.55	2326.49
403.74	2284.36
403.93	2363.94
404.13	2267.98
404.32	2387.35
404.51	2359.26
404.70	2455.22
404.89	2462.24
405.09	2483.31
405.28	2403.73
405.47	2555.86
405.66	2539.48
405.85	2471.61
406.05	2516.08
406.24	2455.22
406.43	2504.37
406.62	2590.97
406.81	2619.06
407.00	2555.86
407.20	2597.99
407.39	2670.55
407.58	2771.19
407.77	2682.25
407.96	2693.96
408.15	2745.45
408.34	2766.51
408.54	2846.09
408.73	2867.16
408.92	2794.60
409.11	2836.73
409.30	2904.60
409.49	2960.78
409.68	2930.35
409.87	2958.44
410.07	2864.82
410.26	3056.74
410.45	3000.57
410.64	3040.36
410.83	3129.30
411.02	3103.55
411.21	3194.83
411.40	3262.71
411.59	3206.53
411.78	3265.05
411.98	3145.68
412.17	3389.10
412.36	3325.90
412.55	3349.31
412.74	3358.67
412.93	3342.28
413.12	3344.63
413.31	3463.99
413.50	3508.46
413.69	3475.70
413.88	3562.30
414.07	3625.49
414.26	3672.30
414.45	3578.68
414.64	3623.15
414.83	3707.41
415.02	3796.35
415.22	3908.69
415.41	3854.86
415.60	3822.09
415.79	3889.97
415.98	3967.21
416.17	4205.94
416.36	3962.53
416.55	4025.72
416.74	4168.49
416.93	3964.87
417.12	4058.49
417.31	4168.49
417.50	4231.69
417.69	4280.84
417.88	4299.56
418.07	4358.08
418.26	4128.70
418.45	4376.80
418.64	4346.37
418.83	4315.95
419.02	4400.21
419.21	4596.81
419.39	4503.19
419.58	4510.21
419.77	4395.53
419.96	4594.47
420.15	4594.47
420.34	4545.32
420.53	4667.03
420.72	4652.98
420.91	4744.27
421.10	4880.02
421.29	4777.03
421.48	4676.39
421.67	4849.59
421.86	4894.06
422.05	4828.53
422.24	4791.08
422.43	4840.23
422.61	4887.04
422.80	4966.62
422.99	4945.55
423.18	4957.25
423.37	5104.71
423.56	4954.91
423.75	4940.87
423.94	4746.61
424.13	4681.07
424.32	4720.86
424.50	4926.83
424.69	5149.18
424.88	4992.36
425.07	5032.15
425.26	4882.36
425.45	5130.45
425.64	4950.23
425.83	4940.87
426.01	5083.64
426.20	5064.92
426.39	5144.50
426.58	4968.96
426.77	4938.53
426.96	5083.64
427.15	5111.73
427.33	5188.97
427.52	5179.61
427.71	5214.71
427.90	5242.80
428.09	5310.68
428.28	5341.10
428.46	5416.00
428.65	5437.06
428.84	5521.32
429.03	5607.92
429.22	5369.19
429.40	5495.58
429.59	5526.00
429.78	5345.78
429.97	5287.27
430.16	5558.77
430.34	5483.88
430.53	5816.23
430.72	5694.52
430.91	5680.48
431.10	5706.23
431.28	5713.25
431.47	5783.46
431.66	5980.07
431.85	5696.86
432.03	5991.77
432.22	6078.37
432.41	6066.67
432.60	5944.96
432.79	6019.86
432.97	6001.13
433.16	6069.01
433.35	5916.87
433.54	6169.65
433.72	6272.64
433.91	6216.46
434.10	6335.83
434.28	6108.80
434.47	6209.44
434.66	6305.40
434.85	6415.41
435.03	6450.52
435.22	6296.04
435.41	6368.60
435.59	6434.13
435.78	6436.47
435.97	6553.50
436.16	6499.67
436.34	6464.56
436.53	6586.27
436.72	6853.09
436.90	6417.75
437.09	6642.44
437.28	6307.74
437.46	6520.73
437.65	6686.91
437.84	6803.94
438.02	6857.77
438.21	6850.75
438.40	6630.74
438.58	6995.86
438.77	7073.10
438.96	6925.65
439.14	7325.88
439.33	7098.84
439.52	7197.15
439.70	7110.55
439.89	7218.21
440.08	7382.05
440.26	7372.69
440.45	7412.48
440.63	7433.54
440.82	7639.51
441.01	7440.56
441.19	7599.72
441.38	7791.64
441.57	7810.37
441.75	7833.77
441.94	8023.36
442.12	7936.76
442.31	8046.76
442.50	8152.09
442.68	8121.66
442.87	7971.86
443.05	8241.03
443.24	8128.68
443.43	8212.94
443.61	8170.81
443.80	8376.78
443.98	8079.53
444.17	7756.54
444.35	8243.37
444.54	8334.65
444.73	8299.54
444.91	8322.94
445.10	8362.73
445.28	8383.80
445.47	8217.62
445.65	8252.73
445.84	8507.85
446.02	8500.83
446.21	8292.52
446.39	8425.93
446.58	8444.65
446.77	8519.55
446.95	8290.18
447.14	8332.31
447.32	8671.68
447.51	8753.60
447.69	8435.29
447.88	8472.74
448.06	8390.82
448.25	8688.07
448.43	8645.94
448.62	8755.94
448.80	8559.34
448.99	8720.84
449.17	8692.75
449.36	8535.93
449.54	8940.85
449.73	9004.04
449.91	8924.46
450.10	8912.76
450.28	8994.68
450.46	9172.56
450.65	9186.60
450.83	8968.93
451.02	8992.34
451.20	9301.29
451.39	9160.86
451.57	9165.54
451.76	9191.28
451.94	9156.18
452.13	9277.88
452.31	9394.91
452.49	9226.39
452.68	9275.54
452.86	9418.32
453.05	9516.62
453.23	9439.38
453.42	9334.06
453.60	9406.61
453.78	9458.10
453.97	9366.82
454.15	9420.66
454.34	9383.21
454.52	9743.65
454.70	9846.63
454.89	9771.74
455.07	9813.87
455.26	9678.12
455.44	9792.80
455.62	9998.77
455.81	9830.25
455.99	10031.54
456.17	10094.73
456.36	10001.11
456.54	9966.00
456.73	10361.55
456.91	10356.87
457.09	10438.79
457.28	10527.73
457.46	10406.02
457.64	10509.01
457.83	10562.84
458.01	10445.81
458.19	10726.68
458.38	10766.46
458.56	10658.80
458.74	10663.48
458.93	10843.70
459.11	10869.45
459.29	10656.46
459.48	10920.94
459.66	10775.83
459.84	10934.98
460.03	10967.75
460.21	10939.66
460.39	10937.32
460.57	10927.96
460.76	10970.09
460.94	11410.11
461.12	11316.49
461.31	11428.84
461.49	11236.91
461.67	11101.16
461.85	11426.50
462.04	11059.03
462.22	11419.47
462.40	11754.17
462.59	11538.84
462.77	11346.92
462.95	11564.59
463.13	11468.62
463.32	11829.07
463.50	11513.10
463.68	12072.48
463.86	11854.81
464.05	11583.31
464.23	11623.10
464.41	12006.95
464.59	11843.11
464.78	12046.74
464.96	12138.02
465.14	11761.19
465.32	12126.32
465.50	12222.28
465.69	12196.53
465.87	11934.39
466.05	11955.46
466.23	12320.58
466.41	12109.93
466.60	12493.78
466.78	12009.29
466.96	12273.77
467.14	12224.62
467.32	12479.74
467.51	12669.32
467.69	12280.79
467.87	12496.12
468.05	12535.91
468.23	12390.80
468.41	12521.87
468.60	12587.40
468.78	12678.68
468.96	12666.98
469.14	12865.92
469.32	12968.91
469.50	12601.44
469.69	12833.16
469.87	12982.95
470.05	13195.94
470.23	13334.03
470.41	13069.55
470.59	13336.37
470.77	13067.21
470.95	13458.08
471.14	13640.64
471.32	13357.44
471.50	13638.30
471.68	13385.52
471.86	13837.25
472.04	13532.98
472.22	14153.22
472.40	13916.83
472.58	13748.31
472.77	14019.81
472.95	14073.64
473.13	14743.03
473.31	14216.41
473.49	14129.81
473.67	14190.67
473.85	14431.74
474.03	14663.46
474.21	14600.26
474.39	14583.88
474.57	14771.12
474.75	15314.13
474.93	15066.03
475.12	14869.42
475.30	15454.56
475.48	15154.97
475.66	15358.60
475.84	15000.49
476.02	15372.64
476.20	15248.59
476.38	15960.11
476.56	16208.21
476.74	15754.15
476.92	16063.10
477.10	15978.84
477.28	16105.23
477.46	16348.64
477.64	16388.43
477.82	16643.55
478.00	17184.21
478.18	16924.41
478.36	16875.26
478.54	17003.99
478.72	17252.09
478.90	17226.34
479.08	17741.26
479.26	17846.58
479.44	17738.92
479.62	17830.20
479.80	18087.66
479.98	18279.58
480.16	18523.00
480.34	18228.09
480.52	18530.02
480.70	18548.75
480.88	18267.88
481.06	18759.39
481.24	18668.11
481.41	19335.17
481.59	19384.32
481.77	19637.09
481.95	19414.74
482.13	19927.32
482.31	19606.67
482.49	20159.03
482.67	20233.93
482.85	20610.76
483.03	20575.65
483.21	20886.94
483.39	21022.69
483.57	20732.47
483.74	21003.97
483.92	21530.59
484.10	21130.36
484.28	21635.91
484.46	22106.36
484.64	22384.88
484.82	22286.58
485.00	22214.02
485.18	22574.47
485.35	22913.84
485.53	22958.31
485.71	22862.35
485.89	23386.63
486.07	23358.55
486.25	23302.37
486.43	23887.51
486.61	23885.17
486.78	23929.64
486.96	24137.94
487.14	24702.01
487.32	24648.18
487.50	24875.21
487.68	25057.78
487.85	25607.80
488.03	25467.37
488.21	25855.90
488.39	26235.06
488.57	26471.46
488.75	26361.45
488.92	26789.77
489.10	26506.57
489.28	26803.82
489.46	27569.17
489.64	27056.59
489.81	27697.90
489.99	27913.23
490.17	27765.78
490.35	28250.27
490.53	28154.30
490.70	28606.03
490.88	28156.64
491.06	29179.46
491.24	29078.82
491.41	29092.86
491.59	29118.60
491.77	29352.66
491.95	29544.58
492.13	30012.69
492.30	29951.84
492.48	30132.06
492.66	30267.81
492.84	30555.69
493.01	30658.68
493.19	30649.32
493.37	31040.18
493.54	31405.31
493.72	31559.78
493.90	31566.81
494.08	31798.52
494.25	32224.50
494.43	32231.52
494.61	32290.03
494.79	32460.89
494.96	32453.87
495.14	32959.42
495.32	33216.88
495.49	33256.67
495.67	33071.77
495.85	33577.33
496.02	33834.78
496.20	33930.75
496.38	34204.59
496.55	33778.61
496.73	35019.10
496.91	34443.32
497.09	35098.67
497.26	35182.93
497.44	35002.71
497.62	35269.53
497.79	35519.97
497.97	35330.39
498.14	36287.67
498.32	36601.30
498.50	36065.31
498.67	36601.30
498.85	36591.94
499.03	36725.35
499.20	36353.20
499.38	36732.37
499.56	37127.92
499.73	37551.56
499.91	37645.18
500.08	38043.07
500.26	37008.55
500.44	37722.41
500.61	38022.00
500.79	37727.10
500.97	38061.79
501.14	38775.66
501.32	38979.28
501.49	38726.50
501.67	38639.90
501.84	39246.10
502.02	39222.70
502.20	39278.87
502.37	39290.57
502.55	39533.99
502.72	39676.76
502.90	39262.49
503.07	39608.89
503.25	39908.47
503.43	39805.49
503.60	40437.44
503.78	40294.66
503.95	40507.65
504.13	40535.74
504.30	40821.28
504.48	40715.96
504.65	40980.44
504.83	41198.11
505.01	41830.05
505.18	41287.05
505.36	41656.85
505.53	40987.46
505.71	41598.34
505.88	42061.77
506.06	41708.35
506.23	41593.66
506.41	41904.95
506.58	42277.10
506.76	42005.59
506.93	42462.00
507.11	42277.10
507.28	42693.71
507.46	42593.07
507.63	42880.95
507.81	43342.04
507.98	43246.08
508.16	43257.78
508.33	43555.03
508.50	43632.27
508.68	43927.17
508.85	43824.19
509.03	43580.78
509.20	44091.01
509.38	44151.87
509.55	44619.97
509.73	45022.54
509.90	44612.95
510.08	44804.88
510.25	44779.13
510.42	44917.22
510.60	44978.07
510.77	45544.48
510.95	45284.68
511.12	45352.56
511.30	44933.60
511.47	45551.51
511.64	45521.08
511.82	45879.18
511.99	45455.54
512.17	45949.40
512.34	45771.52
512.51	46480.70
512.69	46387.08
512.86	46597.73
513.04	46838.80
513.21	46883.27
513.38	46880.93
513.56	47012.00
513.73	47093.92
513.90	46962.85
514.08	46906.68
514.25	47367.76
514.43	47737.57
514.60	47304.57
514.77	47416.91
514.95	47749.27
515.12	48030.13
515.29	47889.70
515.47	48177.59
515.64	47950.56
515.81	47889.70
515.99	48474.84
516.16	48755.70
516.33	48231.42
516.51	48413.98
516.68	48849.32
516.85	48863.36
517.03	49036.56
517.20	49130.19
517.37	48814.21
517.54	48961.67
517.72	48715.91
517.89	49340.83
518.06	49221.47
518.24	49558.50
518.41	49375.94
518.58	49158.27
518.75	49441.48
518.93	49895.54
519.10	49497.65
519.27	49621.70
519.45	49635.74
519.62	50136.62
519.79	50033.63
519.96	49872.14
520.14	50417.48
520.31	50068.74
520.48	50459.61
520.65	50681.96
520.83	50747.50
521.00	50752.18
521.17	50827.07
521.34	51180.49
521.52	51002.61
521.69	50768.56
521.86	50988.57
522.03	51325.61
522.20	51512.85
522.38	51580.73
522.55	51306.88
522.72	51466.04
522.89	51253.05
523.07	51863.93
523.24	51473.06
523.41	51889.68
523.58	51517.53
523.75	52023.09
523.92	51824.14
524.10	52002.02
524.27	52116.71
524.44	52067.56
524.61	52177.56
524.78	52016.07
524.96	52154.16
525.13	52535.66
525.30	52488.85
525.47	52729.93
525.64	52540.35
525.81	52699.50
525.98	52713.55
526.16	52788.44
526.33	52818.87
526.50	53076.33
526.67	52666.73
526.84	53043.56
527.01	52971.00
527.18	52783.76
527.36	53382.94
527.53	53172.29
527.70	53375.92
527.87	53446.13
528.04	53254.21
528.21	53209.74
528.38	53310.38
528.55	53736.36
528.72	53272.93
528.89	53448.47
529.07	53343.15
529.24	53284.64
529.41	53698.91
529.58	53743.38
529.75	53689.55
529.92	53949.35
530.09	53975.09
530.26	54113.19
530.43	54188.08
530.60	53670.82
530.77	54057.01
530.94	54209.15
531.11	54068.72
531.28	54244.26
531.46	54321.49
531.63	54475.97
531.80	54248.94
531.97	54564.91
532.14	54527.46
532.31	54333.20
532.48	54621.08
532.65	54981.52
532.82	54344.90
532.99	54836.41
533.16	54560.23
533.33	55107.91
533.50	55119.62
533.67	54953.44
533.84	54904.29
534.01	54988.55
534.18	54810.67
534.35	55213.24
534.52	55145.36
534.69	55564.32
534.86	55213.24
535.03	55395.80
535.20	55325.58
535.37	55234.30
535.54	55451.97
535.71	55164.09
535.88	55524.53
536.05	55634.53
536.22	55721.13
536.38	55620.49
536.55	55604.11
536.72	55849.86
536.89	55859.23
537.06	55639.22
537.23	55814.76
537.40	55561.98
537.57	55791.35
537.74	55955.19
537.91	56177.54
538.08	55943.48
538.25	55896.67
538.42	55978.59
538.59	56086.26
538.75	55992.64
538.92	56336.69
539.09	56439.68
539.26	56278.18
539.43	56245.41
539.60	56294.56
539.77	56329.67
539.94	56413.93
540.11	56566.07
540.28	56566.07
540.44	56650.33
540.61	56591.81
540.78	56474.79
540.95	56516.92
541.12	56388.19
541.29	56303.93
541.46	56678.41
541.62	56516.92
541.79	56776.72
541.96	56633.94
542.13	56589.47
542.30	56673.73
542.47	56996.73
542.63	56788.42
542.80	57017.79
542.97	57106.73
543.14	57413.34
543.31	57340.78
543.48	57361.85
543.64	57733.99
543.81	57408.66
543.98	57495.26
544.15	57467.17
544.32	57396.96
544.48	57581.86
544.65	57301.00
544.82	57375.89
544.99	57270.57
545.16	57717.61
545.32	57293.97
545.49	57532.71
545.66	57930.60
545.83	57741.02
546.00	57818.25
546.16	57766.76
546.33	57462.49
546.50	57506.96
546.67	57855.70
546.83	57418.02
547.00	57631.01
547.17	57848.68
547.34	58024.22
547.50	57874.43
547.67	58232.53
547.84	58185.72
548.00	58103.80
548.17	58211.46
548.34	58026.56
548.51	58415.09
548.67	58382.32
548.84	58225.51
549.01	58096.78
549.18	58188.06
549.34	58220.83
549.51	58506.37
549.68	58323.81
549.84	58431.47
550.01	58511.05
550.18	58258.27
550.34	58721.70
550.51	58555.52
550.68	58604.67
550.84	58288.70
551.01	58569.57
551.18	58508.71
551.34	58529.78
551.51	58667.87
551.68	58700.64
551.84	58520.41
552.01	58646.80
552.18	58857.45
552.34	58717.02
552.51	59084.48
552.68	58518.07
552.84	58789.58
553.01	59114.91
553.18	58918.31
553.34	58850.43
553.51	58782.55
553.67	58920.65
553.84	59030.65
554.01	58953.41
554.17	59037.67
554.34	59089.16
554.51	59009.59
554.67	59082.14
554.84	58897.24
555.00	59208.53
555.17	58962.78
555.33	59047.04
555.50	58962.78
555.67	59058.74
555.83	58993.20
556.00	59341.94
556.16	59531.53
556.33	59381.73
556.50	59288.11
556.66	59157.04
556.83	59126.61
556.99	59484.72
557.16	59564.29
557.32	59568.97
557.49	59667.28
557.65	59363.01
557.82	59269.39
557.98	59564.29
558.15	59470.67
558.32	59587.70
558.48	59384.07
558.65	59599.40
558.81	59655.57
558.98	59587.70
559.14	59730.47
559.31	59678.98
559.47	59629.83
559.64	59859.20
559.80	59828.77
559.97	59725.79
560.13	59678.98
560.30	59667.28
560.46	59753.88
560.63	59847.50
560.79	59765.58
560.96	59948.14
561.12	60081.55
561.29	60004.31
561.45	59983.25
561.61	59894.31
561.78	59863.88
561.94	59891.97
562.11	59849.84
562.27	60034.74
562.44	59838.14
562.60	60177.51
562.77	59969.21
562.93	59931.76
563.10	60048.78
563.26	60046.44
563.42	60217.30
563.59	60093.25
563.75	60111.98
563.92	60111.98
564.08	60123.68
564.24	60273.48
564.41	60119.00
564.57	60341.35
564.74	60191.56
564.90	60254.75
565.07	60060.49
565.23	60140.07
565.39	60165.81
565.56	60055.81
565.72	60383.48
565.88	60383.48
566.05	60313.26
566.21	60266.45
566.38	60254.75
566.54	60402.21
566.70	60360.08
566.87	60427.95
567.03	60331.99
567.19	60575.40
567.36	60420.93
567.52	60299.22
567.68	60383.48
567.85	60512.21
568.01	60484.12
568.17	60308.58
568.34	60481.78
568.50	60320.29
568.66	60376.46
568.83	60544.98
568.99	60364.76
569.15	60523.91
569.32	60470.08
569.48	60285.18
569.64	60582.43
569.81	60413.91
569.97	60629.24
570.13	60523.91
570.30	60437.31
570.46	60549.66
570.62	60523.91
570.78	60392.84
570.95	60364.76
571.11	60720.52
571.27	60547.32
571.43	60385.82
571.60	60760.31
571.76	60640.94
571.92	60678.39
572.09	60605.83
572.25	60659.66
572.41	60793.07
572.57	60760.31
572.74	60935.85
572.90	60713.50
573.06	60617.53
573.22	60683.07
573.38	60582.43
573.55	60729.88
573.71	60912.44
573.87	60598.81
574.03	60575.40
574.20	60734.56
574.36	60687.75
574.52	60774.35
574.68	60605.83
574.84	60772.01
575.01	60783.71
575.17	60542.64
575.33	60706.47
575.49	60626.90
575.65	60774.35
575.82	61008.40
575.98	60910.10
576.14	61099.68
576.30	60872.65
576.46	60825.84
576.62	60818.82
576.79	60863.29
576.95	60715.84
577.11	60828.18
577.27	61120.75
577.43	61109.05
577.59	60725.20
577.75	60832.86
577.92	60739.24
578.08	60732.22
578.24	60893.72
578.40	61015.43
578.56	60870.31
578.72	60968.61
578.88	60952.23
579.04	61006.06
579.21	60802.44
579.37	60898.40
579.53	61087.98
579.69	60849.25
579.85	60849.25
580.01	60860.95
580.17	60865.63
580.33	61024.79
580.49	61137.13
580.65	61116.07
580.82	60874.99
580.98	60715.84
581.14	60772.01
581.30	61120.75
581.46	60982.66
581.62	61078.62
581.78	60982.66
581.94	61024.79
582.10	60985.00
582.26	60842.23
582.42	60982.66
582.58	60982.66
582.74	60949.89
582.90	61038.83
583.06	61113.73
583.22	60844.57
583.38	60999.04
583.54	60910.10
583.70	61123.09
583.86	61057.56
584.02	61050.53
584.18	61127.77
584.34	61015.43
584.50	61036.49
584.66	60903.08
584.82	60757.97
584.98	61366.51
585.14	61062.24
585.30	60821.16
585.46	61118.41
585.62	61057.56
585.78	61186.28
585.94	61071.60
586.10	61207.35
586.26	61102.03
586.42	61394.59
586.58	61347.78
586.74	61087.98
586.90	61207.35
587.06	61022.45
587.22	61233.10
587.38	61017.77
587.54	61097.34
587.70	61368.85
587.86	61146.50
588.02	61216.71
588.18	61403.95
588.34	61141.81
588.49	60942.87
