SpectraSuite Data File
++++++++++++++++++++++++++++++++++++
Date: Fri Oct 25 10:43:59 EDT 2013
User: price-jones
Dark Spectrum Present: No
Reference Spectrum Present: No
Number of Sampled Component Spectra: 1
Spectrometers: USB2+H05261
Integration Time (usec): 100000 (USB2+H05261)
Spectra Averaged: 1 (USB2+H05261)
Boxcar Smoothing: 0 (USB2+H05261)
Correct for Electrical Dark: No (USB2+H05261)
Strobe/Lamp Enabled: No (USB2+H05261)
Correct for Detector Non-linearity: No (USB2+H05261)
Correct for Stray Light: No (USB2+H05261)
Number of Pixels in Processed Spectrum: 2048
>>>>>Begin Processed Spectral Data<<<<<
365.73	138.09
365.92	138.09
366.12	138.09
366.32	72.56
366.52	0.00
366.72	0.00
366.91	28.09
367.11	42.13
367.31	0.00
367.51	32.77
367.70	21.06
367.90	7.02
368.10	0.00
368.30	0.00
368.49	74.90
368.69	58.51
368.89	49.15
369.09	37.45
369.28	117.03
369.48	102.98
369.68	18.72
369.87	72.56
370.07	110.01
370.27	170.86
370.47	215.33
370.66	386.19
370.86	395.55
371.06	451.72
371.25	582.79
371.45	493.85
371.65	507.90
371.84	393.21
372.04	428.32
372.24	454.06
372.44	519.60
372.63	519.60
372.83	496.19
373.03	486.83
373.22	491.51
373.42	517.26
373.62	552.37
373.81	505.56
374.01	543.00
374.21	552.37
374.40	568.75
374.60	507.90
374.79	571.09
374.99	461.09
375.19	561.73
375.38	519.60
375.58	585.13
375.78	603.86
375.97	554.71
376.17	629.60
376.37	655.35
376.56	627.26
376.76	566.41
376.95	615.56
377.15	657.69
377.35	582.79
377.54	674.07
377.74	650.67
377.93	711.52
378.13	695.14
378.33	622.58
378.52	669.39
378.72	653.01
378.91	636.63
379.11	718.54
379.31	636.63
379.50	650.67
379.70	594.50
379.89	695.14
380.09	676.41
380.28	765.36
380.48	608.54
380.68	723.23
380.87	716.20
381.07	777.06
381.26	727.91
381.46	704.50
381.65	667.05
381.85	739.61
382.04	664.71
382.24	678.76
382.43	671.73
382.63	683.44
382.83	720.88
383.02	713.86
383.22	723.23
383.41	667.05
383.61	727.91
383.80	746.63
384.00	702.16
384.19	732.59
384.39	849.61
384.58	779.40
384.78	844.93
384.97	856.64
385.17	807.48
385.36	755.99
385.56	809.83
385.75	774.72
385.95	730.25
386.14	912.81
386.34	887.06
386.53	777.06
386.72	793.44
386.92	903.45
387.11	884.72
387.31	854.30
387.50	812.17
387.70	851.96
387.89	887.06
388.09	795.78
388.28	903.45
388.48	882.38
388.67	870.68
388.86	973.66
389.06	830.89
389.25	983.02
389.45	983.02
389.64	985.37
389.84	1011.11
390.03	976.00
390.22	905.79
390.42	957.28
390.61	994.73
390.81	1008.77
391.00	1025.15
391.19	1135.16
391.39	1132.82
391.58	1034.52
391.78	1083.67
391.97	1090.69
392.16	1025.15
392.36	1097.71
392.55	1095.37
392.75	1020.47
392.94	1057.92
393.13	938.55
393.33	926.85
393.52	1008.77
393.71	1074.31
393.91	1135.16
394.10	1125.80
394.29	1118.78
394.49	1177.29
394.68	1217.08
394.88	1284.95
395.07	1217.08
395.26	1224.10
395.46	1198.35
395.65	1170.27
395.84	1273.25
396.04	1336.45
396.23	1219.42
396.42	1179.63
396.62	1231.12
396.81	1174.95
397.00	1207.72
397.19	1226.44
397.39	1317.72
397.58	1299.00
397.77	1284.95
397.97	1411.34
398.16	1369.21
398.35	1523.69
398.55	1465.18
398.74	1446.45
398.93	1582.20
399.12	1486.24
399.32	1411.34
399.51	1516.67
399.70	1643.06
399.90	1589.22
400.09	1547.09
400.28	1633.69
400.47	1600.93
400.67	1739.02
400.86	1727.32
401.05	1715.61
401.24	1675.82
401.44	1680.50
401.63	1654.76
401.82	1802.21
402.01	1713.27
402.21	1757.74
402.40	1858.39
402.59	1703.91
402.78	1783.49
402.97	1687.53
403.17	1834.98
403.36	1776.47
403.55	1867.75
403.74	1860.73
403.93	1884.13
404.13	1905.20
404.32	1907.54
404.51	1870.09
404.70	1907.54
404.89	2019.88
405.09	1973.07
405.28	1959.03
405.47	2012.86
405.66	1949.67
405.85	1956.69
406.05	2026.90
406.24	2001.16
406.43	2062.01
406.62	2090.10
406.81	2073.71
407.00	2141.59
407.20	2085.42
407.39	2183.72
407.58	2188.40
407.77	2284.36
407.96	2319.47
408.15	2363.94
408.34	2300.75
408.54	2167.34
408.73	2291.38
408.92	2296.07
409.11	2317.13
409.30	2392.03
409.49	2340.54
409.68	2246.91
409.87	2324.15
410.07	2326.49
410.26	2209.47
410.45	2284.36
410.64	2569.91
410.83	2410.75
411.02	2513.74
411.21	2623.74
411.40	2661.19
411.59	2689.28
411.78	2710.34
411.98	2588.63
412.17	2619.06
412.36	2670.55
412.55	2761.83
412.74	2794.60
412.93	2717.36
413.12	2775.88
413.31	2834.39
413.50	2757.15
413.69	2815.66
413.88	2920.99
414.07	2911.63
414.26	2991.20
414.45	3101.21
414.64	2998.23
414.83	3089.51
415.02	3068.44
415.22	3119.93
415.41	3171.43
415.60	3183.13
415.79	3232.28
415.98	3370.37
416.17	3279.09
416.36	3185.47
416.55	3300.16
416.74	3258.03
416.93	3274.41
417.12	3208.87
417.31	3365.69
417.50	3351.65
417.69	3405.48
417.88	3466.33
418.07	3342.28
418.26	3471.01
418.45	3438.25
418.64	3681.66
418.83	3555.27
419.02	3510.80
419.21	3693.37
419.39	3761.24
419.58	3669.96
419.77	3634.85
419.96	3599.74
420.15	3632.51
420.34	3691.02
420.53	3768.26
420.72	3861.88
420.91	3861.88
421.10	3845.50
421.29	3892.31
421.48	3845.50
421.67	3756.56
421.86	3939.12
422.05	3880.61
422.24	3765.92
422.43	3730.81
422.61	3948.48
422.80	3955.51
422.99	3915.72
423.18	3967.21
423.37	4135.73
423.56	3962.53
423.75	3929.76
423.94	3976.57
424.13	3712.09
424.32	3782.31
424.50	4128.70
424.69	4007.00
424.88	3976.57
425.07	3985.93
425.26	3985.93
425.45	4056.15
425.64	4016.36
425.83	4028.06
426.01	4060.83
426.20	3983.59
426.39	4049.13
426.58	4091.26
426.77	3999.98
426.96	3943.80
427.15	4074.87
427.33	4131.05
427.52	3964.87
427.71	4145.09
427.90	4086.58
428.09	4187.22
428.28	4159.13
428.46	4196.58
428.65	4236.37
428.84	4252.75
429.03	4386.16
429.22	4271.48
429.40	4248.07
429.59	4140.41
429.78	3934.44
429.97	3854.86
430.16	4142.75
430.34	4168.49
430.53	4133.39
430.72	4227.01
430.91	4334.67
431.10	4430.63
431.28	4428.29
431.47	4538.30
431.66	4706.82
431.85	4545.32
432.03	4657.67
432.22	4821.50
432.41	4564.04
432.60	4606.17
432.79	4664.69
432.97	4910.44
433.16	4833.21
433.35	4819.16
433.54	4561.70
433.72	4713.84
433.91	4770.01
434.10	4683.41
434.28	4884.70
434.47	4865.97
434.66	5027.47
434.85	5041.51
435.03	5064.92
435.22	4940.87
435.41	5123.43
435.59	5177.26
435.78	5128.11
435.97	5228.76
436.16	5158.54
436.34	5242.80
436.53	5231.10
436.72	5390.25
436.90	5210.03
437.09	5406.64
437.28	5158.54
437.46	5231.10
437.65	5238.12
437.84	5277.91
438.02	5179.61
438.21	5181.95
438.40	5184.29
438.58	5448.77
438.77	5458.13
438.96	5577.50
439.14	5600.90
439.33	5720.27
439.52	5612.60
439.70	5586.86
439.89	5767.08
440.08	5788.14
440.26	5816.23
440.45	5785.80
440.63	5944.96
440.82	6003.47
441.01	6003.47
441.19	6132.20
441.38	6038.58
441.57	6118.16
441.75	6230.51
441.94	6349.87
442.12	6380.30
442.31	6312.42
442.50	6396.68
442.68	6307.74
442.87	6249.23
443.05	6466.90
443.24	6455.20
443.43	6377.96
443.61	6429.45
443.80	6853.09
443.98	6373.28
444.17	6207.10
444.35	6492.65
444.54	6745.42
444.73	6518.39
444.91	6452.86
445.10	6490.31
445.28	6441.15
445.47	6509.03
445.65	6427.11
445.84	6553.50
446.02	6693.93
446.21	6565.20
446.39	6635.42
446.58	6628.40
446.77	7007.56
446.95	6658.82
447.14	6932.67
447.32	6864.79
447.51	6712.66
447.69	6668.19
447.88	6771.17
448.06	6700.95
448.25	6993.52
448.43	6857.77
448.62	6649.46
448.80	6761.81
448.99	6761.81
449.17	6965.43
449.36	6813.30
449.54	7138.63
449.73	7133.95
449.91	7112.89
450.10	7166.72
450.28	7389.07
450.46	7405.46
450.65	7199.49
450.83	7419.50
451.02	7258.00
451.20	7337.58
451.39	7360.98
451.57	7159.70
451.76	7316.51
451.94	7131.61
452.13	7307.15
452.31	7192.47
452.49	7337.58
452.68	7236.94
452.86	7407.80
453.05	7433.54
453.23	7300.13
453.42	7508.44
453.60	7412.48
453.78	7646.53
453.97	7293.11
454.15	7583.34
454.34	7330.56
454.52	7487.37
454.70	7674.62
454.89	7639.51
455.07	7545.89
455.26	7929.74
455.44	7829.09
455.62	7712.07
455.81	7772.92
455.99	7775.26
456.17	7803.35
456.36	7852.50
456.54	8070.17
456.73	7999.95
456.91	8077.19
457.09	8226.98
457.28	8397.84
457.46	7934.42
457.64	8285.50
457.83	8079.53
458.01	8152.09
458.19	8311.24
458.38	8114.64
458.56	8327.63
458.74	8327.63
458.93	8451.67
459.11	8304.22
459.29	8404.86
459.48	8395.50
459.66	8505.51
459.84	8299.54
460.03	8554.66
460.21	8561.68
460.39	8610.83
460.57	8657.64
460.76	8650.62
460.94	8695.09
461.12	8692.75
461.31	8664.66
461.49	8540.61
461.67	8606.15
461.85	8994.68
462.04	8840.20
462.22	9212.35
462.40	8964.25
462.59	8788.71
462.77	8985.32
462.95	9090.64
463.13	9165.54
463.32	8896.38
463.50	8931.48
463.68	9064.89
463.86	9273.20
464.05	8945.53
464.23	8968.93
464.41	9132.77
464.59	9046.17
464.78	9193.62
464.96	9036.81
465.14	9146.81
465.32	9221.71
465.50	9425.34
465.69	9383.21
465.87	9467.47
466.05	9406.61
466.23	9200.65
466.41	9341.08
466.60	9666.41
466.78	9315.33
466.96	9350.44
467.14	9352.78
467.32	9432.36
467.51	9535.34
467.69	9294.27
467.87	9731.95
468.05	9568.11
468.23	9612.58
468.41	9710.88
468.60	9462.79
468.78	9563.43
468.96	9652.37
469.14	9753.01
469.32	9703.86
469.50	9563.43
469.69	9734.29
469.87	9853.66
470.05	9956.64
470.23	9916.85
470.41	9823.23
470.59	9900.47
470.77	9963.66
470.95	10040.90
471.14	10274.95
471.32	9994.09
471.50	10251.55
471.68	10333.47
471.86	10296.02
472.04	10413.04
472.22	10541.77
472.40	10352.19
472.58	10366.23
472.77	10490.28
472.95	10626.03
473.13	10869.45
473.31	10640.08
473.49	10626.03
473.67	10569.86
473.85	10803.91
474.03	11105.84
474.21	10995.84
474.39	11187.76
474.57	11288.40
474.75	11335.21
474.93	11578.63
475.12	11087.12
475.30	11344.58
475.48	11239.25
475.66	11508.41
475.84	11700.34
476.02	11473.31
476.20	11524.80
476.38	11836.09
476.56	11775.24
476.74	11995.25
476.92	11929.71
477.10	11829.07
477.28	12386.12
477.46	12313.56
477.64	12374.41
477.82	12479.74
478.00	12554.63
478.18	12458.67
478.36	12573.36
478.54	12938.48
478.72	12828.48
478.90	13200.62
479.08	13153.81
479.26	13364.46
479.44	13240.41
479.62	13465.10
479.80	13394.89
479.98	13579.79
480.16	13785.76
480.34	13528.30
480.52	13818.52
480.70	13916.83
480.88	13855.97
481.06	13973.00
481.24	14120.45
481.41	14361.53
481.59	14520.68
481.77	14661.12
481.95	14483.24
482.13	14525.36
482.31	14651.75
482.49	14904.53
482.67	15037.94
482.85	15262.63
483.03	15484.98
483.21	15414.77
483.39	15136.24
483.57	15360.94
483.74	15461.58
483.92	16119.27
484.10	15632.44
484.28	16039.69
484.46	16123.95
484.64	16510.14
484.82	16049.05
485.00	16280.77
485.18	16631.85
485.35	16872.92
485.53	16245.66
485.71	16301.83
485.89	16603.76
486.07	16561.63
486.25	16879.94
486.43	17130.38
486.61	17348.05
486.78	17385.50
486.96	17418.27
487.14	17879.35
487.32	17839.56
487.50	17783.39
487.68	18438.74
487.85	18345.12
488.03	18581.51
488.21	18721.95
488.39	18860.04
488.57	18684.50
488.75	18927.91
488.92	19129.20
489.10	19601.99
489.28	19587.94
489.46	20004.56
489.64	19662.84
489.81	20325.21
489.99	20376.70
490.17	20224.57
490.35	20720.76
490.53	20460.96
490.70	20821.41
490.88	20676.29
491.06	21003.97
491.24	21165.46
491.41	20807.36
491.59	20889.28
491.77	21212.28
491.95	21172.49
492.13	21783.37
492.30	21685.06
492.48	21722.51
492.66	21940.18
492.84	21991.67
493.01	22232.75
493.19	22221.05
493.37	22359.14
493.54	22520.63
493.72	22745.33
493.90	22724.26
494.08	22944.27
494.25	23297.69
494.43	23213.43
494.61	23426.42
494.79	24067.73
494.96	23709.63
495.14	23576.22
495.32	23892.19
495.49	23892.19
495.67	24170.71
495.85	24276.04
496.02	24580.31
496.20	24753.51
496.38	24161.35
496.55	24751.17
496.73	25092.88
496.91	25088.20
497.09	25170.12
497.26	25310.55
497.44	25270.76
497.62	25422.90
497.79	25731.85
497.97	25160.76
498.14	25315.23
498.32	25855.90
498.50	25750.57
498.67	26101.65
498.85	26146.12
499.03	26934.88
499.20	26574.44
499.38	26726.58
499.56	26955.95
499.73	26923.18
499.91	26838.92
500.08	26679.77
500.26	26803.82
500.44	26958.29
500.61	27054.25
500.79	26810.84
500.97	27072.98
501.14	27302.35
501.32	26979.36
501.49	27601.94
501.67	27737.69
501.84	27548.11
502.02	27735.35
502.20	27889.82
502.37	28027.92
502.55	28084.09
502.72	28285.37
502.90	28311.12
503.07	28016.21
503.25	28481.98
503.43	28194.09
503.60	28432.83
503.78	28367.29
503.95	28257.29
504.13	28748.80
504.30	28699.65
504.48	28613.05
504.65	29394.79
504.83	29013.28
505.01	29427.56
505.18	29453.30
505.36	29729.48
505.53	29207.55
505.71	29755.23
505.88	30057.16
506.06	29469.69
506.23	29830.13
506.41	29734.17
506.58	29872.26
506.76	30108.65
506.93	30010.35
507.11	29923.75
507.28	29785.66
507.46	30026.73
507.63	30230.36
507.81	30314.62
507.98	30441.01
508.16	30761.66
508.33	30721.87
508.50	30815.49
508.68	31171.25
508.85	31119.76
509.03	31428.71
509.20	31412.33
509.38	31494.25
509.55	31679.15
509.73	31658.09
509.90	31527.02
510.08	31625.32
510.25	31798.52
510.42	31571.49
510.60	32339.18
510.77	31962.36
510.95	32273.65
511.12	32247.90
511.30	32210.45
511.47	32879.85
511.64	32837.72
511.82	32531.11
511.99	32683.24
512.17	32414.08
512.34	32400.04
512.51	32786.22
512.69	32814.31
512.86	33490.73
513.04	33214.54
513.21	33060.07
513.38	32898.57
513.56	32975.81
513.73	33022.62
513.90	33432.21
514.08	33067.09
514.25	33582.01
514.43	33640.52
514.60	33198.16
514.77	33493.07
514.95	34162.46
515.12	33848.83
515.29	33795.00
515.47	34213.95
515.64	34204.59
515.81	34127.35
515.99	34125.01
516.16	34188.21
516.33	33958.83
516.51	34125.01
516.68	33605.41
516.85	33415.83
517.03	33907.34
517.20	34183.52
517.37	34623.54
517.54	34600.14
517.72	34724.19
517.89	34082.88
518.06	34448.00
518.24	34178.84
518.41	34492.47
518.58	34719.51
518.75	34796.74
518.93	34841.21
519.10	35063.57
519.27	35309.32
519.45	35374.86
519.62	35426.35
519.79	35922.54
519.96	35292.94
520.14	35824.24
520.31	35164.21
520.48	35852.33
520.65	35695.51
520.83	36610.66
521.00	36109.78
521.17	36074.68
521.34	36079.36
521.52	36266.60
521.69	36201.07
521.86	36828.33
522.03	36510.02
522.20	36762.79
522.38	36594.28
522.55	36617.68
522.72	36858.76
522.89	36563.85
523.07	37036.64
523.24	36755.77
523.41	37069.40
523.58	37062.38
523.75	37586.66
523.92	37294.10
524.10	37509.43
524.27	37689.65
524.44	37783.27
524.61	37378.36
524.78	37713.05
524.96	37289.42
525.13	37567.94
525.30	38230.31
525.47	38141.37
525.64	37923.70
525.81	37703.69
525.98	37741.14
526.16	37373.67
526.33	37518.79
526.50	37975.19
526.67	37528.15
526.84	37830.08
527.01	37399.42
527.18	37951.79
527.36	38328.61
527.53	38401.17
527.70	38923.11
527.87	38808.42
528.04	38305.21
528.21	38705.44
528.38	39143.12
528.55	39051.84
528.72	39131.42
528.89	39164.18
529.07	38951.20
529.24	39346.75
529.41	39426.32
529.58	39353.77
529.75	39440.37
529.92	39529.31
530.09	39578.46
530.26	39253.12
530.43	39559.73
530.60	39536.33
530.77	39302.28
530.94	39498.88
531.11	39782.09
531.28	40086.36
531.46	39625.27
531.63	39941.24
531.80	39356.11
531.97	39798.47
532.14	39676.76
532.31	39356.11
532.48	39407.60
532.65	39810.17
532.82	39634.63
532.99	40065.29
533.16	40053.59
533.33	39896.77
533.50	39777.40
533.67	40205.72
533.84	40189.34
534.01	40622.34
534.18	40371.90
534.35	40517.01
534.52	40430.41
534.69	40648.08
534.86	40575.53
535.03	40907.88
535.20	40690.21
535.37	40989.80
535.54	41329.18
535.71	40978.10
535.88	40973.42
536.05	41345.56
536.22	41315.14
536.38	40875.12
536.55	40739.36
536.72	41010.87
536.89	40395.31
537.06	41008.53
537.23	41174.70
537.40	40912.56
537.57	41305.77
537.74	41504.72
537.91	42000.91
538.08	41879.21
538.25	41401.74
538.42	41380.67
538.59	41954.10
538.75	41085.76
538.92	41504.72
539.09	41818.35
539.26	41804.31
539.43	41771.54
539.60	41975.17
539.77	41607.70
539.94	41804.31
540.11	41305.77
540.28	41656.85
540.44	41930.70
540.61	41521.10
540.78	41352.58
540.95	41593.66
541.12	41862.82
541.29	42174.11
541.46	41904.95
541.62	41373.65
541.79	42298.16
541.96	41600.68
542.13	42494.77
542.30	42160.07
542.47	42167.09
542.63	42225.60
542.80	42555.62
542.97	42227.95
543.14	43143.09
543.31	43351.40
543.48	43164.16
543.64	43147.78
543.81	43398.21
543.98	43203.95
544.15	43133.73
544.32	43096.28
544.48	43761.00
544.65	43063.52
544.82	42822.44
544.99	42773.29
545.16	43555.03
545.32	42829.46
545.49	43704.82
545.66	43049.47
545.83	43753.97
546.00	43414.60
546.16	42960.53
546.33	43512.90
546.50	43367.79
546.67	43475.45
546.83	42988.62
547.00	43653.33
547.17	43587.80
547.34	43592.48
547.50	43746.95
547.67	43482.47
547.84	43709.50
548.00	43594.82
548.17	44179.95
548.34	44076.97
548.51	44601.25
548.67	44266.55
548.84	44282.94
549.01	43924.83
549.18	44191.65
549.34	43751.63
549.51	44619.97
549.68	44325.07
549.84	44521.67
550.01	44446.77
550.18	43627.59
550.34	44392.94
550.51	44603.59
550.68	44481.88
550.84	44088.67
551.01	44081.65
551.18	44194.00
551.34	44383.58
551.51	44383.58
551.68	44577.84
551.84	44612.95
552.01	44289.96
552.18	44516.99
552.34	44137.82
552.51	44694.87
552.68	44509.97
552.84	44540.39
553.01	44889.13
553.18	44996.80
553.34	44652.74
553.51	44825.94
553.67	44931.26
553.84	45090.42
554.01	45296.39
554.17	44849.35
554.34	44849.35
554.51	45081.06
554.67	45329.16
554.84	45305.75
555.00	44989.78
555.17	45230.85
555.33	45116.17
555.50	45216.81
555.67	45020.20
555.83	45272.98
556.00	45392.35
556.16	45757.47
556.33	45310.43
556.50	45083.40
556.66	45029.57
556.83	45081.06
556.99	45013.18
557.16	45277.66
557.32	45179.36
557.49	45656.83
557.65	45226.17
557.82	45511.72
557.98	45151.27
558.15	45560.87
558.32	45373.63
558.48	45078.72
558.65	45574.91
558.81	45184.04
558.98	45373.63
559.14	45617.04
559.31	45181.70
559.47	45963.44
559.64	45755.13
559.80	45315.11
559.97	45497.67
560.13	45359.58
560.30	45235.53
560.46	45439.16
560.63	45544.48
560.79	45537.46
560.96	45928.33
561.12	45586.61
561.29	45965.78
561.45	45544.48
561.61	45773.86
561.78	45897.91
561.94	45485.97
562.11	45668.53
562.27	45462.57
562.44	45504.70
562.60	45792.58
562.77	45701.30
562.93	45918.97
563.10	45837.05
563.26	45305.75
563.42	46263.03
563.59	45450.86
563.75	45900.25
563.92	46286.43
564.08	45933.01
564.24	46181.11
564.41	46007.91
564.57	46010.25
564.74	45897.91
564.90	45949.40
565.07	46036.00
565.23	45752.79
565.39	45694.28
565.56	45834.71
565.72	45340.86
565.88	45925.99
566.05	46007.91
566.21	46024.29
566.38	45736.41
566.54	45900.25
566.70	46021.95
566.87	46487.72
567.03	46092.17
567.19	46134.30
567.36	46351.97
567.52	45935.35
567.68	46131.96
567.85	45703.64
568.01	46284.09
568.17	45895.56
568.34	46115.58
568.50	46038.34
568.66	45921.31
568.83	46085.15
568.99	46061.74
569.15	46092.17
569.32	45951.74
569.48	45982.16
569.64	46436.23
569.81	45911.95
569.97	45839.39
570.13	46085.15
570.30	46024.29
570.46	45605.34
570.62	45925.99
570.78	45918.97
570.95	46071.10
571.11	45862.80
571.27	46239.62
571.43	45691.94
571.60	46183.45
571.76	46265.37
571.92	46410.48
572.09	46153.02
572.25	46356.65
572.41	46330.90
572.57	46436.23
572.74	46326.22
572.90	46178.77
573.06	46464.32
573.22	46398.78
573.38	46113.23
573.55	46363.67
573.71	46356.65
573.87	46623.47
574.03	46440.91
574.20	46429.21
574.36	46522.83
574.52	46061.74
574.68	46356.65
574.84	46483.04
575.01	46398.78
575.17	46316.86
575.33	46101.53
575.49	46082.81
575.65	46136.64
575.82	46483.04
575.98	45659.17
576.14	46131.96
576.30	46656.24
576.46	46136.64
576.62	46089.83
576.79	46499.42
576.95	46309.84
577.11	46213.88
577.27	46281.75
577.43	46117.92
577.59	46223.24
577.75	45848.75
577.92	45827.69
578.08	45925.99
578.24	46136.64
578.40	46265.37
578.56	46461.97
578.72	46660.92
578.88	46396.44
579.04	46344.95
579.21	46089.83
579.37	46363.67
579.53	46476.02
579.69	45867.48
579.85	46019.61
580.01	46721.77
580.17	46248.99
580.33	46717.09
580.49	46712.41
580.65	46248.99
580.82	46499.42
580.98	46745.18
581.14	46012.59
581.30	46246.65
581.46	46586.02
581.62	46099.19
581.78	46174.09
581.94	46923.06
582.10	46265.37
582.26	46555.60
582.42	46298.14
582.58	46707.73
582.74	46768.58
582.90	46527.51
583.06	46326.22
583.22	46714.75
583.38	46749.86
583.54	46693.69
583.70	46770.93
583.86	46700.71
584.02	46265.37
584.18	46607.09
584.34	46326.22
584.50	46616.45
584.66	46457.29
584.82	46169.41
584.98	46518.15
585.14	46660.92
585.30	46136.64
585.46	46358.99
585.62	46312.18
585.78	46426.87
585.94	46237.28
586.10	46295.80
586.26	46150.68
586.42	46696.03
586.58	46541.55
586.74	46878.59
586.90	46354.31
587.06	46698.37
587.22	46831.78
587.38	46230.26
587.54	46321.54
587.70	46436.23
587.86	46309.84
588.02	46618.79
588.18	46600.07
588.34	46024.29
588.49	45860.46
588.65	45874.50
588.81	45970.46
588.97	46401.12
589.13	45839.39
589.29	46239.62
589.45	46167.07
589.61	46447.93
589.77	46623.47
589.93	46248.99
