SpectraSuite Data File
++++++++++++++++++++++++++++++++++++
Date: Fri Oct 25 11:24:01 EDT 2013
User: price-jones
Dark Spectrum Present: No
Reference Spectrum Present: No
Number of Sampled Component Spectra: 1
Spectrometers: USB2+H05261
Integration Time (usec): 100000 (USB2+H05261)
Spectra Averaged: 1 (USB2+H05261)
Boxcar Smoothing: 0 (USB2+H05261)
Correct for Electrical Dark: No (USB2+H05261)
Strobe/Lamp Enabled: No (USB2+H05261)
Correct for Detector Non-linearity: No (USB2+H05261)
Correct for Stray Light: No (USB2+H05261)
Number of Pixels in Processed Spectrum: 2048
>>>>>Begin Processed Spectral Data<<<<<
365.73	250.44
365.92	250.44
366.12	250.44
366.32	107.66
366.52	124.05
366.72	163.84
366.91	88.94
367.11	201.29
367.31	154.48
367.51	98.30
367.70	163.84
367.90	119.37
368.10	147.45
368.30	194.26
368.49	95.96
368.69	81.92
368.89	93.62
369.09	124.05
369.28	163.84
369.48	191.92
369.68	201.29
369.87	194.26
370.07	236.39
370.27	234.05
370.47	315.97
370.66	493.85
370.86	629.60
371.06	650.67
371.25	655.35
371.45	676.41
371.65	641.31
371.84	664.71
372.04	702.16
372.24	650.67
372.44	641.31
372.63	777.06
372.83	716.20
373.03	730.25
373.22	765.36
373.42	833.23
373.62	732.59
373.81	791.10
374.01	807.48
374.21	739.61
374.40	828.55
374.60	854.30
374.79	751.31
374.99	844.93
375.19	866.00
375.38	917.49
375.58	779.40
375.78	802.80
375.97	837.91
376.17	936.21
376.37	849.61
376.56	889.40
376.76	833.23
376.95	896.43
377.15	917.49
377.35	957.28
377.54	903.45
377.74	807.48
377.93	919.83
378.13	919.83
378.33	936.21
378.52	950.26
378.72	978.34
378.91	936.21
379.11	997.07
379.31	933.87
379.50	940.90
379.70	954.94
379.89	938.55
380.09	947.92
380.28	1013.45
380.48	992.39
380.68	1013.45
380.87	1015.79
381.07	947.92
381.26	1032.18
381.46	1067.28
381.65	950.26
381.85	1060.26
382.04	950.26
382.24	1018.13
382.43	1069.62
382.63	1027.50
382.83	1107.07
383.02	1149.20
383.22	1158.57
383.41	1125.80
383.61	1034.52
383.80	1165.59
384.00	1109.41
384.19	1114.10
384.39	1104.73
384.58	1123.46
384.78	1193.67
384.97	1179.63
385.17	1142.18
385.36	1102.39
385.56	1186.65
385.75	1163.25
385.95	1153.88
386.14	1163.25
386.34	1203.04
386.53	1306.02
386.72	1188.99
386.92	1238.14
387.11	1196.01
387.31	1240.48
387.50	1210.06
387.70	1277.93
387.89	1252.19
388.09	1240.48
388.28	1245.16
388.48	1299.00
388.67	1259.21
388.86	1322.40
389.06	1320.06
389.25	1306.02
389.45	1320.06
389.64	1350.49
389.84	1430.07
390.03	1451.13
390.22	1359.85
390.42	1441.77
390.61	1322.40
390.81	1383.26
391.00	1383.26
391.19	1490.92
391.39	1502.62
391.58	1500.28
391.78	1355.17
391.97	1409.00
392.16	1446.45
392.36	1596.25
392.55	1530.71
392.75	1689.87
392.94	1554.12
393.13	1500.28
393.33	1516.67
393.52	1617.31
393.71	1631.35
393.91	1523.69
394.10	1495.60
394.29	1586.88
394.49	1584.54
394.68	1666.46
394.88	1626.67
395.07	1605.61
395.26	1746.04
395.46	1776.47
395.65	1680.50
395.84	1769.44
396.04	1788.17
396.23	1771.79
396.42	1774.13
396.62	1701.57
396.81	1830.30
397.00	1816.26
397.19	1816.26
397.39	1832.64
397.58	1893.49
397.77	1694.55
397.97	1795.19
398.16	1872.43
398.35	1830.30
398.55	1881.79
398.74	1930.94
398.93	1973.07
399.12	1884.13
399.32	1872.43
399.51	2010.52
399.70	2019.88
399.90	1940.30
400.09	1982.43
400.28	2099.46
400.47	2092.44
400.67	2097.12
400.86	2083.08
401.05	2113.50
401.24	2214.15
401.44	2120.53
401.63	2073.71
401.82	2279.68
402.01	2155.63
402.21	2265.64
402.40	2134.57
402.59	2054.99
402.78	2134.57
402.97	2186.06
403.17	2244.57
403.36	2324.15
403.55	2174.36
403.74	2314.79
403.93	2324.15
404.13	2331.17
404.32	2242.23
404.51	2396.71
404.70	2427.14
404.89	2321.81
405.09	2569.91
405.28	2452.88
405.47	2516.08
405.66	2392.03
405.85	2506.71
406.05	2448.20
406.24	2476.29
406.43	2546.50
406.62	2628.42
406.81	2677.57
407.00	2647.15
407.20	2616.72
407.39	2576.93
407.58	2665.87
407.77	2724.38
407.96	2768.85
408.15	2839.07
408.34	2799.28
408.54	2911.63
408.73	2787.58
408.92	2810.98
409.11	2935.03
409.30	2981.84
409.49	3016.95
409.68	2818.00
409.87	2918.65
410.07	3026.31
410.26	3023.97
410.45	2991.20
410.64	2988.86
410.83	3096.53
411.02	3211.22
411.21	3243.98
411.40	3286.11
411.59	3229.94
411.78	3232.28
411.98	3091.85
412.17	3335.26
412.36	3288.45
412.55	3370.37
412.74	3482.72
412.93	3398.46
413.12	3365.69
413.31	3513.14
413.50	3363.35
413.69	3529.53
413.88	3574.00
414.07	3590.38
414.26	3735.50
414.45	3681.66
414.64	3791.67
414.83	3644.21
415.02	3723.79
415.22	3880.61
415.41	3904.01
415.60	3779.97
415.79	3871.25
415.98	4032.74
416.17	4067.85
416.36	4028.06
416.55	4070.19
416.74	4028.06
416.93	4074.87
417.12	4191.90
417.31	4219.99
417.50	4142.75
417.69	4308.93
417.88	4332.33
418.07	4241.05
418.26	4386.16
418.45	4266.80
418.64	4641.28
418.83	4414.25
419.02	4318.29
419.21	4451.70
419.39	4641.28
419.58	4552.34
419.77	4493.83
419.96	4631.92
420.15	4601.49
420.34	4564.04
420.53	4554.68
420.72	4718.52
420.91	4681.07
421.10	4692.77
421.29	4786.40
421.48	4688.09
421.67	4847.25
421.86	4793.42
422.05	4875.34
422.24	4837.89
422.43	4978.32
422.61	4973.64
422.80	5006.41
422.99	4943.21
423.18	4945.55
423.37	4957.25
423.56	4999.38
423.75	5018.11
423.94	4933.85
424.13	4671.71
424.32	4690.43
424.50	4947.89
424.69	5137.48
424.88	5039.17
425.07	4863.63
425.26	4870.65
425.45	5076.62
425.64	4865.97
425.83	4994.70
426.01	5118.75
426.20	5102.37
426.39	5004.07
426.58	5125.77
426.77	5123.43
426.96	5156.20
427.15	5055.56
427.33	5188.97
427.52	5172.58
427.71	5291.95
427.90	5149.18
428.09	5261.52
428.28	5322.38
428.46	5313.02
428.65	5313.02
428.84	5593.88
429.03	5565.79
429.22	5486.22
429.40	5643.03
429.59	5582.18
429.78	5294.29
429.97	5376.21
430.16	5535.37
430.34	5724.95
430.53	5600.90
430.72	5657.07
430.91	5668.78
431.10	5626.65
431.28	5689.84
431.47	5783.46
431.66	5851.34
431.85	5673.46
432.03	5947.30
432.22	6003.47
432.41	5893.47
432.60	6097.10
432.79	6038.58
432.97	6069.01
433.16	6120.50
433.35	6036.24
433.54	5944.96
433.72	6113.48
433.91	6094.76
434.10	5977.73
434.28	6071.35
434.47	6190.72
434.66	6427.11
434.85	6289.02
435.03	6286.68
435.22	6331.15
435.41	6413.07
435.59	6663.51
435.78	6494.99
435.97	6525.41
436.16	6429.45
436.34	6483.28
436.53	6436.47
436.72	6731.38
436.90	6551.16
437.09	6724.36
437.28	6445.84
437.46	6602.65
437.65	6621.38
437.84	6626.06
438.02	6715.00
438.21	6761.81
438.40	6640.10
438.58	7040.33
438.77	7016.93
438.96	7059.06
439.14	7045.01
439.33	7136.29
439.52	7119.91
439.70	7365.67
439.89	7384.39
440.08	7431.20
440.26	7581.00
440.45	7440.56
440.63	7571.63
440.82	7702.70
441.01	7583.34
441.19	7641.85
441.38	7662.91
441.57	7779.94
441.75	7967.18
441.94	8013.99
442.12	7817.39
442.31	8072.51
442.50	8234.00
442.68	7866.54
442.87	8058.46
443.05	8182.51
443.24	8369.76
443.43	8358.05
443.61	8241.03
443.80	8409.54
443.98	7988.25
444.17	7864.20
444.35	8241.03
444.54	8540.61
444.73	8336.99
444.91	8163.79
445.10	8269.11
445.28	8327.63
445.47	8463.38
445.65	8290.18
445.84	8428.27
446.02	8535.93
446.21	8505.51
446.39	8496.14
446.58	8503.17
446.77	8500.83
446.95	8329.97
447.14	8578.06
447.32	8571.04
447.51	8566.36
447.69	8638.92
447.88	8547.64
448.06	8620.19
448.25	8418.91
448.43	8521.89
448.62	8807.44
448.80	8748.92
448.99	8538.27
449.17	8711.47
449.36	8784.03
449.54	9025.11
449.73	9029.79
449.91	9104.68
450.10	8894.04
450.28	9111.71
450.46	9202.99
450.65	8975.95
450.83	9188.94
451.02	9273.20
451.20	9043.83
451.39	9132.77
451.57	9280.22
451.76	8961.91
451.94	9210.01
452.13	9296.61
452.31	9312.99
452.49	9334.06
452.68	9312.99
452.86	9362.14
453.05	9444.06
453.23	9432.36
453.42	9444.06
453.60	9387.89
453.78	9633.64
453.97	9518.96
454.15	9635.99
454.34	9406.61
454.52	9657.05
454.70	9715.56
454.89	9858.34
455.07	9666.41
455.26	9980.04
455.44	9851.31
455.62	9872.38
455.81	9980.04
455.99	9966.00
456.17	10022.17
456.36	10125.16
456.54	10387.30
456.73	10249.21
456.91	10366.23
457.09	10296.02
457.28	10649.44
457.46	10160.27
457.64	10651.78
457.83	10501.98
458.01	10457.51
458.19	10565.18
458.38	10541.77
458.56	10396.66
458.74	10677.52
458.93	10619.01
459.11	10623.69
459.29	10871.79
459.48	10752.42
459.66	10869.45
459.84	11052.01
460.03	11059.03
460.21	10956.05
460.39	11009.88
460.57	11019.24
460.76	11023.92
460.94	11143.29
461.12	11147.97
461.31	11089.46
461.49	11194.78
461.67	11358.62
461.85	11459.26
462.04	11445.22
462.22	11344.58
462.40	11541.18
462.59	11662.89
462.77	11602.04
462.95	11660.55
463.13	11360.96
463.32	11672.25
463.50	11800.98
463.68	11964.82
463.86	11976.52
464.05	11702.68
464.23	11932.05
464.41	12107.59
464.59	11662.89
464.78	12219.94
464.96	12138.02
465.14	12006.95
465.32	12163.76
465.50	12044.40
465.69	12287.81
465.87	12250.36
466.05	12109.93
466.23	12304.20
466.41	12313.56
466.60	12297.17
466.78	12023.33
466.96	12156.74
467.14	12142.70
467.32	12463.35
467.51	12475.06
467.69	12191.85
467.87	12369.73
468.05	12692.73
468.23	12702.09
468.41	12830.82
468.60	12692.73
468.78	12709.11
468.96	12650.60
469.14	12898.69
469.32	12793.37
469.50	12681.02
469.69	12847.20
469.87	13158.49
470.05	13153.81
470.23	13135.09
470.41	13032.10
470.59	13411.27
470.77	13261.48
470.95	13336.37
471.14	13689.79
471.32	13273.18
471.50	13551.70
471.68	13605.53
471.86	13673.41
472.04	13642.98
472.22	14155.56
472.40	13788.10
472.58	14075.98
472.77	13881.72
472.95	14185.99
473.13	14562.81
473.31	14218.75
473.49	14075.98
473.67	14200.03
473.85	14483.24
474.03	14654.09
474.21	14548.77
474.39	14719.63
474.57	14831.97
474.75	14956.02
474.93	15021.56
475.12	14839.00
475.30	15215.82
475.48	14998.15
475.66	15374.98
475.84	15456.90
476.02	15559.88
476.20	15389.02
476.38	15812.66
476.56	16002.24
476.74	15887.56
476.92	15878.19
477.10	15826.70
477.28	15988.20
477.46	16123.95
477.64	16758.24
477.82	16709.08
478.00	16886.97
478.18	16704.40
478.36	16835.47
478.54	17495.50
478.72	17219.32
478.90	17378.48
479.08	17666.36
479.26	17830.20
479.44	18061.91
479.62	18012.76
479.80	18003.40
479.98	18408.31
480.16	18710.24
480.34	18090.00
480.52	18525.34
480.70	18906.85
480.88	18401.29
481.06	18998.13
481.24	18813.23
481.41	19073.03
481.59	19487.30
481.77	19173.67
481.95	19681.56
482.13	20037.33
482.31	19999.88
482.49	20339.26
482.67	20217.55
482.85	20477.35
483.03	20676.29
483.21	20737.15
483.39	21198.23
483.57	20973.54
483.74	21451.01
483.92	21495.48
484.10	21160.78
484.28	22008.06
484.46	22082.95
484.64	22480.85
484.82	21923.80
485.00	22328.71
485.18	22754.69
485.35	22747.67
485.53	23028.53
485.71	22874.06
485.89	23981.13
486.07	23843.04
486.25	23852.40
486.43	23644.09
486.61	24102.84
486.78	24252.63
486.96	24372.00
487.14	24549.88
487.32	24552.22
487.50	25076.50
487.68	25017.99
487.85	25156.08
488.03	25565.67
488.21	25881.64
488.39	25680.36
488.57	26157.83
488.75	25982.29
488.92	26871.69
489.10	26757.00
489.28	26644.66
489.46	27098.72
489.64	27159.58
489.81	27999.83
489.99	27978.76
490.17	27805.56
490.35	28252.61
490.53	28528.79
490.70	28320.48
490.88	28346.23
491.06	29179.46
491.24	29053.07
491.41	28856.46
491.59	29392.45
491.77	29340.96
491.95	29221.59
492.13	29614.80
492.30	30253.76
492.48	29872.26
492.66	30010.35
492.84	30298.23
493.01	30892.73
493.19	31094.02
493.37	31452.12
493.54	31239.13
493.72	31454.46
493.90	31576.17
494.08	32067.68
494.25	32053.64
494.43	32086.40
494.61	32388.33
494.79	32662.18
494.96	32723.03
495.14	32936.02
495.32	33303.48
495.49	33352.63
495.67	33291.78
495.85	33649.88
496.02	33748.18
496.20	34270.12
496.38	34424.60
496.55	34103.95
496.73	34401.19
496.91	34759.30
497.09	35206.34
497.26	35077.61
497.44	34925.47
497.62	35370.18
497.79	35967.01
497.97	35955.31
498.14	36046.59
498.32	36662.15
498.50	36116.81
498.67	37055.36
498.85	36449.16
499.03	37282.39
499.20	36627.04
499.38	37195.79
499.56	37151.32
499.73	37801.99
499.91	37354.95
500.08	37453.25
500.26	37989.24
500.44	37514.11
500.61	38052.43
500.79	37853.48
500.97	38110.94
501.14	38663.31
501.32	38944.17
501.49	39044.82
501.67	39007.37
501.84	38995.67
502.02	39166.52
502.20	39129.08
502.37	39557.39
502.55	39590.16
502.72	39768.04
502.90	39370.15
503.07	39669.74
503.25	40383.60
503.43	39971.67
503.60	40034.86
503.78	39997.41
503.95	40589.57
504.13	40423.39
504.30	40526.38
504.48	40596.59
504.65	40889.16
504.83	41249.60
505.01	41787.92
505.18	40825.96
505.36	41762.18
505.53	41757.50
505.71	41780.90
505.88	41944.74
506.06	41698.98
506.23	42401.14
506.41	41918.99
506.58	42251.35
506.76	42454.98
506.93	42768.61
507.11	42103.90
507.28	42646.90
507.46	42962.87
507.63	42862.23
507.81	43463.75
507.98	43140.75
508.16	43435.66
508.33	43924.83
508.50	43629.93
508.68	43737.59
508.85	44004.41
509.03	43938.88
509.20	44086.33
509.38	44203.36
509.55	44343.79
509.73	44587.21
509.90	44807.22
510.08	44762.75
510.25	44699.55
510.42	44921.90
510.60	45551.51
510.77	45104.46
510.95	45366.60
511.12	45048.29
511.30	45167.66
511.47	45551.51
511.64	45846.41
511.82	46073.45
511.99	45823.01
512.17	46155.36
512.34	46190.47
512.51	46623.47
512.69	46766.24
512.86	46440.91
513.04	46611.77
513.21	46677.30
513.38	46876.25
513.56	47026.04
513.73	46686.67
513.90	46817.74
514.08	46787.31
514.25	47400.53
514.43	47601.82
514.60	47611.18
514.77	47496.49
514.95	47775.02
515.12	47870.98
515.29	47665.01
515.47	48395.26
515.64	48215.04
515.81	48219.72
515.99	47995.03
516.16	48294.61
516.33	48453.77
516.51	48671.44
516.68	48966.35
516.85	48432.71
517.03	48891.45
517.20	49017.84
517.37	49193.38
517.54	48917.20
517.72	48865.70
517.89	49446.16
518.06	49631.06
518.24	49535.10
518.41	49312.75
518.58	49591.27
518.75	49109.12
518.93	49652.12
519.10	49766.81
519.27	49834.69
519.45	49968.10
519.62	49876.82
519.79	50033.63
519.96	50148.32
520.14	50234.92
520.31	50143.64
520.48	50014.91
520.65	50564.93
520.83	50873.88
521.00	50796.65
521.17	50855.16
521.34	51075.17
521.52	50894.95
521.69	50988.57
521.86	50960.48
522.03	51033.04
522.20	51765.63
522.38	51402.85
522.55	51257.73
522.72	51435.61
522.89	51461.36
523.07	51821.80
523.24	51702.43
523.41	51702.43
523.58	51608.81
523.75	52198.63
523.92	51716.48
524.10	52247.78
524.27	52463.11
524.44	52090.96
524.61	51990.32
524.78	52215.01
524.96	52332.04
525.13	52610.56
525.30	52341.40
525.47	52760.36
525.64	52741.63
525.81	52722.91
525.98	52774.40
526.16	52617.58
526.33	52802.49
526.50	53158.25
526.67	52704.18
526.84	53162.93
527.01	52971.00
527.18	53132.50
527.36	52973.34
527.53	53411.02
527.70	53462.52
527.87	53268.25
528.04	53076.33
528.21	53357.19
528.38	53251.87
528.55	53539.75
528.72	53319.74
528.89	53677.85
529.07	53432.09
529.24	53469.54
529.41	53918.92
529.58	53712.95
529.75	53902.54
529.92	54005.52
530.09	54110.85
530.26	54057.01
530.43	54092.12
530.60	53834.66
530.77	54157.66
530.94	54291.07
531.11	54047.65
531.28	54145.95
531.46	54602.36
531.63	54326.17
531.80	54433.84
531.97	54482.99
532.14	54630.44
532.31	54408.09
532.48	54593.00
532.65	54808.32
532.82	54651.51
532.99	54791.94
533.16	54890.24
533.33	54937.05
533.50	55089.19
533.67	54873.86
533.84	55091.53
534.01	55126.64
534.18	55016.63
534.35	55419.20
534.52	55075.15
534.69	55299.84
534.86	55313.88
535.03	55159.41
535.20	54955.78
535.37	55461.33
535.54	55454.31
535.71	55386.44
535.88	55447.29
536.05	55646.24
536.22	55704.75
536.38	55817.10
536.55	55653.26
536.72	55819.44
536.89	55604.11
537.06	55732.84
537.23	56119.02
537.40	55990.30
537.57	55767.94
537.74	55962.21
537.91	56222.01
538.08	55877.95
538.25	55880.29
538.42	56090.94
538.59	56189.24
538.75	55927.10
538.92	55959.87
539.09	56266.48
539.26	56207.97
539.43	56409.25
539.60	56226.69
539.77	56186.90
539.94	56732.25
540.11	56477.13
540.28	56556.70
540.44	56655.01
540.61	56411.59
540.78	56238.39
540.95	56769.69
541.12	56456.06
541.29	56369.46
541.46	56743.95
541.62	56835.23
541.79	56823.53
541.96	56552.02
542.13	56729.90
542.30	56795.44
542.47	56945.23
542.63	56996.73
542.80	56975.66
542.97	57172.27
543.14	57296.31
543.31	57322.06
543.48	57432.07
543.64	57605.26
543.81	57509.30
543.98	57359.51
544.15	57345.47
544.32	57450.79
544.48	57656.76
544.65	57492.92
544.82	57560.79
544.99	57504.62
545.16	57371.21
545.32	57521.01
545.49	57560.79
545.66	57949.32
545.83	57570.16
546.00	57815.91
546.16	57790.17
546.33	57719.95
546.50	57584.20
546.67	57579.52
546.83	57722.29
547.00	58071.03
547.17	57897.83
547.34	57710.59
547.50	58066.35
547.67	58120.18
547.84	58012.52
548.00	58363.60
548.17	58272.32
548.34	58188.06
548.51	58389.34
548.67	58475.94
548.84	58218.49
549.01	58188.06
549.18	58262.96
549.34	58330.83
549.51	58298.06
549.68	58466.58
549.84	58501.69
550.01	58398.71
550.18	58323.81
550.34	58658.51
550.51	58611.70
550.68	58358.92
550.84	58351.90
551.01	58761.49
551.18	58272.32
551.34	58738.08
551.51	58761.49
551.68	58672.55
551.84	58625.74
552.01	58518.07
552.18	58569.57
552.34	58604.67
552.51	58960.44
552.68	58691.27
552.84	58974.48
553.01	59035.33
553.18	58623.40
553.34	58841.07
553.51	58834.05
553.67	58857.45
553.84	59302.15
554.01	58939.37
554.17	58990.86
554.34	59217.89
554.51	59257.68
554.67	59208.53
554.84	58904.26
555.00	59126.61
555.17	59164.06
555.33	59056.40
555.50	59119.59
555.67	59288.11
555.83	59152.36
556.00	59128.95
556.16	59363.01
556.33	59580.68
556.50	59529.19
556.66	59468.33
556.83	59260.02
556.99	59536.21
557.16	59468.33
557.32	59613.44
557.49	59774.94
557.65	59395.77
557.82	59442.59
557.98	59323.22
558.15	59430.88
558.32	59671.96
558.48	59494.08
558.65	59405.14
558.81	59517.48
558.98	59721.11
559.14	59627.49
559.31	59875.58
559.47	59693.02
559.64	59936.44
559.80	59798.35
559.97	59828.77
560.13	59728.13
560.30	59945.80
560.46	59877.93
560.63	60093.25
560.79	60156.45
560.96	60006.65
561.12	59826.43
561.29	59831.11
561.45	59943.46
561.61	60034.74
561.78	59803.03
561.94	59964.52
562.11	60144.75
562.27	59985.59
562.44	59957.50
562.60	60299.22
562.77	60016.02
562.93	59842.82
563.10	60037.08
563.26	59863.88
563.42	60441.99
563.59	60273.48
563.75	60018.36
563.92	59817.07
564.08	59987.93
564.24	60149.43
564.41	60037.08
564.57	60086.23
564.74	60123.68
564.90	60205.60
565.07	60226.66
565.23	60130.70
565.39	60308.58
565.56	60240.71
565.72	60156.45
565.88	60175.17
566.05	60240.71
566.21	60320.29
566.38	60282.84
566.54	60271.14
566.70	60317.95
566.87	60516.89
567.03	60154.11
567.19	60669.03
567.36	60317.95
567.52	60420.93
567.68	60647.96
567.85	60404.55
568.01	60540.30
568.17	60294.54
568.34	60500.51
568.50	60348.37
568.66	60425.61
568.83	60622.22
568.99	60542.64
569.15	60374.12
569.32	60486.46
569.48	60542.64
569.64	60732.22
569.81	60416.25
569.97	60439.65
570.13	60608.17
570.30	60493.49
570.46	60708.82
570.62	60713.50
570.78	60633.92
570.95	60640.94
571.11	60748.60
571.27	60591.79
571.43	60603.49
571.60	60912.44
571.76	60643.28
571.92	60446.68
572.09	60889.04
572.25	60629.24
572.41	60673.71
572.57	60823.50
572.74	60949.89
572.90	60615.19
573.06	60708.82
573.22	60718.18
573.38	60624.56
573.55	60617.53
573.71	60903.08
573.87	60800.10
574.03	60556.68
574.20	60753.29
574.36	60896.06
574.52	60640.94
574.68	60828.18
574.84	60772.01
575.01	60863.29
575.17	60776.69
575.33	60802.44
575.49	60795.42
575.65	60853.93
575.82	60825.84
575.98	60914.78
576.14	61013.08
576.30	60889.04
576.46	60849.25
576.62	60828.18
576.79	60659.66
576.95	60647.96
577.11	60879.67
577.27	60830.52
577.43	60867.97
577.59	60622.22
577.75	60807.12
577.92	60842.23
578.08	60926.49
578.24	60966.27
578.40	60977.98
578.56	61038.83
578.72	60992.02
578.88	61036.49
579.04	61095.00
579.21	60893.72
579.37	60975.64
579.53	61190.97
579.69	60582.43
579.85	61137.13
580.01	60999.04
580.17	60884.36
580.33	61043.51
580.49	60945.21
580.65	61099.68
580.82	60872.65
580.98	60912.44
581.14	60727.54
581.30	61116.07
581.46	61078.62
581.62	60982.66
581.78	60938.19
581.94	61097.34
582.10	61001.38
582.26	61183.94
582.42	60942.87
582.58	61076.28
582.74	60914.78
582.90	61017.77
583.06	61001.38
583.22	61073.94
583.38	61057.56
583.54	61111.39
583.70	60945.21
583.86	60949.89
584.02	61069.26
584.18	61036.49
584.34	60898.40
584.50	61111.39
584.66	60891.38
584.82	60816.48
584.98	61291.61
585.14	61176.92
585.30	61197.99
585.46	61144.16
585.62	61045.85
585.78	61219.05
585.94	60907.76
586.10	61085.64
586.26	61186.28
586.42	61092.66
586.58	61095.00
586.74	61001.38
586.90	61172.24
587.06	61055.21
587.22	61247.14
587.38	60952.23
587.54	61263.52
587.70	61324.38
587.86	61111.39
588.02	61137.13
588.18	61291.61
588.34	61015.43
588.49	60947.55
