SpectraSuite Data File
++++++++++++++++++++++++++++++++++++
Date: Fri Oct 25 11:26:03 EDT 2013
User: price-jones
Dark Spectrum Present: No
Reference Spectrum Present: No
Number of Sampled Component Spectra: 1
Spectrometers: USB2+H05261
Integration Time (usec): 100000 (USB2+H05261)
Spectra Averaged: 1 (USB2+H05261)
Boxcar Smoothing: 0 (USB2+H05261)
Correct for Electrical Dark: No (USB2+H05261)
Strobe/Lamp Enabled: No (USB2+H05261)
Correct for Detector Non-linearity: No (USB2+H05261)
Correct for Stray Light: No (USB2+H05261)
Number of Pixels in Processed Spectrum: 2048
>>>>>Begin Processed Spectral Data<<<<<
365.73	212.99
365.92	212.99
366.12	212.99
366.32	173.20
366.52	177.88
366.72	203.63
366.91	95.96
367.11	229.37
367.31	191.92
367.51	112.35
367.70	119.37
367.90	173.20
368.10	117.03
368.30	138.09
368.49	168.52
368.69	145.11
368.89	149.79
369.09	114.69
369.28	184.90
369.48	175.54
369.68	163.84
369.87	187.24
370.07	227.03
370.27	294.91
370.47	379.17
370.66	606.20
370.86	545.34
371.06	676.41
371.25	671.73
371.45	732.59
371.65	784.08
371.84	697.48
372.04	669.39
372.24	683.44
372.44	734.93
372.63	730.25
372.83	667.05
373.03	732.59
373.22	821.53
373.42	802.80
373.62	758.33
373.81	734.93
374.01	830.89
374.21	805.14
374.40	802.80
374.60	856.64
374.79	821.53
374.99	828.55
375.19	826.21
375.38	828.55
375.58	844.93
375.78	880.04
375.97	908.13
376.17	856.64
376.37	851.96
376.56	861.32
376.76	826.21
376.95	884.72
377.15	819.19
377.35	901.11
377.54	947.92
377.74	856.64
377.93	877.70
378.13	835.57
378.33	947.92
378.52	961.96
378.72	896.43
378.91	961.96
379.11	894.08
379.31	910.47
379.50	889.40
379.70	964.30
379.89	1062.60
380.09	931.53
380.28	884.72
380.48	964.30
380.68	968.98
380.87	891.74
381.07	1071.97
381.26	983.02
381.46	1001.75
381.65	1104.73
381.85	1088.35
382.04	1039.20
382.24	1032.18
382.43	1055.58
382.63	1074.31
382.83	1048.56
383.02	1053.24
383.22	1090.69
383.41	1128.14
383.61	1048.56
383.80	1186.65
384.00	1125.80
384.19	1135.16
384.39	1086.01
384.58	1200.69
384.78	1069.62
384.97	1153.88
385.17	1224.10
385.36	1170.27
385.56	1203.04
385.75	1181.97
385.95	1200.69
386.14	1196.01
386.34	1226.44
386.53	1191.33
386.72	1177.29
386.92	1193.67
387.11	1233.46
387.31	1252.19
387.50	1203.04
387.70	1261.55
387.89	1256.87
388.09	1228.78
388.28	1231.12
388.48	1228.78
388.67	1247.51
388.86	1245.16
389.06	1270.91
389.25	1451.13
389.45	1270.91
389.64	1341.13
389.84	1397.30
390.03	1406.66
390.22	1432.41
390.42	1462.83
390.61	1392.62
390.81	1348.15
391.00	1432.41
391.19	1479.22
391.39	1439.43
391.58	1401.98
391.78	1458.15
391.97	1537.73
392.16	1516.67
392.36	1502.62
392.55	1413.68
392.75	1610.29
392.94	1434.75
393.13	1643.06
393.33	1488.58
393.52	1493.26
393.71	1614.97
393.91	1563.48
394.10	1605.61
394.29	1563.48
394.49	1636.03
394.68	1668.80
394.88	1722.63
395.07	1636.03
395.26	1636.03
395.46	1661.78
395.65	1678.16
395.84	1741.36
396.04	1750.72
396.23	1748.38
396.42	1720.29
396.62	1818.60
396.81	1778.81
397.00	1820.94
397.19	1713.27
397.39	1816.26
397.58	1849.02
397.77	1816.26
397.97	1870.09
398.16	1832.64
398.35	1923.92
398.55	1846.68
398.74	1935.62
398.93	2099.46
399.12	1874.77
399.32	1895.83
399.51	1998.82
399.70	2024.56
399.90	1827.96
400.09	2008.18
400.28	2001.16
400.47	1959.03
400.67	2050.31
400.86	2050.31
401.05	1966.05
401.24	2202.44
401.44	2106.48
401.63	2129.89
401.82	2040.95
402.01	2141.59
402.21	2150.95
402.40	2251.60
402.59	2167.34
402.78	2244.57
402.97	2211.81
403.17	2190.74
403.36	2303.09
403.55	2265.64
403.74	2279.68
403.93	2408.41
404.13	2265.64
404.32	2403.73
404.51	2289.04
404.70	2392.03
404.89	2443.52
405.09	2523.10
405.28	2452.88
405.47	2406.07
405.66	2525.44
405.85	2406.07
406.05	2525.44
406.24	2527.78
406.43	2504.37
406.62	2579.27
406.81	2726.72
407.00	2642.46
407.20	2539.48
407.39	2621.40
407.58	2771.19
407.77	2635.44
407.96	2686.94
408.15	2654.17
408.34	2836.73
408.54	2733.75
408.73	2710.34
408.92	2885.88
409.11	2782.90
409.30	2829.71
409.49	2839.07
409.68	2977.16
409.87	2820.35
410.07	2951.42
410.26	2906.95
410.45	2897.58
410.64	3030.99
410.83	3040.36
411.02	3192.49
411.21	3192.49
411.40	3063.76
411.59	3211.22
411.78	3150.36
411.98	3073.12
412.17	3171.43
412.36	3166.74
412.55	3353.99
412.74	3482.72
412.93	3323.56
413.12	3351.65
413.31	3513.14
413.50	3405.48
413.69	3562.30
413.88	3630.17
414.07	3550.59
414.26	3583.36
414.45	3653.58
414.64	3676.98
414.83	3775.28
415.02	3749.54
415.22	3733.15
415.41	3913.38
415.60	3974.23
415.79	3894.65
415.98	3925.08
416.17	3913.38
416.36	3854.86
416.55	3995.29
416.74	4112.32
416.93	4074.87
417.12	4142.75
417.31	4086.58
417.50	4227.01
417.69	4311.27
417.88	4243.39
418.07	4264.46
418.26	4290.20
418.45	4353.40
418.64	4397.87
418.83	4470.42
419.02	4301.90
419.21	4482.13
419.39	4470.42
419.58	4528.94
419.77	4458.72
419.96	4493.83
420.15	4568.73
420.34	4535.96
420.53	4414.25
420.72	4746.61
420.91	4627.24
421.10	4730.22
421.29	4751.29
421.48	4596.81
421.67	4690.43
421.86	4624.90
422.05	4758.31
422.24	4805.12
422.43	4807.46
422.61	4901.08
422.80	4964.28
422.99	4945.55
423.18	4835.55
423.37	5146.84
423.56	4997.04
423.75	4786.40
423.94	4828.53
424.13	4608.51
424.32	4788.74
424.50	4959.60
424.69	4961.94
424.88	5125.77
425.07	4947.89
425.26	4973.64
425.45	4891.72
425.64	5013.43
425.83	5008.75
426.01	5008.75
426.20	5001.72
426.39	5011.09
426.58	5015.77
426.77	5060.24
426.96	5036.83
427.15	5085.98
427.33	5067.26
427.52	5214.71
427.71	5256.84
427.90	5284.93
428.09	5228.76
428.28	5378.55
428.46	5277.91
428.65	5210.03
428.84	5411.32
429.03	5582.18
429.22	5277.91
429.40	5514.30
429.59	5434.72
429.78	5341.10
429.97	5334.08
430.16	5380.89
430.34	5490.90
430.53	5528.35
430.72	5591.54
430.91	5652.39
431.10	5584.52
431.28	5738.99
431.47	5863.04
431.66	5916.87
431.85	5741.33
432.03	5984.75
432.22	6052.63
432.41	6008.16
432.60	6005.81
432.79	5881.77
432.97	5935.60
433.16	5933.26
433.35	5902.83
433.54	6113.48
433.72	6197.74
433.91	5994.11
434.10	6118.16
434.28	6146.25
434.47	6284.34
434.66	6188.38
434.85	6108.80
435.03	6403.71
435.22	6370.94
435.41	6548.82
435.59	6345.19
435.78	6408.39
435.97	6434.13
436.16	6502.01
436.34	6438.81
436.53	6406.05
436.72	6490.31
436.90	6504.35
437.09	6590.95
437.28	6516.05
437.46	6530.09
437.65	6630.74
437.84	6825.00
438.02	6731.38
438.21	6782.87
438.40	6658.82
438.58	6850.75
438.77	7115.23
438.96	6904.58
439.14	7094.16
439.33	7094.16
439.52	7089.48
439.70	7056.72
439.89	7321.20
440.08	7318.86
440.26	7124.59
440.45	7475.67
440.63	7442.90
440.82	7625.47
441.01	7478.01
441.19	7478.01
441.38	7588.02
441.57	7707.38
441.75	7602.06
441.94	7852.50
442.12	7948.46
442.31	7894.63
442.50	8081.87
442.68	7833.77
442.87	7906.33
443.05	8191.88
443.24	8262.09
443.43	8037.40
443.61	8018.68
443.80	8369.76
443.98	7960.16
444.17	7754.19
444.35	7971.86
444.54	8290.18
444.73	8458.70
444.91	8311.24
445.10	8156.77
445.28	8271.45
445.47	8379.12
445.65	8173.15
445.84	8388.48
446.02	8287.84
446.21	8315.92
446.39	8294.86
446.58	8486.78
446.77	8458.70
446.95	8095.91
447.14	8456.36
447.32	8446.99
447.51	8372.10
447.69	8549.98
447.88	8489.12
448.06	8535.93
448.25	8409.54
448.43	8468.06
448.62	8449.33
448.80	8697.43
448.99	8538.27
449.17	8788.71
449.36	8699.77
449.54	8915.10
449.73	8739.56
449.91	8835.52
450.10	9006.38
450.28	9039.15
450.46	9022.77
450.65	8973.61
450.83	8840.20
451.02	8961.91
451.20	9165.54
451.39	9135.11
451.57	9057.87
451.76	9041.49
451.94	9156.18
452.13	9453.42
452.31	9305.97
452.49	9233.41
452.68	9296.61
452.86	9186.60
453.05	9500.23
453.23	9399.59
453.42	9282.56
453.60	9303.63
453.78	9401.93
453.97	9500.23
454.15	9563.43
454.34	9521.30
454.52	9818.55
454.70	9551.73
454.89	9525.98
455.07	9727.27
455.26	9743.65
455.44	9816.21
455.62	9795.14
455.81	9916.85
455.99	9863.02
456.17	9902.81
456.36	9865.36
456.54	10033.88
456.73	10012.81
456.91	10389.64
457.09	10377.94
457.28	10480.92
457.46	10127.50
457.64	10558.16
457.83	10586.24
458.01	10480.92
458.19	10492.62
458.38	10422.41
458.56	10431.77
458.74	10509.01
458.93	10738.38
459.11	10710.29
459.29	10787.53
459.48	10796.89
459.66	10731.36
459.84	10843.70
460.03	10876.47
460.21	11005.20
460.39	10867.11
460.57	11056.69
460.76	11044.99
460.94	11103.50
461.12	10939.66
461.31	11068.39
461.49	11133.93
461.67	11262.66
461.85	11433.52
462.04	11356.28
462.22	11913.33
462.40	11389.05
462.59	11513.10
462.77	11503.73
462.95	11419.47
463.13	11592.67
463.32	11742.47
463.50	11524.80
463.68	11475.65
463.86	11749.49
464.05	11595.01
464.23	11674.59
464.41	11740.13
464.59	11873.54
464.78	12149.72
464.96	12058.44
465.14	11808.00
465.32	11861.84
465.50	12189.51
465.69	12037.38
465.87	12053.76
466.05	11974.18
466.23	12152.06
466.41	12126.32
466.60	12306.54
466.78	12011.63
466.96	12175.47
467.14	12196.53
467.32	12374.41
467.51	12531.23
467.69	12159.08
467.87	12379.09
468.05	12407.18
468.23	12446.97
468.41	12421.22
468.60	12493.78
468.78	12620.17
468.96	12688.04
469.14	12844.86
469.32	12989.97
469.50	12538.25
469.69	12952.52
469.87	12940.82
470.05	13095.30
470.23	13111.68
470.41	12870.61
470.59	13097.64
470.77	13118.70
470.95	13261.48
471.14	13401.91
471.32	13366.80
471.50	13558.72
471.68	13394.89
471.86	13451.06
472.04	13696.82
472.22	13940.23
472.40	13523.62
472.58	13647.66
472.77	13797.46
472.95	14038.53
473.13	14462.17
473.31	13977.68
473.49	14094.71
473.67	14040.87
473.85	14267.91
474.03	14604.94
474.21	14490.26
474.39	14757.08
474.57	14719.63
474.75	14864.74
474.93	14944.32
475.12	14956.02
475.30	14686.86
475.48	14967.73
475.66	15154.97
475.84	14944.32
476.02	15424.13
476.20	15344.55
476.38	15604.35
476.56	15744.78
476.74	15719.04
476.92	15908.62
477.10	15815.00
477.28	16051.39
477.46	16184.80
477.64	16304.17
477.82	16374.39
478.00	16592.06
478.18	16891.65
478.36	16802.71
478.54	17153.79
478.72	17252.09
478.90	17209.96
479.08	17345.71
479.26	17415.93
479.44	17535.29
479.62	17654.66
479.80	18019.78
479.98	18181.28
480.16	18499.59
480.34	18448.10
480.52	18752.37
480.70	18679.82
480.88	18600.24
481.06	18590.88
481.24	18602.58
481.41	18965.36
481.59	19365.59
481.77	19410.06
481.95	19590.28
482.13	19487.30
482.31	19688.59
482.49	20217.55
482.67	20130.95
482.85	20201.16
483.03	20545.22
483.21	20479.69
483.39	20978.22
483.57	20933.75
483.74	21102.27
483.92	21144.40
484.10	21252.06
484.28	21490.80
484.46	21923.80
484.64	22164.87
484.82	21965.93
485.00	22504.25
485.18	22677.45
485.35	22750.01
485.53	22754.69
485.71	22764.05
485.89	23297.69
486.07	23271.95
486.25	23405.36
486.43	23667.50
486.61	24102.84
486.78	24257.31
486.96	23946.02
487.14	24505.41
487.32	24758.19
487.50	24542.86
487.68	24821.38
487.85	25427.58
488.03	25413.54
488.21	25869.94
488.39	25397.15
488.57	25912.07
488.75	26141.44
488.92	26120.38
489.10	26555.72
489.28	26412.95
489.46	26728.92
489.64	26871.69
489.81	27323.41
489.99	27541.08
490.17	27625.34
490.35	27782.16
490.53	27857.06
490.70	28451.55
490.88	28151.96
491.06	28582.62
491.24	28561.56
491.41	28917.32
491.59	29120.95
491.77	29085.84
491.95	29692.04
492.13	29986.94
492.30	29991.62
492.48	29902.68
492.66	30178.87
492.84	30122.69
493.01	30576.76
493.19	30487.82
493.37	30941.88
493.54	30937.20
493.72	31576.17
493.90	31491.91
494.08	31501.27
494.25	31634.68
494.43	31779.79
494.61	32140.24
494.79	32077.04
494.96	32280.67
495.14	32613.02
495.32	32797.93
495.49	32811.97
495.67	33195.82
495.85	33479.02
496.02	33525.83
496.20	33809.04
496.38	33876.91
496.55	33579.67
496.73	34909.09
496.91	34216.29
497.09	34293.53
497.26	34712.49
497.44	34642.27
497.62	34923.13
497.79	35786.79
497.97	35400.60
498.14	35491.88
498.32	36091.06
498.50	35999.78
498.67	36594.28
498.85	36325.11
499.03	36662.15
499.20	36809.61
499.38	36437.46
499.56	36924.29
499.73	37088.13
499.91	37401.76
500.08	37593.68
500.26	37216.86
500.44	37387.72
500.61	37617.09
500.79	37399.42
500.97	37794.97
501.14	38595.43
501.32	38490.11
501.49	38307.55
501.67	38712.46
501.84	38817.78
502.02	38431.60
502.20	38904.38
502.37	39082.27
502.55	39159.50
502.72	39229.72
502.90	39234.40
503.07	39189.93
503.25	39452.07
503.43	39236.74
503.60	39831.24
503.78	40208.06
503.95	39821.87
504.13	40137.85
504.30	40289.98
504.48	40493.61
504.65	40692.55
504.83	40954.69
505.01	41532.81
505.18	40877.46
505.36	41336.20
505.53	41308.11
505.71	41223.86
505.88	41720.05
506.06	41177.04
506.23	41785.58
506.41	41701.32
506.58	41984.53
506.76	42188.16
506.93	42408.17
507.11	42202.20
507.28	42387.10
507.46	42330.93
507.63	42382.42
507.81	42887.98
507.98	42717.12
508.16	42740.52
508.33	43098.62
508.50	43005.00
508.68	43447.36
508.85	43849.94
509.03	43512.90
509.20	43580.78
509.38	44156.55
509.55	44023.14
509.73	44245.49
509.90	44177.61
510.08	44587.21
510.25	44580.18
510.42	44619.97
510.60	44959.35
510.77	44945.31
510.95	45165.32
511.12	45352.56
511.30	44839.98
511.47	45338.52
511.64	45118.51
511.82	45846.41
511.99	45399.37
512.17	45705.98
512.34	45720.02
512.51	46347.29
512.69	46403.46
512.86	46103.87
513.04	46293.46
513.21	46323.88
513.38	46705.39
513.56	46323.88
513.73	46368.35
513.90	46796.67
514.08	46349.63
514.25	47440.32
514.43	47426.28
514.60	47161.79
514.77	47091.58
514.95	47452.02
515.12	47611.18
515.29	47433.30
515.47	47852.25
515.64	47496.49
515.81	47775.02
515.99	48069.92
516.16	48528.67
516.33	47608.84
516.51	48552.07
516.68	48151.84
516.85	48540.37
517.03	48561.44
517.20	48687.82
517.37	48685.48
517.54	48442.07
517.72	48907.83
517.89	48774.42
518.06	48783.79
518.24	49441.48
518.41	49139.55
518.58	49198.06
518.75	49228.49
518.93	49146.57
519.10	49099.76
519.27	49766.81
519.45	49743.41
519.62	49752.77
519.79	49965.76
519.96	49792.56
520.14	50202.15
520.31	49675.53
520.48	49830.01
520.65	50473.65
520.83	50398.76
521.00	50480.67
521.17	50066.40
521.34	50562.59
521.52	50586.00
521.69	50094.49
521.86	50450.25
522.03	50843.46
522.20	51309.22
522.38	51182.84
522.55	51070.49
522.72	51152.41
522.89	51136.02
523.07	51231.99
523.24	51395.82
523.41	51608.81
523.58	51351.35
523.75	51562.00
523.92	51482.42
524.10	51995.00
524.27	51842.87
524.44	51985.64
524.61	51924.78
524.78	52095.64
524.96	52350.76
525.13	51962.23
525.30	52135.43
525.47	52336.72
525.64	52109.69
525.81	52243.10
525.98	52493.54
526.16	52479.49
526.33	52640.99
526.50	52598.86
526.67	52500.56
526.84	52671.42
527.01	52498.22
527.18	52514.60
527.36	52875.04
527.53	53181.65
527.70	53181.65
527.87	53130.16
528.04	53020.16
528.21	53158.25
528.38	53024.84
528.55	53303.36
528.72	53134.84
528.89	53324.43
529.07	53258.89
529.24	53333.79
529.41	53762.11
529.58	53392.30
529.75	53572.52
529.92	53785.51
530.09	53551.46
530.26	53701.25
530.43	53748.06
530.60	53668.48
530.77	53764.45
530.94	54412.77
531.11	53956.37
531.28	54007.86
531.46	54148.29
531.63	54326.17
531.80	53996.16
531.97	54064.03
532.14	54417.46
532.31	54438.52
532.48	54377.67
532.65	54789.60
532.82	54033.61
532.99	54534.48
533.16	54365.96
533.33	54419.80
533.50	54801.30
533.67	54667.89
533.84	54375.33
534.01	54679.60
534.18	54728.75
534.35	55054.08
534.52	54761.51
534.69	55295.16
534.86	55025.99
535.03	54600.02
535.20	55428.57
535.37	55274.09
535.54	55035.36
535.71	55002.59
535.88	55248.35
536.05	55552.62
536.22	55430.91
536.38	55454.31
536.55	55435.59
536.72	55543.25
536.89	55463.67
537.06	55374.73
537.23	55639.22
537.40	55512.83
537.57	55533.89
537.74	55721.13
537.91	55854.54
538.08	55882.63
538.25	55482.40
538.42	56011.36
538.59	55915.40
538.75	55821.78
538.92	55817.10
539.09	56203.28
539.26	56128.39
539.43	56025.40
539.60	56170.52
539.77	56067.53
539.94	56479.47
540.11	56142.43
540.28	56320.31
540.44	56479.47
540.61	56376.48
540.78	56229.03
540.95	56212.65
541.12	55943.48
541.29	56214.99
541.46	56413.93
541.62	56680.75
541.79	56727.56
541.96	56254.78
542.13	56554.36
542.30	56467.76
542.47	56584.79
542.63	56800.12
542.80	56488.83
542.97	57015.45
543.14	56980.34
543.31	56999.07
543.48	57308.02
543.64	57368.87
543.81	57343.12
543.98	57198.01
544.15	57265.89
544.32	57340.78
544.48	57418.02
544.65	57254.18
544.82	57193.33
544.99	57268.23
545.16	57483.56
545.32	57228.44
545.49	57560.79
545.66	57640.37
545.83	57708.25
546.00	57811.23
546.16	57612.29
546.33	57502.28
546.50	57422.70
546.67	57635.69
546.83	57347.81
547.00	57616.97
547.17	57443.77
547.34	57649.74
547.50	57834.64
547.67	57757.40
547.84	57605.26
548.00	58024.22
548.17	58150.61
548.34	57874.43
548.51	58138.91
548.67	58162.31
548.84	58211.46
549.01	57982.09
549.18	57935.28
549.34	58056.99
549.51	57970.39
549.68	58213.80
549.84	58183.38
550.01	58321.47
550.18	58080.39
550.34	58368.28
550.51	58461.90
550.68	58375.30
550.84	57904.85
551.01	58508.71
551.18	58190.40
551.34	58300.40
551.51	58515.73
551.68	58597.65
551.84	58513.39
552.01	58255.93
552.18	58499.35
552.34	58244.23
552.51	58812.98
552.68	58473.60
552.84	58550.84
553.01	58670.21
553.18	58740.42
553.34	58920.65
553.51	58787.24
553.67	58663.19
553.84	58948.73
554.01	58618.72
554.17	58810.64
554.34	58979.16
554.51	58883.20
554.67	58946.39
554.84	58845.75
555.00	58920.65
555.17	58829.37
555.33	58887.88
555.50	58763.83
555.67	58812.98
555.83	58894.90
556.00	59140.66
556.16	59290.45
556.33	59231.94
556.50	59018.95
556.66	59061.08
556.83	58937.03
556.99	59257.68
557.16	59325.56
557.32	59480.03
557.49	59564.29
557.65	59222.58
557.82	59189.81
557.98	59274.07
558.15	59281.09
558.32	59444.93
558.48	59288.11
558.65	59428.54
558.81	59250.66
558.98	59360.67
559.14	59456.63
559.31	59400.46
559.47	59611.10
559.64	59554.93
559.80	59723.45
559.97	59473.01
560.13	59449.61
560.30	59613.44
560.46	59498.76
560.63	59606.42
560.79	59571.32
560.96	59835.80
561.12	59627.49
561.29	59753.88
561.45	59793.67
561.61	59803.03
561.78	59807.71
561.94	59725.79
562.11	59716.43
562.27	59889.63
562.44	59817.07
562.60	59859.20
562.77	60072.19
562.93	59760.90
563.10	60055.81
563.26	59880.27
563.42	60149.43
563.59	59793.67
563.75	59859.20
563.92	60006.65
564.08	59812.39
564.24	60034.74
564.41	60011.34
564.57	60116.66
564.74	59730.47
564.90	60149.43
565.07	59952.82
565.23	59927.08
565.39	60023.04
565.56	60119.00
565.72	59847.50
565.88	60130.70
566.05	60069.85
566.21	60116.66
566.38	60086.23
566.54	60009.00
566.70	60367.10
566.87	60353.05
567.03	60013.68
567.19	60301.56
567.36	60306.24
567.52	60151.77
567.68	60289.86
567.85	60331.99
568.01	60226.66
568.17	60163.47
568.34	60388.16
568.50	59990.27
568.66	60156.45
568.83	60364.76
568.99	60252.41
569.15	60196.24
569.32	60498.17
569.48	60282.84
569.64	60339.01
569.81	60390.50
569.97	60142.41
570.13	60348.37
570.30	60257.09
570.46	60348.37
570.62	60364.76
570.78	60439.65
570.95	60280.50
571.11	60463.06
571.27	60303.90
571.43	60519.23
571.60	60486.46
571.76	60467.74
571.92	60549.66
572.09	60741.58
572.25	60416.25
572.41	60453.70
572.57	60514.55
572.74	60753.29
572.90	60434.97
573.06	60528.59
573.22	60622.22
573.38	60699.45
573.55	60540.30
573.71	60800.10
573.87	60659.66
574.03	60449.02
574.20	60589.45
574.36	60643.28
574.52	60657.32
574.68	60676.05
574.84	60577.75
575.01	60460.72
575.17	60439.65
575.33	60676.05
575.49	60610.51
575.65	60772.01
575.82	60743.92
575.98	60598.81
576.14	60860.95
576.30	60654.98
576.46	60729.88
576.62	60612.85
576.79	60617.53
576.95	60516.89
577.11	60711.16
577.27	60587.11
577.43	60692.43
577.59	60757.97
577.75	60748.60
577.92	60451.36
578.08	60582.43
578.24	60636.26
578.40	60832.86
578.56	60863.29
578.72	60687.75
578.88	60968.61
579.04	60996.70
579.21	60816.48
579.37	60893.72
579.53	61036.49
579.69	60669.03
579.85	60722.86
580.01	60753.29
580.17	60718.18
580.33	60844.57
580.49	60872.65
580.65	60734.56
580.82	60968.61
580.98	60715.84
581.14	60566.04
581.30	60905.42
581.46	60816.48
581.62	60867.97
581.78	60596.47
581.94	60846.91
582.10	60786.05
582.26	60842.23
582.42	60786.05
582.58	60889.04
582.74	60664.35
582.90	60769.67
583.06	60676.05
583.22	60636.26
583.38	60898.40
583.54	60832.86
583.70	60795.42
583.86	60823.50
584.02	60680.73
584.18	60980.32
584.34	60776.69
584.50	60879.67
584.66	60678.39
584.82	60755.63
584.98	61090.32
585.14	60966.27
585.30	60767.33
585.46	60966.27
585.62	60800.10
585.78	60917.12
585.94	60743.92
586.10	61062.24
586.26	60837.54
586.42	61041.17
586.58	61052.87
586.74	61052.87
586.90	60931.17
587.06	60818.82
587.22	61027.13
587.38	60963.93
587.54	60985.00
587.70	61034.15
587.86	60821.16
588.02	60921.80
588.18	61144.16
588.34	60949.89
588.49	60992.02
