SpectraSuite Data File
++++++++++++++++++++++++++++++++++++
Date: Fri Oct 25 11:25:27 EDT 2013
User: price-jones
Dark Spectrum Present: No
Reference Spectrum Present: No
Number of Sampled Component Spectra: 1
Spectrometers: USB2+H05261
Integration Time (usec): 100000 (USB2+H05261)
Spectra Averaged: 1 (USB2+H05261)
Boxcar Smoothing: 0 (USB2+H05261)
Correct for Electrical Dark: No (USB2+H05261)
Strobe/Lamp Enabled: No (USB2+H05261)
Correct for Detector Non-linearity: No (USB2+H05261)
Correct for Stray Light: No (USB2+H05261)
Number of Pixels in Processed Spectrum: 2048
>>>>>Begin Processed Spectral Data<<<<<
365.73	290.23
365.92	290.23
366.12	290.23
366.32	102.98
366.52	135.75
366.72	168.52
366.91	119.37
367.11	163.84
367.31	88.94
367.51	131.07
367.70	117.03
367.90	173.20
368.10	224.69
368.30	138.09
368.49	110.01
368.69	140.43
368.89	205.97
369.09	154.48
369.28	124.05
369.48	201.29
369.68	175.54
369.87	168.52
370.07	215.33
370.27	203.63
370.47	266.82
370.66	610.88
370.86	638.97
371.06	667.05
371.25	711.52
371.45	617.90
371.65	664.71
371.84	678.76
372.04	699.82
372.24	763.01
372.44	660.03
372.63	753.65
372.83	774.72
373.03	772.38
373.22	671.73
373.42	727.91
373.62	779.40
373.81	751.31
374.01	837.91
374.21	898.77
374.40	767.70
374.60	887.06
374.79	777.06
374.99	798.12
375.19	873.02
375.38	896.43
375.58	805.14
375.78	788.76
375.97	924.51
376.17	870.68
376.37	849.61
376.56	791.10
376.76	933.87
376.95	791.10
377.15	875.36
377.35	950.26
377.54	971.32
377.74	823.87
377.93	854.30
378.13	877.70
378.33	915.15
378.52	833.23
378.72	891.74
378.91	957.28
379.11	915.15
379.31	917.49
379.50	877.70
379.70	1006.43
379.89	901.11
380.09	983.02
380.28	912.81
380.48	966.64
380.68	952.60
380.87	992.39
381.07	926.85
381.26	1067.28
381.46	1067.28
381.65	968.98
381.85	1046.22
382.04	1076.65
382.24	1043.88
382.43	1081.33
382.63	1041.54
382.83	1071.97
383.02	1116.44
383.22	1123.46
383.41	1158.57
383.61	1060.26
383.80	1203.04
384.00	1111.75
384.19	1160.91
384.39	1193.67
384.58	1186.65
384.78	1163.25
384.97	1240.48
385.17	1200.69
385.36	1121.12
385.56	1181.97
385.75	1128.14
385.95	1224.10
386.14	1200.69
386.34	1135.16
386.53	1186.65
386.72	1130.48
386.92	1240.48
387.11	1270.91
387.31	1226.44
387.50	1235.80
387.70	1212.40
387.89	1186.65
388.09	1231.12
388.28	1299.00
388.48	1301.34
388.67	1317.72
388.86	1324.74
389.06	1291.98
389.25	1266.23
389.45	1348.15
389.64	1322.40
389.84	1341.13
390.03	1409.00
390.22	1406.66
390.42	1350.49
390.61	1366.87
390.81	1341.13
391.00	1432.41
391.19	1448.79
391.39	1455.81
391.58	1423.05
391.78	1493.26
391.97	1514.33
392.16	1444.11
392.36	1530.71
392.55	1439.43
392.75	1486.24
392.94	1582.20
393.13	1474.54
393.33	1465.18
393.52	1497.94
393.71	1666.46
393.91	1460.49
394.10	1561.14
394.29	1617.31
394.49	1650.08
394.68	1558.80
394.88	1621.99
395.07	1629.01
395.26	1659.44
395.46	1687.53
395.65	1701.57
395.84	1703.91
396.04	1727.32
396.23	1703.91
396.42	1783.49
396.62	1706.25
396.81	1760.08
397.00	1811.57
397.19	1729.66
397.39	1778.81
397.58	1877.11
397.77	1816.26
397.97	1872.43
398.16	1863.07
398.35	1959.03
398.55	1914.56
398.74	1816.26
398.93	1895.83
399.12	1966.05
399.32	1874.77
399.51	1977.75
399.70	1987.11
399.90	1947.33
400.09	2052.65
400.28	2062.01
400.47	1987.11
400.67	2083.08
400.86	2099.46
401.05	2087.76
401.24	2047.97
401.44	2118.18
401.63	2148.61
401.82	2176.70
402.01	2172.02
402.21	2115.84
402.40	2155.63
402.59	2186.06
402.78	2244.57
402.97	2282.02
403.17	2242.23
403.36	2223.51
403.55	2230.53
403.74	2401.39
403.93	2225.85
404.13	2333.51
404.32	2394.37
404.51	2415.43
404.70	2427.14
404.89	2429.48
405.09	2520.76
405.28	2434.16
405.47	2438.84
405.66	2546.50
405.85	2445.86
406.05	2581.61
406.24	2506.71
406.43	2509.05
406.62	2555.86
406.81	2633.10
407.00	2497.35
407.20	2495.01
407.39	2619.06
407.58	2738.43
407.77	2675.23
407.96	2616.72
408.15	2829.71
408.34	2689.28
408.54	2799.28
408.73	2789.92
408.92	2813.32
409.11	2827.37
409.30	2874.18
409.49	2970.14
409.68	2897.58
409.87	2920.99
410.07	3009.93
410.26	2965.46
410.45	2953.76
410.64	2967.80
410.83	3068.44
411.02	3000.57
411.21	3073.12
411.40	3108.23
411.59	3141.00
411.78	3300.16
411.98	3281.43
412.17	3192.49
412.36	3297.81
412.55	3204.19
412.74	3396.12
412.93	3398.46
413.12	3372.71
413.31	3461.65
413.50	3405.48
413.69	3424.20
413.88	3616.13
414.07	3522.51
414.26	3588.04
414.45	3566.98
414.64	3695.71
414.83	3709.75
415.02	3742.52
415.22	3754.22
415.41	3873.59
415.60	3850.18
415.79	3978.91
415.98	3838.48
416.17	3857.20
416.36	3946.14
416.55	3941.46
416.74	4198.92
416.93	4051.47
417.12	4091.26
417.31	4215.30
417.50	4114.66
417.69	4273.82
417.88	4304.25
418.07	4194.24
418.26	4283.18
418.45	4121.68
418.64	4528.94
418.83	4376.80
419.02	4269.14
419.21	4390.84
419.39	4365.10
419.58	4468.08
419.77	4360.42
419.96	4561.70
420.15	4498.51
420.34	4496.17
420.53	4514.89
420.72	4578.09
420.91	4704.48
421.10	4793.42
421.29	4830.87
421.48	4627.24
421.67	4765.33
421.86	4561.70
422.05	4786.40
422.24	4732.56
422.43	4737.24
422.61	4961.94
422.80	4961.94
422.99	4863.63
423.18	4891.72
423.37	4978.32
423.56	4933.85
423.75	4793.42
423.94	4812.14
424.13	4568.73
424.32	4720.86
424.50	4917.47
424.69	4898.74
424.88	5078.96
425.07	4894.06
425.26	4903.42
425.45	4961.94
425.64	4940.87
425.83	5011.09
426.01	5029.81
426.20	4936.19
426.39	5011.09
426.58	4992.36
426.77	4936.19
426.96	5125.77
427.15	5149.18
427.33	5261.52
427.52	5163.22
427.71	5322.38
427.90	5261.52
428.09	5193.65
428.28	5334.08
428.46	5341.10
428.65	5336.42
428.84	5465.15
429.03	5509.62
429.22	5210.03
429.40	5476.85
429.59	5441.75
429.78	5270.89
429.97	5238.12
430.16	5563.45
430.34	5526.00
430.53	5526.00
430.72	5561.11
430.91	5603.24
431.10	5404.30
431.28	5631.33
431.47	5675.80
431.66	5722.61
431.85	5774.10
432.03	5933.26
432.22	5930.92
432.41	5919.21
432.60	5811.55
432.79	5849.00
432.97	5947.30
433.16	5963.68
433.35	5937.94
433.54	6047.94
433.72	6104.12
433.91	5977.73
434.10	5888.79
434.28	6085.39
434.47	6214.12
434.66	6375.62
434.85	6204.76
435.03	6289.02
435.22	6396.68
435.41	6424.77
435.59	6338.17
435.78	6251.57
435.97	6312.42
436.16	6277.32
436.34	6272.64
436.53	6441.15
436.72	6691.59
436.90	6490.31
437.09	6457.54
437.28	6361.58
437.46	6574.56
437.65	6590.95
437.84	6729.04
438.02	6801.60
438.21	6724.36
438.40	6626.06
438.58	6974.80
438.77	6993.52
438.96	6960.75
439.14	7012.24
439.33	7272.04
439.52	7122.25
439.70	7265.02
439.89	7414.82
440.08	7363.33
440.26	7300.13
440.45	7246.30
440.63	7492.05
440.82	7478.01
441.01	7403.11
441.19	7681.64
441.38	7691.00
441.57	7583.34
441.75	7850.16
441.94	7946.12
442.12	7824.41
442.31	7875.90
442.50	7880.58
442.68	7798.66
442.87	7941.44
443.05	7857.18
443.24	8086.55
443.43	8177.83
443.61	7906.33
443.80	8393.16
443.98	8074.85
444.17	7805.69
444.35	8205.92
444.54	8320.60
444.73	8224.64
444.91	8332.31
445.10	8264.43
445.28	8402.52
445.47	8100.59
445.65	8287.84
445.84	8496.14
446.02	8514.87
446.21	8308.90
446.39	8306.56
446.58	8318.26
446.77	8479.76
446.95	8435.29
447.14	8276.13
447.32	8463.38
447.51	8491.46
447.69	8292.52
447.88	8498.49
448.06	8552.32
448.25	8439.97
448.43	8510.19
448.62	8571.04
448.80	8355.71
448.99	8454.02
449.17	8664.66
449.36	8772.33
449.54	8655.30
449.73	8641.26
449.91	8821.48
450.10	8807.44
450.28	9029.79
450.46	8905.74
450.65	9027.45
450.83	8879.99
451.02	8943.19
451.20	9355.12
451.39	9053.19
451.57	9151.49
451.76	8901.06
451.94	9041.49
452.13	9107.02
452.31	9039.15
452.49	8819.14
452.68	9345.76
452.86	9252.14
453.05	9432.36
453.23	9544.70
453.42	9256.82
453.60	9245.12
453.78	9404.27
453.97	9390.23
454.15	9572.79
454.34	9369.16
454.52	9647.69
454.70	9488.53
454.89	9563.43
455.07	9694.50
455.26	9706.20
455.44	9860.68
455.62	9909.83
455.81	9881.74
455.99	9919.19
456.17	9839.61
456.36	9923.87
456.54	9980.04
456.73	10207.08
456.91	10317.08
457.09	10289.00
457.28	10644.76
457.46	10312.40
457.64	10457.51
457.83	10127.50
458.01	10436.45
458.19	10590.92
458.38	10441.13
458.56	10511.35
458.74	10560.50
458.93	10516.03
459.11	10684.55
459.29	10445.81
459.48	10801.57
459.66	10745.40
459.84	10710.29
460.03	10888.17
460.21	10920.94
460.39	10773.49
460.57	10794.55
460.76	10906.90
460.94	11147.97
461.12	11007.54
461.31	11344.58
461.49	10998.18
461.67	11084.78
461.85	11426.50
462.04	11232.23
462.22	11803.32
462.40	11496.71
462.59	11204.14
462.77	11311.81
462.95	11431.18
463.13	11620.76
463.32	11419.47
463.50	11679.27
463.68	11941.41
463.86	11829.07
464.05	11660.55
464.23	11587.99
464.41	11791.62
464.59	11707.36
464.78	12112.27
464.96	11721.40
465.14	11932.05
465.32	11847.79
465.50	11976.52
465.69	12273.77
465.87	11990.56
466.05	12212.92
466.23	12011.63
466.41	12372.07
466.60	12449.31
466.78	12035.03
466.96	12201.21
467.14	11941.41
467.32	12304.20
467.51	12313.56
467.69	12081.85
467.87	12133.34
468.05	12697.41
468.23	12339.30
468.41	12217.60
468.60	12568.68
468.78	12732.51
468.96	12531.23
469.14	12704.43
469.32	12784.01
469.50	12418.88
469.69	12643.57
469.87	13123.38
470.05	13074.23
470.23	12898.69
470.41	13146.79
470.59	13004.02
470.77	13039.12
470.95	13422.97
471.14	13437.02
471.32	12922.10
471.50	13401.91
471.68	13476.80
471.86	13736.60
472.04	13547.02
472.22	14251.52
472.40	13668.73
472.58	13696.82
472.77	13596.17
472.95	13980.02
473.13	14532.39
473.31	13898.10
473.49	13788.10
473.67	13874.70
473.85	14115.77
474.03	14555.79
474.21	14209.39
474.39	14995.81
474.57	14272.59
474.75	14696.22
474.93	14714.95
475.12	14902.19
475.30	15272.00
475.48	14588.56
475.66	14988.79
475.84	14995.81
476.02	15482.64
476.20	15183.06
476.38	15494.35
476.56	15915.64
476.74	15941.39
476.92	15442.85
477.10	15719.04
477.28	15894.58
477.46	15997.56
477.64	16269.06
477.82	16442.26
478.00	16973.56
478.18	16727.81
478.36	17029.74
478.54	16898.67
478.72	16964.20
478.90	17317.62
479.08	17343.37
479.26	17582.10
479.44	17605.51
479.62	17696.79
479.80	17884.03
479.98	18281.92
480.16	18237.45
480.34	18054.89
480.52	18492.57
480.70	18300.65
480.88	18174.26
481.06	18384.91
481.24	18471.51
481.41	19044.94
481.59	19002.81
481.77	19309.42
481.95	19328.14
482.13	19599.65
482.31	19583.26
482.49	20060.73
482.67	20013.92
482.85	20247.97
483.03	20332.23
483.21	20903.32
483.39	20989.92
483.57	20503.09
483.74	20868.22
483.92	21214.62
484.10	21177.17
484.28	21422.92
484.46	21797.41
484.64	22169.55
484.82	21741.24
485.00	22239.77
485.18	22675.11
485.35	22843.63
485.53	22693.83
485.71	22977.04
485.89	23293.01
486.07	22829.59
486.25	23309.40
486.43	23466.21
486.61	23337.48
486.78	23709.63
486.96	24088.79
487.14	24795.64
487.32	24496.05
487.50	25083.52
487.68	24547.54
487.85	24664.57
488.03	25198.21
488.21	25584.40
488.39	25678.02
488.57	25846.54
488.75	26036.12
488.92	26354.43
489.10	26389.54
489.28	26295.92
489.46	26789.77
489.64	26668.06
489.81	27688.54
489.99	27257.88
490.17	27470.87
490.35	27742.37
490.53	28027.92
490.70	27974.08
490.88	28135.58
491.06	28301.76
491.24	28631.77
491.41	28952.43
491.59	29380.74
491.77	29205.20
491.95	29333.93
492.13	29652.25
492.30	29902.68
492.48	29788.00
492.66	30036.09
492.84	29944.81
493.01	30525.27
493.19	30511.22
493.37	30593.14
493.54	31257.85
493.72	31527.02
493.90	31531.70
494.08	31538.72
494.25	31550.42
494.43	31852.35
494.61	32023.21
494.79	32203.43
494.96	32247.90
495.14	32498.34
495.32	33106.88
495.49	32673.88
495.67	32975.81
495.85	33542.22
496.02	33455.62
496.20	33916.70
496.38	33668.61
496.55	33717.76
496.73	34387.15
496.91	34316.93
497.09	34562.69
497.26	34508.86
497.44	34913.77
497.62	35143.14
497.79	35363.15
497.97	34974.63
498.14	35758.70
498.32	36158.94
498.50	35709.55
498.67	36109.78
498.85	35613.59
499.03	36638.75
499.20	36212.77
499.38	36540.44
499.56	36659.81
499.73	36734.71
499.91	37038.98
500.08	37251.97
500.26	37258.99
500.44	37258.99
500.61	37563.26
500.79	37577.30
500.97	37593.68
501.14	38265.42
501.32	38284.14
501.49	38553.30
501.67	38579.05
501.84	38422.23
502.02	38225.63
502.20	38630.54
502.37	38946.51
502.55	38632.88
502.72	38976.94
502.90	39515.26
503.07	39283.55
503.25	39311.64
503.43	39440.37
503.60	39807.83
503.78	40170.61
503.95	40006.78
504.13	40294.66
504.30	40224.45
504.48	40013.80
504.65	40315.73
504.83	40971.08
505.01	40891.50
505.18	40889.16
505.36	41132.57
505.53	40950.01
505.71	41146.62
505.88	41235.56
506.06	40999.16
506.23	41631.11
506.41	41390.03
506.58	41780.90
506.76	41617.07
506.93	41895.59
507.11	41808.99
507.28	42415.19
507.46	42810.74
507.63	42969.90
507.81	42667.97
507.98	42469.02
508.16	42759.25
508.33	43365.45
508.50	43208.63
508.68	43328.00
508.85	43423.96
509.03	43466.09
509.20	43239.06
509.38	44032.50
509.55	43959.94
509.73	44067.61
509.90	44229.10
510.08	44456.14
510.25	44397.62
510.42	44311.02
510.60	44629.34
510.77	44481.88
510.95	45116.17
511.12	44797.85
511.30	44762.75
511.47	44886.79
511.64	45284.68
511.82	45544.48
511.99	45031.91
512.17	45804.28
512.34	45347.88
512.51	46209.20
512.69	46000.89
512.86	45839.39
513.04	46396.44
513.21	46195.15
513.38	46581.34
513.56	46721.77
513.73	46410.48
513.90	46962.85
514.08	46836.46
514.25	46333.24
514.43	46997.96
514.60	47442.66
514.77	47082.22
514.95	47098.60
515.12	47442.66
515.29	47136.05
515.47	47615.86
515.64	47632.24
515.81	47716.50
515.99	47585.43
516.16	47936.51
516.33	48348.45
516.51	48477.18
516.68	47941.19
516.85	48339.08
517.03	48619.95
517.20	48488.88
517.37	48348.45
517.54	48720.59
517.72	48858.68
517.89	49017.84
518.06	49186.36
518.24	48755.70
518.41	48811.87
518.58	49326.79
518.75	49331.47
518.93	49237.85
519.10	49144.23
519.27	49043.59
519.45	49530.42
519.62	49450.84
519.79	49954.05
519.96	49485.95
520.14	49633.40
520.31	49708.30
520.48	50057.04
520.65	50181.09
520.83	50361.31
521.00	50337.90
521.17	50099.17
521.34	50206.83
521.52	50415.14
521.69	50546.21
521.86	50941.76
522.03	50937.08
522.20	51234.33
522.38	50862.18
522.55	50997.93
522.72	50897.29
522.89	51082.19
523.07	51430.93
523.24	51231.99
523.41	51580.73
523.58	51042.40
523.75	51782.01
523.92	51430.93
524.10	51765.63
524.27	51538.60
524.44	51767.97
524.61	51917.76
524.78	52114.37
524.96	52011.38
525.13	52184.58
525.30	52172.88
525.47	52102.67
525.64	52137.77
525.81	52275.87
525.98	52566.09
526.16	52411.62
526.33	52523.96
526.50	52769.72
526.67	52559.07
526.84	52746.31
527.01	52774.40
527.18	52640.99
527.36	52542.69
527.53	52683.12
527.70	53069.31
527.87	53017.82
528.04	53038.88
528.21	53212.08
528.38	53315.06
528.55	53378.26
528.72	53118.46
528.89	53144.20
529.07	53209.74
529.24	53205.06
529.41	53495.28
529.58	53460.18
529.75	53506.99
529.92	53366.55
530.09	53570.18
530.26	53619.33
530.43	53778.49
530.60	53645.08
530.77	53748.06
530.94	53972.75
531.11	53881.47
531.28	53621.67
531.46	54188.08
531.63	54101.48
531.80	53916.58
531.97	54209.15
532.14	54160.00
532.31	54162.34
532.48	54333.20
532.65	54574.27
532.82	54260.64
532.99	54639.81
533.16	54628.10
533.33	54597.68
533.50	54433.84
533.67	54443.20
533.84	54581.29
534.01	54740.45
534.18	54995.57
534.35	55147.70
534.52	54789.60
534.69	55009.61
534.86	55051.74
535.03	54880.88
535.20	54838.75
535.37	54960.46
535.54	55143.02
535.71	55025.99
535.88	55070.46
536.05	55077.49
536.22	55356.01
536.38	55461.33
536.55	55154.72
536.72	55458.99
536.89	55077.49
537.06	55084.51
537.23	55451.97
537.40	55253.03
537.57	55662.62
537.74	55402.82
537.91	55810.07
538.08	55702.41
538.25	55264.73
538.42	55810.07
538.59	55887.31
538.75	55538.57
538.92	55901.36
539.09	55849.86
539.26	55999.66
539.43	55746.88
539.60	56161.15
539.77	56041.79
539.94	56404.57
540.11	56191.58
540.28	56158.81
540.44	56193.92
540.61	56062.85
540.78	56079.24
540.95	56287.54
541.12	56100.30
541.29	56257.12
541.46	56399.89
541.62	56275.84
541.79	56355.42
541.96	56294.56
542.13	56505.21
542.30	56432.66
542.47	56753.31
542.63	56727.56
542.80	56638.62
542.97	56790.76
543.14	57008.43
543.31	57022.47
543.48	57092.69
543.64	57268.23
543.81	57029.49
543.98	57244.82
544.15	56940.55
544.32	57286.95
544.48	57308.02
544.65	57153.54
544.82	57207.37
544.99	57083.33
545.16	57382.91
545.32	57303.34
545.49	57434.41
545.66	57659.10
545.83	57453.13
546.00	57743.36
546.16	57436.75
546.33	57504.62
546.50	57293.97
546.67	57462.49
546.83	57434.41
547.00	57708.25
547.17	57780.81
547.34	57577.18
547.50	57708.25
547.67	58052.31
547.84	57729.31
548.00	58080.39
548.17	57904.85
548.34	57836.98
548.51	57883.79
548.67	57879.11
548.84	57900.17
549.01	57904.85
549.18	58110.82
549.34	57921.24
549.51	58047.63
549.68	58129.54
549.84	58237.21
550.01	58461.90
550.18	58064.01
550.34	58422.11
550.51	58185.72
550.68	58019.54
550.84	57932.94
551.01	58532.12
551.18	58213.80
551.34	58541.48
551.51	58281.68
551.68	58328.49
551.84	58333.17
552.01	58314.45
552.18	58319.13
552.34	58239.55
552.51	58518.07
552.68	58096.78
552.84	58440.84
553.01	58585.95
553.18	58539.14
553.34	58731.06
553.51	58431.47
553.67	58651.48
553.84	58925.33
554.01	58885.54
554.17	58815.32
554.34	58927.67
554.51	58777.87
554.67	58817.66
554.84	58798.94
555.00	58749.79
555.17	58864.47
555.33	58635.10
555.50	58927.67
555.67	58796.60
555.83	58944.05
556.00	59089.16
556.16	59215.55
556.33	59192.15
556.50	59009.59
556.66	59206.19
556.83	58885.54
556.99	59194.49
557.16	59224.92
557.32	59337.26
557.49	59428.54
557.65	58976.82
557.82	59250.66
557.98	59117.25
558.15	59292.79
558.32	59363.01
558.48	59185.13
558.65	59377.05
558.81	59484.72
558.98	59250.66
559.14	59351.30
559.31	59468.33
559.47	59688.34
559.64	59662.60
559.80	59337.26
559.97	59524.50
560.13	59433.22
560.30	59498.76
560.46	59573.66
560.63	59664.94
560.79	59487.06
560.96	59807.71
561.12	59498.76
561.29	59746.86
561.45	59554.93
561.61	59643.87
561.78	59632.17
561.94	59444.93
562.11	59625.15
562.27	59688.34
562.44	59749.20
562.60	59852.18
562.77	59859.20
562.93	59552.59
563.10	60126.02
563.26	59819.41
563.42	60060.49
563.59	59777.28
563.75	59887.29
563.92	59828.77
564.08	59880.27
564.24	59882.61
564.41	59877.93
564.57	60039.42
564.74	60006.65
564.90	59877.93
565.07	60055.81
565.23	60144.75
565.39	59966.87
565.56	60006.65
565.72	60009.00
565.88	60027.72
566.05	59980.91
566.21	59894.31
566.38	60032.40
566.54	59992.61
566.70	60219.64
566.87	60275.82
567.03	59957.50
567.19	60207.94
567.36	60079.21
567.52	60016.02
567.68	60346.03
567.85	60083.89
568.01	60287.52
568.17	60079.21
568.34	60161.13
568.50	60275.82
568.66	60217.30
568.83	60210.28
568.99	60013.68
569.15	60320.29
569.32	60168.15
569.48	60278.16
569.64	60264.11
569.81	60200.92
569.97	59980.91
570.13	60327.31
570.30	60074.53
570.46	60617.53
570.62	60266.45
570.78	60343.69
570.95	60257.09
571.11	60371.78
571.27	60116.66
571.43	60362.42
571.60	60669.03
571.76	60371.78
571.92	60615.19
572.09	60416.25
572.25	60285.18
572.41	60310.92
572.57	60463.06
572.74	60505.19
572.90	60392.84
573.06	60392.84
573.22	60446.68
573.38	60434.97
573.55	60645.62
573.71	60570.72
573.87	60432.63
574.03	60402.21
574.20	60516.89
574.36	60605.83
574.52	60453.70
574.68	60598.81
574.84	60615.19
575.01	60718.18
575.17	60535.62
575.33	60470.08
575.49	60559.02
575.65	60566.04
575.82	60647.96
575.98	60573.06
576.14	60650.30
576.30	60687.75
576.46	60680.73
576.62	60645.62
576.79	60528.59
576.95	60523.91
577.11	60472.42
577.27	60802.44
577.43	60697.11
577.59	60692.43
577.75	60463.06
577.92	60495.83
578.08	60654.98
578.24	60666.69
578.40	60757.97
578.56	60781.37
578.72	60669.03
578.88	60811.80
579.04	60807.12
579.21	60540.30
579.37	60779.03
579.53	60757.97
579.69	60512.21
579.85	60573.06
580.01	60671.37
580.17	60608.17
580.33	60828.18
580.49	60640.94
580.65	60736.90
580.82	60900.74
580.98	60608.17
581.14	60711.16
581.30	60769.67
581.46	60779.03
581.62	60874.99
581.78	60769.67
581.94	60732.22
582.10	60842.23
582.26	60624.56
582.42	60594.13
582.58	60917.12
582.74	60938.19
582.90	60795.42
583.06	60802.44
583.22	60659.66
583.38	60589.45
583.54	60757.97
583.70	60760.31
583.86	60743.92
584.02	60832.86
584.18	60919.46
584.34	60809.46
584.50	60977.98
584.66	60748.60
584.82	60697.11
584.98	60956.91
585.14	60959.25
585.30	60566.04
585.46	61045.85
585.62	60793.07
585.78	61041.17
585.94	60837.54
586.10	60750.94
586.26	60804.78
586.42	60928.83
586.58	60961.59
586.74	60980.32
586.90	60966.27
587.06	60935.85
587.22	61022.45
587.38	61008.40
587.54	61038.83
587.70	61130.11
587.86	60980.32
588.02	60762.65
588.18	60856.27
588.34	60844.57
588.49	60767.33
