SpectraSuite Data File
++++++++++++++++++++++++++++++++++++
Date: Fri Oct 25 11:34:21 EDT 2013
User: price-jones
Dark Spectrum Present: No
Reference Spectrum Present: No
Number of Sampled Component Spectra: 1
Spectrometers: USB2+H05261
Integration Time (usec): 100000 (USB2+H05261)
Spectra Averaged: 1 (USB2+H05261)
Boxcar Smoothing: 0 (USB2+H05261)
Correct for Electrical Dark: No (USB2+H05261)
Strobe/Lamp Enabled: No (USB2+H05261)
Correct for Detector Non-linearity: No (USB2+H05261)
Correct for Stray Light: No (USB2+H05261)
Number of Pixels in Processed Spectrum: 2048
>>>>>Begin Processed Spectral Data<<<<<
365.73	285.55
365.92	285.55
366.12	285.55
366.32	156.82
366.52	131.07
366.72	184.90
366.91	119.37
367.11	189.58
367.31	184.90
367.51	222.35
367.70	105.32
367.90	152.13
368.10	184.90
368.30	227.03
368.49	212.99
368.69	231.71
368.89	241.08
369.09	210.65
369.28	290.23
369.48	205.97
369.68	229.37
369.87	159.16
370.07	234.05
370.27	294.91
370.47	404.91
370.66	442.36
370.86	554.71
371.06	458.74
371.25	510.24
371.45	552.37
371.65	564.07
371.84	557.05
372.04	557.05
372.24	559.39
372.44	566.41
372.63	587.47
372.83	617.90
373.03	610.88
373.22	587.47
373.42	655.35
373.62	559.39
373.81	629.60
374.01	683.44
374.21	624.92
374.40	596.84
374.60	627.26
374.79	674.07
374.99	657.69
375.19	599.18
375.38	634.29
375.58	704.50
375.78	688.12
375.97	662.37
376.17	643.65
376.37	734.93
376.56	662.37
376.76	594.50
376.95	667.05
377.15	620.24
377.35	660.03
377.54	596.84
377.74	617.90
377.93	685.78
378.13	706.84
378.33	636.63
378.52	638.97
378.72	734.93
378.91	737.27
379.11	737.27
379.31	709.18
379.50	648.33
379.70	727.91
379.89	751.31
380.09	660.03
380.28	702.16
380.48	753.65
380.68	676.41
380.87	777.06
381.07	744.29
381.26	741.95
381.46	774.72
381.65	755.99
381.85	777.06
382.04	791.10
382.24	763.01
382.43	786.42
382.63	807.48
382.83	755.99
383.02	851.96
383.22	816.85
383.41	723.23
383.61	763.01
383.80	821.53
384.00	821.53
384.19	823.87
384.39	842.59
384.58	844.93
384.78	779.40
384.97	798.12
385.17	856.64
385.36	784.08
385.56	814.51
385.75	884.72
385.95	851.96
386.14	875.36
386.34	833.23
386.53	912.81
386.72	755.99
386.92	922.17
387.11	840.25
387.31	866.00
387.50	861.32
387.70	809.83
387.89	898.77
388.09	842.59
388.28	870.68
388.48	919.83
388.67	924.51
388.86	887.06
389.06	917.49
389.25	896.43
389.45	966.64
389.64	915.15
389.84	917.49
390.03	1008.77
390.22	922.17
390.42	910.47
390.61	952.60
390.81	912.81
391.00	968.98
391.19	1004.09
391.39	1008.77
391.58	952.60
391.78	929.19
391.97	990.05
392.16	936.21
392.36	987.71
392.55	1029.84
392.75	1074.31
392.94	978.34
393.13	1060.26
393.33	990.05
393.52	1050.90
393.71	1111.75
393.91	1069.62
394.10	1034.52
394.29	1086.01
394.49	1093.03
394.68	1107.07
394.88	1081.33
395.07	1128.14
395.26	1083.67
395.46	1163.25
395.65	1114.10
395.84	1130.48
396.04	1198.35
396.23	1196.01
396.42	1144.52
396.62	1153.88
396.81	1294.32
397.00	1156.22
397.19	1153.88
397.39	1153.88
397.58	1214.74
397.77	1214.74
397.97	1151.54
398.16	1193.67
398.35	1226.44
398.55	1205.38
398.74	1303.68
398.93	1273.25
399.12	1315.38
399.32	1364.53
399.51	1275.59
399.70	1301.34
399.90	1378.58
400.09	1299.00
400.28	1336.45
400.47	1341.13
400.67	1376.24
400.86	1394.96
401.05	1348.15
401.24	1364.53
401.44	1317.72
401.63	1439.43
401.82	1542.41
402.01	1540.07
402.21	1486.24
402.40	1383.26
402.59	1427.73
402.78	1401.98
402.97	1530.71
403.17	1420.71
403.36	1495.60
403.55	1446.45
403.74	1537.73
403.93	1533.05
404.13	1509.65
404.32	1544.75
404.51	1572.84
404.70	1563.48
404.89	1626.67
405.09	1528.37
405.28	1603.27
405.47	1666.46
405.66	1680.50
405.85	1638.38
406.05	1650.08
406.24	1673.48
406.43	1764.76
406.62	1727.32
406.81	1717.95
407.00	1645.40
407.20	1809.23
407.39	1872.43
407.58	1785.83
407.77	1809.23
407.96	1675.82
408.15	1769.44
408.34	1860.73
408.54	1914.56
408.73	1851.36
408.92	1853.70
409.11	1963.71
409.30	1977.75
409.49	1886.47
409.68	1919.24
409.87	1944.99
410.07	1947.33
410.26	1984.77
410.45	2015.20
410.64	1984.77
410.83	1916.90
411.02	2111.16
411.21	2033.93
411.40	1989.46
411.59	2132.23
411.78	2143.93
411.98	2293.72
412.17	2174.36
412.36	2216.49
412.55	2237.55
412.74	2228.19
412.93	2296.07
413.12	2221.17
413.31	2356.92
413.50	2345.22
413.69	2317.13
413.88	2356.92
414.07	2441.18
414.26	2429.48
414.45	2518.42
414.64	2462.24
414.83	2562.89
415.02	2562.89
415.22	2555.86
415.41	2614.38
415.60	2630.76
415.79	2525.44
415.98	2640.12
416.17	2722.04
416.36	2621.40
416.55	2658.85
416.74	2689.28
416.93	2684.59
417.12	2686.94
417.31	2782.90
417.50	2726.72
417.69	2899.92
417.88	2825.03
418.07	2731.41
418.26	2722.04
418.45	2953.76
418.64	2993.55
418.83	2869.50
419.02	2923.33
419.21	3009.93
419.39	3129.30
419.58	2951.42
419.77	2988.86
419.96	3028.65
420.15	2960.78
420.34	3033.33
420.53	3061.42
420.72	3316.54
420.91	3056.74
421.10	3096.53
421.29	3215.90
421.48	3178.45
421.67	3091.85
421.86	3119.93
422.05	3192.49
422.24	3150.36
422.43	3316.54
422.61	3236.96
422.80	3213.56
422.99	3297.81
423.18	3251.00
423.37	3386.76
423.56	3309.52
423.75	3358.67
423.94	3232.28
424.13	3059.08
424.32	3159.72
424.50	3463.99
424.69	3353.99
424.88	3372.71
425.07	3328.24
425.26	3293.13
425.45	3368.03
425.64	3370.37
425.83	3349.31
426.01	3421.86
426.20	3339.94
426.39	3365.69
426.58	3365.69
426.77	3197.17
426.96	3471.01
427.15	3431.23
427.33	3501.44
427.52	3520.17
427.71	3559.95
427.90	3552.93
428.09	3513.14
428.28	3602.08
428.46	3625.49
428.65	3648.90
428.84	3662.94
429.03	3693.37
429.22	3611.45
429.40	3653.58
429.59	3672.30
429.78	3442.93
429.97	3625.49
430.16	3669.96
430.34	3754.22
430.53	3740.18
430.72	3831.46
430.91	3702.73
431.10	3768.26
431.28	3845.50
431.47	3861.88
431.66	3950.82
431.85	3899.33
432.03	3836.14
432.22	4126.36
432.41	3763.58
432.60	3868.91
432.79	4049.13
432.97	3992.95
433.16	4044.45
433.35	4011.68
433.54	4072.53
433.72	4021.04
433.91	4135.73
434.10	4070.19
434.28	4109.98
434.47	4105.30
434.66	4058.49
434.85	4074.87
435.03	4175.52
435.22	4138.07
435.41	4266.80
435.59	4252.75
435.78	4318.29
435.97	4210.62
436.16	4138.07
436.34	4100.62
436.53	4229.35
436.72	4264.46
436.90	4149.77
437.09	4229.35
437.28	4348.72
437.46	4287.86
437.65	4301.90
437.84	4435.32
438.02	4486.81
438.21	4559.36
438.40	4456.38
438.58	4528.94
438.77	4652.98
438.96	4500.85
439.14	4880.02
439.33	4685.75
439.52	4812.14
439.70	4798.10
439.89	4800.44
440.08	4699.80
440.26	4788.74
440.45	4873.00
440.63	4828.53
440.82	4915.12
441.01	4917.47
441.19	5093.01
441.38	5160.88
441.57	5008.75
441.75	5137.48
441.94	5305.99
442.12	5261.52
442.31	5249.82
442.50	5233.44
442.68	5245.14
442.87	5193.65
443.05	5416.00
443.24	5418.34
443.43	5479.19
443.61	5430.04
443.80	5542.39
443.98	5275.57
444.17	5074.28
444.35	5462.81
444.54	5486.22
444.73	5469.83
444.91	5291.95
445.10	5600.90
445.28	5591.54
445.47	5434.72
445.65	5425.36
445.84	5376.21
446.02	5467.49
446.21	5628.99
446.39	5521.32
446.58	5540.05
446.77	5502.60
446.95	5355.15
447.14	5469.83
447.32	5755.38
447.51	5678.14
447.69	5516.64
447.88	5673.46
448.06	5631.33
448.25	5743.67
448.43	5783.46
448.62	5706.23
448.80	5544.73
448.99	5661.76
449.17	5729.63
449.36	5818.57
449.54	5797.51
449.73	5659.42
449.91	5916.87
450.10	5802.19
450.28	5841.98
450.46	5959.00
450.65	5966.03
450.83	5893.47
451.02	5870.06
451.20	5942.62
451.39	5888.79
451.57	6005.81
451.76	5870.06
451.94	5926.24
452.13	5987.09
452.31	5973.05
452.49	5989.43
452.68	6125.18
452.86	6066.67
453.05	6335.83
453.23	6136.88
453.42	6181.35
453.60	6122.84
453.78	6200.08
453.97	6232.85
454.15	6214.12
454.34	6057.31
454.52	6338.17
454.70	6370.94
454.89	6244.55
455.07	6408.39
455.26	6452.86
455.44	6469.24
455.62	6406.05
455.81	6382.64
455.99	6417.75
456.17	6408.39
456.36	6490.31
456.54	6604.99
456.73	6696.27
456.91	6846.07
457.09	6764.15
457.28	6864.79
457.46	6722.02
457.64	6658.82
457.83	6661.16
458.01	6848.41
458.19	6986.50
458.38	6771.17
458.56	6899.90
458.74	6909.26
458.93	6878.83
459.11	6970.12
459.29	7066.08
459.48	7243.96
459.66	7227.57
459.84	7080.12
460.03	7351.62
460.21	7262.68
460.39	7140.97
460.57	7096.50
460.76	7213.53
460.94	7096.50
461.12	7246.30
461.31	7440.56
461.49	7356.30
461.67	7243.96
461.85	7485.03
462.04	7405.46
462.22	7707.38
462.40	7538.87
462.59	7370.35
462.77	7433.54
462.95	7578.65
463.13	7559.93
463.32	7627.81
463.50	7716.75
463.68	7515.46
463.86	7688.66
464.05	7590.36
464.23	7438.22
464.41	7632.49
464.59	7552.91
464.78	7747.17
464.96	7798.66
465.14	7499.08
465.32	7859.52
465.50	7988.25
465.69	7796.32
465.87	7775.26
466.05	8002.29
466.23	7906.33
466.41	7840.79
466.60	8077.19
466.78	7812.71
466.96	7861.86
467.14	8079.53
467.32	7861.86
467.51	8032.72
467.69	7999.95
467.87	8166.13
468.05	8077.19
468.23	8196.56
468.41	7866.54
468.60	8025.70
468.78	8222.30
468.96	8166.13
469.14	8322.94
469.32	8458.70
469.50	8032.72
469.69	8336.99
469.87	8468.06
470.05	8189.53
470.23	8381.46
470.41	8479.76
470.59	8498.49
470.77	8468.06
470.95	8622.53
471.14	8774.67
471.32	8482.10
471.50	8805.10
471.68	8524.23
471.86	8767.65
472.04	8828.50
472.22	8926.80
472.40	8821.48
472.58	8781.69
472.77	9008.72
472.95	9004.04
473.13	9364.48
473.31	9261.50
473.49	9179.58
473.67	9032.13
473.85	9132.77
474.03	9240.44
474.21	9437.04
474.39	9462.79
474.57	9296.61
474.75	9362.14
474.93	9572.79
475.12	9678.12
475.30	9769.40
475.48	9535.34
475.66	9650.03
475.84	9647.69
476.02	9994.09
476.20	9717.90
476.38	10218.78
476.56	10265.59
476.74	10186.01
476.92	10115.80
477.10	10078.35
477.28	10244.52
477.46	10150.90
477.64	10317.08
477.82	10541.77
478.00	10813.28
478.18	10696.25
478.36	11000.52
478.54	11009.88
478.72	10787.53
478.90	11136.27
479.08	11290.74
479.26	11342.24
479.44	11199.46
479.62	11372.66
479.80	11417.13
479.98	11187.76
480.16	11885.24
480.34	11545.86
480.52	11920.35
480.70	11693.32
480.88	11789.28
481.06	11932.05
481.24	12016.31
481.41	12077.16
481.59	12290.15
481.77	12414.20
481.95	12308.88
482.13	12252.70
482.31	12437.61
482.49	13039.12
482.67	12933.80
482.85	12870.61
483.03	13158.49
483.21	12996.99
483.39	13516.59
483.57	13027.42
483.74	13261.48
483.92	13495.53
484.10	13261.48
484.28	13954.27
484.46	14054.92
484.64	14300.67
484.82	13816.18
485.00	13954.27
485.18	14429.40
485.35	14743.03
485.53	14647.07
485.71	14452.81
485.89	14780.48
486.07	14867.08
486.25	14710.27
486.43	14981.77
486.61	15108.16
486.78	15232.21
486.96	15367.96
487.14	15337.53
487.32	15421.79
487.50	15758.83
487.68	16084.16
487.85	15859.47
488.03	16262.04
488.21	16556.95
488.39	16306.51
488.57	16285.45
488.75	16428.22
488.92	16809.73
489.10	16985.27
489.28	17053.14
489.46	17130.38
489.64	17085.91
489.81	17586.79
489.99	17530.61
490.17	17268.47
490.35	17809.14
490.53	17846.58
490.70	17928.50
490.88	17799.77
491.06	18321.71
491.24	18143.83
491.41	18101.70
491.59	18132.13
491.77	18349.80
491.95	18647.05
492.13	19035.58
492.30	19084.73
492.48	19033.24
492.66	19307.08
492.84	18993.45
493.01	19597.31
493.19	19489.64
493.37	19609.01
493.54	19669.86
493.72	19693.27
493.90	19681.56
494.08	19939.02
494.25	20264.36
494.43	20189.46
494.61	20168.40
494.79	20444.58
494.96	20332.23
495.14	20554.58
495.32	20999.29
495.49	20945.45
495.67	21163.12
495.85	21022.69
496.02	21364.41
496.20	21446.33
496.38	21312.92
496.55	21333.98
496.73	22164.87
496.91	21996.35
497.09	21785.71
497.26	22263.18
497.44	21776.34
497.62	22398.93
497.79	22583.83
497.97	22389.56
498.14	22845.97
498.32	22831.93
498.50	23068.32
498.67	22939.59
498.85	23054.28
499.03	23117.47
499.20	23267.27
499.38	23278.97
499.56	23522.38
499.73	23496.64
499.91	23501.32
500.08	23693.24
500.26	23433.44
500.44	23765.80
500.61	23639.41
500.79	24084.11
500.97	24046.66
501.14	24538.18
501.32	24477.32
501.49	24336.89
501.67	24364.98
501.84	24762.87
502.02	24379.02
502.20	24694.99
502.37	24676.27
502.55	24814.36
502.72	24917.34
502.90	24940.75
503.07	24821.38
503.25	24868.19
503.43	25167.78
503.60	25350.34
503.78	25202.89
503.95	25757.60
504.13	25352.68
504.30	25607.80
504.48	25731.85
504.65	26038.46
504.83	25776.32
505.01	26129.74
505.18	26059.52
505.36	26361.45
505.53	26246.77
505.71	26356.77
505.88	26691.47
506.06	26328.69
506.23	26838.92
506.41	26389.54
506.58	26473.80
506.76	26888.07
506.93	27276.60
507.11	26609.55
507.28	26995.74
507.46	27274.26
507.63	27339.80
507.81	27360.86
507.98	27475.55
508.16	27615.98
508.33	27676.83
508.50	27803.22
508.68	27489.59
508.85	27859.40
509.03	27894.50
509.20	28074.73
509.38	28481.98
509.55	28451.55
509.73	28322.82
509.90	28135.58
510.08	28402.40
510.25	28184.73
510.42	28563.90
510.60	28783.91
510.77	28325.16
510.95	28903.28
511.12	28875.19
511.30	29076.48
511.47	29034.35
511.64	28940.72
511.82	29343.30
511.99	28790.93
512.17	29455.64
512.34	29289.46
512.51	29474.37
512.69	29689.70
512.86	29844.17
513.04	30211.64
513.21	29621.82
513.38	30057.16
513.56	30008.01
513.73	29905.02
513.90	30092.27
514.08	29795.02
514.25	30419.94
514.43	30654.00
514.60	30375.47
514.77	30366.11
514.95	30401.22
515.12	30857.62
515.29	31005.08
515.47	31157.21
515.64	31084.65
515.81	30733.57
515.99	30946.56
516.16	31180.62
516.33	31421.69
516.51	31688.51
516.68	30972.31
516.85	31339.77
517.03	31730.64
517.20	31630.00
517.37	31814.90
517.54	31747.03
517.72	31709.58
517.89	31622.98
518.06	31651.06
518.24	31887.46
518.41	31505.95
518.58	32414.08
518.75	31604.25
518.93	32151.94
519.10	32006.83
519.27	32451.53
519.45	32367.27
519.62	32268.97
519.79	32240.88
519.96	32421.10
520.14	32842.40
520.31	32629.41
520.48	32704.31
520.65	32716.01
520.83	33198.16
521.00	32943.04
521.17	32678.56
521.34	33242.63
521.52	33401.79
521.69	33240.29
521.86	33439.23
522.03	33336.25
522.20	33523.49
522.38	33357.32
522.55	34064.16
522.72	33993.94
522.89	33589.03
523.07	34043.09
523.24	34209.27
523.41	34082.88
523.58	33972.88
523.75	34188.21
523.92	34188.21
524.10	34302.89
524.27	34710.14
524.44	34286.51
524.61	34520.56
524.78	34490.13
524.96	34916.11
525.13	35044.84
525.30	34689.08
525.47	34799.08
525.64	34721.85
525.81	35037.82
525.98	34890.37
526.16	35002.71
526.33	35194.64
526.50	35302.30
526.67	35250.81
526.84	34913.77
527.01	35367.84
527.18	35370.18
527.36	35424.01
527.53	35611.25
527.70	35639.34
527.87	36154.26
528.04	35651.04
528.21	35931.90
528.38	35737.64
528.55	35749.34
528.72	35941.27
528.89	36360.22
529.07	35683.81
529.24	35707.21
529.41	36334.48
529.58	36278.30
529.75	35997.44
529.92	36474.91
530.09	36229.15
530.26	36510.02
530.43	36479.59
530.60	35892.12
530.77	36383.63
530.94	36264.26
531.11	36315.75
531.28	36715.98
531.46	36643.43
531.63	36868.12
531.80	36776.84
531.97	36985.15
532.14	36638.75
532.31	37001.53
532.48	36650.45
532.65	37434.53
532.82	36540.44
532.99	37390.06
533.16	37371.33
533.33	37097.49
533.50	37242.60
533.67	37343.25
533.84	37471.98
534.01	37581.98
534.18	37350.27
534.35	38031.36
534.52	37804.33
534.69	37766.88
534.86	37853.48
535.03	37565.60
535.20	37846.46
535.37	38302.87
535.54	38382.45
535.71	37759.86
535.88	38010.30
536.05	38153.07
536.22	37919.02
536.38	38705.44
536.55	37972.85
536.72	38298.19
536.89	38611.82
537.06	38452.66
537.23	38632.88
537.40	38169.46
537.57	38335.63
537.74	38464.36
537.91	38773.31
538.08	38710.12
538.25	38841.19
538.42	38457.34
538.59	39037.80
538.75	38859.91
538.92	39145.46
539.09	39342.06
539.26	38829.49
539.43	39133.76
539.60	38995.67
539.77	39056.52
539.94	39129.08
540.11	39594.84
540.28	39161.84
540.44	39419.30
540.61	39187.59
540.78	39452.07
540.95	39587.82
541.12	39426.32
541.29	39351.43
541.46	39683.78
541.62	39615.91
541.79	39828.90
541.96	39115.03
542.13	39498.88
542.30	39321.00
542.47	39681.44
542.63	39489.52
542.80	40105.08
542.97	40737.02
543.14	40446.80
543.31	40268.92
543.48	40261.90
543.64	40680.85
543.81	40594.25
543.98	40053.59
544.15	40299.34
544.32	40477.22
544.48	40636.38
544.65	40774.47
544.82	40776.81
544.99	40072.31
545.16	40678.51
545.32	40617.66
545.49	41069.38
545.66	41020.23
545.83	41137.26
546.00	41071.72
546.16	40879.80
546.33	40868.09
546.50	40840.01
546.67	41357.27
546.83	40739.36
547.00	41312.80
547.17	41078.74
547.34	41153.64
547.50	41291.73
547.67	41404.08
547.84	41347.90
548.00	41720.05
548.17	41691.96
548.34	41441.53
548.51	41907.29
548.67	41883.89
548.84	41673.24
549.01	41790.27
549.18	41935.38
549.34	42146.03
549.51	41738.77
549.68	41907.29
549.84	41832.39
550.01	42330.93
550.18	41799.63
550.34	41923.68
550.51	42300.50
550.68	42454.98
550.84	41914.31
551.01	42513.49
551.18	41970.49
551.34	42092.19
551.51	42443.27
551.68	42522.85
551.84	42607.11
552.01	42234.97
552.18	41984.53
552.34	42256.03
552.51	42223.26
552.68	42663.28
552.84	42068.79
553.01	42211.56
553.18	42054.75
553.34	42670.31
553.51	42473.70
553.67	42831.80
553.84	42906.70
554.01	42944.15
554.17	42988.62
554.34	42803.72
554.51	42618.81
554.67	43082.24
554.84	42997.98
555.00	42862.23
555.17	42951.17
555.33	43440.34
555.50	43168.84
555.67	43075.22
555.83	43143.09
556.00	43297.57
556.16	43721.21
556.33	43367.79
556.50	43395.87
556.66	43138.41
556.83	43152.46
556.99	43604.18
557.16	43728.23
557.32	43648.65
557.49	43440.34
557.65	42972.24
557.82	43374.81
557.98	43440.34
558.15	43590.14
558.32	43370.13
558.48	43236.72
558.65	43477.79
558.81	43255.44
558.98	43524.60
559.14	43576.09
559.31	43569.07
559.47	43683.76
559.64	43803.13
559.80	44004.41
559.97	44044.20
560.13	43878.02
560.30	43622.90
560.46	44308.68
560.63	43821.85
560.79	43983.35
560.96	44083.99
561.12	43826.53
561.29	44355.49
561.45	44020.80
561.61	44137.82
561.78	44100.37
561.94	44109.74
562.11	44128.46
562.27	44201.02
562.44	44016.11
562.60	44243.15
562.77	44275.91
562.93	44444.43
563.10	44624.65
563.26	44327.41
563.42	44673.81
563.59	44144.84
563.75	44449.11
563.92	44341.45
564.08	44165.91
564.24	44177.61
564.41	44304.00
564.57	44210.38
564.74	44673.81
564.90	44264.21
565.07	44442.09
565.23	44287.62
565.39	44526.35
565.56	44734.66
565.72	44699.55
565.88	44563.80
566.05	44634.02
566.21	44561.46
566.38	44383.58
566.54	44914.88
566.70	44879.77
566.87	45031.91
567.03	44814.24
567.19	44921.90
567.36	44577.84
567.52	44634.02
567.68	44919.56
567.85	44673.81
568.01	44847.00
568.17	44769.77
568.34	44891.48
568.50	44657.42
568.66	44584.86
568.83	44818.92
568.99	44964.03
569.15	45144.25
569.32	45109.14
569.48	44605.93
569.64	45109.14
569.81	44711.25
569.97	44917.22
570.13	44786.15
570.30	45106.80
570.46	44912.54
570.62	44832.96
570.78	45483.63
570.95	45106.80
571.11	45188.72
571.27	45427.46
571.43	44601.25
571.60	45198.09
571.76	45013.18
571.92	45015.52
572.09	44945.31
572.25	44758.06
572.41	44926.58
572.57	45090.42
572.74	45647.47
572.90	45027.23
573.06	45219.15
573.22	45174.68
573.38	45221.49
573.55	45647.47
573.71	45652.15
573.87	45448.52
574.03	45265.96
574.20	45935.35
574.36	45453.20
574.52	45544.48
574.68	45441.50
574.84	45411.07
575.01	45633.42
575.17	45455.54
575.33	45111.49
575.49	45191.06
575.65	45485.97
575.82	45553.85
575.98	45308.09
576.14	45530.44
576.30	45361.92
576.46	45420.44
576.62	45228.51
576.79	45160.64
576.95	45010.84
577.11	45160.64
577.27	45427.46
577.43	45640.45
577.59	45385.33
577.75	45574.91
577.92	45244.90
578.08	45441.50
578.24	45549.17
578.40	45446.18
578.56	45579.59
578.72	45846.41
578.88	45808.96
579.04	45677.90
579.21	45633.42
579.37	45298.73
579.53	45455.54
579.69	45179.36
579.85	45422.78
580.01	45312.77
580.17	45228.51
580.33	45970.46
580.49	45717.68
580.65	45673.21
580.82	45865.14
580.98	45406.39
581.14	45059.99
581.30	45530.44
581.46	45464.91
581.62	45687.26
581.78	45577.25
581.94	45694.28
582.10	45528.10
582.26	45720.02
582.42	45928.33
582.58	45762.15
582.74	45949.40
582.90	45621.72
583.06	45661.51
583.22	45268.30
583.38	45874.50
583.54	45923.65
583.70	45748.11
583.86	45897.91
584.02	45532.78
584.18	45757.47
584.34	46005.57
584.50	45925.99
584.66	45708.32
584.82	45785.56
584.98	46424.53
585.14	46106.21
585.30	45525.76
585.46	45940.04
585.62	45841.73
585.78	45844.07
585.94	45553.85
586.10	46127.28
586.26	45727.05
586.42	45682.58
586.58	46225.58
586.74	45518.74
586.90	45549.17
587.06	46204.52
587.22	45415.76
587.38	45532.78
587.54	45776.20
587.70	46150.68
587.86	45832.37
588.02	45799.60
588.18	45399.37
588.34	45481.29
588.49	45556.19
588.65	45799.60
588.81	45804.28
588.97	46003.23
589.13	45977.48
589.29	45790.24
589.45	46003.23
589.61	46092.17
589.77	46314.52
589.93	46274.73
590.08	45808.96
