SpectraSuite Data File
++++++++++++++++++++++++++++++++++++
Date: Fri Oct 25 10:47:37 EDT 2013
User: price-jones
Dark Spectrum Present: No
Reference Spectrum Present: No
Number of Sampled Component Spectra: 1
Spectrometers: USB2+H05261
Integration Time (usec): 100000 (USB2+H05261)
Spectra Averaged: 1 (USB2+H05261)
Boxcar Smoothing: 0 (USB2+H05261)
Correct for Electrical Dark: No (USB2+H05261)
Strobe/Lamp Enabled: No (USB2+H05261)
Correct for Detector Non-linearity: No (USB2+H05261)
Correct for Stray Light: No (USB2+H05261)
Number of Pixels in Processed Spectrum: 2048
>>>>>Begin Processed Spectral Data<<<<<
365.73	95.96
365.92	95.96
366.12	95.96
366.32	49.15
366.52	65.54
366.72	79.58
366.91	18.72
367.11	53.83
367.31	39.79
367.51	42.13
367.70	60.85
367.90	37.45
368.10	0.00
368.30	70.22
368.49	84.26
368.69	117.03
368.89	14.04
369.09	32.77
369.28	16.38
369.48	58.51
369.68	126.39
369.87	152.13
370.07	63.19
370.27	121.71
370.47	156.82
370.66	344.06
370.86	409.59
371.06	414.27
371.25	451.72
371.45	292.57
371.65	444.70
371.84	447.04
372.04	421.30
372.24	531.30
372.44	526.62
372.63	489.17
372.83	493.85
373.03	479.81
373.22	475.13
373.42	493.85
373.62	454.06
373.81	561.73
374.01	557.05
374.21	578.11
374.40	456.40
374.60	599.18
374.79	524.28
374.99	589.82
375.19	606.20
375.38	533.64
375.58	589.82
375.78	615.56
375.97	664.71
376.17	613.22
376.37	573.43
376.56	610.88
376.76	521.94
376.95	627.26
377.15	552.37
377.35	585.13
377.54	636.63
377.74	601.52
377.93	662.37
378.13	692.80
378.33	634.29
378.52	594.50
378.72	568.75
378.91	599.18
379.11	594.50
379.31	631.94
379.50	592.16
379.70	615.56
379.89	704.50
380.09	699.82
380.28	685.78
380.48	667.05
380.68	688.12
380.87	653.01
381.07	678.76
381.26	690.46
381.46	697.48
381.65	653.01
381.85	676.41
382.04	692.80
382.24	704.50
382.43	732.59
382.63	730.25
382.83	706.84
383.02	716.20
383.22	734.93
383.41	760.67
383.61	615.56
383.80	760.67
384.00	809.83
384.19	713.86
384.39	704.50
384.58	713.86
384.78	758.33
384.97	807.48
385.17	809.83
385.36	814.51
385.56	774.72
385.75	753.65
385.95	828.55
386.14	723.23
386.34	781.74
386.53	812.17
386.72	828.55
386.92	875.36
387.11	840.25
387.31	847.27
387.50	842.59
387.70	889.40
387.89	823.87
388.09	877.70
388.28	793.44
388.48	777.06
388.67	851.96
388.86	898.77
389.06	835.57
389.25	903.45
389.45	954.94
389.64	887.06
389.84	936.21
390.03	929.19
390.22	924.51
390.42	896.43
390.61	1025.15
390.81	917.49
391.00	1006.43
391.19	887.06
391.39	954.94
391.58	1001.75
391.78	985.37
391.97	926.85
392.16	957.28
392.36	973.66
392.55	915.15
392.75	1076.65
392.94	924.51
393.13	1004.09
393.33	968.98
393.52	954.94
393.71	997.07
393.91	1022.81
394.10	1086.01
394.29	1069.62
394.49	1090.69
394.68	1036.86
394.88	1114.10
395.07	1149.20
395.26	1100.05
395.46	1130.48
395.65	1249.85
395.84	1170.27
396.04	1203.04
396.23	1118.78
396.42	1083.67
396.62	1109.41
396.81	1210.06
397.00	1100.05
397.19	1196.01
397.39	1235.80
397.58	1207.72
397.77	1233.46
397.97	1310.70
398.16	1217.08
398.35	1268.57
398.55	1394.96
398.74	1282.61
398.93	1291.98
399.12	1369.21
399.32	1373.89
399.51	1427.73
399.70	1488.58
399.90	1394.96
400.09	1420.71
400.28	1432.41
400.47	1401.98
400.67	1467.52
400.86	1523.69
401.05	1516.67
401.24	1497.94
401.44	1598.59
401.63	1561.14
401.82	1483.90
402.01	1533.05
402.21	1514.33
402.40	1511.99
402.59	1640.72
402.78	1614.97
402.97	1659.44
403.17	1593.90
403.36	1614.97
403.55	1724.97
403.74	1778.81
403.93	1614.97
404.13	1570.50
404.32	1732.00
404.51	1661.78
404.70	1750.72
404.89	1694.55
405.09	1806.89
405.28	1806.89
405.47	1657.10
405.66	1664.12
405.85	1717.95
406.05	1790.51
406.24	1792.85
406.43	1797.53
406.62	1933.28
406.81	1940.30
407.00	1842.00
407.20	1830.30
407.39	1863.07
407.58	1886.47
407.77	1914.56
407.96	1949.67
408.15	1916.90
408.34	2019.88
408.54	2106.48
408.73	2113.50
408.92	2064.35
409.11	1970.73
409.30	2031.58
409.49	2129.89
409.68	2132.23
409.87	2083.08
410.07	2127.55
410.26	2136.91
410.45	2094.78
410.64	2197.76
410.83	2174.36
411.02	2218.83
411.21	2235.21
411.40	2382.67
411.59	2267.98
411.78	2427.14
411.98	2352.24
412.17	2394.37
412.36	2272.66
412.55	2335.85
412.74	2497.35
412.93	2387.35
413.12	2448.20
413.31	2548.84
413.50	2462.24
413.69	2616.72
413.88	2682.25
414.07	2635.44
414.26	2661.19
414.45	2656.51
414.64	2761.83
414.83	2745.45
415.02	2836.73
415.22	2857.79
415.41	2834.39
415.60	2743.11
415.79	2841.41
415.98	2892.90
416.17	2925.67
416.36	2942.05
416.55	2899.92
416.74	2860.13
416.93	2958.44
417.12	2918.65
417.31	3084.83
417.50	3080.14
417.69	3225.26
417.88	3176.11
418.07	3000.57
418.26	3087.17
418.45	3164.40
418.64	3194.83
418.83	3180.79
419.02	3183.13
419.21	3262.71
419.39	3300.16
419.58	3332.92
419.77	3300.16
419.96	3201.85
420.15	3325.90
420.34	3349.31
420.53	3391.44
420.72	3494.42
420.91	3452.29
421.10	3545.91
421.29	3588.04
421.48	3468.67
421.67	3569.32
421.86	3508.46
422.05	3410.16
422.24	3501.44
422.43	3417.18
422.61	3466.33
422.80	3630.17
422.99	3562.30
423.18	3613.79
423.37	3637.19
423.56	3604.42
423.75	3658.26
423.94	3578.68
424.13	3220.58
424.32	3398.46
424.50	3684.00
424.69	3763.58
424.88	3723.79
425.07	3531.87
425.26	3595.06
425.45	3588.04
425.64	3583.36
425.83	3541.23
426.01	3517.83
426.20	3730.81
426.39	3719.11
426.58	3688.68
426.77	3660.60
426.96	3651.24
427.15	3707.41
427.33	3667.62
427.52	3698.05
427.71	3705.07
427.90	3824.44
428.09	3768.26
428.28	3808.05
428.46	3782.31
428.65	3726.13
428.84	3953.16
429.03	3887.63
429.22	3676.98
429.40	3796.35
429.59	3791.67
429.78	3730.81
429.97	3719.11
430.16	3688.68
430.34	3777.62
430.53	3948.48
430.72	3859.54
430.91	3922.74
431.10	3896.99
431.28	4191.90
431.47	4081.89
431.66	4348.72
431.85	4290.20
432.03	4301.90
432.22	4299.56
432.41	4411.91
432.60	4250.41
432.79	4189.56
432.97	4306.59
433.16	4430.63
433.35	4262.12
433.54	4248.07
433.72	4393.19
433.91	4210.62
434.10	4322.97
434.28	4322.97
434.47	4447.02
434.66	4568.73
434.85	4421.27
435.03	4484.47
435.22	4425.95
435.41	4601.49
435.59	4636.60
435.78	4695.11
435.97	4622.56
436.16	4704.48
436.34	4587.45
436.53	4624.90
436.72	4915.12
436.90	4657.67
437.09	4854.27
437.28	4631.92
437.46	4835.55
437.65	4723.20
437.84	4690.43
438.02	4917.47
438.21	4835.55
438.40	4760.65
438.58	4992.36
438.77	5018.11
438.96	5011.09
439.14	5020.45
439.33	4964.28
439.52	5123.43
439.70	5125.77
439.89	5254.50
440.08	5181.95
440.26	5261.52
440.45	5210.03
440.63	5387.91
440.82	5430.04
441.01	5455.79
441.19	5394.93
441.38	5472.17
441.57	5486.22
441.75	5614.95
441.94	5736.65
442.12	5760.06
442.31	5734.31
442.50	5729.63
442.68	5797.51
442.87	5703.89
443.05	5823.25
443.24	5870.06
443.43	5998.79
443.61	5956.66
443.80	6024.54
443.98	5647.71
444.17	5724.95
444.35	5959.00
444.54	5970.71
444.73	6071.35
444.91	5891.13
445.10	6001.13
445.28	5865.38
445.47	5944.96
445.65	5860.70
445.84	6019.86
446.02	6141.57
446.21	5841.98
446.39	5914.53
446.58	6038.58
446.77	5982.41
446.95	5813.89
447.14	6043.26
447.32	6169.65
447.51	6129.86
447.69	5923.90
447.88	6186.04
448.06	6076.03
448.25	6083.05
448.43	6129.86
448.62	6061.99
448.80	6012.84
448.99	6321.79
449.17	6136.88
449.36	6291.36
449.54	6368.60
449.73	6408.39
449.91	6361.58
450.10	6600.31
450.28	6520.73
450.46	6448.18
450.65	6464.56
450.83	6581.59
451.02	6445.84
451.20	6682.23
451.39	6424.77
451.57	6527.75
451.76	6443.49
451.94	6705.63
452.13	6719.68
452.31	6499.67
452.49	6422.43
452.68	6506.69
452.86	6649.46
453.05	6712.66
453.23	6796.92
453.42	6565.20
453.60	6637.76
453.78	6810.96
453.97	6633.08
454.15	6665.85
454.34	6637.76
454.52	6939.69
454.70	6817.98
454.89	6654.14
455.07	6857.77
455.26	7019.27
455.44	7187.79
455.62	7049.69
455.81	6904.58
455.99	7005.22
456.17	7082.46
456.36	7133.95
456.54	7279.07
456.73	7295.45
456.91	7438.22
457.09	7386.73
457.28	7662.91
457.46	7293.11
457.64	7375.03
457.83	7335.24
458.01	7332.90
458.19	7524.82
458.38	7363.33
458.56	7545.89
458.74	7651.21
458.93	7468.65
459.11	7571.63
459.29	7470.99
459.48	7463.97
459.66	7459.29
459.84	7754.19
460.03	7779.94
460.21	7833.77
460.39	7698.02
460.57	7592.70
460.76	7997.61
460.94	7772.92
461.12	7861.86
461.31	7967.18
461.49	8030.38
461.67	7915.69
461.85	8145.06
462.04	8070.17
462.22	8538.27
462.40	8084.21
462.59	8189.53
462.77	8049.10
462.95	8126.34
463.13	8219.96
463.32	8226.98
463.50	8381.46
463.68	8163.79
463.86	8432.95
464.05	8208.26
464.23	8063.15
464.41	8248.05
464.59	8126.34
464.78	8486.78
464.96	8458.70
465.14	8329.97
465.32	8486.78
465.50	8468.06
465.69	8400.18
465.87	8294.86
466.05	8531.25
466.23	8355.71
466.41	8486.78
466.60	8650.62
466.78	8404.86
466.96	8692.75
467.14	8739.56
467.32	8601.47
467.51	8697.43
467.69	8498.49
467.87	8858.93
468.05	8800.41
468.23	8564.02
468.41	8702.11
468.60	8678.71
468.78	8678.71
468.96	8578.06
469.14	8786.37
469.32	8809.78
469.50	8739.56
469.69	9001.70
469.87	9015.74
470.05	8997.02
470.23	8975.95
470.41	9212.35
470.59	9224.05
470.77	9109.36
470.95	9315.33
471.14	9329.38
471.32	9095.32
471.50	9441.72
471.68	9334.06
471.86	9635.99
472.04	9596.20
472.22	9834.93
472.40	9383.21
472.58	9518.96
472.77	9727.27
472.95	9853.66
473.13	10080.69
473.31	9633.64
473.49	9610.24
473.67	9689.82
473.85	9837.27
474.03	10003.45
474.21	9825.57
474.39	10169.63
474.57	10153.24
474.75	10345.17
474.93	10043.24
475.12	10286.65
475.30	10326.44
475.48	10319.42
475.66	10319.42
475.84	10462.19
476.02	10413.04
476.20	10408.36
476.38	10633.05
476.56	10916.26
476.74	10883.49
476.92	11030.94
477.10	11026.26
477.28	10857.75
477.46	10963.07
477.64	11080.10
477.82	11199.46
478.00	11613.74
478.18	11304.79
478.36	11410.11
478.54	11534.16
478.72	11609.06
478.90	12051.42
479.08	12030.35
479.26	12039.72
479.44	11819.71
479.62	12259.73
479.80	12238.66
479.98	12252.70
480.16	12725.49
480.34	12493.78
480.52	12594.42
480.70	12844.86
480.88	12631.87
481.06	12575.70
481.24	12943.16
481.41	13018.06
481.59	13151.47
481.77	13111.68
481.95	13369.14
482.13	13345.73
482.31	13465.10
482.49	13642.98
482.67	13544.68
482.85	13891.08
483.03	13954.27
483.21	14328.76
483.39	14345.14
483.57	14094.71
483.74	14406.00
483.92	14675.16
484.10	14333.44
484.28	14593.24
484.46	14743.03
484.64	15201.78
484.82	14721.97
485.00	15068.37
485.18	15049.64
485.35	15243.91
485.53	15161.99
485.71	15222.84
485.89	15644.14
486.07	15213.48
486.25	15583.29
486.43	15740.10
486.61	15807.98
486.78	16081.82
486.96	15889.90
487.14	16325.24
487.32	16676.32
487.50	16617.80
487.68	16854.20
487.85	17132.72
488.03	16896.33
488.21	17481.46
488.39	17312.94
488.57	17242.73
488.75	17308.26
488.92	17869.99
489.10	17855.95
489.28	18036.17
489.46	18258.52
489.64	18235.11
489.81	18305.33
489.99	18759.39
490.17	18380.23
490.35	18995.79
490.53	18958.34
490.70	19332.82
490.88	18948.98
491.06	19417.08
491.24	19278.99
491.41	19461.55
491.59	19161.97
491.77	19587.94
491.95	19775.19
492.13	19873.49
492.30	19836.04
492.48	20020.94
492.66	20112.22
492.84	20112.22
493.01	20732.47
493.19	20460.96
493.37	20833.11
493.54	20554.58
493.72	20968.86
493.90	20989.92
494.08	21179.51
494.25	21645.27
494.43	21390.16
494.61	21507.18
494.79	21970.61
494.96	21928.48
495.14	21668.68
495.32	22019.76
495.49	22068.91
495.67	22001.04
495.85	22249.13
496.02	22499.57
496.20	22637.66
496.38	22731.28
496.55	23028.53
496.73	23098.75
496.91	22981.72
497.09	23356.21
497.26	23131.51
497.44	23342.16
497.62	23459.19
497.79	23997.51
497.97	23679.20
498.14	23875.80
498.32	24269.01
498.50	23983.47
498.67	24208.16
498.85	24517.11
499.03	24620.10
499.20	24812.02
499.38	24390.72
499.56	24652.86
499.73	24713.72
499.91	24854.15
500.08	24629.46
500.26	24446.90
500.44	24917.34
500.61	24903.30
500.79	24584.99
500.97	24940.75
501.14	25326.94
501.32	25268.42
501.49	25598.44
501.67	25675.68
501.84	25771.64
502.02	25556.31
502.20	26015.05
502.37	26043.14
502.55	25914.41
502.72	25827.81
502.90	26359.11
503.07	26377.84
503.25	26534.65
503.43	26359.11
503.60	26452.73
503.78	26279.54
503.95	26384.86
504.13	26834.24
504.30	26562.74
504.48	26906.80
504.65	27016.80
504.83	26998.08
505.01	27541.08
505.18	27335.12
505.36	27374.91
505.53	27351.50
505.71	27424.06
505.88	27690.88
506.06	27517.68
506.23	27913.23
506.41	27274.26
506.58	27915.57
506.76	28053.66
506.93	28231.54
507.11	28180.05
507.28	28407.08
507.46	28128.56
507.63	28210.48
507.81	28437.51
507.98	28339.21
508.16	28664.54
508.33	28613.05
508.50	28505.38
508.68	28765.18
508.85	29153.71
509.03	29010.94
509.20	29254.36
509.38	29305.85
509.55	29823.11
509.73	29525.86
509.90	29617.14
510.08	29223.93
510.25	29362.02
510.42	29680.33
510.60	29518.84
510.77	29750.55
510.95	30251.42
511.12	29975.24
511.30	30206.95
511.47	30050.14
511.64	30354.41
511.82	30450.37
511.99	30384.83
512.17	30794.43
512.34	30448.03
512.51	30787.41
512.69	30939.54
512.86	30848.26
513.04	31061.25
513.21	30962.95
513.38	30965.29
513.56	30927.84
513.73	30756.98
513.90	31117.42
514.08	30792.09
514.25	31243.81
514.43	31112.74
514.60	31051.89
514.77	31285.94
514.95	31892.14
515.12	31335.09
515.29	31405.31
515.47	31885.12
515.64	32173.00
515.81	32180.03
515.99	32102.79
516.16	32058.32
516.33	31950.65
516.51	32474.93
516.68	31737.66
516.85	31910.86
517.03	31941.29
517.20	32400.04
517.37	32339.18
517.54	32842.40
517.72	32498.34
517.89	32161.30
518.06	32566.21
518.24	32638.77
518.41	32788.56
518.58	32833.04
518.75	32781.54
518.93	32816.65
519.10	33090.49
519.27	33137.30
519.45	33284.76
519.62	33600.73
519.79	33610.09
519.96	33263.69
520.14	33535.20
520.31	33383.06
520.48	33790.31
520.65	33556.26
520.83	34045.43
521.00	33996.28
521.17	34143.74
521.34	33862.87
521.52	34398.85
521.69	34132.03
521.86	34012.66
522.03	34675.04
522.20	34597.80
522.38	34401.19
522.55	34546.31
522.72	34345.02
522.89	34499.50
523.07	34771.00
523.24	34728.87
523.41	34466.73
523.58	34913.77
523.75	35077.61
523.92	35152.51
524.10	35173.57
524.27	35103.35
524.44	35328.05
524.61	35122.08
524.78	35576.14
524.96	35267.19
525.13	35611.25
525.30	35662.74
525.47	35629.98
525.64	35866.37
525.81	35892.12
525.98	35370.18
526.16	35505.93
526.33	35323.36
526.50	35683.81
526.67	35838.28
526.84	35552.74
527.01	35789.13
527.18	35639.34
527.36	36315.75
527.53	36491.29
527.70	36320.43
527.87	36168.30
528.04	36449.16
528.21	36364.90
528.38	36304.05
528.55	36912.59
528.72	36999.19
528.89	37273.03
529.07	36844.71
529.24	36474.91
529.41	36844.71
529.58	36928.97
529.75	36994.51
529.92	37104.51
530.09	37233.24
530.26	37055.36
530.43	37301.12
530.60	37041.32
530.77	37408.78
530.94	37298.78
531.11	37319.84
531.28	37954.13
531.46	37476.66
531.63	37706.03
531.80	37752.84
531.97	37317.50
532.14	37537.51
532.31	37605.39
532.48	37675.60
532.65	37832.42
532.82	37469.64
532.99	38014.98
533.16	37633.47
533.33	38047.75
533.50	38307.55
533.67	38059.45
533.84	37874.55
534.01	38188.18
534.18	37914.34
534.35	38649.27
534.52	38335.63
534.69	38223.29
534.86	38574.37
535.03	38153.07
535.20	38623.52
535.37	39061.20
535.54	38768.63
535.71	38899.70
535.88	38934.81
536.05	38483.09
536.22	38852.89
536.38	38520.54
536.55	38981.62
536.72	38838.85
536.89	38588.41
537.06	38904.38
537.23	38944.17
537.40	39051.84
537.57	39491.86
537.74	39311.64
537.91	39686.12
538.08	39470.79
538.25	39295.25
538.42	39201.63
538.59	39363.13
538.75	38595.43
538.92	39157.16
539.09	39651.02
539.26	39445.05
539.43	39477.82
539.60	39938.90
539.77	39681.44
539.94	39599.52
540.11	39517.60
540.28	39363.13
540.44	39775.06
540.61	39672.08
540.78	39842.94
540.95	39496.54
541.12	40133.17
541.29	39737.62
541.46	39866.34
541.62	40074.65
541.79	40517.01
541.96	39924.86
542.13	39805.49
542.30	40477.22
542.47	40470.20
542.63	40683.19
542.80	40495.95
542.97	40149.55
543.14	40835.33
543.31	40854.05
543.48	40985.12
543.64	41195.77
543.81	41069.38
543.98	40947.67
544.15	40804.90
544.32	41148.96
544.48	41205.13
544.65	40715.96
544.82	41434.50
544.99	40505.31
545.16	40444.46
545.32	40940.65
545.49	41528.13
545.66	41062.36
545.83	41530.47
546.00	41745.80
546.16	41858.14
546.33	40947.67
546.50	40704.26
546.67	41422.80
546.83	40779.15
547.00	41069.38
547.17	41392.37
547.34	41537.49
547.50	41766.86
547.67	42150.71
547.84	41411.10
548.00	42045.38
548.17	42038.36
548.34	41652.17
548.51	41780.90
548.67	41930.70
548.84	42487.74
549.01	41759.84
549.18	41921.34
549.34	41841.76
549.51	42667.97
549.68	42209.22
549.84	42330.93
550.01	42476.04
550.18	41900.27
550.34	42223.26
550.51	41808.99
550.68	42267.73
550.84	42052.41
551.01	42780.31
551.18	41984.53
551.34	42178.79
551.51	42213.90
551.68	42653.92
551.84	42843.51
552.01	42328.59
552.18	42454.98
552.34	41977.51
552.51	42948.83
552.68	42719.46
552.84	42721.80
553.01	43014.37
553.18	42836.48
553.34	42979.26
553.51	42534.56
553.67	42431.57
553.84	42866.91
554.01	43313.95
554.17	43023.73
554.34	42925.42
554.51	43239.06
554.67	43414.60
554.84	43255.44
555.00	42946.49
555.17	42595.41
555.33	43489.49
555.50	42850.53
555.67	43103.31
555.83	43028.41
556.00	43412.26
556.16	43480.13
556.33	43360.76
556.50	43115.01
556.66	42972.24
556.83	43487.15
556.99	43447.36
557.16	43222.67
557.32	43454.39
557.49	44002.07
557.65	42995.64
557.82	43388.85
557.98	43548.01
558.15	43470.77
558.32	43863.98
558.48	43730.57
558.65	43613.54
558.81	43491.83
558.98	43906.11
559.14	43440.34
559.31	43100.97
559.47	43618.22
559.64	44004.41
559.80	44158.89
559.97	43702.48
560.13	43548.01
560.30	43826.53
560.46	43650.99
560.63	43707.16
560.79	44156.55
560.96	43763.34
561.12	43768.02
561.29	43800.79
561.45	43955.26
561.61	43903.77
561.78	44252.51
561.94	43426.30
562.11	44250.17
562.27	43899.09
562.44	44044.20
562.60	44243.15
562.77	44222.08
562.93	44222.08
563.10	44737.00
563.26	43739.93
563.42	44069.95
563.59	44383.58
563.75	43880.36
563.92	44507.63
564.08	44320.38
564.24	44414.01
564.41	44037.18
564.57	43817.17
564.74	44491.24
564.90	43990.37
565.07	44161.23
565.23	44142.50
565.39	44392.94
565.56	44568.48
565.72	44259.53
565.88	43889.73
566.05	44233.78
566.21	44060.58
566.38	44027.82
566.54	44336.77
566.70	44605.93
566.87	44556.78
567.03	44472.52
567.19	44575.50
567.36	44708.91
567.52	44629.34
567.68	44601.25
567.85	44163.57
568.01	44336.77
568.17	44091.01
568.34	44346.13
568.50	44011.43
568.66	44484.22
568.83	44662.10
568.99	44282.94
569.15	44168.25
569.32	44399.96
569.48	44306.34
569.64	44692.53
569.81	44753.38
569.97	44208.04
570.13	44346.13
570.30	44055.90
570.46	43985.69
570.62	44456.14
570.78	44392.94
570.95	44526.35
571.11	44942.97
571.27	44612.95
571.43	44343.79
571.60	44935.95
571.76	44320.38
571.92	44168.25
572.09	44549.76
572.25	44697.21
572.41	44318.04
572.57	44928.92
572.74	44790.83
572.90	44692.53
573.06	44439.75
573.22	44781.47
573.38	44388.26
573.55	44568.48
573.71	44753.38
573.87	44889.13
574.03	44289.96
574.20	44589.55
574.36	44767.43
574.52	45071.70
574.68	44795.51
574.84	45141.91
575.01	44617.63
575.17	44790.83
575.33	44589.55
575.49	44325.07
575.65	44781.47
575.82	45027.23
575.98	45003.82
576.14	45326.81
576.30	44921.90
576.46	44465.50
576.62	44648.06
576.79	44208.04
576.95	44648.06
577.11	44811.90
577.27	44800.19
577.43	45102.12
577.59	44418.69
577.75	44968.71
577.92	44861.05
578.08	44311.02
578.24	44662.10
578.40	45017.86
578.56	44861.05
578.72	44968.71
578.88	44996.80
579.04	44671.46
579.21	44786.15
579.37	44882.11
579.53	44886.79
579.69	44563.80
579.85	44779.13
580.01	44856.37
580.17	44837.64
580.33	45144.25
580.49	44978.07
580.65	45319.79
580.82	44994.46
580.98	45013.18
581.14	44641.04
581.30	45242.56
581.46	44982.76
581.62	45212.13
581.78	44753.38
581.94	45340.86
582.10	44994.46
582.26	44797.85
582.42	44844.66
582.58	44933.60
582.74	44964.03
582.90	45013.18
583.06	45181.70
583.22	45134.89
583.38	45193.40
583.54	44765.09
583.70	44788.49
583.86	44666.78
584.02	44793.17
584.18	44683.17
584.34	44891.48
584.50	44996.80
584.66	44678.49
584.82	44788.49
584.98	45214.47
585.14	45081.06
585.30	44744.02
585.46	44919.56
585.62	44659.76
585.78	44622.31
585.94	44552.10
586.10	44556.78
586.26	45092.76
586.42	44751.04
586.58	45104.46
586.74	44868.07
586.90	44814.24
587.06	44949.99
587.22	45329.16
587.38	44502.95
587.54	45209.79
587.70	44835.30
587.86	45476.61
588.02	44690.19
588.18	45244.90
588.34	44889.13
588.49	44589.55
588.65	44624.65
588.81	44392.94
588.97	44737.00
589.13	44685.51
589.29	45155.96
589.45	44952.33
589.61	45275.32
589.77	45319.79
589.93	45287.03
590.08	45270.64
590.24	44966.37
