SpectraSuite Data File
++++++++++++++++++++++++++++++++++++
Date: Fri Oct 25 11:25:14 EDT 2013
User: price-jones
Dark Spectrum Present: No
Reference Spectrum Present: No
Number of Sampled Component Spectra: 1
Spectrometers: USB2+H05261
Integration Time (usec): 100000 (USB2+H05261)
Spectra Averaged: 1 (USB2+H05261)
Boxcar Smoothing: 0 (USB2+H05261)
Correct for Electrical Dark: No (USB2+H05261)
Strobe/Lamp Enabled: No (USB2+H05261)
Correct for Detector Non-linearity: No (USB2+H05261)
Correct for Stray Light: No (USB2+H05261)
Number of Pixels in Processed Spectrum: 2048
>>>>>Begin Processed Spectral Data<<<<<
365.73	250.44
365.92	250.44
366.12	250.44
366.32	184.90
366.52	224.69
366.72	212.99
366.91	117.03
367.11	147.45
367.31	105.32
367.51	166.18
367.70	117.03
367.90	177.88
368.10	79.58
368.30	163.84
368.49	84.26
368.69	163.84
368.89	194.26
369.09	161.50
369.28	133.41
369.48	145.11
369.68	194.26
369.87	245.76
370.07	191.92
370.27	208.31
370.47	313.63
370.66	587.47
370.86	645.99
371.06	667.05
371.25	676.41
371.45	683.44
371.65	631.94
371.84	629.60
372.04	669.39
372.24	660.03
372.44	711.52
372.63	763.01
372.83	720.88
373.03	784.08
373.22	819.19
373.42	784.08
373.62	695.14
373.81	781.74
374.01	760.67
374.21	903.45
374.40	753.65
374.60	807.48
374.79	847.27
374.99	760.67
375.19	873.02
375.38	758.33
375.58	805.14
375.78	908.13
375.97	922.17
376.17	849.61
376.37	873.02
376.56	851.96
376.76	821.53
376.95	844.93
377.15	891.74
377.35	959.62
377.54	840.25
377.74	873.02
377.93	868.34
378.13	894.08
378.33	959.62
378.52	933.87
378.72	959.62
378.91	966.64
379.11	931.53
379.31	917.49
379.50	997.07
379.70	1046.22
379.89	1032.18
380.09	971.32
380.28	908.13
380.48	1025.15
380.68	1025.15
380.87	971.32
381.07	976.00
381.26	1081.33
381.46	985.37
381.65	1034.52
381.85	1022.81
382.04	968.98
382.24	1057.92
382.43	1013.45
382.63	1032.18
382.83	1151.54
383.02	1057.92
383.22	1165.59
383.41	1158.57
383.61	1130.48
383.80	1146.86
384.00	1088.35
384.19	1165.59
384.39	1233.46
384.58	1064.94
384.78	1135.16
384.97	1081.33
385.17	1114.10
385.36	1142.18
385.56	1179.63
385.75	1198.35
385.95	1203.04
386.14	1221.76
386.34	1139.84
386.53	1137.50
386.72	1179.63
386.92	1259.21
387.11	1217.08
387.31	1186.65
387.50	1245.16
387.70	1165.59
387.89	1242.82
388.09	1329.42
388.28	1306.02
388.48	1364.53
388.67	1270.91
388.86	1287.29
389.06	1315.38
389.25	1313.04
389.45	1409.00
389.64	1310.70
389.84	1362.19
390.03	1418.36
390.22	1331.76
390.42	1341.13
390.61	1308.36
390.81	1299.00
391.00	1383.26
391.19	1488.58
391.39	1483.90
391.58	1409.00
391.78	1341.13
391.97	1497.94
392.16	1523.69
392.36	1514.33
392.55	1593.90
392.75	1526.03
392.94	1535.39
393.13	1434.75
393.33	1465.18
393.52	1533.05
393.71	1596.25
393.91	1593.90
394.10	1540.07
394.29	1617.31
394.49	1535.39
394.68	1668.80
394.88	1645.40
395.07	1715.61
395.26	1584.54
395.46	1640.72
395.65	1682.85
395.84	1710.93
396.04	1729.66
396.23	1694.55
396.42	1774.13
396.62	1853.70
396.81	1739.02
397.00	1685.19
397.19	1638.38
397.39	1816.26
397.58	1771.79
397.77	1820.94
397.97	1881.79
398.16	1804.55
398.35	1870.09
398.55	1856.04
398.74	1956.69
398.93	1987.11
399.12	1820.94
399.32	1968.39
399.51	2015.20
399.70	1895.83
399.90	1977.75
400.09	1947.33
400.28	2050.31
400.47	1952.01
400.67	2111.16
400.86	2008.18
401.05	2001.16
401.24	2094.78
401.44	2125.21
401.63	2052.65
401.82	2022.22
402.01	2148.61
402.21	2150.95
402.40	2143.93
402.59	2094.78
402.78	2296.07
402.97	2284.36
403.17	2193.08
403.36	2223.51
403.55	2239.89
403.74	2389.69
403.93	2338.20
404.13	2354.58
404.32	2296.07
404.51	2314.79
404.70	2335.85
404.89	2487.99
405.09	2513.74
405.28	2431.82
405.47	2401.39
405.66	2495.01
405.85	2614.38
406.05	2548.84
406.24	2518.42
406.43	2422.45
406.62	2579.27
406.81	2670.55
407.00	2614.38
407.20	2555.86
407.39	2679.91
407.58	2644.81
407.77	2689.28
407.96	2729.06
408.15	2722.04
408.34	2682.25
408.54	2775.88
408.73	2785.24
408.92	2731.41
409.11	2822.69
409.30	2696.30
409.49	2867.16
409.68	2967.80
409.87	2885.88
410.07	2970.14
410.26	2974.82
410.45	3087.17
410.64	3038.02
410.83	2963.12
411.02	3159.72
411.21	3171.43
411.40	3077.80
411.59	3152.70
411.78	3325.90
411.98	3056.74
412.17	3253.34
412.36	3124.62
412.55	3281.43
412.74	3424.20
412.93	3365.69
413.12	3386.76
413.31	3559.95
413.50	3391.44
413.69	3463.99
413.88	3496.76
414.07	3611.45
414.26	3581.02
414.45	3578.68
414.64	3674.64
414.83	3737.84
415.02	3777.62
415.22	3805.71
415.41	3819.75
415.60	3754.22
415.79	3847.84
415.98	3791.67
416.17	3906.35
416.36	3885.29
416.55	3801.03
416.74	3847.84
416.93	4140.41
417.12	4021.04
417.31	4152.11
417.50	4196.58
417.69	4348.72
417.88	4348.72
418.07	4046.79
418.26	4299.56
418.45	4269.14
418.64	4367.44
418.83	4250.41
419.02	4376.80
419.21	4475.10
419.39	4400.21
419.58	4409.57
419.77	4297.22
419.96	4580.43
420.15	4573.41
420.34	4711.50
420.53	4407.23
420.72	4617.88
420.91	4645.96
421.10	4676.39
421.29	4695.11
421.48	4589.79
421.67	4643.62
421.86	4744.27
422.05	4601.49
422.24	4882.36
422.43	4882.36
422.61	4786.40
422.80	4919.81
422.99	4924.49
423.18	4896.40
423.37	5078.96
423.56	5057.90
423.75	4915.12
423.94	4858.95
424.13	4531.28
424.32	4798.10
424.50	4957.25
424.69	4896.40
424.88	5004.07
425.07	4814.48
425.26	4933.85
425.45	4908.10
425.64	4882.36
425.83	4947.89
426.01	5036.83
426.20	4975.98
426.39	5036.83
426.58	4959.60
426.77	5074.28
426.96	5034.49
427.15	5165.56
427.33	5081.30
427.52	5090.67
427.71	5210.03
427.90	5034.49
428.09	5200.67
428.28	5441.75
428.46	5359.83
428.65	5221.74
428.84	5371.53
429.03	5514.30
429.22	5270.89
429.40	5376.21
429.59	5313.02
429.78	5048.54
429.97	5083.64
430.16	5439.40
430.34	5565.79
430.53	5685.16
430.72	5488.56
430.91	5547.07
431.10	5551.75
431.28	5654.73
431.47	5827.93
431.66	5748.36
431.85	5556.43
432.03	5980.07
432.22	5914.53
432.41	5935.60
432.60	5825.59
432.79	6031.56
432.97	6050.28
433.16	5963.68
433.35	5968.37
433.54	6143.91
433.72	6057.31
433.91	6092.41
434.10	5973.05
434.28	5937.94
434.47	6115.82
434.66	6171.99
434.85	6228.17
435.03	6216.46
435.22	6211.78
435.41	6445.84
435.59	6382.64
435.78	6342.85
435.97	6335.83
436.16	6403.71
436.34	6352.21
436.53	6490.31
436.72	6588.61
436.90	6537.12
437.09	6621.38
437.28	6457.54
437.46	6537.12
437.65	6628.40
437.84	6513.71
438.02	6609.67
438.21	6787.55
438.40	6623.72
438.58	6925.65
438.77	6808.62
438.96	6981.82
439.14	7239.28
439.33	7056.72
439.52	6951.39
439.70	7227.57
439.89	7307.15
440.08	7290.77
440.26	7192.47
440.45	7262.68
440.63	7520.14
440.82	7698.02
441.01	7300.13
441.19	7691.00
441.38	7618.44
441.57	7632.49
441.75	7716.75
441.94	7875.90
442.12	7971.86
442.31	7901.65
442.50	7997.61
442.68	7997.61
442.87	7932.08
443.05	8079.53
443.24	8149.75
443.43	8051.44
443.61	8056.12
443.80	8149.75
443.98	7962.50
444.17	7751.85
444.35	8175.49
444.54	8465.72
444.73	8273.79
444.91	8315.92
445.10	8126.34
445.28	8168.47
445.47	8081.87
445.65	8224.64
445.84	8311.24
446.02	8297.20
446.21	8514.87
446.39	8432.95
446.58	8465.72
446.77	8383.80
446.95	8234.00
447.14	8416.57
447.32	8262.09
447.51	8435.29
447.69	8334.65
447.88	8390.82
448.06	8348.69
448.25	8542.96
448.43	8493.80
448.62	8545.30
448.80	8332.31
448.99	8510.19
449.17	8538.27
449.36	8697.43
449.54	8793.39
449.73	9020.42
449.91	9062.55
450.10	8954.89
450.28	8915.10
450.46	9057.87
450.65	9027.45
450.83	8922.12
451.02	9015.74
451.20	9116.39
451.39	9025.11
451.57	9041.49
451.76	8952.55
451.94	9205.33
452.13	9291.93
452.31	9259.16
452.49	9202.99
452.68	9247.46
452.86	9228.73
453.05	9549.39
453.23	9308.31
453.42	9408.95
453.60	9387.89
453.78	9488.53
453.97	9348.10
454.15	9392.57
454.34	9535.34
454.52	9544.70
454.70	9437.04
454.89	9607.90
455.07	9692.16
455.26	9701.52
455.44	9607.90
455.62	9675.77
455.81	9769.40
455.99	9848.97
456.17	9966.00
456.36	10059.62
456.54	10099.41
456.73	10139.20
456.91	10298.36
457.09	10436.45
457.28	10527.73
457.46	10181.33
457.64	10403.68
457.83	10523.05
458.01	10396.66
458.19	10740.72
458.38	10438.79
458.56	10473.90
458.74	10581.56
458.93	10466.88
459.11	10513.69
459.29	10590.92
459.48	10888.17
459.66	10719.65
459.84	10611.99
460.03	11115.20
460.21	10738.38
460.39	10799.23
460.57	10967.75
460.76	11042.65
460.94	11145.63
461.12	11030.94
461.31	11192.44
461.49	11005.20
461.67	10892.85
461.85	11438.20
462.04	11103.50
462.22	11819.71
462.40	11473.31
462.59	11613.74
462.77	11492.03
462.95	11492.03
463.13	11571.61
463.32	11662.89
463.50	11709.70
463.68	11576.29
463.86	11683.95
464.05	11583.31
464.23	11630.12
464.41	11630.12
464.59	11562.25
464.78	12105.25
464.96	11885.24
465.14	11630.12
465.32	11955.46
465.50	11981.20
465.69	12292.49
465.87	12035.03
466.05	12032.69
466.23	11922.69
466.41	11939.07
466.60	12304.20
466.78	12154.40
466.96	12030.35
467.14	12210.57
467.32	12482.08
467.51	12575.70
467.69	12138.02
467.87	12435.27
468.05	12503.14
468.23	12339.30
468.41	12355.69
468.60	12451.65
468.78	12493.78
468.96	12381.43
469.14	12643.57
469.32	12865.92
469.50	12465.69
469.69	13027.42
469.87	12973.59
470.05	12929.12
470.23	13186.58
470.41	13011.04
470.59	13163.17
470.77	13158.49
470.95	12985.29
471.14	13193.60
471.32	13015.72
471.50	13514.25
471.68	13383.18
471.86	13315.31
472.04	13729.58
472.22	13998.74
472.40	13542.34
472.58	13781.07
472.77	14012.79
472.95	13958.96
473.13	14403.66
473.31	14193.01
473.49	14211.73
473.67	13963.64
473.85	14352.16
474.03	14424.72
474.21	14604.94
474.39	14576.86
474.57	14675.16
474.75	14778.14
474.93	14899.85
475.12	14586.22
475.30	14794.53
475.48	14766.44
475.66	15145.61
475.84	14705.59
476.02	15330.51
476.20	15276.68
476.38	15559.88
476.56	15920.32
476.74	15873.51
476.92	15550.52
477.10	15452.22
477.28	15726.06
477.46	16187.14
477.64	16262.04
477.82	16350.98
478.00	16734.83
478.18	16734.83
478.36	16695.04
478.54	16716.11
478.72	17053.14
478.90	17165.49
479.08	17497.84
479.26	17474.44
479.44	17387.84
479.62	17539.97
479.80	17764.67
479.98	17848.93
480.16	18424.70
480.34	18022.12
480.52	18473.85
480.70	17965.95
480.88	18347.46
481.06	18698.54
481.24	18745.35
481.41	18946.64
481.59	19309.42
481.77	19522.41
481.95	19161.97
482.13	19639.44
482.31	19517.73
482.49	20018.60
482.67	19964.77
482.85	20320.53
483.03	20641.18
483.21	20713.74
483.39	20680.97
483.57	20683.31
483.74	20685.65
483.92	21172.49
484.10	21231.00
484.28	21219.30
484.46	22068.91
484.64	22190.62
484.82	21940.18
485.00	22115.72
485.18	22459.78
485.35	22614.26
485.53	22546.38
485.71	22813.20
485.89	23152.58
486.07	23096.41
486.25	23166.62
486.43	23417.06
486.61	23800.91
486.78	24067.73
486.96	23690.90
487.14	24369.66
487.32	23974.11
487.50	24662.22
487.68	24706.70
487.85	24826.06
488.03	25259.06
488.21	25563.33
488.39	25621.84
488.57	25802.07
488.75	25738.87
488.92	26581.46
489.10	26647.00
489.28	26532.31
489.46	26764.03
489.64	26677.43
489.81	27070.64
489.99	27339.80
490.17	27681.52
490.35	27693.22
490.53	28318.14
490.70	28180.05
490.88	27950.68
491.06	28610.71
491.24	28292.40
491.41	28758.16
491.59	28872.85
491.77	29067.11
491.95	29149.03
492.13	29394.79
492.30	29663.95
492.48	29783.32
492.66	30185.89
492.84	29851.19
493.01	30323.98
493.19	30356.75
493.37	30747.62
493.54	30710.17
493.72	31314.03
493.90	31339.77
494.08	31442.76
494.25	31828.95
494.43	31723.62
494.61	31985.76
494.79	32510.04
494.96	32004.49
495.14	32708.99
495.32	32954.74
495.49	32830.69
495.67	32788.56
495.85	32847.08
496.02	33462.64
496.20	33867.55
496.38	33565.62
496.55	34043.09
496.73	34504.18
496.91	34029.05
497.09	34401.19
497.26	34712.49
497.44	34771.00
497.62	34836.53
497.79	35311.66
497.97	34686.74
498.14	35557.42
498.32	36060.63
498.50	35805.52
498.67	36140.21
498.85	36172.98
499.03	36205.75
499.20	36510.02
499.38	36760.45
499.56	37046.00
499.73	36711.30
499.91	36825.99
500.08	36954.72
500.26	37130.26
500.44	37322.18
500.61	37659.22
500.79	37408.78
500.97	37874.55
501.14	38045.41
501.32	37804.33
501.49	38534.58
501.67	38319.25
501.84	38738.21
502.02	38550.96
502.20	38546.28
502.37	38756.93
502.55	39021.41
502.72	39019.07
502.90	39138.44
503.07	39168.87
503.25	39887.41
503.43	39463.77
503.60	39976.35
503.78	39751.66
503.95	39894.43
504.13	40392.97
504.30	40194.02
504.48	40343.81
504.65	40369.56
504.83	40884.48
505.01	41006.19
505.18	40779.15
505.36	41549.19
505.53	40914.90
505.71	41104.49
505.88	41635.79
506.06	40491.27
506.23	41354.93
506.41	41308.11
506.58	41720.05
506.76	41720.05
506.93	42293.48
507.11	41869.84
507.28	42171.77
507.46	42583.71
507.63	42616.47
507.81	43021.39
507.98	42244.33
508.16	42644.56
508.33	42986.28
508.50	43262.46
508.68	43002.66
508.85	43290.55
509.03	43386.51
509.20	43498.86
509.38	44119.10
509.55	44549.76
509.73	43885.04
509.90	44938.29
510.08	43789.08
510.25	44385.92
510.42	44659.76
510.60	44442.09
510.77	44666.78
510.95	45240.21
511.12	44636.36
511.30	45153.62
511.47	45216.81
511.64	44999.14
511.82	45450.86
511.99	45102.12
512.17	45354.90
512.34	45713.00
512.51	46007.91
512.69	46014.93
512.86	45532.78
513.04	46373.03
513.21	46007.91
513.38	46356.65
513.56	47068.17
513.73	46377.72
513.90	46611.77
514.08	46485.38
514.25	46995.62
514.43	46951.15
514.60	47075.19
514.77	46993.28
514.95	47327.97
515.12	47288.18
515.29	47075.19
515.47	47613.52
515.64	48006.73
515.81	47496.49
515.99	47859.27
516.16	48222.06
516.33	48112.05
516.51	48458.45
516.68	48549.73
516.85	48163.54
517.03	48376.53
517.20	48589.52
517.37	48421.00
517.54	48500.58
517.72	48692.50
517.89	48992.09
518.06	48678.46
518.24	48996.77
518.41	49167.63
518.58	49111.46
518.75	48811.87
518.93	49209.76
519.10	49319.77
519.27	49265.94
519.45	49322.11
519.62	49720.00
519.79	49546.80
519.96	49375.94
520.14	49965.76
520.31	49729.36
520.48	50050.02
520.65	49949.37
520.83	50216.19
521.00	50499.40
521.17	50295.77
521.34	50284.07
521.52	50454.93
521.69	50127.25
521.86	50827.07
522.03	50670.26
522.20	50908.99
522.38	51463.70
522.55	50859.84
522.72	50981.55
522.89	51084.53
523.07	51243.69
523.24	51129.00
523.41	51487.10
523.58	51421.57
523.75	51810.10
523.92	51402.85
524.10	51704.77
524.27	51920.10
524.44	51599.45
524.61	51880.31
524.78	51913.08
524.96	52027.77
525.13	51929.47
525.30	52013.73
525.47	52053.51
525.64	52186.92
525.81	52442.04
525.98	52397.57
526.16	52278.21
526.33	52563.75
526.50	52425.66
526.67	52294.59
526.84	52437.36
527.01	52645.67
527.18	52690.14
527.36	52310.97
527.53	52706.52
527.70	53102.07
527.87	53244.85
528.04	52889.09
528.21	53078.67
528.38	53017.82
528.55	53282.30
528.72	53191.01
528.89	53076.33
529.07	53237.83
529.24	53109.10
529.41	53675.51
529.58	53411.02
529.75	53506.99
529.92	53745.72
530.09	53752.74
530.26	53443.79
530.43	53727.00
530.60	53649.76
530.77	53640.40
530.94	53993.82
531.11	53703.59
531.28	53890.83
531.46	53860.41
531.63	53869.77
531.80	53914.24
531.97	54410.43
532.14	54363.62
532.31	54295.75
532.48	54192.76
532.65	54262.98
532.82	54267.66
532.99	54501.71
533.16	54225.53
533.33	54525.12
533.50	54693.64
533.67	54593.00
533.84	54490.01
534.01	54656.19
534.18	54663.21
534.35	54831.73
534.52	54665.55
534.69	54670.23
534.86	55051.74
535.03	54639.81
535.20	54892.58
535.37	55009.61
535.54	55131.32
535.71	54939.39
535.88	55175.79
536.05	55089.19
536.22	55384.10
536.38	55484.74
536.55	55131.32
536.72	55393.46
536.89	55112.59
537.06	55599.43
537.23	55594.74
537.40	55508.14
537.57	55435.59
537.74	55686.03
537.91	55786.67
538.08	55767.94
538.25	55496.44
538.42	55468.36
538.59	55760.92
538.75	55664.96
538.92	55842.84
539.09	55934.12
539.26	55753.90
539.43	55934.12
539.60	55976.25
539.77	55917.74
539.94	55725.81
540.11	56231.37
540.28	56093.28
540.44	55952.85
540.61	56083.92
540.78	56427.98
540.95	56371.80
541.12	55927.10
541.29	56229.03
541.46	56310.95
541.62	56315.63
541.79	56542.66
541.96	56266.48
542.13	56334.35
542.30	56425.64
542.47	56753.31
542.63	56671.39
542.80	56577.77
542.97	56816.50
543.14	56868.00
543.31	57015.45
543.48	57027.15
543.64	57286.95
543.81	57205.03
543.98	57029.49
544.15	57144.18
544.32	57378.23
544.48	57394.62
544.65	57202.69
544.82	57338.44
544.99	57113.75
545.16	57083.33
545.32	57251.84
545.49	57289.29
545.66	57490.58
545.83	57331.42
546.00	57396.96
546.16	57408.66
546.33	57261.21
546.50	57265.89
546.67	57602.92
546.83	57109.07
547.00	57595.90
547.17	57490.58
547.34	57588.88
547.50	57703.57
547.67	57879.11
547.84	57668.46
548.00	57956.35
548.17	58003.16
548.34	57794.85
548.51	57890.81
548.67	58028.90
548.84	57965.71
549.01	57726.97
549.18	57846.34
549.34	58012.52
549.51	58134.23
549.68	58131.89
549.84	58124.86
550.01	58188.06
550.18	58045.29
550.34	58237.21
550.51	58307.43
550.68	58192.74
550.84	58064.01
551.01	58417.43
551.18	58176.36
551.34	58387.00
551.51	58412.75
551.68	58260.62
551.84	58461.90
552.01	58087.42
552.18	58269.98
552.34	58115.50
552.51	58536.80
552.68	58120.18
552.84	58639.78
553.01	58735.74
553.18	58546.16
553.34	58564.88
553.51	58632.76
553.67	58609.35
553.84	58623.40
554.01	58635.10
554.17	58791.92
554.34	58726.38
554.51	58705.32
554.67	58829.37
554.84	58995.54
555.00	58656.17
555.17	58674.89
555.33	58843.41
555.50	58571.91
555.67	58831.71
555.83	59110.23
556.00	58988.52
556.16	59009.59
556.33	59138.32
556.50	58955.75
556.66	59157.04
556.83	58930.01
556.99	59182.79
557.16	59241.30
557.32	59309.18
557.49	59318.54
557.65	59117.25
557.82	59171.08
557.98	59065.76
558.15	59063.42
558.32	59185.13
558.48	59192.15
558.65	59253.00
558.81	59206.19
558.98	59196.83
559.14	59428.54
559.31	59285.77
559.47	59442.59
559.64	59664.94
559.80	59374.71
559.97	59625.15
560.13	59503.44
560.30	59306.83
560.46	59590.04
560.63	59552.59
560.79	59657.91
560.96	59695.36
561.12	59515.14
561.29	59625.15
561.45	59550.25
561.61	59608.76
561.78	59597.06
561.94	59442.59
562.11	59477.69
562.27	59697.70
562.44	59763.24
562.60	59770.26
562.77	59854.52
562.93	59655.57
563.10	59877.93
563.26	59763.24
563.42	60044.10
563.59	59718.77
563.75	59891.97
563.92	59765.58
564.08	59587.70
564.24	59962.18
564.41	59913.03
564.57	59896.65
564.74	59934.10
564.90	59903.67
565.07	59990.27
565.23	59943.46
565.39	59913.03
565.56	59913.03
565.72	60109.64
565.88	59898.99
566.05	60065.17
566.21	59962.18
566.38	60090.91
566.54	60048.78
566.70	60097.94
566.87	60238.37
567.03	59901.33
567.19	60247.73
567.36	60048.78
567.52	60278.16
567.68	60219.64
567.85	60229.01
568.01	60182.19
568.17	60121.34
568.34	60051.12
568.50	60329.65
568.66	60254.75
568.83	60289.86
568.99	60236.03
569.15	60165.81
569.32	60023.04
569.48	60191.56
569.64	60247.73
569.81	60521.57
569.97	60116.66
570.13	60402.21
570.30	60076.87
570.46	60177.51
570.62	60203.26
570.78	60088.57
570.95	60135.38
571.11	60287.52
571.27	60334.33
571.43	60317.95
571.60	60329.65
571.76	60278.16
571.92	60474.76
572.09	60329.65
572.25	60271.14
572.41	60446.68
572.57	60493.49
572.74	60603.49
572.90	60353.05
573.06	60388.16
573.22	60418.59
573.38	60360.08
573.55	60381.14
573.71	60299.22
573.87	60514.55
574.03	60310.92
574.20	60512.21
574.36	60236.03
574.52	60500.51
574.68	60671.37
574.84	60526.25
575.01	60687.75
575.17	60416.25
575.33	60477.10
575.49	60301.56
575.65	60404.55
575.82	60605.83
575.98	60559.02
576.14	60823.50
576.30	60654.98
576.46	60638.60
576.62	60537.96
576.79	60676.05
576.95	60339.01
577.11	60526.25
577.27	60640.94
577.43	60598.81
577.59	60381.14
577.75	60516.89
577.92	60512.21
578.08	60779.03
578.24	60603.49
578.40	60694.77
578.56	60844.57
578.72	60584.77
578.88	60706.47
579.04	60874.99
579.21	60615.19
579.37	60807.12
579.53	60814.14
579.69	60596.47
579.85	60650.30
580.01	60552.00
580.17	60563.70
580.33	60713.50
580.49	60739.24
580.65	60654.98
580.82	60764.99
580.98	60631.58
581.14	60570.72
581.30	60921.80
581.46	60760.31
581.62	60956.91
581.78	60828.18
581.94	60809.46
582.10	60711.16
582.26	60666.69
582.42	60687.75
582.58	60699.45
582.74	60629.24
582.90	60823.50
583.06	60732.22
583.22	60547.32
583.38	60750.94
583.54	60687.75
583.70	60793.07
583.86	60996.70
584.02	60654.98
584.18	60931.17
584.34	60685.41
584.50	60528.59
584.66	60715.84
584.82	60678.39
584.98	60931.17
585.14	60830.52
585.30	60676.05
585.46	60914.78
585.62	60676.05
585.78	61139.47
585.94	60563.70
586.10	60844.57
586.26	60673.71
586.42	60910.10
586.58	60952.23
586.74	60718.18
586.90	60760.31
587.06	61097.34
587.22	60788.39
587.38	60767.33
587.54	60921.80
587.70	60933.51
587.86	60907.76
588.02	60774.35
588.18	60928.83
588.34	60786.05
588.49	60680.73
