SpectraSuite Data File
++++++++++++++++++++++++++++++++++++
Date: Fri Oct 25 11:23:04 EDT 2013
User: price-jones
Dark Spectrum Present: No
Reference Spectrum Present: No
Number of Sampled Component Spectra: 1
Spectrometers: USB2+H05261
Integration Time (usec): 100000 (USB2+H05261)
Spectra Averaged: 1 (USB2+H05261)
Boxcar Smoothing: 0 (USB2+H05261)
Correct for Electrical Dark: No (USB2+H05261)
Strobe/Lamp Enabled: No (USB2+H05261)
Correct for Detector Non-linearity: No (USB2+H05261)
Correct for Stray Light: No (USB2+H05261)
Number of Pixels in Processed Spectrum: 2048
>>>>>Begin Processed Spectral Data<<<<<
365.73	224.69
365.92	224.69
366.12	224.69
366.32	142.77
366.52	117.03
366.72	138.09
366.91	91.28
367.11	220.01
367.31	124.05
367.51	149.79
367.70	182.56
367.90	117.03
368.10	100.64
368.30	124.05
368.49	100.64
368.69	147.45
368.89	184.90
369.09	234.05
369.28	156.82
369.48	159.16
369.68	229.37
369.87	255.12
370.07	159.16
370.27	245.76
370.47	294.91
370.66	575.77
370.86	585.13
371.06	650.67
371.25	627.26
371.45	688.12
371.65	664.71
371.84	720.88
372.04	662.37
372.24	627.26
372.44	711.52
372.63	795.78
372.83	723.23
373.03	755.99
373.22	739.61
373.42	828.55
373.62	671.73
373.81	819.19
374.01	856.64
374.21	833.23
374.40	863.66
374.60	840.25
374.79	821.53
374.99	758.33
375.19	795.78
375.38	863.66
375.58	826.21
375.78	880.04
375.97	816.85
376.17	919.83
376.37	875.36
376.56	858.98
376.76	753.65
376.95	833.23
377.15	877.70
377.35	947.92
377.54	898.77
377.74	985.37
377.93	929.19
378.13	990.05
378.33	875.36
378.52	945.58
378.72	919.83
378.91	905.79
379.11	945.58
379.31	950.26
379.50	966.64
379.70	1053.24
379.89	954.94
380.09	931.53
380.28	933.87
380.48	978.34
380.68	985.37
380.87	973.66
381.07	1062.60
381.26	957.28
381.46	973.66
381.65	1041.54
381.85	1081.33
382.04	1097.71
382.24	1008.77
382.43	1083.67
382.63	973.66
382.83	1036.86
383.02	1146.86
383.22	1144.52
383.41	1083.67
383.61	1057.92
383.80	1118.78
384.00	1104.73
384.19	1083.67
384.39	1184.31
384.58	1186.65
384.78	1142.18
384.97	1076.65
385.17	1097.71
385.36	1132.82
385.56	1135.16
385.75	1116.44
385.95	1238.14
386.14	1235.80
386.34	1207.72
386.53	1214.74
386.72	1228.78
386.92	1303.68
387.11	1308.36
387.31	1205.38
387.50	1170.27
387.70	1217.08
387.89	1291.98
388.09	1252.19
388.28	1329.42
388.48	1245.16
388.67	1259.21
388.86	1376.24
389.06	1308.36
389.25	1359.85
389.45	1359.85
389.64	1313.04
389.84	1324.74
390.03	1413.68
390.22	1404.32
390.42	1385.60
390.61	1401.98
390.81	1453.47
391.00	1378.58
391.19	1423.05
391.39	1504.96
391.58	1451.13
391.78	1519.01
391.97	1401.98
392.16	1387.94
392.36	1476.88
392.55	1584.54
392.75	1636.03
392.94	1479.22
393.13	1582.20
393.33	1619.65
393.52	1600.93
393.71	1638.38
393.91	1570.50
394.10	1497.94
394.29	1598.59
394.49	1584.54
394.68	1554.12
394.88	1614.97
395.07	1671.14
395.26	1675.82
395.46	1661.78
395.65	1661.78
395.84	1764.76
396.04	1746.04
396.23	1741.36
396.42	1743.70
396.62	1858.39
396.81	1799.87
397.00	1792.85
397.19	1760.08
397.39	1900.52
397.58	1877.11
397.77	1888.81
397.97	1966.05
398.16	1937.96
398.35	1891.15
398.55	1860.73
398.74	1813.92
398.93	1984.77
399.12	1970.73
399.32	1818.60
399.51	1907.54
399.70	1982.43
399.90	1942.64
400.09	2132.23
400.28	1998.82
400.47	2045.63
400.67	2071.37
400.86	2064.35
401.05	2076.06
401.24	2209.47
401.44	2120.53
401.63	2127.55
401.82	2111.16
402.01	2263.30
402.21	2179.04
402.40	2211.81
402.59	2232.87
402.78	2129.89
402.97	2289.04
403.17	2345.22
403.36	2310.11
403.55	2352.24
403.74	2265.64
403.93	2342.88
404.13	2424.80
404.32	2319.47
404.51	2499.69
404.70	2518.42
404.89	2410.75
405.09	2431.82
405.28	2459.90
405.47	2539.48
405.66	2649.49
405.85	2588.63
406.05	2459.90
406.24	2562.89
406.43	2595.65
406.62	2633.10
406.81	2628.42
407.00	2635.44
407.20	2572.25
407.39	2637.78
407.58	2719.70
407.77	2768.85
407.96	2754.81
408.15	2733.75
408.34	2736.09
408.54	2782.90
408.73	2801.62
408.92	2988.86
409.11	2867.16
409.30	2843.75
409.49	2963.12
409.68	2876.52
409.87	3080.14
410.07	2949.08
410.26	3023.97
410.45	3061.42
410.64	3005.25
410.83	3073.12
411.02	3059.08
411.21	3330.58
411.40	3096.53
411.59	3166.74
411.78	3262.71
411.98	3155.04
412.17	3213.56
412.36	3241.64
412.55	3318.88
412.74	3435.91
412.93	3412.50
413.12	3555.27
413.31	3646.55
413.50	3428.88
413.69	3564.64
413.88	3686.34
414.07	3709.75
414.26	3658.26
414.45	3672.30
414.64	3658.26
414.83	3808.05
415.02	3871.25
415.22	3843.16
415.41	3852.52
415.60	3967.21
415.79	3960.19
415.98	4117.00
416.17	4009.34
416.36	4126.36
416.55	4030.40
416.74	3995.29
416.93	4032.74
417.12	4234.03
417.31	4166.15
417.50	4353.40
417.69	4266.80
417.88	4339.35
418.07	4266.80
418.26	4454.04
418.45	4306.59
418.64	4512.55
418.83	4367.44
419.02	4559.36
419.21	4491.49
419.39	4425.95
419.58	4615.54
419.77	4472.76
419.96	4683.41
420.15	4737.24
420.34	4620.22
420.53	4699.80
420.72	4737.24
420.91	4765.33
421.10	4812.14
421.29	4882.36
421.48	4634.26
421.67	4896.40
421.86	4741.93
422.05	4706.82
422.24	4910.44
422.43	4947.89
422.61	5083.64
422.80	4926.83
422.99	5053.22
423.18	5015.77
423.37	5043.85
423.56	4915.12
423.75	4830.87
423.94	4978.32
424.13	4550.00
424.32	4741.93
424.50	5088.32
424.69	4983.00
424.88	5125.77
425.07	5057.90
425.26	4936.19
425.45	5055.56
425.64	5085.98
425.83	5011.09
426.01	4985.34
426.20	5050.88
426.39	4994.70
426.58	5057.90
426.77	5109.39
426.96	5090.67
427.15	5116.41
427.33	5247.48
427.52	5254.50
427.71	5397.28
427.90	5263.86
428.09	5366.85
428.28	5434.72
428.46	5437.06
428.65	5418.34
428.84	5584.52
429.03	5528.35
429.22	5397.28
429.40	5486.22
429.59	5537.71
429.78	5364.51
429.97	5277.91
430.16	5591.54
430.34	5636.01
430.53	5886.45
430.72	5743.67
430.91	5809.21
431.10	5497.92
431.28	5802.19
431.47	5837.30
431.66	5933.26
431.85	5970.71
432.03	6022.20
432.22	6001.13
432.41	5944.96
432.60	5900.49
432.79	6073.69
432.97	6026.88
433.16	5942.62
433.35	6050.28
433.54	6150.93
433.72	6314.77
433.91	6244.55
434.10	6310.08
434.28	6106.46
434.47	6296.04
434.66	6251.57
434.85	6366.26
435.03	6417.75
435.22	6356.90
435.41	6452.86
435.59	6665.85
435.78	6363.92
435.97	6534.78
436.16	6506.69
436.34	6384.98
436.53	6413.07
436.72	6612.01
436.90	6590.95
437.09	6633.08
437.28	6733.72
437.46	6750.10
437.65	6707.98
437.84	6757.13
438.02	6806.28
438.21	6832.02
438.40	6743.08
438.58	6979.48
438.77	7140.97
438.96	7014.59
439.14	7103.53
439.33	7166.72
439.52	7396.09
439.70	7307.15
439.89	7503.76
440.08	7468.65
440.26	7454.61
440.45	7588.02
440.63	7632.49
440.82	7564.61
441.01	7744.83
441.19	7623.12
441.38	7714.41
441.57	7880.58
441.75	7878.24
441.94	7885.26
442.12	7868.88
442.31	8156.77
442.50	8161.45
442.68	7960.16
442.87	8074.85
443.05	8112.30
443.24	8226.98
443.43	8147.40
443.61	8360.39
443.80	8465.72
443.98	8299.54
444.17	8037.40
444.35	8238.69
444.54	8596.79
444.73	8432.95
444.91	8362.73
445.10	8381.46
445.28	8461.04
445.47	8423.59
445.65	8292.52
445.84	8512.53
446.02	8624.87
446.21	8617.85
446.39	8678.71
446.58	8638.92
446.77	8540.61
446.95	8290.18
447.14	8589.77
447.32	8634.24
447.51	8444.65
447.69	8631.90
447.88	8720.84
448.06	8683.39
448.25	8615.51
448.43	8695.09
448.62	8664.66
448.80	8685.73
448.99	8753.60
449.17	8901.06
449.36	8769.99
449.54	8994.68
449.73	8795.73
449.91	8990.00
450.10	9109.36
450.28	9121.07
450.46	9036.81
450.65	8950.21
450.83	9069.58
451.02	9116.39
451.20	9460.45
451.39	9165.54
451.57	9294.27
451.76	9018.08
451.94	9226.39
452.13	9502.58
452.31	9472.15
452.49	9263.84
452.68	9607.90
452.86	9366.82
453.05	9603.22
453.23	9736.63
453.42	9366.82
453.60	9348.10
453.78	9748.33
453.97	9542.36
454.15	9605.56
454.34	9535.34
454.52	9528.32
454.70	9853.66
454.89	9884.08
455.07	9970.68
455.26	9853.66
455.44	10087.71
455.62	10064.30
455.81	10047.92
455.99	10143.88
456.17	10186.01
456.36	10298.36
456.54	10193.03
456.73	10597.95
456.91	10523.05
457.09	10532.41
457.28	10558.16
457.46	10476.24
457.64	10677.52
457.83	10633.05
458.01	10569.86
458.19	10881.15
458.38	10553.48
458.56	10881.15
458.74	10785.19
458.93	10736.04
459.11	10888.17
459.29	11005.20
459.48	10918.60
459.66	10876.47
459.84	11061.37
460.03	10995.84
460.21	11147.97
460.39	11061.37
460.57	11372.66
460.76	11192.44
460.94	11337.56
461.12	11410.11
461.31	11463.94
461.49	11527.14
461.67	11293.08
461.85	11524.80
462.04	11421.81
462.22	11925.03
462.40	11576.29
462.59	11580.97
462.77	11632.46
462.95	11716.72
463.13	11751.83
463.32	12039.72
463.50	11880.56
463.68	11906.31
463.86	11857.15
464.05	11566.93
464.23	11765.87
464.41	12088.87
464.59	11948.43
464.78	12430.59
464.96	12035.03
465.14	12138.02
465.32	12219.94
465.50	12390.80
465.69	12423.56
465.87	12325.26
466.05	12091.21
466.23	12355.69
466.41	12280.79
466.60	12800.39
466.78	12404.84
466.96	12362.71
467.14	12465.69
467.32	12510.16
467.51	12493.78
467.69	12299.52
467.87	12587.40
468.05	12910.40
468.23	12517.18
468.41	12683.36
468.60	12931.46
468.78	12877.63
468.96	12755.92
469.14	12844.86
469.32	13284.88
469.50	12671.66
469.69	13116.36
469.87	13221.69
470.05	13102.32
470.23	13214.66
470.41	13460.42
470.59	13376.16
470.77	13327.01
470.95	13287.22
471.14	13755.33
471.32	13392.55
471.50	13605.53
471.68	13736.60
471.86	13760.01
472.04	13678.09
472.22	13935.55
472.40	13818.52
472.58	13729.58
472.77	14097.05
472.95	14396.64
473.13	14480.89
473.31	14284.29
473.49	14363.87
473.67	14310.04
473.85	14401.32
474.03	14670.48
474.21	14691.54
474.39	14984.11
474.57	14848.36
474.75	15309.44
474.93	15026.24
475.12	15042.62
475.30	15213.48
475.48	15194.76
475.66	15529.45
475.84	15372.64
476.02	15728.40
476.20	15332.85
476.38	15847.77
476.56	15974.16
476.74	16086.50
476.92	16180.12
477.10	16039.69
477.28	16201.19
477.46	16430.56
477.64	16444.60
477.82	16704.40
478.00	16943.14
478.18	16994.63
478.36	17434.65
478.54	17511.89
478.72	17551.68
478.90	17575.08
479.08	17649.98
479.26	17996.38
479.44	17923.82
479.62	18185.96
479.80	18108.72
479.98	18326.39
480.16	18750.03
480.34	18644.71
480.52	18759.39
480.70	18794.50
480.88	18640.03
481.06	19012.17
481.24	19290.70
481.41	19445.17
481.59	19590.28
481.77	19655.82
481.95	19667.52
482.13	19946.05
482.31	19751.78
482.49	20369.68
482.67	20332.23
482.85	20587.35
483.03	20753.53
483.21	20978.22
483.39	20905.66
483.57	21020.35
483.74	21422.92
483.92	21862.94
484.10	21490.80
484.28	21832.52
484.46	22108.70
484.64	22689.15
484.82	22190.62
485.00	22293.60
485.18	22993.42
485.35	23122.15
485.53	23171.30
485.71	23623.03
485.89	23828.99
486.07	23658.14
486.25	23915.59
486.43	23946.02
486.61	23997.51
486.78	24208.16
486.96	24554.56
487.14	25006.28
487.32	24854.15
487.50	25209.91
487.68	25174.80
487.85	25572.69
488.03	25898.03
488.21	26249.11
488.39	26132.08
488.57	26583.80
488.75	26560.40
488.92	27075.32
489.10	26876.37
489.28	27112.77
489.46	27353.84
489.64	27190.00
489.81	28219.84
489.99	28074.73
490.17	27913.23
490.35	28477.30
490.53	28130.90
490.70	28662.20
490.88	28510.07
491.06	28954.77
491.24	29343.30
491.41	29120.95
491.59	29722.46
491.77	29841.83
491.95	29610.12
492.13	30244.40
492.30	30377.81
492.48	30628.25
492.66	30494.84
492.84	30644.63
493.01	31009.76
493.19	31220.41
493.37	31498.93
493.54	31344.45
493.72	31924.91
493.90	31672.13
494.08	32025.55
494.25	32245.56
494.43	32528.77
494.61	32854.10
494.79	33177.09
494.96	32830.69
495.14	32716.01
495.32	33530.51
495.49	33521.15
495.67	33661.58
495.85	33935.43
496.02	34242.04
496.20	34431.62
496.38	34225.65
496.55	34471.41
496.73	34958.24
496.91	34848.24
497.09	35208.68
497.26	35042.50
497.44	35433.37
497.62	35875.73
497.79	36395.33
497.97	35999.78
498.14	36245.54
498.32	36751.09
498.50	36247.88
498.67	37191.11
498.85	37141.96
499.03	36912.59
499.20	37188.77
499.38	37060.04
499.56	37703.69
499.73	37591.34
499.91	37860.51
500.08	37935.40
500.26	37614.75
500.44	38230.31
500.61	38220.95
500.79	38089.88
500.97	38368.40
501.14	39023.75
501.32	38932.47
501.49	38946.51
501.67	39260.15
501.84	39271.85
502.02	38850.55
502.20	39686.12
502.37	39622.93
502.55	39632.29
502.72	40025.50
502.90	39831.24
503.07	39955.29
503.25	40559.14
503.43	40091.04
503.60	40472.54
503.78	40505.31
503.95	40774.47
504.13	40580.21
504.30	41497.70
504.48	40947.67
504.65	41031.93
504.83	41083.42
505.01	41525.78
505.18	41659.20
505.36	42110.92
505.53	41635.79
505.71	42075.81
505.88	42337.95
506.06	41911.97
506.23	42637.54
506.41	42174.11
506.58	42586.05
506.76	42330.93
506.93	42845.85
507.11	42871.59
507.28	42827.12
507.46	43075.22
507.63	43086.92
507.81	43643.97
507.98	43281.19
508.16	43505.88
508.33	44301.66
508.50	43878.02
508.68	44315.70
508.85	43746.95
509.03	44694.87
509.20	44421.03
509.38	45022.54
509.55	44842.32
509.73	44964.03
509.90	44872.75
510.08	44882.11
510.25	44907.86
510.42	45296.39
510.60	45708.32
510.77	45581.93
510.95	45586.61
511.12	45586.61
511.30	45682.58
511.47	45844.07
511.64	45909.61
511.82	46314.52
511.99	45834.71
512.17	46370.69
512.34	46106.21
512.51	46843.48
512.69	46684.33
512.86	46946.47
513.04	46937.10
513.21	47180.52
513.38	46983.91
513.56	47573.73
513.73	47119.66
513.90	47543.30
514.08	47255.42
514.25	47674.37
514.43	47878.00
514.60	47880.34
514.77	47924.81
514.95	48315.68
515.12	47777.36
515.29	47973.96
515.47	48395.26
515.64	48608.25
515.81	48287.59
515.99	48704.21
516.16	48900.81
516.33	48830.60
516.51	48942.94
516.68	49013.16
516.85	48755.70
517.03	49354.88
517.20	48931.24
517.37	49214.44
517.54	49034.22
517.72	49200.40
517.89	49584.25
518.06	49832.35
518.24	49624.04
518.41	49514.03
518.58	49790.22
518.75	49682.55
518.93	49830.01
519.10	49581.91
519.27	50143.64
519.45	50260.66
519.62	50398.76
519.79	50288.75
519.96	50213.85
520.14	50595.36
520.31	50534.51
520.48	50995.59
520.65	50822.39
520.83	51145.39
521.00	51049.42
521.17	51042.40
521.34	50944.10
521.52	51505.83
521.69	50810.69
521.86	51330.29
522.03	51632.22
522.20	51618.17
522.38	51615.83
522.55	51660.30
522.72	51437.95
522.89	51814.78
523.07	51987.98
523.24	51686.05
523.41	52261.82
523.58	51772.65
523.75	52465.45
523.92	52229.05
524.10	52238.42
524.27	52439.70
524.44	52278.21
524.61	52640.99
524.78	52631.63
524.96	52844.62
525.13	52713.55
525.30	52725.25
525.47	52830.57
525.64	52921.85
525.81	52896.11
525.98	53038.88
526.16	52828.23
526.33	53183.99
526.50	53340.81
526.67	53195.70
526.84	53317.40
527.01	52999.09
527.18	53516.35
527.36	53406.34
527.53	53242.51
527.70	53682.53
527.87	53851.05
528.04	53525.71
528.21	53867.43
528.38	53490.60
528.55	53797.21
528.72	53675.51
528.89	53600.61
529.07	53996.16
529.24	53673.16
529.41	53930.62
529.58	53853.39
529.75	53947.01
529.92	54157.66
530.09	54237.23
530.26	54265.32
530.43	54258.30
530.60	54143.61
530.77	54227.87
530.94	54590.66
531.11	54068.72
531.28	54447.88
531.46	54548.53
531.63	54560.23
531.80	54611.72
531.97	54653.85
532.14	54749.81
532.31	54447.88
532.48	54745.13
532.65	55093.87
532.82	54824.71
532.99	55070.46
533.16	54686.62
533.33	55002.59
533.50	55140.68
533.67	55056.42
533.84	54897.27
534.01	55037.70
534.18	55107.91
534.35	55409.84
534.52	55395.80
534.69	55456.65
534.86	55725.81
535.03	55260.05
535.20	55487.08
535.37	55559.64
535.54	55477.72
535.71	55538.57
535.88	55798.37
536.05	55774.97
536.22	55803.05
536.38	56044.13
536.55	55955.19
536.72	56097.96
536.89	55711.77
537.06	56039.45
537.23	56004.34
537.40	55749.22
537.57	56165.84
537.74	55927.10
537.91	56198.60
538.08	56378.82
538.25	56168.18
538.42	56367.12
538.59	56442.02
538.75	55957.53
538.92	56353.08
539.09	56390.53
539.26	56327.33
539.43	56519.26
539.60	56617.56
539.77	56655.01
539.94	56886.72
540.11	56638.62
540.28	56715.86
540.44	56659.69
540.61	56725.22
540.78	56842.25
540.95	56760.33
541.12	56734.59
541.29	56669.05
541.46	56959.28
541.62	56748.63
541.79	56968.64
541.96	56690.12
542.13	56526.28
542.30	56875.02
542.47	57024.81
542.63	57062.26
542.80	57059.92
542.97	57343.12
543.14	57420.36
543.31	57521.01
543.48	57628.67
543.64	57703.57
543.81	57551.43
543.98	57581.86
544.15	57436.75
544.32	57879.11
544.48	57963.37
544.65	57464.83
544.82	57778.46
544.99	57607.61
545.16	57865.06
545.32	57783.15
545.49	57998.48
545.66	58049.97
545.83	57762.08
546.00	57937.62
546.16	57778.46
546.33	57691.86
546.50	57731.65
546.67	58078.05
546.83	57958.69
547.00	58000.82
547.17	57986.77
547.34	57979.75
547.50	58089.76
547.67	58417.43
547.84	58026.56
548.00	58293.38
548.17	58340.19
548.34	58607.01
548.51	58532.12
548.67	58532.12
548.84	58164.65
549.01	58319.13
549.18	58459.56
549.34	58536.80
549.51	58501.69
549.68	58602.33
549.84	58677.23
550.01	58859.79
550.18	58578.93
550.34	58773.19
550.51	58494.67
550.68	58487.65
550.84	58492.33
551.01	58798.94
551.18	58794.26
551.34	58782.55
551.51	58850.43
551.68	58918.31
551.84	58649.14
552.01	58511.05
552.18	58901.92
552.34	58845.75
552.51	58925.33
552.68	58787.24
552.84	59075.12
553.01	59166.40
553.18	59103.21
553.34	59196.83
553.51	59063.42
553.67	58864.47
553.84	59320.88
554.01	58988.52
554.17	59370.03
554.34	59248.32
554.51	59227.26
554.67	59370.03
554.84	59224.92
555.00	59416.84
555.17	59138.32
555.33	59316.20
555.50	59248.32
555.67	59262.36
555.83	59194.49
556.00	59353.65
556.16	59702.38
556.33	59393.43
556.50	59629.83
556.66	59639.19
556.83	59339.60
556.99	59564.29
557.16	59566.63
557.32	59552.59
557.49	59716.43
557.65	59407.48
557.82	59519.82
557.98	59781.96
558.15	59620.47
558.32	59700.04
558.48	59704.73
558.65	59718.77
558.81	59807.71
558.98	59767.92
559.14	59863.88
559.31	59898.99
559.47	59845.16
559.64	59952.82
559.80	59962.18
559.97	59943.46
560.13	59831.11
560.30	59957.50
560.46	59863.88
560.63	59957.50
560.79	60184.54
560.96	60109.64
561.12	60126.02
561.29	60203.26
561.45	60245.39
561.61	59964.52
561.78	60247.73
561.94	60006.65
562.11	60198.58
562.27	60264.11
562.44	60193.90
562.60	60378.80
562.77	60280.50
562.93	60133.04
563.10	60303.90
563.26	60193.90
563.42	60399.86
563.59	60357.74
563.75	60200.92
563.92	60343.69
564.08	60320.29
564.24	60406.89
564.41	60411.57
564.57	60348.37
564.74	60282.84
564.90	60245.39
565.07	60135.38
565.23	60463.06
565.39	60432.63
565.56	60481.78
565.72	60465.40
565.88	60456.04
566.05	60339.01
566.21	60427.95
566.38	60418.59
566.54	60650.30
566.70	60566.04
566.87	60566.04
567.03	60346.03
567.19	60488.80
567.36	60657.32
567.52	60411.57
567.68	60786.05
567.85	60720.52
568.01	60844.57
568.17	60474.76
568.34	60853.93
568.50	60577.75
568.66	60556.68
568.83	60683.07
568.99	60633.92
569.15	60556.68
569.32	60638.60
569.48	60570.72
569.64	60884.36
569.81	60486.46
569.97	60612.85
570.13	60818.82
570.30	60594.13
570.46	60816.48
570.62	60781.37
570.78	60699.45
570.95	60769.67
571.11	60793.07
571.27	60741.58
571.43	60846.91
571.60	60954.57
571.76	60818.82
571.92	60949.89
572.09	60823.50
572.25	60898.40
572.41	60830.52
572.57	60818.82
572.74	61104.37
572.90	60884.36
573.06	60821.16
573.22	60741.58
573.38	60985.00
573.55	60938.19
573.71	61167.56
573.87	61008.40
574.03	60779.03
574.20	61003.72
574.36	60734.56
574.52	61095.00
574.68	60945.21
574.84	60949.89
575.01	61111.39
575.17	60858.61
575.33	60987.34
575.49	60874.99
575.65	61153.52
575.82	60992.02
575.98	61034.15
576.14	61214.37
576.30	61176.92
576.46	60938.19
576.62	60832.86
576.79	61003.72
576.95	60788.39
577.11	60900.74
577.27	61104.37
577.43	60945.21
577.59	60816.48
577.75	60945.21
577.92	61034.15
578.08	61102.03
578.24	61008.40
578.40	61197.99
578.56	61202.67
578.72	61116.07
578.88	61282.25
579.04	61104.37
579.21	61169.90
579.37	61247.14
579.53	61312.67
579.69	61022.45
579.85	61130.11
580.01	61048.19
580.17	61036.49
580.33	61223.73
580.49	61174.58
580.65	61146.50
580.82	61169.90
580.98	61169.90
581.14	60921.80
581.30	61242.46
581.46	61364.17
581.62	61272.88
581.78	61228.41
581.94	61310.33
582.10	61357.14
582.26	61279.91
582.42	60999.04
582.58	61160.54
582.74	61167.56
582.90	60954.57
583.06	61263.52
583.22	61020.11
583.38	61141.81
583.54	61413.32
583.70	61347.78
583.86	61296.29
584.02	61069.26
584.18	61371.19
584.34	61277.57
584.50	61385.23
584.66	61144.16
584.82	61209.69
584.98	61202.67
585.14	61207.35
585.30	60989.68
585.46	61209.69
585.62	61261.18
585.78	61275.22
585.94	61130.11
586.10	61359.48
586.26	61240.12
586.42	61352.46
586.58	61319.70
586.74	61312.67
586.90	61209.69
587.06	61258.84
587.22	61270.54
587.38	61300.97
587.54	61638.01
587.70	61453.11
587.86	61506.94
588.02	61233.10
588.18	61427.36
588.34	61385.23
588.49	61048.19
