SpectraSuite Data File
++++++++++++++++++++++++++++++++++++
Date: Fri Oct 25 11:23:53 EDT 2013
User: price-jones
Dark Spectrum Present: No
Reference Spectrum Present: No
Number of Sampled Component Spectra: 1
Spectrometers: USB2+H05261
Integration Time (usec): 100000 (USB2+H05261)
Spectra Averaged: 1 (USB2+H05261)
Boxcar Smoothing: 0 (USB2+H05261)
Correct for Electrical Dark: No (USB2+H05261)
Strobe/Lamp Enabled: No (USB2+H05261)
Correct for Detector Non-linearity: No (USB2+H05261)
Correct for Stray Light: No (USB2+H05261)
Number of Pixels in Processed Spectrum: 2048
>>>>>Begin Processed Spectral Data<<<<<
365.73	220.01
365.92	220.01
366.12	220.01
366.32	175.54
366.52	156.82
366.72	102.98
366.91	133.41
367.11	131.07
367.31	102.98
367.51	112.35
367.70	170.86
367.90	147.45
368.10	72.56
368.30	168.52
368.49	114.69
368.69	91.28
368.89	112.35
369.09	173.20
369.28	131.07
369.48	187.24
369.68	133.41
369.87	224.69
370.07	159.16
370.27	234.05
370.47	318.31
370.66	521.94
370.86	660.03
371.06	674.07
371.25	650.67
371.45	580.45
371.65	704.50
371.84	596.84
372.04	674.07
372.24	718.54
372.44	699.82
372.63	739.61
372.83	835.57
373.03	805.14
373.22	741.95
373.42	758.33
373.62	763.01
373.81	791.10
374.01	767.70
374.21	798.12
374.40	814.51
374.60	889.40
374.79	819.19
374.99	828.55
375.19	814.51
375.38	777.06
375.58	863.66
375.78	863.66
375.97	847.27
376.17	882.38
376.37	844.93
376.56	826.21
376.76	912.81
376.95	837.91
377.15	915.15
377.35	952.60
377.54	901.11
377.74	875.36
377.93	908.13
378.13	910.47
378.33	870.68
378.52	968.98
378.72	924.51
378.91	924.51
379.11	954.94
379.31	971.32
379.50	966.64
379.70	947.92
379.89	994.73
380.09	950.26
380.28	940.90
380.48	978.34
380.68	964.30
380.87	870.68
381.07	990.05
381.26	980.68
381.46	1043.88
381.65	1025.15
381.85	1050.90
382.04	1029.84
382.24	1095.37
382.43	1125.80
382.63	1048.56
382.83	1090.69
383.02	1043.88
383.22	1165.59
383.41	1095.37
383.61	1104.73
383.80	1121.12
384.00	1053.24
384.19	1151.54
384.39	1111.75
384.58	1212.40
384.78	1043.88
384.97	1146.86
385.17	1081.33
385.36	1186.65
385.56	1193.67
385.75	1137.50
385.95	1137.50
386.14	1245.16
386.34	1179.63
386.53	1170.27
386.72	1128.14
386.92	1238.14
387.11	1282.61
387.31	1184.31
387.50	1256.87
387.70	1191.33
387.89	1238.14
388.09	1294.32
388.28	1317.72
388.48	1263.89
388.67	1301.34
388.86	1231.12
389.06	1235.80
389.25	1350.49
389.45	1399.64
389.64	1399.64
389.84	1306.02
390.03	1324.74
390.22	1458.15
390.42	1254.53
390.61	1350.49
390.81	1359.85
391.00	1406.66
391.19	1469.86
391.39	1420.71
391.58	1390.28
391.78	1425.39
391.97	1416.02
392.16	1516.67
392.36	1437.09
392.55	1589.22
392.75	1504.96
392.94	1584.54
393.13	1535.39
393.33	1547.09
393.52	1493.26
393.71	1563.48
393.91	1621.99
394.10	1509.65
394.29	1523.69
394.49	1586.88
394.68	1603.27
394.88	1575.18
395.07	1729.66
395.26	1760.08
395.46	1701.57
395.65	1724.97
395.84	1678.16
396.04	1757.74
396.23	1748.38
396.42	1724.97
396.62	1739.02
396.81	1757.74
397.00	1851.36
397.19	1776.47
397.39	1884.13
397.58	1916.90
397.77	1933.28
397.97	1952.01
398.16	1851.36
398.35	1895.83
398.55	1888.81
398.74	1952.01
398.93	1989.46
399.12	1783.49
399.32	1909.88
399.51	1804.55
399.70	1937.96
399.90	1991.80
400.09	2125.21
400.28	2054.99
400.47	2057.33
400.67	2054.99
400.86	1933.28
401.05	2043.29
401.24	2122.87
401.44	2106.48
401.63	2078.40
401.82	2073.71
402.01	2136.91
402.21	2246.91
402.40	2129.89
402.59	2312.45
402.78	2263.30
402.97	2228.19
403.17	2298.41
403.36	2251.60
403.55	2218.83
403.74	2356.92
403.93	2424.80
404.13	2382.67
404.32	2363.94
404.51	2375.64
404.70	2525.44
404.89	2377.98
405.09	2429.48
405.28	2352.24
405.47	2483.31
405.66	2406.07
405.85	2504.37
406.05	2471.61
406.24	2602.68
406.43	2616.72
406.62	2654.17
406.81	2691.62
407.00	2623.74
407.20	2635.44
407.39	2630.76
407.58	2663.53
407.77	2752.47
407.96	2712.68
408.15	2883.54
408.34	2717.36
408.54	2759.49
408.73	2801.62
408.92	2787.58
409.11	2883.54
409.30	2888.22
409.49	2810.98
409.68	2986.52
409.87	2890.56
410.07	3012.27
410.26	3070.78
410.45	2988.86
410.64	2949.08
410.83	3019.29
411.02	3129.30
411.21	3248.66
411.40	3145.68
411.59	3295.47
411.78	3089.51
411.98	3094.19
412.17	3297.81
412.36	3335.26
412.55	3349.31
412.74	3414.84
412.93	3328.24
413.12	3325.90
413.31	3613.79
413.50	3508.46
413.69	3496.76
413.88	3609.11
414.07	3632.51
414.26	3749.54
414.45	3726.13
414.64	3613.79
414.83	3796.35
415.02	3810.39
415.22	3772.94
415.41	3836.14
415.60	3969.55
415.79	3906.35
415.98	4004.66
416.17	4051.47
416.36	3904.01
416.55	4021.04
416.74	4093.60
416.93	4063.17
417.12	4163.81
417.31	4142.75
417.50	4135.73
417.69	4351.06
417.88	4318.29
418.07	4234.03
418.26	4320.63
418.45	4414.25
418.64	4550.00
418.83	4379.14
419.02	4512.55
419.21	4564.04
419.39	4514.89
419.58	4535.96
419.77	4470.42
419.96	4482.13
420.15	4566.39
420.34	4645.96
420.53	4678.73
420.72	4648.30
420.91	4720.86
421.10	4748.95
421.29	4730.22
421.48	4582.77
421.67	4767.67
421.86	4706.82
422.05	4697.46
422.24	4873.00
422.43	4959.60
422.61	4877.68
422.80	5032.15
422.99	5001.72
423.18	4964.28
423.37	5067.26
423.56	4971.30
423.75	4865.97
423.94	4938.53
424.13	4592.13
424.32	4849.59
424.50	5088.32
424.69	5200.67
424.88	5074.28
425.07	5069.60
425.26	5008.75
425.45	5022.79
425.64	5022.79
425.83	5018.11
426.01	5011.09
426.20	5064.92
426.39	5064.92
426.58	5074.28
426.77	5100.03
426.96	5160.88
427.15	5181.95
427.33	5238.12
427.52	5078.96
427.71	5179.61
427.90	5385.57
428.09	5430.04
428.28	5345.78
428.46	5476.85
428.65	5568.13
428.84	5570.48
429.03	5509.62
429.22	5217.05
429.40	5544.73
429.59	5411.32
429.78	5254.50
429.97	5163.22
430.16	5425.36
430.34	5682.82
430.53	5870.06
430.72	5584.52
430.91	5584.52
431.10	5654.73
431.28	5818.57
431.47	5820.91
431.66	5846.66
431.85	5727.29
432.03	5949.64
432.22	5935.60
432.41	5832.62
432.60	5884.11
432.79	5989.43
432.97	5928.58
433.16	5973.05
433.35	6061.99
433.54	6003.47
433.72	6244.55
433.91	6097.10
434.10	6061.99
434.28	5975.39
434.47	6312.42
434.66	6253.91
434.85	6179.01
435.03	6354.55
435.22	6258.59
435.41	6532.44
435.59	6408.39
435.78	6635.42
435.97	6462.22
436.16	6516.05
436.34	6263.27
436.53	6506.69
436.72	6881.18
436.90	6579.25
437.09	6672.87
437.28	6499.67
437.46	6604.99
437.65	6663.51
437.84	6792.23
438.02	6724.36
438.21	6794.58
438.40	6726.70
438.58	6967.77
438.77	6972.46
438.96	6939.69
439.14	7150.34
439.33	7265.02
439.52	7199.49
439.70	7337.58
439.89	7541.21
440.08	7492.05
440.26	7342.26
440.45	7267.36
440.63	7573.97
440.82	7482.69
441.01	7391.41
441.19	7772.92
441.38	7756.54
441.57	7824.41
441.75	8011.65
441.94	7913.35
442.12	7779.94
442.31	8084.21
442.50	7913.35
442.68	8025.70
442.87	7953.14
443.05	8124.00
443.24	8210.60
443.43	8077.19
443.61	8299.54
443.80	8423.59
443.98	7981.23
444.17	7899.31
444.35	8255.07
444.54	8329.97
444.73	8224.64
444.91	8285.50
445.10	8418.91
445.28	8348.69
445.47	8304.22
445.65	8430.61
445.84	8617.85
446.02	8517.21
446.21	8564.02
446.39	8442.31
446.58	8599.13
446.77	8538.27
446.95	8226.98
447.14	8397.84
447.32	8606.15
447.51	8528.91
447.69	8528.91
447.88	8725.52
448.06	8557.00
448.25	8334.65
448.43	8769.99
448.62	8582.74
448.80	8648.28
448.99	8627.21
449.17	8786.37
449.36	8781.69
449.54	8865.95
449.73	8929.14
449.91	9308.31
450.10	8772.33
450.28	8861.27
450.46	9034.47
450.65	9015.74
450.83	9128.09
451.02	9149.15
451.20	9315.33
451.39	9392.57
451.57	9195.96
451.76	9170.22
451.94	9341.08
452.13	9406.61
452.31	9139.79
452.49	9259.16
452.68	9444.06
452.86	9427.68
453.05	9315.33
453.23	9418.32
453.42	9195.96
453.60	9720.24
453.78	9680.46
453.97	9348.10
454.15	9455.76
454.34	9352.78
454.52	9760.03
454.70	9619.60
454.89	9753.01
455.07	9731.95
455.26	9743.65
455.44	9827.91
455.62	9916.85
455.81	10171.97
455.99	10073.67
456.17	10057.28
456.36	10237.50
456.54	10059.62
456.73	10005.79
456.91	10450.49
457.09	10239.84
457.28	10450.49
457.46	10427.09
457.64	10305.38
457.83	10520.71
458.01	10389.64
458.19	10822.64
458.38	10635.39
458.56	10644.76
458.74	10509.01
458.93	10752.42
459.11	10721.99
459.29	10703.27
459.48	10834.34
459.66	10979.45
459.84	10698.59
460.03	10998.18
460.21	11035.63
460.39	11077.76
460.57	11136.27
460.76	11279.04
460.94	11087.12
461.12	11199.46
461.31	11318.83
461.49	11068.39
461.67	11066.05
461.85	11431.18
462.04	11349.26
462.22	11279.04
462.40	11501.39
462.59	11583.31
462.77	11323.51
462.95	11630.12
463.13	11791.62
463.32	11754.17
463.50	11714.38
463.68	11733.11
463.86	11606.72
464.05	11534.16
464.23	11887.58
464.41	11918.01
464.59	11625.44
464.78	12166.10
464.96	12114.61
465.14	11852.47
465.32	11997.59
465.50	12119.29
465.69	12114.61
465.87	12126.32
466.05	12353.35
466.23	12353.35
466.41	12393.14
466.60	12505.48
466.78	12058.44
466.96	12198.87
467.14	12203.55
467.32	12411.86
467.51	12571.02
467.69	12217.60
467.87	12650.60
468.05	12608.47
468.23	12500.80
468.41	12374.41
468.60	12580.38
468.78	12816.77
468.96	12767.62
469.14	12755.92
469.32	12954.87
469.50	12587.40
469.69	12945.50
469.87	13231.05
470.05	12919.76
470.23	13102.32
470.41	13107.00
470.59	13284.88
470.77	13097.64
470.95	13341.05
471.14	13549.36
471.32	13060.19
471.50	13689.79
471.68	13687.45
471.86	13752.99
472.04	13841.93
472.22	14143.86
472.40	13717.88
472.58	14022.15
472.77	13987.04
472.95	14331.10
473.13	14850.70
473.31	14272.59
473.49	14373.23
473.67	14132.15
473.85	14349.82
474.03	14504.30
474.21	14618.99
474.39	14567.49
474.57	14504.30
474.75	15002.83
474.93	15147.95
475.12	15157.31
475.30	15206.46
475.48	15014.54
475.66	15068.37
475.84	14897.51
476.02	15400.72
476.20	15379.66
476.38	15779.89
476.56	15978.84
476.74	16084.16
476.92	15903.94
477.10	15985.86
477.28	16201.19
477.46	16276.09
477.64	16346.30
477.82	16479.71
478.00	16805.05
478.18	16842.50
478.36	16992.29
478.54	17102.29
478.72	17401.88
478.90	17490.82
479.08	17727.22
479.26	17626.57
479.44	17668.70
479.62	17872.33
479.80	18319.37
479.98	18253.84
480.16	18696.20
480.34	18319.37
480.52	18967.70
480.70	18586.19
480.88	18466.83
481.06	18913.87
481.24	18965.36
481.41	19281.33
481.59	19283.67
481.77	19454.53
481.95	19510.71
482.13	19789.23
482.31	19676.88
482.49	20381.38
482.67	20278.40
482.85	20547.56
483.03	20669.27
483.21	20568.63
483.39	21420.58
483.57	21015.67
483.74	21231.00
483.92	21366.75
484.10	21231.00
484.28	21687.40
484.46	22064.23
484.64	22504.25
484.82	22047.85
485.00	22464.46
485.18	22808.52
485.35	22984.06
485.53	23028.53
485.71	23021.51
485.89	23873.46
486.07	23302.37
486.25	23468.55
486.43	23601.96
486.61	24257.31
486.78	24006.87
486.96	24374.34
487.14	24428.17
487.32	24694.99
487.50	25137.35
487.68	24893.94
487.85	25310.55
488.03	25544.61
488.21	25891.01
488.39	25769.30
488.57	26176.55
488.75	26214.00
488.92	26508.91
489.10	27084.68
489.28	26773.39
489.46	27304.69
489.64	26948.93
489.81	27718.96
489.99	27075.32
490.17	27934.29
490.35	28325.16
490.53	28357.93
490.70	28226.86
490.88	27889.82
491.06	28439.85
491.24	29043.71
491.41	28835.40
491.59	29399.47
491.77	29436.92
491.95	30059.50
492.13	30176.53
492.30	29968.22
492.48	30181.21
492.66	30316.96
492.84	30345.05
493.01	30654.00
493.19	30925.50
493.37	31421.69
493.54	31192.32
493.72	31721.28
493.90	31908.52
494.08	31960.02
494.25	32034.91
494.43	32182.37
494.61	32376.63
494.79	32402.38
494.96	32758.14
495.14	33149.01
495.32	33427.53
495.49	33207.52
495.67	33242.63
495.85	33776.27
496.02	33905.00
496.20	34164.80
496.38	34007.98
496.55	34319.28
496.73	34834.19
496.91	34506.52
497.09	34771.00
497.26	35035.48
497.44	35180.59
497.62	35393.58
497.79	35557.42
497.97	35557.42
498.14	36053.61
498.32	36208.09
498.50	36290.01
498.67	36762.79
498.85	36584.91
499.03	36643.43
499.20	37170.05
499.38	36734.71
499.56	37228.56
499.73	37207.50
499.91	37479.00
500.08	37804.33
500.26	37738.80
500.44	37780.93
500.61	38007.96
500.79	37720.07
500.97	38099.24
501.14	38455.00
501.32	38686.71
501.49	38513.52
501.67	38569.69
501.84	38913.75
502.02	38763.95
502.20	39323.34
502.37	39323.34
502.55	39365.47
502.72	39419.30
502.90	39604.20
503.07	39267.17
503.25	39906.13
503.43	39796.13
503.60	40517.01
503.78	40156.57
503.95	40730.00
504.13	40900.86
504.30	40676.17
504.48	40987.46
504.65	40931.29
504.83	41371.31
505.01	41177.04
505.18	41474.29
505.36	41837.08
505.53	41111.51
505.71	41888.57
505.88	41769.20
506.06	42019.64
506.23	42139.00
506.41	41823.03
506.58	42298.16
506.76	42436.25
506.93	42864.57
507.11	42941.81
507.28	42726.48
507.46	42974.58
507.63	43065.86
507.81	43585.46
507.98	42885.64
508.16	43206.29
508.33	43796.10
508.50	43653.33
508.68	43643.97
508.85	43679.08
509.03	44114.42
509.20	44229.10
509.38	44240.81
509.55	44500.61
509.73	44261.87
509.90	44858.71
510.08	44626.99
510.25	44952.33
510.42	45024.89
510.60	45361.92
510.77	45010.84
510.95	45347.88
511.12	45507.04
511.30	44994.46
511.47	45574.91
511.64	45954.08
511.82	46153.02
511.99	45916.63
512.17	45806.62
512.34	45975.14
512.51	46590.70
512.69	46337.93
512.86	46494.74
513.04	46873.91
513.21	46696.03
513.38	47037.75
513.56	46904.34
513.73	46703.05
513.90	46880.93
514.08	47229.67
514.25	47445.00
514.43	47334.99
514.60	47765.65
514.77	47239.03
514.95	48020.77
515.12	47660.33
515.29	47517.56
515.47	47913.11
515.64	48484.20
515.81	48025.45
515.99	47931.83
516.16	48636.33
516.33	48186.95
516.51	48729.95
516.68	48605.91
516.85	48542.71
517.03	48933.58
517.20	48783.79
517.37	49265.94
517.54	48739.32
517.72	49034.22
517.89	49090.40
518.06	49256.57
518.24	49146.57
518.41	49242.53
518.58	49502.33
518.75	49137.21
518.93	49577.23
519.10	49659.15
519.27	50176.40
519.45	49745.75
519.62	49970.44
519.79	49820.64
519.96	49858.09
520.14	50408.12
520.31	50204.49
520.48	50555.57
520.65	50504.08
520.83	50911.33
521.00	50447.91
521.17	50618.77
521.34	50885.59
521.52	51257.73
521.69	50841.12
521.86	51105.60
522.03	51185.18
522.20	51576.04
522.38	51648.60
522.55	51592.43
522.72	51618.17
522.89	51503.49
523.07	51866.27
523.24	51564.34
523.41	51681.37
523.58	51494.13
523.75	52011.38
523.92	51437.95
524.10	52198.63
524.27	51924.78
524.44	51887.34
524.61	52165.86
524.78	52409.28
524.96	52151.82
525.13	52346.08
525.30	52762.70
525.47	52608.22
525.64	52416.30
525.81	52746.31
525.98	52804.83
526.16	52914.83
526.33	52769.72
526.50	53113.78
526.67	52971.00
526.84	52837.59
527.01	52928.87
527.18	52772.06
527.36	52978.03
527.53	53155.91
527.70	53286.98
527.87	53324.43
528.04	53261.23
528.21	53626.35
528.38	53282.30
528.55	53600.61
528.72	53408.68
528.89	53609.97
529.07	53523.37
529.24	53549.12
529.41	53654.44
529.58	53734.02
529.75	53640.40
529.92	53722.32
530.09	53832.32
530.26	54012.54
530.43	53792.53
530.60	53890.83
530.77	53942.33
530.94	54262.98
531.11	54181.06
531.28	54087.44
531.46	54363.62
531.63	54307.45
531.80	54340.22
531.97	54541.50
532.14	54461.93
532.31	54417.46
532.48	54719.38
532.65	54869.18
532.82	54480.65
532.99	54623.42
533.16	54574.27
533.33	54747.47
533.50	55374.73
533.67	54674.91
533.84	54824.71
534.01	55096.21
534.18	55028.34
534.35	55325.58
534.52	55126.64
534.69	55370.05
534.86	55543.25
535.03	55171.11
535.20	54920.67
535.37	55693.05
535.54	55547.93
535.71	55077.49
535.88	55463.67
536.05	55409.84
536.22	55681.34
536.38	55770.28
536.55	55753.90
536.72	55723.47
536.89	55681.34
537.06	55646.24
537.23	55611.13
537.40	55545.59
537.57	55927.10
537.74	55800.71
537.91	56334.35
538.08	56147.11
538.25	55718.79
538.42	55922.42
538.59	56427.98
538.75	56133.07
538.92	56219.67
539.09	56470.11
539.26	56339.04
539.43	56226.69
539.60	56205.62
539.77	56603.52
539.94	56655.01
540.11	56573.09
540.28	56418.61
540.44	56554.36
540.61	56769.69
540.78	56406.91
540.95	56601.18
541.12	56451.38
541.29	56671.39
541.46	56430.32
541.62	56753.31
541.79	56769.69
541.96	56638.62
542.13	56638.62
542.30	56612.88
542.47	57099.71
542.63	57006.09
542.80	57162.90
542.97	56980.34
543.14	57080.98
543.31	57312.70
543.48	57235.46
543.64	57771.44
543.81	57392.28
543.98	57483.56
544.15	57485.90
544.32	57420.36
544.48	57528.03
544.65	57432.07
544.82	57427.38
544.99	57462.49
545.16	57490.58
545.32	57614.63
545.49	57661.44
545.66	57649.74
545.83	57794.85
546.00	58054.65
546.16	57715.27
546.33	57584.20
546.50	57476.54
546.67	57860.38
546.83	57738.68
547.00	57946.98
547.17	57963.37
547.34	57904.85
547.50	58082.73
547.67	58092.10
547.84	58040.60
548.00	58007.84
548.17	58159.97
548.34	58244.23
548.51	58192.74
548.67	58487.65
548.84	58120.18
549.01	58035.92
549.18	58204.44
549.34	58148.27
549.51	58557.86
549.68	58295.72
549.84	58298.06
550.01	58518.07
550.18	58321.47
550.34	58525.10
550.51	58571.91
550.68	58447.86
550.84	58323.81
551.01	58569.57
551.18	58602.33
551.34	58415.09
551.51	58508.71
551.68	58642.12
551.84	58592.97
552.01	58609.35
552.18	58787.24
552.34	58745.11
552.51	58934.69
552.68	58775.53
552.84	58876.18
553.01	59119.59
553.18	58857.45
553.34	58894.90
553.51	58883.20
553.67	58911.28
553.84	58979.16
554.01	59065.76
554.17	59070.44
554.34	59128.95
554.51	58913.62
554.67	59084.48
554.84	58995.54
555.00	58979.16
555.17	59068.10
555.33	59061.08
555.50	59047.04
555.67	58983.84
555.83	59009.59
556.00	59175.76
556.16	59388.75
556.33	59365.35
556.50	59194.49
556.66	59370.03
556.83	59171.08
556.99	59437.90
557.16	59576.00
557.32	59657.91
557.49	59756.22
557.65	59311.52
557.82	59447.27
557.98	59419.18
558.15	59496.42
558.32	59627.49
558.48	59330.24
558.65	59508.12
558.81	59646.21
558.98	59583.02
559.14	59711.75
559.31	59763.24
559.47	59578.34
559.64	59505.78
559.80	59819.41
559.97	59746.86
560.13	59648.55
560.30	59765.58
560.46	59700.04
560.63	59842.82
560.79	59522.16
560.96	59863.88
561.12	59922.40
561.29	59725.79
561.45	59952.82
561.61	59994.95
561.78	59863.88
561.94	59767.92
562.11	59821.75
562.27	59870.90
562.44	60154.11
562.60	60310.92
562.77	60116.66
562.93	59990.27
563.10	60165.81
563.26	59978.57
563.42	60163.47
563.59	60069.85
563.75	60088.57
563.92	60264.11
564.08	59992.61
564.24	60282.84
564.41	60266.45
564.57	60104.96
564.74	60432.63
564.90	60301.56
565.07	60247.73
565.23	60165.81
565.39	60308.58
565.56	60343.69
565.72	60189.22
565.88	60327.31
566.05	60207.94
566.21	60273.48
566.38	60273.48
566.54	60385.82
566.70	60294.54
566.87	60491.15
567.03	60292.20
567.19	60722.86
567.36	60334.33
567.52	60207.94
567.68	60811.80
567.85	60467.74
568.01	60530.93
568.17	60456.04
568.34	60573.06
568.50	60303.90
568.66	60287.52
568.83	60580.09
568.99	60182.19
569.15	60523.91
569.32	60502.85
569.48	60343.69
569.64	60622.22
569.81	60584.77
569.97	60437.31
570.13	60650.30
570.30	60451.36
570.46	60603.49
570.62	60715.84
570.78	60594.13
570.95	60645.62
571.11	60919.46
571.27	60458.38
571.43	60652.64
571.60	60732.22
571.76	60556.68
571.92	60748.60
572.09	60704.13
572.25	60643.28
572.41	60580.09
572.57	60652.64
572.74	60900.74
572.90	60772.01
573.06	60907.76
573.22	60685.41
573.38	60647.96
573.55	60666.69
573.71	60968.61
573.87	60687.75
574.03	60603.49
574.20	60774.35
574.36	60711.16
574.52	60736.90
574.68	60846.91
574.84	60935.85
575.01	60825.84
575.17	60764.99
575.33	60863.29
575.49	60853.93
575.65	60912.44
575.82	60690.09
575.98	60870.31
576.14	60982.66
576.30	60942.87
576.46	60818.82
576.62	60795.42
576.79	60781.37
576.95	60591.79
577.11	60821.16
577.27	60849.25
577.43	60992.02
577.59	61017.77
577.75	60814.14
577.92	60669.03
578.08	60767.33
578.24	60762.65
578.40	61137.13
578.56	60992.02
578.72	60849.25
578.88	61024.79
579.04	60985.00
579.21	60874.99
579.37	61296.29
579.53	61118.41
579.69	60743.92
579.85	60851.59
580.01	61043.51
580.17	60961.59
580.33	61099.68
580.49	61057.56
580.65	61083.30
580.82	60867.97
580.98	60863.29
581.14	60851.59
581.30	61029.47
581.46	60804.78
581.62	61013.08
581.78	60898.40
581.94	60858.61
582.10	60889.04
582.26	60994.36
582.42	61071.60
582.58	61048.19
582.74	61015.43
582.90	61055.21
583.06	61083.30
583.22	60659.66
583.38	61015.43
583.54	61078.62
583.70	61092.66
583.86	61092.66
584.02	61099.68
584.18	61221.39
584.34	61244.80
584.50	60910.10
584.66	60867.97
584.82	60874.99
584.98	60956.91
585.14	61109.05
585.30	61006.06
585.46	61106.71
585.62	61193.31
585.78	61181.60
585.94	60835.20
586.10	61024.79
586.26	61148.84
586.42	61020.11
586.58	61200.33
586.74	61052.87
586.90	61254.16
587.06	61024.79
587.22	61289.27
587.38	61066.92
587.54	61300.97
587.70	61183.94
587.86	61193.31
588.02	61092.66
588.18	61240.12
588.34	61090.32
588.49	61392.25
