SpectraSuite Data File
++++++++++++++++++++++++++++++++++++
Date: Fri Oct 25 10:47:06 EDT 2013
User: price-jones
Dark Spectrum Present: No
Reference Spectrum Present: No
Number of Sampled Component Spectra: 1
Spectrometers: USB2+H05261
Integration Time (usec): 100000 (USB2+H05261)
Spectra Averaged: 1 (USB2+H05261)
Boxcar Smoothing: 0 (USB2+H05261)
Correct for Electrical Dark: No (USB2+H05261)
Strobe/Lamp Enabled: No (USB2+H05261)
Correct for Detector Non-linearity: No (USB2+H05261)
Correct for Stray Light: No (USB2+H05261)
Number of Pixels in Processed Spectrum: 2048
>>>>>Begin Processed Spectral Data<<<<<
365.73	124.05
365.92	124.05
366.12	124.05
366.32	25.75
366.52	119.37
366.72	145.11
366.91	21.06
367.11	79.58
367.31	58.51
367.51	7.02
367.70	110.01
367.90	18.72
368.10	100.64
368.30	88.94
368.49	7.02
368.69	23.41
368.89	0.00
369.09	105.32
369.28	51.49
369.48	67.88
369.68	131.07
369.87	63.19
370.07	100.64
370.27	91.28
370.47	259.80
370.66	360.44
370.86	400.23
371.06	472.79
371.25	479.81
371.45	456.40
371.65	498.53
371.84	360.44
372.04	435.34
372.24	444.70
372.44	411.93
372.63	503.22
372.83	456.40
373.03	521.94
373.22	519.60
373.42	498.53
373.62	489.17
373.81	521.94
374.01	561.73
374.21	540.66
374.40	531.30
374.60	559.39
374.79	533.64
374.99	589.82
375.19	585.13
375.38	550.03
375.58	517.26
375.78	580.45
375.97	554.71
376.17	622.58
376.37	479.81
376.56	573.43
376.76	543.00
376.95	543.00
377.15	667.05
377.35	559.39
377.54	610.88
377.74	594.50
377.93	550.03
378.13	599.18
378.33	683.44
378.52	603.86
378.72	695.14
378.91	669.39
379.11	585.13
379.31	650.67
379.50	636.63
379.70	690.46
379.89	683.44
380.09	631.94
380.28	580.45
380.48	610.88
380.68	580.45
380.87	627.26
381.07	744.29
381.26	650.67
381.46	601.52
381.65	627.26
381.85	615.56
382.04	699.82
382.24	627.26
382.43	692.80
382.63	631.94
382.83	685.78
383.02	720.88
383.22	760.67
383.41	678.76
383.61	692.80
383.80	732.59
384.00	791.10
384.19	746.63
384.39	718.54
384.58	744.29
384.78	716.20
384.97	781.74
385.17	713.86
385.36	720.88
385.56	767.70
385.75	760.67
385.95	809.83
386.14	791.10
386.34	842.59
386.53	842.59
386.72	835.57
386.92	795.78
387.11	760.67
387.31	819.19
387.50	889.40
387.70	763.01
387.89	816.85
388.09	844.93
388.28	830.89
388.48	805.14
388.67	908.13
388.86	788.76
389.06	870.68
389.25	917.49
389.45	861.32
389.64	896.43
389.84	917.49
390.03	968.98
390.22	943.24
390.42	938.55
390.61	873.02
390.81	912.81
391.00	959.62
391.19	1041.54
391.39	917.49
391.58	894.08
391.78	795.78
391.97	940.90
392.16	940.90
392.36	926.85
392.55	880.04
392.75	912.81
392.94	823.87
393.13	950.26
393.33	1013.45
393.52	1067.28
393.71	1088.35
393.91	924.51
394.10	976.00
394.29	1006.43
394.49	978.34
394.68	1090.69
394.88	1095.37
395.07	1069.62
395.26	1104.73
395.46	1053.24
395.65	1121.12
395.84	1156.22
396.04	1165.59
396.23	1121.12
396.42	1128.14
396.62	1048.56
396.81	1121.12
397.00	1156.22
397.19	1043.88
397.39	1179.63
397.58	1217.08
397.77	1165.59
397.97	1217.08
398.16	1259.21
398.35	1310.70
398.55	1352.83
398.74	1210.06
398.93	1378.58
399.12	1273.25
399.32	1320.06
399.51	1270.91
399.70	1320.06
399.90	1306.02
400.09	1380.92
400.28	1366.87
400.47	1383.26
400.67	1519.01
400.86	1369.21
401.05	1474.54
401.24	1392.62
401.44	1444.11
401.63	1481.56
401.82	1439.43
402.01	1509.65
402.21	1460.49
402.40	1593.90
402.59	1514.33
402.78	1458.15
402.97	1544.75
403.17	1589.22
403.36	1643.06
403.55	1668.80
403.74	1675.82
403.93	1631.35
404.13	1579.86
404.32	1633.69
404.51	1612.63
404.70	1788.17
404.89	1732.00
405.09	1640.72
405.28	1701.57
405.47	1682.85
405.66	1809.23
405.85	1776.47
406.05	1703.91
406.24	1703.91
406.43	1762.42
406.62	1781.15
406.81	1961.37
407.00	1888.81
407.20	1753.06
407.39	1781.15
407.58	1825.62
407.77	1900.52
407.96	1959.03
408.15	1994.14
408.34	1914.56
408.54	1905.20
408.73	2083.08
408.92	2064.35
409.11	2040.95
409.30	2038.61
409.49	1968.39
409.68	2040.95
409.87	2108.82
410.07	2008.18
410.26	2036.27
410.45	2132.23
410.64	2162.66
410.83	2155.63
411.02	2225.85
411.21	2314.79
411.40	2242.23
411.59	2260.96
411.78	2265.64
411.98	2253.94
412.17	2373.30
412.36	2305.43
412.55	2392.03
412.74	2431.82
412.93	2394.37
413.12	2385.01
413.31	2525.44
413.50	2448.20
413.69	2504.37
413.88	2558.21
414.07	2487.99
414.26	2541.82
414.45	2670.55
414.64	2605.02
414.83	2686.94
415.02	2766.51
415.22	2586.29
415.41	2675.23
415.60	2757.15
415.79	2703.32
415.98	2813.32
416.17	2787.58
416.36	2935.03
416.55	2958.44
416.74	2871.84
416.93	2904.60
417.12	2876.52
417.31	2888.22
417.50	2871.84
417.69	2939.71
417.88	3023.97
418.07	2967.80
418.26	3016.95
418.45	3091.85
418.64	3197.17
418.83	3157.38
419.02	3236.96
419.21	3225.26
419.39	3169.09
419.58	3148.02
419.77	3028.65
419.96	3190.15
420.15	3302.50
420.34	3262.71
420.53	3361.01
420.72	3335.26
420.91	3435.91
421.10	3414.84
421.29	3538.89
421.48	3377.39
421.67	3452.29
421.86	3440.59
422.05	3351.65
422.24	3499.10
422.43	3386.76
422.61	3405.48
422.80	3449.95
422.99	3545.91
423.18	3501.44
423.37	3559.95
423.56	3557.61
423.75	3440.59
423.94	3356.33
424.13	3232.28
424.32	3426.54
424.50	3510.80
424.69	3564.64
424.88	3412.50
425.07	3609.11
425.26	3508.46
425.45	3435.91
425.64	3480.38
425.83	3515.48
426.01	3676.98
426.20	3747.20
426.39	3426.54
426.58	3506.12
426.77	3595.06
426.96	3449.95
427.15	3611.45
427.33	3707.41
427.52	3686.34
427.71	3770.60
427.90	3735.50
428.09	3667.62
428.28	3632.51
428.46	3749.54
428.65	3777.62
428.84	3822.09
429.03	3751.88
429.22	3740.18
429.40	3779.97
429.59	3702.73
429.78	3627.83
429.97	3660.60
430.16	3604.42
430.34	3789.33
430.53	3810.39
430.72	3892.31
430.91	3899.33
431.10	3955.51
431.28	4081.89
431.47	4009.34
431.66	4191.90
431.85	4060.83
432.03	4114.66
432.22	4280.84
432.41	4025.72
432.60	4081.89
432.79	4128.70
432.97	4140.41
433.16	4278.50
433.35	4166.15
433.54	4219.99
433.72	4255.09
433.91	4322.97
434.10	4276.16
434.28	4269.14
434.47	4418.93
434.66	4472.76
434.85	4514.89
435.03	4505.53
435.22	4346.37
435.41	4505.53
435.59	4552.34
435.78	4688.09
435.97	4444.68
436.16	4503.19
436.34	4519.57
436.53	4620.22
436.72	4730.22
436.90	4486.81
437.09	4596.81
437.28	4353.40
437.46	4517.23
437.65	4770.01
437.84	4788.74
438.02	4777.03
438.21	4753.63
438.40	4662.35
438.58	4819.16
438.77	4835.55
438.96	4645.96
439.14	4975.98
439.33	4945.55
439.52	5011.09
439.70	4936.19
439.89	5200.67
440.08	5104.71
440.26	5142.16
440.45	5151.52
440.63	5151.52
440.82	5336.42
441.01	5186.63
441.19	5483.88
441.38	5476.85
441.57	5401.96
441.75	5427.70
441.94	5521.32
442.12	5535.37
442.31	5694.52
442.50	5687.50
442.68	5781.12
442.87	5699.20
443.05	5518.98
443.24	5888.79
443.43	5713.25
443.61	5753.04
443.80	5818.57
443.98	5654.73
444.17	5549.41
444.35	5837.30
444.54	5755.38
444.73	5790.49
444.91	5781.12
445.10	5853.68
445.28	5914.53
445.47	5589.20
445.65	5816.23
445.84	5891.13
446.02	5795.17
446.21	5975.39
446.39	5891.13
446.58	5856.02
446.77	5930.92
446.95	5750.70
447.14	5746.02
447.32	6054.97
447.51	6080.71
447.69	5989.43
447.88	5949.64
448.06	5900.49
448.25	5989.43
448.43	5919.21
448.62	5900.49
448.80	6040.92
448.99	6064.33
449.17	6214.12
449.36	6090.07
449.54	6218.80
449.73	6286.68
449.91	6394.34
450.10	6246.89
450.28	6193.06
450.46	6396.68
450.65	6420.09
450.83	6354.55
451.02	6314.77
451.20	6408.39
451.39	6511.37
451.57	6338.17
451.76	6382.64
451.94	6335.83
452.13	6284.34
452.31	6530.09
452.49	6282.00
452.68	6427.11
452.86	6553.50
453.05	6569.88
453.23	6537.12
453.42	6448.18
453.60	6628.40
453.78	6726.70
453.97	6546.48
454.15	6574.56
454.34	6665.85
454.52	6825.00
454.70	6513.71
454.89	6738.40
455.07	6949.05
455.26	6761.81
455.44	6698.61
455.62	6801.60
455.81	6883.52
455.99	6904.58
456.17	6813.30
456.36	6888.20
456.54	7021.61
456.73	7171.40
456.91	7047.35
457.09	7297.79
457.28	7410.14
457.46	7056.72
457.64	7309.49
457.83	7194.81
458.01	7213.53
458.19	7318.86
458.38	7185.44
458.56	7370.35
458.74	7356.30
458.93	7232.26
459.11	7405.46
459.29	7435.88
459.48	7524.82
459.66	7428.86
459.84	7555.25
460.03	7705.04
460.21	7440.56
460.39	7669.94
460.57	7576.31
460.76	7686.32
460.94	7655.89
461.12	7571.63
461.31	7634.83
461.49	7775.26
461.67	7721.43
461.85	7730.79
462.04	7733.13
462.22	8250.39
462.40	7943.78
462.59	7920.37
462.77	7974.21
462.95	7932.08
463.13	7915.69
463.32	7925.05
463.50	8135.70
463.68	8116.98
463.86	8018.68
464.05	7964.84
464.23	7922.71
464.41	8051.44
464.59	7901.65
464.78	8283.16
464.96	8079.53
465.14	8166.13
465.32	8161.45
465.50	8313.58
465.69	8332.31
465.87	8346.35
466.05	8126.34
466.23	8149.75
466.41	8325.29
466.60	8622.53
466.78	8229.32
466.96	8519.55
467.14	8428.27
467.32	8533.59
467.51	8629.56
467.69	8322.94
467.87	8425.93
468.05	8545.30
468.23	8505.51
468.41	8407.20
468.60	8697.43
468.78	8861.27
468.96	8737.22
469.14	8833.18
469.32	8872.97
469.50	8699.77
469.69	8713.81
469.87	8837.86
470.05	8875.31
470.23	9048.51
470.41	8933.82
470.59	9125.75
470.77	8704.45
470.95	8884.67
471.14	9043.83
471.32	8990.00
471.50	9387.89
471.68	9254.48
471.86	9195.96
472.04	9242.78
472.22	9577.47
472.40	9128.09
472.58	9380.87
472.77	9500.23
472.95	9544.70
473.13	9680.46
473.31	9535.34
473.49	9495.55
473.67	9556.41
473.85	9631.30
474.03	9968.34
474.21	9738.97
474.39	9935.57
474.57	9830.25
474.75	9975.36
474.93	10108.77
475.12	10122.82
475.30	10190.69
475.48	9951.96
475.66	10190.69
475.84	9966.00
476.02	10090.05
476.20	10609.65
476.38	10698.59
476.56	10862.43
476.74	10759.44
476.92	10796.89
477.10	10597.95
477.28	10848.38
477.46	10860.09
477.64	10782.85
477.82	11030.94
478.00	11332.87
478.18	11257.98
478.36	11353.94
478.54	11403.09
478.72	11461.60
478.90	11517.78
479.08	11648.85
479.26	12009.29
479.44	11896.94
479.62	11910.99
479.80	11864.18
479.98	11978.86
480.16	12245.68
480.34	12315.90
480.52	12315.90
480.70	12482.08
480.88	12067.80
481.06	12601.44
481.24	12589.74
481.41	12629.53
481.59	12889.33
481.77	13114.02
481.95	13184.24
482.13	12908.05
482.31	13240.41
482.49	13586.81
482.67	13305.95
482.85	13441.70
483.03	13699.16
483.21	13657.03
483.39	13741.29
483.57	13813.84
483.74	14029.17
483.92	14321.74
484.10	13994.06
484.28	14375.57
484.46	14618.99
484.64	14682.18
484.82	14656.43
485.00	14600.26
485.18	14897.51
485.35	14904.53
485.53	14698.56
485.71	14974.75
485.89	15140.93
486.07	15262.63
486.25	15283.70
486.43	15276.68
486.61	15833.72
486.78	15866.49
486.96	15709.68
487.14	16013.95
487.32	16184.80
487.50	16376.73
487.68	16304.17
487.85	16992.29
488.03	16858.88
488.21	16882.28
488.39	16570.99
488.57	16985.27
488.75	17071.87
488.92	17469.76
489.10	17673.39
489.28	17797.43
489.46	17649.98
489.64	17914.46
489.81	18286.61
489.99	18480.87
490.17	17977.65
490.35	18841.31
490.53	18260.86
490.70	18743.01
490.88	18752.37
491.06	18860.04
491.24	18988.77
491.41	18611.94
491.59	19091.75
491.77	19489.64
491.95	19489.64
492.13	19665.18
492.30	19852.42
492.48	19697.95
492.66	19655.82
492.84	19999.88
493.01	20463.30
493.19	19922.64
493.37	20702.04
493.54	20414.15
493.72	20706.72
493.90	20783.96
494.08	20851.83
494.25	21046.10
494.43	20980.56
494.61	21252.06
494.79	21406.54
494.96	21160.78
495.14	21575.06
495.32	21715.49
495.49	21600.80
495.67	21668.68
495.85	21923.80
496.02	22054.87
496.20	22326.37
496.38	22312.33
496.55	22326.37
496.73	22703.20
496.91	22464.46
497.09	22525.32
497.26	22939.59
497.44	23037.89
497.62	23173.64
497.79	23442.81
497.97	22801.50
498.14	23302.37
498.32	23328.12
498.50	23283.65
498.67	24149.65
498.85	23997.51
499.03	24135.60
499.20	24250.29
499.38	23955.38
499.56	24079.43
499.73	24023.26
499.91	24159.01
500.08	24435.19
500.26	24521.79
500.44	24521.79
500.61	24608.39
500.79	24479.66
500.97	24835.42
501.14	24989.90
501.32	25291.83
501.49	25057.78
501.67	25230.98
501.84	25212.25
502.02	25069.48
502.20	25750.57
502.37	25762.28
502.55	25490.77
502.72	25694.40
502.90	25816.11
503.07	25715.47
503.25	25886.32
503.43	25741.21
503.60	26415.29
503.78	26405.92
503.95	26019.74
504.13	26047.82
504.30	26363.79
504.48	26375.50
504.65	26316.98
504.83	26808.50
505.01	26366.13
505.18	26721.90
505.36	26972.33
505.53	27295.33
505.71	27211.07
505.88	27035.53
506.06	27227.45
506.23	27140.85
506.41	27026.17
506.58	27594.92
506.76	27454.48
506.93	27798.54
507.11	27351.50
507.28	27878.12
507.46	27730.67
507.63	27763.43
507.81	28098.13
507.98	27927.27
508.16	27929.61
508.33	28004.51
508.50	28414.10
508.68	28329.84
508.85	28526.45
509.03	28428.15
509.20	28711.35
509.38	29062.43
509.55	28856.46
509.73	28720.71
509.90	29050.73
510.08	28987.53
510.25	28774.55
510.42	29123.29
510.60	29472.03
510.77	29479.05
510.95	29469.69
511.12	29184.14
511.30	29596.07
511.47	29745.87
511.64	29537.56
511.82	30073.54
511.99	30087.59
512.17	29989.28
512.34	30256.11
512.51	30625.91
512.69	30347.39
512.86	30462.07
513.04	30841.24
513.21	30328.66
513.38	30396.54
513.56	30485.48
513.73	30436.33
513.90	30574.42
514.08	30511.22
514.25	31044.87
514.43	30574.42
514.60	30394.20
514.77	30717.19
514.95	31098.70
515.12	31290.62
515.29	31065.93
515.47	31454.46
515.64	31688.51
515.81	31395.95
515.99	31477.86
516.16	31316.37
516.33	31599.57
516.51	31229.77
516.68	31585.53
516.85	31056.57
517.03	31658.09
517.20	31772.77
517.37	32187.05
517.54	32472.59
517.72	32275.99
517.89	31732.98
518.06	32208.11
518.24	32142.58
518.41	32020.87
518.58	31999.80
518.75	31957.67
518.93	32730.05
519.10	32708.99
519.27	32655.15
519.45	32879.85
519.62	33055.39
519.79	32921.98
519.96	33003.89
520.14	33413.49
520.31	32863.46
520.48	33237.95
520.65	33429.87
520.83	33223.90
521.00	33890.96
521.17	33626.48
521.34	33535.20
521.52	33469.66
521.69	33827.76
521.86	34031.39
522.03	34183.52
522.20	33879.25
522.38	33961.17
522.55	33977.56
522.72	34110.97
522.89	33823.08
523.07	34377.79
523.24	33902.66
523.41	34342.68
523.58	34412.90
523.75	34906.75
523.92	34471.41
524.10	34885.68
524.27	34466.73
524.44	34621.20
524.61	34742.91
524.78	35035.48
524.96	34979.31
525.13	35318.68
525.30	35419.33
525.47	35405.28
525.64	35115.06
525.81	35098.67
525.98	35152.51
526.16	34920.79
526.33	35419.33
526.50	35402.94
526.67	34906.75
526.84	35807.86
527.01	35384.22
527.18	35737.64
527.36	35732.96
527.53	36140.21
527.70	35810.20
527.87	35964.67
528.04	35634.66
528.21	36002.12
528.38	35735.30
528.55	36041.91
528.72	36313.41
528.89	36617.68
529.07	36297.03
529.24	36203.41
529.41	36299.37
529.58	36084.04
529.75	36301.71
529.92	36940.68
530.09	36584.91
530.26	36577.89
530.43	36760.45
530.60	36402.35
530.77	36524.06
530.94	36882.16
531.11	36697.26
531.28	36952.38
531.46	37441.55
531.63	37326.86
531.80	37095.15
531.97	37109.19
532.14	36999.19
532.31	36825.99
532.48	37050.68
532.65	37954.13
532.82	37191.11
532.99	37481.34
533.16	37523.47
533.33	37708.37
533.50	37612.41
533.67	37886.25
533.84	37263.67
534.01	37883.91
534.18	37677.94
534.35	38146.05
534.52	37734.12
534.69	38557.99
534.86	37799.65
535.03	37790.29
535.20	38279.46
535.37	38216.27
535.54	38621.18
535.71	38277.12
535.88	37762.20
536.05	38508.83
536.22	38429.26
536.38	38543.94
536.55	38389.47
536.72	38391.81
536.89	38188.18
537.06	38440.96
537.23	38602.46
537.40	38639.90
537.57	38787.36
537.74	38546.28
537.91	39086.95
538.08	39096.31
538.25	38831.83
538.42	38780.34
538.59	38820.13
538.75	38953.54
538.92	39115.03
539.09	39061.20
539.26	39412.28
539.43	39269.51
539.60	39178.23
539.77	39044.82
539.94	39494.20
540.11	39440.37
540.28	39227.38
540.44	38944.17
540.61	39374.83
540.78	38986.30
540.95	39423.98
541.12	39407.60
541.29	39255.46
541.46	39594.84
541.62	39491.86
541.79	39697.83
541.96	39585.48
542.13	39814.85
542.30	39407.60
542.47	39828.90
542.63	39541.01
542.80	39929.54
542.97	40367.22
543.14	40870.43
543.31	40062.95
543.48	40645.74
543.64	40795.54
543.81	40381.26
543.98	40357.86
544.15	40399.99
544.32	40842.35
544.48	40818.94
544.65	40563.82
544.82	40704.26
544.99	40189.34
545.16	40795.54
545.32	40509.99
545.49	41071.72
545.66	41088.10
545.83	41057.68
546.00	41488.34
546.16	40959.38
546.33	40832.99
546.50	40767.45
546.67	41088.10
546.83	40552.12
547.00	41083.42
547.17	41287.05
547.34	41074.06
547.50	41043.63
547.67	41411.10
547.84	41319.82
548.00	41584.30
548.17	41439.18
548.34	41509.40
548.51	41570.25
548.67	41853.46
548.84	41401.74
549.01	41383.01
549.18	41659.20
549.34	41762.18
549.51	41500.04
549.68	41570.25
549.84	41631.11
550.01	42267.73
550.18	41593.66
550.34	41961.12
550.51	41811.33
550.68	41535.15
550.84	41420.46
551.01	42183.48
551.18	41951.76
551.34	41956.44
551.51	42122.62
551.68	42190.50
551.84	42246.67
552.01	41598.34
552.18	42316.89
552.34	42024.32
552.51	42096.88
552.68	41893.25
552.84	42256.03
553.01	42597.75
553.18	42124.96
553.34	42045.38
553.51	42113.26
553.67	42019.64
553.84	42541.58
554.01	42555.62
554.17	43016.71
554.34	42721.80
554.51	42684.35
554.67	42948.83
554.84	42712.44
555.00	42628.18
555.17	42808.40
555.33	42590.73
555.50	42890.32
555.67	42897.34
555.83	42462.00
556.00	42855.21
556.16	43292.89
556.33	42721.80
556.50	43302.25
556.66	43021.39
556.83	42632.86
556.99	43000.32
557.16	43398.21
557.32	43381.83
557.49	43192.25
557.65	42717.12
557.82	42887.98
557.98	42698.39
558.15	43353.74
558.32	42976.92
558.48	43480.13
558.65	42976.92
558.81	43421.62
558.98	43386.51
559.14	43461.41
559.31	43203.95
559.47	43161.82
559.64	43646.31
559.80	43529.28
559.97	43831.21
560.13	43405.23
560.30	43257.78
560.46	43604.18
560.63	43552.69
560.79	43592.48
560.96	43414.60
561.12	43660.35
561.29	43283.53
561.45	43487.15
561.61	43482.47
561.78	43536.30
561.94	43524.60
562.11	43278.85
562.27	43353.74
562.44	43316.29
562.60	43643.97
562.77	43714.19
562.93	43536.30
563.10	43653.33
563.26	43164.16
563.42	43882.70
563.59	43810.15
563.75	43964.62
563.92	44261.87
564.08	44081.65
564.24	44037.18
564.41	43997.39
564.57	43615.88
564.74	43800.79
564.90	43634.61
565.07	44088.67
565.23	43892.07
565.39	43831.21
565.56	44257.19
565.72	43999.73
565.88	43889.73
566.05	43718.87
566.21	43934.20
566.38	43438.00
566.54	44009.09
566.70	43721.21
566.87	44109.74
567.03	44062.93
567.19	44411.67
567.36	44292.30
567.52	43697.80
567.68	44065.27
567.85	43782.06
568.01	44081.65
568.17	43859.30
568.34	43952.92
568.50	43833.55
568.66	43761.00
568.83	44318.04
568.99	43971.64
569.15	44587.21
569.32	43856.96
569.48	43786.74
569.64	44081.65
569.81	44547.42
569.97	44002.07
570.13	44168.25
570.30	43732.91
570.46	43573.75
570.62	43983.35
570.78	43412.26
570.95	44191.65
571.11	44245.49
571.27	44446.77
571.43	43793.76
571.60	44273.57
571.76	44048.88
571.92	44165.91
572.09	44208.04
572.25	44261.87
572.41	43920.15
572.57	44002.07
572.74	44615.29
572.90	44409.32
573.06	44472.52
573.22	44083.99
573.38	44006.75
573.55	44037.18
573.71	44404.64
573.87	44289.96
574.03	43945.90
574.20	44538.05
574.36	43983.35
574.52	44144.84
574.68	44252.51
574.84	44559.12
575.01	44002.07
575.17	44486.56
575.33	44350.81
575.49	44289.96
575.65	44535.71
575.82	44540.39
575.98	43910.79
576.14	44839.98
576.30	44629.34
576.46	44243.15
576.62	44343.79
576.79	44479.54
576.95	43669.72
577.11	44350.81
577.27	44577.84
577.43	44694.87
577.59	44533.37
577.75	44947.65
577.92	44287.62
578.08	44191.65
578.24	44254.85
578.40	44652.74
578.56	44491.24
578.72	44374.22
578.88	44411.67
579.04	44542.74
579.21	44259.53
579.37	44299.32
579.53	44676.15
579.69	44364.85
579.85	44493.58
580.01	44634.02
580.17	44580.18
580.33	44554.44
580.49	44369.54
580.65	44584.86
580.82	45020.20
580.98	44154.21
581.14	44612.95
581.30	44444.43
581.46	44872.75
581.62	44325.07
581.78	44140.16
581.94	44748.70
582.10	44259.53
582.26	44542.74
582.42	44802.53
582.58	44769.77
582.74	44044.20
582.90	44692.53
583.06	44444.43
583.22	45237.87
583.38	44774.45
583.54	44905.52
583.70	44467.84
583.86	44093.35
584.02	44208.04
584.18	44737.00
584.34	44825.94
584.50	44610.61
584.66	44645.72
584.82	44505.29
584.98	45202.77
585.14	44769.77
585.30	44502.95
585.46	44685.51
585.62	44842.32
585.78	44435.07
585.94	44315.70
586.10	44421.03
586.26	44416.35
586.42	44945.31
586.58	44886.79
586.74	44692.53
586.90	44697.21
587.06	44619.97
587.22	44744.02
587.38	44638.70
587.54	44849.35
587.70	44687.85
587.86	44891.48
588.02	44964.03
588.18	45523.42
588.34	44573.16
588.49	44458.48
588.65	44760.40
588.81	44343.79
588.97	44615.29
589.13	44491.24
589.29	44463.16
589.45	44947.65
589.61	44491.24
589.77	44659.76
589.93	44657.42
590.08	44610.61
590.24	45296.39
