SpectraSuite Data File
++++++++++++++++++++++++++++++++++++
Date: Fri Oct 25 10:44:27 EDT 2013
User: price-jones
Dark Spectrum Present: No
Reference Spectrum Present: No
Number of Sampled Component Spectra: 1
Spectrometers: USB2+H05261
Integration Time (usec): 100000 (USB2+H05261)
Spectra Averaged: 1 (USB2+H05261)
Boxcar Smoothing: 0 (USB2+H05261)
Correct for Electrical Dark: No (USB2+H05261)
Strobe/Lamp Enabled: No (USB2+H05261)
Correct for Detector Non-linearity: No (USB2+H05261)
Correct for Stray Light: No (USB2+H05261)
Number of Pixels in Processed Spectrum: 2048
>>>>>Begin Processed Spectral Data<<<<<
365.73	131.07
365.92	131.07
366.12	131.07
366.32	86.60
366.52	110.01
366.72	44.47
366.91	18.72
367.11	105.32
367.31	16.38
367.51	0.00
367.70	51.49
367.90	0.00
368.10	0.00
368.30	46.81
368.49	0.00
368.69	39.79
368.89	91.28
369.09	35.11
369.28	124.05
369.48	4.68
369.68	121.71
369.87	81.92
370.07	119.37
370.27	154.48
370.47	236.39
370.66	423.64
370.86	435.34
371.06	433.00
371.25	472.79
371.45	362.78
371.65	550.03
371.84	421.30
372.04	451.72
372.24	437.68
372.44	444.70
372.63	547.69
372.83	559.39
373.03	449.38
373.22	500.87
373.42	465.77
373.62	512.58
373.81	631.94
374.01	561.73
374.21	622.58
374.40	475.13
374.60	559.39
374.79	524.28
374.99	589.82
375.19	610.88
375.38	648.33
375.58	582.79
375.78	580.45
375.97	526.62
376.17	706.84
376.37	594.50
376.56	592.16
376.76	601.52
376.95	620.24
377.15	718.54
377.35	772.38
377.54	664.71
377.74	660.03
377.93	676.41
378.13	653.01
378.33	723.23
378.52	678.76
378.72	730.25
378.91	664.71
379.11	631.94
379.31	601.52
379.50	641.31
379.70	664.71
379.89	692.80
380.09	720.88
380.28	695.14
380.48	739.61
380.68	779.40
380.87	716.20
381.07	744.29
381.26	800.46
381.46	669.39
381.65	706.84
381.85	702.16
382.04	784.08
382.24	763.01
382.43	779.40
382.63	615.56
382.83	727.91
383.02	755.99
383.22	812.17
383.41	800.46
383.61	779.40
383.80	767.70
384.00	699.82
384.19	770.04
384.39	788.76
384.58	849.61
384.78	816.85
384.97	784.08
385.17	882.38
385.36	863.66
385.56	828.55
385.75	791.10
385.95	866.00
386.14	798.12
386.34	800.46
386.53	800.46
386.72	957.28
386.92	805.14
387.11	849.61
387.31	819.19
387.50	875.36
387.70	912.81
387.89	870.68
388.09	858.98
388.28	877.70
388.48	945.58
388.67	957.28
388.86	976.00
389.06	973.66
389.25	968.98
389.45	1036.86
389.64	1025.15
389.84	1076.65
390.03	1090.69
390.22	1046.22
390.42	985.37
390.61	1043.88
390.81	1071.97
391.00	1153.88
391.19	1074.31
391.39	1083.67
391.58	1135.16
391.78	1139.84
391.97	997.07
392.16	1132.82
392.36	1128.14
392.55	1013.45
392.75	1013.45
392.94	1001.75
393.13	1083.67
393.33	983.02
393.52	1137.50
393.71	1144.52
393.91	1156.22
394.10	1104.73
394.29	1165.59
394.49	1170.27
394.68	1266.23
394.88	1210.06
395.07	1348.15
395.26	1259.21
395.46	1198.35
395.65	1287.29
395.84	1299.00
396.04	1191.33
396.23	1149.20
396.42	1090.69
396.62	1231.12
396.81	1156.22
397.00	1212.40
397.19	1301.34
397.39	1362.19
397.58	1390.28
397.77	1542.41
397.97	1462.83
398.16	1488.58
398.35	1589.22
398.55	1497.94
398.74	1551.78
398.93	1526.03
399.12	1486.24
399.32	1619.65
399.51	1476.88
399.70	1549.43
399.90	1612.63
400.09	1624.33
400.28	1673.48
400.47	1586.88
400.67	1605.61
400.86	1757.74
401.05	1661.78
401.24	1664.12
401.44	1797.53
401.63	1757.74
401.82	1790.51
402.01	1778.81
402.21	1778.81
402.40	1881.79
402.59	1799.87
402.78	1708.59
402.97	1804.55
403.17	1909.88
403.36	1919.24
403.55	1919.24
403.74	1891.15
403.93	1930.94
404.13	1886.47
404.32	1905.20
404.51	1907.54
404.70	1935.62
404.89	2073.71
405.09	1989.46
405.28	2022.22
405.47	2104.14
405.66	2012.86
405.85	1980.09
406.05	1982.43
406.24	2186.06
406.43	2136.91
406.62	2097.12
406.81	2321.81
407.00	2127.55
407.20	2143.93
407.39	2136.91
407.58	2162.66
407.77	2214.15
407.96	2193.08
408.15	2289.04
408.34	2317.13
408.54	2282.02
408.73	2300.75
408.92	2342.88
409.11	2321.81
409.30	2403.73
409.49	2345.22
409.68	2366.28
409.87	2389.69
410.07	2291.38
410.26	2300.75
410.45	2555.86
410.64	2499.69
410.83	2619.06
411.02	2546.50
411.21	2736.09
411.40	2605.02
411.59	2661.19
411.78	2719.70
411.98	2726.72
412.17	2686.94
412.36	2780.56
412.55	2700.98
412.74	2726.72
412.93	2761.83
413.12	2796.94
413.31	3019.29
413.50	2895.24
413.69	2888.22
413.88	2960.78
414.07	2977.16
414.26	2944.39
414.45	2970.14
414.64	3059.08
414.83	3009.93
415.02	3009.93
415.22	3293.13
415.41	3101.21
415.60	3152.70
415.79	3211.22
415.98	3361.01
416.17	3330.58
416.36	3351.65
416.55	3243.98
416.74	3269.73
416.93	3424.20
417.12	3517.83
417.31	3398.46
417.50	3485.06
417.69	3550.59
417.88	3625.49
418.07	3410.16
418.26	3510.80
418.45	3499.10
418.64	3672.30
418.83	3686.34
419.02	3684.00
419.21	3749.54
419.39	3782.31
419.58	3637.19
419.77	3658.26
419.96	3812.73
420.15	3777.62
420.34	3866.56
420.53	3836.14
420.72	3894.65
420.91	3847.84
421.10	3878.27
421.29	3997.64
421.48	3878.27
421.67	3925.08
421.86	4037.42
422.05	3955.51
422.24	3801.03
422.43	3873.59
422.61	3864.22
422.80	3995.29
422.99	4063.17
423.18	4107.64
423.37	4121.68
423.56	4084.23
423.75	4023.38
423.94	3943.80
424.13	3810.39
424.32	3939.12
424.50	4114.66
424.69	4007.00
424.88	4159.13
425.07	3974.23
425.26	3927.42
425.45	4021.04
425.64	4056.15
425.83	4058.49
426.01	3983.59
426.20	3976.57
426.39	4109.98
426.58	4025.72
426.77	3988.27
426.96	3997.64
427.15	4088.92
427.33	4187.22
427.52	4128.70
427.71	4205.94
427.90	4318.29
428.09	4306.59
428.28	4128.70
428.46	4236.37
428.65	4257.43
428.84	4475.10
429.03	4372.12
429.22	4212.96
429.40	4114.66
429.59	4058.49
429.78	3997.64
429.97	3992.95
430.16	4077.21
430.34	4308.93
430.53	4257.43
430.72	4315.95
430.91	4346.37
431.10	4425.95
431.28	4606.17
431.47	4629.58
431.66	4690.43
431.85	4737.24
432.03	4844.91
432.22	4903.42
432.41	4678.73
432.60	4964.28
432.79	4814.48
432.97	4861.29
433.16	4915.12
433.35	4767.67
433.54	4727.88
433.72	4798.10
433.91	4901.08
434.10	4833.21
434.28	4975.98
434.47	4968.96
434.66	5109.39
434.85	4992.36
435.03	5219.39
435.22	5174.92
435.41	5200.67
435.59	5163.22
435.78	5163.22
435.97	5313.02
436.16	5423.02
436.34	5102.37
436.53	5355.15
436.72	5451.11
436.90	5252.16
437.09	5472.17
437.28	5137.48
437.46	5317.70
437.65	5261.52
437.84	5427.70
438.02	5364.51
438.21	5336.42
438.40	5245.14
438.58	5554.09
438.77	5661.76
438.96	5544.73
439.14	5687.50
439.33	5689.84
439.52	5785.80
439.70	5795.17
439.89	5757.72
440.08	5638.35
440.26	5818.57
440.45	5907.51
440.63	5982.41
440.82	6232.85
441.01	6120.50
441.19	5980.07
441.38	6263.27
441.57	6333.49
441.75	6258.59
441.94	6401.37
442.12	6628.40
442.31	6387.32
442.50	6473.92
442.68	6258.59
442.87	6361.58
443.05	6502.01
443.24	6682.23
443.43	6464.56
443.61	6670.53
443.80	6785.21
443.98	6513.71
444.17	6504.35
444.35	6616.69
444.54	6785.21
444.73	6752.45
444.91	6668.19
445.10	6806.28
445.28	6698.61
445.47	6654.14
445.65	6768.83
445.84	6595.63
446.02	6604.99
446.21	6895.22
446.39	6916.28
446.58	6761.81
446.77	6899.90
446.95	6738.40
447.14	6897.56
447.32	7026.29
447.51	6953.73
447.69	6661.16
447.88	6930.33
448.06	6932.67
448.25	6951.39
448.43	6956.07
448.62	6881.18
448.80	6927.99
448.99	7087.14
449.17	7112.89
449.36	6965.43
449.54	7026.29
449.73	7183.10
449.91	7403.11
450.10	7363.33
450.28	7356.30
450.46	7470.99
450.65	7496.74
450.83	7407.80
451.02	7314.17
451.20	7365.67
451.39	7440.56
451.57	7375.03
451.76	7494.40
451.94	7534.18
452.13	7442.90
452.31	7508.44
452.49	7185.44
452.68	7339.92
452.86	7360.98
453.05	7496.74
453.23	7555.25
453.42	7360.98
453.60	7494.40
453.78	7644.19
453.97	7688.66
454.15	7534.18
454.34	7648.87
454.52	7691.00
454.70	7782.28
454.89	7929.74
455.07	7854.84
455.26	7824.41
455.44	7857.18
455.62	7779.94
455.81	7911.01
455.99	7751.85
456.17	7906.33
456.36	8182.51
456.54	8046.76
456.73	8212.94
456.91	8344.01
457.09	8292.52
457.28	8355.71
457.46	8262.09
457.64	8446.99
457.83	8238.69
458.01	8088.89
458.19	8505.51
458.38	8292.52
458.56	8564.02
458.74	8287.84
458.93	8182.51
459.11	8402.52
459.29	8484.44
459.48	8540.61
459.66	8514.87
459.84	8458.70
460.03	8765.31
460.21	8692.75
460.39	8821.48
460.57	8779.35
460.76	8800.41
460.94	8908.08
461.12	8945.53
461.31	8802.75
461.49	8851.91
461.67	8959.57
461.85	9069.58
462.04	8987.66
462.22	9149.15
462.40	9163.20
462.59	9062.55
462.77	9214.69
462.95	9205.33
463.13	9310.65
463.32	9200.65
463.50	9275.54
463.68	9327.03
463.86	9287.25
464.05	9228.73
464.23	9221.71
464.41	9226.39
464.59	9102.34
464.78	9614.92
464.96	9554.07
465.14	9364.48
465.32	9598.54
465.50	9521.30
465.69	9603.22
465.87	9399.59
466.05	9458.10
466.23	9472.15
466.41	9455.76
466.60	9565.77
466.78	9408.95
466.96	9420.66
467.14	9673.43
467.32	9736.63
467.51	9556.41
467.69	9556.41
467.87	9460.45
468.05	9753.01
468.23	9657.05
468.41	9762.37
468.60	9778.76
468.78	9790.46
468.96	9865.36
469.14	9762.37
469.32	10221.12
469.50	9621.94
469.69	10127.50
469.87	9867.70
470.05	10024.51
470.23	10080.69
470.41	10171.97
470.59	10193.03
470.77	10050.26
470.95	10328.78
471.14	10321.76
471.32	10143.88
471.50	10401.34
471.68	10356.87
471.86	10607.31
472.04	10663.48
472.22	10972.43
472.40	10485.60
472.58	10766.46
472.77	10579.22
472.95	10534.75
473.13	11087.12
473.31	10764.12
473.49	10766.46
473.67	10792.21
473.85	10867.11
474.03	11218.19
474.21	11279.04
474.39	11398.41
474.57	11241.59
474.75	11262.66
474.93	11487.35
475.12	11492.03
475.30	11501.39
475.48	11293.08
475.66	11707.36
475.84	11566.93
476.02	11461.60
476.20	11625.44
476.38	11861.84
476.56	12278.45
476.74	12058.44
476.92	12112.27
477.10	12025.67
477.28	12482.08
477.46	12252.70
477.64	12592.08
477.82	12678.68
478.00	12849.54
478.18	12655.28
478.36	12896.35
478.54	12943.16
478.72	12999.34
478.90	13296.58
479.08	13001.68
479.26	13511.91
479.44	13607.87
479.62	13437.02
479.80	13537.66
479.98	13778.73
480.16	13984.70
480.34	13881.72
480.52	14155.56
480.70	14211.73
480.88	13914.48
481.06	14295.99
481.24	14279.61
481.41	14607.28
481.59	14537.07
481.77	14834.32
481.95	14782.82
482.13	14981.77
482.31	14740.69
482.49	15342.21
482.67	15211.14
482.85	15555.20
483.03	15412.43
483.21	15737.76
483.39	15763.51
483.57	15592.65
483.74	15922.66
483.92	16140.33
484.10	16006.92
484.28	16283.11
484.46	16613.12
484.64	16491.41
484.82	16482.05
485.00	16685.68
485.18	16638.87
485.35	17317.62
485.53	16507.80
485.71	16638.87
485.89	16783.98
486.07	16823.77
486.25	17312.94
486.43	16936.12
486.61	17198.26
486.78	17649.98
486.96	17743.60
487.14	17975.31
487.32	17881.69
487.50	18185.96
487.68	18429.38
487.85	19168.99
488.03	18860.04
488.21	18960.68
488.39	18974.72
488.57	19051.96
488.75	19126.86
488.92	19648.80
489.10	19648.80
489.28	19702.63
489.46	20271.38
489.64	20135.63
489.81	20547.56
489.99	20533.52
490.17	20849.49
490.35	21088.23
490.53	20685.65
490.70	20966.52
490.88	21205.25
491.06	21128.02
491.24	21074.18
491.41	21568.04
491.59	20924.39
491.77	21153.76
491.95	21415.90
492.13	21722.51
492.30	21888.69
492.48	22043.17
492.66	22333.39
492.84	22295.94
493.01	22342.75
493.19	22434.03
493.37	22438.72
493.54	22876.40
493.72	23037.89
493.90	23269.61
494.08	23204.07
494.25	23686.22
494.43	23817.29
494.61	23843.04
494.79	23875.80
494.96	23728.35
495.14	24173.05
495.32	24130.92
495.49	24313.48
495.67	24404.77
495.85	24437.53
496.02	24526.47
496.20	24950.11
496.38	25312.89
496.55	25209.91
496.73	25535.24
496.91	25486.09
497.09	25626.53
497.26	25373.75
497.44	25560.99
497.62	25666.31
497.79	25694.40
497.97	25490.77
498.14	26085.27
498.32	26134.42
498.50	25991.65
498.67	26443.37
498.85	26532.31
499.03	27452.14
499.20	27215.75
499.38	26579.12
499.56	27044.89
499.73	27094.04
499.91	27124.47
500.08	27175.96
500.26	26677.43
500.44	27218.09
500.61	27325.75
500.79	27442.78
500.97	26946.59
501.14	27969.40
501.32	27552.79
501.49	27658.11
501.67	27538.74
501.84	28051.32
502.02	28477.30
502.20	28414.10
502.37	28091.11
502.55	28013.87
502.72	28856.46
502.90	28872.85
503.07	28596.67
503.25	29137.33
503.43	28329.84
503.60	28627.09
503.78	28779.23
503.95	28968.81
504.13	28985.19
504.30	29235.63
504.48	29205.20
504.65	29357.34
504.83	29855.87
505.01	29518.84
505.18	29717.78
505.36	30103.97
505.53	29958.86
505.71	30436.33
505.88	30394.20
506.06	30008.01
506.23	30228.02
506.41	29841.83
506.58	30345.05
506.76	30529.95
506.93	30677.40
507.11	30668.04
507.28	30609.53
507.46	31054.23
507.63	30398.88
507.81	30721.87
507.98	30625.91
508.16	30995.71
508.33	31239.13
508.50	31124.44
508.68	31597.23
508.85	31548.08
509.03	31847.67
509.20	31714.26
509.38	31782.13
509.55	31882.78
509.73	31763.41
509.90	31803.20
510.08	31988.10
510.25	32332.16
510.42	32100.45
510.60	32481.95
510.77	32346.20
510.95	32598.98
511.12	32407.06
511.30	32809.63
511.47	32936.02
511.64	32950.06
511.82	33027.30
511.99	32854.10
512.17	33083.47
512.34	33177.09
512.51	33226.24
512.69	33722.44
512.86	33191.14
513.04	33457.96
513.21	33647.54
513.38	33240.29
513.56	33455.62
513.73	33549.24
513.90	33549.24
514.08	33666.27
514.25	33549.24
514.43	33799.68
514.60	33837.12
514.77	33902.66
514.95	34286.51
515.12	34513.54
515.29	34054.79
515.47	35159.53
515.64	34607.16
515.81	34085.22
515.99	34153.10
516.16	33998.62
516.33	34178.84
516.51	34162.46
516.68	33848.83
516.85	33951.81
517.03	34167.14
517.20	34813.13
517.37	34920.79
517.54	34995.69
517.72	34862.28
517.89	34642.27
518.06	34363.75
518.24	34501.84
518.41	34916.11
518.58	34801.43
518.75	35449.75
518.93	35466.14
519.10	35459.12
519.27	35906.16
519.45	35833.60
519.62	35704.87
519.79	36116.81
519.96	36058.29
520.14	36437.46
520.31	35864.03
520.48	36147.23
520.65	36013.82
520.83	36634.06
521.00	36666.83
521.17	36285.33
521.34	36905.57
521.52	36987.49
521.69	36687.90
521.86	37057.70
522.03	37104.51
522.20	36699.60
522.38	37247.29
522.55	37244.94
522.72	36872.80
522.89	37268.35
523.07	37528.15
523.24	37137.28
523.41	37785.61
523.58	37385.38
523.75	38050.09
523.92	37823.06
524.10	38000.94
524.27	37715.39
524.44	37930.72
524.61	38122.65
524.78	38244.35
524.96	38316.91
525.13	38057.11
525.30	38447.98
525.47	38511.17
525.64	38555.64
525.81	38293.50
525.98	38508.83
526.16	37837.10
526.33	38450.32
526.50	38277.12
526.67	37642.84
526.84	38122.65
527.01	37986.89
527.18	38497.13
527.36	38913.75
527.53	39180.57
527.70	39203.97
527.87	38864.60
528.04	38906.73
528.21	38979.28
528.38	39552.71
528.55	39714.21
528.72	39627.61
528.89	39491.86
529.07	40233.81
529.24	39328.02
529.41	39683.78
529.58	39550.37
529.75	39739.96
529.92	39828.90
530.09	39997.41
530.26	39728.25
530.43	39955.29
530.60	39880.39
530.77	40371.90
530.94	40472.54
531.11	40074.65
531.28	39936.56
531.46	40439.78
531.63	40547.44
531.80	40140.19
531.97	40212.74
532.14	39775.06
532.31	39583.14
532.48	39784.43
532.65	40149.55
532.82	40149.55
532.99	40776.81
533.16	40215.08
533.33	40811.92
533.50	40935.97
533.67	41048.32
533.84	40399.99
534.01	40931.29
534.18	40882.14
534.35	41233.22
534.52	41109.17
534.69	41074.06
534.86	41310.46
535.03	40849.37
535.20	41448.55
535.37	41708.35
535.54	41530.47
535.71	41284.71
535.88	41329.18
536.05	41425.14
536.22	41605.36
536.38	41811.33
536.55	41684.94
536.72	41324.50
536.89	41172.36
537.06	41251.94
537.23	42124.96
537.40	41734.09
537.57	41979.85
537.74	41610.04
537.91	42043.04
538.08	41853.46
538.25	41684.94
538.42	42066.45
538.59	41963.46
538.75	41645.15
538.92	41860.48
539.09	42061.77
539.26	42351.99
539.43	42099.22
539.60	42000.91
539.77	42057.09
539.94	42148.37
540.11	42471.36
540.28	42295.82
540.44	41968.15
540.61	41937.72
540.78	42171.77
540.95	42230.29
541.12	42178.79
541.29	42305.18
541.46	42576.69
541.62	42387.10
541.79	42742.86
541.96	42576.69
542.13	42632.86
542.30	42841.17
542.47	42880.95
542.63	43159.48
542.80	42623.50
542.97	43063.52
543.14	43283.53
543.31	43555.03
543.48	43288.21
543.64	43761.00
543.81	43810.15
543.98	43793.76
544.15	43557.37
544.32	43515.24
544.48	43746.95
544.65	43419.28
544.82	43889.73
544.99	43433.32
545.16	43878.02
545.32	43482.47
545.49	43882.70
545.66	44390.60
545.83	44076.97
546.00	43812.49
546.16	43847.60
546.33	44004.41
546.50	43613.54
546.67	43899.09
546.83	43620.56
547.00	44245.49
547.17	43824.19
547.34	43978.67
547.50	44163.57
547.67	44217.40
547.84	44018.46
548.00	44479.54
548.17	44477.20
548.34	44203.36
548.51	44919.56
548.67	44720.62
548.84	44992.12
549.01	44390.60
549.18	44645.72
549.34	44421.03
549.51	44741.68
549.68	44563.80
549.84	44582.52
550.01	44968.71
550.18	44575.50
550.34	44659.76
550.51	44638.70
550.68	44882.11
550.84	44809.56
551.01	45017.86
551.18	44893.82
551.34	44470.18
551.51	44971.05
551.68	44940.63
551.84	44957.01
552.01	44690.19
552.18	44734.66
552.34	44573.16
552.51	44708.91
552.68	44891.48
552.84	45317.45
553.01	45336.18
553.18	45287.03
553.34	45338.52
553.51	44676.15
553.67	45378.31
553.84	45432.14
554.01	45553.85
554.17	45240.21
554.34	45624.06
554.51	45340.86
554.67	45731.73
554.84	45347.88
555.00	45495.33
555.17	45237.87
555.33	45338.52
555.50	45731.73
555.67	45827.69
555.83	45535.12
556.00	45530.44
556.16	45757.47
556.33	45146.59
556.50	45385.33
556.66	45558.53
556.83	45155.96
556.99	45748.11
557.16	45516.40
557.32	46178.77
557.49	45687.26
557.65	45577.25
557.82	45858.12
557.98	45958.76
558.15	45724.71
558.32	45572.57
558.48	45743.43
558.65	45879.18
558.81	45755.13
558.98	45773.86
559.14	45600.66
559.31	45528.10
559.47	45914.29
559.64	46059.40
559.80	46007.91
559.97	45888.54
560.13	45752.79
560.30	45577.25
560.46	46120.26
560.63	46569.64
560.79	46012.59
560.96	46356.65
561.12	46382.40
561.29	45998.55
561.45	45888.54
561.61	45947.06
561.78	45661.51
561.94	46043.02
562.11	46136.64
562.27	46160.05
562.44	46237.28
562.60	46576.66
562.77	46506.44
562.93	46382.40
563.10	46389.42
563.26	45804.28
563.42	46382.40
563.59	46007.91
563.75	46499.42
563.92	45914.29
564.08	46059.40
564.24	46347.29
564.41	46370.69
564.57	46202.18
564.74	46513.47
564.90	46096.85
565.07	46457.29
565.23	46410.48
565.39	46450.27
565.56	46106.21
565.72	46328.56
565.88	46426.87
566.05	46263.03
566.21	46246.65
566.38	46162.39
566.54	46419.84
566.70	46784.97
566.87	46775.61
567.03	46520.49
567.19	46850.50
567.36	46602.41
567.52	46698.37
567.68	46476.02
567.85	46307.50
568.01	46279.41
568.17	46267.71
568.34	46663.26
568.50	46319.20
568.66	46361.33
568.83	46763.90
568.99	46197.49
569.15	46204.52
569.32	46590.70
569.48	46188.13
569.64	46576.66
569.81	46415.16
569.97	47058.81
570.13	46323.88
570.30	46263.03
570.46	46319.20
570.62	46419.84
570.78	46281.75
570.95	46064.08
571.11	46756.88
571.27	46340.27
571.43	46719.43
571.60	46349.63
571.76	45860.46
571.92	46726.46
572.09	46749.86
572.25	46754.54
572.41	46293.46
572.57	46948.81
572.74	46822.42
572.90	46742.84
573.06	46417.50
573.22	46396.44
573.38	46684.33
573.55	46539.21
573.71	46983.91
573.87	46794.33
574.03	46579.00
574.20	46850.50
574.36	46621.13
574.52	46759.22
574.68	46880.93
574.84	46454.95
575.01	46590.70
575.17	46260.69
575.33	46248.99
575.49	46583.68
575.65	46827.10
575.82	46766.24
575.98	46478.36
576.14	46719.43
576.30	46777.95
576.46	46511.13
576.62	46305.16
576.79	46466.66
576.95	46457.29
577.11	46251.33
577.27	46665.60
577.43	46721.77
577.59	47054.13
577.75	46445.59
577.92	46321.54
578.08	46452.61
578.24	46199.83
578.40	46728.80
578.56	46508.79
578.72	46454.95
578.88	46834.12
579.04	46791.99
579.21	46595.38
579.37	46476.02
579.53	46988.60
579.69	46710.07
579.85	46651.56
580.01	47014.34
580.17	46766.24
580.33	46969.87
580.49	46995.62
580.65	46791.99
580.82	47093.92
580.98	46630.49
581.14	46773.27
581.30	47157.11
581.46	46745.18
581.62	46597.73
581.78	47023.70
581.94	47075.19
582.10	46600.07
582.26	47002.64
582.42	46894.97
582.58	46342.61
582.74	46534.53
582.90	46852.84
583.06	46803.69
583.22	47304.57
583.38	47269.46
583.54	47430.96
583.70	46834.12
583.86	47126.69
584.02	46714.75
584.18	46799.01
584.34	46686.67
584.50	46768.58
584.66	46604.75
584.82	46731.14
584.98	47075.19
585.14	47136.05
585.30	46567.30
585.46	46857.52
585.62	46483.04
585.78	46459.63
585.94	46504.10
586.10	46677.30
586.26	46894.97
586.42	47061.15
586.58	46841.14
586.74	46763.90
586.90	46925.40
587.06	47007.32
587.22	46749.86
587.38	46944.12
587.54	47103.28
587.70	46850.50
587.86	46855.18
588.02	46815.40
588.18	47079.88
588.34	46799.01
588.49	46370.69
588.65	45989.19
588.81	45982.16
588.97	46246.65
589.13	45883.86
589.29	46686.67
589.45	46389.42
589.61	46836.46
589.77	46789.65
