SpectraSuite Data File
++++++++++++++++++++++++++++++++++++
Date: Fri Oct 25 10:44:25 EDT 2013
User: price-jones
Dark Spectrum Present: No
Reference Spectrum Present: No
Number of Sampled Component Spectra: 1
Spectrometers: USB2+H05261
Integration Time (usec): 100000 (USB2+H05261)
Spectra Averaged: 1 (USB2+H05261)
Boxcar Smoothing: 0 (USB2+H05261)
Correct for Electrical Dark: No (USB2+H05261)
Strobe/Lamp Enabled: No (USB2+H05261)
Correct for Detector Non-linearity: No (USB2+H05261)
Correct for Stray Light: No (USB2+H05261)
Number of Pixels in Processed Spectrum: 2048
>>>>>Begin Processed Spectral Data<<<<<
365.73	112.35
365.92	112.35
366.12	112.35
366.32	67.88
366.52	70.22
366.72	46.81
366.91	2.34
367.11	37.45
367.31	9.36
367.51	21.06
367.70	0.00
367.90	28.09
368.10	0.00
368.30	42.13
368.49	4.68
368.69	53.83
368.89	11.70
369.09	88.94
369.28	39.79
369.48	28.09
369.68	51.49
369.87	63.19
370.07	74.90
370.27	124.05
370.47	124.05
370.66	397.89
370.86	449.38
371.06	425.98
371.25	507.90
371.45	449.38
371.65	454.06
371.84	425.98
372.04	379.17
372.24	430.66
372.44	435.34
372.63	491.51
372.83	517.26
373.03	491.51
373.22	582.79
373.42	580.45
373.62	503.22
373.81	484.49
374.01	587.47
374.21	655.35
374.40	531.30
374.60	674.07
374.79	608.54
374.99	587.47
375.19	702.16
375.38	667.05
375.58	564.07
375.78	561.73
375.97	545.34
376.17	573.43
376.37	533.64
376.56	643.65
376.76	685.78
376.95	610.88
377.15	650.67
377.35	732.59
377.54	676.41
377.74	671.73
377.93	638.97
378.13	596.84
378.33	622.58
378.52	653.01
378.72	720.88
378.91	582.79
379.11	723.23
379.31	594.50
379.50	636.63
379.70	711.52
379.89	678.76
380.09	662.37
380.28	653.01
380.48	690.46
380.68	706.84
380.87	681.10
381.07	622.58
381.26	774.72
381.46	720.88
381.65	748.97
381.85	777.06
382.04	664.71
382.24	685.78
382.43	765.36
382.63	770.04
382.83	732.59
383.02	725.57
383.22	746.63
383.41	669.39
383.61	748.97
383.80	873.02
384.00	863.66
384.19	732.59
384.39	851.96
384.58	777.06
384.78	772.38
384.97	800.46
385.17	819.19
385.36	793.44
385.56	795.78
385.75	809.83
385.95	875.36
386.14	861.32
386.34	847.27
386.53	781.74
386.72	786.42
386.92	819.19
387.11	809.83
387.31	896.43
387.50	884.72
387.70	873.02
387.89	929.19
388.09	952.60
388.28	950.26
388.48	905.79
388.67	912.81
388.86	1008.77
389.06	910.47
389.25	1050.90
389.45	1036.86
389.64	997.07
389.84	1088.35
390.03	1039.20
390.22	952.60
390.42	1043.88
390.61	931.53
390.81	1083.67
391.00	1137.50
391.19	1083.67
391.39	1144.52
391.58	1076.65
391.78	1055.58
391.97	1081.33
392.16	1081.33
392.36	1102.39
392.55	1062.60
392.75	1095.37
392.94	1004.09
393.13	1004.09
393.33	1001.75
393.52	1034.52
393.71	1165.59
393.91	1123.46
394.10	1100.05
394.29	1125.80
394.49	1109.41
394.68	1266.23
394.88	1203.04
395.07	1320.06
395.26	1245.16
395.46	1306.02
395.65	1226.44
395.84	1254.53
396.04	1306.02
396.23	1242.82
396.42	1146.86
396.62	1249.85
396.81	1221.76
397.00	1301.34
397.19	1327.08
397.39	1341.13
397.58	1411.34
397.77	1409.00
397.97	1441.77
398.16	1511.99
398.35	1633.69
398.55	1483.90
398.74	1572.84
398.93	1629.01
399.12	1568.16
399.32	1509.65
399.51	1610.29
399.70	1675.82
399.90	1600.93
400.09	1582.20
400.28	1706.25
400.47	1748.38
400.67	1617.31
400.86	1720.29
401.05	1694.55
401.24	1785.83
401.44	1722.63
401.63	1734.34
401.82	1767.10
402.01	1722.63
402.21	1891.15
402.40	1748.38
402.59	1802.21
402.78	1799.87
402.97	1760.08
403.17	1858.39
403.36	1937.96
403.55	1877.11
403.74	1928.60
403.93	1858.39
404.13	1989.46
404.32	1947.33
404.51	1870.09
404.70	2073.71
404.89	1987.11
405.09	2031.58
405.28	1959.03
405.47	1994.14
405.66	1952.01
405.85	2106.48
406.05	2022.22
406.24	2139.25
406.43	2024.56
406.62	2139.25
406.81	2312.45
407.00	2202.44
407.20	2136.91
407.39	2190.74
407.58	2211.81
407.77	2190.74
407.96	2300.75
408.15	2361.60
408.34	2265.64
408.54	2305.43
408.73	2483.31
408.92	2413.09
409.11	2436.50
409.30	2305.43
409.49	2293.72
409.68	2354.58
409.87	2401.39
410.07	2394.37
410.26	2356.92
410.45	2413.09
410.64	2401.39
410.83	2518.42
411.02	2537.14
411.21	2663.53
411.40	2642.46
411.59	2630.76
411.78	2670.55
411.98	2551.18
412.17	2726.72
412.36	2801.62
412.55	2862.48
412.74	2799.28
412.93	2801.62
413.12	2843.75
413.31	2904.60
413.50	2850.77
413.69	2789.92
413.88	3019.29
414.07	2946.73
414.26	3005.25
414.45	3047.38
414.64	2888.22
414.83	3101.21
415.02	3187.81
415.22	3190.15
415.41	3187.81
415.60	3194.83
415.79	3248.66
415.98	3372.71
416.17	3293.13
416.36	3204.19
416.55	3293.13
416.74	3332.92
416.93	3328.24
417.12	3442.93
417.31	3368.03
417.50	3520.17
417.69	3721.45
417.88	3353.99
418.07	3555.27
418.26	3543.57
418.45	3599.74
418.64	3726.13
418.83	3616.13
419.02	3679.32
419.21	3730.81
419.39	3784.65
419.58	3606.77
419.77	3709.75
419.96	3651.24
420.15	3868.91
420.34	3765.92
420.53	3871.25
420.72	3920.40
420.91	3955.51
421.10	3899.33
421.29	4032.74
421.48	3852.52
421.67	4014.02
421.86	3969.55
422.05	3953.16
422.24	3831.46
422.43	3920.40
422.61	3906.35
422.80	3918.06
422.99	3967.21
423.18	4159.13
423.37	3950.82
423.56	4142.75
423.75	4009.34
423.94	4070.19
424.13	3882.95
424.32	3822.09
424.50	4145.09
424.69	4147.43
424.88	4149.77
425.07	4004.66
425.26	3892.31
425.45	4074.87
425.64	3988.27
425.83	4056.15
426.01	4175.52
426.20	4215.30
426.39	4056.15
426.58	4135.73
426.77	3929.76
426.96	3901.67
427.15	3992.95
427.33	4219.99
427.52	4297.22
427.71	4180.20
427.90	4222.33
428.09	4294.88
428.28	4367.44
428.46	4301.90
428.65	4273.82
428.84	4327.65
429.03	4292.54
429.22	4322.97
429.40	4187.22
429.59	4379.14
429.78	3995.29
429.97	4002.32
430.16	4149.77
430.34	4358.08
430.53	4100.62
430.72	4348.72
430.91	4306.59
431.10	4454.04
431.28	4603.83
431.47	4863.63
431.66	4800.44
431.85	4770.01
432.03	4884.70
432.22	4809.80
432.41	4732.56
432.60	4718.52
432.79	4873.00
432.97	4744.27
433.16	4926.83
433.35	4793.42
433.54	4807.46
433.72	4760.65
433.91	4952.57
434.10	4896.40
434.28	4739.58
434.47	4999.38
434.66	4950.23
434.85	5137.48
435.03	5130.45
435.22	5015.77
435.41	5224.08
435.59	5057.90
435.78	5137.48
435.97	5203.01
436.16	5336.42
436.34	5284.93
436.53	5331.74
436.72	5462.81
436.90	5111.73
437.09	5357.49
437.28	5313.02
437.46	5437.06
437.65	5273.23
437.84	5451.11
438.02	5331.74
438.21	5348.12
438.40	5298.97
438.58	5446.43
438.77	5678.14
438.96	5734.31
439.14	5687.50
439.33	5643.03
439.52	5834.96
439.70	5753.04
439.89	5879.43
440.08	5795.17
440.26	5884.11
440.45	5926.24
440.63	6118.16
440.82	6097.10
441.01	6038.58
441.19	6284.34
441.38	6127.52
441.57	6310.08
441.75	6314.77
441.94	6527.75
442.12	6558.18
442.31	6431.79
442.50	6593.29
442.68	6373.28
442.87	6457.54
443.05	6544.14
443.24	6747.76
443.43	6635.42
443.61	6649.46
443.80	6913.94
443.98	6544.14
444.17	6523.07
444.35	6654.14
444.54	6789.89
444.73	6815.64
444.91	6707.98
445.10	6530.09
445.28	6565.20
445.47	6553.50
445.65	6630.74
445.84	6644.78
446.02	6759.47
446.21	6700.95
446.39	6773.51
446.58	6722.02
446.77	6897.56
446.95	6705.63
447.14	6920.96
447.32	7150.34
447.51	6930.33
447.69	6740.74
447.88	6799.26
448.06	7096.50
448.25	6766.49
448.43	6909.26
448.62	6801.60
448.80	6839.05
448.99	6911.60
449.17	7286.09
449.36	7063.74
449.54	7215.87
449.73	7323.54
449.91	7119.91
450.10	7339.92
450.28	7442.90
450.46	7634.83
450.65	7438.22
450.83	7573.97
451.02	7435.88
451.20	7328.22
451.39	7564.61
451.57	7272.04
451.76	7332.90
451.94	7665.25
452.13	7449.93
452.31	7461.63
452.49	7192.47
452.68	7447.58
452.86	7286.09
453.05	7555.25
453.23	7377.37
453.42	7478.01
453.60	7585.68
453.78	7543.55
453.97	7501.42
454.15	7566.95
454.34	7641.85
454.52	7646.53
454.70	7758.88
454.89	7775.26
455.07	7632.49
455.26	8067.83
455.44	8018.68
455.62	7920.37
455.81	7847.82
455.99	8198.90
456.17	8156.77
456.36	8149.75
456.54	8393.16
456.73	8208.26
456.91	8496.14
457.09	8273.79
457.28	8580.40
457.46	8259.75
457.64	8559.34
457.83	8255.07
458.01	8304.22
458.19	8353.37
458.38	8468.06
458.56	8269.11
458.74	8461.04
458.93	8379.12
459.11	8322.94
459.29	8573.38
459.48	8627.21
459.66	8526.57
459.84	8390.82
460.03	8849.57
460.21	8746.58
460.39	8765.31
460.57	8856.59
460.76	8947.87
460.94	8954.89
461.12	8805.10
461.31	8865.95
461.49	8592.11
461.67	8723.18
461.85	9100.00
462.04	9041.49
462.22	9064.89
462.40	8872.97
462.59	9123.41
462.77	9064.89
462.95	9214.69
463.13	9053.19
463.32	9076.60
463.50	9205.33
463.68	9432.36
463.86	9320.01
464.05	9116.39
464.23	9116.39
464.41	9352.78
464.59	9121.07
464.78	9418.32
464.96	9476.83
465.14	9242.78
465.32	9408.95
465.50	9673.43
465.69	9614.92
465.87	9528.32
466.05	9533.00
466.23	9366.82
466.41	9603.22
466.60	9603.22
466.78	9500.23
466.96	9568.11
467.14	9736.63
467.32	9521.30
467.51	9980.04
467.69	9572.79
467.87	9633.64
468.05	9778.76
468.23	9767.06
468.41	9645.35
468.60	9778.76
468.78	9799.82
468.96	9881.74
469.14	9961.32
469.32	9970.68
469.50	9720.24
469.69	10003.45
469.87	9951.96
470.05	9994.09
470.23	10136.86
470.41	9961.32
470.59	10246.87
470.77	10237.50
470.95	10078.35
471.14	10230.48
471.32	10265.59
471.50	10626.03
471.68	10396.66
471.86	10485.60
472.04	10560.50
472.22	10972.43
472.40	10609.65
472.58	10532.41
472.77	10902.22
472.95	10726.68
473.13	11243.93
473.31	10590.92
473.49	10726.68
473.67	10897.53
473.85	10960.73
474.03	11201.80
474.21	11346.92
474.39	11412.45
474.57	11250.96
474.75	11571.61
474.93	11524.80
475.12	11396.07
475.30	11382.03
475.48	11433.52
475.66	11630.12
475.84	11496.71
476.02	11489.69
476.20	11730.76
476.38	11964.82
476.56	12044.40
476.74	12028.01
476.92	11843.11
477.10	12271.43
477.28	12477.40
477.46	12294.83
477.64	12624.85
477.82	12725.49
478.00	12802.73
478.18	12748.90
478.36	12851.88
478.54	13128.06
478.72	12924.44
478.90	13217.01
479.08	13408.93
479.26	13490.85
479.44	13327.01
479.62	13547.02
479.80	13748.31
479.98	13802.14
480.16	13975.34
480.34	13902.78
480.52	14195.35
480.70	14080.66
480.88	14090.02
481.06	14040.87
481.24	14403.66
481.41	14499.62
481.59	14768.78
481.77	14986.45
481.95	14839.00
482.13	15190.08
482.31	14995.81
482.49	15147.95
482.67	15220.50
482.85	15447.54
483.03	15688.61
483.21	15887.56
483.39	15630.10
483.57	15733.08
483.74	15957.77
483.92	16067.78
484.10	15875.85
484.28	16322.90
484.46	16362.69
484.64	16690.36
484.82	16266.72
485.00	16718.45
485.18	16788.66
485.35	17083.57
485.53	16575.67
485.71	16676.32
485.89	16929.09
486.07	16807.39
486.25	16987.61
486.43	17076.55
486.61	17369.12
486.78	17404.22
486.96	17958.93
487.14	18228.09
487.32	18171.92
487.50	18478.53
487.68	18883.44
487.85	18813.23
488.03	18635.35
488.21	19119.84
488.39	19075.37
488.57	19082.39
488.75	19386.66
488.92	19616.03
489.10	20224.57
489.28	20034.99
489.46	20016.26
489.64	20175.42
489.81	20645.87
489.99	20184.78
490.17	20662.25
490.35	20758.21
490.53	20856.51
490.70	20802.68
490.88	21076.52
491.06	21549.31
491.24	21170.15
491.41	21355.05
491.59	21214.62
491.77	21446.33
491.95	21713.15
492.13	21846.56
492.30	22082.95
492.48	22125.08
492.66	22061.89
492.84	22242.11
493.01	22576.81
493.19	22583.83
493.37	22981.72
493.54	22724.26
493.72	22986.40
493.90	22944.27
494.08	23346.84
494.25	23616.01
494.43	23885.17
494.61	23768.14
494.79	24240.93
494.96	24285.40
495.14	24217.52
495.32	24105.18
495.49	24191.78
495.67	24381.36
495.85	24819.04
496.02	24992.24
496.20	25083.52
496.38	24933.73
496.55	25221.61
496.73	25834.83
496.91	25238.00
497.09	25568.01
497.26	25930.80
497.44	25668.66
497.62	25797.38
497.79	25930.80
497.97	25652.27
498.14	25841.85
498.32	26047.82
498.50	26359.11
498.67	26368.48
498.85	26455.08
499.03	26993.40
499.20	27009.78
499.38	26794.45
499.56	26766.37
499.73	27264.90
499.91	27473.21
500.08	27314.05
500.26	26862.33
500.44	27433.42
500.61	27367.88
500.79	27225.11
500.97	27470.87
501.14	27873.44
501.32	27672.15
501.49	27513.00
501.67	27543.42
501.84	28048.98
502.02	28154.30
502.20	28308.78
502.37	28318.14
502.55	28088.77
502.72	28690.29
502.90	28439.85
503.07	29013.28
503.25	29062.43
503.43	28657.52
503.60	28779.23
503.78	28786.25
503.95	28931.36
504.13	29109.24
504.30	29298.83
504.48	29429.90
504.65	28989.88
504.83	29638.20
505.01	29673.31
505.18	29895.66
505.36	30291.21
505.53	30045.46
505.71	30293.55
505.88	30326.32
506.06	29961.20
506.23	30689.10
506.41	30230.36
506.58	30188.23
506.76	30480.80
506.93	30682.08
507.11	30501.86
507.28	30899.75
507.46	30281.85
507.63	30682.08
507.81	31262.54
507.98	30925.50
508.16	31241.47
508.33	31468.50
508.50	30906.77
508.68	31524.68
508.85	31908.52
509.03	31751.71
509.20	31854.69
509.38	31971.72
509.55	31833.63
509.73	32357.91
509.90	32400.04
510.08	32154.28
510.25	32109.81
510.42	32535.79
510.60	32910.27
510.77	32514.72
510.95	33153.69
511.12	32308.76
511.30	32751.12
511.47	33340.93
511.64	32919.63
511.82	33298.80
511.99	32774.52
512.17	33174.75
512.34	32936.02
512.51	33205.18
512.69	33750.52
512.86	33680.31
513.04	33755.21
513.21	33404.13
513.38	33631.16
513.56	33434.55
513.73	33256.67
513.90	33708.40
514.08	33633.50
514.25	33783.29
514.43	34031.39
514.60	34066.50
514.77	34096.92
514.95	34335.66
515.12	33766.91
515.29	34330.98
515.47	34696.10
515.64	34941.86
515.81	34455.03
515.99	34349.70
516.16	34220.97
516.33	33984.58
516.51	34249.06
516.68	33633.50
516.85	34019.69
517.03	33813.72
517.20	34466.73
517.37	35306.98
517.54	35274.21
517.72	34745.25
517.89	34534.60
518.06	34747.59
518.24	34527.58
518.41	34644.61
518.58	35360.81
518.75	35332.73
518.93	35281.24
519.10	35185.27
519.27	35910.84
519.45	35634.66
519.62	35770.41
519.79	35934.24
519.96	36219.79
520.14	36163.62
520.31	36046.59
520.48	35784.45
520.65	36282.98
520.83	36781.52
521.00	36587.25
521.17	36694.92
521.34	36886.84
521.52	36889.18
521.69	36549.81
521.86	37298.78
522.03	36786.20
522.20	37188.77
522.38	36952.38
522.55	37148.98
522.72	36830.67
522.89	37174.73
523.07	37352.61
523.24	37422.83
523.41	37715.39
523.58	37495.38
523.75	38209.25
523.92	37851.14
524.10	37998.60
524.27	38384.79
524.44	38302.87
524.61	38419.89
524.78	38440.96
524.96	38251.38
525.13	38506.49
525.30	38375.42
525.47	39068.22
525.64	38380.10
525.81	38391.81
525.98	38284.14
526.16	37919.02
526.33	38047.75
526.50	37958.81
526.67	38031.36
526.84	37820.72
527.01	38017.32
527.18	38253.72
527.36	38988.64
527.53	39143.12
527.70	39014.39
527.87	39449.73
528.04	39412.28
528.21	39384.19
528.38	39374.83
528.55	39580.80
528.72	39491.86
528.89	39606.55
529.07	39290.57
529.24	39058.86
529.41	39777.40
529.58	39168.87
529.75	39203.97
529.92	39950.60
530.09	39730.59
530.26	40140.19
530.43	39819.53
530.60	40091.04
530.77	39798.47
530.94	39885.07
531.11	40179.98
531.28	40224.45
531.46	40385.94
531.63	40612.98
531.80	40404.67
531.97	40208.06
532.14	40240.83
532.31	39943.58
532.48	39899.11
532.65	40662.13
532.82	40484.25
532.99	40694.89
533.16	40212.74
533.33	40449.14
533.50	40935.97
533.67	40737.02
533.84	40549.78
534.01	41001.50
534.18	40875.12
534.35	41502.38
534.52	41078.74
534.69	41048.32
534.86	41268.33
535.03	41097.47
535.20	41336.20
535.37	41801.97
535.54	41778.56
535.71	41237.90
535.88	41298.75
536.05	41315.14
536.22	41495.36
536.38	41816.01
536.55	41200.45
536.72	41617.07
536.89	41502.38
537.06	41617.07
537.23	41591.32
537.40	41820.69
537.57	41722.39
537.74	41694.30
537.91	42513.49
538.08	42485.40
538.25	41570.25
538.42	41881.55
538.59	42246.67
538.75	41776.22
538.92	42185.82
539.09	41911.97
539.26	42717.12
539.43	42375.40
539.60	42174.11
539.77	42260.71
539.94	42471.36
540.11	42136.66
540.28	42213.90
540.44	41874.52
540.61	42323.91
540.78	41982.19
540.95	42234.97
541.12	42230.29
541.29	42342.63
541.46	42277.10
541.62	42597.75
541.79	42878.61
541.96	42527.53
542.13	42536.90
542.30	42759.25
542.47	42628.18
542.63	42677.33
542.80	42864.57
542.97	43147.78
543.14	43615.88
543.31	43475.45
543.48	43077.56
543.64	44025.48
543.81	43927.17
543.98	43194.59
544.15	43796.10
544.32	43665.03
544.48	43999.73
544.65	44112.08
544.82	43845.26
544.99	43690.78
545.16	43826.53
545.32	43690.78
545.49	44126.12
545.66	44011.43
545.83	43861.64
546.00	43878.02
546.16	44556.78
546.33	44009.09
546.50	43931.86
546.67	44299.32
546.83	43629.93
547.00	43948.24
547.17	44238.47
547.34	43739.93
547.50	44116.76
547.67	43821.85
547.84	44491.24
548.00	44350.81
548.17	44217.40
548.34	44378.90
548.51	44896.16
548.67	44786.15
548.84	44381.24
549.01	44334.43
549.18	44350.81
549.34	44545.08
549.51	44760.40
549.68	44729.98
549.84	44582.52
550.01	44552.10
550.18	44732.32
550.34	44776.79
550.51	44884.45
550.68	44727.64
550.84	44486.56
551.01	45254.26
551.18	44645.72
551.34	44825.94
551.51	45170.00
551.68	45422.78
551.84	44994.46
552.01	44839.98
552.18	44919.56
552.34	44821.26
552.51	44671.46
552.68	45153.62
552.84	45368.94
553.01	45333.84
553.18	45172.34
553.34	45436.82
553.51	45038.93
553.67	45137.23
553.84	45640.45
554.01	45687.26
554.17	45823.01
554.34	45368.94
554.51	45553.85
554.67	45647.47
554.84	45883.86
555.00	45134.89
555.17	45319.79
555.33	45523.42
555.50	45294.05
555.67	45865.14
555.83	45387.67
556.00	45603.00
556.16	46012.59
556.33	45436.82
556.50	45757.47
556.66	45675.55
556.83	45432.14
556.99	45696.62
557.16	45872.16
557.32	46197.49
557.49	46007.91
557.65	45626.40
557.82	46019.61
557.98	45893.22
558.15	45825.35
558.32	45951.74
558.48	45518.74
558.65	45518.74
558.81	45502.35
558.98	45895.56
559.14	45343.20
559.31	45565.55
559.47	45925.99
559.64	46024.29
559.80	46110.89
559.97	45865.14
560.13	45933.01
560.30	46075.79
560.46	46033.66
560.63	45876.84
560.79	46436.23
560.96	46021.95
561.12	46057.06
561.29	46270.05
561.45	46375.37
561.61	45883.86
561.78	45991.53
561.94	46176.43
562.11	45940.04
562.27	46277.07
562.44	45951.74
562.60	46602.41
562.77	46337.93
562.93	46068.76
563.10	46630.49
563.26	45893.22
563.42	46185.79
563.59	46330.90
563.75	46033.66
563.92	46581.34
564.08	46454.95
564.24	46469.00
564.41	46831.78
564.57	46312.18
564.74	46405.80
564.90	46394.10
565.07	46745.18
565.23	46211.54
565.39	46256.01
565.56	46571.98
565.72	46398.78
565.88	46445.59
566.05	46284.09
566.21	45879.18
566.38	46377.72
566.54	46064.08
566.70	46457.29
566.87	46976.89
567.03	46747.52
567.19	46918.38
567.36	46560.28
567.52	46459.63
567.68	46752.20
567.85	46536.87
568.01	46646.88
568.17	46326.22
568.34	46590.70
568.50	46389.42
568.66	46248.99
568.83	46557.94
568.99	46071.10
569.15	46028.98
569.32	46415.16
569.48	46553.26
569.64	46782.63
569.81	46916.04
569.97	46286.43
570.13	46515.81
570.30	46415.16
570.46	46628.15
570.62	46258.35
570.78	46476.02
570.95	46583.68
571.11	46689.01
571.27	46724.11
571.43	46539.21
571.60	46546.23
571.76	46305.16
571.92	46731.14
572.09	46398.78
572.25	46693.69
572.41	46719.43
572.57	46520.49
572.74	47119.66
572.90	46555.60
573.06	46485.38
573.22	46672.62
573.38	46904.34
573.55	46342.61
573.71	46457.29
573.87	46824.76
574.03	46719.43
574.20	46618.79
574.36	46600.07
574.52	46768.58
574.68	46391.76
574.84	46698.37
575.01	46740.50
575.17	46885.61
575.33	46581.34
575.49	46791.99
575.65	46859.87
575.82	46939.44
575.98	46667.94
576.14	46960.51
576.30	46876.25
576.46	46574.32
576.62	46459.63
576.79	46834.12
576.95	46773.27
577.11	46487.72
577.27	46728.80
577.43	46639.86
577.59	46576.66
577.75	46646.88
577.92	46117.92
578.08	46808.37
578.24	46307.50
578.40	46515.81
578.56	46817.74
578.72	46632.83
578.88	46567.30
579.04	46927.74
579.21	46897.31
579.37	46684.33
579.53	46511.13
579.69	46424.53
579.85	47004.98
580.01	47112.64
580.17	46703.05
580.33	47173.50
580.49	46916.04
580.65	47086.90
580.82	46550.91
580.98	46843.48
581.14	46698.37
581.30	47093.92
581.46	46988.60
581.62	46719.43
581.78	46431.55
581.94	46754.54
582.10	46689.01
582.26	46932.42
582.42	46597.73
582.58	47058.81
582.74	46579.00
582.90	46649.22
583.06	46836.46
583.22	46934.76
583.38	47105.62
583.54	46864.55
583.70	47119.66
583.86	47480.11
584.02	46604.75
584.18	46911.36
584.34	46862.21
584.50	47084.56
584.66	46897.31
584.82	46618.79
584.98	46813.05
585.14	46988.60
585.30	46724.11
585.46	46810.71
585.62	46328.56
585.78	47061.15
585.94	46754.54
586.10	46714.75
586.26	46899.65
586.42	46808.37
586.58	47000.30
586.74	47023.70
586.90	46590.70
587.06	46494.74
587.22	47185.20
587.38	46440.91
587.54	47100.94
587.70	47227.33
587.86	46770.93
588.02	47100.94
588.18	47063.49
588.34	46358.99
588.49	46305.16
588.65	45897.91
588.81	46522.83
588.97	46511.13
589.13	45989.19
589.29	46656.24
589.45	46293.46
589.61	46913.70
589.77	46955.83
589.93	46574.32
