SpectraSuite Data File
++++++++++++++++++++++++++++++++++++
Date: Fri Oct 25 10:47:43 EDT 2013
User: price-jones
Dark Spectrum Present: No
Reference Spectrum Present: No
Number of Sampled Component Spectra: 1
Spectrometers: USB2+H05261
Integration Time (usec): 100000 (USB2+H05261)
Spectra Averaged: 1 (USB2+H05261)
Boxcar Smoothing: 0 (USB2+H05261)
Correct for Electrical Dark: No (USB2+H05261)
Strobe/Lamp Enabled: No (USB2+H05261)
Correct for Detector Non-linearity: No (USB2+H05261)
Correct for Stray Light: No (USB2+H05261)
Number of Pixels in Processed Spectrum: 2048
>>>>>Begin Processed Spectral Data<<<<<
365.73	91.28
365.92	91.28
366.12	91.28
366.32	49.15
366.52	4.68
366.72	18.72
366.91	67.88
367.11	93.62
367.31	0.00
367.51	14.04
367.70	88.94
367.90	2.34
368.10	86.60
368.30	84.26
368.49	4.68
368.69	51.49
368.89	37.45
369.09	25.75
369.28	39.79
369.48	28.09
369.68	112.35
369.87	77.24
370.07	114.69
370.27	93.62
370.47	201.29
370.66	372.15
370.86	407.25
371.06	409.59
371.25	517.26
371.45	409.59
371.65	444.70
371.84	498.53
372.04	428.32
372.24	465.77
372.44	393.21
372.63	531.30
372.83	470.45
373.03	472.79
373.22	498.53
373.42	552.37
373.62	524.28
373.81	500.87
374.01	489.17
374.21	550.03
374.40	463.43
374.60	566.41
374.79	585.13
374.99	564.07
375.19	575.77
375.38	613.22
375.58	564.07
375.78	568.75
375.97	629.60
376.17	564.07
376.37	622.58
376.56	578.11
376.76	535.98
376.95	622.58
377.15	641.31
377.35	638.97
377.54	599.18
377.74	620.24
377.93	559.39
378.13	620.24
378.33	592.16
378.52	592.16
378.72	638.97
378.91	615.56
379.11	603.86
379.31	617.90
379.50	496.19
379.70	596.84
379.89	690.46
380.09	648.33
380.28	657.69
380.48	692.80
380.68	664.71
380.87	571.09
381.07	636.63
381.26	751.31
381.46	692.80
381.65	653.01
381.85	671.73
382.04	566.41
382.24	713.86
382.43	657.69
382.63	615.56
382.83	613.22
383.02	711.52
383.22	760.67
383.41	699.82
383.61	741.95
383.80	772.38
384.00	699.82
384.19	716.20
384.39	676.41
384.58	765.36
384.78	767.70
384.97	774.72
385.17	809.83
385.36	805.14
385.56	779.40
385.75	697.48
385.95	788.76
386.14	814.51
386.34	830.89
386.53	774.72
386.72	812.17
386.92	826.21
387.11	786.42
387.31	760.67
387.50	807.48
387.70	887.06
387.89	847.27
388.09	856.64
388.28	896.43
388.48	844.93
388.67	809.83
388.86	798.12
389.06	957.28
389.25	891.74
389.45	880.04
389.64	842.59
389.84	880.04
390.03	898.77
390.22	835.57
390.42	954.94
390.61	842.59
390.81	851.96
391.00	964.30
391.19	957.28
391.39	917.49
391.58	868.34
391.78	945.58
391.97	924.51
392.16	936.21
392.36	1025.15
392.55	966.64
392.75	954.94
392.94	837.91
393.13	966.64
393.33	940.90
393.52	973.66
393.71	1036.86
393.91	1041.54
394.10	1013.45
394.29	1050.90
394.49	1093.03
394.68	1167.93
394.88	1015.79
395.07	1062.60
395.26	1083.67
395.46	1093.03
395.65	1139.84
395.84	1029.84
396.04	1177.29
396.23	1193.67
396.42	1067.28
396.62	1081.33
396.81	1109.41
397.00	1203.04
397.19	1151.54
397.39	1174.95
397.58	1207.72
397.77	1203.04
397.97	1263.89
398.16	1238.14
398.35	1334.11
398.55	1247.51
398.74	1310.70
398.93	1366.87
399.12	1277.93
399.32	1366.87
399.51	1245.16
399.70	1371.55
399.90	1378.58
400.09	1371.55
400.28	1364.53
400.47	1427.73
400.67	1380.92
400.86	1439.43
401.05	1348.15
401.24	1448.79
401.44	1502.62
401.63	1500.28
401.82	1519.01
402.01	1467.52
402.21	1397.30
402.40	1521.35
402.59	1453.47
402.78	1547.09
402.97	1469.86
403.17	1596.25
403.36	1502.62
403.55	1612.63
403.74	1647.74
403.93	1528.37
404.13	1668.80
404.32	1617.31
404.51	1647.74
404.70	1710.93
404.89	1654.76
405.09	1732.00
405.28	1673.48
405.47	1692.21
405.66	1774.13
405.85	1776.47
406.05	1785.83
406.24	1825.62
406.43	1621.99
406.62	1813.92
406.81	1837.32
407.00	1863.07
407.20	1811.57
407.39	1778.81
407.58	1980.09
407.77	1966.05
407.96	1935.62
408.15	1902.86
408.34	1907.54
408.54	1947.33
408.73	2001.16
408.92	2026.90
409.11	2012.86
409.30	2064.35
409.49	1998.82
409.68	1919.24
409.87	1893.49
410.07	2078.40
410.26	2043.29
410.45	2094.78
410.64	2146.27
410.83	2026.90
411.02	2134.57
411.21	2312.45
411.40	2216.49
411.59	2183.72
411.78	2244.57
411.98	2310.11
412.17	2263.30
412.36	2312.45
412.55	2263.30
412.74	2392.03
412.93	2333.51
413.12	2347.56
413.31	2499.69
413.50	2621.40
413.69	2438.84
413.88	2448.20
414.07	2361.60
414.26	2567.57
414.45	2574.59
414.64	2605.02
414.83	2630.76
415.02	2661.19
415.22	2782.90
415.41	2726.72
415.60	2715.02
415.79	2733.75
415.98	2696.30
416.17	2920.99
416.36	2855.45
416.55	2820.35
416.74	2981.84
416.93	2951.42
417.12	2801.62
417.31	2953.76
417.50	2906.95
417.69	3066.10
417.88	3047.38
418.07	2977.16
418.26	3157.38
418.45	2944.39
418.64	3150.36
418.83	3103.55
419.02	3049.72
419.21	3136.32
419.39	3213.56
419.58	3129.30
419.77	3143.34
419.96	3164.40
420.15	3297.81
420.34	3131.64
420.53	3272.07
420.72	3295.47
420.91	3206.53
421.10	3382.07
421.29	3485.06
421.48	3368.03
421.67	3433.57
421.86	3407.82
422.05	3473.36
422.24	3358.67
422.43	3396.12
422.61	3412.50
422.80	3412.50
422.99	3494.42
423.18	3522.51
423.37	3599.74
423.56	3637.19
423.75	3541.23
423.94	3428.88
424.13	3339.94
424.32	3414.84
424.50	3478.04
424.69	3536.55
424.88	3487.40
425.07	3480.38
425.26	3440.59
425.45	3534.21
425.64	3538.89
425.83	3545.91
426.01	3646.55
426.20	3506.12
426.39	3520.17
426.58	3550.59
426.77	3471.01
426.96	3527.19
427.15	3566.98
427.33	3623.15
427.52	3646.55
427.71	3592.72
427.90	3698.05
428.09	3707.41
428.28	3840.82
428.46	3756.56
428.65	3824.44
428.84	3878.27
429.03	3761.24
429.22	3712.09
429.40	3716.77
429.59	3775.28
429.78	3716.77
429.97	3531.87
430.16	3808.05
430.34	3885.29
430.53	3761.24
430.72	3847.84
430.91	3805.71
431.10	3911.04
431.28	3983.59
431.47	4060.83
431.66	4035.08
431.85	4063.17
432.03	4156.79
432.22	4208.28
432.41	4255.09
432.60	4095.94
432.79	4014.02
432.97	4177.86
433.16	4337.01
433.35	4112.32
433.54	4173.18
433.72	4138.07
433.91	4159.13
434.10	4318.29
434.28	4358.08
434.47	4236.37
434.66	4435.32
434.85	4402.55
435.03	4454.04
435.22	4475.10
435.41	4622.56
435.59	4479.79
435.78	4636.60
435.97	4645.96
436.16	4575.75
436.34	4580.43
436.53	4475.10
436.72	4634.26
436.90	4638.94
437.09	4660.01
437.28	4442.34
437.46	4695.11
437.65	4550.00
437.84	4631.92
438.02	4674.05
438.21	4727.88
438.40	4603.83
438.58	4744.27
438.77	4964.28
438.96	4723.20
439.14	5022.79
439.33	5067.26
439.52	4950.23
439.70	4978.32
439.89	5118.75
440.08	5118.75
440.26	5217.05
440.45	5111.73
440.63	5212.37
440.82	5261.52
441.01	5224.08
441.19	5526.00
441.38	5324.72
441.57	5369.19
441.75	5357.49
441.94	5647.71
442.12	5612.60
442.31	5596.22
442.50	5699.20
442.68	5699.20
442.87	5589.20
443.05	5710.91
443.24	5849.00
443.43	5652.39
443.61	5657.07
443.80	5980.07
443.98	5757.72
444.17	5476.85
444.35	5884.11
444.54	5912.19
444.73	5856.02
444.91	5647.71
445.10	5769.42
445.28	5795.17
445.47	5872.40
445.65	5944.96
445.84	5781.12
446.02	5750.70
446.21	5841.98
446.39	5774.10
446.58	5856.02
446.77	6097.10
446.95	5912.19
447.14	5837.30
447.32	5982.41
447.51	5905.17
447.69	5888.79
447.88	5872.40
448.06	5781.12
448.25	5898.15
448.43	6022.20
448.62	5937.94
448.80	5860.70
448.99	6146.25
449.17	6010.50
449.36	6113.48
449.54	6200.08
449.73	6326.47
449.91	6354.55
450.10	6221.14
450.28	6384.98
450.46	6366.26
450.65	6260.93
450.83	6291.36
451.02	6340.51
451.20	6239.87
451.39	6342.85
451.57	6523.07
451.76	6274.98
451.94	6237.53
452.13	6303.06
452.31	6415.41
452.49	6324.13
452.68	6473.92
452.86	6300.72
453.05	6511.37
453.23	6485.62
453.42	6530.09
453.60	6541.80
453.78	6590.95
453.97	6455.20
454.15	6677.55
454.34	6445.84
454.52	6670.53
454.70	6649.46
454.89	6663.51
455.07	6684.57
455.26	6768.83
455.44	6829.68
455.62	6815.64
455.81	6813.30
455.99	7040.33
456.17	6853.09
456.36	6949.05
456.54	7080.12
456.73	7112.89
456.91	7091.82
457.09	7250.98
457.28	7405.46
457.46	6918.62
457.64	7279.07
457.83	7204.17
458.01	7342.26
458.19	7426.52
458.38	7253.32
458.56	7297.79
458.74	7204.17
458.93	7372.69
459.11	7269.70
459.29	7386.73
459.48	7543.55
459.66	7463.97
459.84	7559.93
460.03	7812.71
460.21	7658.23
460.39	7545.89
460.57	7632.49
460.76	7637.17
460.94	7585.68
461.12	7740.15
461.31	7728.45
461.49	7691.00
461.67	7641.85
461.85	7817.39
462.04	7761.22
462.22	8210.60
462.40	7925.05
462.59	8168.47
462.77	7878.24
462.95	7990.59
463.13	7728.45
463.32	7995.27
463.50	8042.08
463.68	7983.57
463.86	8161.45
464.05	8058.46
464.23	7920.37
464.41	7953.14
464.59	7791.64
464.78	7981.23
464.96	8051.44
465.14	8028.04
465.32	8121.66
465.50	8095.91
465.69	8215.28
465.87	8173.15
466.05	8390.82
466.23	8112.30
466.41	8173.15
466.60	8353.37
466.78	8170.81
466.96	8318.26
467.14	8479.76
467.32	8344.01
467.51	8578.06
467.69	8287.84
467.87	8229.32
468.05	8564.02
468.23	8411.89
468.41	8547.64
468.60	8421.25
468.78	8578.06
468.96	8547.64
469.14	8765.31
469.32	8762.97
469.50	8311.24
469.69	8753.60
469.87	8795.73
470.05	8816.80
470.23	8812.12
470.41	8987.66
470.59	8887.01
470.77	8842.54
470.95	8980.64
471.14	9217.03
471.32	8947.87
471.50	9191.28
471.68	9043.83
471.86	9125.75
472.04	9390.23
472.22	9561.09
472.40	9165.54
472.58	9462.79
472.77	9411.29
472.95	9418.32
473.13	9657.05
473.31	9451.08
473.49	9460.45
473.67	9364.48
473.85	9542.36
474.03	9937.91
474.21	9928.55
474.39	10029.20
474.57	9750.67
474.75	9872.38
474.93	9935.57
475.12	9968.34
475.30	10061.96
475.48	10087.71
475.66	10148.56
475.84	10059.62
476.02	10267.93
476.20	10429.43
476.38	10434.11
476.56	10656.46
476.74	10513.69
476.92	10459.85
477.10	10473.90
477.28	10869.45
477.46	10801.57
477.64	11091.80
477.82	10885.83
478.00	11094.14
478.18	11176.06
478.36	11398.41
478.54	11421.81
478.72	11435.86
478.90	11585.65
479.08	11520.12
479.26	11733.11
479.44	11723.74
479.62	11969.50
479.80	12020.99
479.98	12100.57
480.16	12273.77
480.34	11971.84
480.52	12119.29
480.70	12163.76
480.88	12301.86
481.06	12276.11
481.24	12472.71
481.41	12830.82
481.59	12985.29
481.77	12723.15
481.95	13034.44
482.13	13245.09
482.31	13348.08
482.49	13312.97
482.67	13523.62
482.85	13509.57
483.03	13722.56
483.21	14008.11
483.39	13982.36
483.57	13975.34
483.74	14193.01
483.92	14019.81
484.10	14141.52
484.28	14410.68
484.46	14490.26
484.64	14963.04
484.82	14277.27
485.00	14579.20
485.18	14670.48
485.35	14923.26
485.53	15033.26
485.71	15119.86
485.89	15152.63
486.07	15272.00
486.25	15382.00
486.43	15484.98
486.61	15475.62
486.78	15686.27
486.96	15679.25
487.14	15974.16
487.32	15997.56
487.50	16191.83
487.68	16428.22
487.85	16652.91
488.03	16868.24
488.21	16802.71
488.39	16830.79
488.57	16875.26
488.75	16957.18
488.92	17209.96
489.10	17762.33
489.28	17406.56
489.46	17797.43
489.64	17802.11
489.81	18291.29
489.99	18148.51
490.17	18232.77
490.35	18611.94
490.53	18698.54
490.70	18518.32
490.88	18436.40
491.06	18686.84
491.24	18712.58
491.41	18820.25
491.59	18904.51
491.77	19206.44
491.95	19452.19
492.13	19262.61
492.30	19463.90
492.48	19658.16
492.66	19747.10
492.84	19784.55
493.01	19948.39
493.19	20196.48
493.37	20547.56
493.54	20292.44
493.72	20720.76
493.90	20334.57
494.08	20823.75
494.25	20854.17
494.43	21191.21
494.61	21149.08
494.79	21025.03
494.96	21270.79
495.14	21067.16
495.32	21575.06
495.49	21598.46
495.67	21900.39
495.85	21722.51
496.02	22120.40
496.20	22237.43
496.38	22115.72
496.55	22314.67
496.73	22838.95
496.91	22295.94
497.09	22888.10
497.26	22731.28
497.44	22618.94
497.62	22958.31
497.79	23304.71
497.97	23136.20
498.14	23250.88
498.32	23274.29
498.50	23491.96
498.67	23927.30
498.85	23658.14
499.03	24180.07
499.20	23941.34
499.38	24093.47
499.56	23875.80
499.73	24121.56
499.91	23922.62
500.08	24552.22
500.26	24147.31
500.44	24414.13
500.61	24376.68
500.79	24519.45
500.97	24716.06
501.14	24875.21
501.32	25062.46
501.49	24809.68
501.67	24973.52
501.84	25355.02
502.02	25118.63
502.20	25261.40
502.37	25525.88
502.55	25900.37
502.72	25422.90
502.90	25806.75
503.07	25481.41
503.25	26080.59
503.43	25977.61
503.60	26127.40
503.78	25855.90
503.95	26419.97
504.13	26181.23
504.30	26480.82
504.48	26445.71
504.65	26298.26
504.83	26845.94
505.01	27117.45
505.18	26752.32
505.36	26951.27
505.53	26803.82
505.71	27108.08
505.88	27566.83
506.06	26939.57
506.23	27108.08
506.41	27363.20
506.58	27328.10
506.76	27482.57
506.93	27728.33
507.11	27470.87
507.28	27859.40
507.46	27531.72
507.63	28060.68
507.81	27768.12
507.98	27840.67
508.16	28334.53
508.33	28252.61
508.50	28400.06
508.68	28304.10
508.85	28692.63
509.03	28620.07
509.20	28781.57
509.38	28933.70
509.55	28882.21
509.73	28971.15
509.90	29022.64
510.08	29151.37
510.25	28905.62
510.42	29221.59
510.60	29076.48
510.77	29027.32
510.95	29350.32
511.12	29411.17
511.30	29425.22
511.47	29855.87
511.64	30143.76
511.82	30150.78
511.99	29528.20
512.17	29949.50
512.34	29626.50
512.51	30277.17
512.69	30277.17
512.86	30277.17
513.04	30340.36
513.21	30352.07
513.38	30349.73
513.56	30419.94
513.73	30560.37
513.90	30595.48
514.08	30590.80
514.25	30731.23
514.43	30902.09
514.60	30932.52
514.77	30883.37
514.95	30899.75
515.12	31096.36
515.29	31136.15
515.47	31531.70
515.64	31899.16
515.81	31178.28
515.99	31365.52
516.16	31435.74
516.33	31318.71
516.51	32046.62
516.68	31398.29
516.85	31227.43
517.03	31999.80
517.20	31878.10
517.37	31915.54
517.54	31854.69
517.72	32142.58
517.89	31915.54
518.06	31828.95
518.24	31777.45
518.41	32287.69
518.58	31950.65
518.75	31967.04
518.93	32425.78
519.10	32409.40
519.27	32943.04
519.45	32624.73
519.62	33041.34
519.79	32584.94
519.96	33160.71
520.14	33296.46
520.31	33144.33
520.48	33017.94
520.65	32872.82
520.83	33085.81
521.00	33104.54
521.17	33493.07
521.34	33909.68
521.52	33624.14
521.69	33797.34
521.86	33886.28
522.03	33958.83
522.20	33619.46
522.38	34204.59
522.55	34012.66
522.72	34178.84
522.89	34302.89
523.07	34108.63
523.24	33839.47
523.41	34260.76
523.58	34272.46
523.75	34742.91
523.92	34703.12
524.10	34754.61
524.27	34796.74
524.44	34785.04
524.61	34735.89
524.78	34380.13
524.96	34979.31
525.13	35051.86
525.30	35103.35
525.47	35225.06
525.64	35211.02
525.81	35480.18
525.98	35196.98
526.16	35501.25
526.33	35145.48
526.50	35519.97
526.67	35484.86
526.84	35086.97
527.01	35077.61
527.18	35508.27
527.36	35913.18
527.53	35896.80
527.70	36037.23
527.87	36116.81
528.04	35821.90
528.21	35735.30
528.38	35669.76
528.55	36233.83
528.72	36154.26
528.89	36151.91
529.07	36100.42
529.24	36280.64
529.41	36369.58
529.58	36135.53
529.75	35969.35
529.92	36458.52
530.09	36418.74
530.26	36849.39
530.43	36706.62
530.60	36449.16
530.77	36629.38
530.94	37268.35
531.11	36603.64
531.28	36952.38
531.46	36753.43
531.63	37165.37
531.80	37191.11
531.97	37116.22
532.14	37064.72
532.31	37254.31
532.48	37235.58
532.65	37425.17
532.82	37317.50
532.99	37198.13
533.16	37113.87
533.33	37326.86
533.50	37736.46
533.67	37516.45
533.84	37769.22
534.01	37961.15
534.18	37680.28
534.35	38143.71
534.52	37947.11
534.69	37811.35
534.86	38038.39
535.03	37586.66
535.20	38375.42
535.37	38122.65
535.54	38073.49
535.71	38029.02
535.88	38405.85
536.05	38291.16
536.22	38536.92
536.38	38078.18
536.55	38424.57
536.72	38342.66
536.89	38581.39
537.06	38078.18
537.23	38895.02
537.40	38389.47
537.57	38714.80
537.74	38340.32
537.91	38969.92
538.08	38759.27
538.25	38169.46
538.42	39248.44
538.59	38941.83
538.75	38550.96
538.92	38953.54
539.09	39072.90
539.26	39229.72
539.43	39072.90
539.60	38806.08
539.77	39711.87
539.94	39290.57
540.11	39168.87
540.28	39108.01
540.44	39147.80
540.61	39210.99
540.78	38967.58
540.95	39229.72
541.12	39409.94
541.29	39487.18
541.46	39526.97
541.62	39735.27
541.79	39985.71
541.96	39311.64
542.13	39505.90
542.30	40065.29
542.47	39819.53
542.63	39756.34
542.80	39800.81
542.97	40236.15
543.14	40395.31
543.31	40353.18
543.48	39798.47
543.64	40769.79
543.81	40460.84
543.98	40411.69
544.15	39739.96
544.32	40479.57
544.48	40435.10
544.65	40568.51
544.82	40273.60
544.99	40467.86
545.16	40486.59
545.32	40844.69
545.49	40734.68
545.66	41053.00
545.83	40933.63
546.00	40765.11
546.16	41076.40
546.33	40832.99
546.50	40865.75
546.67	40952.35
546.83	40816.60
547.00	40589.57
547.17	41251.94
547.34	40840.01
547.50	41394.71
547.67	41172.36
547.84	41221.52
548.00	41544.51
548.17	41408.76
548.34	41347.90
548.51	41624.09
548.67	41511.74
548.84	41343.22
549.01	40910.22
549.18	41970.49
549.34	41907.29
549.51	41642.81
549.68	41851.12
549.84	42014.96
550.01	41996.23
550.18	41361.95
550.34	41514.08
550.51	41163.00
550.68	41228.54
550.84	41289.39
551.01	41748.14
551.18	41785.58
551.34	42038.36
551.51	41486.00
551.68	42040.70
551.84	42103.90
552.01	41949.42
552.18	42183.48
552.34	41825.37
552.51	42031.34
552.68	41656.85
552.84	42389.44
553.01	42583.71
553.18	42780.31
553.34	41968.15
553.51	41706.01
553.67	42029.00
553.84	42609.45
554.01	42384.76
554.17	42501.79
554.34	42443.27
554.51	42806.06
554.67	43100.97
554.84	42618.81
555.00	42052.41
555.17	42703.07
555.33	42562.64
555.50	42806.06
555.67	43098.62
555.83	42885.64
556.00	42483.06
556.16	43100.97
556.33	42878.61
556.50	42829.46
556.66	42852.87
556.83	42513.49
556.99	42845.85
557.16	43005.00
557.32	43157.14
557.49	42597.75
557.65	42447.96
557.82	42824.78
557.98	42574.34
558.15	43292.89
558.32	42555.62
558.48	42733.50
558.65	43260.12
558.81	42948.83
558.98	43250.76
559.14	42955.85
559.31	43316.29
559.47	43351.40
559.64	43531.62
559.80	43622.90
559.97	43662.69
560.13	42576.69
560.30	43269.48
560.46	43758.66
560.63	43239.06
560.79	43564.39
560.96	43735.25
561.12	43604.18
561.29	43297.57
561.45	43873.34
561.61	43779.72
561.78	43213.31
561.94	43283.53
562.11	43548.01
562.27	43503.54
562.44	43473.11
562.60	43908.45
562.77	43772.70
562.93	43260.12
563.10	43606.52
563.26	43791.42
563.42	43849.94
563.59	43316.29
563.75	43667.37
563.92	43524.60
564.08	44114.42
564.24	44039.52
564.41	43833.55
564.57	44062.93
564.74	43945.90
564.90	43739.93
565.07	43936.54
565.23	43688.44
565.39	43793.76
565.56	43880.36
565.72	43452.05
565.88	44074.63
566.05	43615.88
566.21	43185.22
566.38	43931.86
566.54	44074.63
566.70	44130.80
566.87	44004.41
567.03	44027.82
567.19	44182.29
567.36	44006.75
567.52	43990.37
567.68	44364.85
567.85	43971.64
568.01	44304.00
568.17	44238.47
568.34	44053.56
568.50	43929.51
568.66	44133.14
568.83	43718.87
568.99	43765.68
569.15	43782.06
569.32	43922.49
569.48	43859.30
569.64	44133.14
569.81	44292.30
569.97	44402.30
570.13	44095.69
570.30	44196.34
570.46	43892.07
570.62	43629.93
570.78	43849.94
570.95	44147.18
571.11	44011.43
571.27	44072.29
571.43	44065.27
571.60	43920.15
571.76	44315.70
571.92	43950.58
572.09	44009.09
572.25	43885.04
572.41	43929.51
572.57	44238.47
572.74	44322.72
572.90	44357.83
573.06	44428.05
573.22	44133.14
573.38	44137.82
573.55	43995.05
573.71	44114.42
573.87	43906.11
574.03	44016.11
574.20	43917.81
574.36	44107.40
574.52	44830.62
574.68	44406.98
574.84	44718.28
575.01	44259.53
575.17	44381.24
575.33	44273.57
575.49	44425.71
575.65	44673.81
575.82	44533.37
575.98	44095.69
576.14	44725.30
576.30	44360.17
576.46	44439.75
576.62	43917.81
576.79	44811.90
576.95	44289.96
577.11	44140.16
577.27	44355.49
577.43	44648.06
577.59	44123.78
577.75	44631.68
577.92	44072.29
578.08	44610.61
578.24	44418.69
578.40	44170.59
578.56	44313.36
578.72	44362.51
578.88	44612.95
579.04	44624.65
579.21	44296.98
579.37	44547.42
579.53	44568.48
579.69	44048.88
579.85	45109.14
580.01	44442.09
580.17	44720.62
580.33	44605.93
580.49	44893.82
580.65	44449.11
580.82	44608.27
580.98	44556.78
581.14	44261.87
581.30	44598.91
581.46	44304.00
581.62	44762.75
581.78	44790.83
581.94	44898.50
582.10	44580.18
582.26	44535.71
582.42	44617.63
582.58	44666.78
582.74	44371.88
582.90	44762.75
583.06	44868.07
583.22	44744.02
583.38	44898.50
583.54	44659.76
583.70	44406.98
583.86	44451.45
584.02	44205.70
584.18	44570.82
584.34	44538.05
584.50	44432.73
584.66	44453.79
584.82	44322.72
584.98	44823.60
585.14	44795.51
585.30	44350.81
585.46	44203.36
585.62	44893.82
585.78	44465.50
585.94	44053.56
586.10	44697.21
586.26	44357.83
586.42	44697.21
586.58	44603.59
586.74	44596.57
586.90	44374.22
587.06	44091.01
587.22	44428.05
587.38	44414.01
587.54	45069.36
587.70	45282.34
587.86	44882.11
588.02	44542.74
588.18	44914.88
588.34	44793.17
588.49	44587.21
588.65	44168.25
588.81	44266.55
588.97	44823.60
589.13	44395.28
589.29	44474.86
589.45	45043.61
589.61	44715.93
589.77	44758.06
589.93	44533.37
590.08	45017.86
590.24	45036.59
590.40	44406.98
