SpectraSuite Data File
++++++++++++++++++++++++++++++++++++
Date: Fri Oct 25 11:22:55 EDT 2013
User: price-jones
Dark Spectrum Present: No
Reference Spectrum Present: No
Number of Sampled Component Spectra: 1
Spectrometers: USB2+H05261
Integration Time (usec): 100000 (USB2+H05261)
Spectra Averaged: 1 (USB2+H05261)
Boxcar Smoothing: 0 (USB2+H05261)
Correct for Electrical Dark: No (USB2+H05261)
Strobe/Lamp Enabled: No (USB2+H05261)
Correct for Detector Non-linearity: No (USB2+H05261)
Correct for Stray Light: No (USB2+H05261)
Number of Pixels in Processed Spectrum: 2048
>>>>>Begin Processed Spectral Data<<<<<
365.73	205.97
365.92	205.97
366.12	205.97
366.32	173.20
366.52	170.86
366.72	168.52
366.91	138.09
367.11	131.07
367.31	117.03
367.51	145.11
367.70	142.77
367.90	91.28
368.10	67.88
368.30	145.11
368.49	88.94
368.69	177.88
368.89	166.18
369.09	142.77
369.28	198.95
369.48	154.48
369.68	128.73
369.87	187.24
370.07	217.67
370.27	126.39
370.47	346.40
370.66	535.98
370.86	587.47
371.06	723.23
371.25	688.12
371.45	573.43
371.65	695.14
371.84	713.86
372.04	641.31
372.24	650.67
372.44	603.86
372.63	681.10
372.83	681.10
373.03	734.93
373.22	826.21
373.42	767.70
373.62	784.08
373.81	744.29
374.01	805.14
374.21	767.70
374.40	791.10
374.60	802.80
374.79	800.46
374.99	814.51
375.19	791.10
375.38	767.70
375.58	814.51
375.78	840.25
375.97	837.91
376.17	830.89
376.37	842.59
376.56	833.23
376.76	917.49
376.95	919.83
377.15	880.04
377.35	809.83
377.54	828.55
377.74	898.77
377.93	884.72
378.13	908.13
378.33	922.17
378.52	882.38
378.72	957.28
378.91	992.39
379.11	968.98
379.31	968.98
379.50	990.05
379.70	877.70
379.89	959.62
380.09	968.98
380.28	1006.43
380.48	1013.45
380.68	912.81
380.87	1013.45
381.07	1064.94
381.26	987.71
381.46	987.71
381.65	1001.75
381.85	1015.79
382.04	1013.45
382.24	1107.07
382.43	1095.37
382.63	999.41
382.83	1020.47
383.02	1104.73
383.22	1102.39
383.41	1071.97
383.61	1114.10
383.80	1132.82
384.00	1095.37
384.19	1100.05
384.39	1093.03
384.58	1118.78
384.78	1172.61
384.97	1174.95
385.17	1203.04
385.36	1188.99
385.56	1111.75
385.75	1217.08
385.95	1137.50
386.14	1167.93
386.34	1144.52
386.53	1214.74
386.72	1165.59
386.92	1235.80
387.11	1270.91
387.31	1282.61
387.50	1219.42
387.70	1306.02
387.89	1287.29
388.09	1235.80
388.28	1205.38
388.48	1259.21
388.67	1299.00
388.86	1373.89
389.06	1341.13
389.25	1324.74
389.45	1289.64
389.64	1277.93
389.84	1324.74
390.03	1404.32
390.22	1310.70
390.42	1371.55
390.61	1387.94
390.81	1390.28
391.00	1357.51
391.19	1416.02
391.39	1413.68
391.58	1397.30
391.78	1465.18
391.97	1420.71
392.16	1355.17
392.36	1495.60
392.55	1511.99
392.75	1556.46
392.94	1542.41
393.13	1446.45
393.33	1497.94
393.52	1519.01
393.71	1575.18
393.91	1591.56
394.10	1582.20
394.29	1624.33
394.49	1591.56
394.68	1633.69
394.88	1558.80
395.07	1645.40
395.26	1689.87
395.46	1717.95
395.65	1764.76
395.84	1760.08
396.04	1760.08
396.23	1809.23
396.42	1596.25
396.62	1748.38
396.81	1827.96
397.00	1788.17
397.19	1764.76
397.39	1783.49
397.58	1750.72
397.77	1727.32
397.97	1771.79
398.16	1739.02
398.35	1916.90
398.55	1893.49
398.74	1806.89
398.93	1987.11
399.12	1884.13
399.32	1989.46
399.51	2057.33
399.70	1989.46
399.90	2054.99
400.09	2001.16
400.28	2108.82
400.47	2064.35
400.67	2073.71
400.86	1959.03
401.05	2155.63
401.24	2071.37
401.44	2101.80
401.63	2162.66
401.82	2160.31
402.01	2097.12
402.21	2160.31
402.40	2141.59
402.59	2228.19
402.78	2193.08
402.97	2148.61
403.17	2305.43
403.36	2272.66
403.55	2321.81
403.74	2303.09
403.93	2335.85
404.13	2410.75
404.32	2338.20
404.51	2396.71
404.70	2462.24
404.89	2368.62
405.09	2457.56
405.28	2445.86
405.47	2504.37
405.66	2593.31
405.85	2548.84
406.05	2462.24
406.24	2630.76
406.43	2593.31
406.62	2565.23
406.81	2635.44
407.00	2616.72
407.20	2600.34
407.39	2661.19
407.58	2712.68
407.77	2661.19
407.96	2855.45
408.15	2970.14
408.34	2682.25
408.54	2993.55
408.73	2808.64
408.92	2736.09
409.11	2918.65
409.30	2942.05
409.49	3012.27
409.68	2998.23
409.87	2911.63
410.07	2937.37
410.26	3028.65
410.45	3126.96
410.64	3108.23
410.83	3103.55
411.02	3218.24
411.21	3232.28
411.40	3171.43
411.59	3267.39
411.78	3208.87
411.98	3133.98
412.17	3229.94
412.36	3246.32
412.55	3293.13
412.74	3438.25
412.93	3407.82
413.12	3407.82
413.31	3597.40
413.50	3552.93
413.69	3641.87
413.88	3557.61
414.07	3445.27
414.26	3536.55
414.45	3705.07
414.64	3768.26
414.83	3751.88
415.02	3700.39
415.22	3946.14
415.41	3789.33
415.60	3873.59
415.79	3911.04
415.98	4004.66
416.17	4002.32
416.36	3962.53
416.55	4053.81
416.74	4025.72
416.93	4023.38
417.12	4273.82
417.31	4184.88
417.50	4168.49
417.69	4292.54
417.88	4311.27
418.07	4264.46
418.26	4306.59
418.45	4461.06
418.64	4512.55
418.83	4341.69
419.02	4325.31
419.21	4542.98
419.39	4442.34
419.58	4510.21
419.77	4493.83
419.96	4585.11
420.15	4629.58
420.34	4636.60
420.53	4770.01
420.72	4655.33
420.91	4681.07
421.10	4634.26
421.29	4784.06
421.48	4610.86
421.67	4727.88
421.86	4770.01
422.05	4856.61
422.24	4770.01
422.43	4882.36
422.61	4999.38
422.80	5046.20
422.99	4999.38
423.18	5032.15
423.37	5046.20
423.56	4915.12
423.75	5027.47
423.94	4884.70
424.13	4575.75
424.32	4699.80
424.50	4943.21
424.69	5149.18
424.88	5039.17
425.07	5172.58
425.26	4922.15
425.45	5062.58
425.64	4849.59
425.83	5004.07
426.01	5043.85
426.20	5064.92
426.39	5067.26
426.58	5011.09
426.77	5158.54
426.96	5174.92
427.15	5146.84
427.33	5268.55
427.52	5097.69
427.71	5219.39
427.90	5097.69
428.09	5420.68
428.28	5355.15
428.46	5455.79
428.65	5406.64
428.84	5638.35
429.03	5579.84
429.22	5383.23
429.40	5523.66
429.59	5624.31
429.78	5329.40
429.97	5320.04
430.16	5420.68
430.34	5720.27
430.53	5715.59
430.72	5617.29
430.91	5523.66
431.10	5666.44
431.28	5811.55
431.47	5849.00
431.66	5804.53
431.85	5720.27
432.03	5781.12
432.22	6038.58
432.41	6080.71
432.60	5959.00
432.79	5937.94
432.97	6019.86
433.16	6003.47
433.35	5956.66
433.54	6097.10
433.72	6167.31
433.91	6197.74
434.10	6155.61
434.28	6019.86
434.47	6101.78
434.66	6349.87
434.85	6368.60
435.03	6312.42
435.22	6223.48
435.41	6595.63
435.59	6403.71
435.78	6476.26
435.97	6490.31
436.16	6382.64
436.34	6516.05
436.53	6532.44
436.72	6665.85
436.90	6555.84
437.09	6588.61
437.28	6590.95
437.46	6612.01
437.65	6789.89
437.84	6883.52
438.02	6771.17
438.21	6881.18
438.40	6621.38
438.58	7045.01
438.77	7061.40
438.96	6892.88
439.14	7194.81
439.33	7360.98
439.52	7360.98
439.70	7384.39
439.89	7360.98
440.08	7330.56
440.26	7332.90
440.45	7339.92
440.63	7510.78
440.82	7606.74
441.01	7541.21
441.19	7726.11
441.38	7812.71
441.57	7950.80
441.75	7911.01
441.94	7988.25
442.12	8051.44
442.31	8046.76
442.50	8135.70
442.68	8009.31
442.87	8182.51
443.05	8124.00
443.24	8540.61
443.43	8140.38
443.61	8219.96
443.80	8468.06
443.98	8013.99
444.17	7861.86
444.35	8287.84
444.54	8402.52
444.73	8446.99
444.91	8156.77
445.10	8470.40
445.28	8140.38
445.47	8468.06
445.65	8278.47
445.84	8304.22
446.02	8624.87
446.21	8482.10
446.39	8344.01
446.58	8786.37
446.77	8606.15
446.95	8376.78
447.14	8365.07
447.32	8678.71
447.51	8444.65
447.69	8435.29
447.88	8524.23
448.06	8589.77
448.25	8643.60
448.43	8503.17
448.62	8601.47
448.80	8629.56
448.99	8727.86
449.17	8917.44
449.36	8819.14
449.54	8842.54
449.73	8952.55
449.91	9172.56
450.10	9238.09
450.28	9186.60
450.46	9163.20
450.65	9064.89
450.83	9191.28
451.02	9273.20
451.20	9158.52
451.39	9238.09
451.57	8968.93
451.76	9050.85
451.94	9249.80
452.13	9226.39
452.31	9324.69
452.49	9191.28
452.68	9387.89
452.86	9432.36
453.05	9556.41
453.23	9544.70
453.42	9430.02
453.60	9366.82
453.78	9582.15
453.97	9643.01
454.15	9469.81
454.34	9619.60
454.52	9811.53
454.70	9650.03
454.89	9727.27
455.07	9811.53
455.26	9951.96
455.44	9907.49
455.62	9865.36
455.81	10033.88
455.99	10106.43
456.17	10193.03
456.36	10101.75
456.54	9987.07
456.73	10396.66
456.91	10415.38
457.09	10459.85
457.28	10644.76
457.46	10399.00
457.64	10736.04
457.83	10342.83
458.01	10750.08
458.19	10726.68
458.38	10717.31
458.56	10817.96
458.74	10775.83
458.93	10874.13
459.11	10789.87
459.29	10757.10
459.48	10906.90
459.66	10890.51
459.84	10923.28
460.03	10946.69
460.21	10846.04
460.39	11037.97
460.57	10899.87
460.76	11101.16
460.94	11358.62
461.12	11435.86
461.31	11351.60
461.49	11215.85
461.67	11342.24
461.85	11698.00
462.04	11398.41
462.22	11936.73
462.40	11630.12
462.59	11499.05
462.77	11492.03
462.95	11618.42
463.13	11440.54
463.32	11702.68
463.50	11765.87
463.68	11939.07
463.86	12175.47
464.05	11702.68
464.23	11768.21
464.41	11833.75
464.59	11784.60
464.78	12224.62
464.96	12095.89
465.14	11934.39
465.32	12100.57
465.50	12259.73
465.69	12465.69
465.87	12203.55
466.05	12138.02
466.23	12334.62
466.41	12404.84
466.60	12592.08
466.78	12257.39
466.96	12091.21
467.14	12365.05
467.32	12304.20
467.51	12718.47
467.69	12119.29
467.87	12561.66
468.05	12807.41
468.23	12671.66
468.41	12500.80
468.60	12802.73
468.78	13109.34
468.96	12805.07
469.14	12863.58
469.32	12959.55
469.50	12671.66
469.69	13242.75
469.87	13322.33
470.05	13233.39
470.23	13296.58
470.41	13334.03
470.59	13502.55
470.77	13467.44
470.95	13247.43
471.14	13752.99
471.32	13219.35
471.50	13825.54
471.68	13736.60
471.86	13717.88
472.04	13771.71
472.22	14111.09
472.40	13734.26
472.58	13893.42
472.77	13944.91
472.95	14118.11
473.13	14637.71
473.31	14143.86
473.49	14398.98
473.67	14452.81
473.85	14190.67
474.03	14773.46
474.21	14516.00
474.39	14740.69
474.57	14642.39
474.75	14932.62
474.93	15021.56
475.12	15012.20
475.30	15066.03
475.48	15002.83
475.66	15562.22
475.84	15187.74
476.02	15466.26
476.20	15358.60
476.38	15925.00
476.56	15988.20
476.74	16098.20
476.92	16063.10
477.10	15714.36
477.28	15910.96
477.46	16423.54
477.64	16606.10
477.82	16779.30
478.00	16898.67
478.18	16786.32
478.36	16964.20
478.54	17240.39
478.72	17376.14
478.90	17551.68
479.08	17605.51
479.26	17802.11
479.44	18087.66
479.62	17809.14
479.80	17923.82
479.98	18237.45
480.16	18895.14
480.34	18192.98
480.52	18728.97
480.70	18691.52
480.88	18597.90
481.06	19215.80
481.24	19176.01
481.41	19225.16
481.59	19601.99
481.77	19634.75
481.95	19449.85
482.13	20004.56
482.31	19924.98
482.49	20147.33
482.67	20372.02
482.85	20615.44
483.03	20835.45
483.21	20847.15
483.39	21174.83
483.57	20844.81
483.74	21165.46
483.92	21516.54
484.10	21331.64
484.28	21664.00
484.46	21942.52
484.64	22232.75
484.82	22150.83
485.00	22359.14
485.18	22607.23
485.35	23044.91
485.53	22705.54
485.71	23431.10
485.89	23630.05
486.07	23398.34
486.25	23716.65
486.43	23604.30
486.61	23983.47
486.78	24233.91
486.96	23960.06
487.14	24631.80
487.32	24781.59
487.50	25015.65
487.68	25350.34
487.85	25362.04
488.03	25717.81
488.21	25879.30
488.39	26047.82
488.57	26176.55
488.75	26551.04
488.92	26342.73
489.10	26969.99
489.28	27208.73
489.46	27257.88
489.64	26838.92
489.81	27800.88
489.99	27669.81
490.17	27625.34
490.35	28449.21
490.53	28290.06
490.70	28610.71
490.88	28547.51
491.06	29022.64
491.24	29200.52
491.41	29034.35
491.59	29399.47
491.77	29420.53
491.95	30092.27
492.13	30256.11
492.30	30157.80
492.48	30462.07
492.66	30377.81
492.84	30604.84
493.01	31126.78
493.19	31208.70
493.37	31587.87
493.54	31379.56
493.72	31524.68
493.90	31449.78
494.08	31831.29
494.25	32496.00
494.43	32126.19
494.61	32491.32
494.79	32952.40
494.96	32570.90
495.14	33216.88
495.32	33390.08
495.49	33296.46
495.67	33453.28
495.85	34024.37
496.02	33958.83
496.20	34040.75
496.38	34550.99
496.55	33970.54
496.73	35246.13
496.91	35086.97
497.09	35321.02
497.26	35145.48
497.44	35283.58
497.62	35309.32
497.79	36168.30
497.97	35803.17
498.14	36128.51
498.32	36512.36
498.50	36479.59
498.67	37017.91
498.85	36680.88
499.03	36517.04
499.20	36737.05
499.38	37167.71
499.56	37280.05
499.73	37525.81
499.91	37729.44
500.08	37247.29
500.26	37720.07
500.44	37748.16
500.61	38206.90
500.79	38464.36
500.97	38260.74
501.14	38710.12
501.32	38534.58
501.49	38447.98
501.67	39349.09
501.84	39201.63
502.02	38817.78
502.20	39058.86
502.37	39402.92
502.55	39938.90
502.72	39880.39
502.90	40299.34
503.07	40144.87
503.25	39938.90
503.43	40006.78
503.60	40343.81
503.78	40624.68
503.95	40437.44
504.13	40762.77
504.30	40318.07
504.48	40975.76
504.65	41373.65
504.83	41294.07
505.01	41467.27
505.18	41450.89
505.36	41603.02
505.53	41223.86
505.71	42000.91
505.88	42249.01
506.06	42066.45
506.23	42045.38
506.41	42064.11
506.58	42384.76
506.76	42089.85
506.93	42611.79
507.11	42499.45
507.28	42885.64
507.46	42803.72
507.63	43325.66
507.81	43494.18
507.98	43318.64
508.16	43573.75
508.33	43620.56
508.50	43650.99
508.68	43906.11
508.85	44566.14
509.03	44203.36
509.20	44222.08
509.38	44760.40
509.55	44460.82
509.73	44961.69
509.90	44554.44
510.08	44842.32
510.25	44879.77
510.42	44903.18
510.60	45366.60
510.77	45490.65
510.95	45612.36
511.12	45495.33
511.30	45441.50
511.47	45511.72
511.64	45727.05
511.82	46160.05
511.99	46433.89
512.17	45841.73
512.34	46333.24
512.51	46433.89
512.69	46937.10
512.86	46799.01
513.04	46876.25
513.21	47033.07
513.38	47255.42
513.56	47672.03
513.73	46768.58
513.90	47271.80
514.08	47234.35
514.25	47721.18
514.43	47650.97
514.60	47547.98
514.77	47842.89
514.95	48137.80
515.12	47505.85
515.29	47620.54
515.47	48177.59
515.64	48556.75
515.81	48081.63
515.99	48467.81
516.16	48624.63
516.33	48641.01
516.51	48390.58
516.68	48512.28
516.85	48638.67
517.03	49132.53
517.20	49048.27
517.37	48854.00
517.54	49521.05
517.72	49015.50
517.89	49350.20
518.06	49432.11
518.24	49546.80
518.41	49249.55
518.58	49565.52
518.75	49631.06
518.93	49968.10
519.10	49937.67
519.27	50358.97
519.45	50127.25
519.62	50232.58
519.79	50253.64
519.96	50316.84
520.14	50445.57
520.31	50370.67
520.48	50515.78
520.65	50508.76
520.83	50820.05
521.00	50707.71
521.17	50869.20
521.34	51168.79
521.52	51121.98
521.69	51210.92
521.86	51168.79
522.03	51498.81
522.20	51243.69
522.38	51817.12
522.55	51433.27
522.72	51650.94
522.89	51459.02
523.07	51767.97
523.24	51887.34
523.41	51873.29
523.58	51587.75
523.75	52224.37
523.92	51770.31
524.10	52442.04
524.27	52069.90
524.44	52413.96
524.61	52294.59
524.78	52552.05
524.96	52360.12
525.13	52432.68
525.30	52509.92
525.47	52720.57
525.64	52727.59
525.81	53146.54
525.98	53036.54
526.16	52472.47
526.33	52914.83
526.50	53329.11
526.67	52825.89
526.84	53123.14
527.01	53097.39
527.18	52999.09
527.36	53027.18
527.53	52996.75
527.70	53324.43
527.87	53595.93
528.04	53443.79
528.21	53628.69
528.38	53481.24
528.55	53614.65
528.72	53542.10
528.89	53640.40
529.07	53577.20
529.24	53799.55
529.41	53661.46
529.58	53762.11
529.75	53734.02
529.92	53724.66
530.09	53883.81
530.26	54042.97
530.43	54426.82
530.60	54054.67
530.77	53930.62
530.94	54321.49
531.11	54045.31
531.28	54101.48
531.46	54506.40
531.63	54340.22
531.80	54623.42
531.97	54567.25
532.14	54745.13
532.31	54574.27
532.48	54955.78
532.65	54780.24
532.82	54532.14
532.99	55009.61
533.16	54880.88
533.33	55154.72
533.50	55171.11
533.67	54890.24
533.84	55009.61
534.01	55058.76
534.18	55154.72
534.35	55517.51
534.52	55107.91
534.69	55463.67
534.86	55608.79
535.03	55480.06
535.20	55341.97
535.37	55470.70
535.54	55625.17
535.71	55344.31
535.88	55660.28
536.05	55451.97
536.22	55814.76
536.38	55746.88
536.55	55821.78
536.72	55927.10
536.89	55718.79
537.06	55987.95
537.23	56030.08
537.40	55849.86
537.57	55868.59
537.74	56133.07
537.91	56324.99
538.08	55994.98
538.25	55875.61
538.42	56114.34
538.59	56385.85
538.75	56116.68
538.92	56310.95
539.09	56498.19
539.26	56231.37
539.43	56425.64
539.60	56427.98
539.77	56100.30
539.94	56573.09
540.11	56633.94
540.28	56493.51
540.44	56732.25
540.61	56460.74
540.78	56507.55
540.95	56488.83
541.12	56411.59
541.29	56530.96
541.46	56896.08
541.62	56636.28
541.79	56853.95
541.96	56575.43
542.13	56662.03
542.30	56718.20
542.47	56856.29
542.63	57050.56
542.80	56978.00
542.97	57202.69
543.14	57350.15
543.31	57043.54
543.48	57371.21
543.64	57605.26
543.81	57418.02
543.98	57581.86
544.15	57394.62
544.32	57570.16
544.48	57757.40
544.65	57631.01
544.82	57631.01
544.99	57439.09
545.16	57485.90
545.32	57542.07
545.49	57928.26
545.66	57813.57
545.83	57602.92
546.00	57993.79
546.16	57743.36
546.33	58024.22
546.50	57811.23
546.67	57858.04
546.83	57497.60
547.00	57996.13
547.17	58049.97
547.34	57776.12
547.50	58145.93
547.67	58181.04
547.84	58152.95
548.00	58241.89
548.17	58417.43
548.34	58335.51
548.51	58604.67
548.67	58372.96
548.84	58401.05
549.01	58358.92
549.18	58398.71
549.34	58464.24
549.51	58525.10
549.68	58415.09
549.84	58382.32
550.01	58365.94
550.18	58464.24
550.34	58541.48
550.51	58548.50
550.68	58592.97
550.84	58506.37
551.01	58932.35
551.18	58677.23
551.34	58749.79
551.51	58820.00
551.68	58670.21
551.84	58656.17
552.01	58688.93
552.18	58766.17
552.34	58974.48
552.51	58859.79
552.68	58834.05
552.84	58777.87
553.01	59082.14
553.18	59011.93
553.34	59054.06
553.51	58972.14
553.67	58887.88
553.84	59068.10
554.01	59004.91
554.17	59014.27
554.34	59175.76
554.51	59086.82
554.67	59131.29
554.84	59168.74
555.00	59157.04
555.17	59213.21
555.33	59194.49
555.50	59276.41
555.67	59135.98
555.83	59079.80
556.00	59138.32
556.16	59517.48
556.33	59454.29
556.50	59473.01
556.66	59449.61
556.83	59126.61
556.99	59643.87
557.16	59580.68
557.32	59482.37
557.49	59894.31
557.65	59512.80
557.82	59545.57
557.98	59529.19
558.15	59606.42
558.32	59688.34
558.48	59470.67
558.65	59437.90
558.81	59793.67
558.98	59728.13
559.14	59751.54
559.31	59711.75
559.47	60025.38
559.64	59934.10
559.80	59938.78
559.97	59971.55
560.13	59681.32
560.30	59931.76
560.46	60009.00
560.63	60142.41
560.79	60025.38
560.96	59999.63
561.12	60107.30
561.29	59833.46
561.45	59978.57
561.61	59814.73
561.78	60104.96
561.94	59983.25
562.11	60114.32
562.27	60158.79
562.44	60229.01
562.60	60133.04
562.77	60367.10
562.93	60257.09
563.10	60289.86
563.26	60034.74
563.42	60360.08
563.59	60210.28
563.75	60135.38
563.92	60189.22
564.08	60104.96
564.24	60399.86
564.41	60369.44
564.57	60329.65
564.74	60353.05
564.90	60189.22
565.07	60313.26
565.23	60350.71
565.39	60418.59
565.56	60402.21
565.72	60402.21
565.88	60214.96
566.05	60299.22
566.21	60413.91
566.38	60367.10
566.54	60577.75
566.70	60650.30
566.87	60413.91
567.03	60467.74
567.19	60458.38
567.36	60477.10
567.52	60376.46
567.68	60767.33
567.85	60591.79
568.01	60617.53
568.17	60425.61
568.34	60587.11
568.50	60591.79
568.66	60214.96
568.83	60533.28
568.99	60488.80
569.15	60519.23
569.32	60535.62
569.48	60664.35
569.64	60502.85
569.81	60505.19
569.97	60587.11
570.13	60580.09
570.30	60615.19
570.46	60809.46
570.62	60521.57
570.78	60774.35
570.95	60671.37
571.11	60830.52
571.27	60561.36
571.43	60734.56
571.60	60828.18
571.76	60708.82
571.92	60650.30
572.09	60638.60
572.25	60968.61
572.41	60570.72
572.57	60713.50
572.74	61071.60
572.90	60727.54
573.06	60968.61
573.22	60867.97
573.38	60781.37
573.55	60851.59
573.71	60968.61
573.87	60760.31
574.03	60701.79
574.20	60837.54
574.36	60638.60
574.52	60818.82
574.68	60818.82
574.84	61169.90
575.01	61006.06
575.17	60963.93
575.33	60882.02
575.49	60795.42
575.65	60963.93
575.82	60846.91
575.98	60975.64
576.14	61127.77
576.30	61087.98
576.46	60851.59
576.62	60788.39
576.79	60839.89
576.95	60786.05
577.11	60870.31
577.27	60959.25
577.43	60987.34
577.59	60989.68
577.75	60853.93
577.92	60882.02
578.08	60933.51
578.24	61078.62
578.40	60987.34
578.56	61045.85
578.72	60935.85
578.88	60896.06
579.04	61076.28
579.21	61104.37
579.37	61207.35
579.53	61137.13
579.69	60919.46
579.85	60874.99
580.01	61071.60
580.17	60872.65
580.33	61024.79
580.49	61195.65
580.65	61137.13
580.82	60949.89
580.98	61003.72
581.14	60783.71
581.30	61216.71
581.46	60945.21
581.62	61127.77
581.78	60996.70
581.94	61181.60
582.10	61118.41
582.26	60977.98
582.42	61118.41
582.58	60870.31
582.74	61148.84
582.90	60996.70
583.06	61038.83
583.22	60903.08
583.38	61120.75
583.54	61193.31
583.70	61277.57
583.86	61249.48
584.02	60963.93
584.18	61214.37
584.34	61090.32
584.50	61141.81
584.66	61120.75
584.82	61169.90
584.98	61319.70
585.14	61286.93
585.30	61109.05
585.46	61027.13
585.62	61394.59
585.78	61375.87
585.94	61116.07
586.10	61282.25
586.26	61144.16
586.42	61062.24
586.58	61347.78
586.74	61160.54
586.90	61015.43
587.06	61043.51
587.22	61371.19
587.38	61312.67
587.54	61247.14
587.70	61160.54
587.86	61155.86
588.02	61368.85
588.18	61286.93
588.34	61219.05
588.49	61209.69
