SpectraSuite Data File
++++++++++++++++++++++++++++++++++++
Date: Fri Oct 25 10:43:24 EDT 2013
User: price-jones
Dark Spectrum Present: No
Reference Spectrum Present: No
Number of Sampled Component Spectra: 1
Spectrometers: USB2+H05261
Integration Time (usec): 100000 (USB2+H05261)
Spectra Averaged: 1 (USB2+H05261)
Boxcar Smoothing: 0 (USB2+H05261)
Correct for Electrical Dark: No (USB2+H05261)
Strobe/Lamp Enabled: No (USB2+H05261)
Correct for Detector Non-linearity: No (USB2+H05261)
Correct for Stray Light: No (USB2+H05261)
Number of Pixels in Processed Spectrum: 2048
>>>>>Begin Processed Spectral Data<<<<<
365.73	187.24
365.92	187.24
366.12	187.24
366.32	44.47
366.52	28.09
366.72	51.49
366.91	0.00
367.11	46.81
367.31	65.54
367.51	25.75
367.70	11.70
367.90	0.00
368.10	0.00
368.30	11.70
368.49	39.79
368.69	32.77
368.89	0.00
369.09	0.00
369.28	11.70
369.48	53.83
369.68	11.70
369.87	37.45
370.07	25.75
370.27	149.79
370.47	163.84
370.66	393.21
370.86	376.83
371.06	454.06
371.25	479.81
371.45	451.72
371.65	552.37
371.84	423.64
372.04	454.06
372.24	468.11
372.44	418.96
372.63	397.89
372.83	510.24
373.03	475.13
373.22	552.37
373.42	503.22
373.62	496.19
373.81	531.30
374.01	510.24
374.21	538.32
374.40	512.58
374.60	582.79
374.79	599.18
374.99	550.03
375.19	547.69
375.38	528.96
375.58	636.63
375.78	559.39
375.97	547.69
376.17	631.94
376.37	622.58
376.56	676.41
376.76	660.03
376.95	643.65
377.15	636.63
377.35	582.79
377.54	589.82
377.74	561.73
377.93	634.29
378.13	634.29
378.33	634.29
378.52	622.58
378.72	648.33
378.91	606.20
379.11	613.22
379.31	617.90
379.50	674.07
379.70	662.37
379.89	638.97
380.09	653.01
380.28	674.07
380.48	688.12
380.68	608.54
380.87	695.14
381.07	662.37
381.26	709.18
381.46	704.50
381.65	716.20
381.85	667.05
382.04	692.80
382.24	744.29
382.43	681.10
382.63	706.84
382.83	706.84
383.02	706.84
383.22	746.63
383.41	669.39
383.61	739.61
383.80	781.74
384.00	786.42
384.19	828.55
384.39	823.87
384.58	819.19
384.78	767.70
384.97	786.42
385.17	779.40
385.36	751.31
385.56	847.27
385.75	835.57
385.95	791.10
386.14	786.42
386.34	823.87
386.53	819.19
386.72	788.76
386.92	844.93
387.11	891.74
387.31	880.04
387.50	784.08
387.70	901.11
387.89	826.21
388.09	887.06
388.28	884.72
388.48	933.87
388.67	940.90
388.86	912.81
389.06	910.47
389.25	976.00
389.45	931.53
389.64	884.72
389.84	875.36
390.03	945.58
390.22	1029.84
390.42	973.66
390.61	1004.09
390.81	898.77
391.00	992.39
391.19	1043.88
391.39	1074.31
391.58	1053.24
391.78	1060.26
391.97	1046.22
392.16	997.07
392.36	1046.22
392.55	1086.01
392.75	1027.50
392.94	922.17
393.13	1029.84
393.33	994.73
393.52	1041.54
393.71	1086.01
393.91	968.98
394.10	1156.22
394.29	1198.35
394.49	1123.46
394.68	1167.93
394.88	1193.67
395.07	1153.88
395.26	1172.61
395.46	1191.33
395.65	1177.29
395.84	1118.78
396.04	1165.59
396.23	1200.69
396.42	1078.99
396.62	1078.99
396.81	1165.59
397.00	1181.97
397.19	1256.87
397.39	1409.00
397.58	1350.49
397.77	1263.89
397.97	1465.18
398.16	1310.70
398.35	1427.73
398.55	1310.70
398.74	1409.00
398.93	1526.03
399.12	1497.94
399.32	1453.47
399.51	1434.75
399.70	1523.69
399.90	1544.75
400.09	1577.52
400.28	1673.48
400.47	1514.33
400.67	1554.12
400.86	1570.50
401.05	1570.50
401.24	1631.35
401.44	1746.04
401.63	1673.48
401.82	1605.61
402.01	1713.27
402.21	1816.26
402.40	1689.87
402.59	1689.87
402.78	1771.79
402.97	1783.49
403.17	1755.40
403.36	1668.80
403.55	1764.76
403.74	1797.53
403.93	1816.26
404.13	1837.32
404.32	1827.96
404.51	1764.76
404.70	1853.70
404.89	1771.79
405.09	2003.50
405.28	1816.26
405.47	1849.02
405.66	1928.60
405.85	2005.84
406.05	1963.71
406.24	1928.60
406.43	1881.79
406.62	2073.71
406.81	2087.76
407.00	2108.82
407.20	1926.26
407.39	1994.14
407.58	2005.84
407.77	2108.82
407.96	2153.29
408.15	2207.13
408.34	2200.10
408.54	2267.98
408.73	2202.44
408.92	2317.13
409.11	2284.36
409.30	2246.91
409.49	2242.23
409.68	2244.57
409.87	2377.98
410.07	2244.57
410.26	2296.07
410.45	2333.51
410.64	2370.96
410.83	2408.41
411.02	2396.71
411.21	2417.77
411.40	2541.82
411.59	2602.68
411.78	2541.82
411.98	2555.86
412.17	2569.91
412.36	2546.50
412.55	2668.21
412.74	2754.81
412.93	2626.08
413.12	2621.40
413.31	2902.26
413.50	2602.68
413.69	2789.92
413.88	2733.75
414.07	2867.16
414.26	2810.98
414.45	2913.97
414.64	2899.92
414.83	2939.71
415.02	3110.57
415.22	3016.95
415.41	2960.78
415.60	3166.74
415.79	3124.62
415.98	3150.36
416.17	3316.54
416.36	3084.83
416.55	3232.28
416.74	3124.62
416.93	3243.98
417.12	3091.85
417.31	3267.39
417.50	3267.39
417.69	3419.52
417.88	3400.80
418.07	3382.07
418.26	3515.48
418.45	3482.72
418.64	3620.81
418.83	3506.12
419.02	3454.63
419.21	3440.59
419.39	3487.40
419.58	3480.38
419.77	3487.40
419.96	3646.55
420.15	3679.32
420.34	3775.28
420.53	3676.98
420.72	3885.29
420.91	3735.50
421.10	3672.30
421.29	3803.37
421.48	3796.35
421.67	3826.78
421.86	3669.96
422.05	3707.41
422.24	3634.85
422.43	3747.20
422.61	3854.86
422.80	3733.15
422.99	3801.03
423.18	3782.31
423.37	3955.51
423.56	3833.80
423.75	3735.50
423.94	3843.16
424.13	3632.51
424.32	3667.62
424.50	3838.48
424.69	3936.78
424.88	3880.61
425.07	3817.41
425.26	3798.69
425.45	3798.69
425.64	3843.16
425.83	3805.71
426.01	3899.33
426.20	4028.06
426.39	3878.27
426.58	3878.27
426.77	3948.48
426.96	3822.09
427.15	3899.33
427.33	3962.53
427.52	4072.53
427.71	4124.02
427.90	4011.68
428.09	4107.64
428.28	4037.42
428.46	4081.89
428.65	4219.99
428.84	4236.37
429.03	4156.79
429.22	4060.83
429.40	4074.87
429.59	4149.77
429.78	3953.16
429.97	3974.23
430.16	4093.60
430.34	4065.51
430.53	4079.55
430.72	4105.30
430.91	4070.19
431.10	4332.33
431.28	4503.19
431.47	4414.25
431.66	4542.98
431.85	4486.81
432.03	4636.60
432.22	4655.33
432.41	4531.28
432.60	4554.68
432.79	4606.17
432.97	4755.97
433.16	4676.39
433.35	4608.51
433.54	4566.39
433.72	4662.35
433.91	4582.77
434.10	4697.46
434.28	4725.54
434.47	4809.80
434.66	4791.08
434.85	4795.76
435.03	4779.37
435.22	4784.06
435.41	5071.94
435.59	4917.47
435.78	5167.90
435.97	5013.43
436.16	5081.30
436.34	5074.28
436.53	5048.54
436.72	5156.20
436.90	5013.43
437.09	4877.68
437.28	5088.32
437.46	5104.71
437.65	5090.67
437.84	4887.04
438.02	5167.90
438.21	5050.88
438.40	5015.77
438.58	5291.95
438.77	5394.93
438.96	5418.34
439.14	5348.12
439.33	5469.83
439.52	5575.16
439.70	5584.52
439.89	5570.48
440.08	5600.90
440.26	5741.33
440.45	5631.33
440.63	5673.46
440.82	5851.34
441.01	5734.31
441.19	5841.98
441.38	5914.53
441.57	5933.26
441.75	6017.52
441.94	6127.52
442.12	6305.40
442.31	6260.93
442.50	6129.86
442.68	6038.58
442.87	6157.95
443.05	6134.54
443.24	6434.13
443.43	6511.37
443.61	6375.62
443.80	6494.99
443.98	6347.53
444.17	6127.52
444.35	6401.37
444.54	6499.67
444.73	6436.47
444.91	6415.41
445.10	6457.54
445.28	6469.24
445.47	6314.77
445.65	6256.25
445.84	6420.09
446.02	6466.90
446.21	6340.51
446.39	6443.49
446.58	6715.00
446.77	6635.42
446.95	6452.86
447.14	6644.78
447.32	6633.08
447.51	6452.86
447.69	6530.09
447.88	6621.38
448.06	6560.52
448.25	6553.50
448.43	6733.72
448.62	6572.22
448.80	6600.31
448.99	6738.40
449.17	6869.47
449.36	6649.46
449.54	6953.73
449.73	6995.86
449.91	6932.67
450.10	6967.77
450.28	7073.10
450.46	7096.50
450.65	7140.97
450.83	7112.89
451.02	7108.21
451.20	7033.31
451.39	7082.46
451.57	7105.87
451.76	6991.18
451.94	7103.53
452.13	7208.85
452.31	7080.12
452.49	7066.08
452.68	7269.70
452.86	6986.50
453.05	7330.56
453.23	7241.62
453.42	7311.83
453.60	7204.17
453.78	7274.38
453.97	7194.81
454.15	7201.83
454.34	7372.69
454.52	7400.77
454.70	7454.61
454.89	7279.07
455.07	7433.54
455.26	7536.52
455.44	7545.89
455.62	7503.76
455.81	7693.34
455.99	7618.44
456.17	7831.43
456.36	7564.61
456.54	7747.17
456.73	7847.82
456.91	7971.86
457.09	7939.10
457.28	8053.78
457.46	8079.53
457.64	8159.11
457.83	8107.62
458.01	7873.56
458.19	8063.15
458.38	8072.51
458.56	8133.36
458.74	7894.63
458.93	8053.78
459.11	8416.57
459.29	8056.12
459.48	8290.18
459.66	8390.82
459.84	8395.50
460.03	8198.90
460.21	8262.09
460.39	8318.26
460.57	8287.84
460.76	8428.27
460.94	8498.49
461.12	8475.08
461.31	8582.74
461.49	8451.67
461.67	8346.35
461.85	8638.92
462.04	8479.76
462.22	9219.37
462.40	8758.28
462.59	8688.07
462.77	8631.90
462.95	8788.71
463.13	8627.21
463.32	8865.95
463.50	8823.82
463.68	8805.10
463.86	8751.26
464.05	8624.87
464.23	8683.39
464.41	8978.30
464.59	8879.99
464.78	9139.79
464.96	9006.38
465.14	8819.14
465.32	9158.52
465.50	9062.55
465.69	9111.71
465.87	8931.48
466.05	8964.25
466.23	8992.34
466.41	9118.73
466.60	9153.84
466.78	9027.45
466.96	9123.41
467.14	9198.31
467.32	9123.41
467.51	9191.28
467.69	9053.19
467.87	9298.95
468.05	9390.23
468.23	9205.33
468.41	9249.80
468.60	9558.75
468.78	9303.63
468.96	9261.50
469.14	9533.00
469.32	9607.90
469.50	9343.42
469.69	9385.55
469.87	9605.56
470.05	9795.14
470.23	9458.10
470.41	9561.09
470.59	9863.02
470.77	9764.72
470.95	9806.84
471.14	9762.37
471.32	9933.23
471.50	10258.57
471.68	10249.21
471.86	10223.46
472.04	10085.37
472.22	10492.62
472.40	10249.21
472.58	10197.71
472.77	10246.87
472.95	10457.51
473.13	10724.33
473.31	10396.66
473.49	10424.75
473.67	10366.23
473.85	10445.81
474.03	10820.30
474.21	10885.83
474.39	10857.75
474.57	10939.66
474.75	10949.03
474.93	11180.74
475.12	10972.43
475.30	10902.22
475.48	11096.48
475.66	11201.80
475.84	11030.94
476.02	11281.38
476.20	11255.64
476.38	11435.86
476.56	11566.93
476.74	11548.20
476.92	11466.28
477.10	11447.56
477.28	11985.88
477.46	11925.03
477.64	11967.16
477.82	12121.63
478.00	12496.12
478.18	12432.93
478.36	12236.32
478.54	12531.23
478.72	12545.27
478.90	12561.66
479.08	12664.64
479.26	13062.53
479.44	12877.63
479.62	12996.99
479.80	13219.35
479.98	13217.01
480.16	13401.91
480.34	13357.44
480.52	13579.79
480.70	13617.24
480.88	13198.28
481.06	13748.31
481.24	13855.97
481.41	13994.06
481.59	14146.20
481.77	13923.85
481.95	14052.58
482.13	14382.59
482.31	14532.39
482.49	14581.54
482.67	14906.87
482.85	14609.62
483.03	14778.14
483.21	15260.29
483.39	15386.68
483.57	15281.36
483.74	15077.73
483.92	15365.62
484.10	15154.97
484.28	15597.33
484.46	15587.97
484.64	15950.75
484.82	16133.31
485.00	15899.26
485.18	15955.43
485.35	16018.63
485.53	15786.91
485.71	16018.63
485.89	16423.54
486.07	16390.77
486.25	16451.63
486.43	16730.15
486.61	16964.20
486.78	17106.98
486.96	17193.58
487.14	17411.25
487.32	17270.81
487.50	17549.34
487.68	17949.57
487.85	17832.54
488.03	18080.64
488.21	18216.39
488.39	18286.61
488.57	18178.94
488.75	18691.52
488.92	18848.33
489.10	19014.51
489.28	18995.79
489.46	19239.20
489.64	19257.93
489.81	19730.72
489.99	20002.22
490.17	19936.68
490.35	19953.07
490.53	19988.18
490.70	19934.34
490.88	20053.71
491.06	20655.23
491.24	20393.09
491.41	20386.07
491.59	20451.60
491.77	20374.36
491.95	20840.13
492.13	20943.11
492.30	21240.36
492.48	21090.57
492.66	21497.82
492.84	21207.59
493.01	21837.20
493.19	21708.47
493.37	21804.43
493.54	21708.47
493.72	22237.43
493.90	22061.89
494.08	22441.06
494.25	22551.06
494.43	22480.85
494.61	22930.23
494.79	23190.03
494.96	22998.10
495.14	22820.22
495.32	23192.37
495.49	23190.03
495.67	23737.71
495.85	23594.94
496.02	24311.14
496.20	24013.90
496.38	23934.32
496.55	24346.25
496.73	24444.56
496.91	24507.75
497.09	24512.43
497.26	24840.11
497.44	24657.54
497.62	24826.06
497.79	25048.41
497.97	24622.44
498.14	25085.86
498.32	25186.50
498.50	25376.09
498.67	25584.40
498.85	25680.36
499.03	25797.38
499.20	25741.21
499.38	25984.63
499.56	26106.34
499.73	25827.81
499.91	26061.87
500.08	26267.83
500.26	25795.04
500.44	26649.34
500.61	26438.69
500.79	26361.45
500.97	26387.20
501.14	26845.94
501.32	26438.69
501.49	26785.09
501.67	26738.28
501.84	26834.24
502.02	26948.93
502.20	27201.71
502.37	27285.97
502.55	27215.75
502.72	28070.04
502.90	27667.47
503.07	27611.30
503.25	27665.13
503.43	27529.38
503.60	27667.47
503.78	27857.06
503.95	27843.01
504.13	28219.84
504.30	28472.62
504.48	28191.75
504.65	28620.07
504.83	28409.42
505.01	28903.28
505.18	28816.68
505.36	29181.80
505.53	28804.97
505.71	29137.33
505.88	29240.31
506.06	28650.50
506.23	29113.92
506.41	29364.36
506.58	29076.48
506.76	29380.74
506.93	29497.77
507.11	29591.39
507.28	29773.95
507.46	29415.85
507.63	29394.79
507.81	29982.26
507.98	29647.57
508.16	29727.14
508.33	29989.28
508.50	30443.35
508.68	30342.70
508.85	30323.98
509.03	30237.38
509.20	30597.82
509.38	30771.02
509.55	30607.19
509.73	30698.47
509.90	31311.69
510.08	31049.55
510.25	30862.30
510.42	30899.75
510.60	31372.54
510.77	31826.60
510.95	31522.34
511.12	31009.76
511.30	31674.47
511.47	31690.85
511.64	32217.47
511.82	31796.18
511.99	31819.58
512.17	31866.39
512.34	31618.30
512.51	32158.96
512.69	31985.76
512.86	32002.14
513.04	32540.47
513.21	32224.50
513.38	32306.41
513.56	32533.45
513.73	32732.39
513.90	32285.35
514.08	32685.58
514.25	32528.77
514.43	32353.23
514.60	33120.92
514.77	32879.85
514.95	32849.42
515.12	33010.92
515.29	33006.23
515.47	33340.93
515.64	33617.11
515.81	33443.91
515.99	33900.32
516.16	33422.85
516.33	33010.92
516.51	33408.81
516.68	32517.06
516.85	32992.19
517.03	33432.21
517.20	33528.17
517.37	33834.78
517.54	34092.24
517.72	33741.16
517.89	33221.56
518.06	33787.97
518.24	33654.56
518.41	33853.51
518.58	33991.60
518.75	34103.95
518.93	34288.85
519.10	34366.09
519.27	34574.39
519.45	34267.78
519.62	34668.02
519.79	34588.44
519.96	34955.90
520.14	34937.18
520.31	34691.42
520.48	35204.00
520.65	35185.27
520.83	35452.09
521.00	35491.88
521.17	35625.29
521.34	35281.24
521.52	35538.69
521.69	35756.36
521.86	35339.75
522.03	35672.10
522.20	35948.29
522.38	35833.60
522.55	36168.30
522.72	36088.72
522.89	35969.35
523.07	36002.12
523.24	36126.17
523.41	36376.61
523.58	36432.78
523.75	36856.42
523.92	36439.80
524.10	36769.82
524.27	36746.41
524.44	36795.56
524.61	36645.77
524.78	36617.68
524.96	36964.08
525.13	36933.65
525.30	37308.14
525.47	37130.26
525.64	37081.11
525.81	36952.38
525.98	36840.03
526.16	36753.43
526.33	37141.96
526.50	37170.05
526.67	36793.22
526.84	37092.81
527.01	36718.32
527.18	37483.68
527.36	37237.92
527.53	37612.41
527.70	38101.58
527.87	37724.75
528.04	37708.37
528.21	37919.02
528.38	38213.93
528.55	38323.93
528.72	37977.53
528.89	38759.27
529.07	38052.43
529.24	38073.49
529.41	38541.60
529.58	38003.28
529.75	38426.92
529.92	38637.56
530.09	38532.24
530.26	38550.96
530.43	39026.09
530.60	38120.31
530.77	38864.60
530.94	38808.42
531.11	38770.97
531.28	38522.88
531.46	38920.77
531.63	39056.52
531.80	38747.57
531.97	38773.31
532.14	39051.84
532.31	38621.18
532.48	38862.26
532.65	38967.58
532.82	38913.75
532.99	39070.56
533.16	39234.40
533.33	39564.42
533.50	39746.98
533.67	39796.13
533.84	39173.55
534.01	39281.21
534.18	39225.04
534.35	40161.25
534.52	39679.10
534.69	39620.59
534.86	39995.07
535.03	39636.97
535.20	40137.85
535.37	40325.09
535.54	40346.15
535.71	39978.69
535.88	40240.83
536.05	40032.52
536.22	40156.57
536.38	40149.55
536.55	40348.50
536.72	40495.95
536.89	40023.16
537.06	40219.77
537.23	40823.62
537.40	40783.83
537.57	40524.04
537.74	40680.85
537.91	40676.17
538.08	40238.49
538.25	40357.86
538.42	41029.59
538.59	40807.24
538.75	40556.80
538.92	40545.10
539.09	40821.28
539.26	40877.46
539.43	41408.76
539.60	40549.78
539.77	40933.63
539.94	40898.52
540.11	40589.57
540.28	40687.87
540.44	40744.05
540.61	41200.45
540.78	40788.52
540.95	41263.64
541.12	40718.30
541.29	41481.31
541.46	41177.04
541.62	41495.36
541.79	41464.93
541.96	41013.21
542.13	41366.63
542.30	41223.86
542.47	41354.93
542.63	41476.63
542.80	41537.49
542.97	42171.77
543.14	41872.18
543.31	41909.63
543.48	42241.99
543.64	42197.52
543.81	42529.87
543.98	41993.89
544.15	42010.28
544.32	42532.22
544.48	42396.46
544.65	42134.32
544.82	42637.54
544.99	42375.40
545.16	42347.31
545.32	42351.99
545.49	42494.77
545.66	43002.66
545.83	42576.69
546.00	42522.85
546.16	42600.09
546.33	42136.66
546.50	42454.98
546.67	42679.67
546.83	42274.76
547.00	42857.55
547.17	42588.39
547.34	42485.40
547.50	42958.19
547.67	43482.47
547.84	42979.26
548.00	43243.74
548.17	43091.60
548.34	43026.07
548.51	43395.87
548.67	43564.39
548.84	43393.53
549.01	42625.84
549.18	43239.06
549.34	43264.80
549.51	43068.20
549.68	43381.83
549.84	43196.93
550.01	43150.12
550.18	43077.56
550.34	43386.51
550.51	43466.09
550.68	43782.06
550.84	42934.79
551.01	43267.14
551.18	43384.17
551.34	43386.51
551.51	43796.10
551.68	43672.06
551.84	43445.02
552.01	43688.44
552.18	43529.28
552.34	43761.00
552.51	44076.97
552.68	43615.88
552.84	43835.89
553.01	44273.57
553.18	43632.27
553.34	44205.70
553.51	43709.50
553.67	43945.90
553.84	44039.52
554.01	44191.65
554.17	44065.27
554.34	43899.09
554.51	44329.75
554.67	44243.15
554.84	43842.92
555.00	44100.37
555.17	44306.34
555.33	44449.11
555.50	44463.16
555.67	44339.11
555.83	44278.25
556.00	43988.03
556.16	44886.79
556.33	44273.57
556.50	44332.09
556.66	44477.20
556.83	44325.07
556.99	44315.70
557.16	44772.11
557.32	44603.59
557.49	44397.62
557.65	44151.87
557.82	44369.54
557.98	44645.72
558.15	44516.99
558.32	44299.32
558.48	44154.21
558.65	44818.92
558.81	44357.83
558.98	44304.00
559.14	44460.82
559.31	44350.81
559.47	44900.84
559.64	45076.38
559.80	45132.55
559.97	45076.38
560.13	44617.63
560.30	44273.57
560.46	44516.99
560.63	44893.82
560.79	44905.52
560.96	44992.12
561.12	45104.46
561.29	44669.12
561.45	44435.07
561.61	45015.52
561.78	44758.06
561.94	44313.36
562.11	44608.27
562.27	44795.51
562.44	44779.13
562.60	44891.48
562.77	45059.99
562.93	44715.93
563.10	45453.20
563.26	44753.38
563.42	45029.57
563.59	44886.79
563.75	45251.92
563.92	45027.23
564.08	44940.63
564.24	45481.29
564.41	45130.21
564.57	45029.57
564.74	44821.26
564.90	45240.21
565.07	45408.73
565.23	45244.90
565.39	44809.56
565.56	45485.97
565.72	44538.05
565.88	44973.39
566.05	44816.58
566.21	44884.45
566.38	45045.95
566.54	45113.83
566.70	45794.92
566.87	45586.61
567.03	45263.62
567.19	45710.66
567.36	45785.56
567.52	45151.27
567.68	45514.06
567.85	44954.67
568.01	45397.03
568.17	45588.95
568.34	45457.88
568.50	44917.22
568.66	45366.60
568.83	45483.63
568.99	45361.92
569.15	45251.92
569.32	45352.56
569.48	44788.49
569.64	45720.02
569.81	45385.33
569.97	45469.59
570.13	45516.40
570.30	45029.57
570.46	44861.05
570.62	45055.31
570.78	44502.95
570.95	44666.78
571.11	45354.90
571.27	45172.34
571.43	45366.60
571.60	45425.12
571.76	45659.17
571.92	45312.77
572.09	45684.92
572.25	45392.35
572.41	45640.45
572.57	45502.35
572.74	45933.01
572.90	45556.19
573.06	45614.70
573.22	45560.87
573.38	45322.13
573.55	45191.06
573.71	45375.97
573.87	45340.86
574.03	45532.78
574.20	45460.23
574.36	45521.08
574.52	45703.64
574.68	45514.06
574.84	45584.27
575.01	45478.95
575.17	45296.39
575.33	45333.84
575.49	45511.72
575.65	45584.27
575.82	45478.95
575.98	45848.75
576.14	46033.66
576.30	45972.80
576.46	45345.54
576.62	45560.87
576.79	45387.67
576.95	45469.59
577.11	45476.61
577.27	45312.77
577.43	45715.34
577.59	44924.24
577.75	45586.61
577.92	45125.53
578.08	45186.38
578.24	45174.68
578.40	45172.34
578.56	45523.42
578.72	45556.19
578.88	45897.91
579.04	45603.00
579.21	45404.05
579.37	45715.34
579.53	45427.46
579.69	45221.49
579.85	45537.46
580.01	45294.05
580.17	45441.50
580.33	45783.22
580.49	45860.46
580.65	45500.01
580.82	45556.19
580.98	45560.87
581.14	45223.83
581.30	45631.08
581.46	45324.47
581.62	45500.01
581.78	45801.94
581.94	45897.91
582.10	45757.47
582.26	45724.71
582.42	45563.21
582.58	45455.54
582.74	45315.11
582.90	45717.68
583.06	45949.40
583.22	46040.68
583.38	46153.02
583.54	45535.12
583.70	45670.87
583.86	45879.18
584.02	45373.63
584.18	45642.79
584.34	45724.71
584.50	45645.13
584.66	45556.19
584.82	45441.50
584.98	45633.42
585.14	45385.33
585.30	45652.15
585.46	45324.47
585.62	45130.21
585.78	45464.91
585.94	45720.02
586.10	45301.07
586.26	45633.42
586.42	45937.69
586.58	45469.59
586.74	45860.46
586.90	45574.91
587.06	45619.38
587.22	45916.63
587.38	45954.08
587.54	45827.69
587.70	46143.66
587.86	45507.04
588.02	45691.94
588.18	45773.86
588.34	45488.31
588.49	45083.40
588.65	45034.25
588.81	45001.48
588.97	45209.79
589.13	45420.44
589.29	45303.41
589.45	45205.11
589.61	45462.57
589.77	45937.69
589.93	45755.13
590.08	45862.80
