SpectraSuite Data File
++++++++++++++++++++++++++++++++++++
Date: Fri Oct 25 11:34:09 EDT 2013
User: price-jones
Dark Spectrum Present: No
Reference Spectrum Present: No
Number of Sampled Component Spectra: 1
Spectrometers: USB2+H05261
Integration Time (usec): 100000 (USB2+H05261)
Spectra Averaged: 1 (USB2+H05261)
Boxcar Smoothing: 0 (USB2+H05261)
Correct for Electrical Dark: No (USB2+H05261)
Strobe/Lamp Enabled: No (USB2+H05261)
Correct for Detector Non-linearity: No (USB2+H05261)
Correct for Stray Light: No (USB2+H05261)
Number of Pixels in Processed Spectrum: 2048
>>>>>Begin Processed Spectral Data<<<<<
365.73	245.76
365.92	245.76
366.12	245.76
366.32	238.73
366.52	189.58
366.72	208.31
366.91	182.56
367.11	269.16
367.31	128.73
367.51	159.16
367.70	191.92
367.90	161.50
368.10	194.26
368.30	229.37
368.49	175.54
368.69	220.01
368.89	177.88
369.09	203.63
369.28	287.89
369.48	194.26
369.68	201.29
369.87	191.92
370.07	292.57
370.27	278.52
370.47	330.02
370.66	421.30
370.86	543.00
371.06	594.50
371.25	545.34
371.45	554.71
371.65	535.98
371.84	517.26
372.04	510.24
372.24	559.39
372.44	545.34
372.63	554.71
372.83	585.13
373.03	674.07
373.22	667.05
373.42	543.00
373.62	561.73
373.81	627.26
374.01	608.54
374.21	650.67
374.40	671.73
374.60	678.76
374.79	603.86
374.99	631.94
375.19	617.90
375.38	692.80
375.58	653.01
375.78	706.84
375.97	627.26
376.17	683.44
376.37	655.35
376.56	599.18
376.76	655.35
376.95	638.97
377.15	718.54
377.35	704.50
377.54	664.71
377.74	676.41
377.93	664.71
378.13	648.33
378.33	692.80
378.52	739.61
378.72	678.76
378.91	706.84
379.11	660.03
379.31	709.18
379.50	725.57
379.70	753.65
379.89	772.38
380.09	746.63
380.28	697.48
380.48	741.95
380.68	704.50
380.87	648.33
381.07	711.52
381.26	758.33
381.46	718.54
381.65	727.91
381.85	795.78
382.04	765.36
382.24	732.59
382.43	798.12
382.63	821.53
382.83	741.95
383.02	786.42
383.22	809.83
383.41	734.93
383.61	833.23
383.80	891.74
384.00	723.23
384.19	770.04
384.39	784.08
384.58	765.36
384.78	837.91
384.97	861.32
385.17	847.27
385.36	856.64
385.56	891.74
385.75	866.00
385.95	866.00
386.14	842.59
386.34	837.91
386.53	868.34
386.72	891.74
386.92	887.06
387.11	882.38
387.31	887.06
387.50	741.95
387.70	854.30
387.89	917.49
388.09	833.23
388.28	891.74
388.48	849.61
388.67	945.58
388.86	880.04
389.06	912.81
389.25	987.71
389.45	936.21
389.64	947.92
389.84	1027.50
390.03	952.60
390.22	966.64
390.42	938.55
390.61	1032.18
390.81	964.30
391.00	912.81
391.19	1020.47
391.39	1006.43
391.58	1041.54
391.78	973.66
391.97	905.79
392.16	940.90
392.36	964.30
392.55	882.38
392.75	1036.86
392.94	1039.20
393.13	1104.73
393.33	999.41
393.52	1006.43
393.71	1130.48
393.91	1118.78
394.10	1114.10
394.29	1081.33
394.49	1144.52
394.68	1100.05
394.88	1137.50
395.07	1102.39
395.26	1137.50
395.46	1181.97
395.65	1083.67
395.84	1184.31
396.04	1165.59
396.23	1184.31
396.42	1144.52
396.62	1252.19
396.81	1184.31
397.00	1179.63
397.19	1203.04
397.39	1249.85
397.58	1291.98
397.77	1273.25
397.97	1231.12
398.16	1186.65
398.35	1259.21
398.55	1172.61
398.74	1313.04
398.93	1322.40
399.12	1287.29
399.32	1268.57
399.51	1275.59
399.70	1320.06
399.90	1343.47
400.09	1270.91
400.28	1338.79
400.47	1329.42
400.67	1336.45
400.86	1369.21
401.05	1394.96
401.24	1427.73
401.44	1336.45
401.63	1390.28
401.82	1444.11
402.01	1432.41
402.21	1399.64
402.40	1465.18
402.59	1465.18
402.78	1530.71
402.97	1455.81
403.17	1558.80
403.36	1519.01
403.55	1511.99
403.74	1600.93
403.93	1502.62
404.13	1612.63
404.32	1619.65
404.51	1551.78
404.70	1584.54
404.89	1575.18
405.09	1666.46
405.28	1582.20
405.47	1675.82
405.66	1685.19
405.85	1694.55
406.05	1600.93
406.24	1696.89
406.43	1680.50
406.62	1724.97
406.81	1849.02
407.00	1715.61
407.20	1788.17
407.39	1736.68
407.58	1832.64
407.77	1729.66
407.96	1834.98
408.15	1853.70
408.34	1811.57
408.54	1952.01
408.73	1867.75
408.92	1891.15
409.11	1966.05
409.30	2050.31
409.49	1996.48
409.68	2010.52
409.87	1998.82
410.07	2066.69
410.26	2010.52
410.45	2022.22
410.64	2139.25
410.83	2071.37
411.02	2085.42
411.21	2146.27
411.40	2134.57
411.59	2148.61
411.78	2118.18
411.98	2165.00
412.17	2139.25
412.36	2305.43
412.55	2146.27
412.74	2279.68
412.93	2284.36
413.12	2200.10
413.31	2389.69
413.50	2361.60
413.69	2340.54
413.88	2431.82
414.07	2466.92
414.26	2401.39
414.45	2375.64
414.64	2436.50
414.83	2574.59
415.02	2499.69
415.22	2539.48
415.41	2635.44
415.60	2574.59
415.79	2546.50
415.98	2637.78
416.17	2654.17
416.36	2703.32
416.55	2651.83
416.74	2789.92
416.93	2761.83
417.12	2771.19
417.31	2698.64
417.50	2778.22
417.69	2696.30
417.88	2839.07
418.07	2885.88
418.26	2827.37
418.45	2956.10
418.64	2979.50
418.83	3014.61
419.02	2909.29
419.21	3096.53
419.39	3033.33
419.58	3012.27
419.77	2878.86
419.96	2986.52
420.15	3052.06
420.34	2991.20
420.53	3082.49
420.72	3066.10
420.91	3232.28
421.10	3283.77
421.29	3222.92
421.48	3115.25
421.67	3346.97
421.86	3110.57
422.05	3234.62
422.24	3236.96
422.43	3236.96
422.61	3468.67
422.80	3485.06
422.99	3274.41
423.18	3239.30
423.37	3370.37
423.56	3386.76
423.75	3295.47
423.94	3316.54
424.13	3173.77
424.32	3251.00
424.50	3330.58
424.69	3349.31
424.88	3382.07
425.07	3229.94
425.26	3349.31
425.45	3286.11
425.64	3234.62
425.83	3393.78
426.01	3384.41
426.20	3318.88
426.39	3389.10
426.58	3389.10
426.77	3353.99
426.96	3503.78
427.15	3400.80
427.33	3581.02
427.52	3389.10
427.71	3609.11
427.90	3492.08
428.09	3531.87
428.28	3609.11
428.46	3550.59
428.65	3501.44
428.84	3700.39
429.03	3801.03
429.22	3562.30
429.40	3705.07
429.59	3660.60
429.78	3534.21
429.97	3599.74
430.16	3520.17
430.34	3843.16
430.53	3915.72
430.72	3740.18
430.91	3932.10
431.10	3695.71
431.28	3904.01
431.47	3803.37
431.66	3918.06
431.85	3852.52
432.03	4072.53
432.22	3964.87
432.41	4065.51
432.60	4044.45
432.79	4025.72
432.97	3978.91
433.16	3976.57
433.35	3878.27
433.54	4105.30
433.72	4049.13
433.91	4051.47
434.10	4056.15
434.28	4046.79
434.47	4131.05
434.66	4166.15
434.85	4297.22
435.03	4269.14
435.22	4229.35
435.41	4374.46
435.59	4154.45
435.78	4250.41
435.97	4358.08
436.16	4163.81
436.34	4215.30
436.53	4348.72
436.72	4512.55
436.90	4428.29
437.09	4381.48
437.28	4425.95
437.46	4568.73
437.65	4519.57
437.84	4393.19
438.02	4423.61
438.21	4451.70
438.40	4510.21
438.58	4734.90
438.77	4711.50
438.96	4599.15
439.14	4643.62
439.33	4842.57
439.52	4732.56
439.70	4777.03
439.89	4959.60
440.08	4910.44
440.26	5053.22
440.45	4795.76
440.63	4873.00
440.82	5149.18
441.01	5102.37
441.19	5102.37
441.38	5114.07
441.57	5039.17
441.75	5139.82
441.94	5200.67
442.12	5179.61
442.31	5366.85
442.50	5205.35
442.68	5308.34
442.87	5317.70
443.05	5310.68
443.24	5320.04
443.43	5472.17
443.61	5404.30
443.80	5509.62
443.98	5406.64
444.17	5104.71
444.35	5378.55
444.54	5387.91
444.73	5502.60
444.91	5511.96
445.10	5495.58
445.28	5366.85
445.47	5439.40
445.65	5448.77
445.84	5542.39
446.02	5600.90
446.21	5518.98
446.39	5530.69
446.58	5544.73
446.77	5696.86
446.95	5504.94
447.14	5514.30
447.32	5542.39
447.51	5600.90
447.69	5462.81
447.88	5652.39
448.06	5666.44
448.25	5713.25
448.43	5518.98
448.62	5685.16
448.80	5631.33
448.99	5757.72
449.17	5715.59
449.36	5521.32
449.54	5767.08
449.73	5951.98
449.91	5827.93
450.10	5956.66
450.28	6036.24
450.46	5940.28
450.65	5944.96
450.83	5973.05
451.02	5907.51
451.20	6099.44
451.39	5900.49
451.57	5907.51
451.76	5982.41
451.94	5942.62
452.13	6179.01
452.31	6181.35
452.49	6111.14
452.68	6347.53
452.86	6087.73
453.05	6310.08
453.23	6321.79
453.42	6195.40
453.60	6010.50
453.78	6139.23
453.97	6235.19
454.15	6228.17
454.34	6312.42
454.52	6356.90
454.70	6401.37
454.89	6300.72
455.07	6403.71
455.26	6504.35
455.44	6434.13
455.62	6377.96
455.81	6574.56
455.99	6623.72
456.17	6729.04
456.36	6516.05
456.54	6633.08
456.73	6761.81
456.91	6799.26
457.09	6794.58
457.28	6899.90
457.46	7007.56
457.64	6942.03
457.83	6953.73
458.01	6925.65
458.19	6988.84
458.38	6920.96
458.56	7103.53
458.74	7016.93
458.93	7049.69
459.11	7049.69
459.29	6892.88
459.48	7052.03
459.66	7140.97
459.84	7103.53
460.03	7353.96
460.21	7211.19
460.39	7204.17
460.57	7229.91
460.76	6984.16
460.94	7129.27
461.12	7414.82
461.31	7281.41
461.49	7269.70
461.67	7314.17
461.85	7480.35
462.04	7382.05
462.22	7819.73
462.40	7646.53
462.59	7339.92
462.77	7555.25
462.95	7604.40
463.13	7424.18
463.32	7595.04
463.50	7742.49
463.68	7735.47
463.86	7653.55
464.05	7559.93
464.23	7487.37
464.41	7742.49
464.59	7742.49
464.78	7920.37
464.96	7630.15
465.14	7803.35
465.32	7894.63
465.50	7894.63
465.69	7761.22
465.87	8021.02
466.05	7889.95
466.23	7960.16
466.41	8006.97
466.60	8194.22
466.78	7808.03
466.96	8077.19
467.14	8116.98
467.32	8088.89
467.51	8028.04
467.69	7822.07
467.87	8177.83
468.05	7992.93
468.23	7953.14
468.41	8011.65
468.60	8189.53
468.78	8416.57
468.96	8278.47
469.14	8517.21
469.32	8414.23
469.50	8271.45
469.69	8505.51
469.87	8463.38
470.05	8521.89
470.23	8407.20
470.41	8557.00
470.59	8629.56
470.77	8741.90
470.95	8847.22
471.14	8695.09
471.32	8549.98
471.50	8767.65
471.68	8870.63
471.86	8662.32
472.04	9011.06
472.22	9008.72
472.40	8814.46
472.58	9088.30
472.77	9226.39
472.95	9233.41
473.13	9411.29
473.31	9022.77
473.49	9385.55
473.67	9259.16
473.85	9174.90
474.03	9441.72
474.21	9542.36
474.39	9635.99
474.57	9455.76
474.75	9722.59
474.93	9774.08
475.12	9809.19
475.30	9748.33
475.48	9954.30
475.66	9928.55
475.84	9710.88
476.02	10066.64
476.20	9966.00
476.38	10214.10
476.56	10277.29
476.74	10265.59
476.92	10111.11
477.10	10291.34
477.28	10485.60
477.46	10277.29
477.64	10604.97
477.82	10754.76
478.00	10932.64
478.18	10721.99
478.36	10963.07
478.54	11021.58
478.72	10897.53
478.90	11126.91
479.08	11293.08
479.26	11243.93
479.44	11463.94
479.62	11323.51
479.80	11592.67
479.98	11466.28
480.16	11777.58
480.34	11749.49
480.52	11929.71
480.70	12049.08
480.88	11852.47
481.06	11899.28
481.24	12262.07
481.41	12236.32
481.59	12491.44
481.77	12571.02
481.95	12734.85
482.13	12732.51
482.31	12538.25
482.49	12924.44
482.67	12964.23
482.85	13149.13
483.03	13238.07
483.21	13460.42
483.39	13338.71
483.57	13408.93
483.74	13434.68
483.92	13394.89
484.10	13912.14
484.28	13668.73
484.46	14263.22
484.64	14366.21
484.82	13886.40
485.00	14317.06
485.18	14497.28
485.35	14824.95
485.53	14616.65
485.71	14831.97
485.89	15040.28
486.07	15112.84
486.25	14897.51
486.43	15159.65
486.61	15140.93
486.78	15440.51
486.96	15697.97
487.14	15613.71
487.32	15777.55
487.50	15768.19
487.68	15833.72
487.85	16262.04
488.03	16030.33
488.21	16348.64
488.39	16376.73
488.57	16875.26
488.75	16603.76
488.92	17341.03
489.10	17270.81
489.28	17167.83
489.46	17172.51
489.64	17202.94
489.81	17645.30
489.99	17734.24
490.17	17617.21
490.35	17532.95
490.53	17935.53
490.70	18427.04
490.88	18017.44
491.06	18417.68
491.24	18417.68
491.41	18328.74
491.59	18623.64
491.77	18691.52
491.95	18824.93
492.13	18977.06
492.30	19056.64
492.48	18838.97
492.66	19342.19
492.84	19325.80
493.01	19452.19
493.19	19756.46
493.37	19854.76
493.54	19803.27
493.72	20107.54
493.90	20173.08
494.08	20505.43
494.25	20343.94
494.43	20400.11
494.61	20362.66
494.79	20896.30
494.96	20837.79
495.14	21076.52
495.32	21113.97
495.49	21207.59
495.67	21343.35
495.85	21383.13
496.02	21633.57
496.20	21968.27
496.38	21589.10
496.55	21724.85
496.73	22581.49
496.91	22153.17
497.09	22188.28
497.26	22075.93
497.44	22515.95
497.62	22483.19
497.79	22731.28
497.97	22445.74
498.14	23461.53
498.32	22785.12
498.50	23267.27
498.67	23531.75
498.85	23304.71
499.03	23307.05
499.20	23269.61
499.38	23616.01
499.56	23410.04
499.73	23707.29
499.91	23880.49
500.08	23967.09
500.26	23763.46
500.44	24212.84
500.61	24254.97
500.79	24287.74
500.97	24177.73
501.14	24772.23
501.32	24512.43
501.49	24613.07
501.67	24348.59
501.84	24716.06
502.02	24645.84
502.20	24917.34
502.37	24716.06
502.55	24891.60
502.72	25207.57
502.90	25127.99
503.07	25008.62
503.25	25153.74
503.43	25521.20
503.60	25820.79
503.78	25881.64
503.95	25589.08
504.13	25680.36
504.30	26150.81
504.48	25809.09
504.65	25991.65
504.83	26309.96
505.01	26391.88
505.18	26127.40
505.36	26436.35
505.53	26515.93
505.71	26759.34
505.88	26958.29
506.06	26881.05
506.23	26780.41
506.41	26934.88
506.58	26686.79
506.76	27091.70
506.93	26953.61
507.11	27494.27
507.28	27412.35
507.46	27484.91
507.63	27445.12
507.81	27672.15
507.98	27660.45
508.16	27569.17
508.33	28086.43
508.50	28098.13
508.68	28081.75
508.85	28261.97
509.03	27866.42
509.20	28348.57
509.38	28606.03
509.55	28903.28
509.73	28446.87
509.90	28823.70
510.08	28718.37
510.25	28809.65
510.42	28498.36
510.60	29010.94
510.77	28807.31
510.95	29537.56
511.12	29347.98
511.30	28788.59
511.47	29256.70
511.64	29383.09
511.82	29493.09
511.99	29572.67
512.17	29724.80
512.34	29823.11
512.51	29713.10
512.69	30122.69
512.86	30024.39
513.04	30483.14
513.21	29909.71
513.38	29853.53
513.56	30499.52
513.73	30181.21
513.90	30085.25
514.08	30235.04
514.25	30670.38
514.43	30930.18
514.60	30794.43
514.77	30724.21
514.95	31164.23
515.12	30855.28
515.29	30356.75
515.47	31000.40
515.64	31012.10
515.81	31337.43
515.99	31601.91
516.16	31463.82
516.33	31365.52
516.51	31248.49
516.68	31583.19
516.85	31782.13
517.03	31807.88
517.20	32048.96
517.37	31562.12
517.54	31601.91
517.72	31667.45
517.89	31831.29
518.06	31859.37
518.24	32149.60
518.41	32009.17
518.58	32477.27
518.75	32191.73
518.93	32795.59
519.10	32573.24
519.27	32809.63
519.45	32891.55
519.62	32884.53
519.79	32650.47
519.96	32893.89
520.14	32954.74
520.31	32840.06
520.48	32999.21
520.65	33057.73
520.83	33441.57
521.00	33645.20
521.17	33603.07
521.34	33556.26
521.52	33472.00
521.69	33579.67
521.86	33879.25
522.03	33745.84
522.20	34003.30
522.38	34373.11
522.55	34000.96
522.72	33879.25
522.89	34340.34
523.07	34459.71
523.24	34122.67
523.41	34227.99
523.58	34258.42
523.75	34689.08
523.92	34455.03
524.10	34670.36
524.27	34558.01
524.44	34920.79
524.61	34960.58
524.78	35168.89
524.96	35318.68
525.13	35061.22
525.30	35360.81
525.47	35386.56
525.64	34948.88
525.81	35498.91
525.98	35159.53
526.16	35110.38
526.33	35416.99
526.50	36100.42
526.67	35391.24
526.84	35494.22
527.01	35398.26
527.18	35889.77
527.36	35913.18
527.53	36212.77
527.70	36360.22
527.87	36648.11
528.04	35924.88
528.21	36224.47
528.38	36154.26
528.55	36287.67
528.72	36449.16
528.89	36226.81
529.07	36404.69
529.24	35976.37
529.41	36116.81
529.58	36762.79
529.75	36229.15
529.92	36774.50
530.09	36804.92
530.26	36624.70
530.43	36825.99
530.60	36479.59
530.77	36854.08
530.94	37003.87
531.11	36896.20
531.28	36636.41
531.46	36973.44
531.63	37198.13
531.80	37460.27
531.97	37277.71
532.14	37172.39
532.31	36875.14
532.48	37401.76
532.65	37502.40
532.82	37823.06
532.99	37741.14
533.16	37511.77
533.33	37949.45
533.50	37778.59
533.67	37603.05
533.84	37766.88
534.01	38099.24
534.18	38146.05
534.35	37930.72
534.52	37790.29
534.69	38293.50
534.86	38270.10
535.03	38134.35
535.20	38618.84
535.37	38295.85
535.54	38536.92
535.71	38682.03
535.88	38567.35
536.05	38373.08
536.22	38740.55
536.38	38511.17
536.55	38188.18
536.72	39040.14
536.89	38822.47
537.06	38770.97
537.23	38965.24
537.40	38897.36
537.57	38651.61
537.74	38712.46
537.91	39210.99
538.08	38869.28
538.25	39051.84
538.42	39405.26
538.59	39304.62
538.75	39253.12
538.92	39367.81
539.09	39777.40
539.26	39503.56
539.43	39459.09
539.60	39592.50
539.77	39538.67
539.94	39632.29
540.11	39672.08
540.28	39952.94
540.44	39817.19
540.61	39510.58
540.78	39615.91
540.95	39847.62
541.12	39679.10
541.29	39646.33
541.46	39569.10
541.62	39552.71
541.79	40402.33
541.96	39969.33
542.13	39674.42
542.30	39772.72
542.47	40163.59
542.63	40430.41
542.80	40638.72
542.97	40975.76
543.14	40809.58
543.31	40437.44
543.48	40627.02
543.64	41053.00
543.81	41130.23
543.98	40718.30
544.15	40828.30
544.32	41041.29
544.48	41312.80
544.65	41102.15
544.82	41132.57
544.99	40704.26
545.16	41193.43
545.32	41148.96
545.49	41357.27
545.66	41755.16
545.83	41394.71
546.00	41701.32
546.16	41219.17
546.33	41120.87
546.50	41165.34
546.67	41556.21
546.83	40954.69
547.00	41528.13
547.17	41378.33
547.34	41331.52
547.50	41694.30
547.67	42321.57
547.84	41778.56
548.00	42047.72
548.17	42223.26
548.34	42295.82
548.51	42513.49
548.67	41902.61
548.84	42038.36
549.01	42089.85
549.18	41893.25
549.34	42527.53
549.51	42429.23
549.68	42419.87
549.84	42464.34
550.01	42258.37
550.18	42115.60
550.34	42454.98
550.51	42623.50
550.68	42831.80
550.84	42841.17
551.01	42682.01
551.18	42590.73
551.34	42373.06
551.51	42969.90
551.68	42628.18
551.84	42618.81
552.01	42450.30
552.18	42560.30
552.34	42462.00
552.51	42775.63
552.68	42911.38
552.84	43110.33
553.01	42817.76
553.18	43058.84
553.34	43217.99
553.51	43019.05
553.67	43138.41
553.84	43405.23
554.01	43147.78
554.17	43208.63
554.34	43107.99
554.51	43562.05
554.67	43562.05
554.84	43655.67
555.00	43533.96
555.17	43065.86
555.33	43903.77
555.50	43147.78
555.67	43606.52
555.83	43597.16
556.00	43636.95
556.16	43826.53
556.33	43742.27
556.50	43304.59
556.66	43618.22
556.83	43260.12
556.99	44254.85
557.16	43793.76
557.32	43580.78
557.49	43976.33
557.65	43854.62
557.82	43765.68
557.98	44051.22
558.15	43852.28
558.32	44196.34
558.48	44505.29
558.65	44091.01
558.81	43789.08
558.98	43908.45
559.14	44060.58
559.31	44481.88
559.47	44201.02
559.64	44189.31
559.80	43934.20
559.97	44421.03
560.13	44156.55
560.30	44439.75
560.46	45055.31
560.63	44109.74
560.79	44481.88
560.96	44893.82
561.12	44584.86
561.29	44701.89
561.45	44893.82
561.61	44348.47
561.78	44507.63
561.94	44435.07
562.11	44332.09
562.27	44605.93
562.44	44701.89
562.60	44744.02
562.77	44608.27
562.93	44619.97
563.10	44877.43
563.26	44369.54
563.42	45097.44
563.59	44343.79
563.75	44949.99
563.92	44884.45
564.08	44999.14
564.24	44729.98
564.41	44580.18
564.57	45055.31
564.74	44788.49
564.90	44645.72
565.07	44587.21
565.23	44893.82
565.39	44949.99
565.56	45015.52
565.72	44914.88
565.88	44699.55
566.05	45074.04
566.21	45305.75
566.38	44935.95
566.54	45174.68
566.70	45324.47
566.87	45256.60
567.03	45106.80
567.19	45324.47
567.36	45167.66
567.52	44671.46
567.68	45567.89
567.85	45186.38
568.01	45698.96
568.17	45457.88
568.34	45254.26
568.50	45265.96
568.66	44940.63
568.83	45354.90
568.99	45205.11
569.15	45263.62
569.32	45249.58
569.48	45195.74
569.64	45617.04
569.81	45247.24
569.97	45514.06
570.13	45642.79
570.30	45233.19
570.46	45462.57
570.62	45750.45
570.78	45366.60
570.95	45558.53
571.11	45797.26
571.27	45560.87
571.43	45488.31
571.60	45263.62
571.76	45364.26
571.92	45647.47
572.09	45455.54
572.25	45698.96
572.41	45668.53
572.57	45698.96
572.74	45741.09
572.90	45844.07
573.06	45902.59
573.22	46021.95
573.38	46047.70
573.55	46234.94
573.71	46031.32
573.87	45900.25
574.03	45584.27
574.20	45986.85
574.36	45411.07
574.52	46197.49
574.68	45727.05
574.84	45914.29
575.01	46085.15
575.17	45720.02
575.33	45743.43
575.49	45869.82
575.65	45839.39
575.82	46115.58
575.98	45663.85
576.14	46256.01
576.30	45837.05
576.46	45806.62
576.62	46000.89
576.79	45874.50
576.95	45787.90
577.11	45411.07
577.27	45930.67
577.43	45909.61
577.59	45951.74
577.75	45921.31
577.92	45371.28
578.08	45532.78
578.24	46087.49
578.40	46272.39
578.56	46167.07
578.72	45708.32
578.88	46075.79
579.04	46134.30
579.21	46024.29
579.37	45944.72
579.53	46075.79
579.69	45808.96
579.85	45556.19
580.01	45984.51
580.17	45944.72
580.33	46047.70
580.49	46101.53
580.65	46038.34
580.82	46110.89
580.98	46082.81
581.14	45642.79
581.30	46134.30
581.46	45705.98
581.62	45869.82
581.78	45776.20
581.94	45963.44
582.10	46080.47
582.26	46131.96
582.42	45595.98
582.58	46476.02
582.74	46223.24
582.90	46387.08
583.06	46745.18
583.22	45979.82
583.38	46298.14
583.54	45935.35
583.70	46314.52
583.86	46045.36
584.02	46183.45
584.18	46799.01
584.34	46117.92
584.50	46576.66
584.66	46277.07
584.82	46469.00
584.98	46827.10
585.14	46567.30
585.30	45993.87
585.46	46366.01
585.62	46113.23
585.78	46267.71
585.94	46054.72
586.10	46342.61
586.26	46279.41
586.42	46419.84
586.58	46143.66
586.74	46078.13
586.90	46160.05
587.06	46099.19
587.22	46227.92
587.38	46529.85
587.54	46309.84
587.70	46415.16
587.86	46134.30
588.02	45961.10
588.18	46234.94
588.34	46478.36
588.49	46525.17
588.65	46188.13
588.81	46319.20
588.97	46768.58
589.13	46248.99
589.29	46642.20
589.45	46691.35
589.61	46394.10
589.77	46909.02
589.93	46466.66
590.08	46405.80
