SpectraSuite Data File
++++++++++++++++++++++++++++++++++++
Date: Fri Oct 25 11:34:42 EDT 2013
User: price-jones
Dark Spectrum Present: No
Reference Spectrum Present: No
Number of Sampled Component Spectra: 1
Spectrometers: USB2+H05261
Integration Time (usec): 100000 (USB2+H05261)
Spectra Averaged: 1 (USB2+H05261)
Boxcar Smoothing: 0 (USB2+H05261)
Correct for Electrical Dark: No (USB2+H05261)
Strobe/Lamp Enabled: No (USB2+H05261)
Correct for Detector Non-linearity: No (USB2+H05261)
Correct for Stray Light: No (USB2+H05261)
Number of Pixels in Processed Spectrum: 2048
>>>>>Begin Processed Spectral Data<<<<<
365.73	292.57
365.92	292.57
366.12	292.57
366.32	131.07
366.52	177.88
366.72	182.56
366.91	156.82
367.11	222.35
367.31	117.03
367.51	196.60
367.70	163.84
367.90	168.52
368.10	145.11
368.30	119.37
368.49	138.09
368.69	205.97
368.89	117.03
369.09	175.54
369.28	245.76
369.48	217.67
369.68	234.05
369.87	224.69
370.07	294.91
370.27	294.91
370.47	299.59
370.66	592.16
370.86	552.37
371.06	566.41
371.25	636.63
371.45	610.88
371.65	503.22
371.84	575.77
372.04	575.77
372.24	535.98
372.44	526.62
372.63	580.45
372.83	531.30
373.03	711.52
373.22	585.13
373.42	580.45
373.62	606.20
373.81	589.82
374.01	634.29
374.21	613.22
374.40	617.90
374.60	634.29
374.79	601.52
374.99	664.71
375.19	648.33
375.38	711.52
375.58	568.75
375.78	627.26
375.97	660.03
376.17	697.48
376.37	690.46
376.56	634.29
376.76	737.27
376.95	723.23
377.15	718.54
377.35	613.22
377.54	699.82
377.74	650.67
377.93	709.18
378.13	683.44
378.33	641.31
378.52	657.69
378.72	641.31
378.91	758.33
379.11	734.93
379.31	650.67
379.50	578.11
379.70	662.37
379.89	798.12
380.09	763.01
380.28	580.45
380.48	709.18
380.68	676.41
380.87	683.44
381.07	770.04
381.26	748.97
381.46	753.65
381.65	734.93
381.85	699.82
382.04	774.72
382.24	758.33
382.43	744.29
382.63	725.57
382.83	739.61
383.02	805.14
383.22	861.32
383.41	793.44
383.61	802.80
383.80	861.32
384.00	847.27
384.19	788.76
384.39	779.40
384.58	795.78
384.78	873.02
384.97	758.33
385.17	840.25
385.36	774.72
385.56	854.30
385.75	802.80
385.95	805.14
386.14	868.34
386.34	819.19
386.53	819.19
386.72	863.66
386.92	901.11
387.11	809.83
387.31	844.93
387.50	786.42
387.70	788.76
387.89	915.15
388.09	833.23
388.28	910.47
388.48	856.64
388.67	851.96
388.86	849.61
389.06	983.02
389.25	847.27
389.45	870.68
389.64	954.94
389.84	957.28
390.03	926.85
390.22	898.77
390.42	880.04
390.61	926.85
390.81	971.32
391.00	945.58
391.19	1011.11
391.39	929.19
391.58	898.77
391.78	966.64
391.97	961.96
392.16	999.41
392.36	1088.35
392.55	1008.77
392.75	980.68
392.94	990.05
393.13	1015.79
393.33	997.07
393.52	1102.39
393.71	1100.05
393.91	1046.22
394.10	1062.60
394.29	1104.73
394.49	1071.97
394.68	968.98
394.88	1114.10
395.07	1139.84
395.26	1055.58
395.46	1090.69
395.65	1174.95
395.84	1149.20
396.04	1095.37
396.23	1088.35
396.42	1083.67
396.62	1174.95
396.81	1221.76
397.00	1123.46
397.19	1235.80
397.39	1139.84
397.58	1177.29
397.77	1179.63
397.97	1256.87
398.16	1158.57
398.35	1210.06
398.55	1334.11
398.74	1200.69
398.93	1317.72
399.12	1245.16
399.32	1270.91
399.51	1287.29
399.70	1329.42
399.90	1291.98
400.09	1277.93
400.28	1348.15
400.47	1359.85
400.67	1329.42
400.86	1345.81
401.05	1341.13
401.24	1385.60
401.44	1439.43
401.63	1334.11
401.82	1366.87
402.01	1259.21
402.21	1373.89
402.40	1490.92
402.59	1439.43
402.78	1476.88
402.97	1504.96
403.17	1465.18
403.36	1554.12
403.55	1575.18
403.74	1544.75
403.93	1593.90
404.13	1483.90
404.32	1523.69
404.51	1572.84
404.70	1584.54
404.89	1530.71
405.09	1610.29
405.28	1575.18
405.47	1643.06
405.66	1675.82
405.85	1717.95
406.05	1671.14
406.24	1600.93
406.43	1603.27
406.62	1680.50
406.81	1771.79
407.00	1624.33
407.20	1708.59
407.39	1748.38
407.58	1839.66
407.77	1853.70
407.96	1849.02
408.15	1893.49
408.34	1863.07
408.54	1781.15
408.73	1762.42
408.92	1827.96
409.11	1827.96
409.30	1834.98
409.49	1851.36
409.68	1954.35
409.87	1947.33
410.07	1975.41
410.26	1968.39
410.45	2012.86
410.64	1881.79
410.83	1989.46
411.02	2057.33
411.21	2059.67
411.40	2073.71
411.59	2090.10
411.78	2003.50
411.98	2038.61
412.17	2186.06
412.36	2115.84
412.55	2188.40
412.74	2050.31
412.93	2260.96
413.12	2328.83
413.31	2331.17
413.50	2314.79
413.69	2284.36
413.88	2310.11
414.07	2291.38
414.26	2352.24
414.45	2387.35
414.64	2457.56
414.83	2380.32
415.02	2377.98
415.22	2471.61
415.41	2518.42
415.60	2445.86
415.79	2485.65
415.98	2572.25
416.17	2569.91
416.36	2586.29
416.55	2572.25
416.74	2733.75
416.93	2679.91
417.12	2700.98
417.31	2672.89
417.50	2703.32
417.69	2862.48
417.88	2841.41
418.07	2780.56
418.26	2843.75
418.45	2853.11
418.64	2869.50
418.83	2794.60
419.02	2860.13
419.21	2930.35
419.39	2916.31
419.58	2937.37
419.77	2991.20
419.96	3016.95
420.15	2930.35
420.34	3101.21
420.53	2939.71
420.72	3150.36
420.91	2965.46
421.10	3061.42
421.29	3049.72
421.48	3030.99
421.67	3178.45
421.86	3096.53
422.05	3155.04
422.24	3190.15
422.43	3159.72
422.61	3162.06
422.80	3187.81
422.99	3162.06
423.18	3234.62
423.37	3321.22
423.56	3166.74
423.75	3283.77
423.94	3169.09
424.13	3014.61
424.32	3183.13
424.50	3262.71
424.69	3288.45
424.88	3449.95
425.07	3251.00
425.26	3255.69
425.45	3199.51
425.64	3187.81
425.83	3267.39
426.01	3332.92
426.20	3255.69
426.39	3363.35
426.58	3382.07
426.77	3222.92
426.96	3234.62
427.15	3344.63
427.33	3396.12
427.52	3363.35
427.71	3375.05
427.90	3508.46
428.09	3461.65
428.28	3459.31
428.46	3393.78
428.65	3473.36
428.84	3571.66
429.03	3676.98
429.22	3552.93
429.40	3583.36
429.59	3735.50
429.78	3445.27
429.97	3503.78
430.16	3590.38
430.34	3667.62
430.53	3620.81
430.72	3637.19
430.91	3674.64
431.10	3644.21
431.28	3691.02
431.47	3686.34
431.66	3831.46
431.85	3712.09
432.03	3817.41
432.22	3843.16
432.41	3779.97
432.60	3843.16
432.79	3810.39
432.97	3922.74
433.16	3831.46
433.35	3772.94
433.54	3950.82
433.72	3929.76
433.91	4014.02
434.10	4035.08
434.28	3983.59
434.47	3936.78
434.66	3985.93
434.85	4046.79
435.03	4095.94
435.22	4175.52
435.41	3992.95
435.59	4098.28
435.78	3997.64
435.97	4255.09
436.16	4227.01
436.34	4219.99
436.53	4264.46
436.72	4236.37
436.90	4243.39
437.09	4315.95
437.28	4255.09
437.46	4472.76
437.65	4395.53
437.84	4400.21
438.02	4435.32
438.21	4301.90
438.40	4234.03
438.58	4465.74
438.77	4564.04
438.96	4397.87
439.14	4603.83
439.33	4627.24
439.52	4615.54
439.70	4636.60
439.89	4702.14
440.08	4725.54
440.26	4837.89
440.45	4690.43
440.63	4837.89
440.82	5008.75
441.01	4938.53
441.19	4851.93
441.38	4910.44
441.57	4943.21
441.75	5011.09
441.94	5069.60
442.12	4973.64
442.31	5186.63
442.50	5125.77
442.68	5102.37
442.87	5015.77
443.05	5303.65
443.24	5240.46
443.43	5296.63
443.61	5352.81
443.80	5540.05
443.98	5153.86
444.17	5078.96
444.35	5172.58
444.54	5322.38
444.73	5289.61
444.91	5233.44
445.10	5268.55
445.28	5455.79
445.47	5406.64
445.65	5387.91
445.84	5397.28
446.02	5261.52
446.21	5315.36
446.39	5273.23
446.58	5514.30
446.77	5387.91
446.95	5310.68
447.14	5380.89
447.32	5607.92
447.51	5315.36
447.69	5341.10
447.88	5504.94
448.06	5423.02
448.25	5331.74
448.43	5481.53
448.62	5568.13
448.80	5542.39
448.99	5486.22
449.17	5652.39
449.36	5380.89
449.54	5621.97
449.73	5565.79
449.91	5795.17
450.10	5750.70
450.28	5860.70
450.46	5603.24
450.65	5717.93
450.83	5764.74
451.02	6012.84
451.20	5874.74
451.39	5907.51
451.57	5776.44
451.76	5783.46
451.94	5846.66
452.13	5886.45
452.31	5743.67
452.49	5846.66
452.68	5956.66
452.86	5905.17
453.05	5893.47
453.23	6132.20
453.42	5944.96
453.60	6019.86
453.78	6076.03
453.97	5926.24
454.15	6209.44
454.34	6148.59
454.52	6078.37
454.70	6108.80
454.89	6179.01
455.07	6307.74
455.26	6352.21
455.44	6384.98
455.62	6155.61
455.81	6204.76
455.99	6321.79
456.17	6485.62
456.36	6406.05
456.54	6434.13
456.73	6483.28
456.91	6546.48
457.09	6544.14
457.28	6825.00
457.46	6534.78
457.64	6740.74
457.83	6956.07
458.01	6710.32
458.19	6768.83
458.38	6745.42
458.56	6768.83
458.74	6972.46
458.93	6717.34
459.11	6754.79
459.29	6829.68
459.48	6864.79
459.66	6963.09
459.84	6825.00
460.03	7293.11
460.21	6820.32
460.39	7052.03
460.57	6986.50
460.76	6958.41
460.94	7169.06
461.12	7108.21
461.31	7077.78
461.49	7185.44
461.67	6993.52
461.85	7286.09
462.04	7101.19
462.22	7571.63
462.40	7400.77
462.59	7258.00
462.77	7248.64
462.95	7286.09
463.13	7323.54
463.32	7269.70
463.50	7571.63
463.68	7456.95
463.86	7405.46
464.05	7379.71
464.23	7524.82
464.41	7470.99
464.59	7267.36
464.78	7707.38
464.96	7517.80
465.14	7527.16
465.32	7573.97
465.50	7735.47
465.69	7485.03
465.87	7602.06
466.05	7602.06
466.23	7793.98
466.41	7681.64
466.60	7782.28
466.78	7531.84
466.96	7943.78
467.14	7672.28
467.32	7826.75
467.51	7796.32
467.69	7723.77
467.87	7908.67
468.05	8131.02
468.23	7843.14
468.41	7691.00
468.60	8084.21
468.78	8131.02
468.96	8042.08
469.14	8107.62
469.32	8187.19
469.50	8018.68
469.69	8177.83
469.87	8215.28
470.05	8259.75
470.23	8325.29
470.41	8374.44
470.59	8334.65
470.77	8421.25
470.95	8463.38
471.14	8498.49
471.32	8301.88
471.50	8547.64
471.68	8585.08
471.86	8451.67
472.04	8425.93
472.22	8837.86
472.40	8507.85
472.58	8533.59
472.77	8692.75
472.95	8760.63
473.13	9104.68
473.31	8952.55
473.49	8938.51
473.67	8908.08
473.85	9043.83
474.03	9064.89
474.21	9202.99
474.39	9128.09
474.57	9212.35
474.75	9362.14
474.93	9444.06
475.12	9320.01
475.30	9394.91
475.48	9345.76
475.66	9423.00
475.84	9254.48
476.02	9507.26
476.20	9633.64
476.38	9949.62
476.56	10029.20
476.74	10111.11
476.92	9841.95
477.10	9891.10
477.28	9813.87
477.46	10052.60
477.64	10298.36
477.82	10480.92
478.00	10621.35
478.18	10525.39
478.36	10719.65
478.54	10576.88
478.72	10853.06
478.90	10766.46
479.08	10988.82
479.26	10899.87
479.44	11014.56
479.62	11044.99
479.80	11098.82
479.98	11403.09
480.16	11396.07
480.34	11349.26
480.52	11499.05
480.70	11829.07
480.88	11576.29
481.06	11798.64
481.24	11761.19
481.41	11964.82
481.59	11988.22
481.77	12081.85
481.95	12257.39
482.13	12329.94
482.31	12329.94
482.49	12493.78
482.67	12465.69
482.85	12645.91
483.03	12681.02
483.21	12833.16
483.39	12982.95
483.57	12971.25
483.74	13387.86
483.92	12968.91
484.10	13390.20
484.28	13404.25
484.46	13556.38
484.64	13755.33
484.82	13584.47
485.00	13752.99
485.18	13963.64
485.35	14132.15
485.53	14258.54
485.71	14246.84
485.89	14314.72
486.07	14408.34
486.25	14413.02
486.43	14785.16
486.61	14841.34
486.78	15073.05
486.96	15159.65
487.14	15138.58
487.32	15169.01
487.50	15248.59
487.68	15431.15
487.85	15873.51
488.03	15756.49
488.21	16002.24
488.39	15770.53
488.57	15824.36
488.75	16222.25
488.92	16287.79
489.10	16212.89
489.28	16645.89
489.46	16432.90
489.64	16711.42
489.81	17343.37
489.99	17062.51
490.17	17455.72
490.35	17179.53
490.53	17174.85
490.70	17593.81
490.88	17387.84
491.06	17619.55
491.24	17776.37
491.41	17745.94
491.59	18232.77
491.77	17989.36
491.95	18258.52
492.13	18162.56
492.30	18291.29
492.48	18616.62
492.66	18857.70
492.84	18817.91
493.01	19232.18
493.19	19103.45
493.37	19208.78
493.54	18984.09
493.72	19583.26
493.90	19522.41
494.08	19592.62
494.25	19461.55
494.43	19896.89
494.61	20060.73
494.79	19892.21
494.96	19901.58
495.14	20243.29
495.32	20760.55
495.49	20428.20
495.67	20669.27
495.85	20746.51
496.02	20952.48
496.20	21010.99
496.38	21191.21
496.55	21132.70
496.73	21462.71
496.91	21401.86
497.09	21125.68
497.26	21394.84
497.44	21687.40
497.62	21830.18
497.79	21884.01
497.97	21862.94
498.14	22033.80
498.32	22389.56
498.50	22223.39
498.67	22225.73
498.85	22302.96
499.03	22429.35
499.20	22520.63
499.38	22665.75
499.56	22733.62
499.73	22939.59
499.91	23080.02
500.08	23328.12
500.26	23070.66
500.44	23672.18
500.61	23164.28
500.79	23316.42
500.97	23442.81
501.14	23690.90
501.32	23819.63
501.49	23204.07
501.67	24114.54
501.84	24208.16
502.02	23814.95
502.20	24437.53
502.37	24336.89
502.55	24095.82
502.72	24500.73
502.90	24372.00
503.07	24271.36
503.25	24716.06
503.43	24563.92
503.60	24847.13
503.78	24662.22
503.95	24687.97
504.13	24929.05
504.30	25481.41
504.48	25025.01
504.65	25275.45
504.83	25383.11
505.01	25544.61
505.18	25369.07
505.36	25762.28
505.53	25502.48
505.71	25647.59
505.88	25741.21
506.06	25895.69
506.23	25963.56
506.41	25900.37
506.58	26209.32
506.76	26204.64
506.93	26450.39
507.11	26176.55
507.28	26515.93
507.46	26382.52
507.63	26693.81
507.81	26593.17
507.98	26316.98
508.16	26628.27
508.33	26902.12
508.50	27171.28
508.68	26969.99
508.85	27131.49
509.03	27131.49
509.20	27440.44
509.38	27449.80
509.55	27749.39
509.73	27473.21
509.90	27707.26
510.08	27417.04
510.25	27534.06
510.42	27473.21
510.60	28074.73
510.77	28217.50
510.95	28348.57
511.12	27950.68
511.30	28247.93
511.47	28540.49
511.64	28428.15
511.82	28500.70
511.99	28456.23
512.17	28425.81
512.34	28545.17
512.51	28781.57
512.69	28884.55
512.86	29085.84
513.04	29127.97
513.21	29252.02
513.38	29151.37
513.56	29434.58
513.73	29474.37
513.90	29448.62
514.08	29291.80
514.25	29898.00
514.43	29937.79
514.60	29565.65
514.77	30103.97
514.95	29881.62
515.12	29254.36
515.29	29862.90
515.47	30377.81
515.64	30096.95
515.81	29940.13
515.99	30125.04
516.16	30773.36
516.33	29876.94
516.51	30593.14
516.68	30775.70
516.85	30560.37
517.03	30635.27
517.20	30555.69
517.37	30450.37
517.54	30899.75
517.72	30916.14
517.89	30981.67
518.06	30909.11
518.24	31456.80
518.41	31349.14
518.58	31115.08
518.75	31070.61
518.93	31646.38
519.10	31117.42
519.27	31409.99
519.45	31503.61
519.62	31784.48
519.79	31608.93
519.96	31695.53
520.14	32161.30
520.31	31505.95
520.48	32081.72
520.65	32063.00
520.83	31978.74
521.00	32400.04
521.17	32381.31
521.34	32493.66
521.52	32294.71
521.69	32477.27
521.86	32479.61
522.03	32589.62
522.20	32926.66
522.38	33076.45
522.55	32811.97
522.72	32999.21
522.89	33130.28
523.07	33303.48
523.24	33317.53
523.41	33244.97
523.58	33024.96
523.75	33371.36
523.92	33443.91
524.10	33731.80
524.27	33567.96
524.44	33483.70
524.61	33748.18
524.78	33734.14
524.96	33937.77
525.13	33687.33
525.30	33944.79
525.47	34225.65
525.64	33907.34
525.81	34302.89
525.98	34356.72
526.16	34171.82
526.33	34125.01
526.50	34763.98
526.67	34312.25
526.84	34307.57
527.01	34349.70
527.18	34677.38
527.36	34707.80
527.53	34815.47
527.70	34761.64
527.87	34969.94
528.04	34824.83
528.21	34625.89
528.38	34543.97
528.55	35140.80
528.72	34836.53
528.89	35150.17
529.07	35353.79
529.24	34742.91
529.41	35306.98
529.58	35147.82
529.75	35281.24
529.92	35239.11
530.09	35569.12
530.26	35552.74
530.43	35468.48
530.60	35344.43
530.77	35714.23
530.94	35629.98
531.11	35756.36
531.28	35515.29
531.46	35686.15
531.63	36247.88
531.80	36046.59
531.97	35950.63
532.14	35943.61
532.31	35466.14
532.48	36191.70
532.65	36350.86
532.82	36575.55
532.99	35868.71
533.16	36133.19
533.33	37085.79
533.50	35894.46
533.67	36477.25
533.84	36374.27
534.01	36568.53
534.18	36392.99
534.35	36900.89
534.52	36910.25
534.69	36903.23
534.86	37202.82
535.03	37172.39
535.20	37570.28
535.37	37170.05
535.54	37324.52
535.71	37001.53
535.88	37352.61
536.05	37069.40
536.22	37296.44
536.38	37113.87
536.55	37457.93
536.72	37418.14
536.89	36966.42
537.06	37406.44
537.23	37422.83
537.40	37366.65
537.57	37163.03
537.74	37556.24
537.91	37993.92
538.08	37483.68
538.25	37677.94
538.42	37612.41
538.59	37631.13
538.75	37691.99
538.92	37989.24
539.09	38485.43
539.26	37769.22
539.43	38188.18
539.60	38143.71
539.77	38068.81
539.94	38176.48
540.11	38237.33
540.28	38555.64
540.44	38127.33
540.61	38302.87
540.78	38050.09
540.95	38213.93
541.12	38658.63
541.29	38464.36
541.46	38923.11
541.62	38417.55
541.79	38735.87
541.96	38316.91
542.13	38232.65
542.30	38550.96
542.47	39082.27
542.63	39306.96
542.80	38955.88
542.97	39276.53
543.14	39496.54
543.31	39122.05
543.48	39370.15
543.64	39739.96
543.81	39674.42
543.98	39318.66
544.15	39456.75
544.32	39798.47
544.48	39817.19
544.65	39807.83
544.82	39697.83
544.99	39725.91
545.16	39821.87
545.32	39768.04
545.49	40275.94
545.66	40034.86
545.83	40404.67
546.00	40179.98
546.16	40074.65
546.33	39950.60
546.50	40034.86
546.67	39976.35
546.83	39997.41
547.00	40411.69
547.17	40205.72
547.34	40184.66
547.50	40463.18
547.67	40903.20
547.84	40133.17
548.00	40453.82
548.17	41060.02
548.34	41008.53
548.51	41060.02
548.67	41200.45
548.84	40549.78
549.01	40849.37
549.18	40486.59
549.34	41003.85
549.51	40818.94
549.68	40704.26
549.84	40776.81
550.01	40563.82
550.18	40807.24
550.34	41099.81
550.51	41319.82
550.68	40961.72
550.84	40790.86
551.01	41092.79
551.18	41067.04
551.34	40889.16
551.51	40989.80
551.68	40992.14
551.84	41343.22
552.01	41261.30
552.18	40952.35
552.34	41116.19
552.51	41631.11
552.68	41148.96
552.84	41474.29
553.01	41717.71
553.18	41242.58
553.34	41773.88
553.51	41443.87
553.67	41689.62
553.84	41811.33
554.01	41867.50
554.17	41649.83
554.34	42260.71
554.51	42157.73
554.67	42096.88
554.84	42351.99
555.00	41816.01
555.17	41993.89
555.33	42038.36
555.50	42286.46
555.67	42043.04
555.83	41907.29
556.00	42333.27
556.16	42450.30
556.33	42714.78
556.50	42267.73
556.66	42384.76
556.83	42185.82
556.99	42827.12
557.16	42415.19
557.32	42572.00
557.49	42684.35
557.65	41921.34
557.82	42167.09
557.98	42801.38
558.15	42403.49
558.32	42328.59
558.48	42658.60
558.65	42447.96
558.81	42396.46
558.98	42600.09
559.14	42705.41
559.31	42564.98
559.47	42937.13
559.64	42792.01
559.80	42696.05
559.97	43072.88
560.13	42684.35
560.30	42955.85
560.46	42775.63
560.63	42934.79
560.79	43292.89
560.96	43323.32
561.12	43157.14
561.29	43545.67
561.45	43016.71
561.61	42724.14
561.78	43164.16
561.94	42953.51
562.11	43290.55
562.27	43285.87
562.44	43119.69
562.60	43342.04
562.77	43398.21
562.93	43103.31
563.10	43627.59
563.26	43112.67
563.42	43566.73
563.59	43606.52
563.75	43311.61
563.92	43255.44
564.08	43407.58
564.24	43564.39
564.41	43225.01
564.57	43676.74
564.74	43402.89
564.90	43512.90
565.07	43611.20
565.23	43189.91
565.39	43702.48
565.56	43896.75
565.72	43594.82
565.88	43632.27
566.05	43653.33
566.21	43594.82
566.38	43922.49
566.54	43318.64
566.70	43866.32
566.87	43669.72
567.03	43775.04
567.19	44238.47
567.36	43749.29
567.52	43840.57
567.68	43742.27
567.85	43819.51
568.01	43725.89
568.17	43374.81
568.34	43910.79
568.50	43732.91
568.66	43983.35
568.83	43768.02
568.99	43880.36
569.15	43807.81
569.32	43847.60
569.48	44222.08
569.64	44414.01
569.81	43707.16
569.97	44348.47
570.13	44098.03
570.30	43845.26
570.46	43873.34
570.62	43814.83
570.78	43669.72
570.95	43765.68
571.11	44226.76
571.27	43786.74
571.43	44034.84
571.60	44067.61
571.76	43959.94
571.92	44069.95
572.09	44233.78
572.25	44128.46
572.41	44343.79
572.57	44247.83
572.74	44334.43
572.90	44554.44
573.06	44339.11
573.22	44179.95
573.38	44460.82
573.55	44542.74
573.71	44601.25
573.87	44430.39
574.03	44776.79
574.20	44257.19
574.36	44582.52
574.52	44205.70
574.68	44444.43
574.84	44673.81
575.01	44671.46
575.17	44711.25
575.33	44458.48
575.49	44336.77
575.65	44315.70
575.82	44493.58
575.98	44088.67
576.14	44414.01
576.30	44800.19
576.46	44619.97
576.62	43983.35
576.79	44783.81
576.95	44280.60
577.11	44163.57
577.27	44488.90
577.43	44861.05
577.59	44435.07
577.75	44018.46
577.92	44161.23
578.08	44311.02
578.24	44208.04
578.40	44629.34
578.56	44800.19
578.72	44769.77
578.88	44734.66
579.04	44479.54
579.21	44385.92
579.37	44554.44
579.53	44549.76
579.69	44418.69
579.85	44849.35
580.01	44311.02
580.17	44456.14
580.33	44765.09
580.49	44718.28
580.65	44748.70
580.82	44598.91
580.98	44112.08
581.14	44353.15
581.30	44472.52
581.46	44758.06
581.62	44484.22
581.78	44315.70
581.94	44694.87
582.10	44421.03
582.26	44493.58
582.42	45043.61
582.58	44285.28
582.74	44797.85
582.90	44870.41
583.06	44685.51
583.22	44652.74
583.38	44863.39
583.54	44509.97
583.70	45001.48
583.86	45088.08
584.02	44631.68
584.18	44903.18
584.34	44715.93
584.50	45099.78
584.66	44994.46
584.82	44837.64
584.98	45291.71
585.14	44879.77
585.30	44666.78
585.46	44776.79
585.62	44748.70
585.78	44765.09
585.94	44486.56
586.10	44849.35
586.26	44744.02
586.42	44720.62
586.58	44636.36
586.74	44765.09
586.90	44605.93
587.06	44584.86
587.22	44898.50
587.38	44542.74
587.54	45165.32
587.70	45160.64
587.86	44542.74
588.02	44797.85
588.18	44662.10
588.34	44847.00
588.49	44626.99
588.65	44652.74
588.81	44884.45
588.97	45216.81
589.13	44872.75
589.29	44935.95
589.45	45329.16
589.61	44500.61
589.77	44847.00
589.93	45071.70
590.08	45233.19
590.24	45148.93
