SpectraSuite Data File
++++++++++++++++++++++++++++++++++++
Date: Fri Oct 25 11:25:29 EDT 2013
User: price-jones
Dark Spectrum Present: No
Reference Spectrum Present: No
Number of Sampled Component Spectra: 1
Spectrometers: USB2+H05261
Integration Time (usec): 100000 (USB2+H05261)
Spectra Averaged: 1 (USB2+H05261)
Boxcar Smoothing: 0 (USB2+H05261)
Correct for Electrical Dark: No (USB2+H05261)
Strobe/Lamp Enabled: No (USB2+H05261)
Correct for Detector Non-linearity: No (USB2+H05261)
Correct for Stray Light: No (USB2+H05261)
Number of Pixels in Processed Spectrum: 2048
>>>>>Begin Processed Spectral Data<<<<<
365.73	173.20
365.92	173.20
366.12	173.20
366.32	262.14
366.52	117.03
366.72	117.03
366.91	91.28
367.11	140.43
367.31	154.48
367.51	159.16
367.70	177.88
367.90	182.56
368.10	147.45
368.30	187.24
368.49	189.58
368.69	161.50
368.89	208.31
369.09	159.16
369.28	182.56
369.48	217.67
369.68	208.31
369.87	126.39
370.07	212.99
370.27	210.65
370.47	266.82
370.66	547.69
370.86	641.31
371.06	638.97
371.25	734.93
371.45	692.80
371.65	688.12
371.84	617.90
372.04	657.69
372.24	662.37
372.44	699.82
372.63	737.27
372.83	840.25
373.03	662.37
373.22	723.23
373.42	732.59
373.62	688.12
373.81	779.40
374.01	809.83
374.21	737.27
374.40	814.51
374.60	861.32
374.79	835.57
374.99	910.47
375.19	884.72
375.38	898.77
375.58	779.40
375.78	894.08
375.97	800.46
376.17	821.53
376.37	814.51
376.56	896.43
376.76	919.83
376.95	903.45
377.15	922.17
377.35	847.27
377.54	950.26
377.74	919.83
377.93	957.28
378.13	947.92
378.33	903.45
378.52	889.40
378.72	926.85
378.91	978.34
379.11	999.41
379.31	950.26
379.50	910.47
379.70	976.00
379.89	924.51
380.09	952.60
380.28	966.64
380.48	1018.13
380.68	968.98
380.87	945.58
381.07	1013.45
381.26	1135.16
381.46	917.49
381.65	959.62
381.85	1071.97
382.04	1036.86
382.24	1029.84
382.43	1057.92
382.63	1071.97
382.83	1078.99
383.02	1034.52
383.22	1179.63
383.41	1102.39
383.61	1116.44
383.80	1109.41
384.00	1109.41
384.19	1057.92
384.39	1142.18
384.58	1156.22
384.78	1064.94
384.97	1163.25
385.17	1107.07
385.36	1137.50
385.56	1184.31
385.75	1165.59
385.95	1165.59
386.14	1170.27
386.34	1181.97
386.53	1188.99
386.72	1203.04
386.92	1165.59
387.11	1287.29
387.31	1219.42
387.50	1336.45
387.70	1219.42
387.89	1193.67
388.09	1228.78
388.28	1252.19
388.48	1221.76
388.67	1331.76
388.86	1259.21
389.06	1306.02
389.25	1387.94
389.45	1425.39
389.64	1366.87
389.84	1427.73
390.03	1448.79
390.22	1390.28
390.42	1376.24
390.61	1324.74
390.81	1404.32
391.00	1488.58
391.19	1432.41
391.39	1488.58
391.58	1514.33
391.78	1455.81
391.97	1472.20
392.16	1462.83
392.36	1556.46
392.55	1549.43
392.75	1509.65
392.94	1521.35
393.13	1537.73
393.33	1521.35
393.52	1521.35
393.71	1645.40
393.91	1617.31
394.10	1544.75
394.29	1600.93
394.49	1516.67
394.68	1675.82
394.88	1647.74
395.07	1671.14
395.26	1643.06
395.46	1624.33
395.65	1727.32
395.84	1682.85
396.04	1792.85
396.23	1708.59
396.42	1696.89
396.62	1827.96
396.81	1792.85
397.00	1802.21
397.19	1813.92
397.39	1790.51
397.58	1827.96
397.77	1776.47
397.97	1916.90
398.16	1849.02
398.35	1907.54
398.55	1816.26
398.74	1877.11
398.93	2026.90
399.12	1966.05
399.32	1860.73
399.51	1865.41
399.70	2012.86
399.90	1949.67
400.09	2003.50
400.28	2069.03
400.47	2064.35
400.67	2026.90
400.86	1933.28
401.05	2064.35
401.24	2122.87
401.44	2136.91
401.63	2115.84
401.82	2155.63
402.01	2132.23
402.21	2115.84
402.40	2230.53
402.59	2143.93
402.78	2256.28
402.97	2120.53
403.17	2228.19
403.36	2310.11
403.55	2237.55
403.74	2282.02
403.93	2331.17
404.13	2300.75
404.32	2326.49
404.51	2452.88
404.70	2438.84
404.89	2422.45
405.09	2354.58
405.28	2401.39
405.47	2382.67
405.66	2483.31
405.85	2537.14
406.05	2544.16
406.24	2562.89
406.43	2621.40
406.62	2747.79
406.81	2670.55
407.00	2548.84
407.20	2541.82
407.39	2630.76
407.58	2649.49
407.77	2541.82
407.96	2675.23
408.15	2733.75
408.34	2708.00
408.54	2806.30
408.73	2750.13
408.92	2825.03
409.11	2775.88
409.30	2925.67
409.49	2808.64
409.68	2825.03
409.87	2881.20
410.07	2892.90
410.26	3133.98
410.45	2935.03
410.64	3176.11
410.83	3148.02
411.02	3141.00
411.21	3131.64
411.40	3150.36
411.59	3117.59
411.78	3136.32
411.98	3286.11
412.17	3353.99
412.36	3379.73
412.55	3393.78
412.74	3307.18
412.93	3332.92
413.12	3386.76
413.31	3478.04
413.50	3325.90
413.69	3480.38
413.88	3595.06
414.07	3585.70
414.26	3578.68
414.45	3531.87
414.64	3590.38
414.83	3796.35
415.02	3815.07
415.22	3789.33
415.41	3829.12
415.60	3761.24
415.79	3962.53
415.98	4011.68
416.17	4145.09
416.36	3953.16
416.55	3918.06
416.74	4044.45
416.93	3974.23
417.12	4084.23
417.31	4177.86
417.50	4156.79
417.69	4238.71
417.88	4318.29
418.07	4313.61
418.26	4383.82
418.45	4280.84
418.64	4454.04
418.83	4458.72
419.02	4521.92
419.21	4407.23
419.39	4561.70
419.58	4458.72
419.77	4440.00
419.96	4538.30
420.15	4601.49
420.34	4678.73
420.53	4573.41
420.72	4561.70
420.91	4664.69
421.10	4636.60
421.29	4784.06
421.48	4718.52
421.67	4657.67
421.86	4713.84
422.05	4622.56
422.24	4734.90
422.43	4823.84
422.61	4910.44
422.80	4849.59
422.99	4896.40
423.18	4915.12
423.37	5095.35
423.56	4889.38
423.75	4819.16
423.94	4755.97
424.13	4720.86
424.32	4758.31
424.50	4980.66
424.69	5067.26
424.88	4945.55
425.07	5027.47
425.26	4975.98
425.45	4905.76
425.64	4873.00
425.83	4945.55
426.01	4922.15
426.20	4945.55
426.39	4858.95
426.58	5039.17
426.77	5064.92
426.96	5167.90
427.15	5130.45
427.33	5252.16
427.52	5015.77
427.71	5217.05
427.90	5170.24
428.09	5238.12
428.28	5294.29
428.46	5308.34
428.65	5359.83
428.84	5607.92
429.03	5521.32
429.22	5380.89
429.40	5439.40
429.59	5284.93
429.78	5280.25
429.97	5177.26
430.16	5565.79
430.34	5479.19
430.53	5657.07
430.72	5682.82
430.91	5619.63
431.10	5453.45
431.28	5767.08
431.47	5666.44
431.66	5710.91
431.85	5799.85
432.03	5767.08
432.22	5823.25
432.41	5834.96
432.60	5860.70
432.79	5841.98
432.97	6038.58
433.16	5949.64
433.35	5856.02
433.54	6017.52
433.72	6244.55
433.91	6136.88
434.10	6160.29
434.28	6026.88
434.47	5895.81
434.66	6312.42
434.85	6160.29
435.03	6162.63
435.22	6298.38
435.41	6450.52
435.59	6445.84
435.78	6513.71
435.97	6424.77
436.16	6361.58
436.34	6401.37
436.53	6420.09
436.72	6604.99
436.90	6434.13
437.09	6443.49
437.28	6523.07
437.46	6574.56
437.65	6672.87
437.84	6710.32
438.02	6810.96
438.21	6768.83
438.40	6684.57
438.58	6906.92
438.77	7061.40
438.96	6780.53
439.14	7045.01
439.33	7094.16
439.52	7080.12
439.70	7070.76
439.89	7206.51
440.08	7349.28
440.26	7375.03
440.45	7379.71
440.63	7496.74
440.82	7662.91
441.01	7506.10
441.19	7662.91
441.38	7683.98
441.57	7611.42
441.75	7702.70
441.94	7906.33
442.12	7719.09
442.31	7899.31
442.50	8046.76
442.68	8028.04
442.87	7946.12
443.05	8056.12
443.24	8051.44
443.43	8236.35
443.61	8112.30
443.80	8367.42
443.98	7913.35
444.17	7934.42
444.35	8149.75
444.54	8203.58
444.73	8259.75
444.91	8121.66
445.10	8119.32
445.28	8287.84
445.47	8149.75
445.65	8208.26
445.84	8327.63
446.02	8437.63
446.21	8306.56
446.39	8425.93
446.58	8379.12
446.77	8564.02
446.95	8147.40
447.14	8292.52
447.32	8409.54
447.51	8449.33
447.69	8512.53
447.88	8395.50
448.06	8617.85
448.25	8365.07
448.43	8425.93
448.62	8269.11
448.80	8362.73
448.99	8454.02
449.17	8713.81
449.36	8561.68
449.54	8847.22
449.73	8957.23
449.91	8830.84
450.10	8772.33
450.28	9184.26
450.46	8898.72
450.65	9067.24
450.83	8842.54
451.02	9095.32
451.20	9025.11
451.39	9146.81
451.57	9048.51
451.76	9247.46
451.94	9097.66
452.13	9137.45
452.31	9273.20
452.49	9207.67
452.68	9191.28
452.86	9280.22
453.05	9376.19
453.23	9586.83
453.42	9270.86
453.60	9366.82
453.78	9444.06
453.97	9401.93
454.15	9563.43
454.34	9408.95
454.52	9516.62
454.70	9483.85
454.89	9303.63
455.07	9692.16
455.26	9745.99
455.44	9741.31
455.62	9816.21
455.81	9610.24
455.99	9926.21
456.17	9977.70
456.36	10122.82
456.54	9963.66
456.73	10340.49
456.91	10218.78
457.09	10171.97
457.28	10555.82
457.46	10188.35
457.64	10401.34
457.83	10487.94
458.01	10326.44
458.19	10604.97
458.38	10546.45
458.56	10565.18
458.74	10918.60
458.93	10565.18
459.11	10719.65
459.29	10693.91
459.48	10888.17
459.66	10705.61
459.84	10768.80
460.03	11049.67
460.21	10766.46
460.39	10920.94
460.57	11138.61
460.76	10839.02
460.94	10967.75
461.12	11171.38
461.31	11159.67
461.49	11190.10
461.67	10853.06
461.85	11384.37
462.04	11119.89
462.22	11714.38
462.40	11679.27
462.59	11323.51
462.77	11339.90
462.95	11403.09
463.13	11372.66
463.32	11431.18
463.50	11763.53
463.68	11676.93
463.86	11611.40
464.05	11580.97
464.23	11735.45
464.41	11822.05
464.59	11426.50
464.78	12020.99
464.96	11962.48
465.14	11630.12
465.32	11784.60
465.50	12006.95
465.69	12182.49
465.87	12056.10
466.05	12248.02
466.23	11875.88
466.41	12053.76
466.60	12280.79
466.78	11908.65
466.96	12170.79
467.14	12037.38
467.32	12395.48
467.51	12458.67
467.69	11892.26
467.87	12449.31
468.05	12627.19
468.23	12276.11
468.41	12241.00
468.60	12264.41
468.78	12631.87
468.96	12713.79
469.14	12699.75
469.32	12704.43
469.50	12636.55
469.69	12814.43
469.87	12854.22
470.05	13036.78
470.23	13139.77
470.41	13078.91
470.59	13277.86
470.77	13179.56
470.95	13249.77
471.14	13502.55
471.32	13088.28
471.50	13612.56
471.68	13577.45
471.86	13635.96
472.04	13514.25
472.22	14029.17
472.40	13628.94
472.58	13710.86
472.77	13708.52
472.95	14066.62
473.13	14590.90
473.31	14024.49
473.49	14054.92
473.67	13809.16
473.85	14113.43
474.03	14324.08
474.21	14462.17
474.39	14663.46
474.57	14441.11
474.75	14663.46
474.93	14696.22
475.12	14951.34
475.30	14927.94
475.48	14904.53
475.66	14960.70
475.84	15077.73
476.02	15393.70
476.20	15412.43
476.38	15517.75
476.56	15913.30
476.74	15815.00
476.92	15964.79
477.10	15810.32
477.28	16112.25
477.46	16039.69
477.64	16063.10
477.82	16414.18
478.00	17008.67
478.18	16774.62
478.36	16730.15
478.54	17069.53
478.72	17205.28
478.90	17153.79
479.08	17518.91
479.26	17596.15
479.44	17532.95
479.62	17570.40
479.80	17692.11
479.98	17862.97
480.16	18211.71
480.34	17984.68
480.52	18574.49
480.70	18366.18
480.88	18195.32
481.06	18483.21
481.24	18312.35
481.41	18993.45
481.59	19433.47
481.77	19403.04
481.95	19499.00
482.13	19510.71
482.31	19442.83
482.49	19892.21
482.67	20070.09
482.85	20231.59
483.03	20512.46
483.21	20676.29
483.39	20758.21
483.57	20547.56
483.74	21010.99
483.92	21216.96
484.10	20725.44
484.28	21495.48
484.46	21956.57
484.64	22235.09
484.82	21893.37
485.00	22029.12
485.18	22230.41
485.35	23026.19
485.53	22691.49
485.71	22717.24
485.89	23346.84
486.07	22998.10
486.25	23370.25
486.43	23278.97
486.61	23756.44
486.78	23805.59
486.96	23962.40
487.14	24276.04
487.32	24428.17
487.50	24528.81
487.68	24898.62
487.85	25160.76
488.03	25689.72
488.21	25804.41
488.39	25603.12
488.57	25626.53
488.75	25982.29
488.92	26162.51
489.10	26677.43
489.28	26806.16
489.46	27152.55
489.64	26630.62
489.81	27295.33
489.99	27342.14
490.17	27501.29
490.35	28301.76
490.53	28236.22
490.70	28421.13
490.88	27892.16
491.06	28746.46
491.24	28355.59
491.41	28797.95
491.59	29305.85
491.77	28725.39
491.95	29270.74
492.13	29507.13
492.30	29448.62
492.48	29642.88
492.66	30103.97
492.84	30106.31
493.01	30588.46
493.19	30534.63
493.37	31009.76
493.54	30628.25
493.72	31112.74
493.90	31267.22
494.08	31859.37
494.25	31805.54
494.43	32077.04
494.61	32334.50
494.79	32364.93
494.96	32259.60
495.14	32336.84
495.32	32833.04
495.49	32776.86
495.67	32964.10
495.85	33076.45
496.02	33483.70
496.20	34017.35
496.38	33771.59
496.55	33902.66
496.73	34192.89
496.91	34284.17
497.09	34359.06
497.26	34735.89
497.44	34602.48
497.62	34869.30
497.79	35730.62
497.97	34878.66
498.14	36203.41
498.32	35967.01
498.50	36140.21
498.67	35976.37
498.85	36016.16
499.03	36650.45
499.20	36495.97
499.38	36889.18
499.56	36769.82
499.73	36854.08
499.91	37064.72
500.08	37504.74
500.26	37167.71
500.44	37439.21
500.61	37497.72
500.79	37441.55
500.97	37804.33
501.14	38286.48
501.32	38298.19
501.49	37979.87
501.67	38195.20
501.84	38679.69
502.02	38719.48
502.20	38513.52
502.37	39091.63
502.55	39299.94
502.72	39112.69
502.90	39477.82
503.07	39498.88
503.25	39679.10
503.43	39489.52
503.60	39908.47
503.78	40018.48
503.95	39880.39
504.13	40247.85
504.30	40645.74
504.48	40507.65
504.65	40697.24
504.83	40898.52
505.01	40973.42
505.18	40917.25
505.36	41123.21
505.53	41001.50
505.71	41198.11
505.88	41514.08
506.06	41354.93
506.23	41605.36
506.41	41212.15
506.58	41406.42
506.76	42089.85
506.93	42417.53
507.11	42344.97
507.28	42101.56
507.46	42674.99
507.63	42569.66
507.81	42897.34
507.98	42611.79
508.16	42710.10
508.33	43517.58
508.50	43152.46
508.68	43337.36
508.85	43405.23
509.03	43447.36
509.20	43945.90
509.38	44198.68
509.55	43966.96
509.73	44105.06
509.90	44336.77
510.08	44140.16
510.25	44179.95
510.42	44615.29
510.60	44603.59
510.77	45282.34
510.95	45137.23
511.12	45074.04
511.30	45071.70
511.47	45373.63
511.64	45036.59
511.82	45455.54
511.99	45523.42
512.17	45511.72
512.34	45588.95
512.51	45940.04
512.69	45837.05
512.86	46012.59
513.04	46574.32
513.21	46356.65
513.38	46459.63
513.56	46834.12
513.73	46169.41
513.90	46990.94
514.08	46726.46
514.25	46696.03
514.43	47234.35
514.60	47004.98
514.77	47168.82
514.95	47344.36
515.12	47622.88
515.29	47122.01
515.47	47723.52
515.64	47749.27
515.81	47594.79
515.99	47999.71
516.16	48460.79
516.33	47931.83
516.51	48282.91
516.68	48355.47
516.85	48245.46
517.03	48413.98
517.20	48603.56
517.37	48301.64
517.54	48633.99
517.72	48484.20
517.89	48512.28
518.06	49043.59
518.24	49212.10
518.41	49069.33
518.58	49350.20
518.75	49132.53
518.93	49357.22
519.10	49347.86
519.27	49628.72
519.45	49729.36
519.62	49837.03
519.79	49879.16
519.96	49752.77
520.14	49982.14
520.31	49961.08
520.48	49897.88
520.65	49902.56
520.83	50440.89
521.00	50422.16
521.17	50588.34
521.34	50459.61
521.52	50759.20
521.69	50890.27
521.86	50506.42
522.03	50733.45
522.20	50930.06
522.38	51182.84
522.55	51236.67
522.72	50983.89
522.89	50913.67
523.07	51407.53
523.24	51288.16
523.41	51405.19
523.58	51463.70
523.75	51367.74
523.92	51917.76
524.10	51756.27
524.27	51934.15
524.44	51707.12
524.61	52156.50
524.78	51697.75
524.96	52011.38
525.13	52133.09
525.30	52329.70
525.47	52184.58
525.64	52250.12
525.81	52409.28
525.98	52264.16
526.16	52329.70
526.33	52313.31
526.50	52861.00
526.67	52287.57
526.84	52556.73
527.01	52631.63
527.18	52837.59
527.36	52858.66
527.53	52795.46
527.70	53045.90
527.87	53523.37
528.04	52954.62
528.21	53338.47
528.38	52987.39
528.55	53401.66
528.72	53228.46
528.89	53357.19
529.07	53364.21
529.24	53062.29
529.41	53748.06
529.58	53504.65
529.75	53523.37
529.92	53677.85
530.09	53563.16
530.26	53804.24
530.43	53916.58
530.60	53696.57
530.77	53640.40
530.94	54003.18
531.11	53911.90
531.28	53799.55
531.46	54167.02
531.63	54014.88
531.80	53876.79
531.97	54064.03
532.14	54031.27
532.31	54068.72
532.48	54377.67
532.65	54480.65
532.82	53993.82
532.99	54532.14
533.16	54382.35
533.33	54597.68
533.50	54738.11
533.67	54698.32
533.84	54607.04
534.01	54663.21
534.18	54674.91
534.35	55042.38
534.52	54719.38
534.69	55161.75
534.86	55164.09
535.03	54717.04
535.20	55093.87
535.37	55058.76
535.54	55227.28
535.71	55007.27
535.88	55072.81
536.05	55250.69
536.22	55285.79
536.38	55304.52
536.55	55466.02
536.72	55512.83
536.89	55234.30
537.06	55440.27
537.23	55627.51
537.40	55524.53
537.57	55613.47
537.74	55648.58
537.91	55906.04
538.08	55709.43
538.25	55365.37
538.42	55941.14
538.59	56069.87
538.75	55707.09
538.92	56016.04
539.09	56083.92
539.26	55969.23
539.43	55704.75
539.60	55906.04
539.77	55899.01
539.94	56233.71
540.11	56025.40
540.28	56229.03
540.44	56210.31
540.61	56306.27
540.78	56184.56
540.95	56240.73
541.12	56261.80
541.29	56278.18
541.46	56334.35
541.62	56523.94
541.79	56589.47
541.96	56238.39
542.13	56631.60
542.30	56474.79
542.47	56619.90
542.63	56549.68
542.80	56938.21
542.97	56781.40
543.14	56898.42
543.31	56987.36
543.48	57066.94
543.64	57237.80
543.81	57198.01
543.98	57207.37
544.15	57148.86
544.32	57186.31
544.48	57308.02
544.65	57340.78
544.82	57558.45
544.99	57118.43
545.16	57420.36
545.32	57324.40
545.49	57347.81
545.66	57464.83
545.83	57371.21
546.00	57642.71
546.16	57457.81
546.33	57382.91
546.50	57148.86
546.67	57427.38
546.83	57216.74
547.00	57654.42
547.17	57609.95
547.34	57553.77
547.50	57815.91
547.67	57886.13
547.84	57645.05
548.00	57844.00
548.17	58026.56
548.34	58143.59
548.51	57851.02
548.67	58155.29
548.84	58089.76
549.01	57808.89
549.18	57946.98
549.34	57890.81
549.51	57876.77
549.68	58101.46
549.84	58468.92
550.01	58178.70
550.18	58059.33
550.34	58277.00
550.51	58384.66
550.68	58335.51
550.84	57916.56
551.01	58358.92
551.18	58068.69
551.34	58585.95
551.51	58452.54
551.68	58356.58
551.84	58478.28
552.01	58138.91
552.18	58560.20
552.34	58447.86
552.51	58492.33
552.68	58302.74
552.84	58394.03
553.01	58663.19
553.18	58714.68
553.34	58834.05
553.51	58494.67
553.67	58663.19
553.84	58599.99
554.01	58918.31
554.17	58820.00
554.34	58822.34
554.51	58805.96
554.67	58852.77
554.84	58773.19
555.00	58866.81
555.17	58707.66
555.33	59070.44
555.50	58731.06
555.67	58927.67
555.83	58787.24
556.00	58831.71
556.16	59196.83
556.33	59086.82
556.50	58859.79
556.66	59243.64
556.83	59089.16
556.99	59203.85
557.16	59309.18
557.32	59215.55
557.49	59428.54
557.65	59201.51
557.82	59585.36
557.98	59304.49
558.15	59327.90
558.32	59278.75
558.48	59154.70
558.65	59454.29
558.81	59339.60
558.98	59391.09
559.14	59231.94
559.31	59442.59
559.47	59491.74
559.64	59444.93
559.80	59550.25
559.97	59697.70
560.13	59264.70
560.30	59475.35
560.46	59465.99
560.63	59526.84
560.79	59620.47
560.96	59725.79
561.12	59704.73
561.29	59718.77
561.45	59407.48
561.61	59676.64
561.78	59686.00
561.94	59552.59
562.11	59648.55
562.27	59536.21
562.44	59884.95
562.60	60037.08
562.77	59849.84
562.93	59807.71
563.10	59901.33
563.26	59742.17
563.42	59962.18
563.59	59686.00
563.75	59810.05
563.92	59863.88
564.08	59807.71
564.24	60175.17
564.41	59950.48
564.57	59859.20
564.74	59821.75
564.90	59896.65
565.07	59973.89
565.23	60048.78
565.39	59873.24
565.56	59990.27
565.72	59948.14
565.88	60140.07
566.05	59934.10
566.21	59870.90
566.38	60135.38
566.54	60074.53
566.70	60189.22
566.87	60107.30
567.03	60191.56
567.19	60184.54
567.36	59959.84
567.52	60140.07
567.68	60409.23
567.85	60191.56
568.01	60161.13
568.17	60020.70
568.34	60306.24
568.50	60296.88
568.66	60121.34
568.83	60236.03
568.99	60320.29
569.15	60041.76
569.32	60238.37
569.48	60200.92
569.64	60458.38
569.81	60233.69
569.97	60041.76
570.13	60219.64
570.30	60001.97
570.46	60292.20
570.62	60498.17
570.78	60404.55
570.95	60266.45
571.11	60357.74
571.27	60418.59
571.43	60343.69
571.60	60498.17
571.76	60444.33
571.92	60280.50
572.09	60502.85
572.25	60580.09
572.41	60346.03
572.57	60500.51
572.74	60624.56
572.90	60432.63
573.06	60542.64
573.22	60383.48
573.38	60544.98
573.55	60453.70
573.71	60556.68
573.87	60535.62
574.03	60154.11
574.20	60671.37
574.36	60608.17
574.52	60736.90
574.68	60547.32
574.84	60631.58
575.01	60652.64
575.17	60659.66
575.33	60591.79
575.49	60437.31
575.65	60734.56
575.82	60598.81
575.98	60704.13
576.14	60741.58
576.30	60851.59
576.46	60706.47
576.62	60521.57
576.79	60523.91
576.95	60662.00
577.11	60701.79
577.27	60704.13
577.43	60769.67
577.59	60704.13
577.75	60580.09
577.92	60706.47
578.08	60720.52
578.24	60767.33
578.40	60762.65
578.56	60725.20
578.72	60683.07
578.88	60828.18
579.04	60928.83
579.21	60842.23
579.37	60673.71
579.53	60839.89
579.69	60601.15
579.85	60704.13
580.01	60802.44
580.17	60708.82
580.33	60816.48
580.49	60654.98
580.65	60982.66
580.82	60767.33
580.98	60673.71
581.14	60631.58
581.30	60856.27
581.46	60722.86
581.62	60760.31
581.78	60837.54
581.94	60711.16
582.10	60837.54
582.26	60849.25
582.42	60533.28
582.58	60837.54
582.74	60643.28
582.90	60772.01
583.06	60769.67
583.22	60762.65
583.38	60762.65
583.54	60795.42
583.70	60708.82
583.86	60718.18
584.02	60549.66
584.18	61120.75
584.34	60811.80
584.50	60865.63
584.66	60711.16
584.82	60540.30
584.98	61057.56
585.14	60914.78
585.30	60683.07
585.46	60837.54
585.62	60715.84
585.78	61169.90
585.94	60706.47
586.10	60694.77
586.26	60835.20
586.42	60921.80
586.58	61010.74
586.74	60989.68
586.90	60647.96
587.06	60741.58
587.22	61001.38
587.38	60884.36
587.54	60992.02
587.70	60989.68
587.86	60837.54
588.02	60907.76
588.18	60961.59
588.34	60828.18
588.49	60872.65
