SpectraSuite Data File
++++++++++++++++++++++++++++++++++++
Date: Fri Oct 25 11:33:26 EDT 2013
User: price-jones
Dark Spectrum Present: No
Reference Spectrum Present: No
Number of Sampled Component Spectra: 1
Spectrometers: USB2+H05261
Integration Time (usec): 100000 (USB2+H05261)
Spectra Averaged: 1 (USB2+H05261)
Boxcar Smoothing: 0 (USB2+H05261)
Correct for Electrical Dark: No (USB2+H05261)
Strobe/Lamp Enabled: No (USB2+H05261)
Correct for Detector Non-linearity: No (USB2+H05261)
Correct for Stray Light: No (USB2+H05261)
Number of Pixels in Processed Spectrum: 2048
>>>>>Begin Processed Spectral Data<<<<<
365.73	269.16
365.92	269.16
366.12	269.16
366.32	177.88
366.52	147.45
366.72	198.95
366.91	194.26
367.11	121.71
367.31	182.56
367.51	170.86
367.70	159.16
367.90	241.08
368.10	248.10
368.30	142.77
368.49	152.13
368.69	248.10
368.89	194.26
369.09	210.65
369.28	196.60
369.48	203.63
369.68	257.46
369.87	259.80
370.07	191.92
370.27	280.86
370.47	330.02
370.66	550.03
370.86	489.17
371.06	479.81
371.25	552.37
371.45	538.32
371.65	594.50
371.84	613.22
372.04	521.94
372.24	648.33
372.44	606.20
372.63	608.54
372.83	601.52
373.03	645.99
373.22	571.09
373.42	589.82
373.62	606.20
373.81	627.26
374.01	657.69
374.21	596.84
374.40	620.24
374.60	634.29
374.79	664.71
374.99	711.52
375.19	573.43
375.38	683.44
375.58	613.22
375.78	685.78
375.97	690.46
376.17	741.95
376.37	699.82
376.56	683.44
376.76	678.76
376.95	615.56
377.15	709.18
377.35	699.82
377.54	653.01
377.74	725.57
377.93	664.71
378.13	662.37
378.33	734.93
378.52	746.63
378.72	711.52
378.91	674.07
379.11	844.93
379.31	741.95
379.50	650.67
379.70	725.57
379.89	692.80
380.09	737.27
380.28	800.46
380.48	629.60
380.68	624.92
380.87	662.37
381.07	746.63
381.26	763.01
381.46	760.67
381.65	765.36
381.85	774.72
382.04	734.93
382.24	833.23
382.43	802.80
382.63	781.74
382.83	791.10
383.02	793.44
383.22	877.70
383.41	784.08
383.61	840.25
383.80	814.51
384.00	877.70
384.19	800.46
384.39	861.32
384.58	800.46
384.78	894.08
384.97	830.89
385.17	828.55
385.36	826.21
385.56	823.87
385.75	826.21
385.95	861.32
386.14	788.76
386.34	877.70
386.53	875.36
386.72	847.27
386.92	856.64
387.11	847.27
387.31	919.83
387.50	835.57
387.70	898.77
387.89	922.17
388.09	887.06
388.28	919.83
388.48	940.90
388.67	873.02
388.86	976.00
389.06	976.00
389.25	894.08
389.45	992.39
389.64	954.94
389.84	1029.84
390.03	1062.60
390.22	943.24
390.42	901.11
390.61	947.92
390.81	966.64
391.00	952.60
391.19	980.68
391.39	1004.09
391.58	1041.54
391.78	1064.94
391.97	1083.67
392.16	1043.88
392.36	1027.50
392.55	980.68
392.75	1015.79
392.94	1050.90
393.13	1069.62
393.33	1015.79
393.52	1055.58
393.71	987.71
393.91	1095.37
394.10	1078.99
394.29	1104.73
394.49	1095.37
394.68	1123.46
394.88	1114.10
395.07	1137.50
395.26	1128.14
395.46	1090.69
395.65	1231.12
395.84	1170.27
396.04	1308.36
396.23	1198.35
396.42	1242.82
396.62	1263.89
396.81	1266.23
397.00	1224.10
397.19	1273.25
397.39	1203.04
397.58	1259.21
397.77	1238.14
397.97	1268.57
398.16	1301.34
398.35	1306.02
398.55	1256.87
398.74	1193.67
398.93	1308.36
399.12	1291.98
399.32	1287.29
399.51	1329.42
399.70	1472.20
399.90	1270.91
400.09	1266.23
400.28	1378.58
400.47	1420.71
400.67	1392.62
400.86	1385.60
401.05	1359.85
401.24	1399.64
401.44	1413.68
401.63	1504.96
401.82	1418.36
402.01	1401.98
402.21	1460.49
402.40	1416.02
402.59	1556.46
402.78	1556.46
402.97	1526.03
403.17	1570.50
403.36	1521.35
403.55	1516.67
403.74	1675.82
403.93	1462.83
404.13	1732.00
404.32	1666.46
404.51	1605.61
404.70	1708.59
404.89	1643.06
405.09	1694.55
405.28	1701.57
405.47	1596.25
405.66	1694.55
405.85	1823.28
406.05	1701.57
406.24	1792.85
406.43	1710.93
406.62	1811.57
406.81	1734.34
407.00	1797.53
407.20	1790.51
407.39	1804.55
407.58	1741.36
407.77	1858.39
407.96	1989.46
408.15	1895.83
408.34	1820.94
408.54	2036.27
408.73	1902.86
408.92	1991.80
409.11	1930.94
409.30	2029.24
409.49	1996.48
409.68	1949.67
409.87	2026.90
410.07	2052.65
410.26	2111.16
410.45	2033.93
410.64	2127.55
410.83	2122.87
411.02	2165.00
411.21	2200.10
411.40	2085.42
411.59	2253.94
411.78	2153.29
411.98	2324.15
412.17	2331.17
412.36	2286.70
412.55	2314.79
412.74	2403.73
412.93	2392.03
413.12	2310.11
413.31	2490.33
413.50	2427.14
413.69	2427.14
413.88	2499.69
414.07	2532.46
414.26	2583.95
414.45	2525.44
414.64	2551.18
414.83	2626.08
415.02	2588.63
415.22	2588.63
415.41	2616.72
415.60	2696.30
415.79	2658.85
415.98	2715.02
416.17	2722.04
416.36	2850.77
416.55	2693.96
416.74	2794.60
416.93	2792.26
417.12	2822.69
417.31	2846.09
417.50	2869.50
417.69	2970.14
417.88	2991.20
418.07	2841.41
418.26	2963.12
418.45	3077.80
418.64	3070.78
418.83	2970.14
419.02	2988.86
419.21	3126.96
419.39	3176.11
419.58	3035.67
419.77	3038.02
419.96	3126.96
420.15	3126.96
420.34	3272.07
420.53	3124.62
420.72	3286.11
420.91	3300.16
421.10	3248.66
421.29	3356.33
421.48	3218.24
421.67	3330.58
421.86	3428.88
422.05	3286.11
422.24	3377.39
422.43	3447.61
422.61	3503.78
422.80	3459.31
422.99	3309.52
423.18	3384.41
423.37	3447.61
423.56	3346.97
423.75	3384.41
423.94	3391.44
424.13	3180.79
424.32	3323.56
424.50	3510.80
424.69	3403.14
424.88	3492.08
425.07	3435.91
425.26	3407.82
425.45	3407.82
425.64	3435.91
425.83	3419.52
426.01	3478.04
426.20	3581.02
426.39	3524.85
426.58	3452.29
426.77	3597.40
426.96	3534.21
427.15	3456.97
427.33	3555.27
427.52	3623.15
427.71	3552.93
427.90	3545.91
428.09	3639.53
428.28	3730.81
428.46	3772.94
428.65	3627.83
428.84	3932.10
429.03	3871.25
429.22	3632.51
429.40	3747.20
429.59	3815.07
429.78	3648.90
429.97	3669.96
430.16	3681.66
430.34	3908.69
430.53	4011.68
430.72	3953.16
430.91	3906.35
431.10	3826.78
431.28	3997.64
431.47	4011.68
431.66	4070.19
431.85	4007.00
432.03	4147.43
432.22	4046.79
432.41	4177.86
432.60	4084.23
432.79	4170.83
432.97	4168.49
433.16	4170.83
433.35	4095.94
433.54	4065.51
433.72	4196.58
433.91	4007.00
434.10	4222.33
434.28	4198.92
434.47	4332.33
434.66	4337.01
434.85	4409.57
435.03	4285.52
435.22	4465.74
435.41	4470.42
435.59	4421.27
435.78	4505.53
435.97	4498.51
436.16	4514.89
436.34	4528.94
436.53	4458.72
436.72	4463.40
436.90	4479.79
437.09	4479.79
437.28	4486.81
437.46	4573.41
437.65	4596.81
437.84	4550.00
438.02	4566.39
438.21	4716.18
438.40	4582.77
438.58	4788.74
438.77	4840.23
438.96	4720.86
439.14	4896.40
439.33	4978.32
439.52	4959.60
439.70	4943.21
439.89	4987.68
440.08	5020.45
440.26	5022.79
440.45	5020.45
440.63	5231.10
440.82	5238.12
441.01	5317.70
441.19	5198.33
441.38	5301.31
441.57	5401.96
441.75	5242.80
441.94	5469.83
442.12	5317.70
442.31	5275.57
442.50	5612.60
442.68	5462.81
442.87	5455.79
443.05	5605.58
443.24	5565.79
443.43	5689.84
443.61	5825.59
443.80	5760.06
443.98	5427.70
444.17	5315.36
444.35	5619.63
444.54	5640.69
444.73	5584.52
444.91	5680.48
445.10	5701.54
445.28	5706.23
445.47	5680.48
445.65	5701.54
445.84	5722.61
446.02	5820.91
446.21	5708.57
446.39	5734.31
446.58	5792.83
446.77	5657.07
446.95	5746.02
447.14	5724.95
447.32	5757.72
447.51	5671.12
447.69	5736.65
447.88	5767.08
448.06	5771.76
448.25	5947.30
448.43	6038.58
448.62	5654.73
448.80	5909.85
448.99	5975.39
449.17	5895.81
449.36	5886.45
449.54	5937.94
449.73	6099.44
449.91	6181.35
450.10	6066.67
450.28	6349.87
450.46	6066.67
450.65	6282.00
450.83	6183.70
451.02	6101.78
451.20	6216.46
451.39	6094.76
451.57	6022.20
451.76	6267.95
451.94	6167.31
452.13	6246.89
452.31	6239.87
452.49	6265.61
452.68	6291.36
452.86	6361.58
453.05	6471.58
453.23	6267.95
453.42	6368.60
453.60	6497.33
453.78	6539.46
453.97	6509.03
454.15	6403.71
454.34	6502.01
454.52	6628.40
454.70	6569.88
454.89	6431.79
455.07	6546.48
455.26	6686.91
455.44	6677.55
455.62	6712.66
455.81	6724.36
455.99	6867.13
456.17	6920.96
456.36	6839.05
456.54	6808.62
456.73	7049.69
456.91	7049.69
457.09	6965.43
457.28	7126.93
457.46	6935.01
457.64	6960.75
457.83	7218.21
458.01	7250.98
458.19	7286.09
458.38	7077.78
458.56	7461.63
458.74	7236.94
458.93	6911.60
459.11	7276.73
459.29	7363.33
459.48	7208.85
459.66	7325.88
459.84	7529.50
460.03	7440.56
460.21	7513.12
460.39	7363.33
460.57	7445.24
460.76	7655.89
460.94	7625.47
461.12	7590.36
461.31	7513.12
461.49	7576.31
461.67	7726.11
461.85	7688.66
462.04	7639.51
462.22	8086.55
462.40	7981.23
462.59	7826.75
462.77	7691.00
462.95	7829.09
463.13	7878.24
463.32	8011.65
463.50	7915.69
463.68	8011.65
463.86	7946.12
464.05	7976.55
464.23	7852.50
464.41	8194.22
464.59	7819.73
464.78	8236.35
464.96	8091.23
465.14	7864.20
465.32	7985.91
465.50	7988.25
465.69	8264.43
465.87	8145.06
466.05	8201.24
466.23	8102.93
466.41	8081.87
466.60	8248.05
466.78	8231.66
466.96	8311.24
467.14	8278.47
467.32	8257.41
467.51	8381.46
467.69	8264.43
467.87	8334.65
468.05	8636.58
468.23	8477.42
468.41	8327.63
468.60	8409.54
468.78	8416.57
468.96	8395.50
469.14	8601.47
469.32	8662.32
469.50	8383.80
469.69	8704.45
469.87	8678.71
470.05	8826.16
470.23	8725.52
470.41	8765.31
470.59	8929.14
470.77	8959.57
470.95	8821.48
471.14	9202.99
471.32	9020.42
471.50	9202.99
471.68	9135.11
471.86	9200.65
472.04	9160.86
472.22	9474.49
472.40	9207.67
472.58	9181.92
472.77	9289.59
472.95	9200.65
473.13	9626.62
473.31	9444.06
473.49	9455.76
473.67	9516.62
473.85	9633.64
474.03	9811.53
474.21	9820.89
474.39	9844.29
474.57	9816.21
474.75	10068.98
474.93	10040.90
475.12	9980.04
475.30	9987.07
475.48	10349.85
475.66	10202.40
475.84	10087.71
476.02	10338.15
476.20	10373.25
476.38	10511.35
476.56	10637.73
476.74	10766.46
476.92	10487.94
477.10	10436.45
477.28	10888.17
477.46	10977.11
477.64	10836.68
477.82	11185.42
478.00	11356.28
478.18	11154.99
478.36	11318.83
478.54	11489.69
478.72	11276.70
478.90	11477.99
479.08	11784.60
479.26	11859.49
479.44	11903.96
479.62	11936.73
479.80	11915.67
479.98	12088.87
480.16	12435.27
480.34	12222.28
480.52	12386.12
480.70	12379.09
480.88	12233.98
481.06	12587.40
481.24	12416.54
481.41	12599.10
481.59	12926.78
481.77	12505.48
481.95	13252.11
482.13	13329.35
482.31	13046.15
482.49	13640.64
482.67	13476.80
482.85	13626.60
483.03	13687.45
483.21	13607.87
483.39	14071.30
483.57	13577.45
483.74	13893.42
483.92	13818.52
484.10	14146.20
484.28	14295.99
484.46	14747.72
484.64	14707.93
484.82	14726.65
485.00	14759.42
485.18	15019.22
485.35	15220.50
485.53	15098.80
485.71	15176.03
485.89	15728.40
486.07	15426.47
486.25	15445.20
486.43	15548.18
486.61	16009.26
486.78	15903.94
486.96	15957.77
487.14	16121.61
487.32	16475.03
487.50	16489.07
487.68	16636.53
487.85	16891.65
488.03	16847.18
488.21	17050.80
488.39	17125.70
488.57	17207.62
488.75	17444.01
488.92	17462.74
489.10	17769.35
489.28	17895.74
489.46	17994.04
489.64	17853.61
489.81	18331.08
489.99	18389.59
490.17	18221.07
490.35	18553.43
490.53	18349.80
490.70	18883.44
490.88	18813.23
491.06	18960.68
491.24	19328.14
491.41	18923.23
491.59	19482.62
491.77	19515.39
491.95	19433.47
492.13	19477.94
492.30	19740.08
492.48	19948.39
492.66	19775.19
492.84	20271.38
493.01	19922.64
493.19	20341.60
493.37	20680.97
493.54	20489.05
493.72	20950.14
493.90	21125.68
494.08	20863.54
494.25	21209.93
494.43	20961.84
494.61	21577.40
494.79	21387.82
494.96	21319.94
495.14	21694.43
495.32	22087.64
495.49	21940.18
495.67	21724.85
495.85	22492.55
496.02	22677.45
496.20	22459.78
496.38	22483.19
496.55	22618.94
496.73	22731.28
496.91	22925.55
497.09	22958.31
497.26	22946.61
497.44	23030.87
497.62	23386.63
497.79	23587.92
497.97	23711.97
498.14	23955.38
498.32	23821.97
498.50	23976.45
498.67	24114.54
498.85	23775.16
499.03	24610.73
499.20	24168.37
499.38	24198.80
499.56	24638.82
499.73	24680.95
499.91	24910.32
500.08	24898.62
500.26	24762.87
500.44	24840.11
500.61	25123.31
500.79	25076.50
500.97	25584.40
501.14	25589.08
501.32	25577.37
501.49	25322.26
501.67	25656.95
501.84	26134.42
502.02	25631.21
502.20	25628.87
502.37	25893.35
502.55	25912.07
502.72	26256.13
502.90	26221.02
503.07	26160.17
503.25	26389.54
503.43	26506.57
503.60	26462.10
503.78	26672.74
503.95	26604.87
504.13	26665.72
504.30	26857.65
504.48	27080.00
504.65	26876.37
504.83	27456.82
505.01	27412.35
505.18	27328.10
505.36	27634.71
505.53	27318.73
505.71	27552.79
505.88	27772.80
506.06	27510.66
506.23	28168.35
506.41	27658.11
506.58	28144.94
506.76	28032.60
506.93	28109.83
507.11	28491.34
507.28	28261.97
507.46	28240.90
507.63	28257.29
507.81	28744.12
507.98	28465.60
508.16	28486.66
508.33	28828.38
508.50	28697.31
508.68	29102.22
508.85	29149.03
509.03	28929.02
509.20	29415.85
509.38	29624.16
509.55	29345.64
509.73	29481.39
509.90	29806.72
510.08	29984.60
510.25	29935.45
510.42	29717.78
510.60	29598.41
510.77	30370.79
510.95	30333.34
511.12	29649.91
511.30	30174.19
511.47	30288.87
511.64	30625.91
511.82	30574.42
511.99	30909.11
512.17	30646.97
512.34	30394.20
512.51	30672.72
512.69	31065.93
512.86	30998.06
513.04	30834.22
513.21	31545.74
513.38	31393.61
513.56	31456.80
513.73	31218.07
513.90	31524.68
514.08	31353.82
514.25	31501.27
514.43	31864.05
514.60	31824.26
514.77	31971.72
514.95	32177.68
515.12	31751.71
515.29	32084.06
515.47	32093.43
515.64	32163.64
515.81	31758.73
515.99	32713.67
516.16	32428.12
516.33	32264.28
516.51	32957.08
516.68	32407.06
516.85	32687.92
517.03	33074.11
517.20	33060.07
517.37	32856.44
517.54	33270.72
517.72	33188.80
517.89	33511.79
518.06	33673.29
518.24	33181.77
518.41	33378.38
518.58	33841.81
518.75	33532.86
518.93	33596.05
519.10	33633.50
519.27	34036.07
519.45	34258.42
519.62	34117.99
519.79	33897.98
519.96	33823.08
520.14	34038.41
520.31	33699.03
520.48	34462.05
520.65	34560.35
520.83	34658.65
521.00	34890.37
521.17	34293.53
521.34	34574.39
521.52	34801.43
521.69	34827.17
521.86	34960.58
522.03	35138.46
522.20	35086.97
522.38	35185.27
522.55	34995.69
522.72	34960.58
522.89	35239.11
523.07	35901.48
523.24	35510.61
523.41	35938.93
523.58	35339.75
523.75	35812.54
523.92	35196.98
524.10	35866.37
524.27	36102.76
524.44	36058.29
524.61	36172.98
524.78	36037.23
524.96	36081.70
525.13	36493.63
525.30	36381.29
525.47	36362.56
525.64	36287.67
525.81	36378.95
525.98	36711.30
526.16	36552.15
526.33	36673.85
526.50	36790.88
526.67	36678.54
526.84	36751.09
527.01	37099.83
527.18	36711.30
527.36	37287.07
527.53	37074.09
527.70	37806.67
527.87	37497.72
528.04	37523.47
528.21	37069.40
528.38	37596.03
528.55	37825.40
528.72	37525.81
528.89	37151.32
529.07	37240.26
529.24	37525.81
529.41	37935.40
529.58	37502.40
529.75	37853.48
529.92	37436.87
530.09	38026.68
530.26	38176.48
530.43	38017.32
530.60	37755.18
530.77	37851.14
530.94	38192.86
531.11	37928.38
531.28	38162.43
531.46	38415.21
531.63	38120.31
531.80	38405.85
531.97	38768.63
532.14	38522.88
532.31	38485.43
532.48	38609.48
532.65	39168.87
532.82	38628.20
532.99	38916.09
533.16	38778.00
533.33	39110.35
533.50	39377.17
533.67	38679.69
533.84	39098.65
534.01	39372.49
534.18	39026.09
534.35	39306.96
534.52	39601.86
534.69	39346.75
534.86	39995.07
535.03	39459.09
535.20	39966.99
535.37	39512.92
535.54	39704.85
535.71	39859.32
535.88	39807.83
536.05	39906.13
536.22	39868.69
536.38	40025.50
536.55	40027.84
536.72	40037.20
536.89	40196.36
537.06	40802.56
537.23	40149.55
537.40	39969.33
537.57	40198.70
537.74	40404.67
537.91	40863.41
538.08	40402.33
538.25	40154.23
538.42	40582.55
538.59	40856.39
538.75	40638.72
538.92	40484.25
539.09	40734.68
539.26	40416.37
539.43	40980.44
539.60	40851.71
539.77	40828.30
539.94	41198.11
540.11	41336.20
540.28	41160.66
540.44	41083.42
540.61	40711.28
540.78	40755.75
540.95	41310.46
541.12	40882.14
541.29	40971.08
541.46	41614.72
541.62	41872.18
541.79	41778.56
541.96	41247.26
542.13	41090.44
542.30	41530.47
542.47	41858.14
542.63	41771.54
542.80	41771.54
542.97	42366.04
543.14	42356.67
543.31	42038.36
543.48	42211.56
543.64	42403.49
543.81	42532.22
543.98	42330.93
544.15	42410.51
544.32	42787.33
544.48	42850.53
544.65	42632.86
544.82	42742.86
544.99	42590.73
545.16	42625.84
545.32	42539.24
545.49	42316.89
545.66	43203.95
545.83	42845.85
546.00	43250.76
546.16	42983.94
546.33	42766.27
546.50	42635.20
546.67	43278.85
546.83	42684.35
547.00	42850.53
547.17	42827.12
547.34	43386.51
547.50	42972.24
547.67	43665.03
547.84	43028.41
548.00	43281.19
548.17	43299.91
548.34	43164.16
548.51	44044.20
548.67	43758.66
548.84	43416.94
549.01	43981.01
549.18	43459.07
549.34	43906.11
549.51	44076.97
549.68	43901.43
549.84	43587.80
550.01	44126.12
550.18	43337.36
550.34	44226.76
550.51	44105.06
550.68	44046.54
550.84	43779.72
551.01	44428.05
551.18	43957.60
551.34	43746.95
551.51	44308.68
551.68	43674.40
551.84	44355.49
552.01	44367.20
552.18	44217.40
552.34	43973.98
552.51	44458.48
552.68	43847.60
552.84	44879.77
553.01	44385.92
553.18	44383.58
553.34	44416.35
553.51	44165.91
553.67	44526.35
553.84	44807.22
554.01	44786.15
554.17	44788.49
554.34	44727.64
554.51	45106.80
554.67	44994.46
554.84	44708.91
555.00	45085.74
555.17	44664.44
555.33	45247.24
555.50	44968.71
555.67	44811.90
555.83	45158.30
556.00	44830.62
556.16	45492.99
556.33	45127.87
556.50	45242.56
556.66	45394.69
556.83	45198.09
556.99	45539.80
557.16	45663.85
557.32	45593.64
557.49	45067.02
557.65	45415.76
557.82	45631.08
557.98	45099.78
558.15	45193.40
558.32	45556.19
558.48	45661.51
558.65	45113.83
558.81	45556.19
558.98	45614.70
559.14	45516.40
559.31	45179.36
559.47	45413.41
559.64	45696.62
559.80	45439.16
559.97	45570.23
560.13	45907.27
560.30	45883.86
560.46	46555.60
560.63	45970.46
560.79	46202.18
560.96	45858.12
561.12	46050.04
561.29	45904.93
561.45	46316.86
561.61	46026.63
561.78	45918.97
561.94	45631.08
562.11	45972.80
562.27	46045.36
562.44	45734.07
562.60	46047.70
562.77	46553.26
562.93	46260.69
563.10	46241.96
563.26	46539.21
563.42	46597.73
563.59	46478.36
563.75	46115.58
563.92	46232.60
564.08	46087.49
564.24	46532.19
564.41	45904.93
564.57	46204.52
564.74	46220.90
564.90	46190.47
565.07	46817.74
565.23	46122.60
565.39	46459.63
565.56	46653.90
565.72	46340.27
565.88	46532.19
566.05	46665.60
566.21	46408.14
566.38	46155.36
566.54	46602.41
566.70	46969.87
566.87	46691.35
567.03	46330.90
567.19	46651.56
567.36	46508.79
567.52	46693.69
567.68	46728.80
567.85	46696.03
568.01	46707.73
568.17	46902.00
568.34	47004.98
568.50	46969.87
568.66	46616.45
568.83	46646.88
568.99	46529.85
569.15	46616.45
569.32	46918.38
569.48	46808.37
569.64	47468.40
569.81	46983.91
569.97	47035.41
570.13	46932.42
570.30	46824.76
570.46	46911.36
570.62	46824.76
570.78	46993.28
570.95	46892.63
571.11	47189.88
571.27	46579.00
571.43	47023.70
571.60	47028.38
571.76	46885.61
571.92	46986.25
572.09	46906.68
572.25	46567.30
572.41	46742.84
572.57	47381.80
572.74	47267.12
572.90	47033.07
573.06	47079.88
573.22	47562.03
573.38	47061.15
573.55	47119.66
573.71	47723.52
573.87	47353.72
574.03	47288.18
574.20	47473.09
574.36	47203.92
574.52	47138.39
574.68	47185.20
574.84	47798.42
575.01	47311.59
575.17	47124.35
575.33	47704.80
575.49	47028.38
575.65	47283.50
575.82	47377.12
575.98	47318.61
576.14	47068.17
576.30	47674.37
576.46	47505.85
576.62	47313.93
576.79	47302.23
576.95	46878.59
577.11	46693.69
577.27	47374.78
577.43	47173.50
577.59	47241.37
577.75	47452.02
577.92	47068.17
578.08	47681.39
578.24	47241.37
578.40	47295.21
578.56	47601.82
578.72	47049.45
578.88	47873.32
579.04	47482.45
579.21	47601.82
579.37	47662.67
579.53	47674.37
579.69	47552.66
579.85	47290.52
580.01	47388.83
580.17	47232.01
580.33	47381.80
580.49	47379.46
580.65	47653.31
580.82	47470.75
580.98	47461.38
581.14	47082.22
581.30	47714.16
581.46	47342.02
581.62	47452.02
581.78	47629.90
581.94	47597.13
582.10	47192.22
582.26	47744.59
582.42	47629.90
582.58	47838.21
582.74	47414.57
582.90	47901.40
583.06	47494.15
583.22	47442.66
583.38	47316.27
583.54	47700.12
583.70	47405.21
583.86	47957.58
584.02	47466.06
584.18	47709.48
584.34	47566.71
584.50	48083.97
584.66	47779.70
584.82	48037.16
584.98	48151.84
585.14	47913.11
585.30	47620.54
585.46	47863.96
585.62	47648.63
585.78	47950.56
585.94	47386.49
586.10	48074.60
586.26	47679.05
586.42	47686.07
586.58	47650.97
586.74	47791.40
586.90	47571.39
587.06	47555.00
587.22	47934.17
587.38	47632.24
587.54	47665.01
587.70	48231.42
587.86	47983.32
588.02	47789.06
588.18	47508.19
588.34	47246.05
588.49	47772.67
588.65	47454.36
588.81	47629.90
588.97	47969.28
589.13	47683.73
589.29	47756.29
589.45	48016.09
589.61	47885.02
589.77	48039.50
589.93	47737.57
