SpectraSuite Data File
++++++++++++++++++++++++++++++++++++
Date: Fri Oct 25 10:43:42 EDT 2013
User: price-jones
Dark Spectrum Present: No
Reference Spectrum Present: No
Number of Sampled Component Spectra: 1
Spectrometers: USB2+H05261
Integration Time (usec): 100000 (USB2+H05261)
Spectra Averaged: 1 (USB2+H05261)
Boxcar Smoothing: 0 (USB2+H05261)
Correct for Electrical Dark: No (USB2+H05261)
Strobe/Lamp Enabled: No (USB2+H05261)
Correct for Detector Non-linearity: No (USB2+H05261)
Correct for Stray Light: No (USB2+H05261)
Number of Pixels in Processed Spectrum: 2048
>>>>>Begin Processed Spectral Data<<<<<
365.73	154.48
365.92	154.48
366.12	154.48
366.32	102.98
366.52	25.75
366.72	37.45
366.91	56.17
367.11	0.00
367.31	35.11
367.51	0.00
367.70	11.70
367.90	49.15
368.10	58.51
368.30	51.49
368.49	32.77
368.69	0.00
368.89	28.09
369.09	0.00
369.28	35.11
369.48	32.77
369.68	30.43
369.87	56.17
370.07	119.37
370.27	138.09
370.47	184.90
370.66	482.15
370.86	388.53
371.06	507.90
371.25	442.36
371.45	428.32
371.65	454.06
371.84	425.98
372.04	463.43
372.24	498.53
372.44	458.74
372.63	507.90
372.83	470.45
373.03	475.13
373.22	578.11
373.42	512.58
373.62	500.87
373.81	557.05
374.01	545.34
374.21	535.98
374.40	648.33
374.60	475.13
374.79	580.45
374.99	547.69
375.19	575.77
375.38	664.71
375.58	624.92
375.78	585.13
375.97	552.37
376.17	631.94
376.37	627.26
376.56	587.47
376.76	608.54
376.95	599.18
377.15	622.58
377.35	624.92
377.54	620.24
377.74	669.39
377.93	557.05
378.13	697.48
378.33	627.26
378.52	683.44
378.72	753.65
378.91	706.84
379.11	622.58
379.31	706.84
379.50	641.31
379.70	723.23
379.89	629.60
380.09	617.90
380.28	643.65
380.48	781.74
380.68	638.97
380.87	695.14
381.07	613.22
381.26	734.93
381.46	706.84
381.65	763.01
381.85	723.23
382.04	748.97
382.24	791.10
382.43	758.33
382.63	631.94
382.83	706.84
383.02	751.31
383.22	732.59
383.41	650.67
383.61	739.61
383.80	772.38
384.00	676.41
384.19	681.10
384.39	767.70
384.58	816.85
384.78	770.04
384.97	847.27
385.17	777.06
385.36	837.91
385.56	758.33
385.75	793.44
385.95	858.98
386.14	933.87
386.34	847.27
386.53	844.93
386.72	805.14
386.92	746.63
387.11	915.15
387.31	952.60
387.50	903.45
387.70	863.66
387.89	830.89
388.09	873.02
388.28	828.55
388.48	896.43
388.67	1029.84
388.86	1008.77
389.06	929.19
389.25	905.79
389.45	957.28
389.64	957.28
389.84	1050.90
390.03	1114.10
390.22	1109.41
390.42	994.73
390.61	1027.50
390.81	1093.03
391.00	978.34
391.19	1165.59
391.39	1100.05
391.58	1078.99
391.78	1074.31
391.97	1069.62
392.16	983.02
392.36	1097.71
392.55	985.37
392.75	992.39
392.94	1111.75
393.13	1036.86
393.33	1078.99
393.52	1013.45
393.71	1015.79
393.91	1149.20
394.10	1093.03
394.29	1163.25
394.49	1179.63
394.68	1172.61
394.88	1193.67
395.07	1191.33
395.26	1186.65
395.46	1207.72
395.65	1357.51
395.84	1179.63
396.04	1224.10
396.23	1149.20
396.42	1128.14
396.62	1181.97
396.81	1294.32
397.00	1203.04
397.19	1263.89
397.39	1373.89
397.58	1352.83
397.77	1364.53
397.97	1542.41
398.16	1420.71
398.35	1453.47
398.55	1488.58
398.74	1472.20
398.93	1556.46
399.12	1490.92
399.32	1533.05
399.51	1509.65
399.70	1600.93
399.90	1547.09
400.09	1565.82
400.28	1629.01
400.47	1659.44
400.67	1668.80
400.86	1533.05
401.05	1600.93
401.24	1596.25
401.44	1713.27
401.63	1724.97
401.82	1715.61
402.01	1696.89
402.21	1762.42
402.40	1764.76
402.59	1713.27
402.78	1774.13
402.97	1732.00
403.17	1680.50
403.36	1748.38
403.55	1867.75
403.74	1893.49
403.93	1954.35
404.13	1914.56
404.32	1827.96
404.51	1886.47
404.70	1863.07
404.89	1865.41
405.09	2045.63
405.28	1919.24
405.47	1860.73
405.66	1984.77
405.85	2031.58
406.05	1977.75
406.24	1970.73
406.43	2076.06
406.62	2190.74
406.81	2143.93
407.00	2097.12
407.20	2029.24
407.39	2085.42
407.58	2160.31
407.77	2181.38
407.96	2289.04
408.15	2314.79
408.34	2148.61
408.54	2272.66
408.73	2282.02
408.92	2249.25
409.11	2277.34
409.30	2363.94
409.49	2200.10
409.68	2321.81
409.87	2363.94
410.07	2275.00
410.26	2441.18
410.45	2380.32
410.64	2462.24
410.83	2436.50
411.02	2525.44
411.21	2565.23
411.40	2588.63
411.59	2539.48
411.78	2684.59
411.98	2761.83
412.17	2551.18
412.36	2677.57
412.55	2719.70
412.74	2710.34
412.93	2782.90
413.12	2696.30
413.31	2850.77
413.50	2768.85
413.69	2818.00
413.88	2986.52
414.07	2892.90
414.26	2899.92
414.45	2946.73
414.64	2956.10
414.83	3056.74
415.02	2946.73
415.22	2986.52
415.41	3122.27
415.60	3063.76
415.79	3213.56
415.98	3332.92
416.17	3246.32
416.36	3356.33
416.55	3295.47
416.74	3311.86
416.93	3260.37
417.12	3302.50
417.31	3281.43
417.50	3426.54
417.69	3435.91
417.88	3501.44
418.07	3405.48
418.26	3482.72
418.45	3545.91
418.64	3658.26
418.83	3562.30
419.02	3653.58
419.21	3798.69
419.39	3733.15
419.58	3590.38
419.77	3508.46
419.96	3620.81
420.15	3779.97
420.34	3749.54
420.53	3751.88
420.72	3777.62
420.91	3829.12
421.10	3803.37
421.29	3974.23
421.48	3779.97
421.67	3889.97
421.86	3794.01
422.05	3669.96
422.24	3740.18
422.43	3836.14
422.61	3775.28
422.80	4058.49
422.99	3995.29
423.18	3920.40
423.37	3976.57
423.56	3915.72
423.75	3918.06
423.94	3934.44
424.13	3595.06
424.32	3864.22
424.50	3992.95
424.69	4086.58
424.88	3962.53
425.07	3969.55
425.26	3974.23
425.45	3911.04
425.64	3948.48
425.83	3833.80
426.01	4014.02
426.20	4058.49
426.39	3941.46
426.58	4011.68
426.77	4009.34
426.96	3976.57
427.15	3913.38
427.33	4095.94
427.52	3929.76
427.71	4257.43
427.90	4236.37
428.09	4245.73
428.28	4079.55
428.46	4210.62
428.65	4238.71
428.84	4201.26
429.03	4191.90
429.22	4086.58
429.40	3946.14
429.59	4163.81
429.78	3969.55
429.97	3960.19
430.16	4025.72
430.34	4133.39
430.53	3950.82
430.72	4203.60
430.91	4334.67
431.10	4304.25
431.28	4458.72
431.47	4636.60
431.66	4571.07
431.85	4683.41
432.03	4660.01
432.22	4648.30
432.41	4606.17
432.60	4746.61
432.79	4599.15
432.97	4844.91
433.16	4798.10
433.35	4716.18
433.54	4718.52
433.72	4692.77
433.91	4678.73
434.10	4751.29
434.28	4807.46
434.47	4819.16
434.66	4889.38
434.85	4908.10
435.03	4891.72
435.22	5027.47
435.41	5043.85
435.59	5097.69
435.78	4938.53
435.97	5167.90
436.16	5198.33
436.34	5118.75
436.53	5177.26
436.72	5352.81
436.90	5088.32
437.09	5336.42
437.28	5146.84
437.46	5282.59
437.65	5252.16
437.84	5191.31
438.02	5210.03
438.21	5137.48
438.40	5135.14
438.58	5420.68
438.77	5366.85
438.96	5427.70
439.14	5521.32
439.33	5607.92
439.52	5657.07
439.70	5689.84
439.89	5757.72
440.08	5874.74
440.26	5673.46
440.45	5600.90
440.63	6022.20
440.82	6005.81
441.01	5954.32
441.19	5989.43
441.38	5966.03
441.57	6129.86
441.75	6186.04
441.94	6314.77
442.12	6235.19
442.31	6473.92
442.50	6464.56
442.68	6457.54
442.87	6279.66
443.05	6277.32
443.24	6424.77
443.43	6345.19
443.61	6408.39
443.80	6651.80
443.98	6377.96
444.17	6244.55
444.35	6523.07
444.54	6677.55
444.73	6565.20
444.91	6574.56
445.10	6485.62
445.28	6429.45
445.47	6544.14
445.65	6452.86
445.84	6492.65
446.02	6719.68
446.21	6626.06
446.39	6565.20
446.58	6792.23
446.77	6754.79
446.95	6516.05
447.14	6628.40
447.32	6911.60
447.51	6656.48
447.69	6621.38
447.88	6658.82
448.06	6789.89
448.25	6602.65
448.43	6885.86
448.62	6736.06
448.80	6935.01
448.99	6836.70
449.17	7014.59
449.36	6909.26
449.54	7045.01
449.73	6848.41
449.91	7248.64
450.10	7023.95
450.28	7276.73
450.46	7171.40
450.65	7213.53
450.83	7314.17
451.02	7204.17
451.20	7335.24
451.39	7199.49
451.57	7218.21
451.76	7136.29
451.94	7349.28
452.13	7295.45
452.31	7211.19
452.49	7136.29
452.68	7178.42
452.86	7117.57
453.05	7218.21
453.23	7382.05
453.42	7346.94
453.60	7321.20
453.78	7414.82
453.97	7201.83
454.15	7618.44
454.34	7431.20
454.52	7637.17
454.70	7370.35
454.89	7456.95
455.07	7634.83
455.26	7707.38
455.44	7721.43
455.62	7737.81
455.81	7864.20
455.99	7850.16
456.17	7913.35
456.36	7669.94
456.54	7906.33
456.73	8072.51
456.91	8205.92
457.09	8093.57
457.28	8329.97
457.46	8039.74
457.64	8100.59
457.83	8028.04
458.01	8051.44
458.19	8236.35
458.38	8234.00
458.56	8329.97
458.74	8229.32
458.93	8329.97
459.11	8250.39
459.29	8418.91
459.48	8446.99
459.66	8449.33
459.84	8407.20
460.03	8559.34
460.21	8540.61
460.39	8444.65
460.57	8578.06
460.76	8479.76
460.94	8753.60
461.12	8664.66
461.31	8737.22
461.49	8669.34
461.67	8791.05
461.85	8992.34
462.04	8786.37
462.22	9554.07
462.40	9001.70
462.59	8929.14
462.77	9018.08
462.95	8985.32
463.13	9078.94
463.32	8966.59
463.50	9116.39
463.68	9032.13
463.86	8922.12
464.05	8905.74
464.23	9188.94
464.41	8964.25
464.59	8889.35
464.78	9259.16
464.96	9181.92
465.14	8847.22
465.32	9224.05
465.50	9202.99
465.69	9277.88
465.87	9191.28
466.05	9472.15
466.23	9205.33
466.41	9146.81
466.60	9338.74
466.78	9107.02
466.96	9338.74
467.14	9165.54
467.32	9418.32
467.51	9664.07
467.69	9301.29
467.87	9432.36
468.05	9678.12
468.23	9575.13
468.41	9558.75
468.60	9654.71
468.78	9694.50
468.96	9514.28
469.14	9703.86
469.32	9905.15
469.50	9745.99
469.69	9729.61
469.87	9661.73
470.05	9888.76
470.23	9877.06
470.41	9781.10
470.59	9942.60
470.77	9921.53
470.95	9987.07
471.14	10312.40
471.32	9989.41
471.50	10279.63
471.68	10312.40
471.86	10516.03
472.04	10504.32
472.22	10691.57
472.40	10335.81
472.58	10548.79
472.77	10326.44
472.95	10443.47
473.13	10923.28
473.31	10696.25
473.49	10600.29
473.67	10466.88
473.85	10759.44
474.03	10993.50
474.21	11021.58
474.39	11138.61
474.57	11360.96
474.75	11176.06
474.93	11019.24
475.12	11267.34
475.30	11445.22
475.48	11185.42
475.66	11351.60
475.84	11351.60
476.02	11522.46
476.20	11293.08
476.38	11602.04
476.56	11707.36
476.74	11953.12
476.92	11808.00
477.10	12037.38
477.28	12156.74
477.46	12084.19
477.64	12475.06
477.82	12292.49
478.00	12533.57
478.18	12535.91
478.36	12446.97
478.54	12912.74
478.72	12856.56
478.90	12842.52
479.08	12889.33
479.26	13107.00
479.44	12940.82
479.62	13521.27
479.80	13261.48
479.98	13645.32
480.16	13610.22
480.34	13720.22
480.52	13776.39
480.70	13898.10
480.88	13657.03
481.06	13785.76
481.24	13846.61
481.41	14277.27
481.59	14436.42
481.77	14328.76
481.95	14532.39
482.13	14525.36
482.31	14431.74
482.49	14916.23
482.67	15082.41
482.85	15185.40
483.03	15218.16
483.21	15117.52
483.39	15536.48
483.57	15508.39
483.74	15468.60
483.92	15761.17
484.10	15609.03
484.28	16011.60
484.46	16030.33
484.64	16627.17
484.82	16121.61
485.00	16388.43
485.18	16308.85
485.35	16589.72
485.53	16306.51
485.71	16322.90
485.89	16381.41
486.07	16606.10
486.25	16779.30
486.43	17118.68
486.61	17158.47
486.78	17528.27
486.96	17448.69
487.14	17703.81
487.32	17996.38
487.50	18445.76
487.68	18059.57
487.85	18459.81
488.03	18354.48
488.21	18789.82
488.39	18635.35
488.57	18799.18
488.75	18633.00
488.92	19005.15
489.10	19534.11
489.28	19463.90
489.46	19566.88
489.64	19723.69
489.81	20240.95
489.99	20219.89
490.17	20634.16
490.35	20418.83
490.53	20060.73
490.70	20622.46
490.88	20486.71
491.06	20760.55
491.24	20596.71
491.41	20702.04
491.59	20922.05
491.77	21371.43
491.95	20973.54
492.13	21427.60
492.30	21685.06
492.48	21603.14
492.66	21886.35
492.84	21781.03
493.01	21841.88
493.19	22221.05
493.37	22427.01
493.54	22331.05
493.72	22684.47
493.90	22717.24
494.08	23070.66
494.25	23131.51
494.43	23171.30
494.61	23756.44
494.79	23538.77
494.96	23527.06
495.14	23718.99
495.32	23992.83
495.49	23421.74
495.67	24081.77
495.85	24170.71
496.02	24027.94
496.20	24643.50
496.38	24428.17
496.55	24493.71
496.73	25315.23
496.91	24905.64
497.09	25125.65
497.26	25041.39
497.44	24814.36
497.62	25656.95
497.79	25556.31
497.97	25041.39
498.14	25752.91
498.32	25429.92
498.50	25865.26
498.67	26265.49
498.85	26354.43
499.03	26377.84
499.20	26214.00
499.38	26579.12
499.56	26403.58
499.73	26658.70
499.91	26925.52
500.08	26801.47
500.26	26267.83
500.44	26719.56
500.61	26918.50
500.79	26719.56
500.97	27030.85
501.14	27267.24
501.32	27321.07
501.49	27330.44
501.67	27541.08
501.84	27470.87
502.02	27473.21
502.20	27817.27
502.37	28278.35
502.55	28266.65
502.72	27775.14
502.90	28219.84
503.07	28009.19
503.25	28128.56
503.43	27693.22
503.60	28430.49
503.78	28400.06
503.95	28334.53
504.13	28496.02
504.30	28676.24
504.48	28697.31
504.65	29088.18
504.83	28999.24
505.01	29193.50
505.18	29252.02
505.36	29584.37
505.53	29647.57
505.71	29902.68
505.88	29516.50
506.06	29741.19
506.23	29532.88
506.41	29399.47
506.58	30099.29
506.76	29799.70
506.93	29979.92
507.11	29979.92
507.28	30504.20
507.46	30384.83
507.63	30284.19
507.81	30279.51
507.98	30253.76
508.16	30356.75
508.33	30494.84
508.50	30962.95
508.68	30946.56
508.85	31449.78
509.03	31061.25
509.20	31335.09
509.38	31250.83
509.55	31440.42
509.73	31351.48
509.90	31438.08
510.08	31496.59
510.25	31302.32
510.42	31758.73
510.60	31704.90
510.77	32013.85
510.95	32402.38
511.12	32201.09
511.30	32767.50
511.47	32271.31
511.64	32376.63
511.82	32435.14
511.99	32437.48
512.17	32591.96
512.34	32421.10
512.51	33036.66
512.69	32921.98
512.86	32996.87
513.04	32910.27
513.21	32945.38
513.38	33291.78
513.56	32996.87
513.73	32713.67
513.90	33149.01
514.08	32755.80
514.25	33036.66
514.43	33584.35
514.60	33195.82
514.77	33247.31
514.95	33699.03
515.12	33666.27
515.29	33734.14
515.47	34007.98
515.64	34220.97
515.81	33926.07
515.99	34089.90
516.16	33846.49
516.33	33593.71
516.51	34127.35
516.68	33329.23
516.85	33350.29
517.03	33638.18
517.20	34160.12
517.37	34555.67
517.54	34607.16
517.72	34670.36
517.89	33935.43
518.06	33778.61
518.24	34085.22
518.41	34550.99
518.58	34721.85
518.75	34422.26
518.93	34897.39
519.10	34871.64
519.27	35068.25
519.45	35009.73
519.62	35196.98
519.79	35407.62
519.96	35405.28
520.14	35548.06
520.31	35519.97
520.48	35637.00
520.65	35234.42
520.83	36175.32
521.00	35800.83
521.17	35697.85
521.34	35934.24
521.52	36236.17
521.69	35952.97
521.86	36556.83
522.03	36493.63
522.20	36355.54
522.38	36570.87
522.55	36563.85
522.72	36318.09
522.89	36495.97
523.07	36961.74
523.24	36683.22
523.41	37158.34
523.58	36954.72
523.75	37350.27
523.92	37439.21
524.10	37165.37
524.27	37305.80
524.44	37612.41
524.61	37668.58
524.78	37275.37
524.96	37219.20
525.13	37846.46
525.30	37769.22
525.47	38298.19
525.64	37832.42
525.81	37687.31
525.98	37467.30
526.16	37579.64
526.33	37441.55
526.50	37764.54
526.67	37432.19
526.84	37743.48
527.01	38071.15
527.18	38003.28
527.36	37846.46
527.53	38321.59
527.70	38738.21
527.87	38408.19
528.04	38314.57
528.21	38234.99
528.38	38841.19
528.55	39117.37
528.72	38728.84
528.89	39447.39
529.07	38682.03
529.24	38438.62
529.41	39145.46
529.58	39321.00
529.75	39232.06
529.92	39108.01
530.09	39365.47
530.26	39292.91
530.43	39194.61
530.60	39379.51
530.77	39318.66
530.94	39587.82
531.11	39496.54
531.28	39487.18
531.46	39622.93
531.63	39526.97
531.80	39505.90
531.97	39564.42
532.14	39758.68
532.31	39077.58
532.48	39433.35
532.65	39878.05
532.82	39653.36
532.99	39562.08
533.16	39732.93
533.33	40051.25
533.50	40137.85
533.67	39346.75
533.84	39861.66
534.01	40058.27
534.18	39620.59
534.35	40437.44
534.52	40023.16
534.69	40531.06
534.86	40486.59
535.03	40744.05
535.20	40868.09
535.37	41081.08
535.54	40924.27
535.71	40781.49
535.88	40912.56
536.05	40804.90
536.22	40755.75
536.38	40708.94
536.55	40650.42
536.72	40664.47
536.89	40940.65
537.06	40603.61
537.23	41329.18
537.40	41008.53
537.57	40912.56
537.74	41336.20
537.91	41380.67
538.08	41429.82
538.25	41184.07
538.42	41233.22
538.59	41879.21
538.75	41146.62
538.92	41666.22
539.09	41415.78
539.26	41537.49
539.43	41350.24
539.60	41371.31
539.77	41397.06
539.94	41483.66
540.11	41457.91
540.28	41563.23
540.44	41247.26
540.61	41954.10
540.78	41490.68
540.95	41572.60
541.12	41537.49
541.29	41790.27
541.46	41682.60
541.62	41970.49
541.79	42122.62
541.96	41633.45
542.13	42064.11
542.30	41947.08
542.47	42239.65
542.63	42267.73
542.80	41982.19
542.97	42576.69
543.14	42934.79
543.31	42682.01
543.48	42277.10
543.64	42958.19
543.81	42962.87
543.98	42827.12
544.15	43044.79
544.32	42920.74
544.48	43257.78
544.65	42869.25
544.82	43175.86
544.99	42852.87
545.16	42899.68
545.32	42286.46
545.49	43433.32
545.66	43515.24
545.83	42876.27
546.00	43398.21
546.16	43281.19
546.33	43023.73
546.50	42880.95
546.67	43271.82
546.83	42745.20
547.00	43161.82
547.17	43075.22
547.34	42937.13
547.50	43681.42
547.67	43445.02
547.84	43519.92
548.00	43594.82
548.17	43995.05
548.34	43770.36
548.51	44292.30
548.67	43910.79
548.84	43826.53
549.01	43945.90
549.18	43789.08
549.34	43711.84
549.51	43597.16
549.68	43948.24
549.84	43700.14
550.01	43800.79
550.18	44224.42
550.34	44119.10
550.51	43826.53
550.68	43971.64
550.84	43618.22
551.01	44280.60
551.18	44119.10
551.34	44282.94
551.51	44751.04
551.68	44311.02
551.84	44327.41
552.01	43929.51
552.18	44030.16
552.34	43948.24
552.51	44739.34
552.68	44208.04
552.84	44643.38
553.01	44446.77
553.18	44093.35
553.34	44535.71
553.51	44315.70
553.67	44442.09
553.84	44769.77
554.01	44655.08
554.17	44818.92
554.34	44889.13
554.51	45123.19
554.67	44987.44
554.84	44697.21
555.00	44568.48
555.17	44683.17
555.33	44655.08
555.50	45212.13
555.67	44650.40
555.83	44790.83
556.00	44933.60
556.16	45446.18
556.33	44903.18
556.50	44744.02
556.66	45354.90
556.83	44182.29
556.99	45146.59
557.16	44989.78
557.32	45277.66
557.49	45579.59
557.65	45038.93
557.82	45251.92
557.98	45214.47
558.15	45062.33
558.32	45174.68
558.48	44851.69
558.65	44961.69
558.81	44694.87
558.98	44830.62
559.14	45294.05
559.31	45251.92
559.47	45132.55
559.64	45125.53
559.80	45509.38
559.97	45277.66
560.13	45202.77
560.30	45242.56
560.46	46007.91
560.63	45298.73
560.79	45574.91
560.96	45509.38
561.12	45357.24
561.29	45062.33
561.45	45617.04
561.61	45560.87
561.78	45504.70
561.94	45558.53
562.11	45319.79
562.27	45591.30
562.44	45588.95
562.60	45610.02
562.77	45558.53
562.93	45565.55
563.10	45705.98
563.26	45284.68
563.42	46099.19
563.59	45584.27
563.75	45827.69
563.92	45628.74
564.08	46099.19
564.24	45743.43
564.41	45397.03
564.57	45556.19
564.74	45652.15
564.90	45703.64
565.07	45605.34
565.23	45921.31
565.39	45881.52
565.56	45865.14
565.72	45565.55
565.88	46068.76
566.05	45858.12
566.21	45785.56
566.38	45352.56
566.54	45780.88
566.70	46021.95
566.87	46417.50
567.03	46160.05
567.19	46211.54
567.36	46068.76
567.52	45638.11
567.68	45738.75
567.85	46036.00
568.01	45661.51
568.17	45687.26
568.34	46241.96
568.50	45818.33
568.66	45633.42
568.83	45902.59
568.99	45670.87
569.15	45734.07
569.32	45830.03
569.48	45904.93
569.64	45989.19
569.81	46478.36
569.97	45661.51
570.13	45724.71
570.30	45687.26
570.46	45675.55
570.62	45188.72
570.78	45560.87
570.95	45743.43
571.11	46068.76
571.27	45439.16
571.43	45649.81
571.60	45862.80
571.76	46071.10
571.92	45949.40
572.09	46188.13
572.25	46330.90
572.41	46188.13
572.57	46183.45
572.74	46452.61
572.90	46110.89
573.06	46230.26
573.22	46061.74
573.38	46028.98
573.55	45783.22
573.71	46401.12
573.87	46403.46
574.03	45956.42
574.20	46157.70
574.36	46057.06
574.52	46136.64
574.68	45785.56
574.84	45937.69
575.01	45785.56
575.17	46064.08
575.33	45848.75
575.49	46089.83
575.65	46108.55
575.82	46019.61
575.98	45865.14
576.14	46080.47
576.30	46679.64
576.46	46089.83
576.62	46019.61
576.79	45886.20
576.95	45883.86
577.11	45689.60
577.27	45776.20
577.43	45837.05
577.59	45691.94
577.75	46075.79
577.92	45331.50
578.08	45869.82
578.24	46047.70
578.40	45846.41
578.56	46148.34
578.72	46391.76
578.88	46518.15
579.04	46344.95
579.21	45656.83
579.37	46171.75
579.53	46064.08
579.69	46082.81
579.85	46244.30
580.01	46403.46
580.17	46476.02
580.33	46358.99
580.49	46019.61
580.65	46216.22
580.82	45977.48
580.98	45907.27
581.14	45991.53
581.30	46059.40
581.46	46124.94
581.62	46344.95
581.78	46122.60
581.94	46527.51
582.10	46089.83
582.26	46529.85
582.42	46244.30
582.58	46120.26
582.74	46373.03
582.90	46691.35
583.06	46335.59
583.22	46162.39
583.38	46459.63
583.54	46546.23
583.70	46267.71
583.86	46469.00
584.02	46134.30
584.18	46087.49
584.34	45771.52
584.50	46204.52
584.66	45895.56
584.82	46433.89
584.98	46499.42
585.14	46124.94
585.30	45717.68
585.46	46302.82
585.62	45521.08
585.78	46031.32
585.94	46127.28
586.10	46120.26
586.26	46183.45
586.42	46356.65
586.58	46358.99
586.74	46066.42
586.90	46464.32
587.06	46146.00
587.22	46485.38
587.38	46429.21
587.54	46199.83
587.70	46155.36
587.86	46143.66
588.02	46305.16
588.18	46305.16
588.34	46043.02
588.49	46038.34
588.65	45677.90
588.81	45563.21
588.97	45792.58
589.13	45895.56
589.29	45947.06
589.45	46251.33
589.61	45771.52
589.77	46188.13
589.93	46005.57
