SpectraSuite Data File
++++++++++++++++++++++++++++++++++++
Date: Fri Oct 25 11:33:21 EDT 2013
User: price-jones
Dark Spectrum Present: No
Reference Spectrum Present: No
Number of Sampled Component Spectra: 1
Spectrometers: USB2+H05261
Integration Time (usec): 100000 (USB2+H05261)
Spectra Averaged: 1 (USB2+H05261)
Boxcar Smoothing: 0 (USB2+H05261)
Correct for Electrical Dark: No (USB2+H05261)
Strobe/Lamp Enabled: No (USB2+H05261)
Correct for Detector Non-linearity: No (USB2+H05261)
Correct for Stray Light: No (USB2+H05261)
Number of Pixels in Processed Spectrum: 2048
>>>>>Begin Processed Spectral Data<<<<<
365.73	271.50
365.92	271.50
366.12	271.50
366.32	126.39
366.52	257.46
366.72	198.95
366.91	217.67
367.11	238.73
367.31	100.64
367.51	182.56
367.70	208.31
367.90	255.12
368.10	210.65
368.30	203.63
368.49	110.01
368.69	210.65
368.89	208.31
369.09	217.67
369.28	175.54
369.48	168.52
369.68	236.39
369.87	252.78
370.07	212.99
370.27	250.44
370.47	369.80
370.66	463.43
370.86	517.26
371.06	533.64
371.25	540.66
371.45	538.32
371.65	613.22
371.84	519.60
372.04	517.26
372.24	599.18
372.44	622.58
372.63	711.52
372.83	596.84
373.03	681.10
373.22	638.97
373.42	631.94
373.62	613.22
373.81	547.69
374.01	538.32
374.21	514.92
374.40	683.44
374.60	727.91
374.79	706.84
374.99	683.44
375.19	709.18
375.38	557.05
375.58	660.03
375.78	725.57
375.97	653.01
376.17	716.20
376.37	678.76
376.56	697.48
376.76	685.78
376.95	723.23
377.15	730.25
377.35	667.05
377.54	739.61
377.74	699.82
377.93	709.18
378.13	706.84
378.33	770.04
378.52	720.88
378.72	812.17
378.91	727.91
379.11	704.50
379.31	718.54
379.50	655.35
379.70	685.78
379.89	706.84
380.09	688.12
380.28	727.91
380.48	699.82
380.68	746.63
380.87	765.36
381.07	744.29
381.26	746.63
381.46	763.01
381.65	807.48
381.85	709.18
382.04	795.78
382.24	727.91
382.43	727.91
382.63	763.01
382.83	765.36
383.02	748.97
383.22	760.67
383.41	751.31
383.61	791.10
383.80	875.36
384.00	767.70
384.19	779.40
384.39	798.12
384.58	844.93
384.78	807.48
384.97	889.40
385.17	830.89
385.36	873.02
385.56	814.51
385.75	866.00
385.95	851.96
386.14	880.04
386.34	910.47
386.53	868.34
386.72	800.46
386.92	933.87
387.11	833.23
387.31	950.26
387.50	954.94
387.70	924.51
387.89	884.72
388.09	830.89
388.28	903.45
388.48	964.30
388.67	940.90
388.86	901.11
389.06	994.73
389.25	868.34
389.45	964.30
389.64	1036.86
389.84	964.30
390.03	936.21
390.22	964.30
390.42	940.90
390.61	983.02
390.81	917.49
391.00	917.49
391.19	997.07
391.39	973.66
391.58	1004.09
391.78	1095.37
391.97	1060.26
392.16	1034.52
392.36	1090.69
392.55	1041.54
392.75	1149.20
392.94	971.32
393.13	1043.88
393.33	1039.20
393.52	1013.45
393.71	1102.39
393.91	1123.46
394.10	1057.92
394.29	1086.01
394.49	1076.65
394.68	1125.80
394.88	1203.04
395.07	1158.57
395.26	1104.73
395.46	1107.07
395.65	1090.69
395.84	1207.72
396.04	1263.89
396.23	1277.93
396.42	1203.04
396.62	1163.25
396.81	1308.36
397.00	1233.46
397.19	1217.08
397.39	1174.95
397.58	1270.91
397.77	1317.72
397.97	1268.57
398.16	1249.85
398.35	1240.48
398.55	1287.29
398.74	1331.76
398.93	1413.68
399.12	1394.96
399.32	1341.13
399.51	1301.34
399.70	1299.00
399.90	1291.98
400.09	1299.00
400.28	1383.26
400.47	1357.51
400.67	1390.28
400.86	1432.41
401.05	1504.96
401.24	1397.30
401.44	1390.28
401.63	1486.24
401.82	1399.64
402.01	1432.41
402.21	1497.94
402.40	1451.13
402.59	1617.31
402.78	1521.35
402.97	1530.71
403.17	1514.33
403.36	1565.82
403.55	1533.05
403.74	1619.65
403.93	1530.71
404.13	1617.31
404.32	1600.93
404.51	1547.09
404.70	1724.97
404.89	1645.40
405.09	1827.96
405.28	1699.23
405.47	1823.28
405.66	1722.63
405.85	1743.70
406.05	1671.14
406.24	1732.00
406.43	1781.15
406.62	1689.87
406.81	1959.03
407.00	1764.76
407.20	1827.96
407.39	1912.22
407.58	1888.81
407.77	1846.68
407.96	1879.45
408.15	1977.75
408.34	1762.42
408.54	1919.24
408.73	1884.13
408.92	1975.41
409.11	1991.80
409.30	1977.75
409.49	1921.58
409.68	2043.29
409.87	2026.90
410.07	2141.59
410.26	2087.76
410.45	2071.37
410.64	2167.34
410.83	2120.53
411.02	2270.32
411.21	2139.25
411.40	2092.44
411.59	2195.42
411.78	2188.40
411.98	2279.68
412.17	2272.66
412.36	2303.09
412.55	2277.34
412.74	2289.04
412.93	2317.13
413.12	2366.28
413.31	2417.77
413.50	2406.07
413.69	2377.98
413.88	2434.16
414.07	2462.24
414.26	2623.74
414.45	2523.10
414.64	2464.58
414.83	2502.03
415.02	2574.59
415.22	2588.63
415.41	2623.74
415.60	2504.37
415.79	2640.12
415.98	2698.64
416.17	2712.68
416.36	2768.85
416.55	2719.70
416.74	2836.73
416.93	2808.64
417.12	2759.49
417.31	2869.50
417.50	2932.69
417.69	3000.57
417.88	3016.95
418.07	2932.69
418.26	2918.65
418.45	3019.29
418.64	3066.10
418.83	3108.23
419.02	2967.80
419.21	3138.66
419.39	3152.70
419.58	3248.66
419.77	3131.64
419.96	3136.32
420.15	3119.93
420.34	3225.26
420.53	3332.92
420.72	3213.56
420.91	3258.03
421.10	3213.56
421.29	3332.92
421.48	3454.63
421.67	3461.65
421.86	3218.24
422.05	3288.45
422.24	3461.65
422.43	3344.63
422.61	3375.05
422.80	3452.29
422.99	3379.73
423.18	3435.91
423.37	3433.57
423.56	3475.70
423.75	3478.04
423.94	3393.78
424.13	3260.37
424.32	3379.73
424.50	3653.58
424.69	3471.01
424.88	3513.14
425.07	3398.46
425.26	3363.35
425.45	3545.91
425.64	3478.04
425.83	3414.84
426.01	3510.80
426.20	3485.06
426.39	3501.44
426.58	3623.15
426.77	3569.32
426.96	3489.74
427.15	3494.42
427.33	3726.13
427.52	3578.68
427.71	3597.40
427.90	3660.60
428.09	3655.92
428.28	3620.81
428.46	3665.28
428.65	3693.37
428.84	3798.69
429.03	3796.35
429.22	3634.85
429.40	3777.62
429.59	3911.04
429.78	3695.71
429.97	3513.14
430.16	3684.00
430.34	3779.97
430.53	3915.72
430.72	3992.95
430.91	4011.68
431.10	3878.27
431.28	4030.40
431.47	3960.19
431.66	4112.32
431.85	3843.16
432.03	4138.07
432.22	4184.88
432.41	4091.26
432.60	3981.25
432.79	4065.51
432.97	4138.07
433.16	4198.92
433.35	4135.73
433.54	4252.75
433.72	4318.29
433.91	4191.90
434.10	4243.39
434.28	4241.05
434.47	4294.88
434.66	4318.29
434.85	4381.48
435.03	4500.85
435.22	4292.54
435.41	4645.96
435.59	4554.68
435.78	4386.16
435.97	4510.21
436.16	4329.99
436.34	4636.60
436.53	4346.37
436.72	4688.09
436.90	4512.55
437.09	4603.83
437.28	4524.26
437.46	4526.60
437.65	4535.96
437.84	4517.23
438.02	4601.49
438.21	4786.40
438.40	4655.33
438.58	4753.63
438.77	4861.29
438.96	4777.03
439.14	4809.80
439.33	4891.72
439.52	5015.77
439.70	4959.60
439.89	5071.94
440.08	5060.24
440.26	4952.57
440.45	5125.77
440.63	5210.03
440.82	5277.91
441.01	5249.82
441.19	5200.67
441.38	5355.15
441.57	5298.97
441.75	5437.06
441.94	5406.64
442.12	5331.74
442.31	5558.77
442.50	5572.82
442.68	5301.31
442.87	5432.38
443.05	5706.23
443.24	5668.78
443.43	5521.32
443.61	5746.02
443.80	5769.42
443.98	5518.98
444.17	5425.36
444.35	5767.08
444.54	5568.13
444.73	5551.75
444.91	5741.33
445.10	5750.70
445.28	5785.80
445.47	5640.69
445.65	5619.63
445.84	5708.57
446.02	5849.00
446.21	5551.75
446.39	5734.31
446.58	5788.14
446.77	5806.87
446.95	5799.85
447.14	5867.72
447.32	5933.26
447.51	5959.00
447.69	5830.27
447.88	5673.46
448.06	5898.15
448.25	5792.83
448.43	5753.04
448.62	5977.73
448.80	6019.86
448.99	5809.21
449.17	5856.02
449.36	5781.12
449.54	6005.81
449.73	6085.39
449.91	6099.44
450.10	6155.61
450.28	6225.82
450.46	6132.20
450.65	6141.57
450.83	6239.87
451.02	6190.72
451.20	6242.21
451.39	6193.06
451.57	6188.38
451.76	6061.99
451.94	6232.85
452.13	6310.08
452.31	6429.45
452.49	6370.94
452.68	6200.08
452.86	6380.30
453.05	6438.81
453.23	6604.99
453.42	6242.21
453.60	6235.19
453.78	6321.79
453.97	6380.30
454.15	6300.72
454.34	6483.28
454.52	6609.67
454.70	6548.82
454.89	6520.73
455.07	6640.10
455.26	6700.95
455.44	6843.73
455.62	6864.79
455.81	6698.61
455.99	6736.06
456.17	6740.74
456.36	7049.69
456.54	6885.86
456.73	6967.77
456.91	6981.82
457.09	7042.67
457.28	7225.23
457.46	7061.40
457.64	7206.51
457.83	7180.76
458.01	7040.33
458.19	7260.34
458.38	7283.75
458.56	7372.69
458.74	7052.03
458.93	7227.57
459.11	7073.10
459.29	7321.20
459.48	7295.45
459.66	7442.90
459.84	7470.99
460.03	7449.93
460.21	7536.52
460.39	7337.58
460.57	7454.61
460.76	7527.16
460.94	7606.74
461.12	7487.37
461.31	7632.49
461.49	7595.04
461.67	7550.57
461.85	7742.49
462.04	7578.65
462.22	8006.97
462.40	7737.81
462.59	7747.17
462.77	7810.37
462.95	7836.11
463.13	8011.65
463.32	7964.84
463.50	8084.21
463.68	7976.55
463.86	8058.46
464.05	7793.98
464.23	7873.56
464.41	8063.15
464.59	7838.45
464.78	8236.35
464.96	8177.83
465.14	7957.82
465.32	8152.09
465.50	8121.66
465.69	8215.28
465.87	8194.22
466.05	8313.58
466.23	8212.94
466.41	8205.92
466.60	8489.12
466.78	8311.24
466.96	8095.91
467.14	8212.94
467.32	8306.56
467.51	8594.45
467.69	8241.03
467.87	8425.93
468.05	8407.20
468.23	8451.67
468.41	8369.76
468.60	8514.87
468.78	8643.60
468.96	8444.65
469.14	8568.70
469.32	8723.18
469.50	8531.25
469.69	8608.49
469.87	8741.90
470.05	8788.71
470.23	8992.34
470.41	8734.88
470.59	8856.59
470.77	8727.86
470.95	9013.40
471.14	8982.98
471.32	8718.50
471.50	8999.36
471.68	9048.51
471.86	9240.44
472.04	9085.96
472.22	9378.53
472.40	9179.58
472.58	9193.62
472.77	9584.49
472.95	9444.06
473.13	9753.01
473.31	9320.01
473.49	9448.74
473.67	9467.47
473.85	9446.40
474.03	9703.86
474.21	9664.07
474.39	9713.22
474.57	9916.85
474.75	10031.54
474.93	10246.87
475.12	10108.77
475.30	10328.78
475.48	10003.45
475.66	10143.88
475.84	10237.50
476.02	10127.50
476.20	10143.88
476.38	10473.90
476.56	10628.37
476.74	10738.38
476.92	10494.96
477.10	10607.31
477.28	10661.14
477.46	10773.49
477.64	10670.50
477.82	10977.11
478.00	11253.30
478.18	11321.17
478.36	11185.42
478.54	11227.55
478.72	11566.93
478.90	11630.12
479.08	11964.82
479.26	12009.29
479.44	11761.19
479.62	11763.53
479.80	11941.41
479.98	12257.39
480.16	12409.52
480.34	12119.29
480.52	12449.31
480.70	12430.59
480.88	12095.89
481.06	12439.95
481.24	12475.06
481.41	12711.45
481.59	12961.89
481.77	13029.76
481.95	13114.02
482.13	13055.51
482.31	13036.78
482.49	13488.51
482.67	13429.99
482.85	13788.10
483.03	13385.52
483.21	13603.19
483.39	13919.17
483.57	13963.64
483.74	14090.02
483.92	14101.73
484.10	14101.73
484.28	14263.22
484.46	14663.46
484.64	14799.21
484.82	14525.36
485.00	14927.94
485.18	15000.49
485.35	15108.16
485.53	15190.08
485.71	15442.85
485.89	15470.94
486.07	15513.07
486.25	15747.12
486.43	15494.35
486.61	15857.13
486.78	16074.80
486.96	16123.95
487.14	16184.80
487.32	16358.00
487.50	16521.84
487.68	16393.11
487.85	16734.83
488.03	16959.52
488.21	17144.42
488.39	17184.21
488.57	17331.67
488.75	17373.80
488.92	17554.02
489.10	17528.27
489.28	17848.93
489.46	17965.95
489.64	17668.70
489.81	18146.17
489.99	18359.16
490.17	18279.58
490.35	18593.22
490.53	18668.11
490.70	18754.71
490.88	18689.18
491.06	19040.26
491.24	19194.73
491.41	19304.74
491.59	19365.59
491.77	19335.17
491.95	19410.06
492.13	19924.98
492.30	19969.45
492.48	19824.34
492.66	20018.60
492.84	19948.39
493.01	20290.10
493.19	20278.40
493.37	20582.67
493.54	20549.90
493.72	20982.90
493.90	20725.44
494.08	21132.70
494.25	21254.40
494.43	21074.18
494.61	21600.80
494.79	21717.83
494.96	21483.78
495.14	21671.02
495.32	21769.32
495.49	22256.15
495.67	21907.41
495.85	22256.15
496.02	22356.80
496.20	22522.98
496.38	22857.67
496.55	22951.29
496.73	23040.23
496.91	22654.05
497.09	23117.47
497.26	23147.90
497.44	22913.84
497.62	23349.18
497.79	23632.39
497.97	23290.67
498.14	23592.60
498.32	23922.62
498.50	23672.18
498.67	24074.75
498.85	23779.84
499.03	24308.80
499.20	24559.24
499.38	24224.54
499.56	24671.59
499.73	24393.06
499.91	25001.60
500.08	24950.11
500.26	24907.98
500.44	24975.86
500.61	25041.39
500.79	25008.62
500.97	25118.63
501.14	25163.10
501.32	25418.22
501.49	25348.00
501.67	25790.36
501.84	25781.00
502.02	25607.80
502.20	25872.28
502.37	25809.09
502.55	25727.17
502.72	25834.83
502.90	26064.21
503.07	26274.85
503.25	26483.16
503.43	26389.54
503.60	26881.05
503.78	26574.44
503.95	26658.70
504.13	26672.74
504.30	26742.96
504.48	26848.29
504.65	26988.72
504.83	27356.18
505.01	27379.59
505.18	27267.24
505.36	27775.14
505.53	27440.44
505.71	27358.52
505.88	27889.82
506.06	27707.26
506.23	27477.89
506.41	27442.78
506.58	27985.79
506.76	27908.55
506.93	28203.46
507.11	28093.45
507.28	28294.74
507.46	28212.82
507.63	28329.84
507.81	28526.45
507.98	28570.92
508.16	28577.94
508.33	28919.66
508.50	29097.54
508.68	29109.24
508.85	29118.60
509.03	29017.96
509.20	28982.85
509.38	29493.09
509.55	29223.93
509.73	29546.92
509.90	29233.29
510.08	29560.97
510.25	29673.31
510.42	29780.98
510.60	30242.06
510.77	30134.40
510.95	30270.15
511.12	29972.90
511.30	29982.26
511.47	30396.54
511.64	29942.47
511.82	30742.94
511.99	30829.54
512.17	30756.98
512.34	30490.16
512.51	31166.57
512.69	31288.28
512.86	31157.21
513.04	31613.62
513.21	31325.73
513.38	30962.95
513.56	31452.12
513.73	31218.07
513.90	31550.42
514.08	31459.14
514.25	31747.03
514.43	31971.72
514.60	31889.80
514.77	31789.16
514.95	32528.77
515.12	32297.05
515.29	32060.66
515.47	32318.12
515.64	32259.60
515.81	32472.59
515.99	32322.80
516.16	32608.34
516.33	32863.46
516.51	32858.78
516.68	32245.56
516.85	32526.42
517.03	32943.04
517.20	32945.38
517.37	33195.82
517.54	33202.84
517.72	32980.49
517.89	32940.70
518.06	33259.01
518.24	33254.33
518.41	33329.23
518.58	33544.56
518.75	33476.68
518.93	33530.51
519.10	33474.34
519.27	33806.70
519.45	34054.79
519.62	34136.71
519.79	33961.17
519.96	34024.37
520.14	33940.11
520.31	34433.96
520.48	34429.28
520.65	34436.30
520.83	34565.03
521.00	34738.23
521.17	34623.54
521.34	34211.61
521.52	34939.52
521.69	34487.79
521.86	35016.75
522.03	34815.47
522.20	35229.74
522.38	35405.28
522.55	35131.44
522.72	35021.44
522.89	35290.60
523.07	35519.97
523.24	35718.92
523.41	35611.25
523.58	35168.89
523.75	35885.09
523.92	35831.26
524.10	36086.38
524.27	35964.67
524.44	35765.73
524.61	36367.24
524.78	36156.60
524.96	36322.77
525.13	36388.31
525.30	36744.07
525.47	36680.88
525.64	36034.89
525.81	36795.56
525.98	36624.70
526.16	36582.57
526.33	36786.20
526.50	36907.91
526.67	36367.24
526.84	36840.03
527.01	36769.82
527.18	36964.08
527.36	37223.88
527.53	37378.36
527.70	37717.73
527.87	37436.87
528.04	36961.74
528.21	37322.18
528.38	37738.80
528.55	37928.38
528.72	37474.32
528.89	37514.11
529.07	37589.00
529.24	37633.47
529.41	37940.08
529.58	38059.45
529.75	38017.32
529.92	37626.45
530.09	38052.43
530.26	37727.10
530.43	38031.36
530.60	37691.99
530.77	37635.81
530.94	37963.49
531.11	38319.25
531.28	37968.17
531.46	38127.33
531.63	38485.43
531.80	38569.69
531.97	38256.06
532.14	38806.08
532.31	38677.35
532.48	39250.78
532.65	38988.64
532.82	38705.44
532.99	39058.86
533.16	38941.83
533.33	38869.28
533.50	39239.08
533.67	38983.96
533.84	39096.31
534.01	39370.15
534.18	38979.28
534.35	39398.24
534.52	39431.01
534.69	39337.38
534.86	40016.14
535.03	39569.10
535.20	39145.46
535.37	39665.06
535.54	39632.29
535.71	39533.99
535.88	40144.87
536.05	40130.83
536.22	39920.18
536.38	40030.18
536.55	40032.52
536.72	40184.66
536.89	40020.82
537.06	40163.59
537.23	40472.54
537.40	39908.47
537.57	40355.52
537.74	40240.83
537.91	40584.89
538.08	40568.51
538.25	40329.77
538.42	40627.02
538.59	41057.68
538.75	40486.59
538.92	40697.24
539.09	41521.10
539.26	41099.81
539.43	40863.41
539.60	40900.86
539.77	40793.20
539.94	41202.79
540.11	41013.21
540.28	41155.98
540.44	41415.78
540.61	41022.57
540.78	41249.60
540.95	41141.94
541.12	41258.96
541.29	41294.07
541.46	41350.24
541.62	41729.41
541.79	41514.08
541.96	41317.48
542.13	41579.62
542.30	41343.22
542.47	41500.04
542.63	41691.96
542.80	41926.02
542.97	42272.42
543.14	42335.61
543.31	42080.49
543.48	42075.81
543.64	42710.10
543.81	42473.70
543.98	42260.71
544.15	42429.23
544.32	42529.87
544.48	42911.38
544.65	42747.54
544.82	42476.04
544.99	42649.24
545.16	42946.49
545.32	42499.45
545.49	42630.52
545.66	43187.56
545.83	42974.58
546.00	43306.93
546.16	42817.76
546.33	42813.08
546.50	42717.12
546.67	43466.09
546.83	42597.75
547.00	42902.02
547.17	42958.19
547.34	42967.55
547.50	43540.99
547.67	43531.62
547.84	43248.42
548.00	43147.78
548.17	43915.47
548.34	43007.34
548.51	43842.92
548.67	43501.20
548.84	43744.61
549.01	43578.43
549.18	43405.23
549.34	44058.24
549.51	43721.21
549.68	43950.58
549.84	43505.88
550.01	44025.48
550.18	43959.94
550.34	43782.06
550.51	44119.10
550.68	44435.07
550.84	43414.60
551.01	43894.41
551.18	44004.41
551.34	43601.84
551.51	44041.86
551.68	44339.11
551.84	43894.41
552.01	43929.51
552.18	44650.40
552.34	44250.17
552.51	44369.54
552.68	44458.48
552.84	44549.76
553.01	44376.56
553.18	44278.25
553.34	44236.12
553.51	44605.93
553.67	44587.21
553.84	44486.56
554.01	44786.15
554.17	44589.55
554.34	44746.36
554.51	45160.64
554.67	45006.16
554.84	45078.72
555.00	44421.03
555.17	44561.46
555.33	45099.78
555.50	44952.33
555.67	45188.72
555.83	44964.03
556.00	45144.25
556.16	45198.09
556.33	45167.66
556.50	45022.54
556.66	45062.33
556.83	45298.73
556.99	45422.78
557.16	45420.44
557.32	45497.67
557.49	45492.99
557.65	45181.70
557.82	45347.88
557.98	45598.32
558.15	45162.98
558.32	45638.11
558.48	45153.62
558.65	45378.31
558.81	45588.95
558.98	45357.24
559.14	45471.93
559.31	45099.78
559.47	45729.39
559.64	45530.44
559.80	45933.01
559.97	45492.99
560.13	45521.08
560.30	45364.26
560.46	46052.38
560.63	46087.49
560.79	46724.11
560.96	46024.29
561.12	45893.22
561.29	46251.33
561.45	45837.05
561.61	46197.49
561.78	45876.84
561.94	45624.06
562.11	46050.04
562.27	46019.61
562.44	46267.71
562.60	46270.05
562.77	46005.57
562.93	46373.03
563.10	46808.37
563.26	46136.64
563.42	46593.04
563.59	46206.86
563.75	46384.74
563.92	46120.26
564.08	46188.13
564.24	46782.63
564.41	46248.99
564.57	46059.40
564.74	46138.98
564.90	46241.96
565.07	46450.27
565.23	46272.39
565.39	46710.07
565.56	46375.37
565.72	46389.42
565.88	46424.53
566.05	46335.59
566.21	46506.44
566.38	46373.03
566.54	46377.72
566.70	46927.74
566.87	46742.84
567.03	46494.74
567.19	46756.88
567.36	46384.74
567.52	46632.83
567.68	46981.57
567.85	46590.70
568.01	46560.28
568.17	46920.72
568.34	47021.36
568.50	47007.32
568.66	46574.32
568.83	47033.07
568.99	46644.54
569.15	46689.01
569.32	46508.79
569.48	46487.72
569.64	46983.91
569.81	47449.68
569.97	46911.36
570.13	47480.11
570.30	46630.49
570.46	46799.01
570.62	46873.91
570.78	46674.96
570.95	47021.36
571.11	47400.53
571.27	47065.83
571.43	47070.51
571.60	47070.51
571.76	46834.12
571.92	47302.23
572.09	47105.62
572.25	46838.80
572.41	46876.25
572.57	47206.26
572.74	47241.37
572.90	47047.11
573.06	47419.25
573.22	46941.78
573.38	47578.41
573.55	47028.38
573.71	47531.60
573.87	47435.64
574.03	47271.80
574.20	47435.64
574.36	47213.29
574.52	47477.77
574.68	47519.90
574.84	47693.10
575.01	47131.37
575.17	47391.17
575.33	47217.97
575.49	47168.82
575.65	47421.59
575.82	47414.57
575.98	47079.88
576.14	47564.37
576.30	47337.33
576.46	47730.54
576.62	47285.84
576.79	47494.15
576.95	46897.31
577.11	46969.87
577.27	47365.42
577.43	47662.67
577.59	47138.39
577.75	47091.58
577.92	47215.63
578.08	47583.09
578.24	47086.90
578.40	47550.32
578.56	47325.63
578.72	47353.72
578.88	47447.34
579.04	47622.88
579.21	47327.97
579.37	47482.45
579.53	47440.32
579.69	47232.01
579.85	47346.70
580.01	47583.09
580.17	47262.44
580.33	47700.12
580.49	47828.85
580.65	47395.85
580.82	47517.56
580.98	47353.72
581.14	47337.33
581.30	47760.97
581.46	47992.68
581.62	47510.53
581.78	47239.03
581.94	47398.19
582.10	47480.11
582.26	47662.67
582.42	47164.14
582.58	47463.72
582.74	48020.77
582.90	47592.45
583.06	47709.48
583.22	47377.12
583.38	47379.46
583.54	47559.69
583.70	47725.86
583.86	48030.13
584.02	47452.02
584.18	48095.67
584.34	47934.17
584.50	47957.58
584.66	47892.04
584.82	47615.86
584.98	48259.51
585.14	47646.29
585.30	47587.77
585.46	47810.12
585.62	47292.86
585.78	47875.66
585.94	47524.58
586.10	47510.53
586.26	47529.26
586.42	47796.08
586.58	47632.24
586.74	47650.97
586.90	47690.76
587.06	47463.72
587.22	47702.46
587.38	47559.69
587.54	48062.90
587.70	47950.56
587.86	47779.70
588.02	47445.00
588.18	47976.30
588.34	47875.66
588.49	48186.95
588.65	47915.45
588.81	47831.19
588.97	47800.76
589.13	48137.80
589.29	47887.36
589.45	48287.59
589.61	47819.49
589.77	48149.50
589.93	48032.47
