SpectraSuite Data File
++++++++++++++++++++++++++++++++++++
Date: Fri Oct 25 11:24:06 EDT 2013
User: price-jones
Dark Spectrum Present: No
Reference Spectrum Present: No
Number of Sampled Component Spectra: 1
Spectrometers: USB2+H05261
Integration Time (usec): 100000 (USB2+H05261)
Spectra Averaged: 1 (USB2+H05261)
Boxcar Smoothing: 0 (USB2+H05261)
Correct for Electrical Dark: No (USB2+H05261)
Strobe/Lamp Enabled: No (USB2+H05261)
Correct for Detector Non-linearity: No (USB2+H05261)
Correct for Stray Light: No (USB2+H05261)
Number of Pixels in Processed Spectrum: 2048
>>>>>Begin Processed Spectral Data<<<<<
365.73	208.31
365.92	208.31
366.12	208.31
366.32	212.99
366.52	121.71
366.72	208.31
366.91	117.03
367.11	126.39
367.31	67.88
367.51	131.07
367.70	135.75
367.90	147.45
368.10	124.05
368.30	110.01
368.49	117.03
368.69	220.01
368.89	138.09
369.09	177.88
369.28	175.54
369.48	117.03
369.68	163.84
369.87	142.77
370.07	126.39
370.27	236.39
370.47	400.23
370.66	554.71
370.86	617.90
371.06	631.94
371.25	681.10
371.45	697.48
371.65	676.41
371.84	667.05
372.04	718.54
372.24	678.76
372.44	828.55
372.63	737.27
372.83	746.63
373.03	737.27
373.22	755.99
373.42	734.93
373.62	781.74
373.81	711.52
374.01	788.76
374.21	784.08
374.40	788.76
374.60	730.25
374.79	791.10
374.99	830.89
375.19	807.48
375.38	887.06
375.58	816.85
375.78	830.89
375.97	788.76
376.17	983.02
376.37	861.32
376.56	870.68
376.76	887.06
376.95	805.14
377.15	856.64
377.35	917.49
377.54	837.91
377.74	880.04
377.93	898.77
378.13	903.45
378.33	908.13
378.52	903.45
378.72	915.15
378.91	922.17
379.11	966.64
379.31	1076.65
379.50	983.02
379.70	880.04
379.89	983.02
380.09	959.62
380.28	952.60
380.48	1013.45
380.68	957.28
380.87	990.05
381.07	931.53
381.26	1032.18
381.46	978.34
381.65	1071.97
381.85	1032.18
382.04	1020.47
382.24	1032.18
382.43	1015.79
382.63	1027.50
382.83	973.66
383.02	1060.26
383.22	1018.13
383.41	1057.92
383.61	1203.04
383.80	1107.07
384.00	1090.69
384.19	1086.01
384.39	1214.74
384.58	1071.97
384.78	1102.39
384.97	1198.35
385.17	1069.62
385.36	1160.91
385.56	1135.16
385.75	1184.31
385.95	1156.22
386.14	1196.01
386.34	1224.10
386.53	1238.14
386.72	1203.04
386.92	1186.65
387.11	1233.46
387.31	1280.27
387.50	1156.22
387.70	1238.14
387.89	1282.61
388.09	1334.11
388.28	1291.98
388.48	1221.76
388.67	1343.47
388.86	1338.79
389.06	1280.27
389.25	1380.92
389.45	1329.42
389.64	1352.83
389.84	1416.02
390.03	1380.92
390.22	1509.65
390.42	1425.39
390.61	1416.02
390.81	1425.39
391.00	1441.77
391.19	1369.21
391.39	1465.18
391.58	1476.88
391.78	1488.58
391.97	1493.26
392.16	1420.71
392.36	1577.52
392.55	1551.78
392.75	1570.50
392.94	1579.86
393.13	1619.65
393.33	1554.12
393.52	1507.30
393.71	1619.65
393.91	1530.71
394.10	1671.14
394.29	1586.88
394.49	1654.76
394.68	1542.41
394.88	1675.82
395.07	1743.70
395.26	1645.40
395.46	1638.38
395.65	1760.08
395.84	1764.76
396.04	1643.06
396.23	1757.74
396.42	1778.81
396.62	1823.28
396.81	1820.94
397.00	1722.63
397.19	1732.00
397.39	1928.60
397.58	1853.70
397.77	1795.19
397.97	1701.57
398.16	1895.83
398.35	1863.07
398.55	1874.77
398.74	1952.01
398.93	1944.99
399.12	1949.67
399.32	1837.32
399.51	1849.02
399.70	1930.94
399.90	1970.73
400.09	2029.24
400.28	2054.99
400.47	2148.61
400.67	2214.15
400.86	2190.74
401.05	2083.08
401.24	2179.04
401.44	2036.27
401.63	2066.69
401.82	2235.21
402.01	2099.46
402.21	2181.38
402.40	2214.15
402.59	2223.51
402.78	2153.29
402.97	2232.87
403.17	2265.64
403.36	2211.81
403.55	2314.79
403.74	2401.39
403.93	2389.69
404.13	2349.90
404.32	2399.05
404.51	2406.07
404.70	2408.41
404.89	2424.80
405.09	2377.98
405.28	2452.88
405.47	2485.65
405.66	2581.61
405.85	2600.34
406.05	2567.57
406.24	2537.14
406.43	2569.91
406.62	2574.59
406.81	2682.25
407.00	2642.46
407.20	2558.21
407.39	2602.68
407.58	2799.28
407.77	2761.83
407.96	2780.56
408.15	2825.03
408.34	2722.04
408.54	2740.77
408.73	2799.28
408.92	2766.51
409.11	2871.84
409.30	2892.90
409.49	2867.16
409.68	2906.95
409.87	2888.22
410.07	2972.48
410.26	3110.57
410.45	3082.49
410.64	3133.98
410.83	3075.46
411.02	3108.23
411.21	3094.19
411.40	3131.64
411.59	3194.83
411.78	3265.05
411.98	3164.40
412.17	3286.11
412.36	3398.46
412.55	3351.65
412.74	3548.25
412.93	3445.27
413.12	3304.84
413.31	3581.02
413.50	3597.40
413.69	3459.31
413.88	3585.70
414.07	3686.34
414.26	3609.11
414.45	3681.66
414.64	3585.70
414.83	3728.47
415.02	3861.88
415.22	3845.50
415.41	3946.14
415.60	3981.25
415.79	3899.33
415.98	3932.10
416.17	3922.74
416.36	3983.59
416.55	3985.93
416.74	4161.47
416.93	4238.71
417.12	4004.66
417.31	4086.58
417.50	4060.83
417.69	4271.48
417.88	4262.12
418.07	4287.86
418.26	4425.95
418.45	4243.39
418.64	4493.83
418.83	4369.78
419.02	4521.92
419.21	4470.42
419.39	4456.38
419.58	4465.74
419.77	4369.78
419.96	4531.28
420.15	4592.13
420.34	4526.60
420.53	4706.82
420.72	4774.69
420.91	4667.03
421.10	4758.31
421.29	4835.55
421.48	4631.92
421.67	4746.61
421.86	4791.08
422.05	4856.61
422.24	4706.82
422.43	4884.70
422.61	4905.76
422.80	5050.88
422.99	4950.23
423.18	4978.32
423.37	4945.55
423.56	4905.76
423.75	5029.81
423.94	4905.76
424.13	4624.90
424.32	4720.86
424.50	4964.28
424.69	5074.28
424.88	5195.99
425.07	4961.94
425.26	4854.27
425.45	5036.83
425.64	5039.17
425.83	4873.00
426.01	5027.47
426.20	5102.37
426.39	5123.43
426.58	4992.36
426.77	5025.13
426.96	5282.59
427.15	5135.14
427.33	5217.05
427.52	5132.79
427.71	5336.42
427.90	5107.05
428.09	5310.68
428.28	5387.91
428.46	5366.85
428.65	5495.58
428.84	5706.23
429.03	5640.69
429.22	5338.76
429.40	5465.15
429.59	5621.97
429.78	5420.68
429.97	5366.85
430.16	5535.37
430.34	5490.90
430.53	5664.10
430.72	5584.52
430.91	5664.10
431.10	5600.90
431.28	5783.46
431.47	5858.36
431.66	5881.77
431.85	5816.23
432.03	6017.52
432.22	6235.19
432.41	6052.63
432.60	5893.47
432.79	6003.47
432.97	5991.77
433.16	5987.09
433.35	6029.22
433.54	6225.82
433.72	6179.01
433.91	6017.52
434.10	6214.12
434.28	6324.13
434.47	6101.78
434.66	6176.67
434.85	6202.42
435.03	6413.07
435.22	6277.32
435.41	6630.74
435.59	6375.62
435.78	6459.88
435.97	6567.54
436.16	6422.43
436.34	6518.39
436.53	6628.40
436.72	6715.00
436.90	6457.54
437.09	6583.93
437.28	6417.75
437.46	6560.52
437.65	6525.41
437.84	6925.65
438.02	6630.74
438.21	6850.75
438.40	6527.75
438.58	6871.81
438.77	7290.77
438.96	7054.37
439.14	7253.32
439.33	7194.81
439.52	7314.17
439.70	7117.57
439.89	7335.24
440.08	7536.52
440.26	7417.16
440.45	7442.90
440.63	7384.39
440.82	7494.40
441.01	7548.23
441.19	7634.83
441.38	7740.15
441.57	7655.89
441.75	7850.16
441.94	7941.44
442.12	8028.04
442.31	8023.36
442.50	7981.23
442.68	7962.50
442.87	7974.21
443.05	8039.74
443.24	8358.05
443.43	8042.08
443.61	8299.54
443.80	8388.48
443.98	8035.06
444.17	7985.91
444.35	8360.39
444.54	8219.96
444.73	8332.31
444.91	8325.29
445.10	8463.38
445.28	8262.09
445.47	8304.22
445.65	8353.37
445.84	8505.51
446.02	8589.77
446.21	8243.37
446.39	8461.04
446.58	8510.19
446.77	8559.34
446.95	8315.92
447.14	8596.79
447.32	8585.08
447.51	8505.51
447.69	8355.71
447.88	8606.15
448.06	8269.11
448.25	8500.83
448.43	8695.09
448.62	8760.63
448.80	8557.00
448.99	8692.75
449.17	8765.31
449.36	8617.85
449.54	8826.16
449.73	8954.89
449.91	9039.15
450.10	8950.21
450.28	9104.68
450.46	8847.22
450.65	8999.36
450.83	9252.14
451.02	9039.15
451.20	9298.95
451.39	9149.15
451.57	9259.16
451.76	9050.85
451.94	9282.56
452.13	9371.50
452.31	9399.59
452.49	9123.41
452.68	9289.59
452.86	9327.03
453.05	9479.17
453.23	9621.94
453.42	9369.16
453.60	9504.92
453.78	9425.34
453.97	9350.44
454.15	9570.45
454.34	9516.62
454.52	9750.67
454.70	9757.69
454.89	9687.48
455.07	9776.42
455.26	9657.05
455.44	10108.77
455.62	9874.72
455.81	9944.94
455.99	10092.39
456.17	10057.28
456.36	10094.73
456.54	10274.95
456.73	10202.40
456.91	10296.02
457.09	10525.39
457.28	10457.51
457.46	10457.51
457.64	10544.11
457.83	10469.22
458.01	10333.47
458.19	10665.82
458.38	10328.78
458.56	10764.12
458.74	10607.31
458.93	10843.70
459.11	10752.42
459.29	10647.10
459.48	11101.16
459.66	10707.95
459.84	10834.34
460.03	11185.42
460.21	11115.20
460.39	10843.70
460.57	11007.54
460.76	11208.83
460.94	11185.42
461.12	11115.20
461.31	11391.39
461.49	11197.12
461.67	11056.69
461.85	11522.46
462.04	11297.77
462.22	11506.07
462.40	11576.29
462.59	11389.05
462.77	11634.80
462.95	11555.22
463.13	11585.65
463.32	11618.42
463.50	11637.14
463.68	11740.13
463.86	11644.17
464.05	11627.78
464.23	11653.53
464.41	11910.99
464.59	11922.69
464.78	12283.13
464.96	11992.90
465.14	12004.61
465.32	12114.61
465.50	12205.89
465.69	12147.38
465.87	12184.83
466.05	12086.53
466.23	12135.68
466.41	12166.10
466.60	12456.33
466.78	12248.02
466.96	12191.85
467.14	12486.76
467.32	12582.72
467.51	12664.64
467.69	12018.65
467.87	12507.82
468.05	12596.76
468.23	12479.74
468.41	12503.14
468.60	12578.04
468.78	12830.82
468.96	12580.38
469.14	12891.67
469.32	12992.31
469.50	12774.64
469.69	13064.87
469.87	13188.92
470.05	13202.96
470.23	13207.64
470.41	13125.72
470.59	13242.75
470.77	12894.01
470.95	13336.37
471.14	13418.29
471.32	13254.45
471.50	13769.37
471.68	13783.41
471.86	13668.73
472.04	13837.25
472.22	13984.70
472.40	13961.30
472.58	13823.20
472.77	14022.15
472.95	14384.93
473.13	14836.66
473.31	14136.84
473.49	14216.41
473.67	14167.26
473.85	14368.55
474.03	14635.37
474.21	14607.28
474.39	14764.10
474.57	14689.20
474.75	14810.91
474.93	15101.14
475.12	15091.77
475.30	15056.67
475.48	14888.15
475.66	15367.96
475.84	15367.96
476.02	15260.29
476.20	15325.83
476.38	15721.38
476.56	15971.82
476.74	16079.48
476.92	16018.63
477.10	15995.22
477.28	16018.63
477.46	16320.56
477.64	16196.51
477.82	16395.45
478.00	17022.72
478.18	16947.82
478.36	17050.80
478.54	17240.39
478.72	17336.35
478.90	17453.37
479.08	17383.16
479.26	17539.97
479.44	17509.55
479.62	17687.43
479.80	17996.38
479.98	18106.38
480.16	18518.32
480.34	18340.44
480.52	18845.99
480.70	18527.68
480.88	18532.36
481.06	18923.23
481.24	18867.06
481.41	19475.60
481.59	19524.75
481.77	19611.35
481.95	19571.56
482.13	19775.19
482.31	19749.44
482.49	20088.82
482.67	20144.99
482.85	20819.07
483.03	20702.04
483.21	20945.45
483.39	20751.19
483.57	20978.22
483.74	21053.12
483.92	21577.40
484.10	21266.11
484.28	21956.57
484.46	22274.88
484.64	22345.09
484.82	22228.07
485.00	22632.98
485.18	22747.67
485.35	22726.60
485.53	23213.43
485.71	23047.26
485.89	23756.44
486.07	23410.04
486.25	23728.35
486.43	23826.65
486.61	24123.90
486.78	24203.48
486.96	24432.85
487.14	24400.08
487.32	24456.26
487.50	25301.19
487.68	25015.65
487.85	25202.89
488.03	25596.10
488.21	26176.55
488.39	25830.15
488.57	26312.30
488.75	26651.68
488.92	26426.99
489.10	27002.76
489.28	26609.55
489.46	27527.04
489.64	26768.71
489.81	27580.87
489.99	27669.81
490.17	28107.49
490.35	28156.64
490.53	28273.67
490.70	28442.19
490.88	28161.33
491.06	28606.03
491.24	28957.11
491.41	29432.24
491.59	29795.02
491.77	29177.12
491.95	29511.81
492.13	29977.58
492.30	30323.98
492.48	30405.90
492.66	30398.88
492.84	30340.36
493.01	30916.14
493.19	30845.92
493.37	31239.13
493.54	30981.67
493.72	31505.95
493.90	31604.25
494.08	32201.09
494.25	32119.17
494.43	32210.45
494.61	32250.24
494.79	32638.77
494.96	32341.52
495.14	32999.21
495.32	33420.51
495.49	33240.29
495.67	33362.00
495.85	33722.44
496.02	33677.97
496.20	34150.76
496.38	34462.05
496.55	34342.68
496.73	35119.74
496.91	34136.71
497.09	34719.51
497.26	34881.00
497.44	35267.19
497.62	35510.61
497.79	36165.96
497.97	35693.17
498.14	35934.24
498.32	36060.63
498.50	36498.31
498.67	36748.75
498.85	36723.01
499.03	36758.11
499.20	36706.62
499.38	36989.83
499.56	36924.29
499.73	37198.13
499.91	37406.44
500.08	37668.58
500.26	37502.40
500.44	38134.35
500.61	38333.29
500.79	37460.27
500.97	38359.04
501.14	38775.66
501.32	38738.21
501.49	38345.00
501.67	38918.43
501.84	39030.77
502.02	39021.41
502.20	39210.99
502.37	39377.17
502.55	39468.45
502.72	39171.21
502.90	39592.50
503.07	39667.40
503.25	40144.87
503.43	40016.14
503.60	40095.72
503.78	40355.52
503.95	40683.19
504.13	40179.98
504.30	40840.01
504.48	40589.57
504.65	40828.30
504.83	41397.06
505.01	41495.36
505.18	41120.87
505.36	41820.69
505.53	41268.33
505.71	41457.91
505.88	41841.76
506.06	41846.44
506.23	42321.57
506.41	41965.81
506.58	42382.42
506.76	42543.92
506.93	42309.86
507.11	42438.59
507.28	42426.89
507.46	43002.66
507.63	43005.00
507.81	42988.62
507.98	42712.44
508.16	43540.99
508.33	43517.58
508.50	43658.01
508.68	43838.23
508.85	43805.47
509.03	44053.56
509.20	43924.83
509.38	44765.09
509.55	44465.50
509.73	44935.95
509.90	44870.41
510.08	44706.57
510.25	44671.46
510.42	44832.96
510.60	45357.24
510.77	45450.86
510.95	45876.84
511.12	45361.92
511.30	45633.42
511.47	45776.20
511.64	46028.98
511.82	46106.21
511.99	45722.37
512.17	45804.28
512.34	46153.02
512.51	46358.99
512.69	46356.65
512.86	46223.24
513.04	46415.16
513.21	46656.24
513.38	46389.42
513.56	47058.81
513.73	46770.93
513.90	47405.21
514.08	47054.13
514.25	47145.41
514.43	47503.51
514.60	47253.08
514.77	47543.30
514.95	47840.55
515.12	47854.59
515.29	47583.09
515.47	48086.31
515.64	48090.99
515.81	48107.37
515.99	48196.31
516.16	48523.99
516.33	48336.74
516.51	49160.61
516.68	48371.85
516.85	48779.10
517.03	48701.87
517.20	49256.57
517.37	49055.29
517.54	49305.73
517.72	49214.44
517.89	49181.68
518.06	49223.81
518.24	49230.83
518.41	49712.98
518.58	49804.26
518.75	49607.65
518.93	49750.43
519.10	49525.74
519.27	49727.02
519.45	49970.44
519.62	50026.61
519.79	50021.93
519.96	50316.84
520.14	50298.11
520.31	50293.43
520.48	50569.61
520.65	50740.47
520.83	50871.54
521.00	50658.56
521.17	50803.67
521.34	50667.92
521.52	50871.54
521.69	51110.28
521.86	51267.09
522.03	51332.63
522.20	51138.36
522.38	51484.76
522.55	51494.13
522.72	51540.94
522.89	51449.66
523.07	51704.77
523.24	51597.11
523.41	51838.18
523.58	51707.12
523.75	52107.35
523.92	51681.37
524.10	51978.62
524.27	52271.18
524.44	52196.29
524.61	52009.04
524.78	52381.19
524.96	52343.74
525.13	52353.10
525.30	52484.17
525.47	52683.12
525.64	52622.26
525.81	52786.10
525.98	52715.89
526.16	52556.73
526.33	52762.70
526.50	53216.76
526.67	52865.68
526.84	53048.24
527.01	52978.03
527.18	52912.49
527.36	53034.20
527.53	53305.70
527.70	53638.06
527.87	53364.21
528.04	53237.83
528.21	53382.94
528.38	53146.54
528.55	53497.62
528.72	53626.35
528.89	53631.04
529.07	53439.11
529.24	53216.76
529.41	53785.51
529.58	53991.48
529.75	53841.68
529.92	53769.13
530.09	53776.15
530.26	54047.65
530.43	53993.82
530.60	53619.33
530.77	53818.28
530.94	54150.63
531.11	54150.63
531.28	54197.44
531.46	54330.86
531.63	54543.84
531.80	54237.23
531.97	54546.18
532.14	54354.26
532.31	54475.97
532.48	54686.62
532.65	54808.32
532.82	54590.66
532.99	54794.28
533.16	54864.50
533.33	55000.25
533.50	55018.97
533.67	55171.11
533.84	54710.02
534.01	54948.76
534.18	54930.03
534.35	55428.57
534.52	55164.09
534.69	55210.90
534.86	55339.63
535.03	55292.82
535.20	55281.11
535.37	55288.13
535.54	55316.22
535.71	55477.72
535.88	55618.15
536.05	55526.87
536.22	55786.67
536.38	55835.82
536.55	55760.92
536.72	55580.70
536.89	55569.00
537.06	55756.24
537.23	55805.39
537.40	55770.28
537.57	55908.38
537.74	55994.98
537.91	56116.68
538.08	55859.23
538.25	55798.37
538.42	56034.77
538.59	56257.12
538.75	56016.04
538.92	56142.43
539.09	56362.44
539.26	56406.91
539.43	56123.71
539.60	56289.88
539.77	56196.26
539.94	56444.36
540.11	56378.82
540.28	56582.45
540.44	56268.82
540.61	56453.72
540.78	56477.13
540.95	56315.63
541.12	56556.70
541.29	56486.49
541.46	56526.28
541.62	56552.02
541.79	56722.88
541.96	56463.08
542.13	56664.37
542.30	56807.14
542.47	56886.72
542.63	56992.04
542.80	56750.97
542.97	57200.35
543.14	57415.68
543.31	57352.49
543.48	57272.91
543.64	57389.94
543.81	57286.95
543.98	57399.30
544.15	57535.05
544.32	57394.62
544.48	57513.98
544.65	57612.29
544.82	57591.22
544.99	57396.96
545.16	57619.31
545.32	57506.96
545.49	57715.27
545.66	57598.24
545.83	57879.11
546.00	57834.64
546.16	58010.18
546.33	57532.71
546.50	57645.05
546.67	57771.44
546.83	57640.37
547.00	58049.97
547.17	57874.43
547.34	57846.34
547.50	58059.33
547.67	58349.56
547.84	57907.19
548.00	58127.20
548.17	58429.13
548.34	58206.78
548.51	58145.93
548.67	58279.34
548.84	58284.02
549.01	58230.19
549.18	58300.40
549.34	58398.71
549.51	58262.96
549.68	58372.96
549.84	58614.04
550.01	58497.01
550.18	58333.17
550.34	58405.73
550.51	58475.94
550.68	58599.99
550.84	58387.00
551.01	58642.12
551.18	58501.69
551.34	58742.77
551.51	58663.19
551.68	58660.85
551.84	58644.46
552.01	58403.39
552.18	59100.87
552.34	58578.93
552.51	59025.97
552.68	58815.32
552.84	58761.49
553.01	59056.40
553.18	58747.45
553.34	59023.63
553.51	58780.21
553.67	58922.99
553.84	59084.48
554.01	59140.66
554.17	59114.91
554.34	59063.42
554.51	59264.70
554.67	58979.16
554.84	59040.01
555.00	59117.25
555.17	59049.38
555.33	59056.40
555.50	59105.55
555.67	59187.47
555.83	59159.38
556.00	59213.21
556.16	59543.23
556.33	59477.69
556.50	59386.41
556.66	59437.90
556.83	59058.74
556.99	59648.55
557.16	59671.96
557.32	59470.67
557.49	59578.34
557.65	59484.72
557.82	59547.91
557.98	59583.02
558.15	59482.37
558.32	59634.51
558.48	59405.14
558.65	59505.78
558.81	59636.85
558.98	59580.68
559.14	59810.05
559.31	59826.43
559.47	59707.07
559.64	59866.22
559.80	59835.80
559.97	59784.30
560.13	59803.03
560.30	59922.40
560.46	59814.73
560.63	59805.37
560.79	59760.90
560.96	60062.83
561.12	59898.99
561.29	59882.61
561.45	60027.72
561.61	59807.71
561.78	59994.95
561.94	59959.84
562.11	60020.70
562.27	60053.47
562.44	60121.34
562.60	60137.72
562.77	59999.63
562.93	59882.61
563.10	60051.12
563.26	59840.48
563.42	60402.21
563.59	60039.42
563.75	60140.07
563.92	60200.92
564.08	60177.51
564.24	60278.16
564.41	60184.54
564.57	60182.19
564.74	60079.21
564.90	60083.89
565.07	60121.34
565.23	60221.98
565.39	60088.57
565.56	60381.14
565.72	60259.43
565.88	60135.38
566.05	60177.51
566.21	60266.45
566.38	60200.92
566.54	60493.49
566.70	60362.42
566.87	60376.46
567.03	60261.77
567.19	60460.72
567.36	60343.69
567.52	60294.54
567.68	60629.24
567.85	60453.70
568.01	60383.48
568.17	60430.29
568.34	60486.46
568.50	60397.52
568.66	60341.35
568.83	60282.84
568.99	60399.86
569.15	60430.29
569.32	60390.50
569.48	60350.71
569.64	60451.36
569.81	60353.05
569.97	60376.46
570.13	60535.62
570.30	60472.42
570.46	60617.53
570.62	60626.90
570.78	60863.29
570.95	60575.40
571.11	60800.10
571.27	60507.53
571.43	60596.47
571.60	60809.46
571.76	60434.97
571.92	60722.86
572.09	60472.42
572.25	60760.31
572.41	60554.34
572.57	60636.26
572.74	60903.08
572.90	60654.98
573.06	60743.92
573.22	60725.20
573.38	60743.92
573.55	60753.29
573.71	60865.63
573.87	60729.88
574.03	60420.93
574.20	60867.97
574.36	60636.26
574.52	60994.36
574.68	60858.61
574.84	60809.46
575.01	60865.63
575.17	60821.16
575.33	60790.73
575.49	60849.25
575.65	60849.25
575.82	60853.93
575.98	60952.23
576.14	61083.30
576.30	60662.00
576.46	60839.89
576.62	60877.33
576.79	60905.42
576.95	60734.56
577.11	60893.72
577.27	60935.85
577.43	61111.39
577.59	60828.18
577.75	60928.83
577.92	60811.80
578.08	60994.36
578.24	60828.18
578.40	60973.30
578.56	61141.81
578.72	60989.68
578.88	60844.57
579.04	61111.39
579.21	60774.35
579.37	61256.50
579.53	60975.64
579.69	60776.69
579.85	60999.04
580.01	60814.14
580.17	60839.89
580.33	61003.72
580.49	61080.96
580.65	60928.83
580.82	60917.12
580.98	60802.44
581.14	60952.23
581.30	61066.92
581.46	60912.44
581.62	60956.91
581.78	60982.66
581.94	60985.00
582.10	60896.06
582.26	61064.58
582.42	60999.04
582.58	60949.89
582.74	61099.68
582.90	61083.30
583.06	61071.60
583.22	60804.78
583.38	60963.93
583.54	61102.03
583.70	60966.27
583.86	61235.44
584.02	60903.08
584.18	61155.86
584.34	60989.68
584.50	61006.06
584.66	60942.87
584.82	60858.61
584.98	61223.73
585.14	61123.09
585.30	60935.85
585.46	61186.28
585.62	61174.58
585.78	61303.31
585.94	60926.49
586.10	61041.17
586.26	61251.82
586.42	61209.69
586.58	61160.54
586.74	61106.71
586.90	61076.28
587.06	61020.11
587.22	61263.52
587.38	61137.13
587.54	61382.89
587.70	61361.82
587.86	61015.43
588.02	61158.20
588.18	61244.80
588.34	61090.32
588.49	61237.78
