SpectraSuite Data File
++++++++++++++++++++++++++++++++++++
Date: Fri Oct 25 10:44:39 EDT 2013
User: price-jones
Dark Spectrum Present: No
Reference Spectrum Present: No
Number of Sampled Component Spectra: 1
Spectrometers: USB2+H05261
Integration Time (usec): 100000 (USB2+H05261)
Spectra Averaged: 1 (USB2+H05261)
Boxcar Smoothing: 0 (USB2+H05261)
Correct for Electrical Dark: No (USB2+H05261)
Strobe/Lamp Enabled: No (USB2+H05261)
Correct for Detector Non-linearity: No (USB2+H05261)
Correct for Stray Light: No (USB2+H05261)
Number of Pixels in Processed Spectrum: 2048
>>>>>Begin Processed Spectral Data<<<<<
365.73	124.05
365.92	124.05
366.12	124.05
366.32	32.77
366.52	0.00
366.72	110.01
366.91	0.00
367.11	67.88
367.31	0.00
367.51	74.90
367.70	11.70
367.90	46.81
368.10	16.38
368.30	37.45
368.49	93.62
368.69	9.36
368.89	0.00
369.09	28.09
369.28	65.54
369.48	63.19
369.68	84.26
369.87	81.92
370.07	0.00
370.27	145.11
370.47	203.63
370.66	320.65
370.86	344.06
371.06	404.91
371.25	486.83
371.45	411.93
371.65	461.09
371.84	411.93
372.04	407.25
372.24	414.27
372.44	444.70
372.63	528.96
372.83	470.45
373.03	451.72
373.22	543.00
373.42	571.09
373.62	557.05
373.81	461.09
374.01	496.19
374.21	486.83
374.40	451.72
374.60	507.90
374.79	538.32
374.99	510.24
375.19	540.66
375.38	613.22
375.58	561.73
375.78	622.58
375.97	582.79
376.17	692.80
376.37	538.32
376.56	657.69
376.76	526.62
376.95	575.77
377.15	531.30
377.35	627.26
377.54	599.18
377.74	587.47
377.93	564.07
378.13	627.26
378.33	517.26
378.52	624.92
378.72	594.50
378.91	592.16
379.11	540.66
379.31	582.79
379.50	587.47
379.70	671.73
379.89	676.41
380.09	601.52
380.28	606.20
380.48	517.26
380.68	566.41
380.87	561.73
381.07	657.69
381.26	653.01
381.46	634.29
381.65	592.16
381.85	601.52
382.04	655.35
382.24	608.54
382.43	615.56
382.63	631.94
382.83	608.54
383.02	641.31
383.22	793.44
383.41	784.08
383.61	638.97
383.80	706.84
384.00	638.97
384.19	657.69
384.39	716.20
384.58	706.84
384.78	814.51
384.97	718.54
385.17	826.21
385.36	732.59
385.56	704.50
385.75	741.95
385.95	751.31
386.14	819.19
386.34	786.42
386.53	767.70
386.72	786.42
386.92	812.17
387.11	781.74
387.31	765.36
387.50	807.48
387.70	737.27
387.89	753.65
388.09	870.68
388.28	725.57
388.48	837.91
388.67	784.08
388.86	882.38
389.06	844.93
389.25	868.34
389.45	933.87
389.64	835.57
389.84	856.64
390.03	905.79
390.22	851.96
390.42	861.32
390.61	891.74
390.81	908.13
391.00	898.77
391.19	987.71
391.39	901.11
391.58	1039.20
391.78	978.34
391.97	1011.11
392.16	823.87
392.36	1008.77
392.55	957.28
392.75	952.60
392.94	976.00
393.13	997.07
393.33	1004.09
393.52	896.43
393.71	997.07
393.91	1034.52
394.10	980.68
394.29	952.60
394.49	1081.33
394.68	1102.39
394.88	1043.88
395.07	1205.38
395.26	1142.18
395.46	1039.20
395.65	1165.59
395.84	1090.69
396.04	1121.12
396.23	1088.35
396.42	1181.97
396.62	1111.75
396.81	1179.63
397.00	1160.91
397.19	1226.44
397.39	1205.38
397.58	1210.06
397.77	1156.22
397.97	1249.85
398.16	1289.64
398.35	1301.34
398.55	1296.66
398.74	1299.00
398.93	1315.38
399.12	1320.06
399.32	1270.91
399.51	1355.17
399.70	1334.11
399.90	1308.36
400.09	1413.68
400.28	1425.39
400.47	1380.92
400.67	1420.71
400.86	1362.19
401.05	1390.28
401.24	1394.96
401.44	1504.96
401.63	1481.56
401.82	1441.77
402.01	1526.03
402.21	1528.37
402.40	1469.86
402.59	1549.43
402.78	1497.94
402.97	1453.47
403.17	1593.90
403.36	1671.14
403.55	1643.06
403.74	1598.59
403.93	1593.90
404.13	1589.22
404.32	1570.50
404.51	1640.72
404.70	1687.53
404.89	1584.54
405.09	1755.40
405.28	1624.33
405.47	1771.79
405.66	1797.53
405.85	1813.92
406.05	1699.23
406.24	1797.53
406.43	1685.19
406.62	1886.47
406.81	1900.52
407.00	1785.83
407.20	1802.21
407.39	1884.13
407.58	1858.39
407.77	1849.02
407.96	1973.07
408.15	2050.31
408.34	1916.90
408.54	1923.92
408.73	2026.90
408.92	2085.42
409.11	2101.80
409.30	2024.56
409.49	2085.42
409.68	1952.01
409.87	1973.07
410.07	2120.53
410.26	2069.03
410.45	2141.59
410.64	2167.34
410.83	2122.87
411.02	2157.97
411.21	2260.96
411.40	2282.02
411.59	2256.28
411.78	2214.15
411.98	2256.28
412.17	2347.56
412.36	2361.60
412.55	2361.60
412.74	2387.35
412.93	2457.56
413.12	2338.20
413.31	2572.25
413.50	2375.64
413.69	2525.44
413.88	2520.76
414.07	2478.63
414.26	2490.33
414.45	2607.36
414.64	2579.27
414.83	2675.23
415.02	2740.77
415.22	2773.53
415.41	2614.38
415.60	2670.55
415.79	2778.22
415.98	2792.26
416.17	2867.16
416.36	2834.39
416.55	2855.45
416.74	2867.16
416.93	2979.50
417.12	2925.67
417.31	2944.39
417.50	2988.86
417.69	3197.17
417.88	2890.56
418.07	3021.63
418.26	3110.57
418.45	2998.23
418.64	3241.64
418.83	3155.04
419.02	3087.17
419.21	3110.57
419.39	3084.83
419.58	3262.71
419.77	3183.13
419.96	3265.05
420.15	3358.67
420.34	3236.96
420.53	3405.48
420.72	3346.97
420.91	3309.52
421.10	3447.61
421.29	3428.88
421.48	3215.90
421.67	3456.97
421.86	3332.92
422.05	3459.31
422.24	3258.03
422.43	3262.71
422.61	3428.88
422.80	3545.91
422.99	3400.80
423.18	3421.86
423.37	3536.55
423.56	3503.78
423.75	3445.27
423.94	3431.23
424.13	3389.10
424.32	3314.20
424.50	3482.72
424.69	3618.47
424.88	3613.79
425.07	3400.80
425.26	3440.59
425.45	3583.36
425.64	3389.10
425.83	3435.91
426.01	3691.02
426.20	3562.30
426.39	3595.06
426.58	3705.07
426.77	3604.42
426.96	3571.66
427.15	3557.61
427.33	3625.49
427.52	3765.92
427.71	3700.39
427.90	3735.50
428.09	3646.55
428.28	3712.09
428.46	3756.56
428.65	3768.26
428.84	3941.46
429.03	4028.06
429.22	3709.75
429.40	3740.18
429.59	3854.86
429.78	3709.75
429.97	3688.68
430.16	3658.26
430.34	3810.39
430.53	3892.31
430.72	3744.86
430.91	3763.58
431.10	3833.80
431.28	4074.87
431.47	4149.77
431.66	4145.09
431.85	4105.30
432.03	4175.52
432.22	4241.05
432.41	3997.64
432.60	4119.34
432.79	4014.02
432.97	4278.50
433.16	4205.94
433.35	4093.60
433.54	4088.92
433.72	4271.48
433.91	4194.24
434.10	4215.30
434.28	4152.11
434.47	4416.59
434.66	4458.72
434.85	4393.19
435.03	4313.61
435.22	4404.89
435.41	4524.26
435.59	4395.53
435.78	4470.42
435.97	4472.76
436.16	4470.42
436.34	4566.39
436.53	4538.30
436.72	4662.35
436.90	4409.57
437.09	4484.47
437.28	4603.83
437.46	4627.24
437.65	4587.45
437.84	4802.78
438.02	4594.47
438.21	4620.22
438.40	4645.96
438.58	4847.25
438.77	4887.04
438.96	4814.48
439.14	5034.49
439.33	5036.83
439.52	4922.15
439.70	4919.81
439.89	4987.68
440.08	5217.05
440.26	5083.64
440.45	5039.17
440.63	5191.31
440.82	5411.32
441.01	5195.99
441.19	5327.06
441.38	5294.29
441.57	5359.83
441.75	5540.05
441.94	5521.32
442.12	5444.09
442.31	5600.90
442.50	5582.18
442.68	5743.67
442.87	5584.52
443.05	5530.69
443.24	5605.58
443.43	5778.78
443.61	5701.54
443.80	5767.08
443.98	5743.67
444.17	5490.90
444.35	5668.78
444.54	5682.82
444.73	5804.53
444.91	5753.04
445.10	5696.86
445.28	5743.67
445.47	5760.06
445.65	5790.49
445.84	5837.30
446.02	6043.26
446.21	5975.39
446.39	5813.89
446.58	5921.56
446.77	5898.15
446.95	5935.60
447.14	5858.36
447.32	5902.83
447.51	5792.83
447.69	5919.21
447.88	5863.04
448.06	6099.44
448.25	5916.87
448.43	6033.90
448.62	6045.60
448.80	5902.83
448.99	5888.79
449.17	6043.26
449.36	5996.45
449.54	6143.91
449.73	6305.40
449.91	6223.48
450.10	6380.30
450.28	6279.66
450.46	6263.27
450.65	6333.49
450.83	6429.45
451.02	6286.68
451.20	6487.96
451.39	6410.73
451.57	6441.15
451.76	6289.02
451.94	6331.15
452.13	6317.11
452.31	6462.22
452.49	6333.49
452.68	6551.16
452.86	6616.69
453.05	6569.88
453.23	6530.09
453.42	6464.56
453.60	6466.90
453.78	6689.25
453.97	6527.75
454.15	6469.24
454.34	6518.39
454.52	6913.94
454.70	6773.51
454.89	6782.87
455.07	6707.98
455.26	6761.81
455.44	6803.94
455.62	6752.45
455.81	6937.35
455.99	6796.92
456.17	6925.65
456.36	6895.22
456.54	7091.82
456.73	6974.80
456.91	7155.02
457.09	7253.32
457.28	7384.39
457.46	6998.20
457.64	7194.81
457.83	7332.90
458.01	7131.61
458.19	7307.15
458.38	7258.00
458.56	7258.00
458.74	7318.86
458.93	7412.48
459.11	7358.64
459.29	7346.94
459.48	7368.01
459.66	7475.67
459.84	7517.80
460.03	7581.00
460.21	7522.48
460.39	7555.25
460.57	7482.69
460.76	7599.72
460.94	7524.82
461.12	7829.09
461.31	7735.47
461.49	7808.03
461.67	7812.71
461.85	7786.96
462.04	7838.45
462.22	7985.91
462.40	8070.17
462.59	7911.01
462.77	7953.14
462.95	8030.38
463.13	7826.75
463.32	7925.05
463.50	7990.59
463.68	7932.08
463.86	8077.19
464.05	7985.91
464.23	7953.14
464.41	8016.33
464.59	7894.63
464.78	8182.51
464.96	8147.40
465.14	8079.53
465.32	8231.66
465.50	8222.30
465.69	8280.82
465.87	8304.22
466.05	8116.98
466.23	8273.79
466.41	8414.23
466.60	8329.97
466.78	8217.62
466.96	8194.22
467.14	8215.28
467.32	8446.99
467.51	8657.64
467.69	8351.03
467.87	8376.78
468.05	8376.78
468.23	8442.31
468.41	8615.51
468.60	8404.86
468.78	8697.43
468.96	8751.26
469.14	8648.28
469.32	8692.75
469.50	8585.08
469.69	8772.33
469.87	8788.71
470.05	9039.15
470.23	8716.16
470.41	8849.57
470.59	8922.12
470.77	8903.40
470.95	8982.98
471.14	9315.33
471.32	9001.70
471.50	9327.03
471.68	9345.76
471.86	9263.84
472.04	9376.19
472.22	9530.66
472.40	9312.99
472.58	9334.06
472.77	9479.17
472.95	9535.34
473.13	9696.84
473.31	9427.68
473.49	9528.32
473.67	9596.20
473.85	9558.75
474.03	9561.09
474.21	9778.76
474.39	9942.60
474.57	9930.89
474.75	10094.73
474.93	10195.37
475.12	10108.77
475.30	9998.77
475.48	9996.43
475.66	10111.11
475.84	10312.40
476.02	10174.31
476.20	10249.21
476.38	10314.74
476.56	10712.63
476.74	10494.96
476.92	10654.12
477.10	10611.99
477.28	10745.40
477.46	11030.94
477.64	10853.06
477.82	11314.15
478.00	11234.57
478.18	11232.23
478.36	11248.61
478.54	11332.87
478.72	11293.08
478.90	11583.31
479.08	11927.37
479.26	11843.11
479.44	11763.53
479.62	11721.40
479.80	11791.62
479.98	11978.86
480.16	12091.21
480.34	12035.03
480.52	12521.87
480.70	12322.92
480.88	12250.36
481.06	12571.02
481.24	12692.73
481.41	12652.94
481.59	12886.99
481.77	12891.67
481.95	12954.87
482.13	13219.35
482.31	13043.81
482.49	13224.03
482.67	13446.38
482.85	13516.59
483.03	13472.12
483.21	13689.79
483.39	13853.63
483.57	13905.12
483.74	14010.45
483.92	14129.81
484.10	14080.66
484.28	14356.85
484.46	14560.47
484.64	14705.59
484.82	14569.83
485.00	14874.10
485.18	14974.75
485.35	14911.55
485.53	14981.77
485.71	15007.52
485.89	15044.96
486.07	15154.97
486.25	15286.04
486.43	15325.83
486.61	15391.36
486.78	15672.23
486.96	15665.21
487.14	16023.31
487.32	16173.10
487.50	16404.81
487.68	16563.97
487.85	16800.37
488.03	16552.27
488.21	16648.23
488.39	16915.05
488.57	17291.88
488.75	17195.92
488.92	17479.12
489.10	17589.13
489.28	17554.02
489.46	17664.02
489.64	17898.08
489.81	18015.10
489.99	18134.47
490.17	18431.72
490.35	18401.29
490.53	18487.89
490.70	18654.07
490.88	18696.20
491.06	18553.43
491.24	18930.25
491.41	18625.98
491.59	19131.54
491.77	18792.16
491.95	19389.00
492.13	19197.07
492.30	19859.45
492.48	19824.34
492.66	19976.47
492.84	19754.12
493.01	19864.13
493.19	20168.40
493.37	20208.19
493.54	20423.51
493.72	20479.69
493.90	20568.63
494.08	21048.44
494.25	21022.69
494.43	21198.23
494.61	21200.57
494.79	21205.25
494.96	21118.65
495.14	21465.05
495.32	21661.66
495.49	21624.21
495.67	21685.06
495.85	21809.11
496.02	21926.14
496.20	22216.36
496.38	22174.24
496.55	22335.73
496.73	22771.07
496.91	22398.93
497.09	22511.27
497.26	22466.80
497.44	22635.32
497.62	23005.13
497.79	23154.92
497.97	22623.62
498.14	23339.82
498.32	23215.77
498.50	23356.21
498.67	23887.51
498.85	23740.05
499.03	23793.89
499.20	23634.73
499.38	23817.29
499.56	24147.31
499.73	24240.93
499.91	24357.96
500.08	24556.90
500.26	24418.81
500.44	24411.79
500.61	24496.05
500.79	24418.81
500.97	24631.80
501.14	25275.45
501.32	25060.12
501.49	25106.93
501.67	25032.03
501.84	25441.62
502.02	25046.07
502.20	25139.69
502.37	25230.98
502.55	25472.05
502.72	25467.37
502.90	25673.34
503.07	25979.95
503.25	25921.43
503.43	25642.91
503.60	25635.89
503.78	25757.60
503.95	26188.25
504.13	26019.74
504.30	26092.29
504.48	26656.36
504.65	26373.16
504.83	26506.57
505.01	26703.17
505.18	26773.39
505.36	26902.12
505.53	27110.43
505.71	27061.27
505.88	27351.50
506.06	27033.19
506.23	27051.91
506.41	27145.53
506.58	27241.50
506.76	27414.69
506.93	27342.14
507.11	27232.13
507.28	27545.76
507.46	27515.34
507.63	27770.46
507.81	27866.42
507.98	27920.25
508.16	28023.23
508.33	27990.47
508.50	28306.44
508.68	28739.44
508.85	28538.15
509.03	28594.32
509.20	28584.96
509.38	28587.30
509.55	29039.03
509.73	28851.78
509.90	28737.10
510.08	28643.48
510.25	28718.37
510.42	29027.32
510.60	29207.55
510.77	29181.80
510.95	29453.30
511.12	29214.57
511.30	29542.24
511.47	29560.97
511.64	29888.64
511.82	29703.74
511.99	29570.33
512.17	29970.56
512.34	29876.94
512.51	29862.90
512.69	30436.33
512.86	29979.92
513.04	30405.90
513.21	30181.21
513.38	30501.86
513.56	30064.18
513.73	30354.41
513.90	30466.75
514.08	30340.36
514.25	30918.48
514.43	30745.28
514.60	30553.35
514.77	30593.14
514.95	30773.36
515.12	31049.55
515.29	30764.00
515.47	31786.82
515.64	31241.47
515.81	31164.23
515.99	31630.00
516.16	31524.68
516.33	31349.14
516.51	31456.80
516.68	31257.85
516.85	30986.35
517.03	31194.66
517.20	31768.09
517.37	31859.37
517.54	31665.11
517.72	31800.86
517.89	31868.73
518.06	31400.63
518.24	31669.79
518.41	31690.85
518.58	32151.94
518.75	32273.65
518.93	32360.25
519.10	31777.45
519.27	32334.50
519.45	32393.01
519.62	33160.71
519.79	32816.65
519.96	33013.26
520.14	33104.54
520.31	32662.18
520.48	32699.62
520.65	32980.49
520.83	33338.59
521.00	33427.53
521.17	33193.48
521.34	33371.36
521.52	33457.96
521.69	33376.04
521.86	33748.18
522.03	33596.05
522.20	33769.25
522.38	34005.64
522.55	33715.42
522.72	33474.34
522.89	34169.48
523.07	34169.48
523.24	34080.54
523.41	34085.22
523.58	33839.47
523.75	34227.99
523.92	34532.26
524.10	34506.52
524.27	34672.70
524.44	34607.16
524.61	34735.89
524.78	34899.73
524.96	35372.52
525.13	35321.02
525.30	34806.11
525.47	34852.92
525.64	35360.81
525.81	35098.67
525.98	35196.98
526.16	34562.69
526.33	35126.76
526.50	35161.87
526.67	35028.46
526.84	34960.58
527.01	35110.38
527.18	35267.19
527.36	35571.46
527.53	35800.83
527.70	35627.63
527.87	35496.56
528.04	35964.67
528.21	35871.05
528.38	36002.12
528.55	36091.06
528.72	35910.84
528.89	36549.81
529.07	36336.82
529.24	35690.83
529.41	36425.76
529.58	36006.80
529.75	35934.24
529.92	36673.85
530.09	36444.48
530.26	36535.76
530.43	36620.02
530.60	36275.96
530.77	36191.70
530.94	36610.66
531.11	36414.05
531.28	36531.08
531.46	36568.53
531.63	36692.58
531.80	36882.16
531.97	36917.27
532.14	36683.22
532.31	36711.30
532.48	37160.69
532.65	36964.08
532.82	36844.71
532.99	36987.49
533.16	37256.65
533.33	37418.14
533.50	37591.34
533.67	37399.42
533.84	37652.20
534.01	37083.45
534.18	37579.64
534.35	37806.67
534.52	37816.04
534.69	37720.07
534.86	37773.91
535.03	37830.08
535.20	37970.51
535.37	37951.79
535.54	38253.72
535.71	37827.74
535.88	37778.59
536.05	38167.12
536.22	37970.51
536.38	38000.94
536.55	38148.39
536.72	38347.34
536.89	37820.72
537.06	38139.03
537.23	38398.83
537.40	38174.14
537.57	38754.59
537.74	38363.72
537.91	38546.28
538.08	38412.87
538.25	38471.39
538.42	38773.31
538.59	38862.26
538.75	38129.67
538.92	38869.28
539.09	38855.23
539.26	38831.83
539.43	38941.83
539.60	38714.80
539.77	38504.15
539.94	38988.64
540.11	38483.09
540.28	39005.03
540.44	39005.03
540.61	39056.52
540.78	38998.01
540.95	39042.48
541.12	39124.40
541.29	39065.88
541.46	39189.93
541.62	38993.32
541.79	39517.60
541.96	39070.56
542.13	39587.82
542.30	39143.12
542.47	39501.22
542.63	39342.06
542.80	39349.09
542.97	40189.34
543.14	39730.59
543.31	40411.69
543.48	40247.85
543.64	40374.24
543.81	40402.33
543.98	40423.39
544.15	40381.26
544.32	40203.38
544.48	40538.08
544.65	40392.97
544.82	40299.34
544.99	40067.63
545.16	40371.90
545.32	40275.94
545.49	40903.20
545.66	40921.93
545.83	40835.33
546.00	40851.71
546.16	40919.59
546.33	40187.00
546.50	40292.32
546.67	40575.53
546.83	40219.77
547.00	40807.24
547.17	40683.19
547.34	41045.97
547.50	40882.14
547.67	41193.43
547.84	40896.18
548.00	41308.11
548.17	41038.95
548.34	41294.07
548.51	41462.59
548.67	41188.75
548.84	41322.16
549.01	41284.71
549.18	41242.58
549.34	41633.45
549.51	41902.61
549.68	41294.07
549.84	41565.57
550.01	41743.45
550.18	41642.81
550.34	41574.94
550.51	42073.47
550.68	41586.64
550.84	41338.54
551.01	41698.98
551.18	41478.97
551.34	41996.23
551.51	41631.11
551.68	41757.50
551.84	42316.89
552.01	41642.81
552.18	41902.61
552.34	41581.96
552.51	41631.11
552.68	41750.48
552.84	41993.89
553.01	42595.41
553.18	42181.13
553.34	41930.70
553.51	41799.63
553.67	42136.66
553.84	42616.47
554.01	42450.30
554.17	42087.51
554.34	42195.18
554.51	42314.55
554.67	42562.64
554.84	42265.39
555.00	42431.57
555.17	42487.74
555.33	42487.74
555.50	42356.67
555.67	42246.67
555.83	42225.60
556.00	42120.28
556.16	42686.69
556.33	42469.02
556.50	42457.32
556.66	42225.60
556.83	42588.39
556.99	43117.35
557.16	42770.95
557.32	42902.02
557.49	43112.67
557.65	42293.48
557.82	42497.11
557.98	42871.59
558.15	42520.51
558.32	42871.59
558.48	42419.87
558.65	42735.84
558.81	42445.62
558.98	42670.31
559.14	42855.21
559.31	42712.44
559.47	42916.06
559.64	43454.39
559.80	43086.92
559.97	42820.10
560.13	42745.20
560.30	42955.85
560.46	42843.51
560.63	42997.98
560.79	43285.87
560.96	43082.24
561.12	43571.41
561.29	42698.39
561.45	43405.23
561.61	43145.44
561.78	43098.62
561.94	43227.35
562.11	42953.51
562.27	43079.90
562.44	43105.65
562.60	43159.48
562.77	43210.97
562.93	43393.53
563.10	42913.72
563.26	43056.50
563.42	43739.93
563.59	43159.48
563.75	42911.38
563.92	43576.09
564.08	43449.70
564.24	43227.35
564.41	43449.70
564.57	43398.21
564.74	43147.78
564.90	43505.88
565.07	43412.26
565.23	43665.03
565.39	43529.28
565.56	43735.25
565.72	43590.14
565.88	43641.63
566.05	43573.75
566.21	43452.05
566.38	43414.60
566.54	43386.51
566.70	43629.93
566.87	43952.92
567.03	43239.06
567.19	44245.49
567.36	43929.51
567.52	43777.38
567.68	43871.00
567.85	43690.78
568.01	43613.54
568.17	43363.11
568.34	43819.51
568.50	43955.26
568.66	43761.00
568.83	43503.54
568.99	43452.05
569.15	43697.80
569.32	43442.68
569.48	43522.26
569.64	44222.08
569.81	43936.54
569.97	43952.92
570.13	43475.45
570.30	43129.05
570.46	43749.29
570.62	43508.22
570.78	43019.05
570.95	43517.58
571.11	44168.25
571.27	43688.44
571.43	43915.47
571.60	44018.46
571.76	44100.37
571.92	43613.54
572.09	43964.62
572.25	43978.67
572.41	43562.05
572.57	43824.19
572.74	44458.48
572.90	43667.37
573.06	44144.84
573.22	43704.82
573.38	43613.54
573.55	43786.74
573.71	44163.57
573.87	44074.63
574.03	43667.37
574.20	43566.73
574.36	43562.05
574.52	43714.19
574.68	43875.68
574.84	44126.12
575.01	43971.64
575.17	43756.32
575.33	43730.57
575.49	43763.34
575.65	43936.54
575.82	44296.98
575.98	43735.25
576.14	44016.11
576.30	43934.20
576.46	44100.37
576.62	43791.42
576.79	43821.85
576.95	43885.04
577.11	43882.70
577.27	44128.46
577.43	44470.18
577.59	44023.14
577.75	43725.89
577.92	44062.93
578.08	43562.05
578.24	44135.48
578.40	44137.82
578.56	43648.65
578.72	44034.84
578.88	44289.96
579.04	44264.21
579.21	43744.61
579.37	44109.74
579.53	43992.71
579.69	43398.21
579.85	43835.89
580.01	44067.61
580.17	43737.59
580.33	44292.30
580.49	44163.57
580.65	44430.39
580.82	44299.32
580.98	44240.81
581.14	44140.16
581.30	44357.83
581.46	44418.69
581.62	44381.24
581.78	43934.20
581.94	44727.64
582.10	43732.91
582.26	44311.02
582.42	44212.72
582.58	44280.60
582.74	43882.70
582.90	43988.03
583.06	44296.98
583.22	44353.15
583.38	44568.48
583.54	44041.86
583.70	43945.90
583.86	44325.07
584.02	43711.84
584.18	44465.50
584.34	44315.70
584.50	43927.17
584.66	43983.35
584.82	43959.94
584.98	44308.68
585.14	44098.03
585.30	43920.15
585.46	44423.37
585.62	44252.51
585.78	44294.64
585.94	43938.88
586.10	44287.62
586.26	44683.17
586.42	44151.87
586.58	44547.42
586.74	44549.76
586.90	44058.24
587.06	44051.22
587.22	43973.98
587.38	44116.76
587.54	44212.72
587.70	44507.63
587.86	44486.56
588.02	44161.23
588.18	44626.99
588.34	44236.12
588.49	43779.72
588.65	43863.98
588.81	43901.43
588.97	43695.46
589.13	43688.44
589.29	44538.05
589.45	44296.98
589.61	44201.02
589.77	44535.71
589.93	44514.65
590.08	44683.17
590.24	44500.61
590.40	44577.84
