SpectraSuite Data File
++++++++++++++++++++++++++++++++++++
Date: Fri Oct 25 10:47:13 EDT 2013
User: price-jones
Dark Spectrum Present: No
Reference Spectrum Present: No
Number of Sampled Component Spectra: 1
Spectrometers: USB2+H05261
Integration Time (usec): 100000 (USB2+H05261)
Spectra Averaged: 1 (USB2+H05261)
Boxcar Smoothing: 0 (USB2+H05261)
Correct for Electrical Dark: No (USB2+H05261)
Strobe/Lamp Enabled: No (USB2+H05261)
Correct for Detector Non-linearity: No (USB2+H05261)
Correct for Stray Light: No (USB2+H05261)
Number of Pixels in Processed Spectrum: 2048
>>>>>Begin Processed Spectral Data<<<<<
365.73	126.39
365.92	126.39
366.12	126.39
366.32	39.79
366.52	44.47
366.72	2.34
366.91	37.45
367.11	0.00
367.31	56.17
367.51	42.13
367.70	0.00
367.90	9.36
368.10	49.15
368.30	105.32
368.49	102.98
368.69	51.49
368.89	72.56
369.09	65.54
369.28	95.96
369.48	14.04
369.68	105.32
369.87	142.77
370.07	93.62
370.27	154.48
370.47	170.86
370.66	308.95
370.86	376.83
371.06	407.25
371.25	477.47
371.45	425.98
371.65	437.68
371.84	449.38
372.04	404.91
372.24	498.53
372.44	484.49
372.63	489.17
372.83	442.36
373.03	458.74
373.22	496.19
373.42	552.37
373.62	454.06
373.81	540.66
374.01	554.71
374.21	566.41
374.40	498.53
374.60	531.30
374.79	564.07
374.99	571.09
375.19	580.45
375.38	596.84
375.58	517.26
375.78	580.45
375.97	535.98
376.17	688.12
376.37	479.81
376.56	528.96
376.76	629.60
376.95	620.24
377.15	571.09
377.35	510.24
377.54	573.43
377.74	627.26
377.93	603.86
378.13	631.94
378.33	571.09
378.52	568.75
378.72	653.01
378.91	645.99
379.11	543.00
379.31	634.29
379.50	587.47
379.70	599.18
379.89	608.54
380.09	582.79
380.28	624.92
380.48	641.31
380.68	606.20
380.87	545.34
381.07	674.07
381.26	695.14
381.46	638.97
381.65	713.86
381.85	674.07
382.04	631.94
382.24	690.46
382.43	660.03
382.63	592.16
382.83	599.18
383.02	671.73
383.22	723.23
383.41	709.18
383.61	720.88
383.80	744.29
384.00	681.10
384.19	697.48
384.39	830.89
384.58	725.57
384.78	725.57
384.97	674.07
385.17	657.69
385.36	653.01
385.56	788.76
385.75	713.86
385.95	863.66
386.14	798.12
386.34	763.01
386.53	821.53
386.72	725.57
386.92	837.91
387.11	760.67
387.31	786.42
387.50	763.01
387.70	819.19
387.89	812.17
388.09	751.31
388.28	788.76
388.48	816.85
388.67	854.30
388.86	910.47
389.06	849.61
389.25	891.74
389.45	856.64
389.64	798.12
389.84	844.93
390.03	875.36
390.22	903.45
390.42	915.15
390.61	908.13
390.81	896.43
391.00	898.77
391.19	983.02
391.39	866.00
391.58	959.62
391.78	908.13
391.97	931.53
392.16	901.11
392.36	945.58
392.55	1008.77
392.75	980.68
392.94	947.92
393.13	985.37
393.33	954.94
393.52	966.64
393.71	957.28
393.91	1043.88
394.10	968.98
394.29	1006.43
394.49	1015.79
394.68	1076.65
394.88	1078.99
395.07	1071.97
395.26	1036.86
395.46	1088.35
395.65	1102.39
395.84	1057.92
396.04	1125.80
396.23	1093.03
396.42	1086.01
396.62	1057.92
396.81	1196.01
397.00	1048.56
397.19	1135.16
397.39	1130.48
397.58	1217.08
397.77	1205.38
397.97	1247.51
398.16	1233.46
398.35	1240.48
398.55	1299.00
398.74	1249.85
398.93	1277.93
399.12	1277.93
399.32	1224.10
399.51	1294.32
399.70	1371.55
399.90	1226.44
400.09	1308.36
400.28	1362.19
400.47	1331.76
400.67	1451.13
400.86	1394.96
401.05	1427.73
401.24	1362.19
401.44	1418.36
401.63	1514.33
401.82	1458.15
402.01	1425.39
402.21	1392.62
402.40	1514.33
402.59	1437.09
402.78	1460.49
402.97	1416.02
403.17	1497.94
403.36	1507.30
403.55	1565.82
403.74	1554.12
403.93	1547.09
404.13	1659.44
404.32	1535.39
404.51	1455.81
404.70	1692.21
404.89	1565.82
405.09	1659.44
405.28	1673.48
405.47	1659.44
405.66	1631.35
405.85	1629.01
406.05	1692.21
406.24	1638.38
406.43	1739.02
406.62	1764.76
406.81	1832.64
407.00	1816.26
407.20	1610.29
407.39	1813.92
407.58	1926.26
407.77	1846.68
407.96	2038.61
408.15	1888.81
408.34	1781.15
408.54	1947.33
408.73	1923.92
408.92	1961.37
409.11	2003.50
409.30	1973.07
409.49	1959.03
409.68	2071.37
409.87	1982.43
410.07	2022.22
410.26	2249.25
410.45	1952.01
410.64	1980.09
410.83	2085.42
411.02	2059.67
411.21	2150.95
411.40	2200.10
411.59	2289.04
411.78	2260.96
411.98	2139.25
412.17	2230.53
412.36	2270.32
412.55	2275.00
412.74	2349.90
412.93	2335.85
413.12	2382.67
413.31	2471.61
413.50	2359.26
413.69	2387.35
413.88	2553.52
414.07	2490.33
414.26	2476.29
414.45	2572.25
414.64	2572.25
414.83	2541.82
415.02	2686.94
415.22	2576.93
415.41	2656.51
415.60	2703.32
415.79	2677.57
415.98	2682.25
416.17	2825.03
416.36	2750.13
416.55	2724.38
416.74	2899.92
416.93	2958.44
417.12	2832.05
417.31	2902.26
417.50	2935.03
417.69	2946.73
417.88	2935.03
418.07	2949.08
418.26	2972.48
418.45	3014.61
418.64	3087.17
418.83	3082.49
419.02	2993.55
419.21	3077.80
419.39	3173.77
419.58	3077.80
419.77	2967.80
419.96	3117.59
420.15	3045.04
420.34	3276.75
420.53	3180.79
420.72	3248.66
420.91	3281.43
421.10	3213.56
421.29	3384.41
421.48	3227.60
421.67	3447.61
421.86	3316.54
422.05	3328.24
422.24	3239.30
422.43	3276.75
422.61	3440.59
422.80	3351.65
422.99	3349.31
423.18	3660.60
423.37	3576.34
423.56	3405.48
423.75	3403.14
423.94	3318.88
424.13	3124.62
424.32	3241.64
424.50	3456.97
424.69	3501.44
424.88	3531.87
425.07	3368.03
425.26	3332.92
425.45	3396.12
425.64	3267.39
425.83	3407.82
426.01	3571.66
426.20	3566.98
426.39	3637.19
426.58	3585.70
426.77	3536.55
426.96	3576.34
427.15	3536.55
427.33	3583.36
427.52	3571.66
427.71	3698.05
427.90	3616.13
428.09	3604.42
428.28	3674.64
428.46	3592.72
428.65	3805.71
428.84	3826.78
429.03	3744.86
429.22	3641.87
429.40	3630.17
429.59	3686.34
429.78	3637.19
429.97	3545.91
430.16	3679.32
430.34	3698.05
430.53	3875.93
430.72	3831.46
430.91	3829.12
431.10	3770.60
431.28	3939.12
431.47	4014.02
431.66	4030.40
431.85	3920.40
432.03	4002.32
432.22	4133.39
432.41	4126.36
432.60	4133.39
432.79	4126.36
432.97	4154.45
433.16	4194.24
433.35	4065.51
433.54	4105.30
433.72	4194.24
433.91	4154.45
434.10	4390.84
434.28	4418.93
434.47	4154.45
434.66	4294.88
434.85	4318.29
435.03	4372.12
435.22	4318.29
435.41	4571.07
435.59	4337.01
435.78	4421.27
435.97	4458.72
436.16	4468.08
436.34	4489.15
436.53	4479.79
436.72	4599.15
436.90	4589.79
437.09	4594.47
437.28	4517.23
437.46	4566.39
437.65	4615.54
437.84	4634.26
438.02	4667.03
438.21	4655.33
438.40	4582.77
438.58	4610.86
438.77	4786.40
438.96	4849.59
439.14	4936.19
439.33	4915.12
439.52	4880.02
439.70	4954.91
439.89	5125.77
440.08	5055.56
440.26	4954.91
440.45	5076.62
440.63	5078.96
440.82	5233.44
441.01	5184.29
441.19	5235.78
441.38	5188.97
441.57	5315.36
441.75	5362.17
441.94	5472.17
442.12	5334.08
442.31	5434.72
442.50	5579.84
442.68	5399.62
442.87	5448.77
443.05	5650.05
443.24	5734.31
443.43	5640.69
443.61	5617.29
443.80	5643.03
443.98	5540.05
444.17	5434.72
444.35	5628.99
444.54	5827.93
444.73	5806.87
444.91	5692.18
445.10	5715.59
445.28	5617.29
445.47	5614.95
445.65	5687.50
445.84	5612.60
446.02	5680.48
446.21	5820.91
446.39	5715.59
446.58	5795.17
446.77	5863.04
446.95	5657.07
447.14	5760.06
447.32	5846.66
447.51	5790.49
447.69	5743.67
447.88	5919.21
448.06	5647.71
448.25	5680.48
448.43	6001.13
448.62	5923.90
448.80	5905.17
448.99	5951.98
449.17	5928.58
449.36	5783.46
449.54	6073.69
449.73	6174.33
449.91	6125.18
450.10	6279.66
450.28	6209.44
450.46	6253.91
450.65	6260.93
450.83	6359.24
451.02	6361.58
451.20	6270.30
451.39	6176.67
451.57	6342.85
451.76	6167.31
451.94	6216.46
452.13	6265.61
452.31	6429.45
452.49	6298.38
452.68	6459.88
452.86	6223.48
453.05	6427.11
453.23	6457.54
453.42	6282.00
453.60	6509.03
453.78	6394.34
453.97	6223.48
454.15	6590.95
454.34	6415.41
454.52	6588.61
454.70	6677.55
454.89	6649.46
455.07	6630.74
455.26	6590.95
455.44	6775.85
455.62	6604.99
455.81	6792.23
455.99	6707.98
456.17	6963.09
456.36	6815.64
456.54	6848.41
456.73	6932.67
456.91	7136.29
457.09	7213.53
457.28	7185.44
457.46	6869.47
457.64	7119.91
457.83	7218.21
458.01	6986.50
458.19	7255.66
458.38	7094.16
458.56	7318.86
458.74	7342.26
458.93	7208.85
459.11	7068.42
459.29	7379.71
459.48	7499.08
459.66	7211.19
459.84	7265.02
460.03	7592.70
460.21	7396.09
460.39	7515.46
460.57	7414.82
460.76	7393.75
460.94	7588.02
461.12	7623.12
461.31	7543.55
461.49	7571.63
461.67	7630.15
461.85	7784.62
462.04	7637.17
462.22	8102.93
462.40	7747.17
462.59	7592.70
462.77	7707.38
462.95	7749.51
463.13	7836.11
463.32	7796.32
463.50	7707.38
463.68	8044.42
463.86	7948.46
464.05	7889.95
464.23	8004.63
464.41	7880.58
464.59	7936.76
464.78	8189.53
464.96	7981.23
465.14	8046.76
465.32	8451.67
465.50	8109.96
465.69	8280.82
465.87	8161.45
466.05	8016.33
466.23	8131.02
466.41	8194.22
466.60	8205.92
466.78	8222.30
466.96	8105.28
467.14	8072.51
467.32	8234.00
467.51	8472.74
467.69	8138.04
467.87	8390.82
468.05	8421.25
468.23	8463.38
468.41	8280.82
468.60	8269.11
468.78	8409.54
468.96	8411.89
469.14	8557.00
469.32	8503.17
469.50	8262.09
469.69	8674.03
469.87	8648.28
470.05	8692.75
470.23	8662.32
470.41	8779.35
470.59	8910.42
470.77	9008.72
470.95	9053.19
471.14	9095.32
471.32	8657.64
471.50	9135.11
471.68	8805.10
471.86	8975.95
472.04	9135.11
472.22	9200.65
472.40	8994.68
472.58	9121.07
472.77	9362.14
472.95	9282.56
473.13	9640.67
473.31	9355.12
473.49	9355.12
473.67	9423.00
473.85	9598.54
474.03	9713.22
474.21	9734.29
474.39	9792.80
474.57	9610.24
474.75	9694.50
474.93	9745.99
475.12	9973.02
475.30	9954.30
475.48	9834.93
475.66	9947.28
475.84	10235.16
476.02	10204.74
476.20	10157.92
476.38	10387.30
476.56	10497.30
476.74	10469.22
476.92	10485.60
477.10	10298.36
477.28	10714.97
477.46	10808.59
477.64	10796.89
477.82	10881.15
478.00	11136.27
478.18	11253.30
478.36	11164.36
478.54	11367.98
478.72	11625.44
478.90	11573.95
479.08	11637.14
479.26	11782.26
479.44	11716.72
479.62	11655.87
479.80	11758.85
479.98	11873.54
480.16	12299.52
480.34	12025.67
480.52	12365.05
480.70	12367.39
480.88	12065.46
481.06	12081.85
481.24	12379.09
481.41	12439.95
481.59	12585.06
481.77	12931.46
481.95	12819.11
482.13	13022.74
482.31	12915.08
482.49	13135.09
482.67	13497.87
482.85	13102.32
483.03	13528.30
483.21	13680.43
483.39	13572.77
483.57	13664.05
483.74	13907.46
483.92	14125.13
484.10	13741.29
484.28	14235.14
484.46	14169.60
484.64	14642.39
484.82	14319.40
485.00	14630.69
485.18	14820.27
485.35	14794.53
485.53	14682.18
485.71	14799.21
485.89	15059.01
486.07	14998.15
486.25	14909.21
486.43	15272.00
486.61	15470.94
486.78	15569.24
486.96	15644.14
487.14	16039.69
487.32	16002.24
487.50	16142.67
487.68	16334.60
487.85	16233.96
488.03	16498.44
488.21	16648.23
488.39	16851.86
488.57	16847.18
488.75	16823.77
488.92	17207.62
489.10	17270.81
489.28	17654.66
489.46	17762.33
489.64	17507.21
489.81	17818.50
489.99	17914.46
490.17	18251.50
490.35	18277.24
490.53	18532.36
490.70	18441.08
490.88	18263.20
491.06	18712.58
491.24	18520.66
491.41	18633.00
491.59	18911.53
491.77	18963.02
491.95	18754.71
492.13	19316.44
492.30	19510.71
492.48	19351.55
492.66	19913.28
492.84	19456.87
493.01	19655.82
493.19	19758.80
493.37	20147.33
493.54	20065.41
493.72	20119.24
493.90	20372.02
494.08	20360.32
494.25	20517.14
494.43	20648.21
494.61	21085.89
494.79	20744.17
494.96	20929.07
495.14	21146.74
495.32	21432.29
495.49	21429.94
495.67	21577.40
495.85	21722.51
496.02	21589.10
496.20	21898.05
496.38	21893.37
496.55	22064.23
496.73	22642.34
496.91	22345.09
497.09	22558.08
497.26	22700.86
497.44	22834.27
497.62	22686.81
497.79	22904.48
497.97	22600.21
498.14	22747.67
498.32	23332.80
498.50	23241.52
498.67	23580.90
498.85	23309.40
499.03	23950.70
499.20	23779.84
499.38	23513.02
499.56	24135.60
499.73	24163.69
499.91	24006.87
500.08	24240.93
500.26	23981.13
500.44	23868.78
500.61	24240.93
500.79	24180.07
500.97	24542.86
501.14	24830.74
501.32	24650.52
501.49	24725.42
501.67	25053.09
501.84	24931.39
502.02	25165.44
502.20	25340.98
502.37	25298.85
502.55	25537.59
502.72	25062.46
502.90	25544.61
503.07	25427.58
503.25	25624.18
503.43	25390.13
503.60	25898.03
503.78	25930.80
503.95	26171.87
504.13	25654.61
504.30	25898.03
504.48	26099.31
504.65	26459.76
504.83	26466.78
505.01	26553.38
505.18	26338.05
505.36	26876.37
505.53	26501.89
505.71	26754.66
505.88	26799.13
506.06	26525.29
506.23	27321.07
506.41	26764.03
506.58	27124.47
506.76	27192.34
506.93	27297.67
507.11	27150.21
507.28	27477.89
507.46	27800.88
507.63	27538.74
507.81	27871.10
507.98	27524.70
508.16	28006.85
508.33	27946.00
508.50	27828.97
508.68	28397.72
508.85	28301.76
509.03	28292.40
509.20	28678.58
509.38	28645.82
509.55	28290.06
509.73	28793.27
509.90	28451.55
510.08	28802.63
510.25	28517.09
510.42	28914.98
510.60	28886.89
510.77	29172.44
510.95	29322.23
511.12	29151.37
511.30	29364.36
511.47	29385.43
511.64	29481.39
511.82	29699.06
511.99	29083.50
512.17	29558.63
512.34	29481.39
512.51	30045.46
512.69	29855.87
512.86	30043.12
513.04	30108.65
513.21	30216.32
513.38	30181.21
513.56	30202.27
513.73	29881.62
513.90	30476.12
514.08	30024.39
514.25	30251.42
514.43	30331.00
514.60	30742.94
514.77	30878.69
514.95	31065.93
515.12	30735.92
515.29	30890.39
515.47	30969.97
515.64	31201.68
515.81	31386.58
515.99	31131.47
516.16	31417.01
516.33	31243.81
516.51	31409.99
516.68	31325.73
516.85	31388.92
517.03	31711.92
517.20	31522.34
517.37	31466.16
517.54	31786.82
517.72	31924.91
517.89	31594.89
518.06	31901.50
518.24	31852.35
518.41	31749.37
518.58	32058.32
518.75	32037.25
518.93	32212.79
519.10	32449.19
519.27	32561.53
519.45	32327.48
519.62	32851.76
519.79	32870.48
519.96	32975.81
520.14	32938.36
520.31	32577.92
520.48	32804.95
520.65	32762.82
520.83	33350.29
521.00	33268.37
521.17	32905.59
521.34	32912.61
521.52	33319.87
521.69	33256.67
521.86	33752.87
522.03	33259.01
522.20	33912.02
522.38	33851.17
522.55	34022.03
522.72	33902.66
522.89	34162.46
523.07	33771.59
523.24	33689.67
523.41	33989.26
523.58	33909.68
523.75	34054.79
523.92	34700.78
524.10	34305.23
524.27	34536.94
524.44	34543.97
524.61	34850.58
524.78	34649.29
524.96	34934.84
525.13	35028.46
525.30	35042.50
525.47	35325.71
525.64	35033.14
525.81	34796.74
525.98	34923.13
526.16	34822.49
526.33	34981.65
526.50	35681.47
526.67	34993.35
526.84	35159.53
527.01	35089.31
527.18	35136.12
527.36	35611.25
527.53	35730.62
527.70	35861.69
527.87	35449.75
528.04	35737.64
528.21	35688.49
528.38	35697.85
528.55	36067.66
528.72	35880.41
528.89	36273.62
529.07	36215.11
529.24	35887.43
529.41	36133.19
529.58	36119.15
529.75	36212.77
529.92	35908.50
530.09	35887.43
530.26	36730.03
530.43	36627.04
530.60	36290.01
530.77	36762.79
530.94	36643.43
531.11	36383.63
531.28	36446.82
531.46	36685.56
531.63	36711.30
531.80	36793.22
531.97	36746.41
532.14	36823.65
532.31	36383.63
532.48	37186.43
532.65	36950.04
532.82	36978.12
532.99	37528.15
533.16	37294.10
533.33	36921.95
533.50	37504.74
533.67	37308.14
533.84	37439.21
534.01	37221.54
534.18	37474.32
534.35	37741.14
534.52	37207.50
534.69	37539.85
534.86	38038.39
535.03	37483.68
535.20	38146.05
535.37	37909.66
535.54	38361.38
535.71	38066.47
535.88	37745.82
536.05	37607.73
536.22	38026.68
536.38	38047.75
536.55	38361.38
536.72	38569.69
536.89	37574.96
537.06	38398.83
537.23	38469.04
537.40	38080.52
537.57	38251.38
537.74	38225.63
537.91	38574.37
538.08	38574.37
538.25	38174.14
538.42	39035.45
538.59	38719.48
538.75	38597.77
538.92	38473.73
539.09	38967.58
539.26	38988.64
539.43	38918.43
539.60	38614.16
539.77	38820.13
539.94	39281.21
540.11	38944.17
540.28	39299.94
540.44	38838.85
540.61	38745.23
540.78	39044.82
540.95	39342.06
541.12	38810.76
541.29	39143.12
541.46	39234.40
541.62	39557.39
541.79	39400.58
541.96	38878.64
542.13	39423.98
542.30	39323.34
542.47	39093.97
542.63	39487.18
542.80	39779.74
542.97	39655.70
543.14	40142.53
543.31	40151.89
543.48	40245.51
543.64	40802.56
543.81	40250.19
543.98	40215.08
544.15	40458.50
544.32	40439.78
544.48	39917.84
544.65	40362.54
544.82	40540.42
544.99	39887.41
545.16	40376.58
545.32	40650.42
545.49	40828.30
545.66	40781.49
545.83	40495.95
546.00	40545.10
546.16	41045.97
546.33	40460.84
546.50	40402.33
546.67	40591.91
546.83	40793.20
547.00	40854.05
547.17	40921.93
547.34	41057.68
547.50	40884.48
547.67	41071.72
547.84	40823.62
548.00	41120.87
548.17	41415.78
548.34	41226.20
548.51	41235.56
548.67	41443.87
548.84	41633.45
549.01	40952.35
549.18	40657.45
549.34	41254.28
549.51	41794.95
549.68	41427.48
549.84	41617.07
550.01	41736.43
550.18	41277.69
550.34	41340.88
550.51	41516.42
550.68	41537.49
550.84	41291.73
551.01	42080.49
551.18	41579.62
551.34	41818.35
551.51	41825.37
551.68	41610.04
551.84	41731.75
552.01	41570.25
552.18	41930.70
552.34	41600.68
552.51	42143.69
552.68	41846.44
552.84	42312.20
553.01	42256.03
553.18	42073.47
553.34	41947.08
553.51	41736.43
553.67	42064.11
553.84	42422.21
554.01	42576.69
554.17	42672.65
554.34	42227.95
554.51	42288.80
554.67	42504.13
554.84	42337.95
555.00	42249.01
555.17	42157.73
555.33	42478.38
555.50	42642.22
555.67	42342.63
555.83	42457.32
556.00	42717.12
556.16	42885.64
556.33	42752.23
556.50	42639.88
556.66	42581.37
556.83	42555.62
556.99	42911.38
557.16	43138.41
557.32	42927.77
557.49	42885.64
557.65	42808.40
557.82	42211.56
557.98	42770.95
558.15	42429.23
558.32	42904.36
558.48	42792.01
558.65	43030.75
558.81	42972.24
558.98	42855.21
559.14	43145.44
559.31	42930.11
559.47	42777.97
559.64	43283.53
559.80	43147.78
559.97	42770.95
560.13	42955.85
560.30	43063.52
560.46	43009.68
560.63	43086.92
560.79	43112.67
560.96	43620.56
561.12	43283.53
561.29	43423.96
561.45	42836.48
561.61	43388.85
561.78	43328.00
561.94	43468.43
562.11	43056.50
562.27	43021.39
562.44	43442.68
562.60	43299.91
562.77	43618.22
562.93	43086.92
563.10	44018.46
563.26	43194.59
563.42	43496.52
563.59	42979.26
563.75	43346.72
563.92	43576.09
564.08	43522.26
564.24	43569.07
564.41	43707.16
564.57	43756.32
564.74	43859.30
564.90	43683.76
565.07	43543.33
565.23	43576.09
565.39	43154.80
565.56	43665.03
565.72	43519.92
565.88	43782.06
566.05	43611.20
566.21	43484.81
566.38	43519.92
566.54	43821.85
566.70	43690.78
566.87	43758.66
567.03	43828.87
567.19	43892.07
567.36	43915.47
567.52	43395.87
567.68	44264.21
567.85	43599.50
568.01	43634.61
568.17	43779.72
568.34	44027.82
568.50	43934.20
568.66	43826.53
568.83	44058.24
568.99	43704.82
569.15	44163.57
569.32	43728.23
569.48	43566.73
569.64	43950.58
569.81	44163.57
569.97	43817.17
570.13	44081.65
570.30	43896.75
570.46	43800.79
570.62	43821.85
570.78	43896.75
570.95	43721.21
571.11	44095.69
571.27	43749.29
571.43	44156.55
571.60	44343.79
571.76	43842.92
571.92	44044.20
572.09	44095.69
572.25	43798.44
572.41	43580.78
572.57	43934.20
572.74	44296.98
572.90	44292.30
573.06	44369.54
573.22	44280.60
573.38	44282.94
573.55	43599.50
573.71	44189.31
573.87	44205.70
574.03	43936.54
574.20	44355.49
574.36	44053.56
574.52	44715.93
574.68	44079.31
574.84	44238.47
575.01	44334.43
575.17	44383.58
575.33	44243.15
575.49	44135.48
575.65	44561.46
575.82	44830.62
575.98	44266.55
576.14	44793.17
576.30	44535.71
576.46	44252.51
576.62	43988.03
576.79	44540.39
576.95	43959.94
577.11	44123.78
577.27	44252.51
577.43	44612.95
577.59	44488.90
577.75	44053.56
577.92	44308.68
578.08	44149.53
578.24	44280.60
578.40	44287.62
578.56	44395.28
578.72	44189.31
578.88	44715.93
579.04	44301.66
579.21	43952.92
579.37	44282.94
579.53	44582.52
579.69	43934.20
579.85	44432.73
580.01	44428.05
580.17	44210.38
580.33	44397.62
580.49	44245.49
580.65	43866.32
580.82	44154.21
580.98	44418.69
581.14	44236.12
581.30	44421.03
581.46	44296.98
581.62	44388.26
581.78	44030.16
581.94	44699.55
582.10	44280.60
582.26	44577.84
582.42	44315.70
582.58	44119.10
582.74	44264.21
582.90	44636.36
583.06	44491.24
583.22	44336.77
583.38	44505.29
583.54	44526.35
583.70	44105.06
583.86	44566.14
584.02	44229.10
584.18	44676.15
584.34	44779.13
584.50	44392.94
584.66	44577.84
584.82	43969.30
584.98	44418.69
585.14	44638.70
585.30	44376.56
585.46	44350.81
585.62	44266.55
585.78	44439.75
585.94	44048.88
586.10	44315.70
586.26	44144.84
586.42	44685.51
586.58	44629.34
586.74	44542.74
586.90	44479.54
587.06	44418.69
587.22	44987.44
587.38	44222.08
587.54	44854.03
587.70	44886.79
587.86	44507.63
588.02	44353.15
588.18	44680.83
588.34	44622.31
588.49	44301.66
588.65	44275.91
588.81	44273.57
588.97	44605.93
589.13	44397.62
589.29	44533.37
589.45	44622.31
589.61	44783.81
589.77	44863.39
589.93	44556.78
590.08	44538.05
590.24	44594.23
590.40	44495.92
