SpectraSuite Data File
++++++++++++++++++++++++++++++++++++
Date: Fri Oct 25 10:44:17 EDT 2013
User: price-jones
Dark Spectrum Present: No
Reference Spectrum Present: No
Number of Sampled Component Spectra: 1
Spectrometers: USB2+H05261
Integration Time (usec): 100000 (USB2+H05261)
Spectra Averaged: 1 (USB2+H05261)
Boxcar Smoothing: 0 (USB2+H05261)
Correct for Electrical Dark: No (USB2+H05261)
Strobe/Lamp Enabled: No (USB2+H05261)
Correct for Detector Non-linearity: No (USB2+H05261)
Correct for Stray Light: No (USB2+H05261)
Number of Pixels in Processed Spectrum: 2048
>>>>>Begin Processed Spectral Data<<<<<
365.73	182.56
365.92	182.56
366.12	182.56
366.32	79.58
366.52	0.00
366.72	23.41
366.91	0.00
367.11	70.22
367.31	49.15
367.51	74.90
367.70	81.92
367.90	9.36
368.10	49.15
368.30	77.24
368.49	44.47
368.69	70.22
368.89	35.11
369.09	0.00
369.28	16.38
369.48	131.07
369.68	46.81
369.87	72.56
370.07	131.07
370.27	142.77
370.47	166.18
370.66	372.15
370.86	465.77
371.06	498.53
371.25	465.77
371.45	482.15
371.65	489.17
371.84	442.36
372.04	535.98
372.24	458.74
372.44	507.90
372.63	543.00
372.83	517.26
373.03	489.17
373.22	540.66
373.42	491.51
373.62	559.39
373.81	643.65
374.01	620.24
374.21	594.50
374.40	493.85
374.60	552.37
374.79	517.26
374.99	566.41
375.19	571.09
375.38	571.09
375.58	585.13
375.78	587.47
375.97	622.58
376.17	664.71
376.37	566.41
376.56	528.96
376.76	631.94
376.95	599.18
377.15	645.99
377.35	683.44
377.54	671.73
377.74	720.88
377.93	643.65
378.13	667.05
378.33	716.20
378.52	620.24
378.72	641.31
378.91	655.35
379.11	690.46
379.31	641.31
379.50	702.16
379.70	643.65
379.89	641.31
380.09	662.37
380.28	681.10
380.48	664.71
380.68	716.20
380.87	643.65
381.07	751.31
381.26	765.36
381.46	678.76
381.65	706.84
381.85	732.59
382.04	692.80
382.24	746.63
382.43	805.14
382.63	697.48
382.83	784.08
383.02	704.50
383.22	704.50
383.41	723.23
383.61	706.84
383.80	739.61
384.00	753.65
384.19	779.40
384.39	770.04
384.58	868.34
384.78	755.99
384.97	725.57
385.17	851.96
385.36	777.06
385.56	830.89
385.75	823.87
385.95	856.64
386.14	826.21
386.34	781.74
386.53	814.51
386.72	812.17
386.92	868.34
387.11	821.53
387.31	847.27
387.50	793.44
387.70	807.48
387.89	875.36
388.09	809.83
388.28	814.51
388.48	898.77
388.67	973.66
388.86	901.11
389.06	889.40
389.25	936.21
389.45	1109.41
389.64	1015.79
389.84	940.90
390.03	1034.52
390.22	999.41
390.42	968.98
390.61	957.28
390.81	961.96
391.00	1034.52
391.19	1107.07
391.39	1029.84
391.58	1043.88
391.78	1046.22
391.97	997.07
392.16	1071.97
392.36	1100.05
392.55	1071.97
392.75	936.21
392.94	950.26
393.13	964.30
393.33	1022.81
393.52	1076.65
393.71	1151.54
393.91	1153.88
394.10	1097.71
394.29	1172.61
394.49	1179.63
394.68	1261.55
394.88	1219.42
395.07	1266.23
395.26	1158.57
395.46	1224.10
395.65	1242.82
395.84	1231.12
396.04	1184.31
396.23	1170.27
396.42	1198.35
396.62	1198.35
396.81	1289.64
397.00	1231.12
397.19	1275.59
397.39	1343.47
397.58	1460.49
397.77	1502.62
397.97	1416.02
398.16	1413.68
398.35	1462.83
398.55	1345.81
398.74	1387.94
398.93	1500.28
399.12	1462.83
399.32	1467.52
399.51	1516.67
399.70	1507.30
399.90	1521.35
400.09	1675.82
400.28	1673.48
400.47	1600.93
400.67	1614.97
400.86	1720.29
401.05	1654.76
401.24	1626.67
401.44	1743.70
401.63	1834.98
401.82	1750.72
402.01	1757.74
402.21	1893.49
402.40	1802.21
402.59	1701.57
402.78	1755.40
402.97	1799.87
403.17	1860.73
403.36	1783.49
403.55	1884.13
403.74	1902.86
403.93	1783.49
404.13	1870.09
404.32	1799.87
404.51	1851.36
404.70	1900.52
404.89	1844.34
405.09	1975.41
405.28	1928.60
405.47	1998.82
405.66	1984.77
405.85	2059.67
406.05	1816.26
406.24	1982.43
406.43	1989.46
406.62	2010.52
406.81	2087.76
407.00	1973.07
407.20	1952.01
407.39	1975.41
407.58	2125.21
407.77	2258.62
407.96	2186.06
408.15	2172.02
408.34	2263.30
408.54	2277.34
408.73	2251.60
408.92	2277.34
409.11	2305.43
409.30	2335.85
409.49	2403.73
409.68	2260.96
409.87	2293.72
410.07	2260.96
410.26	2298.41
410.45	2445.86
410.64	2464.58
410.83	2516.08
411.02	2532.46
411.21	2588.63
411.40	2471.61
411.59	2640.12
411.78	2663.53
411.98	2605.02
412.17	2708.00
412.36	2696.30
412.55	2649.49
412.74	2754.81
412.93	2836.73
413.12	2626.08
413.31	2818.00
413.50	2869.50
413.69	2874.18
413.88	3007.59
414.07	2855.45
414.26	2902.26
414.45	2878.86
414.64	2979.50
414.83	3056.74
415.02	3091.85
415.22	3030.99
415.41	3075.46
415.60	3234.62
415.79	3211.22
415.98	3267.39
416.17	3190.15
416.36	3155.04
416.55	3353.99
416.74	3337.60
416.93	3281.43
417.12	3267.39
417.31	3318.88
417.50	3417.18
417.69	3513.14
417.88	3492.08
418.07	3356.33
418.26	3351.65
418.45	3431.23
418.64	3562.30
418.83	3449.95
419.02	3623.15
419.21	3578.68
419.39	3616.13
419.58	3440.59
419.77	3510.80
419.96	3564.64
420.15	3791.67
420.34	3651.24
420.53	3838.48
420.72	3754.22
420.91	3967.21
421.10	3852.52
421.29	3822.09
421.48	3740.18
421.67	3882.95
421.86	3838.48
422.05	3861.88
422.24	3768.26
422.43	3691.02
422.61	3815.07
422.80	3976.57
422.99	3854.86
423.18	3885.29
423.37	3875.93
423.56	3929.76
423.75	3943.80
423.94	3756.56
424.13	3618.47
424.32	3878.27
424.50	3983.59
424.69	3946.14
424.88	4016.36
425.07	3918.06
425.26	3957.85
425.45	3906.35
425.64	3955.51
425.83	4037.42
426.01	4091.26
426.20	3927.42
426.39	4004.66
426.58	3948.48
426.77	3939.12
426.96	4121.68
427.15	3873.59
427.33	4063.17
427.52	3992.95
427.71	4191.90
427.90	4170.83
428.09	4287.86
428.28	4088.92
428.46	4147.43
428.65	4053.81
428.84	4201.26
429.03	4353.40
429.22	4138.07
429.40	4032.74
429.59	4039.76
429.78	3976.57
429.97	3885.29
430.16	4100.62
430.34	4138.07
430.53	4182.54
430.72	4245.73
430.91	4276.16
431.10	4201.26
431.28	4559.36
431.47	4596.81
431.66	4699.80
431.85	4507.87
432.03	4716.18
432.22	4709.16
432.41	4550.00
432.60	4844.91
432.79	4695.11
432.97	4615.54
433.16	4704.48
433.35	4631.92
433.54	4568.73
433.72	4683.41
433.91	4571.07
434.10	4730.22
434.28	4814.48
434.47	4760.65
434.66	4912.78
434.85	5041.51
435.03	5008.75
435.22	5060.24
435.41	5247.48
435.59	5025.13
435.78	4947.89
435.97	5050.88
436.16	4968.96
436.34	5212.37
436.53	5078.96
436.72	5313.02
436.90	4987.68
437.09	5179.61
437.28	5074.28
437.46	5085.98
437.65	5228.76
437.84	5177.26
438.02	5018.11
438.21	5036.83
438.40	5135.14
438.58	5434.72
438.77	5423.02
438.96	5490.90
439.14	5547.07
439.33	5589.20
439.52	5713.25
439.70	5675.80
439.89	5678.14
440.08	5750.70
440.26	5694.52
440.45	5638.35
440.63	5764.74
440.82	5951.98
441.01	5905.17
441.19	5844.32
441.38	5893.47
441.57	5881.77
441.75	6003.47
441.94	6303.06
442.12	6286.68
442.31	6335.83
442.50	6286.68
442.68	6289.02
442.87	6270.30
443.05	6186.04
443.24	6544.14
443.43	6363.92
443.61	6399.02
443.80	6628.40
443.98	6291.36
444.17	6354.55
444.35	6478.60
444.54	6621.38
444.73	6511.37
444.91	6586.27
445.10	6569.88
445.28	6434.13
445.47	6384.98
445.65	6431.79
445.84	6483.28
446.02	6494.99
446.21	6502.01
446.39	6635.42
446.58	6635.42
446.77	6649.46
446.95	6612.01
447.14	6686.91
447.32	6836.70
447.51	6665.85
447.69	6576.91
447.88	6661.16
448.06	6600.31
448.25	6839.05
448.43	6827.34
448.62	6518.39
448.80	6733.72
448.99	6848.41
449.17	6876.49
449.36	6883.52
449.54	7117.57
449.73	7234.60
449.91	7143.32
450.10	7183.10
450.28	7080.12
450.46	7225.23
450.65	7288.43
450.83	7211.19
451.02	7180.76
451.20	7061.40
451.39	7197.15
451.57	7339.92
451.76	7162.04
451.94	7225.23
452.13	7246.30
452.31	7246.30
452.49	7110.55
452.68	7246.30
452.86	7344.60
453.05	7339.92
453.23	7279.07
453.42	7293.11
453.60	7274.38
453.78	7559.93
453.97	7470.99
454.15	7389.07
454.34	7543.55
454.52	7524.82
454.70	7517.80
454.89	7468.65
455.07	7552.91
455.26	7595.04
455.44	7602.06
455.62	7765.90
455.81	7768.24
455.99	7747.17
456.17	7819.73
456.36	7925.05
456.54	7943.78
456.73	7983.57
456.91	8182.51
457.09	8128.68
457.28	8175.49
457.46	8229.32
457.64	8271.45
457.83	7953.14
458.01	7992.93
458.19	8245.71
458.38	8109.96
458.56	8262.09
458.74	8241.03
458.93	8079.53
459.11	8168.47
459.29	8025.70
459.48	8437.63
459.66	8315.92
459.84	8170.81
460.03	8667.00
460.21	8725.52
460.39	8383.80
460.57	8339.33
460.76	8641.26
460.94	8580.40
461.12	8709.13
461.31	8601.47
461.49	8791.05
461.67	8777.01
461.85	8872.97
462.04	8936.17
462.22	9083.62
462.40	9027.45
462.59	8877.65
462.77	8952.55
462.95	8711.47
463.13	8968.93
463.32	9006.38
463.50	9046.17
463.68	8966.59
463.86	9039.15
464.05	8826.16
464.23	9015.74
464.41	8971.27
464.59	8994.68
464.78	9179.58
464.96	9104.68
465.14	9048.51
465.32	9266.18
465.50	9247.46
465.69	9287.25
465.87	9060.21
466.05	9177.24
466.23	9320.01
466.41	9151.49
466.60	9387.89
466.78	9139.79
466.96	9046.17
467.14	9320.01
467.32	9385.55
467.51	9434.70
467.69	9242.78
467.87	9460.45
468.05	9542.36
468.23	9355.12
468.41	9437.04
468.60	9650.03
468.78	9708.54
468.96	9582.15
469.14	9900.47
469.32	9846.63
469.50	9376.19
469.69	9682.80
469.87	9916.85
470.05	9811.53
470.23	9923.87
470.41	9898.13
470.59	10001.11
470.77	9935.57
470.95	10101.75
471.14	10270.27
471.32	10129.84
471.50	10347.51
471.68	10389.64
471.86	10097.07
472.04	10366.23
472.22	10721.99
472.40	10380.28
472.58	10551.14
472.77	10438.79
472.95	10658.80
473.13	11162.01
473.31	10434.11
473.49	10686.89
473.67	10789.87
473.85	10808.59
474.03	11035.63
474.21	11218.19
474.39	11019.24
474.57	11279.04
474.75	11087.12
474.93	11180.74
475.12	11375.00
475.30	11330.53
475.48	11227.55
475.66	11243.93
475.84	11332.87
476.02	11524.80
476.20	11419.47
476.38	11417.13
476.56	11782.26
476.74	11609.06
476.92	11733.11
477.10	11838.43
477.28	12056.10
477.46	12203.55
477.64	12147.38
477.82	12468.03
478.00	12772.30
478.18	12601.44
478.36	12608.47
478.54	12596.76
478.72	12870.61
478.90	12929.12
479.08	12896.35
479.26	13289.56
479.44	13036.78
479.62	13212.32
479.80	13256.79
479.98	13448.72
480.16	13631.28
480.34	13518.93
480.52	13731.92
480.70	14026.83
480.88	13706.18
481.06	13977.68
481.24	14001.08
481.41	14384.93
481.59	14448.13
481.77	14441.11
481.95	14532.39
482.13	14668.14
482.31	14721.97
482.49	14827.29
482.67	14766.44
482.85	14754.74
483.03	15180.71
483.21	15419.45
483.39	15316.47
483.57	15236.89
483.74	15449.88
483.92	15674.57
484.10	15571.58
484.28	16011.60
484.46	16032.67
484.64	16444.60
484.82	15948.41
485.00	16353.32
485.18	16615.46
485.35	16468.01
485.53	16402.47
485.71	16374.39
485.89	16617.80
486.07	16449.28
486.25	16678.66
486.43	16786.32
486.61	17383.16
486.78	17238.05
486.96	17502.53
487.14	17647.64
487.32	17813.82
487.50	17963.61
487.68	18136.81
487.85	18513.64
488.03	18754.71
488.21	18820.25
488.39	18520.66
488.57	18611.94
488.75	18923.23
488.92	19250.91
489.10	19374.95
489.28	19552.84
489.46	19943.70
489.64	19559.86
489.81	20397.77
489.99	20367.34
490.17	20063.07
490.35	20369.68
490.53	20423.51
490.70	20744.17
490.88	20086.48
491.06	20790.98
491.24	20919.71
491.41	20879.92
491.59	20999.29
491.77	20592.03
491.95	21308.24
492.13	21343.35
492.30	21591.44
492.48	21432.29
492.66	21687.40
492.84	21975.29
493.01	22075.93
493.19	21923.80
493.37	22485.53
493.54	22419.99
493.72	22735.96
493.90	22483.19
494.08	22813.20
494.25	23049.60
494.43	23070.66
494.61	23527.06
494.79	23534.09
494.96	23845.38
495.14	23515.36
495.32	23714.31
495.49	23779.84
495.67	23786.86
495.85	24372.00
496.02	24105.18
496.20	24474.98
496.38	24364.98
496.55	24716.06
496.73	25006.28
496.91	24732.44
497.09	25006.28
497.26	25362.04
497.44	25064.80
497.62	25287.15
497.79	25476.73
497.97	25226.29
498.14	25240.34
498.32	25556.31
498.50	25516.52
498.67	26319.32
498.85	26324.01
499.03	26345.07
499.20	26258.47
499.38	26260.81
499.56	26705.51
499.73	26555.72
499.91	26061.87
500.08	26871.69
500.26	26536.99
500.44	26792.11
500.61	26848.29
500.79	26548.70
500.97	26948.93
501.14	27171.28
501.32	26913.82
501.49	27082.34
501.67	27159.58
501.84	27658.11
502.02	27468.53
502.20	27782.16
502.37	28044.30
502.55	27513.00
502.72	27948.34
502.90	28137.92
503.07	27814.93
503.25	28121.54
503.43	28142.60
503.60	28322.82
503.78	28568.58
503.95	28390.70
504.13	28507.72
504.30	28608.37
504.48	28554.54
504.65	29308.19
504.83	28788.59
505.01	29277.76
505.18	29596.07
505.36	29469.69
505.53	29563.31
505.71	29813.74
505.88	29947.15
506.06	29315.21
506.23	29844.17
506.41	29699.06
506.58	29816.08
506.76	29722.46
506.93	30319.30
507.11	29736.51
507.28	30206.95
507.46	30038.44
507.63	30511.22
507.81	30251.42
507.98	30160.14
508.16	30459.73
508.33	30976.99
508.50	30726.55
508.68	31192.32
508.85	31421.69
509.03	31185.30
509.20	31463.82
509.38	31220.41
509.55	31449.78
509.73	31332.75
509.90	31426.37
510.08	31409.99
510.25	31386.58
510.42	31417.01
510.60	31606.59
510.77	32105.13
510.95	32051.30
511.12	32322.80
511.30	32224.50
511.47	32531.11
511.64	32205.77
511.82	32720.69
511.99	32215.13
512.17	32554.51
512.34	32081.72
512.51	32816.65
512.69	32748.78
512.86	32947.72
513.04	33062.41
513.21	33394.76
513.38	32755.80
513.56	33027.30
513.73	32804.95
513.90	33273.06
514.08	33247.31
514.25	33284.76
514.43	33296.46
514.60	33460.30
514.77	33209.86
514.95	33591.37
515.12	33900.32
515.29	33387.74
515.47	34178.84
515.64	34141.39
515.81	33912.02
515.99	33787.97
516.16	33551.58
516.33	33841.81
516.51	33350.29
516.68	33584.35
516.85	33457.96
517.03	33579.67
517.20	34139.05
517.37	34515.88
517.54	34082.88
517.72	34443.32
517.89	33902.66
518.06	34387.15
518.24	34206.93
518.41	34642.27
518.58	34623.54
518.75	34125.01
518.93	34939.52
519.10	34892.71
519.27	34855.26
519.45	35019.10
519.62	35157.19
519.79	35323.36
519.96	35063.57
520.14	35524.65
520.31	35253.15
520.48	35175.91
520.65	35545.72
520.83	35597.21
521.00	35859.35
521.17	36060.63
521.34	36318.09
521.52	36268.94
521.69	36500.65
521.86	36208.09
522.03	36414.05
522.20	36318.09
522.38	36371.92
522.55	36594.28
522.72	36542.78
522.89	36577.89
523.07	36673.85
523.24	36638.75
523.41	37015.57
523.58	37167.71
523.75	37251.97
523.92	37523.47
524.10	37326.86
524.27	37677.94
524.44	37530.49
524.61	37240.26
524.78	37509.43
524.96	38094.56
525.13	37612.41
525.30	38190.52
525.47	38174.14
525.64	37703.69
525.81	37890.93
525.98	37619.43
526.16	37848.80
526.33	37282.39
526.50	37860.51
526.67	37284.73
526.84	37825.40
527.01	37570.28
527.18	37748.16
527.36	38499.47
527.53	38504.15
527.70	38398.83
527.87	38256.06
528.04	38242.01
528.21	38604.80
528.38	38167.12
528.55	39161.84
528.72	38824.81
528.89	39526.97
529.07	38946.51
529.24	39042.48
529.41	38462.02
529.58	38962.90
529.75	38307.55
529.92	39328.02
530.09	39269.51
530.26	39407.60
530.43	39431.01
530.60	39739.96
530.77	39292.91
530.94	39435.69
531.11	39639.31
531.28	39941.24
531.46	39494.20
531.63	39789.11
531.80	39618.25
531.97	39360.79
532.14	39306.96
532.31	39281.21
532.48	39821.87
532.65	39810.17
532.82	39746.98
532.99	39793.79
533.16	40172.96
533.33	40533.40
533.50	40622.34
533.67	40311.05
533.84	40140.19
534.01	40273.60
534.18	39777.40
534.35	40563.82
534.52	40552.12
534.69	40837.67
534.86	40638.72
535.03	40739.36
535.20	40931.29
535.37	41020.23
535.54	40797.88
535.71	40601.27
535.88	41099.81
536.05	40657.45
536.22	40950.01
536.38	41022.57
536.55	41336.20
536.72	40882.14
536.89	40463.18
537.06	41123.21
537.23	40938.31
537.40	41022.57
537.57	41237.90
537.74	41493.02
537.91	41670.90
538.08	41078.74
538.25	41504.72
538.42	41361.95
538.59	41626.43
538.75	40940.65
538.92	41539.83
539.09	41701.32
539.26	41605.36
539.43	41689.62
539.60	41261.30
539.77	41357.27
539.94	41525.78
540.11	41116.19
540.28	41869.84
540.44	41212.15
540.61	41654.51
540.78	41816.01
540.95	41490.68
541.12	41930.70
541.29	41825.37
541.46	41794.95
541.62	41694.30
541.79	42185.82
541.96	41897.93
542.13	42337.95
542.30	42429.23
542.47	42220.92
542.63	42096.88
542.80	42693.71
542.97	42492.43
543.14	42724.14
543.31	42731.16
543.48	42841.17
543.64	43126.71
543.81	42948.83
543.98	43129.05
544.15	42550.94
544.32	43454.39
544.48	43271.82
544.65	42916.06
544.82	42920.74
544.99	42960.53
545.16	43325.66
545.32	43124.37
545.49	43927.17
545.66	43267.14
545.83	43426.30
546.00	43449.70
546.16	43557.37
546.33	43269.48
546.50	42962.87
546.67	43461.41
546.83	42941.81
547.00	43503.54
547.17	43129.05
547.34	43798.44
547.50	43753.97
547.67	43674.40
547.84	43557.37
548.00	43978.67
548.17	44114.42
548.34	43517.58
548.51	44311.02
548.67	44769.77
548.84	44168.25
549.01	43962.28
549.18	44032.50
549.34	43971.64
549.51	44301.66
549.68	44315.70
549.84	44170.59
550.01	44428.05
550.18	44278.25
550.34	43817.17
550.51	44371.88
550.68	44315.70
550.84	43908.45
551.01	44378.90
551.18	44502.95
551.34	43992.71
551.51	44608.27
551.68	44612.95
551.84	44219.74
552.01	44626.99
552.18	44566.14
552.34	44348.47
552.51	44458.48
552.68	44479.54
552.84	44788.49
553.01	44877.43
553.18	44570.82
553.34	44554.44
553.51	44334.43
553.67	44701.89
553.84	44786.15
554.01	44835.30
554.17	44865.73
554.34	44968.71
554.51	44949.99
554.67	44706.57
554.84	44938.29
555.00	44580.18
555.17	44399.96
555.33	44814.24
555.50	44598.91
555.67	44729.98
555.83	44666.78
556.00	45001.48
556.16	45528.10
556.33	45123.19
556.50	44928.92
556.66	45001.48
556.83	45085.74
556.99	45235.53
557.16	45146.59
557.32	45359.58
557.49	44926.58
557.65	44886.79
557.82	45184.04
557.98	45340.86
558.15	44804.88
558.32	45509.38
558.48	45172.34
558.65	45216.81
558.81	45041.27
558.98	45219.15
559.14	44987.44
559.31	45448.52
559.47	45170.00
559.64	45785.56
559.80	45457.88
559.97	45565.55
560.13	45378.31
560.30	45235.53
560.46	45544.48
560.63	45701.30
560.79	46061.74
560.96	45808.96
561.12	45762.15
561.29	45830.03
561.45	45825.35
561.61	45268.30
561.78	45605.34
561.94	45404.05
562.11	45645.13
562.27	45521.08
562.44	45652.15
562.60	45607.68
562.77	45925.99
562.93	45567.89
563.10	46344.95
563.26	45434.48
563.42	45844.07
563.59	45811.31
563.75	46043.02
563.92	45963.44
564.08	46167.07
564.24	45963.44
564.41	45748.11
564.57	45525.76
564.74	45488.31
564.90	45811.31
565.07	45787.90
565.23	46054.72
565.39	46087.49
565.56	46171.75
565.72	45556.19
565.88	45626.40
566.05	45832.37
566.21	45514.06
566.38	45750.45
566.54	45937.69
566.70	45963.44
566.87	46064.08
567.03	45551.51
567.19	46195.15
567.36	46225.58
567.52	45773.86
567.68	45918.97
567.85	45933.01
568.01	46122.60
568.17	45914.29
568.34	46337.93
568.50	45764.49
568.66	46216.22
568.83	46202.18
568.99	45766.84
569.15	46085.15
569.32	46026.63
569.48	45745.77
569.64	46064.08
569.81	46127.28
569.97	45729.39
570.13	46026.63
570.30	46071.10
570.46	45823.01
570.62	46050.04
570.78	46075.79
570.95	45677.90
571.11	46202.18
571.27	45933.01
571.43	46129.62
571.60	46045.36
571.76	46019.61
571.92	46274.73
572.09	45977.48
572.25	46073.45
572.41	46024.29
572.57	45954.08
572.74	46611.77
572.90	46681.98
573.06	46202.18
573.22	46396.44
573.38	46136.64
573.55	45918.97
573.71	46787.31
573.87	46160.05
574.03	46122.60
574.20	46031.32
574.36	46033.66
574.52	46101.53
574.68	46164.73
574.84	46274.73
575.01	46050.04
575.17	46335.59
575.33	45848.75
575.49	46286.43
575.65	46319.20
575.82	46307.50
575.98	46167.07
576.14	46534.53
576.30	46799.01
576.46	46267.71
576.62	46157.70
576.79	46232.60
576.95	45928.33
577.11	45869.82
577.27	46178.77
577.43	46433.89
577.59	45940.04
577.75	46061.74
577.92	45940.04
578.08	45860.46
578.24	45954.08
578.40	46169.41
578.56	46293.46
578.72	45855.78
578.88	46630.49
579.04	46213.88
579.21	45869.82
579.37	46487.72
579.53	46373.03
579.69	46082.81
579.85	46286.43
580.01	46476.02
580.17	46101.53
580.33	46234.94
580.49	46583.68
580.65	46422.19
580.82	46361.33
580.98	46396.44
581.14	46078.13
581.30	46433.89
581.46	46403.46
581.62	46368.35
581.78	46138.98
581.94	46738.16
582.10	46019.61
582.26	46637.51
582.42	46632.83
582.58	46466.66
582.74	46136.64
582.90	46731.14
583.06	46461.97
583.22	46419.84
583.38	46831.78
583.54	46855.18
583.70	46721.77
583.86	46602.41
584.02	46370.69
584.18	46394.10
584.34	46110.89
584.50	46050.04
584.66	46096.85
584.82	46611.77
584.98	46827.10
585.14	46707.73
585.30	46506.44
585.46	46567.30
585.62	45923.65
585.78	46052.38
585.94	46244.30
586.10	46368.35
586.26	46169.41
586.42	46600.07
586.58	46560.28
586.74	46396.44
586.90	46405.80
587.06	46454.95
587.22	46424.53
587.38	46143.66
587.54	46408.14
587.70	46256.01
587.86	46174.09
588.02	46115.58
588.18	46838.80
588.34	46412.82
588.49	46021.95
588.65	45815.99
588.81	45638.11
588.97	46024.29
589.13	45942.38
589.29	46064.08
589.45	46134.30
589.61	46169.41
589.77	46288.77
589.93	46237.28
