SpectraSuite Data File
++++++++++++++++++++++++++++++++++++
Date: Fri Oct 25 11:34:18 EDT 2013
User: price-jones
Dark Spectrum Present: No
Reference Spectrum Present: No
Number of Sampled Component Spectra: 1
Spectrometers: USB2+H05261
Integration Time (usec): 100000 (USB2+H05261)
Spectra Averaged: 1 (USB2+H05261)
Boxcar Smoothing: 0 (USB2+H05261)
Correct for Electrical Dark: No (USB2+H05261)
Strobe/Lamp Enabled: No (USB2+H05261)
Correct for Detector Non-linearity: No (USB2+H05261)
Correct for Stray Light: No (USB2+H05261)
Number of Pixels in Processed Spectrum: 2048
>>>>>Begin Processed Spectral Data<<<<<
365.73	315.97
365.92	315.97
366.12	315.97
366.32	245.76
366.52	196.60
366.72	131.07
366.91	177.88
367.11	205.97
367.31	201.29
367.51	163.84
367.70	173.20
367.90	182.56
368.10	152.13
368.30	100.64
368.49	161.50
368.69	201.29
368.89	255.12
369.09	229.37
369.28	212.99
369.48	227.03
369.68	205.97
369.87	229.37
370.07	212.99
370.27	287.89
370.47	278.52
370.66	493.85
370.86	561.73
371.06	608.54
371.25	535.98
371.45	465.77
371.65	622.58
371.84	550.03
372.04	538.32
372.24	491.51
372.44	568.75
372.63	603.86
372.83	599.18
373.03	538.32
373.22	660.03
373.42	634.29
373.62	620.24
373.81	592.16
374.01	638.97
374.21	580.45
374.40	613.22
374.60	636.63
374.79	610.88
374.99	587.47
375.19	638.97
375.38	606.20
375.58	648.33
375.78	662.37
375.97	601.52
376.17	657.69
376.37	645.99
376.56	671.73
376.76	695.14
376.95	685.78
377.15	709.18
377.35	608.54
377.54	730.25
377.74	688.12
377.93	674.07
378.13	720.88
378.33	678.76
378.52	713.86
378.72	758.33
378.91	641.31
379.11	784.08
379.31	716.20
379.50	704.50
379.70	725.57
379.89	720.88
380.09	695.14
380.28	732.59
380.48	655.35
380.68	671.73
380.87	767.70
381.07	788.76
381.26	690.46
381.46	779.40
381.65	760.67
381.85	770.04
382.04	697.48
382.24	739.61
382.43	821.53
382.63	676.41
382.83	793.44
383.02	854.30
383.22	875.36
383.41	774.72
383.61	854.30
383.80	870.68
384.00	816.85
384.19	809.83
384.39	809.83
384.58	861.32
384.78	851.96
384.97	826.21
385.17	807.48
385.36	823.87
385.56	833.23
385.75	786.42
385.95	830.89
386.14	842.59
386.34	854.30
386.53	800.46
386.72	823.87
386.92	875.36
387.11	896.43
387.31	884.72
387.50	809.83
387.70	854.30
387.89	854.30
388.09	858.98
388.28	826.21
388.48	809.83
388.67	830.89
388.86	880.04
389.06	880.04
389.25	945.58
389.45	933.87
389.64	936.21
389.84	936.21
390.03	889.40
390.22	964.30
390.42	1001.75
390.61	870.68
390.81	889.40
391.00	987.71
391.19	1039.20
391.39	973.66
391.58	945.58
391.78	966.64
391.97	968.98
392.16	1029.84
392.36	1069.62
392.55	1020.47
392.75	987.71
392.94	983.02
393.13	1086.01
393.33	1039.20
393.52	1034.52
393.71	1046.22
393.91	1104.73
394.10	1097.71
394.29	1090.69
394.49	1069.62
394.68	1067.28
394.88	1036.86
395.07	1111.75
395.26	1123.46
395.46	1118.78
395.65	1137.50
395.84	1064.94
396.04	1240.48
396.23	1158.57
396.42	1142.18
396.62	1151.54
396.81	1212.40
397.00	1256.87
397.19	1268.57
397.39	1231.12
397.58	1254.53
397.77	1193.67
397.97	1291.98
398.16	1151.54
398.35	1188.99
398.55	1186.65
398.74	1233.46
398.93	1242.82
399.12	1263.89
399.32	1240.48
399.51	1261.55
399.70	1334.11
399.90	1259.21
400.09	1306.02
400.28	1387.94
400.47	1334.11
400.67	1394.96
400.86	1430.07
401.05	1313.04
401.24	1383.26
401.44	1338.79
401.63	1418.36
401.82	1425.39
402.01	1385.60
402.21	1418.36
402.40	1476.88
402.59	1479.22
402.78	1467.52
402.97	1439.43
403.17	1533.05
403.36	1404.32
403.55	1504.96
403.74	1416.02
403.93	1542.41
404.13	1603.27
404.32	1526.03
404.51	1551.78
404.70	1629.01
404.89	1547.09
405.09	1612.63
405.28	1591.56
405.47	1610.29
405.66	1661.78
405.85	1722.63
406.05	1533.05
406.24	1785.83
406.43	1668.80
406.62	1710.93
406.81	1856.04
407.00	1739.02
407.20	1715.61
407.39	1755.40
407.58	1830.30
407.77	1863.07
407.96	1816.26
408.15	1870.09
408.34	1788.17
408.54	1881.79
408.73	1802.21
408.92	1893.49
409.11	1881.79
409.30	1975.41
409.49	1907.54
409.68	1888.81
409.87	1996.48
410.07	2015.20
410.26	1907.54
410.45	1881.79
410.64	1996.48
410.83	2143.93
411.02	2162.66
411.21	2181.38
411.40	2162.66
411.59	2129.89
411.78	2111.16
411.98	2141.59
412.17	2193.08
412.36	2188.40
412.55	2230.53
412.74	2324.15
412.93	2263.30
413.12	2195.42
413.31	2216.49
413.50	2300.75
413.69	2284.36
413.88	2385.01
414.07	2380.32
414.26	2420.11
414.45	2466.92
414.64	2466.92
414.83	2394.37
415.02	2471.61
415.22	2581.61
415.41	2534.80
415.60	2595.65
415.79	2597.99
415.98	2668.21
416.17	2698.64
416.36	2705.66
416.55	2691.62
416.74	2712.68
416.93	2698.64
417.12	2700.98
417.31	2773.53
417.50	2876.52
417.69	2878.86
417.88	2860.13
418.07	2850.77
418.26	2956.10
418.45	2937.37
418.64	2995.89
418.83	2885.88
419.02	3000.57
419.21	2904.60
419.39	3129.30
419.58	2897.58
419.77	3084.83
419.96	3014.61
420.15	2988.86
420.34	3028.65
420.53	2988.86
420.72	3201.85
420.91	3171.43
421.10	3232.28
421.29	3258.03
421.48	3105.89
421.67	3155.04
421.86	3138.66
422.05	3274.41
422.24	3218.24
422.43	3274.41
422.61	3276.75
422.80	3255.69
422.99	3424.20
423.18	3248.66
423.37	3417.18
423.56	3091.85
423.75	3187.81
423.94	3258.03
424.13	3138.66
424.32	3155.04
424.50	3358.67
424.69	3414.84
424.88	3332.92
425.07	3300.16
425.26	3318.88
425.45	3393.78
425.64	3353.99
425.83	3337.60
426.01	3475.70
426.20	3332.92
426.39	3307.18
426.58	3368.03
426.77	3337.60
426.96	3384.41
427.15	3473.36
427.33	3417.18
427.52	3438.25
427.71	3566.98
427.90	3449.95
428.09	3508.46
428.28	3487.40
428.46	3557.61
428.65	3655.92
428.84	3655.92
429.03	3576.34
429.22	3693.37
429.40	3585.70
429.59	3651.24
429.78	3513.14
429.97	3506.12
430.16	3595.06
430.34	3770.60
430.53	3852.52
430.72	3632.51
430.91	3859.54
431.10	3808.05
431.28	3843.16
431.47	3840.82
431.66	3971.89
431.85	3927.42
432.03	3889.97
432.22	3904.01
432.41	3899.33
432.60	3978.91
432.79	4051.47
432.97	4128.70
433.16	4007.00
433.35	4023.38
433.54	4105.30
433.72	4063.17
433.91	4084.23
434.10	4124.02
434.28	4042.11
434.47	4126.36
434.66	4063.17
434.85	4117.00
435.03	4318.29
435.22	4156.79
435.41	4451.70
435.59	4142.75
435.78	4257.43
435.97	4318.29
436.16	4194.24
436.34	4245.73
436.53	4416.59
436.72	4390.84
436.90	4381.48
437.09	4327.65
437.28	4301.90
437.46	4327.65
437.65	4400.21
437.84	4418.93
438.02	4531.28
438.21	4451.70
438.40	4514.89
438.58	4685.75
438.77	4643.62
438.96	4507.87
439.14	4685.75
439.33	4711.50
439.52	4947.89
439.70	4819.16
439.89	4767.67
440.08	4849.59
440.26	4938.53
440.45	4905.76
440.63	4957.25
440.82	4994.70
441.01	5076.62
441.19	4992.36
441.38	5172.58
441.57	5212.37
441.75	5095.35
441.94	5315.36
442.12	5294.29
442.31	5221.74
442.50	5303.65
442.68	5270.89
442.87	5341.10
443.05	5341.10
443.24	5418.34
443.43	5355.15
443.61	5523.66
443.80	5561.11
443.98	5362.17
444.17	5217.05
444.35	5411.32
444.54	5549.41
444.73	5364.51
444.91	5645.37
445.10	5380.89
445.28	5458.13
445.47	5453.45
445.65	5549.41
445.84	5338.76
446.02	5497.92
446.21	5579.84
446.39	5411.32
446.58	5699.20
446.77	5619.63
446.95	5474.51
447.14	5715.59
447.32	5535.37
447.51	5666.44
447.69	5626.65
447.88	5603.24
448.06	5490.90
448.25	5605.58
448.43	5720.27
448.62	5654.73
448.80	5556.43
448.99	5715.59
449.17	5804.53
449.36	5694.52
449.54	5792.83
449.73	5959.00
449.91	5912.19
450.10	5884.11
450.28	5989.43
450.46	5891.13
450.65	5973.05
450.83	5973.05
451.02	5926.24
451.20	6132.20
451.39	6019.86
451.57	5884.11
451.76	6064.33
451.94	5989.43
452.13	6122.84
452.31	6246.89
452.49	6167.31
452.68	6087.73
452.86	6038.58
453.05	6263.27
453.23	6162.63
453.42	6076.03
453.60	6160.29
453.78	6359.24
453.97	6253.91
454.15	6169.65
454.34	6181.35
454.52	6420.09
454.70	6450.52
454.89	6319.45
455.07	6333.49
455.26	6417.75
455.44	6593.29
455.62	6473.92
455.81	6483.28
455.99	6658.82
456.17	6604.99
456.36	6602.65
456.54	6614.35
456.73	6757.13
456.91	6871.81
457.09	6780.53
457.28	6855.43
457.46	6827.34
457.64	7061.40
457.83	6965.43
458.01	6918.62
458.19	7002.88
458.38	6927.99
458.56	6930.33
458.74	6974.80
458.93	6960.75
459.11	7180.76
459.29	7073.10
459.48	6993.52
459.66	6949.05
459.84	7089.48
460.03	7155.02
460.21	7234.60
460.39	7206.51
460.57	7321.20
460.76	7412.48
460.94	7215.87
461.12	7054.37
461.31	7384.39
461.49	7297.79
461.67	7269.70
461.85	7377.37
462.04	7492.05
462.22	7819.73
462.40	7482.69
462.59	7356.30
462.77	7599.72
462.95	7485.03
463.13	7583.34
463.32	7665.25
463.50	7552.91
463.68	7712.07
463.86	7686.32
464.05	7576.31
464.23	7545.89
464.41	7756.54
464.59	7653.55
464.78	7815.05
464.96	8004.63
465.14	7599.72
465.32	7885.26
465.50	7831.43
465.69	7824.41
465.87	8011.65
466.05	7840.79
466.23	7688.66
466.41	7983.57
466.60	8091.23
466.78	7875.90
466.96	7901.65
467.14	7892.29
467.32	7946.12
467.51	8112.30
467.69	8044.42
467.87	8025.70
468.05	8135.70
468.23	7887.61
468.41	8035.06
468.60	8077.19
468.78	8109.96
468.96	8278.47
469.14	8264.43
469.32	8411.89
469.50	8086.55
469.69	8351.03
469.87	8636.58
470.05	8638.92
470.23	8486.78
470.41	8458.70
470.59	8589.77
470.77	8451.67
470.95	8671.68
471.14	8870.63
471.32	8599.13
471.50	8802.75
471.68	8713.81
471.86	8814.46
472.04	8748.92
472.22	9092.98
472.40	8772.33
472.58	8798.07
472.77	8980.64
472.95	8985.32
473.13	9406.61
473.31	8975.95
473.49	9235.75
473.67	9114.05
473.85	9167.88
474.03	9465.13
474.21	9345.76
474.39	9432.36
474.57	9624.28
474.75	9460.45
474.93	9720.24
475.12	9579.81
475.30	9743.65
475.48	9607.90
475.66	9783.44
475.84	9884.08
476.02	10078.35
476.20	10033.88
476.38	10258.57
476.56	10230.48
476.74	10485.60
476.92	10195.37
477.10	10164.95
477.28	10443.47
477.46	10415.38
477.64	10511.35
477.82	10665.82
478.00	11047.33
478.18	10740.72
478.36	10885.83
478.54	10956.05
478.72	11150.31
478.90	11143.29
479.08	11136.27
479.26	11398.41
479.44	11152.65
479.62	11389.05
479.80	11740.13
479.98	11641.82
480.16	11803.32
480.34	11431.18
480.52	11957.80
480.70	11971.84
480.88	12011.63
481.06	12208.23
481.24	11791.62
481.41	12060.78
481.59	12081.85
481.77	12388.46
481.95	12425.90
482.13	12685.70
482.31	12507.82
482.49	13090.62
482.67	13027.42
482.85	13305.95
483.03	13263.82
483.21	13191.26
483.39	13408.93
483.57	13441.70
483.74	13549.36
483.92	13385.52
484.10	13490.85
484.28	13813.84
484.46	14047.90
484.64	14279.61
484.82	13937.89
485.00	14237.48
485.18	14480.89
485.35	14787.50
485.53	14445.79
485.71	14668.14
485.89	14974.75
486.07	14794.53
486.25	15080.07
486.43	15159.65
486.61	15040.28
486.78	15267.31
486.96	15351.57
487.14	15592.65
487.32	15770.53
487.50	15866.49
487.68	15960.11
487.85	16020.97
488.03	16145.02
488.21	16257.36
488.39	16360.34
488.57	16430.56
488.75	16776.96
488.92	16903.35
489.10	17064.85
489.28	17172.51
489.46	17261.45
489.64	17144.42
489.81	17617.21
489.99	17631.26
490.17	17439.33
490.35	17888.71
490.53	18068.94
490.70	18101.70
490.88	17797.43
491.06	18361.50
491.24	18300.65
491.41	18501.93
491.59	18988.77
491.77	18607.26
491.95	18953.66
492.13	18827.27
492.30	19075.37
492.48	19019.19
492.66	19218.14
492.84	19199.41
493.01	19693.27
493.19	19634.75
493.37	19552.84
493.54	19711.99
493.72	20128.61
493.90	20112.22
494.08	20299.47
494.25	20620.12
494.43	20418.83
494.61	20531.18
494.79	20233.93
494.96	20587.35
495.14	20634.16
495.32	20905.66
495.49	20999.29
495.67	21268.45
495.85	21223.98
496.02	21399.52
496.20	21820.81
496.38	21963.59
496.55	21984.65
496.73	21752.94
496.91	21923.80
497.09	22017.42
497.26	22204.66
497.44	22251.47
497.62	22300.62
497.79	22881.08
497.97	22518.29
498.14	23180.67
498.32	22824.90
498.50	22927.89
498.67	23161.94
498.85	23302.37
499.03	23300.03
499.20	23665.16
499.38	23484.94
499.56	23721.33
499.73	23697.92
499.91	23828.99
500.08	23887.51
500.26	23782.18
500.44	24049.00
500.61	23906.23
500.79	23866.44
500.97	24327.53
501.14	24322.85
501.32	24629.46
501.49	24491.37
501.67	24821.38
501.84	24819.04
502.02	24500.73
502.20	24573.28
502.37	24889.26
502.55	24751.17
502.72	25418.22
502.90	25277.79
503.07	25135.01
503.25	25275.45
503.43	24989.90
503.60	25158.42
503.78	26017.40
503.95	25223.95
504.13	25731.85
504.30	25710.78
504.48	25736.53
504.65	26047.82
504.83	26001.01
505.01	26562.74
505.18	26487.84
505.36	26466.78
505.53	26253.79
505.71	26441.03
505.88	26506.57
506.06	26199.96
506.23	26637.64
506.41	26614.23
506.58	27012.12
506.76	27175.96
506.93	27208.73
507.11	27164.26
507.28	27133.83
507.46	27157.24
507.63	27737.69
507.81	27882.80
507.98	27578.53
508.16	27772.80
508.33	27835.99
508.50	28037.28
508.68	27751.73
508.85	28142.60
509.03	27871.10
509.20	28180.05
509.38	28467.94
509.55	28095.79
509.73	28357.93
509.90	28697.31
510.08	28311.12
510.25	28521.77
510.42	28606.03
510.60	28758.16
510.77	28933.70
510.95	29371.38
511.12	29078.82
511.30	28903.28
511.47	29507.13
511.64	28910.30
511.82	29666.29
511.99	29034.35
512.17	29308.19
512.34	29518.84
512.51	29771.61
512.69	29982.26
512.86	30113.33
513.04	30417.60
513.21	29888.64
513.38	30066.52
513.56	30012.69
513.73	29947.15
513.90	30291.21
514.08	30167.16
514.25	30288.87
514.43	30611.87
514.60	30504.20
514.77	30881.03
514.95	30609.53
515.12	30677.40
515.29	30590.80
515.47	30675.06
515.64	30586.12
515.81	31023.80
515.99	31065.93
516.16	31194.66
516.33	31255.51
516.51	31014.44
516.68	31316.37
516.85	31641.70
517.03	31534.04
517.20	31519.99
517.37	31754.05
517.54	31810.22
517.72	31847.67
517.89	32025.55
518.06	32006.83
518.24	32013.85
518.41	31974.06
518.58	32196.41
518.75	31887.46
518.93	32606.00
519.10	32229.18
519.27	32524.08
519.45	32671.54
519.62	32606.00
519.79	32346.20
519.96	32914.95
520.14	33010.92
520.31	32690.26
520.48	33097.52
520.65	32830.69
520.83	33167.73
521.00	32950.06
521.17	33387.74
521.34	33022.62
521.52	33635.84
521.69	33500.09
521.86	33731.80
522.03	33579.67
522.20	33876.91
522.38	34003.30
522.55	34040.75
522.72	33853.51
522.89	34242.04
523.07	34300.55
523.24	34232.68
523.41	34309.91
523.58	34450.35
523.75	34487.79
523.92	34253.74
524.10	34780.36
524.27	34590.78
524.44	34602.48
524.61	34389.49
524.78	34726.53
524.96	34632.91
525.13	35201.66
525.30	34958.24
525.47	35161.87
525.64	35747.00
525.81	35414.65
525.98	35173.57
526.16	35051.86
526.33	34948.88
526.50	35702.53
526.67	35026.12
526.84	35391.24
527.01	35108.04
527.18	35189.95
527.36	35573.80
527.53	35449.75
527.70	36002.12
527.87	35817.22
528.04	35716.58
528.21	35416.99
528.38	36023.19
528.55	36374.27
528.72	36257.24
528.89	35854.67
529.07	35948.29
529.24	36025.53
529.41	36315.75
529.58	36292.35
529.75	36163.62
529.92	36201.07
530.09	36268.94
530.26	36746.41
530.43	36797.90
530.60	36552.15
530.77	36329.80
530.94	36521.72
531.11	36587.25
531.28	36603.64
531.46	37064.72
531.63	37118.56
531.80	36727.69
531.97	36875.14
532.14	36912.59
532.31	37198.13
532.48	36760.45
532.65	37120.90
532.82	37198.13
532.99	37163.03
533.16	37357.29
533.33	37404.10
533.50	37731.78
533.67	37376.01
533.84	37109.19
534.01	37956.47
534.18	37441.55
534.35	38230.31
534.52	37638.15
534.69	38326.27
534.86	38071.15
535.03	38068.81
535.20	38113.28
535.37	38139.03
535.54	38307.55
535.71	38092.22
535.88	38391.81
536.05	38473.73
536.22	38527.56
536.38	38785.02
536.55	38410.53
536.72	38211.59
536.89	38134.35
537.06	38499.47
537.23	38457.34
537.40	38785.02
537.57	38361.38
537.74	38410.53
537.91	39187.59
538.08	38756.93
538.25	38644.59
538.42	39323.34
538.59	39313.98
538.75	39337.38
538.92	39323.34
539.09	39445.05
539.26	39140.78
539.43	39356.11
539.60	39232.06
539.77	39311.64
539.94	39484.84
540.11	39398.24
540.28	39704.85
540.44	39491.86
540.61	39849.96
540.78	39669.74
540.95	39662.72
541.12	39807.83
541.29	39754.00
541.46	39611.23
541.62	39667.40
541.79	40268.92
541.96	39655.70
542.13	39913.16
542.30	39557.39
542.47	40322.75
542.63	39892.09
542.80	40603.61
542.97	40856.39
543.14	40741.71
543.31	40538.08
543.48	40484.25
543.64	41450.89
543.81	41045.97
543.98	40751.07
544.15	40517.01
544.32	40751.07
544.48	41017.89
544.65	41092.79
544.82	41074.06
544.99	40825.96
545.16	40786.18
545.32	41085.76
545.49	41268.33
545.66	41624.09
545.83	41612.38
546.00	41373.65
546.16	41425.14
546.33	41469.61
546.50	41015.55
546.67	41600.68
546.83	40804.90
547.00	41420.46
547.17	41301.09
547.34	41535.15
547.50	41413.44
547.67	42029.00
547.84	41778.56
548.00	41670.90
548.17	41991.55
548.34	41979.85
548.51	42024.32
548.67	42110.92
548.84	41804.31
549.01	41942.40
549.18	41923.68
549.34	42469.02
549.51	41911.97
549.68	41881.55
549.84	41794.95
550.01	42464.34
550.18	42050.06
550.34	42024.32
550.51	42279.44
550.68	42522.85
550.84	41759.84
551.01	42300.50
551.18	42534.56
551.34	42216.24
551.51	42036.02
551.68	42047.72
551.84	42363.70
552.01	42532.22
552.18	42672.65
552.34	42398.80
552.51	42518.17
552.68	42724.14
552.84	42307.52
553.01	42958.19
553.18	42674.99
553.34	43288.21
553.51	42504.13
553.67	42927.77
553.84	42944.15
554.01	42834.14
554.17	43131.39
554.34	43117.35
554.51	43288.21
554.67	43253.10
554.84	43243.74
555.00	42923.08
555.17	43419.28
555.33	42937.13
555.50	43292.89
555.67	43168.84
555.83	43812.49
556.00	43419.28
556.16	43981.01
556.33	43414.60
556.50	43777.38
556.66	43735.25
556.83	43096.28
556.99	43611.20
557.16	43344.38
557.32	43522.26
557.49	44074.63
557.65	43700.14
557.82	43473.11
557.98	43772.70
558.15	43796.10
558.32	43583.12
558.48	43721.21
558.65	43695.46
558.81	44041.86
558.98	43976.33
559.14	44161.23
559.31	43913.13
559.47	44348.47
559.64	44062.93
559.80	43943.56
559.97	44549.76
560.13	43693.12
560.30	44062.93
560.46	44430.39
560.63	44144.84
560.79	44282.94
560.96	44397.62
561.12	44421.03
561.29	44495.92
561.45	44591.89
561.61	44238.47
561.78	44191.65
561.94	44610.61
562.11	44502.95
562.27	44388.26
562.44	44362.51
562.60	44648.06
562.77	44460.82
562.93	44526.35
563.10	44320.38
563.26	44231.44
563.42	45059.99
563.59	44463.16
563.75	44828.28
563.92	44610.61
564.08	44769.77
564.24	44449.11
564.41	44247.83
564.57	44938.29
564.74	44891.48
564.90	44245.49
565.07	44484.22
565.23	44795.51
565.39	44788.49
565.56	44975.73
565.72	44783.81
565.88	44905.52
566.05	45008.50
566.21	44816.58
566.38	44891.48
566.54	45038.93
566.70	45214.47
566.87	44980.42
567.03	44842.32
567.19	44732.32
567.36	44868.07
567.52	44978.07
567.68	45181.70
567.85	45022.54
568.01	45071.70
568.17	44851.69
568.34	45242.56
568.50	45366.60
568.66	44996.80
568.83	45441.50
568.99	45151.27
569.15	45071.70
569.32	44961.69
569.48	44886.79
569.64	45371.28
569.81	44994.46
569.97	45294.05
570.13	45368.94
570.30	45242.56
570.46	45408.73
570.62	45584.27
570.78	45434.48
570.95	45411.07
571.11	45661.51
571.27	44926.58
571.43	45148.93
571.60	45387.67
571.76	45354.90
571.92	45109.14
572.09	44924.24
572.25	45574.91
572.41	45303.41
572.57	45485.97
572.74	45755.13
572.90	45635.77
573.06	45595.98
573.22	45631.08
573.38	46075.79
573.55	45750.45
573.71	45930.67
573.87	45708.32
574.03	45755.13
574.20	45500.01
574.36	45783.22
574.52	45537.46
574.68	45989.19
574.84	45986.85
575.01	45776.20
575.17	45895.56
575.33	45340.86
575.49	45811.31
575.65	45904.93
575.82	45532.78
575.98	45216.81
576.14	45687.26
576.30	46178.77
576.46	45680.24
576.62	45797.26
576.79	46148.34
576.95	45254.26
577.11	45280.00
577.27	45525.76
577.43	45366.60
577.59	45612.36
577.75	45474.27
577.92	45429.80
578.08	45827.69
578.24	45738.75
578.40	45603.00
578.56	45808.96
578.72	45436.82
578.88	45851.09
579.04	45773.86
579.21	45715.34
579.37	45830.03
579.53	46057.06
579.69	45741.09
579.85	45759.81
580.01	45956.42
580.17	45567.89
580.33	45595.98
580.49	45642.79
580.65	45991.53
580.82	45949.40
580.98	45638.11
581.14	45677.90
581.30	46036.00
581.46	45698.96
581.62	45970.46
581.78	45696.62
581.94	46373.03
582.10	45876.84
582.26	46115.58
582.42	45895.56
582.58	46263.03
582.74	46197.49
582.90	45703.64
583.06	45659.17
583.22	45904.93
583.38	45921.31
583.54	46171.75
583.70	45336.18
583.86	46438.57
584.02	45659.17
584.18	46265.37
584.34	45764.49
584.50	46225.58
584.66	45865.14
584.82	45815.99
584.98	46082.81
585.14	45989.19
585.30	45823.01
585.46	45937.69
585.62	45904.93
585.78	46068.76
585.94	45773.86
586.10	45848.75
586.26	45904.93
586.42	45689.60
586.58	46092.17
586.74	46169.41
586.90	46192.81
587.06	45727.05
587.22	46068.76
587.38	45729.39
587.54	46438.57
587.70	46080.47
587.86	46361.33
588.02	46036.00
588.18	46265.37
588.34	46167.07
588.49	46010.25
588.65	46309.84
588.81	46323.88
588.97	46344.95
589.13	45998.55
589.29	46141.32
589.45	46302.82
589.61	46260.69
589.77	46347.29
589.93	46653.90
590.08	46204.52
