SpectraSuite Data File
++++++++++++++++++++++++++++++++++++
Date: Fri Oct 25 10:44:48 EDT 2013
User: price-jones
Dark Spectrum Present: No
Reference Spectrum Present: No
Number of Sampled Component Spectra: 1
Spectrometers: USB2+H05261
Integration Time (usec): 100000 (USB2+H05261)
Spectra Averaged: 1 (USB2+H05261)
Boxcar Smoothing: 0 (USB2+H05261)
Correct for Electrical Dark: No (USB2+H05261)
Strobe/Lamp Enabled: No (USB2+H05261)
Correct for Detector Non-linearity: No (USB2+H05261)
Correct for Stray Light: No (USB2+H05261)
Number of Pixels in Processed Spectrum: 2048
>>>>>Begin Processed Spectral Data<<<<<
365.73	107.66
365.92	107.66
366.12	107.66
366.32	35.11
366.52	7.02
366.72	18.72
366.91	0.00
367.11	9.36
367.31	63.19
367.51	0.00
367.70	0.00
367.90	114.69
368.10	0.00
368.30	63.19
368.49	42.13
368.69	60.85
368.89	72.56
369.09	51.49
369.28	119.37
369.48	114.69
369.68	4.68
369.87	53.83
370.07	128.73
370.27	110.01
370.47	175.54
370.66	372.15
370.86	414.27
371.06	433.00
371.25	433.00
371.45	430.66
371.65	449.38
371.84	486.83
372.04	372.15
372.24	435.34
372.44	514.92
372.63	498.53
372.83	514.92
373.03	528.96
373.22	500.87
373.42	482.15
373.62	505.56
373.81	526.62
374.01	550.03
374.21	559.39
374.40	535.98
374.60	545.34
374.79	475.13
374.99	599.18
375.19	575.77
375.38	526.62
375.58	411.93
375.78	610.88
375.97	568.75
376.17	645.99
376.37	627.26
376.56	620.24
376.76	580.45
376.95	606.20
377.15	608.54
377.35	580.45
377.54	699.82
377.74	510.24
377.93	629.60
378.13	589.82
378.33	566.41
378.52	706.84
378.72	638.97
378.91	641.31
379.11	629.60
379.31	573.43
379.50	533.64
379.70	617.90
379.89	648.33
380.09	678.76
380.28	643.65
380.48	718.54
380.68	617.90
380.87	718.54
381.07	660.03
381.26	631.94
381.46	634.29
381.65	685.78
381.85	641.31
382.04	674.07
382.24	709.18
382.43	655.35
382.63	655.35
382.83	683.44
383.02	662.37
383.22	767.70
383.41	685.78
383.61	706.84
383.80	741.95
384.00	727.91
384.19	711.52
384.39	620.24
384.58	716.20
384.78	802.80
384.97	755.99
385.17	798.12
385.36	688.12
385.56	823.87
385.75	664.71
385.95	676.41
386.14	737.27
386.34	720.88
386.53	798.12
386.72	835.57
386.92	840.25
387.11	842.59
387.31	856.64
387.50	844.93
387.70	833.23
387.89	826.21
388.09	837.91
388.28	805.14
388.48	812.17
388.67	842.59
388.86	784.08
389.06	891.74
389.25	880.04
389.45	945.58
389.64	905.79
389.84	915.15
390.03	938.55
390.22	870.68
390.42	919.83
390.61	908.13
390.81	868.34
391.00	842.59
391.19	940.90
391.39	938.55
391.58	870.68
391.78	999.41
391.97	997.07
392.16	1006.43
392.36	1027.50
392.55	1008.77
392.75	945.58
392.94	987.71
393.13	1013.45
393.33	1022.81
393.52	1039.20
393.71	945.58
393.91	1048.56
394.10	1142.18
394.29	1081.33
394.49	1046.22
394.68	1109.41
394.88	1076.65
395.07	1086.01
395.26	1128.14
395.46	1142.18
395.65	1139.84
395.84	1111.75
396.04	1186.65
396.23	1123.46
396.42	1076.65
396.62	1111.75
396.81	1114.10
397.00	1107.07
397.19	1137.50
397.39	1160.91
397.58	1221.76
397.77	1203.04
397.97	1315.38
398.16	1252.19
398.35	1282.61
398.55	1287.29
398.74	1308.36
398.93	1291.98
399.12	1390.28
399.32	1275.59
399.51	1352.83
399.70	1392.62
399.90	1357.51
400.09	1315.38
400.28	1514.33
400.47	1392.62
400.67	1458.15
400.86	1469.86
401.05	1488.58
401.24	1434.75
401.44	1371.55
401.63	1605.61
401.82	1411.34
402.01	1516.67
402.21	1409.00
402.40	1554.12
402.59	1448.79
402.78	1614.97
402.97	1598.59
403.17	1666.46
403.36	1474.54
403.55	1572.84
403.74	1563.48
403.93	1565.82
404.13	1621.99
404.32	1631.35
404.51	1617.31
404.70	1694.55
404.89	1685.19
405.09	1769.44
405.28	1741.36
405.47	1743.70
405.66	1799.87
405.85	1771.79
406.05	1839.66
406.24	1811.57
406.43	1790.51
406.62	1689.87
406.81	1865.41
407.00	1790.51
407.20	1792.85
407.39	1720.29
407.58	1830.30
407.77	1811.57
407.96	1909.88
408.15	1954.35
408.34	1874.77
408.54	1947.33
408.73	2050.31
408.92	2026.90
409.11	2024.56
409.30	2033.93
409.49	2029.24
409.68	2036.27
409.87	2113.50
410.07	2038.61
410.26	2043.29
410.45	2307.77
410.64	2054.99
410.83	2127.55
411.02	2230.53
411.21	2319.47
411.40	2270.32
411.59	2321.81
411.78	2228.19
411.98	2333.51
412.17	2282.02
412.36	2368.62
412.55	2427.14
412.74	2469.27
412.93	2485.65
413.12	2349.90
413.31	2502.03
413.50	2445.86
413.69	2555.86
413.88	2546.50
414.07	2546.50
414.26	2523.10
414.45	2516.08
414.64	2654.17
414.83	2609.70
415.02	2796.94
415.22	2745.45
415.41	2881.20
415.60	2750.13
415.79	2841.41
415.98	2904.60
416.17	2942.05
416.36	2853.11
416.55	2834.39
416.74	2942.05
416.93	2883.54
417.12	3000.57
417.31	2876.52
417.50	3009.93
417.69	3023.97
417.88	3131.64
418.07	2972.48
418.26	3012.27
418.45	3035.67
418.64	3279.09
418.83	3199.51
419.02	3157.38
419.21	3241.64
419.39	3169.09
419.58	3098.87
419.77	3197.17
419.96	3262.71
420.15	3281.43
420.34	3304.84
420.53	3204.19
420.72	3494.42
420.91	3386.76
421.10	3342.28
421.29	3426.54
421.48	3529.53
421.67	3398.46
421.86	3405.48
422.05	3414.84
422.24	3456.97
422.43	3541.23
422.61	3393.78
422.80	3428.88
422.99	3452.29
423.18	3583.36
423.37	3534.21
423.56	3459.31
423.75	3471.01
423.94	3480.38
424.13	3368.03
424.32	3365.69
424.50	3459.31
424.69	3599.74
424.88	3562.30
425.07	3482.72
425.26	3538.89
425.45	3531.87
425.64	3489.74
425.83	3569.32
426.01	3662.94
426.20	3702.73
426.39	3520.17
426.58	3478.04
426.77	3531.87
426.96	3662.94
427.15	3485.06
427.33	3700.39
427.52	3609.11
427.71	3733.15
427.90	3850.18
428.09	3749.54
428.28	3723.79
428.46	3779.97
428.65	3840.82
428.84	3939.12
429.03	3868.91
429.22	3763.58
429.40	3770.60
429.59	3812.73
429.78	3700.39
429.97	3660.60
430.16	3709.75
430.34	3698.05
430.53	3878.27
430.72	3810.39
430.91	3948.48
431.10	4037.42
431.28	3964.87
431.47	4065.51
431.66	4159.13
431.85	4109.98
432.03	4170.83
432.22	4339.35
432.41	4191.90
432.60	4201.26
432.79	4229.35
432.97	4308.93
433.16	4084.23
433.35	4241.05
433.54	4229.35
433.72	4285.52
433.91	4177.86
434.10	4320.63
434.28	4313.61
434.47	4362.76
434.66	4454.04
434.85	4236.37
435.03	4496.17
435.22	4470.42
435.41	4685.75
435.59	4711.50
435.78	4531.28
435.97	4704.48
436.16	4606.17
436.34	4451.70
436.53	4554.68
436.72	4601.49
436.90	4622.56
437.09	4770.01
437.28	4699.80
437.46	4610.86
437.65	4636.60
437.84	4662.35
438.02	4723.20
438.21	4685.75
438.40	4461.06
438.58	4884.70
438.77	4847.25
438.96	4863.63
439.14	4985.34
439.33	4997.04
439.52	5184.29
439.70	4990.02
439.89	5282.59
440.08	5170.24
440.26	5188.97
440.45	5174.92
440.63	5188.97
440.82	5446.43
441.01	5266.21
441.19	5327.06
441.38	5385.57
441.57	5533.03
441.75	5589.20
441.94	5647.71
442.12	5521.32
442.31	5823.25
442.50	5549.41
442.68	5703.89
442.87	5533.03
443.05	5921.56
443.24	5778.78
443.43	5776.44
443.61	5841.98
443.80	5841.98
443.98	5598.56
444.17	5518.98
444.35	5926.24
444.54	5863.04
444.73	5851.34
444.91	5907.51
445.10	5851.34
445.28	5806.87
445.47	5731.97
445.65	5926.24
445.84	5818.57
446.02	5916.87
446.21	5970.71
446.39	5872.40
446.58	5994.11
446.77	5944.96
446.95	5846.66
447.14	5959.00
447.32	5956.66
447.51	5935.60
447.69	5858.36
447.88	6047.94
448.06	6134.54
448.25	6111.14
448.43	5991.77
448.62	6047.94
448.80	6179.01
448.99	5984.75
449.17	6146.25
449.36	6097.10
449.54	6284.34
449.73	6232.85
449.91	6445.84
450.10	6436.47
450.28	6293.70
450.46	6333.49
450.65	6363.92
450.83	6513.71
451.02	6466.90
451.20	6473.92
451.39	6464.56
451.57	6443.49
451.76	6237.53
451.94	6548.82
452.13	6581.59
452.31	6377.96
452.49	6394.34
452.68	6509.03
452.86	6441.15
453.05	6684.57
453.23	6509.03
453.42	6436.47
453.60	6637.76
453.78	6539.46
453.97	6382.64
454.15	6630.74
454.34	6637.76
454.52	6637.76
454.70	6649.46
454.89	6719.68
455.07	6780.53
455.26	6876.49
455.44	6869.47
455.62	6949.05
455.81	6972.46
455.99	7225.23
456.17	6949.05
456.36	6918.62
456.54	7140.97
456.73	7328.22
456.91	7377.37
457.09	7206.51
457.28	7473.33
457.46	7124.59
457.64	7365.67
457.83	7461.63
458.01	7438.22
458.19	7524.82
458.38	7260.34
458.56	7318.86
458.74	7653.55
458.93	7309.49
459.11	7419.50
459.29	7407.80
459.48	7365.67
459.66	7676.96
459.84	7609.08
460.03	7857.18
460.21	7548.23
460.39	7817.39
460.57	7751.85
460.76	7733.13
460.94	7564.61
461.12	7744.83
461.31	7824.41
461.49	7716.75
461.67	7793.98
461.85	7913.35
462.04	7606.74
462.22	8063.15
462.40	8138.04
462.59	7964.84
462.77	7962.50
462.95	7889.95
463.13	8105.28
463.32	8002.29
463.50	8161.45
463.68	8205.92
463.86	8161.45
464.05	7918.03
464.23	8126.34
464.41	8051.44
464.59	8002.29
464.78	8271.45
464.96	8393.16
465.14	8037.40
465.32	8468.06
465.50	8400.18
465.69	8393.16
465.87	8542.96
466.05	8500.83
466.23	8301.88
466.41	8407.20
466.60	8388.48
466.78	8381.46
466.96	8535.93
467.14	8442.31
467.32	8697.43
467.51	8791.05
467.69	8353.37
467.87	8521.89
468.05	8603.81
468.23	8615.51
468.41	8542.96
468.60	8634.24
468.78	8442.31
468.96	8594.45
469.14	8695.09
469.32	8924.46
469.50	8592.11
469.69	8774.67
469.87	8961.91
470.05	8875.31
470.23	8898.72
470.41	8725.52
470.59	9029.79
470.77	9046.17
470.95	9235.75
471.14	9123.41
471.32	9092.98
471.50	9298.95
471.68	9327.03
471.86	9294.27
472.04	9320.01
472.22	9678.12
472.40	9317.67
472.58	9408.95
472.77	9518.96
472.95	9542.36
473.13	9743.65
473.31	9572.79
473.49	9525.98
473.67	9488.53
473.85	9825.57
474.03	9989.41
474.21	9996.43
474.39	10052.60
474.57	10132.18
474.75	10073.67
474.93	9914.51
475.12	10153.24
475.30	10314.74
475.48	10066.64
475.66	10324.10
475.84	10298.36
476.02	10373.25
476.20	10253.89
476.38	10656.46
476.56	10792.21
476.74	10569.86
476.92	10871.79
477.10	10773.49
477.28	11040.31
477.46	10764.12
477.64	10906.90
477.82	11297.77
478.00	11552.88
478.18	11475.65
478.36	11426.50
478.54	11616.08
478.72	11393.73
478.90	11700.34
479.08	11730.76
479.26	11889.92
479.44	12058.44
479.62	12095.89
479.80	11939.07
479.98	12362.71
480.16	12463.35
480.34	12245.68
480.52	12400.16
480.70	12493.78
480.88	12327.60
481.06	12470.37
481.24	12720.81
481.41	12744.22
481.59	13041.46
481.77	13224.03
481.95	13130.41
482.13	13109.34
482.31	13366.80
482.49	13521.27
482.67	13331.69
482.85	13755.33
483.03	13900.44
483.21	13598.51
483.39	14094.71
483.57	14015.13
483.74	14178.97
483.92	14097.05
484.10	14183.65
484.28	14604.94
484.46	14794.53
484.64	14843.68
484.82	14581.54
485.00	14714.95
485.18	14916.23
485.35	15506.05
485.53	14796.87
485.71	15131.56
485.89	15594.99
486.07	15367.96
486.25	15482.64
486.43	15302.42
486.61	15679.25
486.78	16032.67
486.96	16081.82
487.14	16301.83
487.32	16320.56
487.50	16318.22
487.68	16936.12
487.85	16776.96
488.03	16896.33
488.21	17064.85
488.39	17282.52
488.57	17132.72
488.75	17247.41
488.92	17776.37
489.10	17851.27
489.28	18122.77
489.46	18064.25
489.64	17972.97
489.81	18412.99
489.99	18382.57
490.17	18298.31
490.35	18572.15
490.53	18576.83
490.70	18597.90
490.88	18810.89
491.06	18906.85
491.24	18654.07
491.41	19213.46
491.59	19124.52
491.77	19286.01
491.95	19662.84
492.13	19686.25
492.30	19737.74
492.48	19892.21
492.66	20016.26
492.84	19796.25
493.01	20269.04
493.19	20318.19
493.37	20411.81
493.54	20437.56
493.72	20767.57
493.90	20798.00
494.08	20910.35
494.25	21326.96
494.43	20905.66
494.61	21507.18
494.79	21378.45
494.96	21411.22
495.14	21591.44
495.32	21781.03
495.49	21916.78
495.67	21916.78
495.85	22274.88
496.02	22375.52
496.20	22295.94
496.38	22661.07
496.55	22707.88
496.73	23129.17
496.91	22696.17
497.09	23105.77
497.26	23056.62
497.44	22654.05
497.62	23253.22
497.79	23440.47
497.97	23431.10
498.14	23618.35
498.32	23693.24
498.50	23658.14
498.67	23747.08
498.85	23864.10
499.03	24388.38
499.20	24133.26
499.38	24137.94
499.56	24304.12
499.73	24596.69
499.91	24231.57
500.08	24542.86
500.26	24292.42
500.44	24322.85
500.61	24723.08
500.79	24535.84
500.97	24793.29
501.14	24971.18
501.32	25106.93
501.49	25322.26
501.67	25249.70
501.84	25116.29
502.02	25259.06
502.20	25755.26
502.37	25844.20
502.55	25579.71
502.72	25837.17
502.90	25839.51
503.07	26111.02
503.25	26272.51
503.43	25731.85
503.60	26279.54
503.78	26485.50
503.95	26221.02
504.13	26665.72
504.30	26785.09
504.48	26609.55
504.65	26689.13
504.83	26925.52
505.01	27108.08
505.18	26845.94
505.36	27115.11
505.53	26988.72
505.71	27271.92
505.88	27138.51
506.06	27021.48
506.23	27580.87
506.41	27164.26
506.58	27639.39
506.76	27566.83
506.93	27950.68
507.11	27882.80
507.28	27693.22
507.46	27585.55
507.63	27850.03
507.81	28156.64
507.98	27948.34
508.16	28322.82
508.33	28037.28
508.50	28587.30
508.68	28093.45
508.85	29109.24
509.03	28676.24
509.20	28666.88
509.38	28999.24
509.55	29057.75
509.73	29109.24
509.90	29048.39
510.08	29076.48
510.25	29219.25
510.42	29127.97
510.60	29193.50
510.77	29247.33
510.95	29778.64
511.12	29282.44
511.30	29687.36
511.47	29930.77
511.64	29851.19
511.82	30057.16
511.99	30188.23
512.17	30508.88
512.34	29916.73
512.51	30178.87
512.69	30314.62
512.86	30663.36
513.04	30724.21
513.21	30649.32
513.38	30749.96
513.56	30651.66
513.73	30670.38
513.90	30831.88
514.08	30506.54
514.25	31189.98
514.43	30988.69
514.60	31042.53
514.77	31173.60
514.95	31484.89
515.12	30965.29
515.29	31412.33
515.47	31700.22
515.64	31580.85
515.81	31838.31
515.99	31660.43
516.16	31770.43
516.33	31159.55
516.51	31723.62
516.68	31840.65
516.85	31695.53
517.03	32084.06
517.20	32156.62
517.37	32268.97
517.54	32203.43
517.72	32570.90
517.89	32240.88
518.06	32339.18
518.24	31868.73
518.41	32414.08
518.58	32474.93
518.75	32418.76
518.93	32613.02
519.10	32783.88
519.27	32730.05
519.45	32863.46
519.62	32563.87
519.79	33027.30
519.96	33275.40
520.14	32943.04
520.31	32947.72
520.48	33345.61
520.65	33158.37
520.83	33813.72
521.00	33694.35
521.17	33729.46
521.34	33771.59
521.52	33472.00
521.69	33703.71
521.86	33652.22
522.03	34080.54
522.20	33736.48
522.38	34183.52
522.55	33909.68
522.72	33521.15
522.89	34148.42
523.07	34857.60
523.24	34026.71
523.41	34558.01
523.58	34293.53
523.75	35016.75
523.92	34555.67
524.10	34487.79
524.27	35000.37
524.44	34691.42
524.61	34941.86
524.78	34930.16
524.96	35290.60
525.13	35171.23
525.30	35622.95
525.47	35508.27
525.64	35353.79
525.81	35365.49
525.98	35463.80
526.16	35405.28
526.33	35428.69
526.50	35601.89
526.67	35278.89
526.84	35393.58
527.01	35477.84
527.18	35496.56
527.36	35744.66
527.53	36109.78
527.70	36402.35
527.87	36077.02
528.04	36217.45
528.21	35988.08
528.38	35995.10
528.55	36521.72
528.72	36404.69
528.89	36615.34
529.07	36507.68
529.24	36250.22
529.41	36191.70
529.58	36376.61
529.75	36734.71
529.92	37193.45
530.09	36940.68
530.26	37036.64
530.43	36935.99
530.60	36730.03
530.77	36994.51
530.94	36851.73
531.11	37031.96
531.28	37170.05
531.46	37254.31
531.63	37521.13
531.80	37060.04
531.97	37055.36
532.14	37034.30
532.31	36734.71
532.48	37305.80
532.65	37750.50
532.82	37083.45
532.99	37453.25
533.16	37181.75
533.33	37579.64
533.50	38003.28
533.67	37518.79
533.84	37406.44
534.01	37813.70
534.18	37593.68
534.35	38260.74
534.52	37912.00
534.69	38057.11
534.86	38462.02
535.03	38197.54
535.20	38464.36
535.37	38878.64
535.54	38600.12
535.71	38124.99
535.88	38181.16
536.05	38326.27
536.22	38438.62
536.38	38883.32
536.55	38080.52
536.72	38363.72
536.89	38515.86
537.06	38389.47
537.23	38742.89
537.40	38913.75
537.57	38630.54
537.74	38572.03
537.91	39079.92
538.08	38731.18
538.25	38817.78
538.42	38773.31
538.59	39508.24
538.75	38101.58
538.92	38972.26
539.09	39435.69
539.26	39084.61
539.43	39093.97
539.60	39173.55
539.77	39365.47
539.94	39063.54
540.11	39182.91
540.28	39194.61
540.44	39161.84
540.61	39515.26
540.78	39365.47
540.95	39473.13
541.12	38944.17
541.29	39288.23
541.46	39026.09
541.62	39709.53
541.79	39793.79
541.96	39576.12
542.13	40350.84
542.30	39571.44
542.47	39746.98
542.63	39847.62
542.80	40154.23
542.97	40275.94
543.14	40603.61
543.31	40556.80
543.48	40409.35
543.64	41233.22
543.81	40858.73
543.98	40804.90
544.15	40512.33
544.32	40612.98
544.48	41055.34
544.65	40381.26
544.82	40795.54
544.99	40648.08
545.16	40788.52
545.32	40774.47
545.49	41436.84
545.66	41357.27
545.83	40994.48
546.00	41085.76
546.16	41258.96
546.33	41160.66
546.50	40512.33
546.67	41118.53
546.83	40954.69
547.00	41092.79
547.17	41270.67
547.34	40811.92
547.50	41380.67
547.67	41455.57
547.84	41336.20
548.00	41476.63
548.17	41759.84
548.34	41696.64
548.51	41834.74
548.67	41741.11
548.84	42010.28
549.01	41834.74
549.18	41865.16
549.34	41759.84
549.51	41766.86
549.68	41825.37
549.84	41628.77
550.01	41984.53
550.18	41804.31
550.34	41790.27
550.51	42019.64
550.68	42171.77
550.84	41893.25
551.01	42307.52
551.18	41921.34
551.34	42103.90
551.51	42052.41
551.68	42129.64
551.84	42106.24
552.01	41961.12
552.18	42199.86
552.34	41972.83
552.51	42188.16
552.68	42155.39
552.84	42447.96
553.01	42450.30
553.18	42579.03
553.34	42347.31
553.51	42256.03
553.67	42213.90
553.84	42777.97
554.01	42576.69
554.17	42576.69
554.34	42773.29
554.51	42796.70
554.67	42920.74
554.84	42415.19
555.00	42590.73
555.17	42726.48
555.33	42649.24
555.50	42368.38
555.67	42799.04
555.83	42817.76
556.00	43136.07
556.16	43512.90
556.33	42672.65
556.50	42726.48
556.66	42869.25
556.83	42682.01
556.99	42887.98
557.16	42904.36
557.32	43477.79
557.49	43154.80
557.65	43091.60
557.82	42679.67
557.98	43021.39
558.15	43505.88
558.32	43178.20
558.48	43260.12
558.65	42808.40
558.81	42497.11
558.98	43122.03
559.14	43035.43
559.31	43435.66
559.47	43423.96
559.64	43587.80
559.80	43400.55
559.97	43552.69
560.13	43222.67
560.30	43255.44
560.46	43335.02
560.63	42983.94
560.79	43683.76
560.96	43941.22
561.12	43386.51
561.29	43786.74
561.45	43477.79
561.61	43428.64
561.78	43613.54
561.94	43260.12
562.11	43000.32
562.27	43744.61
562.44	43353.74
562.60	43196.93
562.77	43562.05
562.93	43583.12
563.10	43761.00
563.26	43384.17
563.42	43440.34
563.59	43510.56
563.75	43648.65
563.92	43880.36
564.08	43796.10
564.24	44058.24
564.41	43409.92
564.57	43840.57
564.74	43782.06
564.90	43702.48
565.07	43796.10
565.23	43562.05
565.39	43833.55
565.56	43601.84
565.72	43367.79
565.88	43393.53
566.05	43873.34
566.21	43674.40
566.38	43683.76
566.54	43749.29
566.70	43559.71
566.87	44425.71
567.03	44105.06
567.19	44762.75
567.36	44243.15
567.52	43791.42
567.68	43739.93
567.85	44069.95
568.01	44194.00
568.17	43838.23
568.34	44430.39
568.50	44093.35
568.66	43810.15
568.83	43992.71
568.99	43629.93
569.15	43814.83
569.32	44034.84
569.48	43988.03
569.64	43959.94
569.81	43995.05
569.97	44194.00
570.13	44280.60
570.30	44205.70
570.46	43927.17
570.62	43786.74
570.78	43718.87
570.95	43592.48
571.11	44210.38
571.27	44240.81
571.43	43917.81
571.60	43821.85
571.76	43950.58
571.92	43814.83
572.09	43941.22
572.25	44060.58
572.41	44264.21
572.57	44367.20
572.74	44837.64
572.90	44194.00
573.06	44638.70
573.22	44182.29
573.38	44083.99
573.55	43964.62
573.71	44549.76
573.87	44364.85
574.03	44147.18
574.20	44121.44
574.36	44034.84
574.52	44100.37
574.68	44212.72
574.84	44526.35
575.01	44306.34
575.17	44179.95
575.33	43910.79
575.49	43817.17
575.65	44240.81
575.82	44683.17
575.98	44495.92
576.14	44612.95
576.30	44636.36
576.46	44168.25
576.62	44442.09
576.79	44130.80
576.95	44313.36
577.11	44098.03
577.27	44755.72
577.43	44369.54
577.59	43889.73
577.75	44524.01
577.92	43882.70
578.08	44060.58
578.24	43580.78
578.40	44058.24
578.56	44236.12
578.72	44392.94
578.88	44584.86
579.04	44481.88
579.21	44451.45
579.37	44350.81
579.53	44720.62
579.69	44531.03
579.85	44395.28
580.01	44486.56
580.17	44140.16
580.33	44603.59
580.49	44289.96
580.65	44987.44
580.82	44617.63
580.98	44147.18
581.14	44257.19
581.30	44444.43
581.46	44877.43
581.62	44954.67
581.78	44634.02
581.94	44851.69
582.10	44341.45
582.26	44591.89
582.42	44404.64
582.58	44519.33
582.74	44182.29
582.90	44341.45
583.06	44545.08
583.22	44392.94
583.38	44928.92
583.54	44954.67
583.70	44889.13
583.86	44659.76
584.02	44643.38
584.18	44521.67
584.34	44486.56
584.50	44350.81
584.66	44315.70
584.82	44348.47
584.98	44748.70
585.14	44715.93
585.30	44275.91
585.46	44729.98
585.62	44034.84
585.78	44650.40
585.94	44161.23
586.10	44465.50
586.26	44641.04
586.42	44591.89
586.58	44847.00
586.74	44652.74
586.90	44493.58
587.06	44769.77
587.22	44509.97
587.38	44264.21
587.54	44610.61
587.70	44861.05
587.86	44671.46
588.02	44603.59
588.18	44570.82
588.34	44414.01
588.49	44165.91
588.65	44039.52
588.81	43695.46
588.97	44676.15
589.13	44268.89
589.29	44509.97
589.45	44123.78
589.61	44357.83
589.77	44699.55
589.93	44760.40
590.08	44765.09
590.24	44823.60
