SpectraSuite Data File
++++++++++++++++++++++++++++++++++++
Date: Fri Oct 25 11:33:41 EDT 2013
User: price-jones
Dark Spectrum Present: No
Reference Spectrum Present: No
Number of Sampled Component Spectra: 1
Spectrometers: USB2+H05261
Integration Time (usec): 100000 (USB2+H05261)
Spectra Averaged: 1 (USB2+H05261)
Boxcar Smoothing: 0 (USB2+H05261)
Correct for Electrical Dark: No (USB2+H05261)
Strobe/Lamp Enabled: No (USB2+H05261)
Correct for Detector Non-linearity: No (USB2+H05261)
Correct for Stray Light: No (USB2+H05261)
Number of Pixels in Processed Spectrum: 2048
>>>>>Begin Processed Spectral Data<<<<<
365.73	245.76
365.92	245.76
366.12	245.76
366.32	166.18
366.52	168.52
366.72	177.88
366.91	117.03
367.11	149.79
367.31	184.90
367.51	194.26
367.70	161.50
367.90	201.29
368.10	117.03
368.30	161.50
368.49	145.11
368.69	182.56
368.89	170.86
369.09	173.20
369.28	210.65
369.48	166.18
369.68	166.18
369.87	257.46
370.07	248.10
370.27	231.71
370.47	327.68
370.66	493.85
370.86	573.43
371.06	601.52
371.25	613.22
371.45	615.56
371.65	512.58
371.84	571.09
372.04	606.20
372.24	620.24
372.44	559.39
372.63	596.84
372.83	622.58
373.03	606.20
373.22	606.20
373.42	657.69
373.62	582.79
373.81	660.03
374.01	730.25
374.21	631.94
374.40	641.31
374.60	629.60
374.79	596.84
374.99	667.05
375.19	683.44
375.38	685.78
375.58	634.29
375.78	683.44
375.97	709.18
376.17	716.20
376.37	695.14
376.56	702.16
376.76	653.01
376.95	725.57
377.15	713.86
377.35	676.41
377.54	706.84
377.74	643.65
377.93	664.71
378.13	592.16
378.33	645.99
378.52	725.57
378.72	765.36
378.91	784.08
379.11	671.73
379.31	638.97
379.50	636.63
379.70	725.57
379.89	763.01
380.09	624.92
380.28	709.18
380.48	755.99
380.68	704.50
380.87	758.33
381.07	720.88
381.26	741.95
381.46	748.97
381.65	699.82
381.85	784.08
382.04	727.91
382.24	716.20
382.43	798.12
382.63	723.23
382.83	781.74
383.02	809.83
383.22	746.63
383.41	807.48
383.61	774.72
383.80	819.19
384.00	793.44
384.19	753.65
384.39	870.68
384.58	774.72
384.78	828.55
384.97	880.04
385.17	851.96
385.36	842.59
385.56	882.38
385.75	788.76
385.95	854.30
386.14	814.51
386.34	896.43
386.53	901.11
386.72	933.87
386.92	877.70
387.11	894.08
387.31	889.40
387.50	788.76
387.70	922.17
387.89	835.57
388.09	814.51
388.28	866.00
388.48	912.81
388.67	926.85
388.86	894.08
389.06	858.98
389.25	992.39
389.45	954.94
389.64	1053.24
389.84	997.07
390.03	983.02
390.22	926.85
390.42	936.21
390.61	985.37
390.81	922.17
391.00	983.02
391.19	1034.52
391.39	966.64
391.58	1027.50
391.78	1011.11
391.97	940.90
392.16	973.66
392.36	1015.79
392.55	1018.13
392.75	1118.78
392.94	1025.15
393.13	1184.31
393.33	1029.84
393.52	1121.12
393.71	1219.42
393.91	1153.88
394.10	1036.86
394.29	1076.65
394.49	1111.75
394.68	1060.26
394.88	1137.50
395.07	1156.22
395.26	1142.18
395.46	1086.01
395.65	1221.76
395.84	1163.25
396.04	1212.40
396.23	1135.16
396.42	1181.97
396.62	1235.80
396.81	1217.08
397.00	1210.06
397.19	1184.31
397.39	1214.74
397.58	1249.85
397.77	1196.01
397.97	1294.32
398.16	1303.68
398.35	1291.98
398.55	1322.40
398.74	1310.70
398.93	1345.81
399.12	1261.55
399.32	1296.66
399.51	1324.74
399.70	1371.55
399.90	1294.32
400.09	1476.88
400.28	1392.62
400.47	1343.47
400.67	1406.66
400.86	1427.73
401.05	1495.60
401.24	1441.77
401.44	1486.24
401.63	1380.92
401.82	1420.71
402.01	1385.60
402.21	1444.11
402.40	1490.92
402.59	1444.11
402.78	1497.94
402.97	1556.46
403.17	1614.97
403.36	1504.96
403.55	1612.63
403.74	1631.35
403.93	1521.35
404.13	1659.44
404.32	1598.59
404.51	1680.50
404.70	1696.89
404.89	1633.69
405.09	1717.95
405.28	1680.50
405.47	1675.82
405.66	1708.59
405.85	1708.59
406.05	1694.55
406.24	1717.95
406.43	1757.74
406.62	1834.98
406.81	1851.36
407.00	1755.40
407.20	1872.43
407.39	1818.60
407.58	1947.33
407.77	1926.26
407.96	1865.41
408.15	2019.88
408.34	1937.96
408.54	2024.56
408.73	1774.13
408.92	1898.17
409.11	1973.07
409.30	2001.16
409.49	1942.64
409.68	1982.43
409.87	1930.94
410.07	2078.40
410.26	2127.55
410.45	2073.71
410.64	2022.22
410.83	2085.42
411.02	2136.91
411.21	2305.43
411.40	2188.40
411.59	2092.44
411.78	2214.15
411.98	2214.15
412.17	2282.02
412.36	2225.85
412.55	2319.47
412.74	2361.60
412.93	2396.71
413.12	2263.30
413.31	2469.27
413.50	2413.09
413.69	2377.98
413.88	2588.63
414.07	2359.26
414.26	2466.92
414.45	2459.90
414.64	2452.88
414.83	2546.50
415.02	2579.27
415.22	2663.53
415.41	2698.64
415.60	2803.96
415.79	2794.60
415.98	2647.15
416.17	2785.24
416.36	2708.00
416.55	2736.09
416.74	2808.64
416.93	2813.32
417.12	2773.53
417.31	2904.60
417.50	2911.63
417.69	3068.44
417.88	2974.82
418.07	2862.48
418.26	2974.82
418.45	2949.08
418.64	3122.27
418.83	3030.99
419.02	3035.67
419.21	3066.10
419.39	3117.59
419.58	3112.91
419.77	3042.70
419.96	3183.13
420.15	3234.62
420.34	3215.90
420.53	3049.72
420.72	3272.07
420.91	3438.25
421.10	3361.01
421.29	3218.24
421.48	3159.72
421.67	3234.62
421.86	3335.26
422.05	3206.53
422.24	3494.42
422.43	3466.33
422.61	3361.01
422.80	3365.69
422.99	3471.01
423.18	3419.52
423.37	3456.97
423.56	3449.95
423.75	3431.23
423.94	3346.97
424.13	3145.68
424.32	3279.09
424.50	3492.08
424.69	3571.66
424.88	3571.66
425.07	3475.70
425.26	3426.54
425.45	3471.01
425.64	3332.92
425.83	3456.97
426.01	3426.54
426.20	3487.40
426.39	3550.59
426.58	3552.93
426.77	3517.83
426.96	3471.01
427.15	3524.85
427.33	3522.51
427.52	3536.55
427.71	3618.47
427.90	3569.32
428.09	3688.68
428.28	3679.32
428.46	3779.97
428.65	3606.77
428.84	3840.82
429.03	3702.73
429.22	3768.26
429.40	3665.28
429.59	3871.25
429.78	3620.81
429.97	3667.62
430.16	3784.65
430.34	3833.80
430.53	3946.14
430.72	3831.46
430.91	3758.90
431.10	3892.31
431.28	3969.55
431.47	4086.58
431.66	3985.93
431.85	3971.89
432.03	3955.51
432.22	4142.75
432.41	4128.70
432.60	4065.51
432.79	3974.23
432.97	4182.54
433.16	4149.77
433.35	4147.43
433.54	4269.14
433.72	4177.86
433.91	4180.20
434.10	4383.82
434.28	4222.33
434.47	4224.67
434.66	4322.97
434.85	4280.84
435.03	4524.26
435.22	4395.53
435.41	4472.76
435.59	4355.74
435.78	4482.13
435.97	4491.49
436.16	4376.80
436.34	4409.57
436.53	4454.04
436.72	4592.13
436.90	4421.27
437.09	4468.08
437.28	4409.57
437.46	4631.92
437.65	4645.96
437.84	4622.56
438.02	4723.20
438.21	4493.83
438.40	4606.17
438.58	4713.84
438.77	4802.78
438.96	4692.77
439.14	4793.42
439.33	4833.21
439.52	4903.42
439.70	4915.12
439.89	5085.98
440.08	5085.98
440.26	5041.51
440.45	5048.54
440.63	5200.67
440.82	5245.14
441.01	5004.07
441.19	5181.95
441.38	5280.25
441.57	5298.97
441.75	5329.40
441.94	5406.64
442.12	5411.32
442.31	5462.81
442.50	5366.85
442.68	5341.10
442.87	5467.49
443.05	5533.03
443.24	5666.44
443.43	5490.90
443.61	5392.59
443.80	5783.46
443.98	5425.36
444.17	5411.32
444.35	5661.76
444.54	5776.44
444.73	5631.33
444.91	5741.33
445.10	5734.31
445.28	5724.95
445.47	5680.48
445.65	5706.23
445.84	5647.71
446.02	5778.78
446.21	5804.53
446.39	5717.93
446.58	5781.12
446.77	5832.62
446.95	5579.84
447.14	5561.11
447.32	5872.40
447.51	5769.42
447.69	5827.93
447.88	5827.93
448.06	5741.33
448.25	5820.91
448.43	5809.21
448.62	5844.32
448.80	5645.37
448.99	5926.24
449.17	5968.37
449.36	5888.79
449.54	5921.56
449.73	6214.12
449.91	6186.04
450.10	6197.74
450.28	6239.87
450.46	6284.34
450.65	6232.85
450.83	6183.70
451.02	6153.27
451.20	6141.57
451.39	6118.16
451.57	6258.59
451.76	6216.46
451.94	6087.73
452.13	6445.84
452.31	6340.51
452.49	6139.23
452.68	6338.17
452.86	6244.55
453.05	6534.78
453.23	6349.87
453.42	6452.86
453.60	6410.73
453.78	6448.18
453.97	6307.74
454.15	6424.77
454.34	6408.39
454.52	6504.35
454.70	6553.50
454.89	6661.16
455.07	6635.42
455.26	6689.25
455.44	6707.98
455.62	6754.79
455.81	6815.64
455.99	6780.53
456.17	6693.93
456.36	6988.84
456.54	6909.26
456.73	6883.52
456.91	7087.14
457.09	6988.84
457.28	7014.59
457.46	6939.69
457.64	6998.20
457.83	7023.95
458.01	7096.50
458.19	7045.01
458.38	7005.22
458.56	7255.66
458.74	7054.37
458.93	7267.36
459.11	7227.57
459.29	7335.24
459.48	7318.86
459.66	7243.96
459.84	7360.98
460.03	7592.70
460.21	7424.18
460.39	7419.50
460.57	7466.31
460.76	7466.31
460.94	7309.49
461.12	7599.72
461.31	7611.42
461.49	7510.78
461.67	7555.25
461.85	7609.08
462.04	7438.22
462.22	7997.61
462.40	7901.65
462.59	7674.62
462.77	7653.55
462.95	7616.10
463.13	7793.98
463.32	7882.92
463.50	7744.83
463.68	7826.75
463.86	7983.57
464.05	7920.37
464.23	7903.99
464.41	7988.25
464.59	7943.78
464.78	8191.88
464.96	8058.46
465.14	7880.58
465.32	8226.98
465.50	8184.85
465.69	8236.35
465.87	7936.76
466.05	8163.79
466.23	8163.79
466.41	8470.40
466.60	8372.10
466.78	8332.31
466.96	8107.62
467.14	8100.59
467.32	8191.88
467.51	8458.70
467.69	8149.75
467.87	8205.92
468.05	8514.87
468.23	8292.52
468.41	8334.65
468.60	8512.53
468.78	8409.54
468.96	8229.32
469.14	8549.98
469.32	8667.00
469.50	8540.61
469.69	8765.31
469.87	8746.58
470.05	8638.92
470.23	8826.16
470.41	8854.25
470.59	8926.80
470.77	8720.84
470.95	8889.35
471.14	9074.26
471.32	8849.57
471.50	8964.25
471.68	9074.26
471.86	9205.33
472.04	9076.60
472.22	9420.66
472.40	9408.95
472.58	9163.20
472.77	9453.42
472.95	9369.16
473.13	9537.68
473.31	9371.50
473.49	9521.30
473.67	9385.55
473.85	9472.15
474.03	9741.31
474.21	9762.37
474.39	9841.95
474.57	9816.21
474.75	9783.44
474.93	10047.92
475.12	9987.07
475.30	10136.86
475.48	10106.43
475.66	10391.98
475.84	9998.77
476.02	10202.40
476.20	10115.80
476.38	10462.19
476.56	10663.48
476.74	10705.61
476.92	10640.08
477.10	10707.95
477.28	10750.08
477.46	10963.07
477.64	10705.61
477.82	10956.05
478.00	11162.01
478.18	11197.12
478.36	11445.22
478.54	11337.56
478.72	11543.52
478.90	11421.81
479.08	11721.40
479.26	11709.70
479.44	11763.53
479.62	11796.30
479.80	11681.61
479.98	12004.61
480.16	12463.35
480.34	12081.85
480.52	12138.02
480.70	12301.86
480.88	12025.67
481.06	12372.07
481.24	12594.42
481.41	12580.38
481.59	12601.44
481.77	12943.16
481.95	13027.42
482.13	13130.41
482.31	12842.52
482.49	13170.19
482.67	13472.12
482.85	13507.23
483.03	13757.67
483.21	13804.48
483.39	13935.55
483.57	13792.78
483.74	14090.02
483.92	14113.43
484.10	13870.01
484.28	14544.09
484.46	14721.97
484.64	14672.82
484.82	14487.92
485.00	14740.69
485.18	14913.89
485.35	15021.56
485.53	14977.09
485.71	15206.46
485.89	15672.23
486.07	15435.83
486.25	15379.66
486.43	15454.56
486.61	15618.39
486.78	15941.39
486.96	15803.30
487.14	15946.07
487.32	16350.98
487.50	16248.00
487.68	16613.12
487.85	16358.00
488.03	16781.64
488.21	16931.44
488.39	17090.59
488.57	17104.64
488.75	17076.55
488.92	17556.36
489.10	17675.73
489.28	17687.43
489.46	17797.43
489.64	17914.46
489.81	17888.71
489.99	18106.38
490.17	18424.70
490.35	18616.62
490.53	18499.59
490.70	18974.72
490.88	18464.49
491.06	18848.33
491.24	19000.47
491.41	19183.03
491.59	19365.59
491.77	19288.35
491.95	19548.15
492.13	19557.52
492.30	19868.81
492.48	19939.02
492.66	19793.91
492.84	20063.07
493.01	20514.80
493.19	20301.81
493.37	20603.74
493.54	20556.93
493.72	20395.43
493.90	21022.69
494.08	20720.76
494.25	21010.99
494.43	21060.14
494.61	21317.60
494.79	21048.44
494.96	21584.42
495.14	21532.93
495.32	21774.00
495.49	21858.26
495.67	21986.99
495.85	22061.89
496.02	22253.81
496.20	22286.58
496.38	22733.62
496.55	22492.55
496.73	22862.35
496.91	22885.76
497.09	23110.45
497.26	22967.68
497.44	22944.27
497.62	23318.76
497.79	23709.63
497.97	23466.21
498.14	23300.03
498.32	23906.23
498.50	23957.72
498.67	24002.19
498.85	24245.61
499.03	24144.97
499.20	24322.85
499.38	24449.24
499.56	24254.97
499.73	24587.33
499.91	24945.43
500.08	24519.45
500.26	24652.86
500.44	24896.28
500.61	24929.05
500.79	24882.24
500.97	25301.19
501.14	25448.64
501.32	25458.01
501.49	25273.10
501.67	25500.14
501.84	25462.69
502.02	25689.72
502.20	25823.13
502.37	25865.26
502.55	25853.56
502.72	26216.34
502.90	26232.72
503.07	26071.23
503.25	26518.27
503.43	26426.99
503.60	26553.38
503.78	26487.84
503.95	26527.63
504.13	26836.58
504.30	27175.96
504.48	26799.13
504.65	27267.24
504.83	27211.07
505.01	27527.04
505.18	27541.08
505.36	27531.72
505.53	27367.88
505.71	27513.00
505.88	27388.95
506.06	27391.29
506.23	28140.26
506.41	27557.47
506.58	28105.15
506.76	28070.04
506.93	28126.22
507.11	27826.63
507.28	27889.82
507.46	28376.66
507.63	28669.22
507.81	28393.04
507.98	28498.36
508.16	28512.41
508.33	28900.94
508.50	28872.85
508.68	29092.86
508.85	29158.39
509.03	28524.11
509.20	29230.95
509.38	29511.81
509.55	29633.52
509.73	29598.41
509.90	29699.06
510.08	29848.85
510.25	29642.88
510.42	29755.23
510.60	30085.25
510.77	29961.20
510.95	30120.35
511.12	30082.91
511.30	29811.40
511.47	30012.69
511.64	30113.33
511.82	30541.65
511.99	30724.21
512.17	31007.42
512.34	30515.90
512.51	30948.90
512.69	31054.23
512.86	30902.09
513.04	30934.86
513.21	30902.09
513.38	31124.44
513.56	31398.29
513.73	31349.14
513.90	31311.69
514.08	31206.36
514.25	31445.10
514.43	31915.54
514.60	31721.28
514.77	31426.37
514.95	31370.20
515.12	31761.07
515.29	32039.59
515.47	31955.33
515.64	32339.18
515.81	32226.84
515.99	31950.65
516.16	32627.07
516.33	32493.66
516.51	32708.99
516.68	32732.39
516.85	32002.14
517.03	32620.05
517.20	32732.39
517.37	32737.07
517.54	32772.18
517.72	32975.81
517.89	32807.29
518.06	32926.66
518.24	32594.30
518.41	33088.15
518.58	33303.48
518.75	33228.59
518.93	33736.48
519.10	33357.32
519.27	33453.28
519.45	33802.02
519.62	34225.65
519.79	33731.80
519.96	34209.27
520.14	34099.26
520.31	34321.62
520.48	34239.70
520.65	34113.31
520.83	34550.99
521.00	34572.05
521.17	34529.92
521.34	34583.76
521.52	34742.91
521.69	34794.40
521.86	34703.12
522.03	35299.96
522.20	34855.26
522.38	35103.35
522.55	35229.74
522.72	34920.79
522.89	35414.65
523.07	35604.23
523.24	35332.73
523.41	35768.07
523.58	35454.44
523.75	35524.65
523.92	35634.66
524.10	35641.68
524.27	35819.56
524.44	35744.66
524.61	35756.36
524.78	36278.30
524.96	36121.49
525.13	36051.27
525.30	36191.70
525.47	36545.12
525.64	36428.10
525.81	36257.24
525.98	36460.87
526.16	36418.74
526.33	36219.79
526.50	36540.44
526.67	36711.30
526.84	36605.98
527.01	36449.16
527.18	36762.79
527.36	37057.70
527.53	36620.02
527.70	37556.24
527.87	37060.04
528.04	37102.17
528.21	36800.24
528.38	36966.42
528.55	37479.00
528.72	37097.49
528.89	37504.74
529.07	37123.24
529.24	37422.83
529.41	37663.90
529.58	38103.92
529.75	37923.70
529.92	37862.85
530.09	37741.14
530.26	37450.91
530.43	37937.74
530.60	37493.04
530.77	37706.03
530.94	38314.57
531.11	37883.91
531.28	38265.42
531.46	37888.59
531.63	38555.64
531.80	38473.73
531.97	38801.40
532.14	38429.26
532.31	38185.84
532.48	38756.93
532.65	39241.42
532.82	38258.40
532.99	39082.27
533.16	38623.52
533.33	38747.57
533.50	39049.50
533.67	38873.96
533.84	38990.98
534.01	38979.28
534.18	39168.87
534.35	39342.06
534.52	39290.57
534.69	39674.42
534.86	39562.08
535.03	39255.46
535.20	39548.03
535.37	39283.55
535.54	39826.56
535.71	39192.27
535.88	39615.91
536.05	39772.72
536.22	40231.47
536.38	39758.68
536.55	39908.47
536.72	39672.08
536.89	39997.41
537.06	39889.75
537.23	39931.88
537.40	39838.26
537.57	40016.14
537.74	39257.81
537.91	40554.46
538.08	40222.11
538.25	40025.50
538.42	40076.99
538.59	40882.14
538.75	40552.12
538.92	40334.45
539.09	40210.40
539.26	40828.30
539.43	40797.88
539.60	41015.55
539.77	40797.88
539.94	41062.36
540.11	40940.65
540.28	41120.87
540.44	40751.07
540.61	40973.42
540.78	40774.47
540.95	41060.02
541.12	41076.40
541.29	40753.41
541.46	41148.96
541.62	41455.57
541.79	41474.29
541.96	40868.09
542.13	41170.02
542.30	40910.22
542.47	41359.61
542.63	41808.99
542.80	41701.32
542.97	41972.83
543.14	42398.80
543.31	41624.09
543.48	41799.63
543.64	42232.63
543.81	42061.77
543.98	42391.78
544.15	42036.02
544.32	42206.88
544.48	42782.65
544.65	42717.12
544.82	42546.26
544.99	42131.98
545.16	42415.19
545.32	42380.08
545.49	42712.44
545.66	42754.57
545.83	42614.13
546.00	42890.32
546.16	42642.22
546.33	42361.36
546.50	42167.09
546.67	43072.88
546.83	42232.63
547.00	42705.41
547.17	42892.66
547.34	42918.40
547.50	43115.01
547.67	43545.67
547.84	43072.88
548.00	43428.64
548.17	43409.92
548.34	43580.78
548.51	43508.22
548.67	43089.26
548.84	43388.85
549.01	44027.82
549.18	43662.69
549.34	43562.05
549.51	43746.95
549.68	43571.41
549.84	43643.97
550.01	43917.81
550.18	43452.05
550.34	43210.97
550.51	43690.78
550.68	44067.61
550.84	43311.61
551.01	44006.75
551.18	43779.72
551.34	43812.49
551.51	43817.17
551.68	43793.76
551.84	43711.84
552.01	43529.28
552.18	44004.41
552.34	43978.67
552.51	44807.22
552.68	43995.05
552.84	44203.36
553.01	44105.06
553.18	44414.01
553.34	44371.88
553.51	44500.61
553.67	44318.04
553.84	44722.96
554.01	44942.97
554.17	44685.51
554.34	44409.32
554.51	44465.50
554.67	44713.59
554.84	44552.10
555.00	44711.25
555.17	44596.57
555.33	45069.36
555.50	44535.71
555.67	44715.93
555.83	44790.83
556.00	44879.77
556.16	45170.00
556.33	44971.05
556.50	45207.45
556.66	45287.03
556.83	44715.93
556.99	45443.84
557.16	45158.30
557.32	45315.11
557.49	45350.22
557.65	45048.29
557.82	45071.70
557.98	44959.35
558.15	45244.90
558.32	45401.71
558.48	45034.25
558.65	45375.97
558.81	45333.84
558.98	45443.84
559.14	45378.31
559.31	45153.62
559.47	45729.39
559.64	45663.85
559.80	45656.83
559.97	46045.36
560.13	45141.91
560.30	45422.78
560.46	45689.60
560.63	45656.83
560.79	46003.23
560.96	45666.19
561.12	45790.24
561.29	45947.06
561.45	45940.04
561.61	45579.59
561.78	46007.91
561.94	45883.86
562.11	45853.44
562.27	46066.42
562.44	45481.29
562.60	45846.41
562.77	45984.51
562.93	46031.32
563.10	46267.71
563.26	45729.39
563.42	46356.65
563.59	46012.59
563.75	45830.03
563.92	46429.21
564.08	46010.25
564.24	46078.13
564.41	46218.56
564.57	45897.91
564.74	46632.83
564.90	46026.63
565.07	46047.70
565.23	45991.53
565.39	46230.26
565.56	46476.02
565.72	46623.47
565.88	46274.73
566.05	46494.74
566.21	46155.36
566.38	46237.28
566.54	46597.73
566.70	46408.14
566.87	46291.12
567.03	46021.95
567.19	46887.95
567.36	46281.75
567.52	46417.50
567.68	46312.18
567.85	46726.46
568.01	46829.44
568.17	46527.51
568.34	46843.48
568.50	46920.72
568.66	46492.40
568.83	46550.91
568.99	46773.27
569.15	46731.14
569.32	46681.98
569.48	46436.23
569.64	47044.77
569.81	46768.58
569.97	47173.50
570.13	46916.04
570.30	46480.70
570.46	46831.78
570.62	46752.20
570.78	46763.90
570.95	46653.90
571.11	46831.78
571.27	46681.98
571.43	46808.37
571.60	46876.25
571.76	46679.64
571.92	46756.88
572.09	46775.61
572.25	46630.49
572.41	46382.40
572.57	47019.02
572.74	46951.15
572.90	46981.57
573.06	47306.91
573.22	47033.07
573.38	47103.28
573.55	47004.98
573.71	47540.96
573.87	47449.68
574.03	47250.74
574.20	47150.09
574.36	47299.89
574.52	47224.99
574.68	46902.00
574.84	47452.02
575.01	47203.92
575.17	46913.70
575.33	47421.59
575.49	46993.28
575.65	47421.59
575.82	47173.50
575.98	46869.23
576.14	47407.55
576.30	47437.98
576.46	47222.65
576.62	46902.00
576.79	47002.64
576.95	47220.31
577.11	47166.48
577.27	47152.43
577.43	47110.30
577.59	47131.37
577.75	46955.83
577.92	46986.25
578.08	47093.92
578.24	47065.83
578.40	47126.69
578.56	47138.39
578.72	47103.28
578.88	47276.48
579.04	47501.17
579.21	47302.23
579.37	47232.01
579.53	47440.32
579.69	47700.12
579.85	47061.15
580.01	47234.35
580.17	47288.18
580.33	47056.47
580.49	47601.82
580.65	47594.79
580.82	47098.60
580.98	47096.26
581.14	47229.67
581.30	47117.32
581.46	47386.49
581.62	47604.16
581.78	47042.43
581.94	47327.97
582.10	47629.90
582.26	47571.39
582.42	47084.56
582.58	47393.51
582.74	47557.35
582.90	47285.84
583.06	47625.22
583.22	47283.50
583.38	47330.31
583.54	47334.99
583.70	47643.94
583.86	47580.75
584.02	46890.29
584.18	47889.70
584.34	47466.06
584.50	47725.86
584.66	47267.12
584.82	47639.26
584.98	48058.22
585.14	47906.08
585.30	47320.95
585.46	47452.02
585.62	47552.66
585.78	47590.11
585.94	47248.39
586.10	47505.85
586.26	47311.59
586.42	47543.30
586.58	47777.36
586.74	47583.09
586.90	47962.26
587.06	47737.57
587.22	47552.66
587.38	47515.22
587.54	48179.93
587.70	47973.96
587.86	47819.49
588.02	47517.56
588.18	47770.33
588.34	47966.94
588.49	47655.65
588.65	48034.81
588.81	47709.48
588.97	47578.41
589.13	47922.47
589.29	47484.79
589.45	47517.56
589.61	47924.81
589.77	48048.86
589.93	47688.42
590.08	47756.29
