SpectraSuite Data File
++++++++++++++++++++++++++++++++++++
Date: Fri Oct 25 11:33:56 EDT 2013
User: price-jones
Dark Spectrum Present: No
Reference Spectrum Present: No
Number of Sampled Component Spectra: 1
Spectrometers: USB2+H05261
Integration Time (usec): 100000 (USB2+H05261)
Spectra Averaged: 1 (USB2+H05261)
Boxcar Smoothing: 0 (USB2+H05261)
Correct for Electrical Dark: No (USB2+H05261)
Strobe/Lamp Enabled: No (USB2+H05261)
Correct for Detector Non-linearity: No (USB2+H05261)
Correct for Stray Light: No (USB2+H05261)
Number of Pixels in Processed Spectrum: 2048
>>>>>Begin Processed Spectral Data<<<<<
365.73	320.65
365.92	320.65
366.12	320.65
366.32	198.95
366.52	198.95
366.72	184.90
366.91	161.50
367.11	173.20
367.31	187.24
367.51	145.11
367.70	234.05
367.90	290.23
368.10	212.99
368.30	159.16
368.49	191.92
368.69	163.84
368.89	142.77
369.09	152.13
369.28	210.65
369.48	201.29
369.68	290.23
369.87	149.79
370.07	243.42
370.27	294.91
370.47	344.06
370.66	545.34
370.86	486.83
371.06	557.05
371.25	589.82
371.45	491.51
371.65	578.11
371.84	564.07
372.04	561.73
372.24	613.22
372.44	531.30
372.63	638.97
372.83	655.35
373.03	671.73
373.22	615.56
373.42	517.26
373.62	648.33
373.81	620.24
374.01	704.50
374.21	711.52
374.40	681.10
374.60	723.23
374.79	662.37
374.99	681.10
375.19	650.67
375.38	664.71
375.58	669.39
375.78	716.20
375.97	688.12
376.17	739.61
376.37	641.31
376.56	657.69
376.76	685.78
376.95	683.44
377.15	671.73
377.35	650.67
377.54	751.31
377.74	667.05
377.93	676.41
378.13	713.86
378.33	678.76
378.52	674.07
378.72	763.01
378.91	704.50
379.11	589.82
379.31	695.14
379.50	704.50
379.70	692.80
379.89	741.95
380.09	713.86
380.28	727.91
380.48	791.10
380.68	706.84
380.87	627.26
381.07	767.70
381.26	779.40
381.46	786.42
381.65	777.06
381.85	727.91
382.04	777.06
382.24	840.25
382.43	807.48
382.63	765.36
382.83	767.70
383.02	765.36
383.22	791.10
383.41	798.12
383.61	751.31
383.80	835.57
384.00	767.70
384.19	805.14
384.39	891.74
384.58	772.38
384.78	779.40
384.97	821.53
385.17	929.19
385.36	866.00
385.56	856.64
385.75	840.25
385.95	805.14
386.14	884.72
386.34	875.36
386.53	877.70
386.72	844.93
386.92	866.00
387.11	936.21
387.31	926.85
387.50	830.89
387.70	866.00
387.89	828.55
388.09	840.25
388.28	849.61
388.48	884.72
388.67	915.15
388.86	1011.11
389.06	966.64
389.25	943.24
389.45	938.55
389.64	858.98
389.84	919.83
390.03	938.55
390.22	938.55
390.42	940.90
390.61	917.49
390.81	990.05
391.00	1039.20
391.19	1018.13
391.39	945.58
391.58	1060.26
391.78	931.53
391.97	1020.47
392.16	971.32
392.36	1041.54
392.55	1043.88
392.75	1095.37
392.94	1090.69
393.13	1043.88
393.33	1050.90
393.52	1036.86
393.71	1111.75
393.91	1083.67
394.10	1039.20
394.29	1107.07
394.49	1064.94
394.68	1064.94
394.88	1163.25
395.07	1125.80
395.26	1116.44
395.46	1158.57
395.65	1149.20
395.84	1116.44
396.04	1322.40
396.23	1174.95
396.42	1242.82
396.62	1207.72
396.81	1242.82
397.00	1153.88
397.19	1170.27
397.39	1186.65
397.58	1313.04
397.77	1203.04
397.97	1270.91
398.16	1259.21
398.35	1291.98
398.55	1179.63
398.74	1263.89
398.93	1352.83
399.12	1310.70
399.32	1299.00
399.51	1282.61
399.70	1371.55
399.90	1310.70
400.09	1383.26
400.28	1453.47
400.47	1413.68
400.67	1334.11
400.86	1385.60
401.05	1327.08
401.24	1401.98
401.44	1472.20
401.63	1446.45
401.82	1404.32
402.01	1418.36
402.21	1474.54
402.40	1481.56
402.59	1441.77
402.78	1488.58
402.97	1523.69
403.17	1462.83
403.36	1537.73
403.55	1565.82
403.74	1593.90
403.93	1558.80
404.13	1558.80
404.32	1535.39
404.51	1629.01
404.70	1617.31
404.89	1624.33
405.09	1727.32
405.28	1614.97
405.47	1586.88
405.66	1617.31
405.85	1678.16
406.05	1724.97
406.24	1760.08
406.43	1844.34
406.62	1790.51
406.81	1790.51
407.00	1729.66
407.20	1682.85
407.39	1746.04
407.58	1893.49
407.77	1867.75
407.96	1973.07
408.15	1849.02
408.34	1886.47
408.54	1839.66
408.73	1928.60
408.92	1872.43
409.11	2012.86
409.30	2008.18
409.49	2019.88
409.68	1984.77
409.87	2059.67
410.07	2078.40
410.26	2069.03
410.45	1980.09
410.64	2080.74
410.83	2118.18
411.02	2122.87
411.21	2228.19
411.40	2148.61
411.59	2143.93
411.78	2218.83
411.98	2310.11
412.17	2370.96
412.36	2211.81
412.55	2296.07
412.74	2305.43
412.93	2340.54
413.12	2258.62
413.31	2462.24
413.50	2483.31
413.69	2370.96
413.88	2574.59
414.07	2565.23
414.26	2544.16
414.45	2466.92
414.64	2473.95
414.83	2640.12
415.02	2644.81
415.22	2555.86
415.41	2661.19
415.60	2642.46
415.79	2663.53
415.98	2663.53
416.17	2747.79
416.36	2698.64
416.55	2661.19
416.74	2712.68
416.93	2696.30
417.12	2846.09
417.31	2825.03
417.50	2836.73
417.69	2930.35
417.88	2930.35
418.07	2883.54
418.26	2902.26
418.45	2928.01
418.64	3073.12
418.83	3019.29
419.02	3075.46
419.21	3143.34
419.39	3192.49
419.58	3042.70
419.77	3042.70
419.96	3098.87
420.15	3293.13
420.34	3052.06
420.53	3122.27
420.72	3157.38
420.91	3199.51
421.10	3304.84
421.29	3269.73
421.48	3243.98
421.67	3342.28
421.86	3211.22
422.05	3272.07
422.24	3386.76
422.43	3351.65
422.61	3384.41
422.80	3368.03
422.99	3391.44
423.18	3382.07
423.37	3384.41
423.56	3478.04
423.75	3452.29
423.94	3325.90
424.13	3241.64
424.32	3321.22
424.50	3447.61
424.69	3499.10
424.88	3529.53
425.07	3400.80
425.26	3346.97
425.45	3405.48
425.64	3405.48
425.83	3272.07
426.01	3489.74
426.20	3272.07
426.39	3426.54
426.58	3389.10
426.77	3480.38
426.96	3375.05
427.15	3379.73
427.33	3566.98
427.52	3471.01
427.71	3651.24
427.90	3721.45
428.09	3784.65
428.28	3730.81
428.46	3726.13
428.65	3644.21
428.84	3831.46
429.03	3784.65
429.22	3623.15
429.40	3775.28
429.59	3791.67
429.78	3651.24
429.97	3559.95
430.16	3672.30
430.34	3772.94
430.53	3904.01
430.72	3812.73
430.91	3840.82
431.10	3786.99
431.28	3929.76
431.47	3932.10
431.66	3871.25
431.85	3878.27
432.03	3962.53
432.22	4173.18
432.41	4044.45
432.60	3999.98
432.79	4145.09
432.97	4109.98
433.16	3939.12
433.35	4058.49
433.54	4086.58
433.72	4138.07
433.91	4159.13
434.10	4112.32
434.28	4091.26
434.47	4264.46
434.66	4114.66
434.85	4269.14
435.03	4327.65
435.22	4271.48
435.41	4407.23
435.59	4320.63
435.78	4369.78
435.97	4442.34
436.16	4229.35
436.34	4325.31
436.53	4397.87
436.72	4491.49
436.90	4393.19
437.09	4571.07
437.28	4386.16
437.46	4322.97
437.65	4550.00
437.84	4622.56
438.02	4624.90
438.21	4709.16
438.40	4655.33
438.58	4732.56
438.77	4702.14
438.96	4814.48
439.14	4945.55
439.33	4926.83
439.52	4884.70
439.70	4816.82
439.89	4854.27
440.08	4734.90
440.26	5043.85
440.45	4809.80
440.63	5015.77
440.82	5114.07
441.01	5193.65
441.19	5172.58
441.38	5266.21
441.57	5210.03
441.75	5195.99
441.94	5256.84
442.12	5383.23
442.31	5465.15
442.50	5411.32
442.68	5317.70
442.87	5296.63
443.05	5584.52
443.24	5750.70
443.43	5481.53
443.61	5518.98
443.80	5650.05
443.98	5441.75
444.17	5378.55
444.35	5507.28
444.54	5575.16
444.73	5565.79
444.91	5710.91
445.10	5575.16
445.28	5652.39
445.47	5561.11
445.65	5633.67
445.84	5621.97
446.02	5743.67
446.21	5570.48
446.39	5746.02
446.58	5600.90
446.77	5778.78
446.95	5509.62
447.14	5722.61
447.32	5767.08
447.51	5830.27
447.69	5851.34
447.88	5776.44
448.06	5636.01
448.25	5729.63
448.43	5809.21
448.62	5811.55
448.80	5898.15
448.99	5865.38
449.17	5944.96
449.36	5879.43
449.54	6038.58
449.73	6207.10
449.91	6094.76
450.10	6073.69
450.28	6303.06
450.46	6162.63
450.65	6085.39
450.83	6127.52
451.02	5991.77
451.20	6125.18
451.39	6132.20
451.57	6134.54
451.76	6043.26
451.94	5991.77
452.13	6441.15
452.31	6174.33
452.49	6076.03
452.68	6429.45
452.86	6183.70
453.05	6438.81
453.23	6403.71
453.42	6230.51
453.60	6296.04
453.78	6506.69
453.97	6345.19
454.15	6424.77
454.34	6392.00
454.52	6525.41
454.70	6422.43
454.89	6588.61
455.07	6555.84
455.26	6698.61
455.44	6600.31
455.62	6581.59
455.81	6595.63
455.99	6757.13
456.17	6700.95
456.36	6689.25
456.54	6883.52
456.73	6897.56
456.91	7066.08
457.09	6988.84
457.28	7173.74
457.46	6881.18
457.64	7049.69
457.83	7108.21
458.01	6764.15
458.19	7042.67
458.38	7077.78
458.56	7171.40
458.74	7056.72
458.93	7169.06
459.11	7159.70
459.29	7258.00
459.48	7173.74
459.66	7281.41
459.84	7290.77
460.03	7384.39
460.21	7293.11
460.39	7283.75
460.57	7208.85
460.76	7466.31
460.94	7475.67
461.12	7442.90
461.31	7522.48
461.49	7389.07
461.67	7562.27
461.85	7803.35
462.04	7583.34
462.22	7894.63
462.40	7775.26
462.59	7721.43
462.77	7613.76
462.95	7887.61
463.13	7805.69
463.32	7756.54
463.50	7808.03
463.68	7939.10
463.86	7948.46
464.05	7686.32
464.23	7861.86
464.41	8079.53
464.59	7899.31
464.78	8194.22
464.96	7829.09
465.14	7859.52
465.32	8138.04
465.50	8037.40
465.69	8109.96
465.87	8021.02
466.05	8023.36
466.23	7971.86
466.41	8278.47
466.60	8222.30
466.78	8081.87
466.96	8154.43
467.14	8154.43
467.32	8198.90
467.51	8383.80
467.69	8056.12
467.87	8234.00
468.05	8301.88
468.23	8042.08
468.41	8313.58
468.60	8262.09
468.78	8524.23
468.96	8402.52
469.14	8587.43
469.32	8699.77
469.50	8432.95
469.69	8620.19
469.87	8645.94
470.05	8730.20
470.23	8823.82
470.41	8739.56
470.59	8997.02
470.77	8624.87
470.95	8821.48
471.14	8891.70
471.32	8868.29
471.50	8830.84
471.68	8727.86
471.86	9130.43
472.04	9153.84
472.22	9179.58
472.40	9114.05
472.58	9130.43
472.77	8980.64
472.95	9387.89
473.13	9425.34
473.31	9327.03
473.49	9460.45
473.67	9320.01
473.85	9294.27
474.03	9753.01
474.21	9565.77
474.39	9635.99
474.57	9692.16
474.75	9748.33
474.93	9942.60
475.12	9958.98
475.30	9963.66
475.48	9884.08
475.66	10003.45
475.84	10066.64
476.02	10331.12
476.20	10178.99
476.38	10384.96
476.56	10621.35
476.74	10513.69
476.92	10342.83
477.10	10574.54
477.28	10663.48
477.46	10600.29
477.64	10937.32
477.82	10874.13
478.00	11145.63
478.18	11112.86
478.36	10988.82
478.54	11311.81
478.72	11379.68
478.90	11276.70
479.08	11297.77
479.26	11639.48
479.44	11463.94
479.62	11646.51
479.80	11829.07
479.98	11623.10
480.16	12301.86
480.34	11920.35
480.52	12180.15
480.70	12072.48
480.88	12301.86
481.06	12276.11
481.24	12411.86
481.41	12538.25
481.59	12762.94
481.77	12943.16
481.95	12961.89
482.13	12709.11
482.31	12889.33
482.49	13390.20
482.67	13514.25
482.85	13603.19
483.03	13596.17
483.21	13446.38
483.39	13797.46
483.57	13652.34
483.74	13741.29
483.92	14059.60
484.10	13713.20
484.28	14080.66
484.46	14609.62
484.64	14618.99
484.82	14424.72
485.00	14586.22
485.18	14902.19
485.35	15061.35
485.53	14885.81
485.71	14970.07
485.89	15566.90
486.07	15218.16
486.25	15290.72
486.43	15405.41
486.61	15389.02
486.78	15674.57
486.96	15543.50
487.14	16126.29
487.32	15995.22
487.50	16224.59
487.68	16154.38
487.85	16386.09
488.03	16575.67
488.21	16870.58
488.39	16746.53
488.57	16964.20
488.75	17179.53
488.92	17291.88
489.10	17582.10
489.28	17371.46
489.46	17561.04
489.64	17598.49
489.81	17982.34
489.99	18141.49
490.17	17839.56
490.35	18331.08
490.53	18370.86
490.70	18738.33
490.88	18136.81
491.06	18925.57
491.24	18789.82
491.41	19204.10
491.59	19204.10
491.77	18824.93
491.95	19459.21
492.13	19295.38
492.30	19417.08
492.48	19433.47
492.66	19653.48
492.84	19744.76
493.01	20039.67
493.19	19723.69
493.37	19845.40
493.54	20070.09
493.72	20423.51
493.90	20606.08
494.08	20648.21
494.25	20840.13
494.43	20711.40
494.61	21071.84
494.79	20926.73
494.96	20809.70
495.14	21544.63
495.32	21617.19
495.49	21685.06
495.67	21656.98
495.85	21895.71
496.02	21905.07
496.20	22242.11
496.38	22354.46
496.55	22228.07
496.73	22513.61
496.91	22534.68
497.09	22583.83
497.26	22724.26
497.44	22852.99
497.62	22955.97
497.79	23274.29
497.97	23374.93
498.14	23330.46
498.32	23211.09
498.50	23627.71
498.67	24046.66
498.85	23452.17
499.03	23758.78
499.20	24077.09
499.38	23852.40
499.56	24315.83
499.73	24350.93
499.91	24355.61
500.08	24797.98
500.26	24556.90
500.44	24287.74
500.61	24851.81
500.79	24617.75
500.97	24858.83
501.14	25277.79
501.32	25277.79
501.49	25153.74
501.67	25282.47
501.84	25390.13
502.02	24957.13
502.20	25369.07
502.37	25266.08
502.55	25511.84
502.72	25879.30
502.90	25710.78
503.07	25954.20
503.25	25511.84
503.43	25783.34
503.60	26071.23
503.78	26235.06
503.95	26176.55
504.13	26625.93
504.30	26665.72
504.48	26764.03
504.65	26661.04
504.83	27108.08
505.01	27009.78
505.18	27332.78
505.36	27372.57
505.53	26991.06
505.71	27316.39
505.88	27016.80
506.06	27143.19
506.23	27491.93
506.41	27484.91
506.58	27660.45
506.76	27920.25
506.93	27953.02
507.11	27529.38
507.28	28037.28
507.46	28339.21
507.63	28219.84
507.81	28198.77
507.98	27704.92
508.16	28238.56
508.33	28318.14
508.50	28641.14
508.68	28816.68
508.85	28900.94
509.03	28741.78
509.20	28526.45
509.38	29095.20
509.55	29144.35
509.73	29266.06
509.90	29486.07
510.08	29373.72
510.25	29193.50
510.42	29308.19
510.60	29619.48
510.77	29457.98
510.95	29844.17
511.12	29834.81
511.30	29874.60
511.47	29982.26
511.64	30059.50
511.82	30061.84
511.99	30192.91
512.17	30213.98
512.34	30038.44
512.51	30536.97
512.69	30946.56
512.86	30354.41
513.04	30691.44
513.21	30721.87
513.38	30588.46
513.56	31384.24
513.73	30700.81
513.90	31056.57
514.08	31307.01
514.25	31307.01
514.43	31388.92
514.60	31599.57
514.77	31367.86
514.95	31449.78
515.12	31283.60
515.29	31534.04
515.47	31707.24
515.64	31983.42
515.81	31566.81
515.99	31845.33
516.16	32231.52
516.33	32004.49
516.51	32762.82
516.68	31683.83
516.85	31974.06
517.03	32287.69
517.20	32353.23
517.37	32570.90
517.54	32627.07
517.72	32655.15
517.89	32259.60
518.06	33036.66
518.24	33099.86
518.41	32989.85
518.58	33170.07
518.75	32772.18
518.93	33160.71
519.10	32716.01
519.27	32989.85
519.45	33369.02
519.62	33319.87
519.79	33792.65
519.96	33563.28
520.14	33610.09
520.31	33251.99
520.48	33567.96
520.65	33579.67
520.83	33982.24
521.00	34326.30
521.17	33947.13
521.34	34403.53
521.52	34623.54
521.69	34539.29
521.86	34651.63
522.03	34330.98
522.20	34543.97
522.38	34986.33
522.55	34794.40
522.72	34810.79
522.89	34675.04
523.07	35428.69
523.24	34871.64
523.41	34904.41
523.58	34953.56
523.75	35449.75
523.92	35438.05
524.10	35552.74
524.27	35215.70
524.44	35459.12
524.61	35241.45
524.78	35789.13
524.96	35885.09
525.13	36002.12
525.30	35725.94
525.47	35861.69
525.64	35569.12
525.81	36201.07
525.98	36027.87
526.16	35934.24
526.33	35976.37
526.50	36355.54
526.67	35959.99
526.84	36374.27
527.01	36503.00
527.18	36620.02
527.36	36851.73
527.53	36610.66
527.70	37097.49
527.87	36762.79
528.04	36528.74
528.21	36760.45
528.38	36746.41
528.55	37298.78
528.72	36404.69
528.89	37038.98
529.07	37090.47
529.24	36835.35
529.41	37230.90
529.58	37266.01
529.75	37319.84
529.92	37352.61
530.09	37308.14
530.26	37460.27
530.43	37422.83
530.60	37350.27
530.77	37780.93
530.94	37991.58
531.11	37507.08
531.28	37567.94
531.46	37600.71
531.63	37558.58
531.80	37689.65
531.97	38277.12
532.14	37694.33
532.31	38096.90
532.48	38349.68
532.65	38480.75
532.82	38380.10
532.99	38075.84
533.16	38106.26
533.33	38447.98
533.50	38742.89
533.67	38457.34
533.84	38316.91
534.01	39035.45
534.18	38726.50
534.35	38536.92
534.52	38904.38
534.69	39070.56
534.86	39187.59
535.03	38848.21
535.20	39189.93
535.37	39091.63
535.54	39306.96
535.71	39215.68
535.88	39112.69
536.05	39363.13
536.22	39693.15
536.38	39295.25
536.55	39608.89
536.72	39641.65
536.89	39393.56
537.06	39494.20
537.23	39838.26
537.40	39550.37
537.57	39676.76
537.74	39786.77
537.91	40205.72
538.08	39945.92
538.25	39438.03
538.42	40142.53
538.59	40374.24
538.75	39910.82
538.92	40348.50
539.09	40353.18
539.26	39889.75
539.43	39847.62
539.60	40233.81
539.77	40474.88
539.94	40706.60
540.11	40493.61
540.28	40498.29
540.44	40222.11
540.61	39838.26
540.78	40589.57
540.95	40760.43
541.12	40313.39
541.29	40921.93
541.46	40444.46
541.62	40491.27
541.79	41310.46
541.96	40690.21
542.13	40306.37
542.30	40835.33
542.47	40900.86
542.63	40837.67
542.80	41326.84
542.97	41230.88
543.14	41467.27
543.31	41200.45
543.48	41237.90
543.64	42204.54
543.81	41521.10
543.98	41652.17
544.15	41366.63
544.32	42068.79
544.48	42328.59
544.65	42103.90
544.82	42232.63
544.99	41474.29
545.16	42031.34
545.32	41862.82
545.49	42347.31
545.66	42366.04
545.83	42110.92
546.00	42328.59
546.16	42117.94
546.33	42501.79
546.50	42073.47
546.67	42415.19
546.83	41911.97
547.00	42258.37
547.17	42380.08
547.34	42569.66
547.50	42806.06
547.67	42698.39
547.84	42616.47
548.00	42326.25
548.17	43086.92
548.34	42906.70
548.51	43009.68
548.67	43360.76
548.84	42930.11
549.01	42824.78
549.18	42869.25
549.34	42960.53
549.51	43409.92
549.68	43330.34
549.84	43009.68
550.01	43253.10
550.18	43531.62
550.34	43299.91
550.51	43559.71
550.68	43386.51
550.84	42822.44
551.01	43234.38
551.18	43175.86
551.34	43344.38
551.51	43629.93
551.68	43725.89
551.84	43714.19
552.01	43243.74
552.18	43658.01
552.34	43487.15
552.51	43281.19
552.68	43239.06
552.84	44048.88
553.01	44399.96
553.18	43629.93
553.34	43555.03
553.51	43667.37
553.67	44034.84
553.84	43988.03
554.01	43861.64
554.17	43885.04
554.34	44502.95
554.51	44002.07
554.67	44612.95
554.84	44594.23
555.00	44189.31
555.17	44264.21
555.33	44744.02
555.50	44182.29
555.67	44222.08
555.83	44186.97
556.00	44224.42
556.16	44966.37
556.33	44533.37
556.50	44179.95
556.66	44872.75
556.83	44128.46
556.99	44828.28
557.16	45193.40
557.32	44816.58
557.49	44692.53
557.65	44533.37
557.82	44959.35
557.98	44584.86
558.15	44758.06
558.32	45382.99
558.48	44657.42
558.65	44793.17
558.81	44751.04
558.98	44666.78
559.14	44699.55
559.31	45024.89
559.47	44996.80
559.64	44921.90
559.80	44811.90
559.97	45219.15
560.13	45050.63
560.30	45062.33
560.46	45497.67
560.63	46075.79
560.79	45170.00
560.96	45516.40
561.12	45455.54
561.29	45235.53
561.45	45052.97
561.61	45413.41
561.78	45242.56
561.94	45652.15
562.11	45214.47
562.27	45490.65
562.44	45027.23
562.60	45722.37
562.77	45380.65
562.93	45455.54
563.10	45537.46
563.26	45481.29
563.42	45968.12
563.59	45202.77
563.75	45155.96
563.92	45593.64
564.08	45617.04
564.24	45958.76
564.41	45975.14
564.57	45741.09
564.74	45808.96
564.90	45633.42
565.07	46047.70
565.23	46057.06
565.39	45523.42
565.56	45827.69
565.72	46000.89
565.88	46288.77
566.05	45708.32
566.21	45874.50
566.38	45429.80
566.54	46005.57
566.70	45762.15
566.87	45935.35
567.03	45890.88
567.19	46473.68
567.36	45918.97
567.52	45989.19
567.68	46211.54
567.85	46143.66
568.01	46454.95
568.17	45687.26
568.34	46230.26
568.50	46092.17
568.66	45881.52
568.83	46216.22
568.99	45893.22
569.15	46265.37
569.32	46050.04
569.48	46106.21
569.64	46555.60
569.81	46667.94
569.97	46241.96
570.13	46646.88
570.30	46106.21
570.46	46391.76
570.62	46237.28
570.78	46251.33
570.95	46227.92
571.11	46623.47
571.27	45949.40
571.43	46298.14
571.60	45923.65
571.76	46160.05
571.92	46007.91
572.09	46391.76
572.25	46506.44
572.41	45954.08
572.57	46387.08
572.74	47342.02
572.90	46574.32
573.06	46525.17
573.22	46380.06
573.38	46794.33
573.55	46508.79
573.71	47304.57
573.87	46621.13
574.03	46253.67
574.20	46700.71
574.36	46494.74
574.52	46642.20
574.68	46478.36
574.84	46808.37
575.01	46461.97
575.17	46742.84
575.33	46703.05
575.49	47007.32
575.65	46941.78
575.82	46597.73
575.98	46394.10
576.14	47075.19
576.30	47175.84
576.46	46761.56
576.62	46740.50
576.79	46656.24
576.95	46518.15
577.11	46759.22
577.27	46656.24
577.43	46576.66
577.59	46852.84
577.75	46628.15
577.92	46284.09
578.08	46293.46
578.24	46749.86
578.40	46808.37
578.56	46660.92
578.72	46969.87
578.88	47089.24
579.04	46684.33
579.21	46401.12
579.37	46665.60
579.53	46906.68
579.69	46714.75
579.85	47208.61
580.01	46946.47
580.17	46714.75
580.33	46906.68
580.49	47145.41
580.65	47290.52
580.82	46817.74
580.98	46616.45
581.14	46728.80
581.30	47234.35
581.46	47040.09
581.62	46873.91
581.78	46707.73
581.94	47105.62
582.10	46972.21
582.26	46885.61
582.42	47590.11
582.58	47143.07
582.74	46941.78
582.90	47098.60
583.06	47114.98
583.22	46932.42
583.38	46902.00
583.54	47269.46
583.70	46897.31
583.86	46876.25
584.02	46632.83
584.18	46925.40
584.34	47124.35
584.50	47332.65
584.66	47112.64
584.82	47445.00
584.98	47136.05
585.14	47168.82
585.30	47143.07
585.46	47452.02
585.62	46944.12
585.78	47707.14
585.94	47175.84
586.10	47140.73
586.26	46787.31
586.42	46824.76
586.58	47063.49
586.74	46918.38
586.90	47143.07
587.06	46780.29
587.22	47402.87
587.38	46803.69
587.54	47236.69
587.70	47377.12
587.86	47150.09
588.02	46740.50
588.18	47318.61
588.34	47587.77
588.49	47311.59
588.65	47002.64
588.81	47194.56
588.97	47194.56
589.13	46927.74
589.29	47260.10
589.45	47353.72
589.61	47428.62
589.77	47452.02
589.93	47379.46
590.08	46986.25
