SpectraSuite Data File
++++++++++++++++++++++++++++++++++++
Date: Fri Oct 25 10:44:32 EDT 2013
User: price-jones
Dark Spectrum Present: No
Reference Spectrum Present: No
Number of Sampled Component Spectra: 1
Spectrometers: USB2+H05261
Integration Time (usec): 100000 (USB2+H05261)
Spectra Averaged: 1 (USB2+H05261)
Boxcar Smoothing: 0 (USB2+H05261)
Correct for Electrical Dark: No (USB2+H05261)
Strobe/Lamp Enabled: No (USB2+H05261)
Correct for Detector Non-linearity: No (USB2+H05261)
Correct for Stray Light: No (USB2+H05261)
Number of Pixels in Processed Spectrum: 2048
>>>>>Begin Processed Spectral Data<<<<<
365.73	161.50
365.92	161.50
366.12	161.50
366.32	23.41
366.52	11.70
366.72	32.77
366.91	11.70
367.11	46.81
367.31	4.68
367.51	32.77
367.70	0.00
367.90	0.00
368.10	51.49
368.30	0.00
368.49	28.09
368.69	0.00
368.89	9.36
369.09	37.45
369.28	46.81
369.48	79.58
369.68	35.11
369.87	121.71
370.07	112.35
370.27	79.58
370.47	196.60
370.66	351.08
370.86	430.66
371.06	395.55
371.25	447.04
371.45	486.83
371.65	470.45
371.84	390.87
372.04	407.25
372.24	388.53
372.44	521.94
372.63	517.26
372.83	437.68
373.03	433.00
373.22	524.28
373.42	491.51
373.62	470.45
373.81	589.82
374.01	531.30
374.21	557.05
374.40	531.30
374.60	589.82
374.79	524.28
374.99	540.66
375.19	634.29
375.38	571.09
375.58	589.82
375.78	641.31
375.97	512.58
376.17	599.18
376.37	500.87
376.56	592.16
376.76	559.39
376.95	510.24
377.15	547.69
377.35	650.67
377.54	615.56
377.74	606.20
377.93	617.90
378.13	582.79
378.33	631.94
378.52	617.90
378.72	692.80
378.91	676.41
379.11	601.52
379.31	648.33
379.50	535.98
379.70	615.56
379.89	704.50
380.09	603.86
380.28	643.65
380.48	765.36
380.68	678.76
380.87	594.50
381.07	599.18
381.26	629.60
381.46	653.01
381.65	648.33
381.85	695.14
382.04	706.84
382.24	690.46
382.43	648.33
382.63	716.20
382.83	676.41
383.02	720.88
383.22	711.52
383.41	718.54
383.61	725.57
383.80	765.36
384.00	704.50
384.19	692.80
384.39	709.18
384.58	805.14
384.78	767.70
384.97	800.46
385.17	737.27
385.36	645.99
385.56	774.72
385.75	718.54
385.95	795.78
386.14	753.65
386.34	730.25
386.53	795.78
386.72	795.78
386.92	891.74
387.11	844.93
387.31	798.12
387.50	814.51
387.70	823.87
387.89	830.89
388.09	873.02
388.28	912.81
388.48	866.00
388.67	849.61
388.86	901.11
389.06	842.59
389.25	856.64
389.45	959.62
389.64	875.36
389.84	1027.50
390.03	978.34
390.22	887.06
390.42	884.72
390.61	954.94
390.81	933.87
391.00	1015.79
391.19	1022.81
391.39	1027.50
391.58	922.17
391.78	990.05
391.97	983.02
392.16	1015.79
392.36	1011.11
392.55	997.07
392.75	1006.43
392.94	976.00
393.13	1015.79
393.33	851.96
393.52	1013.45
393.71	1022.81
393.91	938.55
394.10	1011.11
394.29	1034.52
394.49	1057.92
394.68	1114.10
394.88	1153.88
395.07	1135.16
395.26	1078.99
395.46	1198.35
395.65	1086.01
395.84	1174.95
396.04	1303.68
396.23	1067.28
396.42	1064.94
396.62	1036.86
396.81	1118.78
397.00	1118.78
397.19	1256.87
397.39	1263.89
397.58	1289.64
397.77	1170.27
397.97	1224.10
398.16	1245.16
398.35	1249.85
398.55	1324.74
398.74	1336.45
398.93	1352.83
399.12	1385.60
399.32	1294.32
399.51	1310.70
399.70	1437.09
399.90	1373.89
400.09	1383.26
400.28	1500.28
400.47	1401.98
400.67	1556.46
400.86	1582.20
401.05	1488.58
401.24	1490.92
401.44	1533.05
401.63	1483.90
401.82	1603.27
402.01	1514.33
402.21	1654.76
402.40	1631.35
402.59	1596.25
402.78	1689.87
402.97	1547.09
403.17	1617.31
403.36	1565.82
403.55	1617.31
403.74	1746.04
403.93	1776.47
404.13	1671.14
404.32	1753.06
404.51	1621.99
404.70	1652.42
404.89	1753.06
405.09	1816.26
405.28	1727.32
405.47	1806.89
405.66	1818.60
405.85	1874.77
406.05	1785.83
406.24	1776.47
406.43	1837.32
406.62	1842.00
406.81	1930.94
407.00	1853.70
407.20	1870.09
407.39	1846.68
407.58	1888.81
407.77	1914.56
407.96	1944.99
408.15	2083.08
408.34	2078.40
408.54	1968.39
408.73	2160.31
408.92	2019.88
409.11	2111.16
409.30	2069.03
409.49	2040.95
409.68	2073.71
409.87	1959.03
410.07	2069.03
410.26	2150.95
410.45	2148.61
410.64	2200.10
410.83	2289.04
411.02	2188.40
411.21	2312.45
411.40	2300.75
411.59	2352.24
411.78	2375.64
411.98	2347.56
412.17	2340.54
412.36	2429.48
412.55	2457.56
412.74	2579.27
412.93	2502.03
413.12	2443.52
413.31	2619.06
413.50	2558.21
413.69	2600.34
413.88	2675.23
414.07	2693.96
414.26	2626.08
414.45	2731.41
414.64	2637.78
414.83	2658.85
415.02	2822.69
415.22	2862.48
415.41	2857.79
415.60	2785.24
415.79	3082.49
415.98	3082.49
416.17	2942.05
416.36	2946.73
416.55	2944.39
416.74	2972.48
416.93	2878.86
417.12	3002.91
417.31	3063.76
417.50	2949.08
417.69	3124.62
417.88	3063.76
418.07	3101.21
418.26	3112.91
418.45	3045.04
418.64	3262.71
418.83	3206.53
419.02	3358.67
419.21	3321.22
419.39	3328.24
419.58	3159.72
419.77	3246.32
419.96	3463.99
420.15	3262.71
420.34	3419.52
420.53	3471.01
420.72	3480.38
420.91	3475.70
421.10	3407.82
421.29	3471.01
421.48	3492.08
421.67	3513.14
421.86	3492.08
422.05	3454.63
422.24	3471.01
422.43	3576.34
422.61	3410.16
422.80	3588.04
422.99	3562.30
423.18	3590.38
423.37	3648.90
423.56	3634.85
423.75	3662.94
423.94	3562.30
424.13	3452.29
424.32	3552.93
424.50	3475.70
424.69	3576.34
424.88	3599.74
425.07	3524.85
425.26	3475.70
425.45	3763.58
425.64	3562.30
425.83	3644.21
426.01	3695.71
426.20	3779.97
426.39	3660.60
426.58	3686.34
426.77	3761.24
426.96	3613.79
427.15	3632.51
427.33	3878.27
427.52	3588.04
427.71	3653.58
427.90	3864.22
428.09	3801.03
428.28	3845.50
428.46	3822.09
428.65	3864.22
428.84	4039.76
429.03	3990.61
429.22	3749.54
429.40	3901.67
429.59	3786.99
429.78	3742.52
429.97	3721.45
430.16	3859.54
430.34	3904.01
430.53	3889.97
430.72	3999.98
430.91	3833.80
431.10	3850.18
431.28	4194.24
431.47	4250.41
431.66	4271.48
431.85	4224.67
432.03	4292.54
432.22	4290.20
432.41	4163.81
432.60	4437.66
432.79	4205.94
432.97	4430.63
433.16	4386.16
433.35	4236.37
433.54	4236.37
433.72	4367.44
433.91	4372.12
434.10	4329.99
434.28	4402.55
434.47	4423.61
434.66	4645.96
434.85	4669.37
435.03	4545.32
435.22	4484.47
435.41	4545.32
435.59	4585.11
435.78	4690.43
435.97	4842.57
436.16	4734.90
436.34	4629.58
436.53	4739.58
436.72	4772.35
436.90	4725.54
437.09	4788.74
437.28	4648.30
437.46	4777.03
437.65	4828.53
437.84	4681.07
438.02	4777.03
438.21	4816.82
438.40	4840.23
438.58	4823.84
438.77	5011.09
438.96	4966.62
439.14	4959.60
439.33	5102.37
439.52	5226.42
439.70	5064.92
439.89	5139.82
440.08	5261.52
440.26	5153.86
440.45	5252.16
440.63	5493.24
440.82	5432.38
441.01	5362.17
441.19	5596.22
441.38	5528.35
441.57	5586.86
441.75	5568.13
441.94	5755.38
442.12	5678.14
442.31	5785.80
442.50	5717.93
442.68	5689.84
442.87	5968.37
443.05	5830.27
443.24	5951.98
443.43	5959.00
443.61	5912.19
443.80	6094.76
443.98	5907.51
444.17	5755.38
444.35	5980.07
444.54	6052.63
444.73	5947.30
444.91	5954.32
445.10	5984.75
445.28	6106.46
445.47	5785.80
445.65	5900.49
445.84	5865.38
446.02	6057.31
446.21	5975.39
446.39	5966.03
446.58	5961.34
446.77	6181.35
446.95	5944.96
447.14	6026.88
447.32	6169.65
447.51	5989.43
447.69	6001.13
447.88	6150.93
448.06	6118.16
448.25	6087.73
448.43	6069.01
448.62	6150.93
448.80	6106.46
448.99	6249.23
449.17	6373.28
449.36	6256.25
449.54	6518.39
449.73	6396.68
449.91	6392.00
450.10	6436.47
450.28	6609.67
450.46	6604.99
450.65	6698.61
450.83	6487.96
451.02	6502.01
451.20	6616.69
451.39	6558.18
451.57	6604.99
451.76	6736.06
451.94	6668.19
452.13	6752.45
452.31	6581.59
452.49	6593.29
452.68	6752.45
452.86	6434.13
453.05	6801.60
453.23	6764.15
453.42	6647.12
453.60	6703.29
453.78	6778.19
453.97	6780.53
454.15	6937.35
454.34	6846.07
454.52	7019.27
454.70	7021.61
454.89	7005.22
455.07	6970.12
455.26	6970.12
455.44	7068.42
455.62	6927.99
455.81	7124.59
455.99	7112.89
456.17	7169.06
456.36	7190.13
456.54	7218.21
456.73	7281.41
456.91	7667.60
457.09	7524.82
457.28	7592.70
457.46	7342.26
457.64	7597.38
457.83	7536.52
458.01	7265.02
458.19	7597.38
458.38	7552.91
458.56	7499.08
458.74	7637.17
458.93	7606.74
459.11	7573.97
459.29	7726.11
459.48	7667.60
459.66	7555.25
459.84	7639.51
460.03	7793.98
460.21	7784.62
460.39	7983.57
460.57	7765.90
460.76	7901.65
460.94	7992.93
461.12	7735.47
461.31	7932.08
461.49	8128.68
461.67	7875.90
461.85	8212.94
462.04	7906.33
462.22	8023.36
462.40	8226.98
462.59	8084.21
462.77	8226.98
462.95	8353.37
463.13	8252.73
463.32	8273.79
463.50	8418.91
463.68	8425.93
463.86	8189.53
464.05	8128.68
464.23	8271.45
464.41	8292.52
464.59	8191.88
464.78	8557.00
464.96	8294.86
465.14	8292.52
465.32	8388.48
465.50	8791.05
465.69	8769.99
465.87	8423.59
466.05	8418.91
466.23	8430.61
466.41	8521.89
466.60	8777.01
466.78	8641.26
466.96	8566.36
467.14	8624.87
467.32	8624.87
467.51	8613.17
467.69	8423.59
467.87	8716.16
468.05	9032.13
468.23	8795.73
468.41	8744.24
468.60	8903.40
468.78	8865.95
468.96	8835.52
469.14	9069.58
469.32	8985.32
469.50	8734.88
469.69	9137.45
469.87	8938.51
470.05	9139.79
470.23	9116.39
470.41	9097.66
470.59	9001.70
470.77	9249.80
470.95	9245.12
471.14	9514.28
471.32	9350.44
471.50	9397.25
471.68	9378.53
471.86	9486.19
472.04	9549.39
472.22	9877.06
472.40	9469.81
472.58	9558.75
472.77	9652.37
472.95	9561.09
473.13	10090.05
473.31	9900.47
473.49	9764.72
473.67	9788.12
473.85	10036.22
474.03	10235.16
474.21	10235.16
474.39	10127.50
474.57	10298.36
474.75	10546.45
474.93	10370.91
475.12	10438.79
475.30	10431.77
475.48	10436.45
475.66	10567.52
475.84	10298.36
476.02	10647.10
476.20	10572.20
476.38	10696.25
476.56	11089.46
476.74	10923.28
476.92	10836.68
477.10	11059.03
477.28	11180.74
477.46	11190.10
477.64	11375.00
477.82	11524.80
478.00	11335.21
478.18	11456.92
478.36	11616.08
478.54	12046.74
478.72	11620.76
478.90	11929.71
479.08	12109.93
479.26	12053.76
479.44	12201.21
479.62	12243.34
479.80	12458.67
479.98	12507.82
480.16	12849.54
480.34	12713.79
480.52	12706.77
480.70	12725.49
480.88	12566.34
481.06	12809.75
481.24	13254.45
481.41	13181.90
481.59	13177.22
481.77	13219.35
481.95	13303.60
482.13	13345.73
482.31	13490.85
482.49	13745.97
482.67	13795.12
482.85	14071.30
483.03	13944.91
483.21	14108.75
483.39	14281.95
483.57	14211.73
483.74	14558.13
483.92	14602.60
484.10	14525.36
484.28	14953.68
484.46	15108.16
484.64	15199.44
484.82	14944.32
485.00	15318.81
485.18	15442.85
485.35	15501.37
485.53	15152.63
485.71	15222.84
485.89	15534.14
486.07	15321.15
486.25	15580.95
486.43	15700.31
486.61	15990.54
486.78	16112.25
486.96	16514.82
487.14	16617.80
487.32	16257.36
487.50	16926.75
487.68	16753.55
487.85	17032.08
488.03	17123.36
488.21	17514.23
488.39	17315.28
488.57	17596.15
488.75	17589.13
488.92	17752.96
489.10	18118.09
489.28	18125.11
489.46	18232.77
489.64	18483.21
489.81	18787.48
489.99	18696.20
490.17	18944.30
490.35	18810.89
490.53	19220.48
490.70	19253.25
490.88	18883.44
491.06	19213.46
491.24	19623.05
491.41	19438.15
491.59	19250.91
491.77	19194.73
491.95	19866.47
492.13	19967.11
492.30	20421.17
492.48	20020.94
492.66	20505.43
492.84	20262.02
493.01	20631.82
493.19	20748.85
493.37	20634.16
493.54	20917.37
493.72	20816.72
493.90	21039.08
494.08	21294.19
494.25	21401.86
494.43	21626.55
494.61	22120.40
494.79	21956.57
494.96	21926.14
495.14	21528.25
495.32	22057.21
495.49	21968.27
495.67	22438.72
495.85	22537.02
496.02	22951.29
496.20	22780.43
496.38	22813.20
496.55	23009.81
496.73	23227.48
496.91	23276.63
497.09	23534.09
497.26	23391.31
497.44	23604.30
497.62	24002.19
497.79	23674.52
497.97	23742.39
498.14	23459.19
498.32	23810.27
498.50	24163.69
498.67	24217.52
498.85	24283.06
499.03	24362.64
499.20	24428.17
499.38	24526.47
499.56	24704.35
499.73	24816.70
499.91	24851.81
500.08	24933.73
500.26	24730.10
500.44	25188.85
500.61	25053.09
500.79	24936.07
500.97	24915.00
501.14	25771.64
501.32	25046.07
501.49	25465.03
501.67	25422.90
501.84	25848.88
502.02	26202.30
502.20	26108.68
502.37	26010.37
502.55	25961.22
502.72	26230.38
502.90	26190.59
503.07	26176.55
503.25	26281.88
503.43	26333.37
503.60	26682.11
503.78	26192.94
503.95	26455.08
504.13	26576.78
504.30	27131.49
504.48	26969.99
504.65	27344.48
504.83	27498.95
505.01	27482.57
505.18	26859.99
505.36	27857.06
505.53	27742.37
505.71	27772.80
505.88	27716.62
506.06	27491.93
506.23	28184.73
506.41	27840.67
506.58	27936.63
506.76	28180.05
506.93	28467.94
507.11	28493.68
507.28	28102.81
507.46	28472.62
507.63	28278.35
507.81	28760.50
507.98	28025.57
508.16	28287.71
508.33	28854.12
508.50	28847.10
508.68	29032.00
508.85	28765.18
509.03	29170.10
509.20	29280.10
509.38	29413.51
509.55	29680.33
509.73	29153.71
509.90	29682.67
510.08	29832.47
510.25	29570.33
510.42	29635.86
510.60	30235.04
510.77	30022.05
510.95	30316.96
511.12	30422.28
511.30	30471.43
511.47	30459.73
511.64	30422.28
511.82	30429.30
511.99	30328.66
512.17	30412.92
512.34	30190.57
512.51	30998.06
512.69	30656.34
512.86	30759.32
513.04	31468.50
513.21	31047.21
513.38	31299.98
513.56	31187.64
513.73	30944.22
513.90	31220.41
514.08	31470.84
514.25	31213.38
514.43	31283.60
514.60	31679.15
514.77	31248.49
514.95	31737.66
515.12	31791.50
515.29	31812.56
515.47	31913.20
515.64	32325.14
515.81	31667.45
515.99	32100.45
516.16	32231.52
516.33	31864.05
516.51	31957.67
516.68	31793.84
516.85	31868.73
517.03	32208.11
517.20	32165.98
517.37	32381.31
517.54	32762.82
517.72	32662.18
517.89	32173.00
518.06	32617.71
518.24	32606.00
518.41	32385.99
518.58	32926.66
518.75	33198.16
518.93	32865.80
519.10	32912.61
519.27	33067.09
519.45	33039.00
519.62	33460.30
519.79	33195.82
519.96	33844.15
520.14	33663.93
520.31	33518.81
520.48	33354.97
520.65	33708.40
520.83	34473.75
521.00	34267.78
521.17	34045.43
521.34	34106.29
521.52	34525.24
521.69	34162.46
521.86	34307.57
522.03	34506.52
522.20	34394.17
522.38	34391.83
522.55	35021.44
522.72	34511.20
522.89	34426.94
523.07	34927.81
523.24	34499.50
523.41	34569.71
523.58	34939.52
523.75	35220.38
523.92	35175.91
524.10	35756.36
524.27	35220.38
524.44	35424.01
524.61	35489.54
524.78	35744.66
524.96	35950.63
525.13	35941.27
525.30	35644.02
525.47	35672.10
525.64	35903.82
525.81	35786.79
525.98	35796.15
526.16	35735.30
526.33	35737.64
526.50	35651.04
526.67	35269.53
526.84	35945.95
527.01	35896.80
527.18	35995.10
527.36	36311.07
527.53	36357.88
527.70	36704.28
527.87	36739.39
528.04	36615.34
528.21	36273.62
528.38	36156.60
528.55	37106.85
528.72	36685.56
528.89	36975.78
529.07	36868.12
529.24	36545.12
529.41	36847.05
529.58	36975.78
529.75	36863.44
529.92	36912.59
530.09	37214.52
530.26	37315.16
530.43	37418.14
530.60	37446.23
530.77	37736.46
530.94	37626.45
531.11	37289.42
531.28	37507.08
531.46	37624.11
531.63	37724.75
531.80	37567.94
531.97	37958.81
532.14	37586.66
532.31	37537.51
532.48	37783.27
532.65	38110.94
532.82	37233.24
532.99	37830.08
533.16	37951.79
533.33	38314.57
533.50	38223.29
533.67	38146.05
533.84	37699.01
534.01	38450.32
534.18	38440.96
534.35	38560.33
534.52	38188.18
534.69	38492.45
534.86	38492.45
535.03	38487.77
535.20	39054.18
535.37	39276.53
535.54	39030.77
535.71	38770.97
535.88	38808.42
536.05	38735.87
536.22	38990.98
536.38	38955.88
536.55	39150.14
536.72	39274.19
536.89	39098.65
537.06	39021.41
537.23	39182.91
537.40	39239.08
537.57	39625.27
537.74	38939.49
537.91	39419.30
538.08	39491.86
538.25	39154.82
538.42	39323.34
538.59	39686.12
538.75	38948.85
538.92	39248.44
539.09	39601.86
539.26	39674.42
539.43	39718.89
539.60	39803.15
539.77	39512.92
539.94	39599.52
540.11	39353.77
540.28	39454.41
540.44	39868.69
540.61	39606.55
540.78	39728.25
540.95	39468.45
541.12	40091.04
541.29	39957.63
541.46	39777.40
541.62	39931.88
541.79	39892.09
541.96	39625.27
542.13	40105.08
542.30	39934.22
542.47	40264.24
542.63	40325.09
542.80	40292.32
542.97	40975.76
543.14	40683.19
543.31	40753.41
543.48	40900.86
543.64	41116.19
543.81	40854.05
543.98	41064.70
544.15	41265.99
544.32	40966.40
544.48	41420.46
544.65	41029.59
544.82	40968.74
544.99	40914.90
545.16	41186.41
545.32	41003.85
545.49	41612.38
545.66	41186.41
545.83	41713.03
546.00	41670.90
546.16	41748.14
546.33	40844.69
546.50	40830.65
546.67	41706.01
546.83	41083.42
547.00	41586.64
547.17	41240.24
547.34	41436.84
547.50	41834.74
547.67	41970.49
547.84	41830.05
548.00	42078.15
548.17	42043.04
548.34	41649.83
548.51	42153.05
548.67	42146.03
548.84	42462.00
549.01	42316.89
549.18	41757.50
549.34	41883.89
549.51	42101.56
549.68	42550.94
549.84	42171.77
550.01	42029.00
550.18	42302.84
550.34	42323.91
550.51	41874.52
550.68	42178.79
550.84	41890.91
551.01	42527.53
551.18	42052.41
551.34	42227.95
551.51	42553.28
551.68	42387.10
551.84	42103.90
552.01	42454.98
552.18	42543.92
552.34	42146.03
552.51	42775.63
552.68	42602.43
552.84	42721.80
553.01	42462.00
553.18	42398.80
553.34	42670.31
553.51	42632.86
553.67	42674.99
553.84	43302.25
554.01	43189.91
554.17	43131.39
554.34	43115.01
554.51	42672.65
554.67	43248.42
554.84	42878.61
555.00	42997.98
555.17	43337.36
555.33	43323.32
555.50	42822.44
555.67	43068.20
555.83	43012.02
556.00	43669.72
556.16	43220.33
556.33	43370.13
556.50	42873.93
556.66	43824.19
556.83	43049.47
556.99	43147.78
557.16	43636.95
557.32	43550.35
557.49	44243.15
557.65	43138.41
557.82	43618.22
557.98	43693.12
558.15	43407.58
558.32	43526.94
558.48	43597.16
558.65	43957.60
558.81	43550.35
558.98	43241.40
559.14	43414.60
559.31	43320.98
559.47	43915.47
559.64	43775.04
559.80	44147.18
559.97	43798.44
560.13	43517.58
560.30	43339.70
560.46	43821.85
560.63	44004.41
560.79	43981.01
560.96	44112.08
561.12	43910.79
561.29	43971.64
561.45	43423.96
561.61	44280.60
561.78	43711.84
561.94	43571.41
562.11	43901.43
562.27	43988.03
562.44	44044.20
562.60	44191.65
562.77	44156.55
562.93	44226.76
563.10	44025.48
563.26	43966.96
563.42	44231.44
563.59	43878.02
563.75	44072.29
563.92	43819.51
564.08	44168.25
564.24	44208.04
564.41	43896.75
564.57	44147.18
564.74	44425.71
564.90	44165.91
565.07	44025.48
565.23	44151.87
565.39	44069.95
565.56	44100.37
565.72	44032.50
565.88	43866.32
566.05	43934.20
566.21	44282.94
566.38	44521.67
566.54	44224.42
566.70	44512.31
566.87	44425.71
567.03	44023.14
567.19	44421.03
567.36	44198.68
567.52	44406.98
567.68	44559.12
567.85	44264.21
568.01	44397.62
568.17	44137.82
568.34	44381.24
568.50	44194.00
568.66	44776.79
568.83	44500.61
568.99	44067.61
569.15	44053.56
569.32	44301.66
569.48	44172.93
569.64	44697.21
569.81	44631.68
569.97	44725.30
570.13	44542.74
570.30	44315.70
570.46	43999.73
570.62	44308.68
570.78	44236.12
570.95	44268.89
571.11	44453.79
571.27	44460.82
571.43	44512.31
571.60	44254.85
571.76	44357.83
571.92	44285.28
572.09	44552.10
572.25	44198.68
572.41	44425.71
572.57	44470.18
572.74	44935.95
572.90	44343.79
573.06	44715.93
573.22	44706.57
573.38	44531.03
573.55	44823.60
573.71	44779.13
573.87	44505.29
574.03	44442.09
574.20	44123.78
574.36	44421.03
574.52	44535.71
574.68	44411.67
574.84	44612.95
575.01	44797.85
575.17	44357.83
575.33	44252.51
575.49	44144.84
575.65	44652.74
575.82	45118.51
575.98	44498.26
576.14	44722.96
576.30	45081.06
576.46	44643.38
576.62	44222.08
576.79	44299.32
576.95	44219.74
577.11	44690.19
577.27	44940.63
577.43	44753.38
577.59	44842.32
577.75	44311.02
577.92	44556.78
578.08	44083.99
578.24	44250.17
578.40	44224.42
578.56	44844.66
578.72	44151.87
578.88	45392.35
579.04	44737.00
579.21	44877.43
579.37	44975.73
579.53	44629.34
579.69	44610.61
579.85	45097.44
580.01	45186.38
580.17	44917.22
580.33	44999.14
580.49	44638.70
580.65	44926.58
580.82	44912.54
580.98	44479.54
581.14	44765.09
581.30	45329.16
581.46	44596.57
581.62	44882.11
581.78	44900.84
581.94	44655.08
582.10	44362.51
582.26	44851.69
582.42	44439.75
582.58	44535.71
582.74	44891.48
582.90	44884.45
583.06	45226.17
583.22	44839.98
583.38	44945.31
583.54	44811.90
583.70	45006.16
583.86	44900.84
584.02	44416.35
584.18	44912.54
584.34	44809.56
584.50	44690.19
584.66	44357.83
584.82	44629.34
584.98	44959.35
585.14	45064.67
585.30	44524.01
585.46	44889.13
585.62	44739.34
585.78	44835.30
585.94	44617.63
586.10	44456.14
586.26	44669.12
586.42	45064.67
586.58	45148.93
586.74	45385.33
586.90	44673.81
587.06	44896.16
587.22	44659.76
587.38	44687.85
587.54	44610.61
587.70	45195.74
587.86	45022.54
588.02	45155.96
588.18	44919.56
588.34	44673.81
588.49	44524.01
588.65	44201.02
588.81	44753.38
588.97	44776.79
589.13	44198.68
589.29	44945.31
589.45	44905.52
589.61	44783.81
589.77	44999.14
589.93	45008.50
590.08	45158.30
590.24	45118.51
