SpectraSuite Data File
++++++++++++++++++++++++++++++++++++
Date: Fri Oct 25 11:25:10 EDT 2013
User: price-jones
Dark Spectrum Present: No
Reference Spectrum Present: No
Number of Sampled Component Spectra: 1
Spectrometers: USB2+H05261
Integration Time (usec): 100000 (USB2+H05261)
Spectra Averaged: 1 (USB2+H05261)
Boxcar Smoothing: 0 (USB2+H05261)
Correct for Electrical Dark: No (USB2+H05261)
Strobe/Lamp Enabled: No (USB2+H05261)
Correct for Detector Non-linearity: No (USB2+H05261)
Correct for Stray Light: No (USB2+H05261)
Number of Pixels in Processed Spectrum: 2048
>>>>>Begin Processed Spectral Data<<<<<
365.73	182.56
365.92	182.56
366.12	182.56
366.32	149.79
366.52	180.22
366.72	149.79
366.91	117.03
367.11	145.11
367.31	156.82
367.51	121.71
367.70	135.75
367.90	217.67
368.10	189.58
368.30	67.88
368.49	110.01
368.69	152.13
368.89	98.30
369.09	133.41
369.28	161.50
369.48	128.73
369.68	147.45
369.87	117.03
370.07	212.99
370.27	255.12
370.47	252.78
370.66	617.90
370.86	575.77
371.06	638.97
371.25	676.41
371.45	720.88
371.65	748.97
371.84	655.35
372.04	662.37
372.24	725.57
372.44	760.67
372.63	788.76
372.83	664.71
373.03	711.52
373.22	748.97
373.42	828.55
373.62	840.25
373.81	795.78
374.01	751.31
374.21	805.14
374.40	891.74
374.60	805.14
374.79	781.74
374.99	805.14
375.19	772.38
375.38	833.23
375.58	922.17
375.78	858.98
375.97	805.14
376.17	880.04
376.37	901.11
376.56	835.57
376.76	828.55
376.95	800.46
377.15	875.36
377.35	849.61
377.54	903.45
377.74	901.11
377.93	922.17
378.13	976.00
378.33	971.32
378.52	924.51
378.72	959.62
378.91	833.23
379.11	980.68
379.31	926.85
379.50	936.21
379.70	964.30
379.89	957.28
380.09	910.47
380.28	971.32
380.48	1001.75
380.68	994.73
380.87	990.05
381.07	1011.11
381.26	1039.20
381.46	964.30
381.65	1069.62
381.85	1055.58
382.04	1086.01
382.24	1090.69
382.43	1125.80
382.63	1032.18
382.83	1088.35
383.02	1167.93
383.22	1188.99
383.41	1078.99
383.61	1039.20
383.80	1100.05
384.00	1186.65
384.19	1100.05
384.39	1128.14
384.58	1097.71
384.78	1118.78
384.97	1088.35
385.17	1184.31
385.36	1128.14
385.56	1139.84
385.75	1245.16
385.95	1228.78
386.14	1224.10
386.34	1210.06
386.53	1196.01
386.72	1245.16
386.92	1214.74
387.11	1252.19
387.31	1217.08
387.50	1252.19
387.70	1242.82
387.89	1149.20
388.09	1188.99
388.28	1245.16
388.48	1242.82
388.67	1315.38
388.86	1343.47
389.06	1277.93
389.25	1247.51
389.45	1345.81
389.64	1331.76
389.84	1376.24
390.03	1397.30
390.22	1453.47
390.42	1364.53
390.61	1348.15
390.81	1362.19
391.00	1401.98
391.19	1416.02
391.39	1451.13
391.58	1467.52
391.78	1458.15
391.97	1385.60
392.16	1465.18
392.36	1448.79
392.55	1486.24
392.75	1514.33
392.94	1544.75
393.13	1586.88
393.33	1565.82
393.52	1549.43
393.71	1568.16
393.91	1603.27
394.10	1617.31
394.29	1579.86
394.49	1607.95
394.68	1577.52
394.88	1640.72
395.07	1579.86
395.26	1717.95
395.46	1600.93
395.65	1694.55
395.84	1710.93
396.04	1727.32
396.23	1799.87
396.42	1692.21
396.62	1715.61
396.81	1713.27
397.00	1778.81
397.19	1823.28
397.39	1774.13
397.58	1891.15
397.77	1762.42
397.97	1811.57
398.16	1739.02
398.35	1888.81
398.55	1767.10
398.74	1942.64
398.93	1923.92
399.12	1966.05
399.32	1912.22
399.51	1902.86
399.70	1963.71
399.90	1937.96
400.09	2026.90
400.28	1968.39
400.47	2003.50
400.67	2012.86
400.86	2008.18
401.05	2024.56
401.24	2125.21
401.44	2141.59
401.63	2069.03
401.82	2083.08
402.01	2090.10
402.21	2104.14
402.40	2174.36
402.59	2186.06
402.78	2225.85
402.97	2186.06
403.17	2363.94
403.36	2260.96
403.55	2188.40
403.74	2267.98
403.93	2239.89
404.13	2338.20
404.32	2279.68
404.51	2345.22
404.70	2509.05
404.89	2354.58
405.09	2471.61
405.28	2600.34
405.47	2480.97
405.66	2492.67
405.85	2562.89
406.05	2429.48
406.24	2590.97
406.43	2492.67
406.62	2654.17
406.81	2637.78
407.00	2609.70
407.20	2541.82
407.39	2588.63
407.58	2775.88
407.77	2689.28
407.96	2724.38
408.15	2722.04
408.34	2684.59
408.54	2717.36
408.73	2792.26
408.92	2761.83
409.11	2841.41
409.30	2857.79
409.49	2911.63
409.68	2995.89
409.87	2925.67
410.07	3066.10
410.26	2995.89
410.45	2958.44
410.64	2951.42
410.83	3073.12
411.02	3070.78
411.21	3063.76
411.40	3068.44
411.59	3204.19
411.78	3122.27
411.98	3218.24
412.17	3157.38
412.36	3311.86
412.55	3342.28
412.74	3342.28
412.93	3337.60
413.12	3328.24
413.31	3478.04
413.50	3466.33
413.69	3552.93
413.88	3520.17
414.07	3496.76
414.26	3672.30
414.45	3791.67
414.64	3585.70
414.83	3648.90
415.02	3709.75
415.22	3850.18
415.41	3889.97
415.60	3843.16
415.79	3819.75
415.98	3871.25
416.17	3904.01
416.36	3934.44
416.55	3948.48
416.74	3990.61
416.93	3946.14
417.12	4051.47
417.31	4119.34
417.50	4149.77
417.69	4353.40
417.88	4369.78
418.07	4166.15
418.26	4142.75
418.45	4280.84
418.64	4552.34
418.83	4416.59
419.02	4388.50
419.21	4477.44
419.39	4390.84
419.58	4428.29
419.77	4554.68
419.96	4510.21
420.15	4664.69
420.34	4554.68
420.53	4493.83
420.72	4741.93
420.91	4638.94
421.10	4594.47
421.29	4587.45
421.48	4699.80
421.67	4772.35
421.86	4849.59
422.05	4751.29
422.24	4865.97
422.43	4802.78
422.61	4915.12
422.80	4947.89
422.99	4849.59
423.18	4877.68
423.37	5039.17
423.56	4894.06
423.75	4891.72
423.94	4777.03
424.13	4564.04
424.32	4772.35
424.50	4816.82
424.69	5022.79
424.88	5076.62
425.07	4940.87
425.26	4936.19
425.45	4931.51
425.64	4788.74
425.83	4938.53
426.01	4929.17
426.20	4990.02
426.39	5102.37
426.58	4894.06
426.77	5027.47
426.96	5193.65
427.15	5104.71
427.33	5071.94
427.52	5233.44
427.71	5298.97
427.90	5139.82
428.09	5195.99
428.28	5399.62
428.46	5233.44
428.65	5289.61
428.84	5401.96
429.03	5600.90
429.22	5252.16
429.40	5509.62
429.59	5233.44
429.78	5275.57
429.97	5240.46
430.16	5544.73
430.34	5661.76
430.53	5540.05
430.72	5614.95
430.91	5710.91
431.10	5713.25
431.28	5689.84
431.47	5713.25
431.66	5666.44
431.85	5809.21
432.03	5844.32
432.22	5996.45
432.41	5893.47
432.60	5834.96
432.79	5902.83
432.97	5923.90
433.16	5975.39
433.35	5947.30
433.54	5891.13
433.72	6127.52
433.91	6118.16
434.10	6085.39
434.28	6087.73
434.47	6216.46
434.66	6073.69
434.85	6270.30
435.03	6333.49
435.22	6310.08
435.41	6324.13
435.59	6331.15
435.78	6469.24
435.97	6413.07
436.16	6354.55
436.34	6513.71
436.53	6436.47
436.72	6604.99
436.90	6506.69
437.09	6572.22
437.28	6504.35
437.46	6731.38
437.65	6523.07
437.84	6518.39
438.02	6719.68
438.21	6712.66
438.40	6628.40
438.58	6782.87
438.77	6927.99
438.96	6848.41
439.14	6925.65
439.33	7171.40
439.52	7311.83
439.70	6981.82
439.89	7201.83
440.08	7222.89
440.26	7470.99
440.45	7281.41
440.63	7449.93
440.82	7520.14
441.01	7623.12
441.19	7679.30
441.38	7665.25
441.57	7585.68
441.75	7798.66
441.94	7866.54
442.12	7932.08
442.31	8196.56
442.50	7929.74
442.68	7843.14
442.87	7861.86
443.05	8177.83
443.24	8016.33
443.43	7974.21
443.61	8084.21
443.80	8294.86
443.98	7894.63
444.17	7801.01
444.35	8299.54
444.54	8334.65
444.73	8215.28
444.91	8084.21
445.10	8271.45
445.28	8234.00
445.47	8081.87
445.65	8383.80
445.84	8248.05
446.02	8346.35
446.21	8365.07
446.39	8372.10
446.58	8430.61
446.77	8444.65
446.95	8243.37
447.14	8126.34
447.32	8566.36
447.51	8503.17
447.69	8245.71
447.88	8355.71
448.06	8561.68
448.25	8589.77
448.43	8594.45
448.62	8374.44
448.80	8606.15
448.99	8592.11
449.17	8676.37
449.36	8521.89
449.54	8699.77
449.73	8833.18
449.91	8954.89
450.10	8875.31
450.28	8915.10
450.46	8851.91
450.65	8737.22
450.83	8823.82
451.02	9097.66
451.20	9062.55
451.39	8997.02
451.57	9104.68
451.76	8938.51
451.94	9146.81
452.13	9219.37
452.31	9233.41
452.49	9004.04
452.68	9303.63
452.86	9364.48
453.05	9224.05
453.23	9425.34
453.42	9341.08
453.60	9315.33
453.78	9612.58
453.97	9430.02
454.15	9376.19
454.34	9502.58
454.52	9584.49
454.70	9640.67
454.89	9811.53
455.07	9682.80
455.26	9813.87
455.44	9891.10
455.62	9848.97
455.81	9923.87
455.99	9753.01
456.17	9980.04
456.36	9949.62
456.54	10076.01
456.73	9994.09
456.91	10457.51
457.09	10338.15
457.28	10544.11
457.46	10218.78
457.64	10321.76
457.83	10429.43
458.01	10270.27
458.19	10537.09
458.38	10375.59
458.56	10801.57
458.74	10700.93
458.93	10303.04
459.11	10686.89
459.29	10516.03
459.48	10696.25
459.66	10920.94
459.84	10890.51
460.03	10874.13
460.21	10956.05
460.39	10773.49
460.57	10918.60
460.76	11005.20
460.94	10972.43
461.12	10890.51
461.31	11126.91
461.49	11026.26
461.67	11157.33
461.85	11382.03
462.04	11323.51
462.22	11803.32
462.40	11290.74
462.59	11300.11
462.77	11367.98
462.95	11337.56
463.13	11482.67
463.32	11360.96
463.50	11564.59
463.68	11662.89
463.86	11651.19
464.05	11623.10
464.23	11510.75
464.41	11873.54
464.59	11550.54
464.78	12016.31
464.96	11861.84
465.14	11871.20
465.32	12013.97
465.50	11859.49
465.69	12011.63
465.87	12098.23
466.05	12013.97
466.23	12081.85
466.41	12334.62
466.60	12444.63
466.78	12271.43
466.96	12070.14
467.14	12362.71
467.32	12222.28
467.51	12365.05
467.69	12095.89
467.87	12315.90
468.05	12493.78
468.23	12451.65
468.41	12430.59
468.60	12367.39
468.78	12592.08
468.96	12622.51
469.14	12613.15
469.32	12879.97
469.50	12432.93
469.69	13020.40
469.87	12950.18
470.05	13046.15
470.23	13198.28
470.41	13273.18
470.59	13135.09
470.77	12959.55
470.95	12971.25
471.14	13298.92
471.32	12992.31
471.50	13591.49
471.68	13327.01
471.86	13521.27
472.04	13673.41
472.22	13958.96
472.40	13399.57
472.58	13680.43
472.77	13846.61
472.95	14075.98
473.13	14595.58
473.31	14001.08
473.49	13982.36
473.67	13898.10
473.85	14061.94
474.03	14633.03
474.21	14537.07
474.39	14754.74
474.57	14548.77
474.75	14714.95
474.93	14637.71
475.12	14611.96
475.30	14871.76
475.48	14902.19
475.66	14916.23
475.84	15054.33
476.02	15410.09
476.20	15108.16
476.38	15445.20
476.56	16100.55
476.74	16046.71
476.92	16032.67
477.10	15831.38
477.28	15983.52
477.46	15936.71
477.64	16126.29
477.82	16594.40
478.00	16800.37
478.18	16786.32
478.36	17032.08
478.54	16718.45
478.72	17074.21
478.90	17202.94
479.08	17235.70
479.26	17509.55
479.44	17659.34
479.62	17645.30
479.80	17914.46
479.98	18132.13
480.16	18321.71
480.34	18176.60
480.52	18382.57
480.70	18560.45
480.88	18080.64
481.06	18607.26
481.24	18717.26
481.41	18885.78
481.59	19054.30
481.77	19536.45
481.95	19365.59
482.13	19620.71
482.31	19653.48
482.49	20123.93
482.67	19885.19
482.85	20161.37
483.03	20531.18
483.21	20381.38
483.39	20858.85
483.57	20446.92
483.74	21032.05
483.92	20973.54
484.10	21149.08
484.28	21621.87
484.46	21752.94
484.64	21888.69
484.82	21724.85
485.00	21909.75
485.18	22195.30
485.35	22555.74
485.53	22637.66
485.71	22974.70
485.89	23417.06
486.07	23346.84
486.25	22920.87
486.43	23543.45
486.61	23674.52
486.78	24222.20
486.96	24072.41
487.14	24500.73
487.32	24758.19
487.50	24264.33
487.68	25050.75
487.85	24919.68
488.03	25207.57
488.21	25460.35
488.39	25790.36
488.57	26080.59
488.75	25991.65
488.92	26120.38
489.10	26644.66
489.28	26132.08
489.46	27222.77
489.64	26684.45
489.81	27613.64
489.99	27402.99
490.17	27335.12
490.35	27892.16
490.53	27901.53
490.70	28388.36
490.88	28105.15
491.06	28514.75
491.24	28720.71
491.41	28992.22
491.59	29530.54
491.77	28917.32
491.95	29682.67
492.13	29558.63
492.30	29682.67
492.48	29614.80
492.66	30122.69
492.84	30436.33
493.01	30679.74
493.19	30309.94
493.37	30731.23
493.54	30944.22
493.72	31363.18
493.90	31599.57
494.08	31218.07
494.25	31590.21
494.43	31611.28
494.61	31899.16
494.79	32093.43
494.96	32177.68
495.14	32254.92
495.32	32786.22
495.49	32926.66
495.67	33259.01
495.85	33467.32
496.02	33247.31
496.20	33530.51
496.38	33500.09
496.55	34192.89
496.73	34380.13
496.91	33956.49
497.09	34504.18
497.26	34660.99
497.44	34242.04
497.62	35030.80
497.79	35669.76
497.97	34859.94
498.14	35475.50
498.32	35737.64
498.50	35754.02
498.67	36624.70
498.85	36479.59
499.03	36088.72
499.20	36414.05
499.38	36332.14
499.56	36870.46
499.73	36935.99
499.91	36818.97
500.08	37523.47
500.26	37095.15
500.44	37441.55
500.61	37677.94
500.79	37350.27
500.97	37963.49
501.14	38242.01
501.32	38588.41
501.49	38527.56
501.67	38649.27
501.84	38651.61
502.02	38787.36
502.20	38859.91
502.37	39281.21
502.55	39037.80
502.72	39393.56
502.90	39276.53
503.07	38911.41
503.25	39557.39
503.43	39489.52
503.60	39529.31
503.78	39955.29
503.95	39969.33
504.13	40318.07
504.30	40371.90
504.48	40198.70
504.65	40781.49
504.83	40835.33
505.01	41113.85
505.18	40610.64
505.36	41338.54
505.53	40982.78
505.71	41415.78
505.88	41656.85
506.06	41116.19
506.23	41544.51
506.41	41689.62
506.58	42019.64
506.76	41799.63
506.93	42478.38
507.11	42220.92
507.28	42071.13
507.46	42223.26
507.63	42586.05
507.81	42705.41
507.98	42412.85
508.16	43040.11
508.33	43260.12
508.50	43461.41
508.68	43351.40
508.85	43625.25
509.03	43634.61
509.20	43599.50
509.38	44158.89
509.55	44329.75
509.73	44554.44
509.90	44112.08
510.08	44406.98
510.25	44130.80
510.42	44521.67
510.60	45024.89
510.77	45006.16
510.95	45118.51
511.12	44692.53
511.30	44830.62
511.47	45296.39
511.64	45153.62
511.82	45324.47
511.99	45081.06
512.17	45801.94
512.34	45893.22
512.51	45970.46
512.69	46483.04
512.86	45944.72
513.04	46564.96
513.21	46480.70
513.38	46295.80
513.56	46878.59
513.73	46611.77
513.90	46597.73
514.08	46574.32
514.25	47098.60
514.43	46986.25
514.60	47026.04
514.77	47136.05
514.95	47152.43
515.12	47267.12
515.29	47388.83
515.47	47714.16
515.64	47777.36
515.81	47646.29
515.99	47922.47
516.16	48023.11
516.33	47739.91
516.51	48406.96
516.68	48439.73
516.85	47980.98
517.03	48439.73
517.20	48638.67
517.37	48348.45
517.54	48355.47
517.72	48615.27
517.89	48594.20
518.06	48662.08
518.24	48507.60
518.41	48914.86
518.58	49043.59
518.75	48928.90
518.93	49558.50
519.10	48942.94
519.27	49785.54
519.45	49464.88
519.62	48994.43
519.79	49308.07
519.96	49546.80
520.14	49799.58
520.31	49844.05
520.48	50234.92
520.65	50050.02
520.83	50394.07
521.00	50447.91
521.17	50408.12
521.34	50674.94
521.52	50532.17
521.69	50658.56
521.86	50663.24
522.03	51047.08
522.20	51098.58
522.38	51325.61
522.55	51075.17
522.72	51309.22
522.89	50770.90
523.07	51309.22
523.24	51152.41
523.41	51260.07
523.58	50995.59
523.75	51737.54
523.92	51531.57
524.10	51641.58
524.27	52006.70
524.44	51896.70
524.61	51852.23
524.78	51868.61
524.96	52158.84
525.13	51856.91
525.30	52493.54
525.47	51922.44
525.64	52247.78
525.81	52479.49
525.98	52575.45
526.16	52406.94
526.33	52540.35
526.50	52692.48
526.67	52233.74
526.84	52591.84
527.01	52594.18
527.18	52645.67
527.36	52814.19
527.53	52945.26
527.70	52884.40
527.87	53226.12
528.04	52772.06
528.21	53034.20
528.38	53027.18
528.55	53216.76
528.72	52884.40
528.89	53092.71
529.07	53418.05
529.24	53366.55
529.41	53734.02
529.58	53326.77
529.75	53675.51
529.92	53387.62
530.09	53345.49
530.26	53556.14
530.43	53914.24
530.60	53464.86
530.77	53764.45
530.94	53841.68
531.11	53787.85
531.28	53860.41
531.46	53769.13
531.63	54213.83
531.80	53975.09
531.97	54169.36
532.14	54223.19
532.31	54143.61
532.48	54672.57
532.65	54454.90
532.82	54152.97
532.99	54712.36
533.16	54621.08
533.33	54436.18
533.50	54478.31
533.67	54658.53
533.84	54429.16
534.01	54658.53
534.18	54906.63
534.35	54920.67
534.52	54710.02
534.69	55007.27
534.86	54653.85
535.03	54855.14
535.20	54986.21
535.37	55107.91
535.54	55255.37
535.71	55047.06
535.88	55257.71
536.05	55243.66
536.22	55206.22
536.38	55166.43
536.55	55400.48
536.72	55463.67
536.89	55238.98
537.06	55484.74
537.23	55604.11
537.40	55330.26
537.57	55618.15
537.74	55552.62
537.91	55707.09
538.08	55599.43
538.25	55477.72
538.42	55889.65
538.59	55955.19
538.75	55777.31
538.92	55791.35
539.09	55749.22
539.26	55786.67
539.43	55613.47
539.60	56058.17
539.77	56100.30
539.94	56245.41
540.11	55945.83
540.28	56203.28
540.44	56170.52
540.61	56245.41
540.78	56317.97
540.95	56123.71
541.12	56186.90
541.29	56151.79
541.46	56472.45
541.62	56301.59
541.79	56577.77
541.96	56537.98
542.13	56371.80
542.30	56582.45
542.47	56374.14
542.63	56685.43
542.80	56664.37
542.97	57013.11
543.14	57106.73
543.31	56949.92
543.48	56942.89
543.64	57301.00
543.81	57095.03
543.98	57113.75
544.15	57347.81
544.32	57125.46
544.48	57298.65
544.65	57155.88
544.82	57326.74
544.99	56994.39
545.16	57228.44
545.32	57286.95
545.49	57324.40
545.66	57425.04
545.83	57427.38
546.00	57413.34
546.16	57373.55
546.33	57343.12
546.50	57403.98
546.67	57598.24
546.83	57371.21
547.00	57621.65
547.17	57453.13
547.34	57509.30
547.50	57631.01
547.67	57951.66
547.84	57780.81
548.00	58038.26
548.17	58089.76
548.34	57876.77
548.51	57808.89
548.67	58113.16
548.84	58089.76
549.01	57972.73
549.18	57855.70
549.34	58155.29
549.51	58042.95
549.68	58291.04
549.84	58061.67
550.01	58298.06
550.18	58028.90
550.34	58323.81
550.51	58127.20
550.68	58190.40
550.84	58220.83
551.01	58375.30
551.18	58501.69
551.34	58223.17
551.51	58431.47
551.68	58595.31
551.84	58379.98
552.01	58347.21
552.18	58468.92
552.34	58412.75
552.51	58501.69
552.68	58384.66
552.84	58328.49
553.01	58770.85
553.18	58670.21
553.34	58740.42
553.51	58447.86
553.67	58763.83
553.84	58791.92
554.01	58908.94
554.17	58789.58
554.34	58855.11
554.51	58796.60
554.67	58930.01
554.84	58719.36
555.00	58883.20
555.17	58789.58
555.33	59063.42
555.50	58719.36
555.67	58892.56
555.83	58782.55
556.00	58812.98
556.16	59330.24
556.33	59068.10
556.50	58887.88
556.66	59374.71
556.83	59077.46
556.99	59323.22
557.16	59332.58
557.32	59400.46
557.49	59414.50
557.65	59334.92
557.82	59285.77
557.98	59145.34
558.15	59465.99
558.32	59419.18
558.48	59260.02
558.65	59269.39
558.81	59133.63
558.98	59386.41
559.14	59494.08
559.31	59501.10
559.47	59388.75
559.64	59702.38
559.80	59522.16
559.97	59646.21
560.13	59559.61
560.30	59468.33
560.46	59676.64
560.63	59540.89
560.79	59583.02
560.96	59718.77
561.12	59711.75
561.29	59491.74
561.45	59655.57
561.61	59655.57
561.78	59798.35
561.94	59540.89
562.11	59744.51
562.27	59678.98
562.44	59671.96
562.60	59732.81
562.77	59487.06
562.93	59503.44
563.10	59723.45
563.26	59664.94
563.42	60083.89
563.59	59704.73
563.75	59821.75
563.92	59985.59
564.08	59735.15
564.24	59987.93
564.41	60011.34
564.57	59952.82
564.74	59901.33
564.90	60119.00
565.07	59791.33
565.23	59845.16
565.39	59934.10
565.56	60177.51
565.72	60020.70
565.88	60004.31
566.05	59831.11
566.21	60048.78
566.38	59915.37
566.54	60240.71
566.70	60261.77
566.87	60130.70
567.03	60051.12
567.19	60214.96
567.36	60060.49
567.52	60119.00
567.68	60317.95
567.85	60104.96
568.01	60339.01
568.17	59929.42
568.34	60292.20
568.50	60102.62
568.66	60058.15
568.83	60243.05
568.99	60102.62
569.15	60231.35
569.32	60390.50
569.48	60287.52
569.64	60292.20
569.81	60144.75
569.97	60034.74
570.13	60243.05
570.30	60163.47
570.46	60406.89
570.62	60182.19
570.78	60245.39
570.95	60149.43
571.11	60537.96
571.27	60327.31
571.43	60334.33
571.60	60420.93
571.76	60317.95
571.92	60493.49
572.09	60355.39
572.25	60303.90
572.41	60259.43
572.57	60324.97
572.74	60748.60
572.90	60327.31
573.06	60477.10
573.22	60409.23
573.38	60659.66
573.55	60516.89
573.71	60554.34
573.87	60673.71
574.03	60364.76
574.20	60575.40
574.36	60666.69
574.52	60505.19
574.68	60685.41
574.84	60619.88
575.01	60626.90
575.17	60554.34
575.33	60500.51
575.49	60479.44
575.65	60673.71
575.82	60715.84
575.98	60767.33
576.14	60713.50
576.30	60654.98
576.46	60757.97
576.62	60488.80
576.79	60495.83
576.95	60360.08
577.11	60589.45
577.27	60629.24
577.43	60804.78
577.59	60605.83
577.75	60893.72
577.92	60444.33
578.08	60729.88
578.24	60629.24
578.40	60568.38
578.56	60804.78
578.72	60753.29
578.88	60963.93
579.04	60912.44
579.21	60683.07
579.37	60631.58
579.53	60647.96
579.69	60493.49
579.85	60671.37
580.01	60701.79
580.17	60549.66
580.33	60720.52
580.49	60814.14
580.65	60629.24
580.82	60786.05
580.98	60544.98
581.14	60481.78
581.30	60924.14
581.46	60678.39
581.62	60746.26
581.78	60591.79
581.94	60884.36
582.10	60676.05
582.26	60884.36
582.42	60659.66
582.58	60603.49
582.74	60638.60
582.90	60870.31
583.06	60874.99
583.22	60678.39
583.38	60542.64
583.54	60654.98
583.70	60919.46
583.86	60830.52
584.02	60750.94
584.18	60734.56
584.34	60940.53
584.50	60720.52
584.66	60575.40
584.82	60528.59
584.98	60952.23
585.14	60903.08
585.30	60619.88
585.46	61045.85
585.62	60846.91
585.78	60917.12
585.94	60694.77
586.10	60830.52
586.26	61066.92
586.42	60790.73
586.58	60952.23
586.74	60779.03
586.90	60846.91
587.06	60926.49
587.22	60926.49
587.38	60753.29
587.54	60989.68
587.70	60846.91
587.86	60865.63
588.02	60860.95
588.18	60980.32
588.34	60757.97
588.49	61085.64
