SpectraSuite Data File
++++++++++++++++++++++++++++++++++++
Date: Fri Oct 25 11:26:08 EDT 2013
User: price-jones
Dark Spectrum Present: No
Reference Spectrum Present: No
Number of Sampled Component Spectra: 1
Spectrometers: USB2+H05261
Integration Time (usec): 100000 (USB2+H05261)
Spectra Averaged: 1 (USB2+H05261)
Boxcar Smoothing: 0 (USB2+H05261)
Correct for Electrical Dark: No (USB2+H05261)
Strobe/Lamp Enabled: No (USB2+H05261)
Correct for Detector Non-linearity: No (USB2+H05261)
Correct for Stray Light: No (USB2+H05261)
Number of Pixels in Processed Spectrum: 2048
>>>>>Begin Processed Spectral Data<<<<<
365.73	163.84
365.92	163.84
366.12	163.84
366.32	161.50
366.52	149.79
366.72	142.77
366.91	173.20
367.11	163.84
367.31	107.66
367.51	142.77
367.70	159.16
367.90	177.88
368.10	222.35
368.30	124.05
368.49	138.09
368.69	84.26
368.89	180.22
369.09	259.80
369.28	177.88
369.48	147.45
369.68	173.20
369.87	187.24
370.07	234.05
370.27	259.80
370.47	337.04
370.66	571.09
370.86	589.82
371.06	678.76
371.25	655.35
371.45	702.16
371.65	730.25
371.84	711.52
372.04	753.65
372.24	716.20
372.44	704.50
372.63	741.95
372.83	777.06
373.03	760.67
373.22	798.12
373.42	788.76
373.62	748.97
373.81	828.55
374.01	842.59
374.21	826.21
374.40	809.83
374.60	807.48
374.79	779.40
374.99	809.83
375.19	751.31
375.38	903.45
375.58	788.76
375.78	854.30
375.97	924.51
376.17	926.85
376.37	844.93
376.56	868.34
376.76	889.40
376.95	858.98
377.15	863.66
377.35	919.83
377.54	940.90
377.74	795.78
377.93	837.91
378.13	917.49
378.33	933.87
378.52	936.21
378.72	957.28
378.91	952.60
379.11	952.60
379.31	945.58
379.50	940.90
379.70	992.39
379.89	1015.79
380.09	870.68
380.28	1004.09
380.48	933.87
380.68	924.51
380.87	938.55
381.07	1074.31
381.26	961.96
381.46	1111.75
381.65	1034.52
381.85	1022.81
382.04	1008.77
382.24	964.30
382.43	1041.54
382.63	1097.71
382.83	1074.31
383.02	1062.60
383.22	1071.97
383.41	1179.63
383.61	1034.52
383.80	1062.60
384.00	1095.37
384.19	1053.24
384.39	1156.22
384.58	1165.59
384.78	1139.84
384.97	1156.22
385.17	1142.18
385.36	1158.57
385.56	1111.75
385.75	1184.31
385.95	1240.48
386.14	1149.20
386.34	1228.78
386.53	1174.95
386.72	1238.14
386.92	1205.38
387.11	1247.51
387.31	1219.42
387.50	1329.42
387.70	1296.66
387.89	1345.81
388.09	1224.10
388.28	1343.47
388.48	1334.11
388.67	1299.00
388.86	1270.91
389.06	1322.40
389.25	1406.66
389.45	1299.00
389.64	1296.66
389.84	1425.39
390.03	1383.26
390.22	1373.89
390.42	1383.26
390.61	1352.83
390.81	1303.68
391.00	1409.00
391.19	1472.20
391.39	1458.15
391.58	1514.33
391.78	1439.43
391.97	1465.18
392.16	1409.00
392.36	1523.69
392.55	1530.71
392.75	1453.47
392.94	1554.12
393.13	1521.35
393.33	1528.37
393.52	1561.14
393.71	1621.99
393.91	1533.05
394.10	1554.12
394.29	1575.18
394.49	1514.33
394.68	1643.06
394.88	1631.35
395.07	1640.72
395.26	1724.97
395.46	1645.40
395.65	1713.27
395.84	1769.44
396.04	1657.10
396.23	1834.98
396.42	1774.13
396.62	1830.30
396.81	1830.30
397.00	1846.68
397.19	1708.59
397.39	1757.74
397.58	1832.64
397.77	1905.20
397.97	1902.86
398.16	1881.79
398.35	1863.07
398.55	1834.98
398.74	1888.81
398.93	2008.18
399.12	1944.99
399.32	1839.66
399.51	1881.79
399.70	2069.03
399.90	1968.39
400.09	2038.61
400.28	2097.12
400.47	1973.07
400.67	2108.82
400.86	2008.18
401.05	2045.63
401.24	2167.34
401.44	2143.93
401.63	2179.04
401.82	2106.48
402.01	2153.29
402.21	2249.25
402.40	2186.06
402.59	2232.87
402.78	2207.13
402.97	2176.70
403.17	2293.72
403.36	2202.44
403.55	2282.02
403.74	2328.83
403.93	2277.34
404.13	2382.67
404.32	2382.67
404.51	2263.30
404.70	2377.98
404.89	2282.02
405.09	2525.44
405.28	2487.99
405.47	2466.92
405.66	2527.78
405.85	2513.74
406.05	2485.65
406.24	2586.29
406.43	2555.86
406.62	2686.94
406.81	2581.61
407.00	2445.86
407.20	2511.39
407.39	2658.85
407.58	2682.25
407.77	2705.66
407.96	2752.47
408.15	2731.41
408.34	2651.83
408.54	2771.19
408.73	2853.11
408.92	2803.96
409.11	2871.84
409.30	2846.09
409.49	2827.37
409.68	2864.82
409.87	2906.95
410.07	2918.65
410.26	2988.86
410.45	2909.29
410.64	2963.12
410.83	3023.97
411.02	3129.30
411.21	3150.36
411.40	3047.38
411.59	3248.66
411.78	3225.26
411.98	3227.60
412.17	3206.53
412.36	3293.13
412.55	3323.56
412.74	3281.43
412.93	3283.77
413.12	3269.73
413.31	3555.27
413.50	3506.12
413.69	3571.66
413.88	3627.83
414.07	3461.65
414.26	3581.02
414.45	3651.24
414.64	3651.24
414.83	3794.01
415.02	3747.20
415.22	3833.80
415.41	3847.84
415.60	3915.72
415.79	3882.95
415.98	3868.91
416.17	4028.06
416.36	3936.78
416.55	3978.91
416.74	4095.94
416.93	4135.73
417.12	4049.13
417.31	4257.43
417.50	4231.69
417.69	4170.83
417.88	4337.01
418.07	4201.26
418.26	4325.31
418.45	4358.08
418.64	4430.63
418.83	4463.40
419.02	4367.44
419.21	4444.68
419.39	4416.59
419.58	4507.87
419.77	4475.10
419.96	4603.83
420.15	4517.23
420.34	4638.94
420.53	4559.36
420.72	4643.62
420.91	4624.90
421.10	4814.48
421.29	4697.46
421.48	4599.15
421.67	4809.80
421.86	4809.80
422.05	4753.63
422.24	4816.82
422.43	4805.12
422.61	4791.08
422.80	4894.06
422.99	4971.30
423.18	4945.55
423.37	4957.25
423.56	4915.12
423.75	4919.81
423.94	4889.38
424.13	4594.47
424.32	4760.65
424.50	5027.47
424.69	5097.69
424.88	4887.04
425.07	4912.78
425.26	4823.84
425.45	4826.18
425.64	5097.69
425.83	4936.19
426.01	5043.85
426.20	4961.94
426.39	5116.41
426.58	4837.89
426.77	4973.64
426.96	5224.08
427.15	5013.43
427.33	5069.60
427.52	5163.22
427.71	5235.78
427.90	5263.86
428.09	5373.87
428.28	5303.65
428.46	5392.59
428.65	5165.56
428.84	5474.51
429.03	5432.38
429.22	5310.68
429.40	5481.53
429.59	5380.89
429.78	5373.87
429.97	5156.20
430.16	5488.56
430.34	5448.77
430.53	5699.20
430.72	5734.31
430.91	5671.12
431.10	5584.52
431.28	5804.53
431.47	5825.59
431.66	5809.21
431.85	5692.18
432.03	5811.55
432.22	5947.30
432.41	5959.00
432.60	5755.38
432.79	5858.36
432.97	5975.39
433.16	5954.32
433.35	5853.68
433.54	5982.41
433.72	6092.41
433.91	6176.67
434.10	6139.23
434.28	5944.96
434.47	6232.85
434.66	6293.70
434.85	6230.51
435.03	6258.59
435.22	6155.61
435.41	6413.07
435.59	6382.64
435.78	6410.73
435.97	6422.43
436.16	6436.47
436.34	6513.71
436.53	6382.64
436.72	6675.21
436.90	6314.77
437.09	6647.12
437.28	6544.14
437.46	6628.40
437.65	6546.48
437.84	6712.66
438.02	6792.23
438.21	6726.70
438.40	6614.35
438.58	6965.43
438.77	7262.68
438.96	6864.79
439.14	6986.50
439.33	7197.15
439.52	7037.99
439.70	7269.70
439.89	7253.32
440.08	7417.16
440.26	7173.74
440.45	7236.94
440.63	7466.31
440.82	7595.04
441.01	7433.54
441.19	7620.78
441.38	7665.25
441.57	7749.51
441.75	7878.24
441.94	7941.44
442.12	7735.47
442.31	8116.98
442.50	8095.91
442.68	7908.67
442.87	7939.10
443.05	7894.63
443.24	8311.24
443.43	8105.28
443.61	8065.49
443.80	8538.27
443.98	8124.00
444.17	7943.78
444.35	8210.60
444.54	8339.33
444.73	8124.00
444.91	8226.98
445.10	8280.82
445.28	8147.40
445.47	8269.11
445.65	8304.22
445.84	8388.48
446.02	8463.38
446.21	8301.88
446.39	8360.39
446.58	8559.34
446.77	8512.53
446.95	8191.88
447.14	8439.97
447.32	8503.17
447.51	8521.89
447.69	8446.99
447.88	8542.96
448.06	8559.34
448.25	8355.71
448.43	8437.63
448.62	8498.49
448.80	8564.02
448.99	8706.79
449.17	8730.20
449.36	8416.57
449.54	8723.18
449.73	8896.38
449.91	8898.72
450.10	8943.19
450.28	9064.89
450.46	8994.68
450.65	9011.06
450.83	8861.27
451.02	8978.30
451.20	9357.46
451.39	9156.18
451.57	9046.17
451.76	9167.88
451.94	9090.64
452.13	9350.44
452.31	9329.38
452.49	9158.52
452.68	9177.24
452.86	9160.86
453.05	9427.68
453.23	9540.02
453.42	9296.61
453.60	9334.06
453.78	9612.58
453.97	9369.16
454.15	9577.47
454.34	9418.32
454.52	9628.96
454.70	9685.14
454.89	9778.76
455.07	9586.83
455.26	9764.72
455.44	9930.89
455.62	9970.68
455.81	9895.78
455.99	10047.92
456.17	10005.79
456.36	9970.68
456.54	10036.22
456.73	9944.94
456.91	10424.75
457.09	10401.34
457.28	10712.63
457.46	10338.15
457.64	10450.49
457.83	10558.16
458.01	10597.95
458.19	10494.96
458.38	10574.54
458.56	10721.99
458.74	10553.48
458.93	10579.22
459.11	10785.19
459.29	10581.56
459.48	10862.43
459.66	10651.78
459.84	10848.38
460.03	10916.26
460.21	11014.56
460.39	11082.44
460.57	10801.57
460.76	10916.26
460.94	11044.99
461.12	11140.95
461.31	11066.05
461.49	11169.04
461.67	11201.80
461.85	11426.50
462.04	11197.12
462.22	11819.71
462.40	11784.60
462.59	11571.61
462.77	11454.58
462.95	11573.95
463.13	11473.31
463.32	11779.92
463.50	11800.98
463.68	11587.99
463.86	11676.93
464.05	11618.42
464.23	11747.15
464.41	11906.31
464.59	11709.70
464.78	12107.59
464.96	12222.28
465.14	11819.71
465.32	11777.58
465.50	12222.28
465.69	12369.73
465.87	12236.32
466.05	12238.66
466.23	12063.12
466.41	11819.71
466.60	12552.29
466.78	12039.72
466.96	12236.32
467.14	12060.78
467.32	12381.43
467.51	12107.59
467.69	12278.45
467.87	12334.62
468.05	12650.60
468.23	12339.30
468.41	12652.94
468.60	12695.07
468.78	12821.45
468.96	12456.33
469.14	12802.73
469.32	12917.42
469.50	12456.33
469.69	13013.38
469.87	13111.68
470.05	12844.86
470.23	13170.19
470.41	13069.55
470.59	13242.75
470.77	12931.46
470.95	13439.36
471.14	13481.49
471.32	13242.75
471.50	13624.26
471.68	13350.42
471.86	13734.26
472.04	13891.08
472.22	14033.85
472.40	13781.07
472.58	13818.52
472.77	13832.57
472.95	14078.32
473.13	14534.73
473.31	13900.44
473.49	14286.63
473.67	14038.53
473.85	14024.49
474.03	14473.87
474.21	14249.18
474.39	14626.01
474.57	14750.06
474.75	14860.06
474.93	14754.74
475.12	14745.38
475.30	15066.03
475.48	15075.39
475.66	15070.71
475.84	15281.36
476.02	15377.32
476.20	15374.98
476.38	15676.91
476.56	15632.44
476.74	15990.54
476.92	15875.85
477.10	15438.17
477.28	16259.70
477.46	16039.69
477.64	16240.98
477.82	16521.84
478.00	16753.55
478.18	16931.44
478.36	16795.68
478.54	17106.98
478.72	17319.96
478.90	17483.80
479.08	17563.38
479.26	17619.55
479.44	17647.64
479.62	17713.17
479.80	18003.40
479.98	17776.37
480.16	18398.95
480.34	18101.70
480.52	18436.40
480.70	18527.68
480.88	18319.37
481.06	18735.99
481.24	18693.86
481.41	18871.74
481.59	19229.84
481.77	19314.10
481.95	19335.17
482.13	19784.55
482.31	19587.94
482.49	20130.95
482.67	20116.90
482.85	20563.95
483.03	20814.38
483.21	20421.17
483.39	20996.95
483.57	20484.37
483.74	21057.80
483.92	21427.60
484.10	21214.62
484.28	21759.96
484.46	21792.73
484.64	22242.11
484.82	21781.03
485.00	22052.53
485.18	22735.96
485.35	22883.42
485.53	22712.56
485.71	23475.57
485.89	23264.92
486.07	23030.87
486.25	23051.94
486.43	23618.35
486.61	23543.45
486.78	23934.32
486.96	24334.55
487.14	24369.66
487.32	24479.66
487.50	24790.95
487.68	25010.96
487.85	24994.58
488.03	25488.43
488.21	25727.17
488.39	25727.17
488.57	26045.48
488.75	25944.84
488.92	26176.55
489.10	26504.23
489.28	26548.70
489.46	27112.77
489.64	26888.07
489.81	27513.00
489.99	27557.47
490.17	27777.48
490.35	27875.78
490.53	28283.03
490.70	28376.66
490.88	28205.80
491.06	28524.11
491.24	28762.84
491.41	28975.83
491.59	29207.55
491.77	29422.87
491.95	29766.93
492.13	29560.97
492.30	29322.23
492.48	29710.76
492.66	29986.94
492.84	30118.01
493.01	30595.48
493.19	30618.89
493.37	30581.44
493.54	30972.31
493.72	31398.29
493.90	31550.42
494.08	31608.93
494.25	32060.66
494.43	31674.47
494.61	32292.37
494.79	32591.96
494.96	32500.68
495.14	32959.42
495.32	33081.13
495.49	33057.73
495.67	33076.45
495.85	32936.02
496.02	33338.59
496.20	33965.85
496.38	33596.05
496.55	33883.94
496.73	35033.14
496.91	34335.66
497.09	34684.40
497.26	34660.99
497.44	34941.86
497.62	35393.58
497.79	35655.72
497.97	35260.17
498.14	35971.69
498.32	36428.10
498.50	36105.10
498.67	36109.78
498.85	36343.84
499.03	36746.41
499.20	36495.97
499.38	36741.73
499.56	36807.26
499.73	37125.58
499.91	37010.89
500.08	37598.37
500.26	37359.63
500.44	36999.19
500.61	37354.95
500.79	37544.53
500.97	37612.41
501.14	38560.33
501.32	38237.33
501.49	38342.66
501.67	38464.36
501.84	38660.97
502.02	38937.15
502.20	39339.72
502.37	38925.45
502.55	39047.16
502.72	38979.28
502.90	39393.56
503.07	39269.51
503.25	39569.10
503.43	39416.96
503.60	39873.37
503.78	39962.31
503.95	40257.21
504.13	40470.20
504.30	40594.25
504.48	40189.34
504.65	40428.07
504.83	40788.52
505.01	40919.59
505.18	40832.99
505.36	41481.31
505.53	40912.56
505.71	42005.59
505.88	41752.82
506.06	41748.14
506.23	41895.59
506.41	41380.67
506.58	41799.63
506.76	42162.41
506.93	42499.45
507.11	42440.93
507.28	42366.04
507.46	42682.01
507.63	42485.40
507.81	43239.06
507.98	42822.44
508.16	43014.37
508.33	43234.38
508.50	43335.02
508.68	43449.70
508.85	43353.74
509.03	43639.29
509.20	43796.10
509.38	44217.40
509.55	44189.31
509.73	44685.51
509.90	44332.09
510.08	44488.90
510.25	44374.22
510.42	44692.53
510.60	44971.05
510.77	44889.13
510.95	45404.05
511.12	44863.39
511.30	45303.41
511.47	45312.77
511.64	45212.13
511.82	45521.08
511.99	45647.47
512.17	45436.82
512.34	45897.91
512.51	46171.75
512.69	46548.57
512.86	46026.63
513.04	46415.16
513.21	46443.25
513.38	46515.81
513.56	46663.26
513.73	46487.72
513.90	46960.51
514.08	46445.59
514.25	47250.74
514.43	47037.75
514.60	47257.76
514.77	47370.10
514.95	47435.64
515.12	47199.24
515.29	47461.38
515.47	47927.15
515.64	47763.31
515.81	47955.24
515.99	48245.46
516.16	48374.19
516.33	47964.60
516.51	48746.34
516.68	48362.49
516.85	48460.79
517.03	48566.12
517.20	48762.72
517.37	48652.72
517.54	48671.44
517.72	48732.29
517.89	49071.67
518.06	48697.19
518.24	48896.13
518.41	49212.10
518.58	49008.48
518.75	48912.52
518.93	49301.04
519.10	49581.91
519.27	49670.85
519.45	49198.06
519.62	49478.92
519.79	49647.44
519.96	49703.62
520.14	50454.93
520.31	49584.25
520.48	49729.36
520.65	50171.72
520.83	50665.58
521.00	50351.94
521.17	50237.26
521.34	50321.52
521.52	50777.92
521.69	50501.74
521.86	50770.90
522.03	51119.64
522.20	51320.93
522.38	50997.93
522.55	51056.45
522.72	50997.93
522.89	51019.00
523.07	51557.32
523.24	51035.38
523.41	51543.28
523.58	51002.61
523.75	51683.71
523.92	51995.00
524.10	51657.96
524.27	52088.62
524.44	51707.12
524.61	51831.16
524.78	52109.69
524.96	52322.68
525.13	52322.68
525.30	52156.50
525.47	52112.03
525.64	52247.78
525.81	52566.09
525.98	52369.49
526.16	52254.80
526.33	52353.10
526.50	52741.63
526.67	52341.40
526.84	52776.74
527.01	52734.61
527.18	52643.33
527.36	52715.89
527.53	52891.43
527.70	53064.63
527.87	53368.90
528.04	53024.84
528.21	52985.05
528.38	53357.19
528.55	53614.65
528.72	53118.46
528.89	53408.68
529.07	53230.80
529.24	53371.24
529.41	53467.20
529.58	53670.82
529.75	53574.86
529.92	53708.27
530.09	53588.91
530.26	53794.87
530.43	53867.43
530.60	53633.38
530.77	53436.77
530.94	54117.87
531.11	53956.37
531.28	54059.35
531.46	54185.74
531.63	54377.67
531.80	53996.16
531.97	54417.46
532.14	54248.94
532.31	54300.43
532.48	54300.43
532.65	54658.53
532.82	54377.67
532.99	54529.80
533.16	54419.80
533.33	54534.48
533.50	54878.54
533.67	54644.49
533.84	54562.57
534.01	54623.42
534.18	54717.04
534.35	55201.53
534.52	55054.08
534.69	55206.22
534.86	55243.66
535.03	54836.41
535.20	54810.67
535.37	55402.82
535.54	55458.99
535.71	55133.66
535.88	55054.08
536.05	55334.95
536.22	55620.49
536.38	55456.65
536.55	55323.24
536.72	55365.37
536.89	55302.18
537.06	55463.67
537.23	55466.02
537.40	55487.08
537.57	55634.53
537.74	55543.25
537.91	55629.85
538.08	55962.21
538.25	55690.71
538.42	55611.13
538.59	55959.87
538.75	55728.16
538.92	56046.47
539.09	55978.59
539.26	55999.66
539.43	56154.13
539.60	56044.13
539.77	56252.44
539.94	56247.75
540.11	56032.42
540.28	56193.92
540.44	56219.67
540.61	56154.13
540.78	56409.25
540.95	56360.10
541.12	56317.97
541.29	56332.01
541.46	56575.43
541.62	56355.42
541.79	56694.80
541.96	56306.27
542.13	56313.29
542.30	56545.00
542.47	56645.65
542.63	56886.72
542.80	56779.06
542.97	56769.69
543.14	57045.88
543.31	56914.81
543.48	57125.46
543.64	57375.89
543.81	57357.17
543.98	57144.18
544.15	57228.44
544.32	57354.83
544.48	57616.97
544.65	57305.68
544.82	57317.38
544.99	57293.97
545.16	57371.21
545.32	57254.18
545.49	57485.90
545.66	57506.96
545.83	57425.04
546.00	57738.68
546.16	57511.64
546.33	57689.52
546.50	57509.30
546.67	57731.65
546.83	57448.45
547.00	57626.33
547.17	57453.13
547.34	57736.34
547.50	57993.79
547.67	57996.13
547.84	57733.99
548.00	57963.37
548.17	58000.82
548.34	57743.36
548.51	58103.80
548.67	57972.73
548.84	57942.30
549.01	57977.41
549.18	58237.21
549.34	58085.07
549.51	58178.70
549.68	58136.57
549.84	58178.70
550.01	58394.03
550.18	58206.78
550.34	58379.98
550.51	58419.77
550.68	58281.68
550.84	57975.07
551.01	58396.37
551.18	58394.03
551.34	58202.10
551.51	58590.63
551.68	58534.46
551.84	58494.67
552.01	58468.92
552.18	58529.78
552.34	58408.07
552.51	58602.33
552.68	58562.54
552.84	58625.74
553.01	58899.58
553.18	58812.98
553.34	58878.52
553.51	58653.82
553.67	58815.32
553.84	58871.49
554.01	58904.26
554.17	58681.91
554.34	58817.66
554.51	58953.41
554.67	58791.92
554.84	58834.05
555.00	58677.23
555.17	58803.62
555.33	58983.84
555.50	58803.62
555.67	58960.44
555.83	59044.69
556.00	59110.23
556.16	59250.66
556.33	59208.53
556.50	59189.81
556.66	59103.21
556.83	58995.54
556.99	59435.56
557.16	59154.70
557.32	59290.45
557.49	59458.97
557.65	59264.70
557.82	59267.05
557.98	59458.97
558.15	59217.89
558.32	59341.94
558.48	59199.17
558.65	59353.65
558.81	59442.59
558.98	59384.07
559.14	59487.06
559.31	59489.40
559.47	59529.19
559.64	59655.57
559.80	59552.59
559.97	59655.57
560.13	59449.61
560.30	59519.82
560.46	59643.87
560.63	59730.47
560.79	59716.43
560.96	59903.67
561.12	59781.96
561.29	59711.75
561.45	59828.77
561.61	59873.24
561.78	59800.69
561.94	59702.38
562.11	59650.89
562.27	59964.52
562.44	59994.95
562.60	59908.35
562.77	59749.20
562.93	59594.72
563.10	60055.81
563.26	59920.05
563.42	59948.14
563.59	59847.50
563.75	59842.82
563.92	59945.80
564.08	59866.22
564.24	60065.17
564.41	59884.95
564.57	60025.38
564.74	60030.06
564.90	59952.82
565.07	60058.15
565.23	59873.24
565.39	60266.45
565.56	60001.97
565.72	59817.07
565.88	60140.07
566.05	59971.55
566.21	59906.01
566.38	60189.22
566.54	60041.76
566.70	60172.83
566.87	60285.18
567.03	59948.14
567.19	60271.14
567.36	60179.85
567.52	60186.88
567.68	60378.80
567.85	60116.66
568.01	60189.22
568.17	60109.64
568.34	60226.66
568.50	60051.12
568.66	60371.78
568.83	60320.29
568.99	60493.49
569.15	60364.76
569.32	60339.01
569.48	60144.75
569.64	60303.90
569.81	60392.84
569.97	60179.85
570.13	60416.25
570.30	60243.05
570.46	60383.48
570.62	60229.01
570.78	60317.95
570.95	60247.73
571.11	60346.03
571.27	60402.21
571.43	60540.30
571.60	60849.25
571.76	60638.60
571.92	60458.38
572.09	60341.35
572.25	60488.80
572.41	60310.92
572.57	60430.29
572.74	60676.05
572.90	60493.49
573.06	60582.43
573.22	60519.23
573.38	60559.02
573.55	60542.64
573.71	60596.47
573.87	60470.08
574.03	60357.74
574.20	60732.22
574.36	60573.06
574.52	60643.28
574.68	60715.84
574.84	60533.28
575.01	60617.53
575.17	60647.96
575.33	60795.42
575.49	60390.50
575.65	60720.52
575.82	60856.27
575.98	60694.77
576.14	60727.54
576.30	60559.02
576.46	60486.46
576.62	60776.69
576.79	60699.45
576.95	60544.98
577.11	60860.95
577.27	60647.96
577.43	60669.03
577.59	60795.42
577.75	60463.06
577.92	60610.51
578.08	60678.39
578.24	60783.71
578.40	61001.38
578.56	60823.50
578.72	60844.57
578.88	60814.14
579.04	60980.32
579.21	60650.30
579.37	60816.48
579.53	60832.86
579.69	60734.56
579.85	60650.30
580.01	60739.24
580.17	60615.19
580.33	60666.69
580.49	60912.44
580.65	60666.69
580.82	60636.26
580.98	60685.41
581.14	60631.58
581.30	60814.14
581.46	60746.26
581.62	60842.23
581.78	60652.64
581.94	61017.77
582.10	60889.04
582.26	60912.44
582.42	60725.20
582.58	60793.07
582.74	60762.65
582.90	60910.10
583.06	60842.23
583.22	60708.82
583.38	60835.20
583.54	60858.61
583.70	60973.30
583.86	60870.31
584.02	60760.31
584.18	60776.69
584.34	60732.22
584.50	60818.82
584.66	60903.08
584.82	60715.84
584.98	60830.52
585.14	60928.83
585.30	60903.08
585.46	60980.32
585.62	60870.31
585.78	61022.45
585.94	60776.69
586.10	60968.61
586.26	61055.21
586.42	60849.25
586.58	61214.37
586.74	60818.82
586.90	60884.36
587.06	60839.89
587.22	61179.26
587.38	60858.61
587.54	61050.53
587.70	61087.98
587.86	60933.51
588.02	60910.10
588.18	60947.55
588.34	60872.65
588.49	61043.51
