SpectraSuite Data File
++++++++++++++++++++++++++++++++++++
Date: Fri Oct 25 10:47:46 EDT 2013
User: price-jones
Dark Spectrum Present: No
Reference Spectrum Present: No
Number of Sampled Component Spectra: 1
Spectrometers: USB2+H05261
Integration Time (usec): 100000 (USB2+H05261)
Spectra Averaged: 1 (USB2+H05261)
Boxcar Smoothing: 0 (USB2+H05261)
Correct for Electrical Dark: No (USB2+H05261)
Strobe/Lamp Enabled: No (USB2+H05261)
Correct for Detector Non-linearity: No (USB2+H05261)
Correct for Stray Light: No (USB2+H05261)
Number of Pixels in Processed Spectrum: 2048
>>>>>Begin Processed Spectral Data<<<<<
365.73	95.96
365.92	95.96
366.12	95.96
366.32	0.00
366.52	117.03
366.72	70.22
366.91	7.02
367.11	14.04
367.31	58.51
367.51	72.56
367.70	32.77
367.90	140.43
368.10	77.24
368.30	91.28
368.49	25.75
368.69	79.58
368.89	23.41
369.09	70.22
369.28	74.90
369.48	72.56
369.68	39.79
369.87	95.96
370.07	14.04
370.27	168.52
370.47	215.33
370.66	334.70
370.86	437.68
371.06	421.30
371.25	442.36
371.45	503.22
371.65	407.25
371.84	423.64
372.04	425.98
372.24	437.68
372.44	484.49
372.63	477.47
372.83	547.69
373.03	458.74
373.22	491.51
373.42	433.00
373.62	545.34
373.81	507.90
374.01	566.41
374.21	592.16
374.40	500.87
374.60	552.37
374.79	538.32
374.99	498.53
375.19	507.90
375.38	535.98
375.58	669.39
375.78	547.69
375.97	519.60
376.17	585.13
376.37	580.45
376.56	557.05
376.76	547.69
376.95	554.71
377.15	634.29
377.35	631.94
377.54	582.79
377.74	636.63
377.93	636.63
378.13	610.88
378.33	554.71
378.52	571.09
378.72	641.31
378.91	641.31
379.11	622.58
379.31	596.84
379.50	645.99
379.70	629.60
379.89	704.50
380.09	617.90
380.28	610.88
380.48	638.97
380.68	620.24
380.87	578.11
381.07	660.03
381.26	706.84
381.46	669.39
381.65	725.57
381.85	667.05
382.04	706.84
382.24	683.44
382.43	734.93
382.63	720.88
382.83	631.94
383.02	795.78
383.22	671.73
383.41	664.71
383.61	758.33
383.80	777.06
384.00	786.42
384.19	692.80
384.39	805.14
384.58	669.39
384.78	788.76
384.97	788.76
385.17	777.06
385.36	676.41
385.56	802.80
385.75	713.86
385.95	781.74
386.14	730.25
386.34	854.30
386.53	786.42
386.72	713.86
386.92	809.83
387.11	758.33
387.31	828.55
387.50	891.74
387.70	842.59
387.89	847.27
388.09	823.87
388.28	800.46
388.48	844.93
388.67	933.87
388.86	908.13
389.06	889.40
389.25	863.66
389.45	819.19
389.64	950.26
389.84	1043.88
390.03	943.24
390.22	940.90
390.42	873.02
390.61	959.62
390.81	957.28
391.00	976.00
391.19	971.32
391.39	954.94
391.58	992.39
391.78	1046.22
391.97	961.96
392.16	973.66
392.36	933.87
392.55	978.34
392.75	940.90
392.94	957.28
393.13	936.21
393.33	987.71
393.52	961.96
393.71	1043.88
393.91	1025.15
394.10	1057.92
394.29	1086.01
394.49	1011.11
394.68	1144.52
394.88	1071.97
395.07	1188.99
395.26	1125.80
395.46	1114.10
395.65	1144.52
395.84	1083.67
396.04	1207.72
396.23	1093.03
396.42	1160.91
396.62	1200.69
396.81	1200.69
397.00	1203.04
397.19	1188.99
397.39	1193.67
397.58	1266.23
397.77	1210.06
397.97	1301.34
398.16	1308.36
398.35	1259.21
398.55	1355.17
398.74	1310.70
398.93	1329.42
399.12	1352.83
399.32	1324.74
399.51	1299.00
399.70	1310.70
399.90	1355.17
400.09	1371.55
400.28	1455.81
400.47	1357.51
400.67	1444.11
400.86	1413.68
401.05	1432.41
401.24	1401.98
401.44	1469.86
401.63	1514.33
401.82	1430.07
402.01	1570.50
402.21	1509.65
402.40	1563.48
402.59	1549.43
402.78	1514.33
402.97	1514.33
403.17	1605.61
403.36	1526.03
403.55	1671.14
403.74	1607.95
403.93	1600.93
404.13	1640.72
404.32	1586.88
404.51	1668.80
404.70	1682.85
404.89	1720.29
405.09	1668.80
405.28	1680.50
405.47	1757.74
405.66	1781.15
405.85	1741.36
406.05	1706.25
406.24	1710.93
406.43	1757.74
406.62	1933.28
406.81	1849.02
407.00	1706.25
407.20	1799.87
407.39	1916.90
407.58	1898.17
407.77	2003.50
407.96	1977.75
408.15	2005.84
408.34	1977.75
408.54	1975.41
408.73	1893.49
408.92	2071.37
409.11	2022.22
409.30	2078.40
409.49	2080.74
409.68	2008.18
409.87	2036.27
410.07	2143.93
410.26	2160.31
410.45	2228.19
410.64	2202.44
410.83	2258.62
411.02	2225.85
411.21	2239.89
411.40	2235.21
411.59	2258.62
411.78	2235.21
411.98	2235.21
412.17	2312.45
412.36	2282.02
412.55	2368.62
412.74	2406.07
412.93	2478.63
413.12	2396.71
413.31	2527.78
413.50	2462.24
413.69	2495.01
413.88	2647.15
414.07	2471.61
414.26	2602.68
414.45	2644.81
414.64	2640.12
414.83	2703.32
415.02	2731.41
415.22	2775.88
415.41	2818.00
415.60	2843.75
415.79	2759.49
415.98	2890.56
416.17	2890.56
416.36	2892.90
416.55	2813.32
416.74	2977.16
416.93	2935.03
417.12	2822.69
417.31	2963.12
417.50	3007.59
417.69	3101.21
417.88	3101.21
418.07	3112.91
418.26	3211.22
418.45	3016.95
418.64	3155.04
418.83	3126.96
419.02	3119.93
419.21	3239.30
419.39	3255.69
419.58	3124.62
419.77	3300.16
419.96	3356.33
420.15	3332.92
420.34	3246.32
420.53	3414.84
420.72	3517.83
420.91	3492.08
421.10	3435.91
421.29	3482.72
421.48	3272.07
421.67	3419.52
421.86	3335.26
422.05	3405.48
422.24	3473.36
422.43	3384.41
422.61	3461.65
422.80	3550.59
422.99	3435.91
423.18	3475.70
423.37	3506.12
423.56	3489.74
423.75	3466.33
423.94	3407.82
424.13	3309.52
424.32	3358.67
424.50	3588.04
424.69	3492.08
424.88	3585.70
425.07	3393.78
425.26	3503.78
425.45	3667.62
425.64	3414.84
425.83	3538.89
426.01	3632.51
426.20	3735.50
426.39	3506.12
426.58	3515.48
426.77	3627.83
426.96	3794.01
427.15	3517.83
427.33	3665.28
427.52	3770.60
427.71	3665.28
427.90	3737.84
428.09	3786.99
428.28	3826.78
428.46	3791.67
428.65	3782.31
428.84	3889.97
429.03	3967.21
429.22	3852.52
429.40	3922.74
429.59	3887.63
429.78	3548.25
429.97	3522.51
430.16	3604.42
430.34	3770.60
430.53	3964.87
430.72	3866.56
430.91	3843.16
431.10	3962.53
431.28	4023.38
431.47	4011.68
431.66	4084.23
431.85	4044.45
432.03	4161.47
432.22	4299.56
432.41	4182.54
432.60	4210.62
432.79	4145.09
432.97	4191.90
433.16	4135.73
433.35	4365.10
433.54	4294.88
433.72	4236.37
433.91	4404.89
434.10	4372.12
434.28	4159.13
434.47	4348.72
434.66	4542.98
434.85	4493.83
435.03	4524.26
435.22	4360.42
435.41	4535.96
435.59	4493.83
435.78	4685.75
435.97	4575.75
436.16	4615.54
436.34	4617.88
436.53	4634.26
436.72	4688.09
436.90	4575.75
437.09	4664.69
437.28	4531.28
437.46	4620.22
437.65	4650.64
437.84	4755.97
438.02	4650.64
438.21	4645.96
438.40	4550.00
438.58	4765.33
438.77	4917.47
438.96	4821.50
439.14	4835.55
439.33	5050.88
439.52	5011.09
439.70	5022.79
439.89	5090.67
440.08	5078.96
440.26	5064.92
440.45	5036.83
440.63	5200.67
440.82	5413.66
441.01	5177.26
441.19	5439.40
441.38	5427.70
441.57	5514.30
441.75	5558.77
441.94	5694.52
442.12	5621.97
442.31	5708.57
442.50	5455.79
442.68	5743.67
442.87	5568.13
443.05	5827.93
443.24	5785.80
443.43	5713.25
443.61	5968.37
443.80	5935.60
443.98	5771.76
444.17	5596.22
444.35	5806.87
444.54	5961.34
444.73	5884.11
444.91	5863.04
445.10	5881.77
445.28	5907.51
445.47	5893.47
445.65	5888.79
445.84	5834.96
446.02	5900.49
446.21	5790.49
446.39	5809.21
446.58	5956.66
446.77	5867.72
446.95	5856.02
447.14	5823.25
447.32	6064.33
447.51	6033.90
447.69	5984.75
447.88	5961.34
448.06	5980.07
448.25	6148.59
448.43	6043.26
448.62	5923.90
448.80	5991.77
448.99	6251.57
449.17	6015.18
449.36	5961.34
449.54	6277.32
449.73	6345.19
449.91	6342.85
450.10	6387.32
450.28	6525.41
450.46	6408.39
450.65	6265.61
450.83	6553.50
451.02	6296.04
451.20	6490.31
451.39	6448.18
451.57	6427.11
451.76	6417.75
451.94	6487.96
452.13	6455.20
452.31	6560.52
452.49	6612.01
452.68	6628.40
452.86	6534.78
453.05	6511.37
453.23	6665.85
453.42	6494.99
453.60	6537.12
453.78	6761.81
453.97	6588.61
454.15	6523.07
454.34	6576.91
454.52	6752.45
454.70	6836.70
454.89	6663.51
455.07	6764.15
455.26	6958.41
455.44	6956.07
455.62	6843.73
455.81	7089.48
455.99	7040.33
456.17	7063.74
456.36	6935.01
456.54	7091.82
456.73	7063.74
456.91	7304.81
457.09	7403.11
457.28	7293.11
457.46	7063.74
457.64	7377.37
457.83	7370.35
458.01	7297.79
458.19	7496.74
458.38	7335.24
458.56	7557.59
458.74	7578.65
458.93	7328.22
459.11	7265.02
459.29	7372.69
459.48	7681.64
459.66	7576.31
459.84	7623.12
460.03	7754.19
460.21	7609.08
460.39	7648.87
460.57	7595.04
460.76	7515.46
460.94	7662.91
461.12	7702.70
461.31	7611.42
461.49	7866.54
461.67	7735.47
461.85	7971.86
462.04	7793.98
462.22	8379.12
462.40	7999.95
462.59	7887.61
462.77	8018.68
462.95	8257.41
463.13	7936.76
463.32	7908.67
463.50	8086.55
463.68	8166.13
463.86	8112.30
464.05	8002.29
464.23	8002.29
464.41	8154.43
464.59	8219.96
464.78	8402.52
464.96	8341.67
465.14	8203.58
465.32	8154.43
465.50	8336.99
465.69	8411.89
465.87	8381.46
466.05	8327.63
466.23	8432.95
466.41	8259.75
466.60	8587.43
466.78	8283.16
466.96	8526.57
467.14	8449.33
467.32	8514.87
467.51	8669.34
467.69	8329.97
467.87	8407.20
468.05	8688.07
468.23	8414.23
468.41	8498.49
468.60	8407.20
468.78	8667.00
468.96	8793.39
469.14	8833.18
469.32	8863.61
469.50	8531.25
469.69	8931.48
469.87	8884.67
470.05	8943.19
470.23	9090.64
470.41	8891.70
470.59	8879.99
470.77	8896.38
470.95	9032.13
471.14	9355.12
471.32	8809.78
471.50	9394.91
471.68	9411.29
471.86	9423.00
472.04	9467.47
472.22	9579.81
472.40	9158.52
472.58	9371.50
472.77	9486.19
472.95	9493.21
473.13	9813.87
473.31	9497.89
473.49	9788.12
473.67	9551.73
473.85	9619.60
474.03	10111.11
474.21	10024.51
474.39	10071.33
474.57	10083.03
474.75	10071.33
474.93	9963.66
475.12	10193.03
475.30	10317.08
475.48	10136.86
475.66	10164.95
475.84	10200.05
476.02	10286.65
476.20	10415.38
476.38	10635.39
476.56	10799.23
476.74	10782.85
476.92	10759.44
477.10	10817.96
477.28	10960.73
477.46	10970.09
477.64	10967.75
477.82	11307.13
478.00	11442.88
478.18	11412.45
478.36	11470.97
478.54	11470.97
478.72	11632.46
478.90	11747.15
479.08	11880.56
479.26	11932.05
479.44	11936.73
479.62	12084.19
479.80	12194.19
479.98	12194.19
480.16	12343.99
480.34	12477.40
480.52	12304.20
480.70	12458.67
480.88	12510.16
481.06	12809.75
481.24	12669.32
481.41	12931.46
481.59	13057.85
481.77	13217.01
481.95	12975.93
482.13	13516.59
482.31	13228.71
482.49	13261.48
482.67	13366.80
482.85	13968.32
483.03	13778.73
483.21	13973.00
483.39	13973.00
483.57	13888.74
483.74	14148.54
483.92	14298.33
484.10	14345.14
484.28	14422.38
484.46	14855.38
484.64	14824.95
484.82	14817.93
485.00	15042.62
485.18	15110.50
485.35	15143.27
485.53	14871.76
485.71	15059.01
485.89	15379.66
486.07	15316.47
486.25	15503.71
486.43	15576.27
486.61	15456.90
486.78	16053.73
486.96	15798.62
487.14	16039.69
487.32	16318.22
487.50	16858.88
487.68	16830.79
487.85	17013.35
488.03	17238.05
488.21	17151.45
488.39	16903.35
488.57	17165.49
488.75	17263.79
488.92	17411.25
489.10	17771.69
489.28	17642.96
489.46	18104.04
489.64	18003.40
489.81	18492.57
489.99	18452.78
490.17	18525.34
490.35	18377.89
490.53	18464.49
490.70	18532.36
490.88	18838.97
491.06	19178.35
491.24	19161.97
491.41	19293.04
491.59	19463.90
491.77	19260.27
491.95	19433.47
492.13	19777.53
492.30	19850.08
492.48	20088.82
492.66	20088.82
492.84	20051.37
493.01	20222.23
493.19	20189.46
493.37	20276.06
493.54	20559.27
493.72	20776.94
493.90	20872.90
494.08	21177.17
494.25	21165.46
494.43	21385.47
494.61	21310.58
494.79	21530.59
494.96	21530.59
495.14	21486.12
495.32	21687.40
495.49	21816.13
495.67	21902.73
495.85	22263.18
496.02	22396.59
496.20	22272.54
496.38	22375.52
496.55	22951.29
496.73	22848.31
496.91	22712.56
497.09	22925.55
497.26	22953.63
497.44	22747.67
497.62	23185.35
497.79	23412.38
497.97	23491.96
498.14	23723.67
498.32	23571.54
498.50	23718.99
498.67	23674.52
498.85	24154.33
499.03	23620.69
499.20	24175.39
499.38	24154.33
499.56	24559.24
499.73	24245.61
499.91	24395.40
500.08	24919.68
500.26	24549.88
500.44	24210.50
500.61	24875.21
500.79	24484.34
500.97	24903.30
501.14	25233.32
501.32	25104.59
501.49	25310.55
501.67	25369.07
501.84	25296.51
502.02	25619.50
502.20	25589.08
502.37	25673.34
502.55	25509.50
502.72	25961.22
502.90	26038.46
503.07	26012.71
503.25	25860.58
503.43	26108.68
503.60	26363.79
503.78	26260.81
503.95	26424.65
504.13	26286.56
504.30	26607.21
504.48	26548.70
504.65	26836.58
504.83	26806.16
505.01	27250.86
505.18	26878.71
505.36	27040.21
505.53	27157.24
505.71	27459.16
505.88	27924.93
506.06	27281.28
506.23	27721.30
506.41	27424.06
506.58	27608.96
506.76	28072.39
506.93	27899.19
507.11	27864.08
507.28	27798.54
507.46	27702.58
507.63	28409.42
507.81	28444.53
507.98	28215.16
508.16	28151.96
508.33	28283.03
508.50	28357.93
508.68	28336.87
508.85	29083.50
509.03	28538.15
509.20	28807.31
509.38	28938.38
509.55	29406.49
509.73	29123.29
509.90	29043.71
510.08	28943.06
510.25	29280.10
510.42	29020.30
510.60	29352.66
510.77	29858.21
510.95	29575.01
511.12	29546.92
511.30	29764.59
511.47	30052.48
511.64	29958.86
511.82	30012.69
511.99	30099.29
512.17	30185.89
512.34	30199.93
512.51	30450.37
512.69	30824.86
512.86	30433.99
513.04	30555.69
513.21	31070.61
513.38	30410.58
513.56	30415.26
513.73	30328.66
513.90	30693.79
514.08	31105.72
514.25	31166.57
514.43	30913.80
514.60	30749.96
514.77	31040.18
514.95	31555.10
515.12	31091.68
515.29	31409.99
515.47	31480.21
515.64	31793.84
515.81	31405.31
515.99	31562.12
516.16	31552.76
516.33	31814.90
516.51	31697.88
516.68	31812.56
516.85	31620.64
517.03	31910.86
517.20	32084.06
517.37	32105.13
517.54	32383.65
517.72	32278.33
517.89	31967.04
518.06	32360.25
518.24	32252.58
518.41	32158.96
518.58	32369.61
518.75	32287.69
518.93	33064.75
519.10	32877.51
519.27	32893.89
519.45	33078.79
519.62	33106.88
519.79	33076.45
519.96	33024.96
520.14	33170.07
520.31	32762.82
520.48	33675.63
520.65	33336.25
520.83	33759.89
521.00	33839.47
521.17	33867.55
521.34	33790.31
521.52	34108.63
521.69	33902.66
521.86	34122.67
522.03	34019.69
522.20	34258.42
522.38	34380.13
522.55	34335.66
522.72	34258.42
522.89	33933.09
523.07	34588.44
523.24	34384.81
523.41	34328.64
523.58	34160.12
523.75	35079.95
523.92	35042.50
524.10	35150.17
524.27	34735.89
524.44	35103.35
524.61	34965.26
524.78	35206.34
524.96	35239.11
525.13	35337.41
525.30	35487.20
525.47	35714.23
525.64	35250.81
525.81	35330.39
525.98	35494.22
526.16	35775.09
526.33	35077.61
526.50	35777.43
526.67	35496.56
526.84	35377.20
527.01	35679.13
527.18	36121.49
527.36	35976.37
527.53	35941.27
527.70	36257.24
527.87	35936.59
528.04	36135.53
528.21	36378.95
528.38	36357.88
528.55	36542.78
528.72	36919.61
528.89	36624.70
529.07	36411.71
529.24	36226.81
529.41	36767.48
529.58	36458.52
529.75	36521.72
529.92	36701.94
530.09	36699.60
530.26	36989.83
530.43	36938.33
530.60	36868.12
530.77	36917.27
530.94	37151.32
531.11	36996.85
531.28	37408.78
531.46	38185.84
531.63	37385.38
531.80	37500.06
531.97	37298.78
532.14	37544.53
532.31	37083.45
532.48	37116.22
532.65	37947.11
532.82	37368.99
532.99	37907.32
533.16	37113.87
533.33	37621.77
533.50	37684.97
533.67	37610.07
533.84	37460.27
534.01	38073.49
534.18	37476.66
534.35	37986.89
534.52	38242.01
534.69	38019.66
534.86	38452.66
535.03	37970.51
535.20	38384.79
535.37	38927.79
535.54	38366.06
535.71	38501.81
535.88	38424.57
536.05	38244.35
536.22	38733.53
536.38	38621.18
536.55	38623.52
536.72	38506.49
536.89	38417.55
537.06	38429.26
537.23	38902.04
537.40	38644.59
537.57	38895.02
537.74	38733.53
537.91	38761.61
538.08	38836.51
538.25	38778.00
538.42	39218.02
538.59	39246.10
538.75	38888.00
538.92	39276.53
539.09	39775.06
539.26	39325.68
539.43	39391.22
539.60	39784.43
539.77	39201.63
539.94	39447.39
540.11	39365.47
540.28	39110.35
540.44	39533.99
540.61	39274.19
540.78	39210.99
540.95	39749.32
541.12	39580.80
541.29	39459.09
541.46	39480.16
541.62	40037.20
541.79	40271.26
541.96	39592.50
542.13	39463.77
542.30	40357.86
542.47	39840.60
542.63	40039.54
542.80	40198.70
542.97	40271.26
543.14	40575.53
543.31	40737.02
543.48	40542.76
543.64	40973.42
543.81	40767.45
543.98	41050.66
544.15	40734.68
544.32	40924.27
544.48	40957.03
544.65	40847.03
544.82	40921.93
544.99	40231.47
545.16	41184.07
545.32	40816.60
545.49	41258.96
545.66	41399.40
545.83	41029.59
546.00	41317.48
546.16	41158.32
546.33	41036.61
546.50	40999.16
546.67	40954.69
546.83	40547.44
547.00	40800.22
547.17	41359.61
547.34	41177.04
547.50	41518.76
547.67	41759.84
547.84	41549.19
548.00	41500.04
548.17	41846.44
548.34	41862.82
548.51	42141.35
548.67	41631.11
548.84	41984.53
549.01	41546.85
549.18	41794.95
549.34	41813.67
549.51	42101.56
549.68	42089.85
549.84	41874.52
550.01	42045.38
550.18	41750.48
550.34	41968.15
550.51	41600.68
550.68	42473.70
550.84	41801.97
551.01	42272.42
551.18	42293.48
551.34	42220.92
551.51	41947.08
551.68	42078.15
551.84	42508.81
552.01	42174.11
552.18	42033.68
552.34	42108.58
552.51	42763.93
552.68	42471.36
552.84	42639.88
553.01	42918.40
553.18	42459.66
553.34	42375.40
553.51	42260.71
553.67	42359.02
553.84	42794.36
554.01	42866.91
554.17	42653.92
554.34	42859.89
554.51	42930.11
554.67	43082.24
554.84	42445.62
555.00	42761.59
555.17	42920.74
555.33	42504.13
555.50	42700.73
555.67	43037.77
555.83	43051.81
556.00	42880.95
556.16	43269.48
556.33	43440.34
556.50	43098.62
556.66	42848.19
556.83	42824.78
556.99	42918.40
557.16	43150.12
557.32	43161.82
557.49	43232.04
557.65	43306.93
557.82	43051.81
557.98	43335.02
558.15	43140.75
558.32	43257.78
558.48	43714.19
558.65	43009.68
558.81	43625.25
558.98	43068.20
559.14	43332.68
559.31	43253.10
559.47	43672.06
559.64	43763.34
559.80	43775.04
559.97	43512.90
560.13	43576.09
560.30	43370.13
560.46	43667.37
560.63	43210.97
560.79	43320.98
560.96	43988.03
561.12	43835.89
561.29	43826.53
561.45	44058.24
561.61	43880.36
561.78	43484.81
561.94	43522.26
562.11	43550.35
562.27	43510.56
562.44	43421.62
562.60	43714.19
562.77	43889.73
562.93	43931.86
563.10	44425.71
563.26	43669.72
563.42	44027.82
563.59	43510.56
563.75	43629.93
563.92	44072.29
564.08	43990.37
564.24	44259.53
564.41	44278.25
564.57	43777.38
564.74	43777.38
564.90	44442.09
565.07	43896.75
565.23	43936.54
565.39	43714.19
565.56	44034.84
565.72	43997.39
565.88	44350.81
566.05	44060.58
566.21	44346.13
566.38	43936.54
566.54	43981.01
566.70	44266.55
566.87	44233.78
567.03	44367.20
567.19	44673.81
567.36	44488.90
567.52	44093.35
567.68	44662.10
567.85	44196.34
568.01	44514.65
568.17	44107.40
568.34	44184.63
568.50	44470.18
568.66	43704.82
568.83	43962.28
568.99	44367.20
569.15	44208.04
569.32	44278.25
569.48	43915.47
569.64	44041.86
569.81	44566.14
569.97	44119.10
570.13	44353.15
570.30	43950.58
570.46	43878.02
570.62	44399.96
570.78	44205.70
570.95	44273.57
571.11	44683.17
571.27	44065.27
571.43	44018.46
571.60	44114.42
571.76	44308.68
571.92	44304.00
572.09	44182.29
572.25	44367.20
572.41	44371.88
572.57	44224.42
572.74	45045.95
572.90	44842.32
573.06	44767.43
573.22	45048.29
573.38	44748.70
573.55	43924.83
573.71	44648.06
573.87	44175.27
574.03	44034.84
574.20	44556.78
574.36	44421.03
574.52	44631.68
574.68	44650.40
574.84	44531.03
575.01	44584.86
575.17	44285.28
575.33	44477.20
575.49	44493.58
575.65	44531.03
575.82	44879.77
575.98	44821.26
576.14	44837.64
576.30	44554.44
576.46	44563.80
576.62	44030.16
576.79	44610.61
576.95	44060.58
577.11	44275.91
577.27	44608.27
577.43	44596.57
577.59	44566.14
577.75	44612.95
577.92	44500.61
578.08	44634.02
578.24	44519.33
578.40	44507.63
578.56	44720.62
578.72	44619.97
578.88	44589.55
579.04	44678.49
579.21	44652.74
579.37	44561.46
579.53	44355.49
579.69	44638.70
579.85	44552.10
580.01	44622.31
580.17	44673.81
580.33	44617.63
580.49	44835.30
580.65	44776.79
580.82	44629.34
580.98	45097.44
581.14	44362.51
581.30	44807.22
581.46	45179.36
581.62	44402.30
581.78	44395.28
581.94	44781.47
582.10	45055.31
582.26	45146.59
582.42	44823.60
582.58	44713.59
582.74	44933.60
582.90	44856.37
583.06	44961.69
583.22	44648.06
583.38	44760.40
583.54	44762.75
583.70	44779.13
583.86	44706.57
584.02	44549.76
584.18	44739.34
584.34	45020.20
584.50	44706.57
584.66	44924.24
584.82	44453.79
584.98	44870.41
585.14	44584.86
585.30	44741.68
585.46	44570.82
585.62	44282.94
585.78	44842.32
585.94	44201.02
586.10	44282.94
586.26	44453.79
586.42	44594.23
586.58	45048.29
586.74	45095.10
586.90	44755.72
587.06	44519.33
587.22	44769.77
587.38	44327.41
587.54	44896.16
587.70	45188.72
587.86	45177.02
588.02	44879.77
588.18	44725.30
588.34	44673.81
588.49	44603.59
588.65	44856.37
588.81	44863.39
588.97	44549.76
589.13	44737.00
589.29	44619.97
589.45	44769.77
589.61	45350.22
589.77	45151.27
589.93	45247.24
590.08	45427.46
590.24	45034.25
