SpectraSuite Data File
++++++++++++++++++++++++++++++++++++
Date: Fri Oct 25 11:25:53 EDT 2013
User: price-jones
Dark Spectrum Present: No
Reference Spectrum Present: No
Number of Sampled Component Spectra: 1
Spectrometers: USB2+H05261
Integration Time (usec): 100000 (USB2+H05261)
Spectra Averaged: 1 (USB2+H05261)
Boxcar Smoothing: 0 (USB2+H05261)
Correct for Electrical Dark: No (USB2+H05261)
Strobe/Lamp Enabled: No (USB2+H05261)
Correct for Detector Non-linearity: No (USB2+H05261)
Correct for Stray Light: No (USB2+H05261)
Number of Pixels in Processed Spectrum: 2048
>>>>>Begin Processed Spectral Data<<<<<
365.73	229.37
365.92	229.37
366.12	229.37
366.32	138.09
366.52	170.86
366.72	173.20
366.91	84.26
367.11	119.37
367.31	74.90
367.51	142.77
367.70	93.62
367.90	145.11
368.10	145.11
368.30	159.16
368.49	70.22
368.69	135.75
368.89	112.35
369.09	100.64
369.28	166.18
369.48	173.20
369.68	156.82
369.87	224.69
370.07	128.73
370.27	234.05
370.47	360.44
370.66	596.84
370.86	557.05
371.06	643.65
371.25	704.50
371.45	688.12
371.65	727.91
371.84	711.52
372.04	676.41
372.24	720.88
372.44	678.76
372.63	695.14
372.83	791.10
373.03	770.04
373.22	774.72
373.42	767.70
373.62	765.36
373.81	821.53
374.01	746.63
374.21	751.31
374.40	819.19
374.60	882.38
374.79	755.99
374.99	816.85
375.19	816.85
375.38	851.96
375.58	781.74
375.78	959.62
375.97	910.47
376.17	994.73
376.37	887.06
376.56	863.66
376.76	861.32
376.95	858.98
377.15	842.59
377.35	931.53
377.54	823.87
377.74	894.08
377.93	910.47
378.13	830.89
378.33	926.85
378.52	901.11
378.72	908.13
378.91	896.43
379.11	945.58
379.31	912.81
379.50	901.11
379.70	959.62
379.89	1067.28
380.09	915.15
380.28	1067.28
380.48	938.55
380.68	1006.43
380.87	971.32
381.07	924.51
381.26	1027.50
381.46	1041.54
381.65	1097.71
381.85	990.05
382.04	1041.54
382.24	1041.54
382.43	1081.33
382.63	1095.37
382.83	997.07
383.02	1118.78
383.22	1123.46
383.41	1093.03
383.61	1064.94
383.80	1100.05
384.00	1043.88
384.19	1179.63
384.39	1160.91
384.58	1125.80
384.78	1074.31
384.97	1102.39
385.17	1123.46
385.36	1114.10
385.56	1102.39
385.75	1118.78
385.95	1252.19
386.14	1179.63
386.34	1165.59
386.53	1254.53
386.72	1172.61
386.92	1320.06
387.11	1289.64
387.31	1322.40
387.50	1224.10
387.70	1242.82
387.89	1254.53
388.09	1291.98
388.28	1308.36
388.48	1268.57
388.67	1245.16
388.86	1380.92
389.06	1306.02
389.25	1306.02
389.45	1331.76
389.64	1399.64
389.84	1432.41
390.03	1371.55
390.22	1439.43
390.42	1406.66
390.61	1404.32
390.81	1345.81
391.00	1397.30
391.19	1373.89
391.39	1439.43
391.58	1378.58
391.78	1497.94
391.97	1409.00
392.16	1427.73
392.36	1551.78
392.55	1514.33
392.75	1654.76
392.94	1486.24
393.13	1460.49
393.33	1488.58
393.52	1565.82
393.71	1598.59
393.91	1563.48
394.10	1631.35
394.29	1593.90
394.49	1441.77
394.68	1636.03
394.88	1519.01
395.07	1621.99
395.26	1619.65
395.46	1650.08
395.65	1722.63
395.84	1785.83
396.04	1764.76
396.23	1776.47
396.42	1781.15
396.62	1753.06
396.81	1834.98
397.00	1706.25
397.19	1832.64
397.39	1696.89
397.58	1804.55
397.77	1879.45
397.97	1760.08
398.16	1853.70
398.35	1804.55
398.55	1853.70
398.74	1914.56
398.93	1905.20
399.12	1907.54
399.32	1844.34
399.51	1898.17
399.70	2003.50
399.90	1891.15
400.09	1975.41
400.28	1982.43
400.47	1966.05
400.67	2108.82
400.86	2001.16
401.05	2118.18
401.24	2148.61
401.44	2235.21
401.63	2153.29
401.82	2076.06
402.01	2111.16
402.21	2153.29
402.40	2167.34
402.59	2218.83
402.78	2232.87
402.97	2253.94
403.17	2256.28
403.36	2293.72
403.55	2307.77
403.74	2249.25
403.93	2335.85
404.13	2331.17
404.32	2422.45
404.51	2502.03
404.70	2490.33
404.89	2478.63
405.09	2504.37
405.28	2448.20
405.47	2469.27
405.66	2352.24
405.85	2455.22
406.05	2485.65
406.24	2616.72
406.43	2700.98
406.62	2593.31
406.81	2722.04
407.00	2485.65
407.20	2502.03
407.39	2633.10
407.58	2635.44
407.77	2710.34
407.96	2778.22
408.15	2829.71
408.34	2754.81
408.54	2815.66
408.73	2745.45
408.92	2775.88
409.11	2801.62
409.30	2853.11
409.49	2993.55
409.68	3030.99
409.87	2935.03
410.07	2984.18
410.26	3005.25
410.45	2890.56
410.64	3105.89
410.83	3115.25
411.02	2946.73
411.21	3185.47
411.40	2970.14
411.59	3162.06
411.78	3180.79
411.98	3197.17
412.17	3304.84
412.36	3192.49
412.55	3421.86
412.74	3389.10
412.93	3382.07
413.12	3318.88
413.31	3442.93
413.50	3414.84
413.69	3529.53
413.88	3609.11
414.07	3595.06
414.26	3770.60
414.45	3679.32
414.64	3721.45
414.83	3796.35
415.02	3758.90
415.22	3875.93
415.41	3857.20
415.60	3815.07
415.79	3932.10
415.98	3960.19
416.17	4032.74
416.36	3920.40
416.55	4098.28
416.74	4173.18
416.93	3854.86
417.12	4058.49
417.31	4161.47
417.50	4248.07
417.69	4175.52
417.88	4287.86
418.07	4205.94
418.26	4236.37
418.45	4351.06
418.64	4615.54
418.83	4421.27
419.02	4442.34
419.21	4514.89
419.39	4545.32
419.58	4432.97
419.77	4528.94
419.96	4550.00
420.15	4535.96
420.34	4624.90
420.53	4660.01
420.72	4760.65
420.91	4650.64
421.10	4821.50
421.29	4844.91
421.48	4727.88
421.67	4837.89
421.86	4751.29
422.05	4896.40
422.24	4863.63
422.43	4926.83
422.61	5107.05
422.80	4910.44
422.99	5025.13
423.18	4901.08
423.37	4968.96
423.56	4926.83
423.75	4922.15
423.94	4931.51
424.13	4699.80
424.32	4741.93
424.50	5088.32
424.69	5097.69
424.88	5036.83
425.07	4929.17
425.26	4938.53
425.45	5006.41
425.64	4865.97
425.83	5020.45
426.01	5163.22
426.20	5013.43
426.39	5097.69
426.58	4987.68
426.77	5032.15
426.96	5125.77
427.15	4999.38
427.33	5177.26
427.52	5226.42
427.71	5254.50
427.90	5203.01
428.09	5341.10
428.28	5500.26
428.46	5369.19
428.65	5310.68
428.84	5483.88
429.03	5390.25
429.22	5249.82
429.40	5331.74
429.59	5455.79
429.78	5287.27
429.97	5355.15
430.16	5504.94
430.34	5565.79
430.53	5720.27
430.72	5664.10
430.91	5774.10
431.10	5584.52
431.28	5659.42
431.47	5760.06
431.66	5785.80
431.85	5579.84
432.03	5963.68
432.22	5799.85
432.41	5921.56
432.60	5989.43
432.79	5849.00
432.97	5928.58
433.16	6061.99
433.35	6057.31
433.54	6033.90
433.72	6092.41
433.91	6054.97
434.10	6076.03
434.28	6209.44
434.47	6188.38
434.66	6111.14
434.85	6394.34
435.03	6354.55
435.22	6291.36
435.41	6544.14
435.59	6551.16
435.78	6565.20
435.97	6487.96
436.16	6314.77
436.34	6303.06
436.53	6616.69
436.72	6558.18
436.90	6394.34
437.09	6530.09
437.28	6464.56
437.46	6754.79
437.65	6537.12
437.84	6869.47
438.02	6693.93
438.21	6764.15
438.40	6523.07
438.58	7026.29
438.77	6981.82
438.96	6846.07
439.14	6979.48
439.33	7187.79
439.52	7105.87
439.70	7255.66
439.89	7269.70
440.08	7199.49
440.26	7386.73
440.45	7274.38
440.63	7487.37
440.82	7550.57
441.01	7454.61
441.19	7433.54
441.38	7660.57
441.57	7779.94
441.75	7779.94
441.94	7894.63
442.12	7946.12
442.31	7967.18
442.50	8140.38
442.68	8084.21
442.87	7899.31
443.05	7988.25
443.24	8175.49
443.43	8255.07
443.61	8269.11
443.80	8339.33
443.98	8238.69
444.17	7667.60
444.35	8142.72
444.54	8477.42
444.73	8224.64
444.91	8294.86
445.10	8341.67
445.28	8217.62
445.47	8257.41
445.65	8212.94
445.84	8491.46
446.02	8477.42
446.21	8294.86
446.39	8491.46
446.58	8486.78
446.77	8407.20
446.95	8271.45
447.14	8454.02
447.32	8566.36
447.51	8524.23
447.69	8538.27
447.88	8386.14
448.06	8285.50
448.25	8606.15
448.43	8484.44
448.62	8484.44
448.80	8559.34
448.99	8655.30
449.17	8758.28
449.36	8713.81
449.54	8755.94
449.73	8894.04
449.91	8830.84
450.10	8884.67
450.28	9076.60
450.46	9025.11
450.65	9064.89
450.83	9008.72
451.02	9027.45
451.20	9245.12
451.39	9139.79
451.57	8990.00
451.76	9247.46
451.94	8891.70
452.13	9399.59
452.31	9301.29
452.49	9036.81
452.68	9376.19
452.86	9165.54
453.05	9584.49
453.23	9563.43
453.42	9406.61
453.60	9357.46
453.78	9525.98
453.97	9495.55
454.15	9479.17
454.34	9535.34
454.52	9628.96
454.70	9514.28
454.89	9673.43
455.07	9664.07
455.26	9865.36
455.44	9940.26
455.62	9799.82
455.81	9928.55
455.99	9994.09
456.17	9909.83
456.36	9923.87
456.54	10312.40
456.73	10422.41
456.91	10401.34
457.09	10200.05
457.28	10626.03
457.46	10436.45
457.64	10569.86
457.83	10558.16
458.01	10239.84
458.19	10663.48
458.38	10445.81
458.56	10817.96
458.74	10801.57
458.93	10326.44
459.11	10604.97
459.29	10939.66
459.48	10902.22
459.66	10719.65
459.84	10995.84
460.03	11033.29
460.21	11016.90
460.39	10846.04
460.57	10839.02
460.76	11262.66
460.94	11040.31
461.12	11059.03
461.31	11012.22
461.49	10899.87
461.67	11192.44
461.85	11391.39
462.04	11225.21
462.22	11740.13
462.40	11466.28
462.59	11552.88
462.77	11393.73
462.95	11693.32
463.13	11545.86
463.32	11559.91
463.50	11815.02
463.68	11597.35
463.86	11873.54
464.05	11564.59
464.23	11510.75
464.41	11910.99
464.59	11742.47
464.78	12042.06
464.96	11775.24
465.14	11873.54
465.32	11852.47
465.50	12166.10
465.69	12011.63
465.87	12035.03
466.05	12035.03
466.23	11934.39
466.41	12161.42
466.60	12437.61
466.78	12250.36
466.96	12306.54
467.14	12287.81
467.32	12189.51
467.51	12568.68
467.69	12072.48
467.87	12353.35
468.05	12666.98
468.23	12507.82
468.41	12528.89
468.60	12737.20
468.78	12519.53
468.96	12444.63
469.14	12779.32
469.32	12886.99
469.50	12734.85
469.69	12814.43
469.87	13050.83
470.05	12882.31
470.23	12975.93
470.41	12945.50
470.59	13319.99
470.77	13149.13
470.95	13303.60
471.14	13345.73
471.32	13032.10
471.50	13458.08
471.68	13502.55
471.86	13607.87
472.04	13575.11
472.22	14008.11
472.40	13837.25
472.58	13769.37
472.77	13956.61
472.95	14031.51
473.13	14651.75
473.31	13717.88
473.49	14008.11
473.67	14310.04
473.85	14387.27
474.03	14637.71
474.21	14623.67
474.39	14506.64
474.57	14703.25
474.75	14927.94
474.93	15044.96
475.12	14946.66
475.30	14993.47
475.48	14972.41
475.66	15288.38
475.84	14977.09
476.02	15335.19
476.20	15108.16
476.38	15510.73
476.56	16259.70
476.74	15742.44
476.92	16168.42
477.10	15819.68
477.28	16170.76
477.46	15747.12
477.64	16252.68
477.82	16606.10
478.00	17085.91
478.18	16765.26
478.36	16706.74
478.54	17305.92
478.72	17296.56
478.90	17322.30
479.08	17521.25
479.26	17689.77
479.44	17448.69
479.62	17954.25
479.80	17752.96
479.98	18263.20
480.16	18604.92
480.34	18094.68
480.52	18537.04
480.70	18455.12
480.88	18485.55
481.06	18988.77
481.24	18616.62
481.41	18831.95
481.59	18937.27
481.77	19412.40
481.95	19501.34
482.13	19719.01
482.31	19639.44
482.49	20336.91
482.67	20386.07
482.85	20498.41
483.03	20278.40
483.21	20793.32
483.39	20765.23
483.57	20727.78
483.74	21247.38
483.92	21233.34
484.10	21181.85
484.28	21813.79
484.46	22136.79
484.64	22504.25
484.82	21832.52
485.00	21738.90
485.18	22712.56
485.35	22885.76
485.53	22794.48
485.71	23070.66
485.89	23468.55
486.07	23073.00
486.25	23339.82
486.43	23522.38
486.61	23576.22
486.78	23873.46
486.96	24093.47
487.14	24505.41
487.32	24533.50
487.50	24748.82
487.68	25050.75
487.85	25287.15
488.03	25317.57
488.21	25881.64
488.39	25797.38
488.57	26190.59
488.75	26082.93
488.92	26464.44
489.10	26675.09
489.28	26843.60
489.46	26831.90
489.64	26810.84
489.81	27653.43
489.99	27295.33
490.17	27754.07
490.35	28180.05
490.53	28369.63
490.70	28474.96
490.88	28170.69
491.06	28816.68
491.24	28781.57
491.41	29090.52
491.59	29060.09
491.77	29029.66
491.95	29399.47
492.13	29507.13
492.30	29785.66
492.48	30155.46
492.66	30169.51
492.84	30361.43
493.01	30532.29
493.19	30878.69
493.37	30845.92
493.54	31232.11
493.72	31587.87
493.90	31321.05
494.08	31440.42
494.25	31618.30
494.43	31931.93
494.61	32339.18
494.79	32198.75
494.96	32297.05
495.14	32350.88
495.32	32659.84
495.49	32718.35
495.67	33081.13
495.85	33811.38
496.02	33390.08
496.20	33708.40
496.38	34033.73
496.55	34012.66
496.73	34857.60
496.91	34227.99
497.09	34998.03
497.26	34976.97
497.44	35033.14
497.62	35278.89
497.79	35964.67
497.97	35508.27
498.14	36065.31
498.32	36313.41
498.50	35669.76
498.67	36203.41
498.85	36109.78
499.03	36744.07
499.20	36554.49
499.38	36807.26
499.56	37078.77
499.73	37174.73
499.91	37165.37
500.08	37387.72
500.26	37273.03
500.44	37235.58
500.61	37722.41
500.79	37834.76
500.97	38106.26
501.14	38410.53
501.32	38314.57
501.49	38597.77
501.67	38705.44
501.84	38841.19
502.02	38892.68
502.20	39220.36
502.37	39058.86
502.55	38939.49
502.72	39772.72
502.90	39873.37
503.07	39189.93
503.25	39608.89
503.43	39945.92
503.60	40091.04
503.78	39978.69
503.95	40020.82
504.13	39885.07
504.30	40809.58
504.48	40030.18
504.65	40605.95
504.83	40865.75
505.01	40765.11
505.18	41113.85
505.36	41200.45
505.53	40917.25
505.71	41483.66
505.88	41710.69
506.06	41537.49
506.23	41715.37
506.41	41312.80
506.58	41879.21
506.76	41904.95
506.93	42307.52
507.11	42419.87
507.28	42483.06
507.46	42527.53
507.63	43026.07
507.81	43264.80
507.98	42927.77
508.16	43166.50
508.33	43161.82
508.50	43173.52
508.68	43423.96
508.85	43821.85
509.03	43430.98
509.20	43559.71
509.38	43920.15
509.55	44233.78
509.73	44875.09
509.90	44809.56
510.08	44493.58
510.25	44594.23
510.42	44699.55
510.60	45394.69
510.77	45350.22
510.95	45174.68
511.12	44980.42
511.30	45223.83
511.47	45439.16
511.64	45584.27
511.82	45844.07
511.99	45523.42
512.17	45591.30
512.34	45443.84
512.51	46321.54
512.69	46330.90
512.86	46429.21
513.04	46892.63
513.21	46588.36
513.38	46436.23
513.56	46890.29
513.73	46646.88
513.90	46766.24
514.08	46431.55
514.25	47374.78
514.43	47241.37
514.60	47468.40
514.77	47196.90
514.95	47632.24
515.12	47452.02
515.29	47665.01
515.47	47529.26
515.64	48098.01
515.81	47622.88
515.99	48303.98
516.16	48369.51
516.33	48278.23
516.51	48547.39
516.68	48584.84
516.85	48830.60
517.03	49113.80
517.20	48832.94
517.37	48568.46
517.54	48818.89
517.72	48601.22
517.89	48863.36
518.06	48940.60
518.24	49127.84
518.41	48921.88
518.58	49162.95
518.75	48994.43
518.93	49364.24
519.10	49083.37
519.27	49670.85
519.45	49600.63
519.62	49710.64
519.79	49762.13
519.96	50171.72
520.14	50621.11
520.31	49977.46
520.48	50314.50
520.65	50234.92
520.83	50679.62
521.00	50742.81
521.17	50382.37
521.34	50454.93
521.52	50822.39
521.69	50780.26
521.86	51028.36
522.03	50930.06
522.20	51152.41
522.38	51480.08
522.55	51091.55
522.72	50988.57
522.89	51152.41
523.07	51578.39
523.24	51421.57
523.41	51356.03
523.58	51182.84
523.75	51812.44
523.92	51622.86
524.10	51955.21
524.27	52046.49
524.44	52037.13
524.61	52123.73
524.78	52048.83
524.96	51803.08
525.13	52250.12
525.30	52439.70
525.47	52549.71
525.64	52278.21
525.81	52582.48
525.98	52645.67
526.16	52360.12
526.33	52910.15
526.50	53024.84
526.67	53003.77
526.84	52912.49
527.01	52633.97
527.18	52657.37
527.36	52992.07
527.53	52985.05
527.70	53193.36
527.87	53375.92
528.04	53169.95
528.21	53308.04
528.38	53338.47
528.55	53504.65
528.72	53315.06
528.89	53415.71
529.07	53317.40
529.24	53378.26
529.41	53888.49
529.58	53790.19
529.75	53366.55
529.92	53411.02
530.09	53776.15
530.26	53825.30
530.43	54026.59
530.60	53750.40
530.77	53729.34
530.94	53916.58
531.11	54080.42
531.28	54103.82
531.46	53951.69
531.63	54251.28
531.80	54190.42
531.97	54440.86
532.14	54541.50
532.31	54234.89
532.48	54450.22
532.65	54707.68
532.82	54372.99
532.99	54588.31
533.16	54555.55
533.33	54820.03
533.50	54834.07
533.67	54859.82
533.84	54766.20
534.01	54995.57
534.18	54501.71
534.35	55121.96
534.52	55159.41
534.69	54904.29
534.86	55189.83
535.03	55044.72
535.20	55100.89
535.37	55430.91
535.54	55426.23
535.71	55227.28
535.88	55344.31
536.05	55304.52
536.22	55498.78
536.38	55440.27
536.55	55501.12
536.72	55519.85
536.89	55552.62
537.06	55622.83
537.23	55634.53
537.40	55325.58
537.57	55751.56
537.74	55765.60
537.91	55789.01
538.08	55765.60
538.25	55491.76
538.42	55583.04
538.59	56116.68
538.75	55728.16
538.92	55849.86
539.09	56158.81
539.26	56104.98
539.43	55936.46
539.60	56243.07
539.77	56315.63
539.94	56315.63
540.11	56406.91
540.28	56306.27
540.44	56238.39
540.61	56406.91
540.78	56437.34
540.95	56526.28
541.12	56238.39
541.29	56238.39
541.46	56470.11
541.62	56545.00
541.79	56580.11
541.96	56336.69
542.13	56725.22
542.30	56757.99
542.47	56776.72
542.63	56671.39
542.80	57083.33
542.97	56814.16
543.14	57057.58
543.31	56956.94
543.48	57041.20
543.64	57389.94
543.81	57286.95
543.98	57155.88
544.15	57221.42
544.32	57450.79
544.48	57598.24
544.65	57174.61
544.82	57378.23
544.99	57027.15
545.16	57483.56
545.32	57141.84
545.49	57750.38
545.66	57546.75
545.83	57549.09
546.00	57750.38
546.16	57443.77
546.33	57570.16
546.50	57329.08
546.67	57719.95
546.83	57340.78
547.00	57804.21
547.17	57771.44
547.34	57743.36
547.50	57942.30
547.67	58143.59
547.84	57776.12
548.00	57949.32
548.17	58272.32
548.34	57808.89
548.51	58239.55
548.67	58162.31
548.84	58223.17
549.01	58019.54
549.18	57996.13
549.34	58209.12
549.51	58174.02
549.68	58279.34
549.84	58131.89
550.01	58284.02
550.18	58166.99
550.34	58363.60
550.51	58401.05
550.68	58195.08
550.84	58286.36
551.01	58543.82
551.18	58178.70
551.34	58457.22
551.51	58438.50
551.68	58712.34
551.84	58316.79
552.01	58508.71
552.18	58482.97
552.34	58305.09
552.51	58443.18
552.68	58525.10
552.84	58541.48
553.01	58763.83
553.18	58859.79
553.34	58688.93
553.51	58611.70
553.67	58679.57
553.84	58908.94
554.01	58937.03
554.17	58918.31
554.34	59089.16
554.51	58733.40
554.67	59079.80
554.84	58906.60
555.00	58794.26
555.17	58908.94
555.33	58969.80
555.50	58756.81
555.67	58972.14
555.83	58894.90
556.00	59133.63
556.16	59372.37
556.33	59194.49
556.50	59030.65
556.66	59318.54
556.83	59032.99
556.99	59208.53
557.16	59353.65
557.32	59442.59
557.49	59737.49
557.65	59358.33
557.82	59442.59
557.98	59260.02
558.15	59501.10
558.32	59437.90
558.48	59388.75
558.65	59353.65
558.81	59271.73
558.98	59451.95
559.14	59618.13
559.31	59386.41
559.47	59529.19
559.64	59674.30
559.80	59742.17
559.97	59786.64
560.13	59646.21
560.30	59760.90
560.46	59714.09
560.63	59765.58
560.79	59643.87
560.96	60006.65
561.12	59784.30
561.29	59613.44
561.45	59840.48
561.61	59763.24
561.78	59821.75
561.94	59686.00
562.11	59788.98
562.27	59714.09
562.44	59847.50
562.60	59861.54
562.77	60102.62
562.93	59533.87
563.10	60238.37
563.26	59849.84
563.42	60060.49
563.59	59985.59
563.75	59810.05
563.92	60069.85
564.08	59913.03
564.24	60034.74
564.41	60151.77
564.57	59987.93
564.74	60100.28
564.90	60030.06
565.07	59927.08
565.23	59973.89
565.39	60137.72
565.56	60023.04
565.72	60027.72
565.88	60212.62
566.05	60114.32
566.21	60018.36
566.38	60303.90
566.54	60294.54
566.70	60278.16
566.87	60191.56
567.03	60109.64
567.19	60128.36
567.36	60292.20
567.52	60261.77
567.68	60367.10
567.85	60193.90
568.01	60437.31
568.17	60088.57
568.34	60444.33
568.50	60217.30
568.66	60287.52
568.83	60331.99
568.99	60161.13
569.15	60390.50
569.32	60514.55
569.48	60362.42
569.64	60341.35
569.81	60271.14
569.97	60299.22
570.13	60273.48
570.30	60523.91
570.46	60444.33
570.62	60444.33
570.78	60484.12
570.95	60320.29
571.11	60437.31
571.27	60341.35
571.43	60425.61
571.60	60591.79
571.76	60303.90
571.92	60458.38
572.09	60388.16
572.25	60514.55
572.41	60563.70
572.57	60629.24
572.74	60587.11
572.90	60451.36
573.06	60563.70
573.22	60481.78
573.38	60779.03
573.55	60654.98
573.71	60933.51
573.87	60589.45
574.03	60430.29
574.20	60481.78
574.36	60580.09
574.52	60666.69
574.68	60687.75
574.84	60690.09
575.01	60732.22
575.17	60603.49
575.33	60577.75
575.49	60559.02
575.65	60687.75
575.82	60907.76
575.98	60603.49
576.14	61139.47
576.30	60811.80
576.46	60722.86
576.62	60748.60
576.79	60725.20
576.95	60554.34
577.11	60669.03
577.27	60837.54
577.43	60678.39
577.59	60781.37
577.75	60734.56
577.92	60434.97
578.08	60678.39
578.24	60706.47
578.40	61095.00
578.56	60830.52
578.72	60874.99
578.88	60975.64
579.04	61020.11
579.21	60734.56
579.37	60956.91
579.53	60715.84
579.69	60509.87
579.85	60598.81
580.01	60830.52
580.17	60636.26
580.33	60844.57
580.49	60797.76
580.65	60807.12
580.82	60949.89
580.98	60779.03
581.14	60652.64
581.30	60781.37
581.46	60891.38
581.62	60910.10
581.78	60694.77
581.94	60814.14
582.10	60664.35
582.26	60727.54
582.42	60842.23
582.58	60797.76
582.74	60832.86
582.90	60835.20
583.06	60910.10
583.22	60690.09
583.38	60837.54
583.54	60917.12
583.70	60970.96
583.86	60877.33
584.02	60832.86
584.18	61080.96
584.34	61057.56
584.50	60919.46
584.66	60706.47
584.82	60804.78
584.98	60961.59
585.14	61055.21
585.30	60867.97
585.46	60774.35
585.62	60996.70
585.78	61293.95
585.94	60844.57
586.10	61043.51
586.26	61017.77
586.42	60921.80
586.58	61109.05
586.74	60903.08
586.90	60886.70
587.06	61095.00
587.22	60996.70
587.38	60999.04
587.54	61144.16
587.70	61073.94
587.86	60952.23
588.02	60942.87
588.18	61123.09
588.34	60867.97
588.49	60963.93
