SpectraSuite Data File
++++++++++++++++++++++++++++++++++++
Date: Fri Oct 25 11:23:49 EDT 2013
User: price-jones
Dark Spectrum Present: No
Reference Spectrum Present: No
Number of Sampled Component Spectra: 1
Spectrometers: USB2+H05261
Integration Time (usec): 100000 (USB2+H05261)
Spectra Averaged: 1 (USB2+H05261)
Boxcar Smoothing: 0 (USB2+H05261)
Correct for Electrical Dark: No (USB2+H05261)
Strobe/Lamp Enabled: No (USB2+H05261)
Correct for Detector Non-linearity: No (USB2+H05261)
Correct for Stray Light: No (USB2+H05261)
Number of Pixels in Processed Spectrum: 2048
>>>>>Begin Processed Spectral Data<<<<<
365.73	245.76
365.92	245.76
366.12	245.76
366.32	142.77
366.52	166.18
366.72	166.18
366.91	95.96
367.11	135.75
367.31	121.71
367.51	114.69
367.70	60.85
367.90	98.30
368.10	117.03
368.30	128.73
368.49	121.71
368.69	149.79
368.89	88.94
369.09	98.30
369.28	182.56
369.48	147.45
369.68	196.60
369.87	229.37
370.07	156.82
370.27	210.65
370.47	285.55
370.66	559.39
370.86	690.46
371.06	643.65
371.25	613.22
371.45	753.65
371.65	627.26
371.84	702.16
372.04	683.44
372.24	786.42
372.44	720.88
372.63	777.06
372.83	744.29
373.03	702.16
373.22	777.06
373.42	755.99
373.62	730.25
373.81	767.70
374.01	851.96
374.21	800.46
374.40	791.10
374.60	812.17
374.79	805.14
374.99	826.21
375.19	793.44
375.38	903.45
375.58	821.53
375.78	880.04
375.97	807.48
376.17	898.77
376.37	781.74
376.56	847.27
376.76	807.48
376.95	807.48
377.15	980.68
377.35	929.19
377.54	870.68
377.74	861.32
377.93	940.90
378.13	858.98
378.33	961.96
378.52	950.26
378.72	910.47
378.91	950.26
379.11	1022.81
379.31	976.00
379.50	912.81
379.70	964.30
379.89	915.15
380.09	957.28
380.28	1011.11
380.48	943.24
380.68	997.07
380.87	990.05
381.07	973.66
381.26	1093.03
381.46	959.62
381.65	985.37
381.85	1064.94
382.04	978.34
382.24	1064.94
382.43	1027.50
382.63	1200.69
382.83	1055.58
383.02	1046.22
383.22	1128.14
383.41	1081.33
383.61	1128.14
383.80	1090.69
384.00	1057.92
384.19	1172.61
384.39	1121.12
384.58	1172.61
384.78	1125.80
384.97	1114.10
385.17	1184.31
385.36	1165.59
385.56	1128.14
385.75	1177.29
385.95	1163.25
386.14	1277.93
386.34	1235.80
386.53	1231.12
386.72	1224.10
386.92	1174.95
387.11	1291.98
387.31	1287.29
387.50	1256.87
387.70	1233.46
387.89	1193.67
388.09	1214.74
388.28	1273.25
388.48	1280.27
388.67	1366.87
388.86	1294.32
389.06	1313.04
389.25	1420.71
389.45	1277.93
389.64	1390.28
389.84	1301.34
390.03	1416.02
390.22	1315.38
390.42	1294.32
390.61	1336.45
390.81	1401.98
391.00	1455.81
391.19	1542.41
391.39	1509.65
391.58	1467.52
391.78	1425.39
391.97	1486.24
392.16	1481.56
392.36	1544.75
392.55	1427.73
392.75	1561.14
392.94	1547.09
393.13	1561.14
393.33	1668.80
393.52	1694.55
393.71	1577.52
393.91	1603.27
394.10	1586.88
394.29	1547.09
394.49	1584.54
394.68	1675.82
394.88	1603.27
395.07	1797.53
395.26	1715.61
395.46	1729.66
395.65	1722.63
395.84	1746.04
396.04	1774.13
396.23	1743.70
396.42	1783.49
396.62	1825.62
396.81	1806.89
397.00	1853.70
397.19	1722.63
397.39	1799.87
397.58	1806.89
397.77	1792.85
397.97	1858.39
398.16	1804.55
398.35	1863.07
398.55	1977.75
398.74	1909.88
398.93	1872.43
399.12	1982.43
399.32	1919.24
399.51	1886.47
399.70	1944.99
399.90	1961.37
400.09	1966.05
400.28	2099.46
400.47	2106.48
400.67	2139.25
400.86	2101.80
401.05	2090.10
401.24	2160.31
401.44	2153.29
401.63	2167.34
401.82	2132.23
402.01	2169.68
402.21	2202.44
402.40	2155.63
402.59	2099.46
402.78	2193.08
402.97	2338.20
403.17	2256.28
403.36	2193.08
403.55	2291.38
403.74	2256.28
403.93	2417.77
404.13	2328.83
404.32	2352.24
404.51	2326.49
404.70	2347.56
404.89	2387.35
405.09	2443.52
405.28	2443.52
405.47	2487.99
405.66	2546.50
405.85	2668.21
406.05	2516.08
406.24	2616.72
406.43	2597.99
406.62	2572.25
406.81	2656.51
407.00	2708.00
407.20	2588.63
407.39	2628.42
407.58	2743.11
407.77	2710.34
407.96	2834.39
408.15	2923.33
408.34	2736.09
408.54	2885.88
408.73	2878.86
408.92	2892.90
409.11	2906.95
409.30	2956.10
409.49	2878.86
409.68	2906.95
409.87	3019.29
410.07	3103.55
410.26	3002.91
410.45	2935.03
410.64	3033.33
410.83	3056.74
411.02	3101.21
411.21	3176.11
411.40	3131.64
411.59	3297.81
411.78	3253.34
411.98	3283.77
412.17	3204.19
412.36	3384.41
412.55	3403.14
412.74	3382.07
412.93	3515.48
413.12	3426.54
413.31	3620.81
413.50	3541.23
413.69	3473.36
413.88	3550.59
414.07	3688.68
414.26	3494.42
414.45	3503.78
414.64	3775.28
414.83	3782.31
415.02	3733.15
415.22	3655.92
415.41	3854.86
415.60	3880.61
415.79	4007.00
415.98	3992.95
416.17	4121.68
416.36	3999.98
416.55	3957.85
416.74	4215.30
416.93	3894.65
417.12	4212.96
417.31	4107.64
417.50	4124.02
417.69	4243.39
417.88	4362.76
418.07	4266.80
418.26	4332.33
418.45	4367.44
418.64	4486.81
418.83	4372.12
419.02	4447.02
419.21	4484.47
419.39	4472.76
419.58	4416.59
419.77	4421.27
419.96	4678.73
420.15	4760.65
420.34	4620.22
420.53	4550.00
420.72	4863.63
420.91	4748.95
421.10	4648.30
421.29	4798.10
421.48	4816.82
421.67	4926.83
421.86	4753.63
422.05	4868.31
422.24	4746.61
422.43	4819.16
422.61	4884.70
422.80	4898.74
422.99	4992.36
423.18	4924.49
423.37	5064.92
423.56	4933.85
423.75	4975.98
423.94	4926.83
424.13	4657.67
424.32	4868.31
424.50	4971.30
424.69	5088.32
424.88	4954.91
425.07	4959.60
425.26	5097.69
425.45	5008.75
425.64	5006.41
425.83	4915.12
426.01	5095.35
426.20	5102.37
426.39	5039.17
426.58	5083.64
426.77	5064.92
426.96	5032.15
427.15	5013.43
427.33	5280.25
427.52	5210.03
427.71	5254.50
427.90	5240.46
428.09	5317.70
428.28	5418.34
428.46	5280.25
428.65	5444.09
428.84	5568.13
429.03	5474.51
429.22	5465.15
429.40	5418.34
429.59	5465.15
429.78	5294.29
429.97	5448.77
430.16	5451.11
430.34	5657.07
430.53	5767.08
430.72	5643.03
430.91	5661.76
431.10	5462.81
431.28	6017.52
431.47	5760.06
431.66	5933.26
431.85	5624.31
432.03	6012.84
432.22	6033.90
432.41	5930.92
432.60	6080.71
432.79	5902.83
432.97	6106.46
433.16	6008.16
433.35	5966.03
433.54	6150.93
433.72	6218.80
433.91	6150.93
434.10	6076.03
434.28	6155.61
434.47	6200.08
434.66	6265.61
434.85	6368.60
435.03	6270.30
435.22	6394.34
435.41	6494.99
435.59	6478.60
435.78	6420.09
435.97	6466.90
436.16	6399.02
436.34	6511.37
436.53	6626.06
436.72	6775.85
436.90	6396.68
437.09	6668.19
437.28	6523.07
437.46	6623.72
437.65	6698.61
437.84	6808.62
438.02	6808.62
438.21	6876.49
438.40	6658.82
438.58	7126.93
438.77	7185.44
438.96	6904.58
439.14	7246.30
439.33	7054.37
439.52	7185.44
439.70	7375.03
439.89	7236.94
440.08	7332.90
440.26	7447.58
440.45	7213.53
440.63	7536.52
440.82	7578.65
441.01	7480.35
441.19	7669.94
441.38	7623.12
441.57	7768.24
441.75	8093.57
441.94	7957.82
442.12	8100.59
442.31	8142.72
442.50	8269.11
442.68	7939.10
442.87	8035.06
443.05	8196.56
443.24	8257.41
443.43	7992.93
443.61	8297.20
443.80	8367.42
443.98	8121.66
444.17	7892.29
444.35	8241.03
444.54	8365.07
444.73	8386.14
444.91	8264.43
445.10	8318.26
445.28	8318.26
445.47	8257.41
445.65	8287.84
445.84	8547.64
446.02	8521.89
446.21	8458.70
446.39	8348.69
446.58	8685.73
446.77	8491.46
446.95	8376.78
447.14	8437.63
447.32	8655.30
447.51	8299.54
447.69	8507.85
447.88	8454.02
448.06	8521.89
448.25	8381.46
448.43	8575.72
448.62	8404.86
448.80	8711.47
448.99	8865.95
449.17	8842.54
449.36	8704.45
449.54	8926.80
449.73	9151.49
449.91	8947.87
450.10	8917.44
450.28	9125.75
450.46	8926.80
450.65	9034.47
450.83	9172.56
451.02	9181.92
451.20	9336.40
451.39	9202.99
451.57	9071.92
451.76	8924.46
451.94	9081.28
452.13	9291.93
452.31	9350.44
452.49	9415.98
452.68	9427.68
452.86	9226.39
453.05	9460.45
453.23	9401.93
453.42	9275.54
453.60	9345.76
453.78	9460.45
453.97	9434.70
454.15	9554.07
454.34	9722.59
454.52	9907.49
454.70	9774.08
454.89	9647.69
455.07	9678.12
455.26	9891.10
455.44	9874.72
455.62	9846.63
455.81	9951.96
455.99	9963.66
456.17	10118.14
456.36	10200.05
456.54	10015.15
456.73	10223.46
456.91	10422.41
457.09	10342.83
457.28	10520.71
457.46	10284.31
457.64	10490.28
457.83	10483.26
458.01	10345.17
458.19	11019.24
458.38	10733.70
458.56	10766.46
458.74	10885.83
458.93	10607.31
459.11	10953.71
459.29	10843.70
459.48	11070.73
459.66	10885.83
459.84	11176.06
460.03	11166.70
460.21	11396.07
460.39	11087.12
460.57	11129.25
460.76	11019.24
460.94	11136.27
461.12	11290.74
461.31	11187.76
461.49	11117.54
461.67	11342.24
461.85	11520.12
462.04	11370.32
462.22	11265.00
462.40	11585.65
462.59	11382.03
462.77	11559.91
462.95	11761.19
463.13	11449.90
463.32	11604.38
463.50	11819.71
463.68	11618.42
463.86	11913.33
464.05	11777.58
464.23	11969.50
464.41	11920.35
464.59	11922.69
464.78	12166.10
464.96	11948.43
465.14	11871.20
465.32	11871.20
465.50	12369.73
465.69	12484.42
465.87	12208.23
466.05	12156.74
466.23	12470.37
466.41	12121.63
466.60	12732.51
466.78	12205.89
466.96	12147.38
467.14	12327.60
467.32	12437.61
467.51	12589.74
467.69	12198.87
467.87	12556.97
468.05	12601.44
468.23	12772.30
468.41	12753.58
468.60	12760.60
468.78	12882.31
468.96	12800.39
469.14	12868.27
469.32	12980.61
469.50	12870.61
469.69	12746.56
469.87	13310.63
470.05	13048.49
470.23	13371.48
470.41	13231.05
470.59	13607.87
470.77	13296.58
470.95	13549.36
471.14	13755.33
471.32	13355.10
471.50	13799.80
471.68	13834.91
471.86	13870.01
472.04	13963.64
472.22	14146.20
472.40	13914.48
472.58	13874.70
472.77	14017.47
472.95	14368.55
473.13	14628.35
473.31	14202.37
473.49	14279.61
473.67	14340.46
473.85	14356.85
474.03	14649.41
474.21	14789.85
474.39	14794.53
474.57	14860.06
474.75	14927.94
474.93	15066.03
475.12	15009.86
475.30	15012.20
475.48	15049.64
475.66	15386.68
475.84	15080.07
476.02	15452.22
476.20	15344.55
476.38	15562.22
476.56	16032.67
476.74	16215.23
476.92	16039.69
477.10	16051.39
477.28	16365.03
477.46	16322.90
477.64	16383.75
477.82	16678.66
478.00	17090.59
478.18	16805.05
478.36	17020.38
478.54	17088.25
478.72	17436.99
478.90	17633.60
479.08	17628.92
479.26	17231.02
479.44	17869.99
479.62	17832.54
479.80	18108.72
479.98	18228.09
480.16	18642.37
480.34	18530.02
480.52	18787.48
480.70	18843.65
480.88	18342.78
481.06	18881.10
481.24	18733.65
481.41	19260.27
481.59	19243.88
481.77	19796.25
481.95	19475.60
482.13	20404.79
482.31	19908.60
482.49	20280.74
482.67	20353.30
482.85	20458.62
483.03	21048.44
483.21	20748.85
483.39	21163.12
483.57	20760.55
483.74	21102.27
483.92	21413.56
484.10	21195.89
484.28	21703.79
484.46	22111.04
484.64	22333.39
484.82	21989.33
485.00	22750.01
485.18	22955.97
485.35	23225.14
485.53	23073.00
485.71	23016.83
485.89	23405.36
486.07	23733.03
486.25	23772.82
486.43	23983.47
486.61	23639.41
486.78	24334.55
486.96	24233.91
487.14	25025.01
487.32	24790.95
487.50	24875.21
487.68	25092.88
487.85	26005.69
488.03	25390.13
488.21	26031.44
488.39	25682.70
488.57	26504.23
488.75	26267.83
488.92	26457.42
489.10	26761.69
489.28	26852.97
489.46	27307.03
489.64	27288.31
489.81	27835.99
489.99	27723.65
490.17	27786.84
490.35	28463.25
490.53	28259.63
490.70	28559.22
490.88	28460.91
491.06	29057.75
491.24	28769.86
491.41	29181.80
491.59	29537.56
491.77	29268.40
491.95	29645.23
492.13	29951.84
492.30	29979.92
492.48	30146.10
492.66	30646.97
492.84	30471.43
493.01	31108.06
493.19	30705.49
493.37	31494.25
493.54	31473.18
493.72	31332.75
493.90	31683.83
494.08	31997.46
494.25	32315.78
494.43	32231.52
494.61	32648.13
494.79	32786.22
494.96	32397.70
495.14	33062.41
495.32	33572.64
495.49	33490.73
495.67	33378.38
495.85	33408.81
496.02	33848.83
496.20	34115.65
496.38	34323.96
496.55	34167.14
496.73	35250.81
496.91	34478.43
497.09	35042.50
497.26	35321.02
497.44	35061.22
497.62	35239.11
497.79	35997.44
497.97	35796.15
498.14	36205.75
498.32	36488.95
498.50	36505.34
498.67	36893.86
498.85	36666.83
499.03	36687.90
499.20	37125.58
499.38	36811.95
499.56	37504.74
499.73	36891.52
499.91	37308.14
500.08	37635.81
500.26	37610.07
500.44	37778.59
500.61	37940.08
500.79	38139.03
500.97	38244.35
501.14	39005.03
501.32	38646.93
501.49	38724.16
501.67	38995.67
501.84	39061.20
502.02	38944.17
502.20	38829.49
502.37	39505.90
502.55	39629.95
502.72	39746.98
502.90	39702.51
503.07	39730.59
503.25	40102.74
503.43	40095.72
503.60	40297.00
503.78	40811.92
503.95	40840.01
504.13	40690.21
504.30	41137.26
504.48	40612.98
504.65	40849.37
504.83	41350.24
505.01	41851.12
505.18	41593.66
505.36	41647.49
505.53	41439.18
505.71	41968.15
505.88	41961.12
506.06	41717.71
506.23	42548.60
506.41	41869.84
506.58	42265.39
506.76	42703.07
506.93	42707.76
507.11	42759.25
507.28	42712.44
507.46	43363.11
507.63	43515.24
507.81	43594.82
507.98	43196.93
508.16	43262.46
508.33	43606.52
508.50	43810.15
508.68	43917.81
508.85	44395.28
509.03	44079.31
509.20	44598.91
509.38	44804.88
509.55	44540.39
509.73	44884.45
509.90	44683.17
510.08	44748.70
510.25	44715.93
510.42	45230.85
510.60	45244.90
510.77	45303.41
510.95	45390.01
511.12	45324.47
511.30	45581.93
511.47	45497.67
511.64	45972.80
511.82	46382.40
511.99	45677.90
512.17	45963.44
512.34	46366.01
512.51	46911.36
512.69	46539.21
512.86	46387.08
513.04	47021.36
513.21	47119.66
513.38	47072.85
513.56	47114.98
513.73	46754.54
513.90	47201.58
514.08	46770.93
514.25	47437.98
514.43	47800.76
514.60	47550.32
514.77	47412.23
514.95	48236.10
515.12	48271.21
515.29	47861.61
515.47	48444.41
515.64	48706.55
515.81	48182.27
515.99	48287.59
516.16	48610.59
516.33	48566.12
516.51	48910.17
516.68	48582.50
516.85	49031.88
517.03	49064.65
517.20	49230.83
517.37	49010.82
517.54	49272.96
517.72	49235.51
517.89	48996.77
518.06	49375.94
518.24	49453.18
518.41	49347.86
518.58	49867.45
518.75	49212.10
518.93	49874.48
519.10	49736.38
519.27	49659.15
519.45	49890.86
519.62	50365.99
519.79	50202.15
519.96	50316.84
520.14	50370.67
520.31	50461.95
520.48	50520.46
520.65	50550.89
520.83	51004.95
521.00	50848.14
521.17	50848.14
521.34	51206.24
521.52	50749.84
521.69	51096.24
521.86	50972.19
522.03	51339.65
522.20	51576.04
522.38	51547.96
522.55	51882.66
522.72	51344.33
522.89	51613.49
523.07	51702.43
523.24	51690.73
523.41	51826.48
523.58	51674.35
523.75	52268.84
523.92	52280.55
524.10	52151.82
524.27	52130.75
524.44	52395.23
524.61	52456.09
524.78	52435.02
524.96	52465.45
525.13	52582.48
525.30	52765.04
525.47	52645.67
525.64	52477.15
525.81	52739.29
525.98	52898.45
526.16	53006.11
526.33	53036.54
526.50	53066.97
526.67	53092.71
526.84	53322.08
527.01	53202.72
527.18	52858.66
527.36	53186.33
527.53	53530.39
527.70	53677.85
527.87	53593.59
528.04	53497.62
528.21	53380.60
528.38	53731.68
528.55	53696.57
528.72	53649.76
528.89	53708.27
529.07	53745.72
529.24	53752.74
529.41	53787.85
529.58	53820.62
529.75	53876.79
529.92	53827.64
530.09	54003.18
530.26	53923.60
530.43	54167.02
530.60	53738.70
530.77	53989.14
530.94	53968.07
531.11	54101.48
531.28	54293.41
531.46	54302.77
531.63	54649.17
531.80	54522.78
531.97	54571.93
532.14	54447.88
532.31	54658.53
532.48	54937.05
532.65	54915.99
532.82	54602.36
532.99	54719.38
533.16	54569.59
533.33	55105.57
533.50	54948.76
533.67	54967.48
533.84	54852.80
534.01	55077.49
534.18	55096.21
534.35	55524.53
534.52	55147.70
534.69	55442.61
534.86	55402.82
535.03	55152.38
535.20	55299.84
535.37	55569.00
535.54	55374.73
535.71	55487.08
535.88	55524.53
536.05	55313.88
536.22	55875.61
536.38	55753.90
536.55	55531.55
536.72	55945.83
536.89	55648.58
537.06	55800.71
537.23	55882.63
537.40	55585.38
537.57	55903.70
537.74	55779.65
537.91	56172.86
538.08	56175.20
538.25	55751.56
538.42	56095.62
538.59	56390.53
538.75	55985.61
538.92	56320.31
539.09	56261.80
539.26	56273.50
539.43	56306.27
539.60	56505.21
539.77	56467.76
539.94	56491.17
540.11	56549.68
540.28	56559.05
540.44	56589.47
540.61	56671.39
540.78	56633.94
540.95	56362.44
541.12	56615.22
541.29	56500.53
541.46	56631.60
541.62	57029.49
541.79	56893.74
541.96	56545.00
542.13	56952.26
542.30	56891.40
542.47	57162.90
542.63	57022.47
542.80	56863.32
542.97	57263.55
543.14	57209.71
543.31	57338.44
543.48	57373.55
543.64	57680.16
543.81	57504.62
543.98	57436.75
544.15	57188.65
544.32	57776.12
544.48	57649.74
544.65	57635.69
544.82	57450.79
544.99	57326.74
545.16	57598.24
545.32	57396.96
545.49	57986.77
545.66	57989.11
545.83	57532.71
546.00	57935.28
546.16	57902.51
546.33	57902.51
546.50	57811.23
546.67	57956.35
546.83	57499.94
547.00	57998.48
547.17	57972.73
547.34	57907.19
547.50	58145.93
547.67	58396.37
547.84	58239.55
548.00	58291.04
548.17	58309.77
548.34	58106.14
548.51	58246.57
548.67	58319.13
548.84	58377.64
549.01	58155.29
549.18	58321.47
549.34	58405.73
549.51	58464.24
549.68	58576.59
549.84	58520.41
550.01	58557.86
550.18	58485.31
550.34	58649.14
550.51	58665.53
550.68	58550.84
550.84	58529.78
551.01	58504.03
551.18	58599.99
551.34	58777.87
551.51	58791.92
551.68	58532.12
551.84	58588.29
552.01	58637.44
552.18	58899.58
552.34	58829.37
552.51	58843.41
552.68	58838.73
552.84	58721.70
553.01	59100.87
553.18	58962.78
553.34	58939.37
553.51	58784.90
553.67	58948.73
553.84	58932.35
554.01	59110.23
554.17	59114.91
554.34	59030.65
554.51	59175.76
554.67	59264.70
554.84	59166.40
555.00	59227.26
555.17	59206.19
555.33	59374.71
555.50	59175.76
555.67	59009.59
555.83	59227.26
556.00	59433.22
556.16	59653.23
556.33	59491.74
556.50	59381.73
556.66	59587.70
556.83	59262.36
556.99	59728.13
557.16	59678.98
557.32	59482.37
557.49	59557.27
557.65	59447.27
557.82	59655.57
557.98	59468.33
558.15	59489.40
558.32	59465.99
558.48	59325.56
558.65	59576.00
558.81	59686.00
558.98	59838.14
559.14	59770.26
559.31	59875.58
559.47	59800.69
559.64	59643.87
559.80	59828.77
559.97	59884.95
560.13	59611.10
560.30	59908.35
560.46	59812.39
560.63	60032.40
560.79	59980.91
560.96	59955.16
561.12	60079.21
561.29	60020.70
561.45	59936.44
561.61	59934.10
561.78	59966.87
561.94	59973.89
562.11	60013.68
562.27	59994.95
562.44	59969.21
562.60	59936.44
562.77	60158.79
562.93	60030.06
563.10	60388.16
563.26	60034.74
563.42	60317.95
563.59	60252.41
563.75	59971.55
563.92	60170.49
564.08	59976.23
564.24	60439.65
564.41	60280.50
564.57	60229.01
564.74	60310.92
564.90	60285.18
565.07	60233.69
565.23	60006.65
565.39	60273.48
565.56	60271.14
565.72	60231.35
565.88	60561.36
566.05	60240.71
566.21	60273.48
566.38	60280.50
566.54	60313.26
566.70	60582.43
566.87	60430.29
567.03	60341.35
567.19	60486.46
567.36	60474.76
567.52	60261.77
567.68	60631.58
567.85	60552.00
568.01	60566.04
568.17	60542.64
568.34	60488.80
568.50	60507.53
568.66	60566.04
568.83	60568.38
568.99	60439.65
569.15	60680.73
569.32	60495.83
569.48	60617.53
569.64	60779.03
569.81	60566.04
569.97	60460.72
570.13	60685.41
570.30	60676.05
570.46	60657.32
570.62	60786.05
570.78	60837.54
570.95	60615.19
571.11	60779.03
571.27	60631.58
571.43	60739.24
571.60	60828.18
571.76	60741.58
571.92	60753.29
572.09	60781.37
572.25	60690.09
572.41	60591.79
572.57	60823.50
572.74	61041.17
572.90	60760.31
573.06	60762.65
573.22	60874.99
573.38	60795.42
573.55	60657.32
573.71	60977.98
573.87	60924.14
574.03	60570.72
574.20	60856.27
574.36	60865.63
574.52	60839.89
574.68	60844.57
574.84	61123.09
575.01	60851.59
575.17	60891.38
575.33	60889.04
575.49	60814.14
575.65	60945.21
575.82	61013.08
575.98	60966.27
576.14	61244.80
576.30	60954.57
576.46	60961.59
576.62	61006.06
576.79	61045.85
576.95	60690.09
577.11	60776.69
577.27	60945.21
577.43	60769.67
577.59	60683.07
577.75	60938.19
577.92	60743.92
578.08	60987.34
578.24	60917.12
578.40	61062.24
578.56	61148.84
578.72	60947.55
578.88	61095.00
579.04	61153.52
579.21	61251.82
579.37	61300.97
579.53	60921.80
579.69	61179.26
579.85	61034.15
580.01	61003.72
580.17	60839.89
580.33	60963.93
580.49	61073.94
580.65	61118.41
580.82	60830.52
580.98	61031.81
581.14	60882.02
581.30	61123.09
581.46	61202.67
581.62	61038.83
581.78	61020.11
581.94	61024.79
582.10	61038.83
582.26	61151.18
582.42	61125.43
582.58	60949.89
582.74	60973.30
582.90	61139.47
583.06	61158.20
583.22	60842.23
583.38	61160.54
583.54	61123.09
583.70	61197.99
583.86	61104.37
584.02	60889.04
584.18	61268.20
584.34	61034.15
584.50	61076.28
584.66	61029.47
584.82	60828.18
584.98	61275.22
585.14	61186.28
585.30	61095.00
585.46	61148.84
585.62	61029.47
585.78	61179.26
585.94	60989.68
586.10	61172.24
586.26	61036.49
586.42	61202.67
586.58	61385.23
586.74	61151.18
586.90	61186.28
587.06	60924.14
587.22	61329.06
587.38	61195.65
587.54	61277.57
587.70	61359.48
587.86	61111.39
588.02	61172.24
588.18	61333.74
588.34	61350.12
588.49	61202.67
