SpectraSuite Data File
++++++++++++++++++++++++++++++++++++
Date: Fri Oct 25 11:22:44 EDT 2013
User: price-jones
Dark Spectrum Present: No
Reference Spectrum Present: No
Number of Sampled Component Spectra: 1
Spectrometers: USB2+H05261
Integration Time (usec): 100000 (USB2+H05261)
Spectra Averaged: 1 (USB2+H05261)
Boxcar Smoothing: 0 (USB2+H05261)
Correct for Electrical Dark: No (USB2+H05261)
Strobe/Lamp Enabled: No (USB2+H05261)
Correct for Detector Non-linearity: No (USB2+H05261)
Correct for Stray Light: No (USB2+H05261)
Number of Pixels in Processed Spectrum: 2048
>>>>>Begin Processed Spectral Data<<<<<
365.73	257.46
365.92	257.46
366.12	257.46
366.32	154.48
366.52	163.84
366.72	100.64
366.91	114.69
367.11	39.79
367.31	131.07
367.51	67.88
367.70	149.79
367.90	107.66
368.10	110.01
368.30	88.94
368.49	117.03
368.69	131.07
368.89	238.73
369.09	93.62
369.28	191.92
369.48	187.24
369.68	159.16
369.87	140.43
370.07	182.56
370.27	175.54
370.47	271.50
370.66	543.00
370.86	592.16
371.06	547.69
371.25	702.16
371.45	648.33
371.65	669.39
371.84	688.12
372.04	641.31
372.24	653.01
372.44	655.35
372.63	664.71
372.83	725.57
373.03	744.29
373.22	702.16
373.42	812.17
373.62	791.10
373.81	772.38
374.01	830.89
374.21	915.15
374.40	777.06
374.60	802.80
374.79	767.70
374.99	805.14
375.19	837.91
375.38	854.30
375.58	826.21
375.78	833.23
375.97	903.45
376.17	926.85
376.37	854.30
376.56	779.40
376.76	887.06
376.95	816.85
377.15	870.68
377.35	856.64
377.54	947.92
377.74	896.43
377.93	894.08
378.13	957.28
378.33	896.43
378.52	959.62
378.72	1020.47
378.91	926.85
379.11	938.55
379.31	858.98
379.50	837.91
379.70	936.21
379.89	1025.15
380.09	994.73
380.28	1004.09
380.48	964.30
380.68	1027.50
380.87	945.58
381.07	976.00
381.26	978.34
381.46	1081.33
381.65	1036.86
381.85	1004.09
382.04	997.07
382.24	983.02
382.43	1011.11
382.63	1060.26
382.83	1055.58
383.02	1067.28
383.22	1226.44
383.41	1102.39
383.61	1064.94
383.80	1149.20
384.00	1116.44
384.19	1097.71
384.39	1093.03
384.58	1153.88
384.78	1160.91
384.97	1207.72
385.17	1102.39
385.36	1123.46
385.56	1146.86
385.75	1219.42
385.95	1217.08
386.14	1261.55
386.34	1238.14
386.53	1198.35
386.72	1142.18
386.92	1261.55
387.11	1224.10
387.31	1277.93
387.50	1191.33
387.70	1263.89
387.89	1329.42
388.09	1196.01
388.28	1252.19
388.48	1327.08
388.67	1310.70
388.86	1320.06
389.06	1308.36
389.25	1341.13
389.45	1341.13
389.64	1418.36
389.84	1343.47
390.03	1362.19
390.22	1409.00
390.42	1416.02
390.61	1308.36
390.81	1343.47
391.00	1313.04
391.19	1481.56
391.39	1387.94
391.58	1425.39
391.78	1451.13
391.97	1458.15
392.16	1458.15
392.36	1504.96
392.55	1497.94
392.75	1516.67
392.94	1516.67
393.13	1556.46
393.33	1495.60
393.52	1572.84
393.71	1533.05
393.91	1661.78
394.10	1523.69
394.29	1614.97
394.49	1621.99
394.68	1643.06
394.88	1516.67
395.07	1750.72
395.26	1612.63
395.46	1736.68
395.65	1708.59
395.84	1629.01
396.04	1837.32
396.23	1694.55
396.42	1898.17
396.62	1804.55
396.81	1851.36
397.00	1811.57
397.19	1905.20
397.39	1797.53
397.58	1783.49
397.77	1746.04
397.97	1872.43
398.16	1820.94
398.35	1923.92
398.55	1856.04
398.74	1930.94
398.93	1930.94
399.12	1966.05
399.32	1902.86
399.51	1877.11
399.70	1923.92
399.90	2036.27
400.09	2012.86
400.28	2026.90
400.47	1926.26
400.67	2052.65
400.86	2019.88
401.05	2136.91
401.24	2033.93
401.44	2186.06
401.63	2136.91
401.82	2115.84
402.01	2120.53
402.21	2207.13
402.40	2155.63
402.59	2193.08
402.78	2172.02
402.97	2279.68
403.17	2232.87
403.36	2326.49
403.55	2408.41
403.74	2310.11
403.93	2321.81
404.13	2373.30
404.32	2431.82
404.51	2373.30
404.70	2520.76
404.89	2401.39
405.09	2548.84
405.28	2509.05
405.47	2385.01
405.66	2492.67
405.85	2448.20
406.05	2490.33
406.24	2565.23
406.43	2387.35
406.62	2593.31
406.81	2668.21
407.00	2679.91
407.20	2546.50
407.39	2586.29
407.58	2670.55
407.77	2572.25
407.96	2806.30
408.15	2729.06
408.34	2693.96
408.54	2789.92
408.73	2815.66
408.92	2878.86
409.11	3038.02
409.30	3012.27
409.49	3016.95
409.68	2946.73
409.87	2810.98
410.07	2928.01
410.26	3007.59
410.45	3005.25
410.64	3094.19
410.83	3162.06
411.02	3145.68
411.21	3236.96
411.40	3087.17
411.59	3243.98
411.78	3180.79
411.98	3197.17
412.17	3370.37
412.36	3307.18
412.55	3417.18
412.74	3487.40
412.93	3337.60
413.12	3368.03
413.31	3611.45
413.50	3564.64
413.69	3452.29
413.88	3618.47
414.07	3585.70
414.26	3609.11
414.45	3662.94
414.64	3726.13
414.83	3829.12
415.02	3803.37
415.22	3843.16
415.41	3786.99
415.60	3847.84
415.79	4039.76
415.98	3845.50
416.17	3932.10
416.36	4021.04
416.55	4131.05
416.74	4051.47
416.93	4107.64
417.12	4212.96
417.31	4184.88
417.50	4119.34
417.69	4175.52
417.88	4133.39
418.07	4355.74
418.26	4369.78
418.45	4278.50
418.64	4449.36
418.83	4432.97
419.02	4418.93
419.21	4402.55
419.39	4652.98
419.58	4430.63
419.77	4372.12
419.96	4671.71
420.15	4496.17
420.34	4582.77
420.53	4685.75
420.72	4617.88
420.91	4681.07
421.10	4779.37
421.29	4858.95
421.48	4730.22
421.67	4802.78
421.86	4720.86
422.05	4823.84
422.24	4793.42
422.43	4863.63
422.61	4751.29
422.80	4865.97
422.99	5022.79
423.18	5039.17
423.37	5018.11
423.56	5001.72
423.75	4898.74
423.94	4889.38
424.13	4655.33
424.32	4819.16
424.50	5060.24
424.69	5114.07
424.88	4938.53
425.07	4809.80
425.26	5097.69
425.45	4936.19
425.64	5111.73
425.83	4786.40
426.01	5102.37
426.20	5027.47
426.39	5055.56
426.58	5139.82
426.77	4978.32
426.96	5097.69
427.15	5188.97
427.33	5345.78
427.52	5050.88
427.71	5291.95
427.90	5116.41
428.09	5350.46
428.28	5465.15
428.46	5446.43
428.65	5341.10
428.84	5486.22
429.03	5500.26
429.22	5378.55
429.40	5535.37
429.59	5458.13
429.78	5425.36
429.97	5301.31
430.16	5437.06
430.34	5659.42
430.53	5673.46
430.72	5418.34
430.91	5652.39
431.10	5734.31
431.28	5762.40
431.47	5844.32
431.66	5956.66
431.85	5806.87
432.03	5881.77
432.22	5947.30
432.41	6045.60
432.60	6069.01
432.79	5937.94
432.97	5980.07
433.16	5984.75
433.35	5947.30
433.54	6101.78
433.72	6155.61
433.91	6008.16
434.10	6050.28
434.28	6087.73
434.47	6239.87
434.66	6441.15
434.85	6249.23
435.03	6251.57
435.22	6272.64
435.41	6377.96
435.59	6239.87
435.78	6396.68
435.97	6499.67
436.16	6410.73
436.34	6375.62
436.53	6527.75
436.72	6822.66
436.90	6544.14
437.09	6759.47
437.28	6340.51
437.46	6623.72
437.65	6740.74
437.84	6862.45
438.02	6888.20
438.21	6691.59
438.40	6771.17
438.58	6895.22
438.77	6972.46
438.96	6878.83
439.14	7028.63
439.33	7152.68
439.52	7129.27
439.70	7143.32
439.89	7318.86
440.08	7405.46
440.26	7510.78
440.45	7356.30
440.63	7449.93
440.82	7709.72
441.01	7576.31
441.19	7630.15
441.38	7857.18
441.57	7889.95
441.75	7889.95
441.94	7763.56
442.12	7761.22
442.31	8067.83
442.50	8056.12
442.68	8065.49
442.87	8142.72
443.05	8121.66
443.24	8397.84
443.43	8170.81
443.61	8243.37
443.80	8636.58
443.98	7981.23
444.17	7971.86
444.35	8468.06
444.54	8484.44
444.73	8559.34
444.91	8514.87
445.10	8273.79
445.28	8346.35
445.47	8161.45
445.65	8505.51
445.84	8358.05
446.02	8308.90
446.21	8428.27
446.39	8505.51
446.58	8421.25
446.77	8568.70
446.95	8339.33
447.14	8463.38
447.32	8451.67
447.51	8753.60
447.69	8421.25
447.88	8580.40
448.06	8528.91
448.25	8454.02
448.43	8643.60
448.62	8678.71
448.80	8575.72
448.99	8648.28
449.17	8821.48
449.36	8589.77
449.54	9109.36
449.73	9043.83
449.91	9233.41
450.10	9144.47
450.28	9109.36
450.46	9163.20
450.65	9324.69
450.83	9144.47
451.02	9039.15
451.20	9135.11
451.39	9165.54
451.57	9310.65
451.76	9210.01
451.94	9151.49
452.13	9385.55
452.31	9392.57
452.49	9282.56
452.68	9355.12
452.86	9387.89
453.05	9472.15
453.23	9504.92
453.42	9401.93
453.60	9607.90
453.78	9554.07
453.97	9446.40
454.15	9547.05
454.34	9535.34
454.52	9987.07
454.70	9731.95
454.89	9989.41
455.07	9846.63
455.26	9790.46
455.44	9980.04
455.62	9982.38
455.81	9846.63
455.99	9970.68
456.17	10223.46
456.36	10113.45
456.54	10167.29
456.73	10279.63
456.91	10565.18
457.09	10520.71
457.28	10684.55
457.46	10349.85
457.64	10654.12
457.83	10284.31
458.01	10352.19
458.19	10677.52
458.38	10455.17
458.56	10839.02
458.74	10707.95
458.93	10934.98
459.11	11105.84
459.29	10635.39
459.48	10824.98
459.66	10937.32
459.84	10930.30
460.03	11068.39
460.21	10958.39
460.39	11005.20
460.57	11009.88
460.76	11007.54
460.94	11257.98
461.12	11166.70
461.31	11091.80
461.49	11265.00
461.67	11304.79
461.85	11625.44
462.04	11421.81
462.22	11808.00
462.40	11634.80
462.59	11510.75
462.77	11449.90
462.95	11901.62
463.13	11651.19
463.32	11852.47
463.50	11700.34
463.68	11688.64
463.86	11899.28
464.05	11852.47
464.23	11669.91
464.41	12255.04
464.59	11587.99
464.78	12187.17
464.96	12128.66
465.14	11655.87
465.32	12100.57
465.50	12201.21
465.69	12306.54
465.87	12194.19
466.05	12142.70
466.23	12013.97
466.41	12304.20
466.60	12692.73
466.78	12229.30
466.96	12339.30
467.14	12556.97
467.32	12376.75
467.51	12751.24
467.69	12166.10
467.87	12348.67
468.05	12554.63
468.23	12362.71
468.41	12755.92
468.60	12767.62
468.78	12779.32
468.96	12849.54
469.14	13109.34
469.32	13083.59
469.50	12643.57
469.69	13025.08
469.87	12936.14
470.05	13331.69
470.23	13153.81
470.41	13378.50
470.59	13273.18
470.77	13322.33
470.95	13369.14
471.14	13738.94
471.32	12929.12
471.50	13462.76
471.68	13549.36
471.86	14061.94
472.04	13944.91
472.22	14176.62
472.40	13811.50
472.58	14122.79
472.77	13968.32
472.95	14335.78
473.13	14876.44
473.31	14431.74
473.49	14480.89
473.67	14080.66
473.85	14258.54
474.03	14693.88
474.21	14726.65
474.39	14862.40
474.57	15129.22
474.75	14890.49
474.93	15014.54
475.12	14960.70
475.30	15389.02
475.48	15129.22
475.66	15033.26
475.84	15192.42
476.02	15463.92
476.20	15417.11
476.38	15658.18
476.56	16107.57
476.74	15990.54
476.92	15997.56
477.10	16109.91
477.28	16301.83
477.46	16355.66
477.64	16587.38
477.82	16535.88
478.00	16999.31
478.18	16865.90
478.36	16975.91
478.54	17308.26
478.72	17628.92
478.90	17804.46
479.08	17619.55
479.26	17607.85
479.44	17865.31
479.62	18005.74
479.80	18427.04
479.98	18441.08
480.16	18726.63
480.34	18270.22
480.52	18707.90
480.70	18813.23
480.88	18719.60
481.06	18824.93
481.24	19028.56
481.41	19524.75
481.59	19321.12
481.77	19438.15
481.95	19810.29
482.13	20053.71
482.31	19915.62
482.49	20247.97
482.67	20404.79
482.85	20463.30
483.03	20678.63
483.21	20798.00
483.39	21467.39
483.57	20858.85
483.74	21001.63
483.92	21097.59
484.10	21303.56
484.28	21401.86
484.46	22410.63
484.64	22569.79
484.82	21979.97
485.00	22466.80
485.18	22913.84
485.35	23117.47
485.53	23288.33
485.71	23136.20
485.89	23756.44
486.07	23206.41
486.25	23538.77
486.43	23697.92
486.61	23854.74
486.78	24421.15
486.96	24156.67
487.14	24746.48
487.32	24526.47
487.50	24968.84
487.68	25195.87
487.85	25415.88
488.03	25605.46
488.21	26108.68
488.39	25914.41
488.57	26295.92
488.75	26228.04
488.92	26813.18
489.10	26939.57
489.28	26822.54
489.46	27388.95
489.64	27182.98
489.81	27618.32
489.99	28048.98
490.17	28158.99
490.35	28222.18
490.53	28325.16
490.70	28521.77
490.88	28367.29
491.06	28971.15
491.24	29064.77
491.41	29223.93
491.59	29675.65
491.77	29500.11
491.95	29837.15
492.13	29855.87
492.30	30295.89
492.48	29876.94
492.66	30616.55
492.84	30691.44
493.01	30874.01
493.19	30754.64
493.37	31175.94
493.54	31288.28
493.72	31550.42
493.90	31358.50
494.08	31735.32
494.25	32027.89
494.43	32320.46
494.61	32304.07
494.79	32542.81
494.96	32725.37
495.14	33362.00
495.32	33415.83
495.49	33378.38
495.67	33743.50
495.85	34057.14
496.02	33736.48
496.20	34478.43
496.38	34429.28
496.55	34604.82
496.73	34937.18
496.91	34752.27
497.09	35187.61
497.26	34668.02
497.44	34998.03
497.62	35470.82
497.79	36301.71
497.97	35618.27
498.14	36458.52
498.32	36254.90
498.50	36451.50
498.67	36950.04
498.85	36540.44
499.03	36868.12
499.20	36783.86
499.38	37469.64
499.56	37188.77
499.73	37333.89
499.91	37280.05
500.08	37745.82
500.26	37479.00
500.44	38019.66
500.61	38260.74
500.79	37787.95
500.97	38239.67
501.14	38286.48
501.32	38686.71
501.49	38892.68
501.67	39318.66
501.84	39225.04
502.02	39021.41
502.20	39000.35
502.37	39295.25
502.55	39353.77
502.72	39206.31
502.90	39999.76
503.07	39622.93
503.25	40009.12
503.43	39756.34
503.60	40416.37
503.78	40603.61
503.95	40570.85
504.13	40793.20
504.30	41134.92
504.48	40760.43
504.65	41226.20
504.83	41539.83
505.01	41518.76
505.18	41666.22
505.36	41439.18
505.53	41872.18
505.71	41502.38
505.88	42330.93
506.06	41855.80
506.23	42408.17
506.41	42139.00
506.58	42726.48
506.76	42529.87
506.93	42359.02
507.11	42876.27
507.28	42944.15
507.46	42740.52
507.63	43328.00
507.81	43269.48
507.98	43009.68
508.16	43456.73
508.33	43239.06
508.50	43660.35
508.68	43908.45
508.85	44205.70
509.03	44175.27
509.20	43938.88
509.38	44652.74
509.55	44645.72
509.73	44673.81
509.90	44814.24
510.08	44704.23
510.25	44851.69
510.42	45251.92
510.60	45214.47
510.77	45469.59
510.95	45673.21
511.12	45144.25
511.30	45668.53
511.47	45956.42
511.64	46094.51
511.82	46113.23
511.99	45848.75
512.17	46225.58
512.34	46274.73
512.51	46653.90
512.69	46630.49
512.86	46511.13
513.04	47229.67
513.21	46726.46
513.38	46969.87
513.56	47164.14
513.73	46686.67
513.90	47332.65
514.08	47129.03
514.25	47889.70
514.43	47775.02
514.60	47686.07
514.77	47863.96
514.95	47732.89
515.12	47976.30
515.29	48182.27
515.47	48133.12
515.64	48039.50
515.81	48303.98
515.99	48739.32
516.16	48601.22
516.33	48629.31
516.51	49081.03
516.68	48828.26
516.85	48884.43
517.03	49287.00
517.20	48910.17
517.37	48935.92
517.54	49209.76
517.72	49064.65
517.89	49418.07
518.06	49221.47
518.24	49570.21
518.41	49570.21
518.58	49769.15
518.75	49876.82
518.93	49975.12
519.10	49301.04
519.27	49970.44
519.45	49947.03
519.62	50117.89
519.79	50106.19
519.96	49937.67
520.14	50330.88
520.31	50412.80
520.48	50674.94
520.65	50637.49
520.83	51323.27
521.00	51056.45
521.17	50862.18
521.34	51143.05
521.52	50983.89
521.69	51016.66
521.86	51419.23
522.03	51253.05
522.20	51693.07
522.38	51571.36
522.55	51339.65
522.72	51391.14
522.89	51791.37
523.07	52023.09
523.24	51765.63
523.41	52095.64
523.58	51477.74
523.75	52128.41
523.92	51779.67
524.10	52376.51
524.27	52327.36
524.44	52404.59
524.61	51903.72
524.78	52364.81
524.96	52528.64
525.13	52233.74
525.30	52720.57
525.47	52664.39
525.64	52484.17
525.81	52996.75
525.98	52697.16
526.16	52926.53
526.33	52734.61
526.50	52989.73
526.67	52882.06
526.84	53195.70
527.01	52917.17
527.18	53050.58
527.36	53106.76
527.53	53263.57
527.70	53453.15
527.87	53769.13
528.04	53148.88
528.21	53558.48
528.38	53525.71
528.55	53839.34
528.72	53822.96
528.89	53401.66
529.07	53762.11
529.24	53745.72
529.41	53766.79
529.58	53722.32
529.75	53792.53
529.92	53769.13
530.09	54106.16
530.26	54099.14
530.43	54148.29
530.60	53979.78
530.77	54087.44
530.94	54251.28
531.11	54190.42
531.28	54415.11
531.46	54571.93
531.63	54408.09
531.80	54354.26
531.97	54887.90
532.14	54841.09
532.31	54681.94
532.48	54703.00
532.65	54803.64
532.82	54501.71
532.99	54733.43
533.16	54930.03
533.33	54925.35
533.50	55126.64
533.67	55098.55
533.84	55042.38
534.01	55276.43
534.18	55025.99
534.35	55550.27
534.52	55356.01
534.69	55522.19
534.86	55557.30
535.03	55407.50
535.20	55561.98
535.37	55351.33
535.54	55461.33
535.71	55437.93
535.88	55774.97
536.05	55636.87
536.22	55648.58
536.38	55917.74
536.55	55456.65
536.72	55845.18
536.89	56058.17
537.06	55826.46
537.23	56058.17
537.40	55679.00
537.57	55964.55
537.74	56170.52
537.91	56128.39
538.08	56104.98
538.25	55835.82
538.42	55990.30
538.59	56296.91
538.75	55948.17
538.92	56322.65
539.09	56322.65
539.26	56170.52
539.43	56310.95
539.60	56399.89
539.77	56470.11
539.94	56765.01
540.11	56559.05
540.28	56676.07
540.44	56673.73
540.61	56767.35
540.78	56446.70
540.95	56650.33
541.12	56530.96
541.29	56797.78
541.46	56797.78
541.62	56774.37
541.79	56940.55
541.96	56636.28
542.13	56582.45
542.30	56680.75
542.47	57130.14
542.63	57076.30
542.80	57076.30
542.97	57312.70
543.14	57293.97
543.31	57235.46
543.48	57207.37
543.64	57462.49
543.81	57677.82
543.98	57516.32
544.15	57542.07
544.32	57628.67
544.48	57654.42
544.65	57490.58
544.82	57485.90
544.99	57481.22
545.16	57453.13
545.32	57705.91
545.49	58005.50
545.66	57715.27
545.83	57710.59
546.00	57944.64
546.16	57696.55
546.33	57579.52
546.50	57900.17
546.67	57904.85
546.83	57609.95
547.00	57977.41
547.17	57722.29
547.34	58010.18
547.50	58078.05
547.67	58298.06
547.84	58150.61
548.00	58166.99
548.17	58578.93
548.34	58237.21
548.51	58293.38
548.67	58337.85
548.84	58255.93
549.01	58291.04
549.18	58267.64
549.34	58363.60
549.51	58520.41
549.68	58681.91
549.84	58581.27
550.01	58384.66
550.18	58401.05
550.34	58562.54
550.51	58604.67
550.68	58770.85
550.84	58560.20
551.01	58920.65
551.18	58759.15
551.34	58487.65
551.51	58948.73
551.68	58712.34
551.84	58726.38
552.01	58635.10
552.18	58829.37
552.34	58670.21
552.51	58808.30
552.68	58801.28
552.84	58993.20
553.01	59180.45
553.18	58927.67
553.34	59023.63
553.51	58883.20
553.67	59168.74
553.84	59126.61
554.01	58967.46
554.17	59288.11
554.34	59164.06
554.51	58876.18
554.67	59325.56
554.84	59086.82
555.00	59063.42
555.17	59124.27
555.33	59126.61
555.50	59283.43
555.67	58958.09
555.83	59159.38
556.00	59374.71
556.16	59552.59
556.33	59426.20
556.50	59304.49
556.66	59447.27
556.83	59302.15
556.99	59487.06
557.16	59620.47
557.32	59608.76
557.49	59786.64
557.65	59601.74
557.82	59583.02
557.98	59660.26
558.15	59451.95
558.32	59456.63
558.48	59723.45
558.65	59641.53
558.81	59728.13
558.98	59927.08
559.14	59877.93
559.31	59772.60
559.47	59924.74
559.64	59983.25
559.80	59784.30
559.97	59732.81
560.13	59529.19
560.30	59835.80
560.46	60034.74
560.63	59927.08
560.79	59945.80
560.96	60076.87
561.12	60109.64
561.29	59887.29
561.45	60119.00
561.61	59966.87
561.78	60088.57
561.94	60163.47
562.11	60149.43
562.27	59962.18
562.44	60205.60
562.60	60154.11
562.77	60163.47
562.93	59835.80
563.10	60086.23
563.26	60147.09
563.42	60437.31
563.59	60210.28
563.75	60158.79
563.92	60196.24
564.08	60196.24
564.24	60343.69
564.41	60268.79
564.57	60196.24
564.74	60374.12
564.90	60413.91
565.07	60289.86
565.23	60292.20
565.39	60198.58
565.56	60165.81
565.72	60472.42
565.88	60275.82
566.05	60350.71
566.21	60324.97
566.38	60495.83
566.54	60669.03
566.70	60507.53
566.87	60542.64
567.03	60346.03
567.19	60523.91
567.36	60528.59
567.52	60236.03
567.68	60818.82
567.85	60491.15
568.01	60430.29
568.17	60573.06
568.34	60491.15
568.50	60324.97
568.66	60669.03
568.83	60537.96
568.99	60694.77
569.15	60690.09
569.32	60734.56
569.48	60664.35
569.64	60750.94
569.81	60423.27
569.97	60500.51
570.13	60580.09
570.30	60622.22
570.46	60685.41
570.62	60708.82
570.78	60853.93
570.95	60657.32
571.11	60879.67
571.27	60528.59
571.43	60755.63
571.60	60818.82
571.76	60622.22
571.92	60825.84
572.09	60704.13
572.25	60865.63
572.41	60640.94
572.57	60750.94
572.74	60921.80
572.90	60746.26
573.06	60748.60
573.22	60795.42
573.38	60849.25
573.55	60619.88
573.71	60818.82
573.87	60683.07
574.03	60671.37
574.20	60905.42
574.36	60687.75
574.52	60860.95
574.68	60818.82
574.84	61024.79
575.01	61144.16
575.17	60877.33
575.33	60743.92
575.49	60694.77
575.65	60863.29
575.82	61048.19
575.98	60966.27
576.14	61085.64
576.30	60985.00
576.46	60879.67
576.62	60903.08
576.79	60870.31
576.95	60788.39
577.11	60966.27
577.27	61109.05
577.43	60994.36
577.59	60795.42
577.75	60872.65
577.92	60970.96
578.08	60940.53
578.24	60996.70
578.40	61249.48
578.56	61055.21
578.72	61003.72
578.88	60959.25
579.04	61256.50
579.21	60940.53
579.37	61293.95
579.53	61329.06
579.69	60800.10
579.85	61043.51
580.01	61111.39
580.17	60856.27
580.33	61001.38
580.49	61254.16
580.65	61221.39
580.82	60849.25
580.98	61055.21
581.14	60853.93
581.30	61015.43
581.46	61017.77
581.62	60947.55
581.78	60905.42
581.94	61251.82
582.10	60910.10
582.26	61006.06
582.42	61102.03
582.58	61254.16
582.74	61127.77
582.90	61034.15
583.06	61092.66
583.22	61076.28
583.38	61134.79
583.54	61235.44
583.70	61120.75
583.86	61214.37
584.02	60999.04
584.18	61106.71
584.34	61097.34
584.50	61078.62
584.66	61090.32
584.82	60874.99
584.98	61322.04
585.14	61268.20
585.30	61013.08
585.46	61090.32
585.62	61001.38
585.78	61497.58
585.94	60975.64
586.10	61195.65
586.26	61293.95
586.42	61296.29
586.58	61418.00
586.74	61216.71
586.90	61097.34
587.06	61223.73
587.22	61197.99
587.38	61284.59
587.54	61380.55
587.70	61331.40
587.86	61083.30
588.02	61277.57
588.18	61432.04
588.34	61364.17
588.49	61343.10
