SpectraSuite Data File
++++++++++++++++++++++++++++++++++++
Date: Fri Oct 25 11:26:05 EDT 2013
User: price-jones
Dark Spectrum Present: No
Reference Spectrum Present: No
Number of Sampled Component Spectra: 1
Spectrometers: USB2+H05261
Integration Time (usec): 100000 (USB2+H05261)
Spectra Averaged: 1 (USB2+H05261)
Boxcar Smoothing: 0 (USB2+H05261)
Correct for Electrical Dark: No (USB2+H05261)
Strobe/Lamp Enabled: No (USB2+H05261)
Correct for Detector Non-linearity: No (USB2+H05261)
Correct for Stray Light: No (USB2+H05261)
Number of Pixels in Processed Spectrum: 2048
>>>>>Begin Processed Spectral Data<<<<<
365.73	198.95
365.92	198.95
366.12	198.95
366.32	182.56
366.52	124.05
366.72	208.31
366.91	156.82
367.11	112.35
367.31	170.86
367.51	98.30
367.70	163.84
367.90	119.37
368.10	88.94
368.30	131.07
368.49	149.79
368.69	234.05
368.89	180.22
369.09	135.75
369.28	135.75
369.48	184.90
369.68	205.97
369.87	227.03
370.07	189.58
370.27	243.42
370.47	299.59
370.66	547.69
370.86	610.88
371.06	723.23
371.25	624.92
371.45	676.41
371.65	603.86
371.84	709.18
372.04	645.99
372.24	685.78
372.44	746.63
372.63	699.82
372.83	744.29
373.03	685.78
373.22	685.78
373.42	751.31
373.62	779.40
373.81	713.86
374.01	746.63
374.21	823.87
374.40	772.38
374.60	894.08
374.79	844.93
374.99	807.48
375.19	847.27
375.38	868.34
375.58	866.00
375.78	973.66
375.97	875.36
376.17	908.13
376.37	882.38
376.56	898.77
376.76	870.68
376.95	889.40
377.15	870.68
377.35	802.80
377.54	901.11
377.74	910.47
377.93	856.64
378.13	973.66
378.33	1001.75
378.52	985.37
378.72	922.17
378.91	1001.75
379.11	1001.75
379.31	1027.50
379.50	912.81
379.70	1067.28
379.89	973.66
380.09	1034.52
380.28	1043.88
380.48	1041.54
380.68	954.94
380.87	987.71
381.07	1055.58
381.26	1078.99
381.46	1067.28
381.65	1022.81
381.85	997.07
382.04	1064.94
382.24	997.07
382.43	1097.71
382.63	1048.56
382.83	1071.97
383.02	1123.46
383.22	1118.78
383.41	1043.88
383.61	1116.44
383.80	1160.91
384.00	1153.88
384.19	1170.27
384.39	1097.71
384.58	1121.12
384.78	1142.18
384.97	1149.20
385.17	1245.16
385.36	1163.25
385.56	1151.54
385.75	1214.74
385.95	1174.95
386.14	1205.38
386.34	1174.95
386.53	1153.88
386.72	1135.16
386.92	1191.33
387.11	1231.12
387.31	1277.93
387.50	1172.61
387.70	1277.93
387.89	1322.40
388.09	1310.70
388.28	1320.06
388.48	1228.78
388.67	1256.87
388.86	1263.89
389.06	1306.02
389.25	1336.45
389.45	1249.85
389.64	1373.89
389.84	1427.73
390.03	1502.62
390.22	1418.36
390.42	1315.38
390.61	1364.53
390.81	1453.47
391.00	1284.95
391.19	1490.92
391.39	1423.05
391.58	1359.85
391.78	1495.60
391.97	1469.86
392.16	1493.26
392.36	1500.28
392.55	1612.63
392.75	1547.09
392.94	1511.99
393.13	1504.96
393.33	1600.93
393.52	1537.73
393.71	1542.41
393.91	1526.03
394.10	1671.14
394.29	1589.22
394.49	1603.27
394.68	1593.90
394.88	1614.97
395.07	1624.33
395.26	1685.19
395.46	1717.95
395.65	1783.49
395.84	1778.81
396.04	1675.82
396.23	1720.29
396.42	1783.49
396.62	1781.15
396.81	1694.55
397.00	1806.89
397.19	1722.63
397.39	1762.42
397.58	1802.21
397.77	1834.98
397.97	1825.62
398.16	1767.10
398.35	1886.47
398.55	1825.62
398.74	1774.13
398.93	1898.17
399.12	1914.56
399.32	1877.11
399.51	1919.24
399.70	1935.62
399.90	1902.86
400.09	2104.14
400.28	1952.01
400.47	2010.52
400.67	2078.40
400.86	2059.67
401.05	1996.48
401.24	2094.78
401.44	2085.42
401.63	2200.10
401.82	2150.95
402.01	2043.29
402.21	2162.66
402.40	2239.89
402.59	2200.10
402.78	2181.38
402.97	2286.70
403.17	2242.23
403.36	2179.04
403.55	2317.13
403.74	2370.96
403.93	2401.39
404.13	2312.45
404.32	2328.83
404.51	2401.39
404.70	2338.20
404.89	2368.62
405.09	2492.67
405.28	2455.22
405.47	2487.99
405.66	2485.65
405.85	2499.69
406.05	2511.39
406.24	2590.97
406.43	2579.27
406.62	2574.59
406.81	2705.66
407.00	2588.63
407.20	2537.14
407.39	2654.17
407.58	2782.90
407.77	2787.58
407.96	2724.38
408.15	2745.45
408.34	2698.64
408.54	2738.43
408.73	2719.70
408.92	2862.48
409.11	2946.73
409.30	2827.37
409.49	2843.75
409.68	2935.03
409.87	3000.57
410.07	3091.85
410.26	3002.91
410.45	3026.31
410.64	3023.97
410.83	3124.62
411.02	3084.83
411.21	3183.13
411.40	2972.48
411.59	3187.81
411.78	3192.49
411.98	3070.78
412.17	3119.93
412.36	3176.11
412.55	3456.97
412.74	3356.33
412.93	3246.32
413.12	3330.58
413.31	3419.52
413.50	3602.08
413.69	3581.02
413.88	3616.13
414.07	3520.17
414.26	3702.73
414.45	3531.87
414.64	3705.07
414.83	3796.35
415.02	3637.19
415.22	3740.18
415.41	3892.31
415.60	3861.88
415.79	3728.47
415.98	4109.98
416.17	3950.82
416.36	3962.53
416.55	3990.61
416.74	4102.96
416.93	3976.57
417.12	4021.04
417.31	4145.09
417.50	4168.49
417.69	4255.09
417.88	4161.47
418.07	4287.86
418.26	4322.97
418.45	4252.75
418.64	4589.79
418.83	4477.44
419.02	4437.66
419.21	4432.97
419.39	4629.58
419.58	4706.82
419.77	4498.51
419.96	4550.00
420.15	4535.96
420.34	4542.98
420.53	4517.23
420.72	4746.61
420.91	4730.22
421.10	4741.93
421.29	4819.16
421.48	4667.03
421.67	4723.20
421.86	4716.18
422.05	4706.82
422.24	4830.87
422.43	4922.15
422.61	4784.06
422.80	4929.17
422.99	4964.28
423.18	4877.68
423.37	4800.44
423.56	4983.00
423.75	4987.68
423.94	4861.29
424.13	4571.07
424.32	4601.49
424.50	4980.66
424.69	5146.84
424.88	5071.94
425.07	4973.64
425.26	4994.70
425.45	5095.35
425.64	4901.08
425.83	4961.94
426.01	5242.80
426.20	4912.78
426.39	5041.51
426.58	4945.55
426.77	5123.43
426.96	5121.09
427.15	5149.18
427.33	5139.82
427.52	5088.32
427.71	5291.95
427.90	5247.48
428.09	5406.64
428.28	5313.02
428.46	5214.71
428.65	5373.87
428.84	5483.88
429.03	5561.11
429.22	5186.63
429.40	5596.22
429.59	5568.13
429.78	5305.99
429.97	5067.26
430.16	5628.99
430.34	5694.52
430.53	5654.73
430.72	5668.78
430.91	5682.82
431.10	5605.58
431.28	5516.64
431.47	5694.52
431.66	5886.45
431.85	5713.25
432.03	5977.73
432.22	5909.85
432.41	5987.09
432.60	5774.10
432.79	5795.17
432.97	5849.00
433.16	5963.68
433.35	5935.60
433.54	6090.07
433.72	6228.17
433.91	6132.20
434.10	6143.91
434.28	6099.44
434.47	5996.45
434.66	6061.99
434.85	6148.59
435.03	6394.34
435.22	6256.25
435.41	6480.94
435.59	6284.34
435.78	6303.06
435.97	6464.56
436.16	6335.83
436.34	6349.87
436.53	6462.22
436.72	6562.86
436.90	6431.79
437.09	6621.38
437.28	6249.23
437.46	6530.09
437.65	6780.53
437.84	6684.57
438.02	6684.57
438.21	6719.68
438.40	6562.86
438.58	6839.05
438.77	6909.26
438.96	6843.73
439.14	7019.27
439.33	7077.78
439.52	6956.07
439.70	7288.43
439.89	7344.60
440.08	7480.35
440.26	7197.15
440.45	7157.36
440.63	7454.61
440.82	7564.61
441.01	7602.06
441.19	7620.78
441.38	7843.14
441.57	7630.15
441.75	7599.72
441.94	7831.43
442.12	7943.78
442.31	7873.56
442.50	8133.36
442.68	7873.56
442.87	7995.27
443.05	8116.98
443.24	8212.94
443.43	8152.09
443.61	8112.30
443.80	8264.43
443.98	8023.36
444.17	7878.24
444.35	8264.43
444.54	8456.36
444.73	8116.98
444.91	8161.45
445.10	8318.26
445.28	8332.31
445.47	8336.99
445.65	8212.94
445.84	8528.91
446.02	8287.84
446.21	8486.78
446.39	8273.79
446.58	8531.25
446.77	8526.57
446.95	8320.60
447.14	8360.39
447.32	8507.85
447.51	8477.42
447.69	8336.99
447.88	8421.25
448.06	8559.34
448.25	8456.36
448.43	8650.62
448.62	8648.28
448.80	8643.60
448.99	8657.64
449.17	8631.90
449.36	8514.87
449.54	8697.43
449.73	8854.25
449.91	8861.27
450.10	9048.51
450.28	9029.79
450.46	9284.91
450.65	9046.17
450.83	8877.65
451.02	8800.41
451.20	9050.85
451.39	9100.00
451.57	8912.76
451.76	9027.45
451.94	9062.55
452.13	9219.37
452.31	9167.88
452.49	9057.87
452.68	9107.02
452.86	9121.07
453.05	9479.17
453.23	9493.21
453.42	9584.49
453.60	9312.99
453.78	9647.69
453.97	9476.83
454.15	9401.93
454.34	9572.79
454.52	9596.20
454.70	9673.43
454.89	9572.79
455.07	9736.63
455.26	9734.29
455.44	9905.15
455.62	9797.48
455.81	9802.16
455.99	10024.51
456.17	9973.02
456.36	10005.79
456.54	10071.33
456.73	10197.71
456.91	10363.89
457.09	10382.62
457.28	10326.44
457.46	10214.10
457.64	10382.62
457.83	10537.09
458.01	10455.17
458.19	10635.39
458.38	10366.23
458.56	10602.63
458.74	10462.19
458.93	10803.91
459.11	10492.62
459.29	10902.22
459.48	10703.27
459.66	10633.05
459.84	10841.36
460.03	11012.22
460.21	10878.81
460.39	10993.50
460.57	11021.58
460.76	11059.03
460.94	11070.73
461.12	11241.59
461.31	11248.61
461.49	10977.11
461.67	11236.91
461.85	11382.03
462.04	11082.44
462.22	11824.39
462.40	11482.67
462.59	11487.35
462.77	11503.73
462.95	11508.41
463.13	11506.07
463.32	11398.41
463.50	11777.58
463.68	11714.38
463.86	12035.03
464.05	11527.14
464.23	11599.70
464.41	11845.45
464.59	11702.68
464.78	11880.56
464.96	11974.18
465.14	11688.64
465.32	11819.71
465.50	12011.63
465.69	12016.31
465.87	12182.49
466.05	12072.48
466.23	12046.74
466.41	12325.26
466.60	12388.46
466.78	12224.62
466.96	12329.94
467.14	12138.02
467.32	12280.79
467.51	12444.63
467.69	11810.34
467.87	12489.10
468.05	12552.29
468.23	12133.34
468.41	12369.73
468.60	12599.10
468.78	12622.51
468.96	12666.98
469.14	12812.09
469.32	12739.54
469.50	12702.09
469.69	13062.53
469.87	12975.93
470.05	13008.70
470.23	13226.37
470.41	13130.41
470.59	13275.52
470.77	13149.13
470.95	13064.87
471.14	13324.67
471.32	12950.18
471.50	13446.38
471.68	13619.58
471.86	13806.82
472.04	13659.37
472.22	13996.40
472.40	13635.96
472.58	13884.06
472.77	13877.04
472.95	14017.47
473.13	14546.43
473.31	14164.92
473.49	14139.18
473.67	14118.11
473.85	14136.84
474.03	14562.81
474.21	14401.32
474.39	14785.16
474.57	14810.91
474.75	15056.67
474.93	14902.19
475.12	14883.47
475.30	14960.70
475.48	14881.13
475.66	15183.06
475.84	14949.00
476.02	15283.70
476.20	15339.87
476.38	15494.35
476.56	16238.64
476.74	16114.59
476.92	15763.51
477.10	15592.65
477.28	16180.12
477.46	16065.44
477.64	16313.53
477.82	16608.44
478.00	16648.23
478.18	16786.32
478.36	16760.58
478.54	17099.95
478.72	17261.45
478.90	17436.99
479.08	17373.80
479.26	17736.58
479.44	17458.06
479.62	17820.84
479.80	17935.53
479.98	17982.34
480.16	18359.16
480.34	18148.51
480.52	18036.17
480.70	18307.67
480.88	18492.57
481.06	18672.79
481.24	18948.98
481.41	19112.81
481.59	19487.30
481.77	19550.49
481.95	19356.23
482.13	19461.55
482.31	19667.52
482.49	20243.29
482.67	20184.78
482.85	20247.97
483.03	20540.54
483.21	20732.47
483.39	20929.07
483.57	20652.89
483.74	21010.99
483.92	21132.70
484.10	21125.68
484.28	21429.94
484.46	21727.19
484.64	22207.00
484.82	21781.03
485.00	22167.21
485.18	22469.14
485.35	22719.58
485.53	22883.42
485.71	23115.13
485.89	23541.11
486.07	23410.04
486.25	23117.47
486.43	23379.61
486.61	23873.46
486.78	24233.91
486.96	24023.26
487.14	24329.87
487.32	24627.12
487.50	24535.84
487.68	24819.04
487.85	25287.15
488.03	25425.24
488.21	25626.53
488.39	25907.39
488.57	26047.82
488.75	25848.88
488.92	26375.50
489.10	26588.49
489.28	26703.17
489.46	27145.53
489.64	26581.46
489.81	27398.31
489.99	27402.99
490.17	27653.43
490.35	27922.59
490.53	28261.97
490.70	28512.41
490.88	28196.43
491.06	28362.61
491.24	28318.14
491.41	29097.54
491.59	29247.33
491.77	29607.78
491.95	29436.92
492.13	29748.21
492.30	29563.31
492.48	29624.16
492.66	30061.84
492.84	29968.22
493.01	30590.80
493.19	30967.63
493.37	30759.32
493.54	30808.47
493.72	31194.66
493.90	31304.67
494.08	31826.60
494.25	31770.43
494.43	31585.53
494.61	32009.17
494.79	32121.51
494.96	32266.63
495.14	32779.20
495.32	32905.59
495.49	32968.79
495.67	32762.82
495.85	33413.49
496.02	33589.03
496.20	33790.31
496.38	34026.71
496.55	33715.42
496.73	34675.04
496.91	34476.09
497.09	34490.13
497.26	34909.09
497.44	34789.72
497.62	35412.31
497.79	35929.56
497.97	35077.61
498.14	35945.95
498.32	35557.42
498.50	35672.10
498.67	36404.69
498.85	36360.22
499.03	35882.75
499.20	36332.14
499.38	36580.23
499.56	36692.58
499.73	37083.45
499.91	37170.05
500.08	37441.55
500.26	37340.91
500.44	37612.41
500.61	37553.90
500.79	37408.78
500.97	37947.11
501.14	38291.16
501.32	38436.28
501.49	38232.65
501.67	38302.87
501.84	39012.05
502.02	38375.42
502.20	39112.69
502.37	39023.75
502.55	38951.20
502.72	39227.38
502.90	39442.71
503.07	39323.34
503.25	39412.28
503.43	39690.80
503.60	40137.85
503.78	40194.02
503.95	40086.36
504.13	40744.05
504.30	40524.04
504.48	40336.79
504.65	40376.58
504.83	41067.04
505.01	41397.06
505.18	41102.15
505.36	41359.61
505.53	40919.59
505.71	41296.41
505.88	41621.75
506.06	41371.31
506.23	41839.42
506.41	41792.61
506.58	42024.32
506.76	42532.22
506.93	42494.77
507.11	41729.41
507.28	42368.38
507.46	42326.25
507.63	43037.77
507.81	42951.17
507.98	42733.50
508.16	43042.45
508.33	43248.42
508.50	42859.89
508.68	43337.36
508.85	43861.64
509.03	43552.69
509.20	43629.93
509.38	43871.00
509.55	44243.15
509.73	44369.54
509.90	44247.83
510.08	44170.59
510.25	44306.34
510.42	44390.60
510.60	44535.71
510.77	44751.04
510.95	45324.47
511.12	44788.49
511.30	44758.06
511.47	45280.00
511.64	45537.46
511.82	45663.85
511.99	45249.58
512.17	45443.84
512.34	45797.26
512.51	45968.12
512.69	46328.56
512.86	46361.33
513.04	46225.58
513.21	46066.42
513.38	46398.78
513.56	46876.25
513.73	46569.64
513.90	46539.21
514.08	46827.10
514.25	47051.79
514.43	47463.72
514.60	47515.22
514.77	47210.95
514.95	47213.29
515.12	47330.31
515.29	47657.99
515.47	47920.13
515.64	47901.40
515.81	48034.81
515.99	47885.02
516.16	48105.03
516.33	48271.21
516.51	48575.48
516.68	48273.55
516.85	48325.04
517.03	48882.09
517.20	48533.35
517.37	48498.24
517.54	48767.40
517.72	48657.40
517.89	48891.45
518.06	49233.17
518.24	49226.15
518.41	49364.24
518.58	49212.10
518.75	48964.01
518.93	49485.95
519.10	49045.93
519.27	49432.11
519.45	49202.74
519.62	49797.24
519.79	50216.19
519.96	49385.30
520.14	50174.06
520.31	50005.55
520.48	50246.62
520.65	50122.57
520.83	50511.10
521.00	50480.67
521.17	50618.77
521.34	50298.11
521.52	50527.48
521.69	50600.04
521.86	50761.54
522.03	51002.61
522.20	50937.08
522.38	51615.83
522.55	51105.60
522.72	51246.03
522.89	51028.36
523.07	51784.35
523.24	51278.80
523.41	51358.38
523.58	51297.52
523.75	51807.76
523.92	51765.63
524.10	51854.57
524.27	51985.64
524.44	51695.41
524.61	52074.58
524.78	51803.08
524.96	52076.92
525.13	52105.01
525.30	52416.30
525.47	52339.06
525.64	52420.98
525.81	52694.82
525.98	52776.74
526.16	52645.67
526.33	52341.40
526.50	52858.66
526.67	52664.39
526.84	52973.34
527.01	52580.13
527.18	52821.21
527.36	52846.96
527.53	52804.83
527.70	53158.25
527.87	53181.65
528.04	52968.66
528.21	53123.14
528.38	53064.63
528.55	53609.97
528.72	53097.39
528.89	53085.69
529.07	53338.47
529.24	53233.14
529.41	53612.31
529.58	53572.52
529.75	53783.17
529.92	53708.27
530.09	53492.94
530.26	53588.91
530.43	53975.09
530.60	53890.83
530.77	53801.89
530.94	54281.70
531.11	53748.06
531.28	54085.10
531.46	53942.33
531.63	53855.73
531.80	54195.10
531.97	54309.79
532.14	54436.18
532.31	54246.60
532.48	54239.57
532.65	54241.92
532.82	54389.37
532.99	54557.89
533.16	54518.10
533.33	54719.38
533.50	54876.20
533.67	54906.63
533.84	54365.96
534.01	54728.75
534.18	54939.39
534.35	55028.34
534.52	54798.96
534.69	55271.75
534.86	54951.10
535.03	54920.67
535.20	55033.02
535.37	55079.83
535.54	55243.66
535.71	55014.29
535.88	55203.88
536.05	55049.40
536.22	55704.75
536.38	55643.90
536.55	55456.65
536.72	55466.02
536.89	55538.57
537.06	55189.83
537.23	55660.28
537.40	55484.74
537.57	55648.58
537.74	55545.59
537.91	55819.44
538.08	56041.79
538.25	55648.58
538.42	55536.23
538.59	55828.80
538.75	55791.35
538.92	56060.51
539.09	56109.66
539.26	55964.55
539.43	56177.54
539.60	56009.02
539.77	56074.55
539.94	56472.45
540.11	56399.89
540.28	56481.81
540.44	56388.19
540.61	56163.50
540.78	56348.40
540.95	56278.18
541.12	56200.94
541.29	56252.44
541.46	56479.47
541.62	56516.92
541.79	56722.88
541.96	56259.46
542.13	56240.73
542.30	56523.94
542.47	56516.92
542.63	56765.01
542.80	56556.70
542.97	56839.91
543.14	57301.00
543.31	56921.83
543.48	57228.44
543.64	57200.35
543.81	57216.74
543.98	57301.00
544.15	56893.74
544.32	57359.51
544.48	57382.91
544.65	57261.21
544.82	57127.80
544.99	56961.62
545.16	57382.91
545.32	57193.33
545.49	57844.00
545.66	57717.61
545.83	57317.38
546.00	57642.71
546.16	57633.35
546.33	57371.21
546.50	57432.07
546.67	57649.74
546.83	57558.45
547.00	57752.72
547.17	57502.28
547.34	57745.70
547.50	57647.39
547.67	57958.69
547.84	57968.05
548.00	58031.24
548.17	58131.89
548.34	57867.40
548.51	58181.04
548.67	58007.84
548.84	57972.73
549.01	57879.11
549.18	58031.24
549.34	57844.00
549.51	58183.38
549.68	58185.72
549.84	58258.27
550.01	58305.09
550.18	58117.84
550.34	58457.22
550.51	58349.56
550.68	58300.40
550.84	58087.42
551.01	58342.53
551.18	58403.39
551.34	58314.45
551.51	58422.11
551.68	58307.43
551.84	58445.52
552.01	58557.86
552.18	58489.99
552.34	58344.87
552.51	58349.56
552.68	58384.66
552.84	58419.77
553.01	58890.22
553.18	58836.39
553.34	58974.48
553.51	58546.16
553.67	58939.37
553.84	58702.98
554.01	58808.30
554.17	58843.41
554.34	58990.86
554.51	58920.65
554.67	58822.34
554.84	58719.36
555.00	58796.60
555.17	58894.90
555.33	59070.44
555.50	58932.35
555.67	58770.85
555.83	58904.26
556.00	59054.06
556.16	59388.75
556.33	59178.10
556.50	59231.94
556.66	59274.07
556.83	58864.47
556.99	59337.26
557.16	59444.93
557.32	59257.68
557.49	59365.35
557.65	59253.00
557.82	59250.66
557.98	59489.40
558.15	59480.03
558.32	59377.05
558.48	59395.77
558.65	59611.10
558.81	59473.01
558.98	59473.01
559.14	59505.78
559.31	59348.96
559.47	59512.80
559.64	59571.32
559.80	59540.89
559.97	59716.43
560.13	59564.29
560.30	59690.68
560.46	59510.46
560.63	59779.62
560.79	59531.53
560.96	59693.02
561.12	59803.03
561.29	59695.36
561.45	59662.60
561.61	59688.34
561.78	59770.26
561.94	59646.21
562.11	59725.79
562.27	59777.28
562.44	59784.30
562.60	59826.43
562.77	59753.88
562.93	60001.97
563.10	60039.42
563.26	59845.16
563.42	60114.32
563.59	59854.52
563.75	59840.48
563.92	59973.89
564.08	59917.71
564.24	59753.88
564.41	60175.17
564.57	59938.78
564.74	60116.66
564.90	60111.98
565.07	60027.72
565.23	59992.61
565.39	60095.60
565.56	59845.16
565.72	59927.08
565.88	60020.70
566.05	60093.25
566.21	59948.14
566.38	59952.82
566.54	60229.01
566.70	60229.01
566.87	60233.69
567.03	60111.98
567.19	60268.79
567.36	60186.88
567.52	60355.39
567.68	60397.52
567.85	60306.24
568.01	60303.90
568.17	60097.94
568.34	60343.69
568.50	60193.90
568.66	60177.51
568.83	60381.14
568.99	60327.31
569.15	60268.79
569.32	60353.05
569.48	60341.35
569.64	60472.42
569.81	60289.86
569.97	60252.41
570.13	60271.14
570.30	60191.56
570.46	60186.88
570.62	60278.16
570.78	60367.10
570.95	60341.35
571.11	60582.43
571.27	60420.93
571.43	60383.48
571.60	60570.72
571.76	60378.80
571.92	60484.12
572.09	60381.14
572.25	60308.58
572.41	60423.27
572.57	60605.83
572.74	60498.17
572.90	60425.61
573.06	60554.34
573.22	60289.86
573.38	60409.23
573.55	60610.51
573.71	60664.35
573.87	60608.17
574.03	60360.08
574.20	60594.13
574.36	60622.22
574.52	60835.20
574.68	60495.83
574.84	60828.18
575.01	60444.33
575.17	60678.39
575.33	60423.27
575.49	60645.62
575.65	60706.47
575.82	60720.52
575.98	60570.72
576.14	60713.50
576.30	60680.73
576.46	60512.21
576.62	60568.38
576.79	60647.96
576.95	60713.50
577.11	60603.49
577.27	60516.89
577.43	60671.37
577.59	60879.67
577.75	60633.92
577.92	60554.34
578.08	60535.62
578.24	60722.86
578.40	60764.99
578.56	60809.46
578.72	60757.97
578.88	60992.02
579.04	61029.47
579.21	60849.25
579.37	60739.24
579.53	60856.27
579.69	60444.33
579.85	60437.31
580.01	60582.43
580.17	60657.32
580.33	60764.99
580.49	60949.89
580.65	60811.80
580.82	60697.11
580.98	60643.28
581.14	60617.53
581.30	60987.34
581.46	60891.38
581.62	60596.47
581.78	60743.92
581.94	60753.29
582.10	60736.90
582.26	60973.30
582.42	60884.36
582.58	61022.45
582.74	60647.96
582.90	60701.79
583.06	60774.35
583.22	60624.56
583.38	60786.05
583.54	60762.65
583.70	60896.06
583.86	60874.99
584.02	60638.60
584.18	61055.21
584.34	60767.33
584.50	60882.02
584.66	60849.25
584.82	60767.33
584.98	60945.21
585.14	60928.83
585.30	60856.27
585.46	60903.08
585.62	60989.68
585.78	60996.70
585.94	60856.27
586.10	60900.74
586.26	60942.87
586.42	60832.86
586.58	60949.89
586.74	60992.02
586.90	60900.74
587.06	60982.66
587.22	60956.91
587.38	60977.98
587.54	60938.19
587.70	61069.26
587.86	61024.79
588.02	60985.00
588.18	60954.57
588.34	60935.85
