SpectraSuite Data File
++++++++++++++++++++++++++++++++++++
Date: Fri Oct 25 11:33:34 EDT 2013
User: price-jones
Dark Spectrum Present: No
Reference Spectrum Present: No
Number of Sampled Component Spectra: 1
Spectrometers: USB2+H05261
Integration Time (usec): 100000 (USB2+H05261)
Spectra Averaged: 1 (USB2+H05261)
Boxcar Smoothing: 0 (USB2+H05261)
Correct for Electrical Dark: No (USB2+H05261)
Strobe/Lamp Enabled: No (USB2+H05261)
Correct for Detector Non-linearity: No (USB2+H05261)
Correct for Stray Light: No (USB2+H05261)
Number of Pixels in Processed Spectrum: 2048
>>>>>Begin Processed Spectral Data<<<<<
365.73	273.84
365.92	273.84
366.12	273.84
366.32	205.97
366.52	170.86
366.72	145.11
366.91	100.64
367.11	189.58
367.31	173.20
367.51	168.52
367.70	187.24
367.90	142.77
368.10	198.95
368.30	187.24
368.49	224.69
368.69	175.54
368.89	175.54
369.09	189.58
369.28	163.84
369.48	210.65
369.68	276.18
369.87	161.50
370.07	224.69
370.27	280.86
370.47	294.91
370.66	461.09
370.86	566.41
371.06	561.73
371.25	603.86
371.45	566.41
371.65	564.07
371.84	484.49
372.04	601.52
372.24	561.73
372.44	578.11
372.63	622.58
372.83	559.39
373.03	596.84
373.22	543.00
373.42	566.41
373.62	592.16
373.81	660.03
374.01	641.31
374.21	585.13
374.40	582.79
374.60	685.78
374.79	601.52
374.99	629.60
375.19	681.10
375.38	784.08
375.58	681.10
375.78	601.52
375.97	697.48
376.17	763.01
376.37	650.67
376.56	617.90
376.76	624.92
376.95	650.67
377.15	800.46
377.35	660.03
377.54	622.58
377.74	667.05
377.93	674.07
378.13	723.23
378.33	720.88
378.52	753.65
378.72	709.18
378.91	636.63
379.11	671.73
379.31	774.72
379.50	695.14
379.70	678.76
379.89	650.67
380.09	690.46
380.28	688.12
380.48	690.46
380.68	732.59
380.87	763.01
381.07	765.36
381.26	739.61
381.46	758.33
381.65	798.12
381.85	716.20
382.04	767.70
382.24	784.08
382.43	650.67
382.63	716.20
382.83	833.23
383.02	809.83
383.22	809.83
383.41	802.80
383.61	727.91
383.80	866.00
384.00	882.38
384.19	819.19
384.39	805.14
384.58	763.01
384.78	809.83
384.97	847.27
385.17	739.61
385.36	840.25
385.56	760.67
385.75	821.53
385.95	887.06
386.14	823.87
386.34	833.23
386.53	940.90
386.72	873.02
386.92	882.38
387.11	802.80
387.31	910.47
387.50	814.51
387.70	863.66
387.89	992.39
388.09	912.81
388.28	952.60
388.48	908.13
388.67	870.68
388.86	968.98
389.06	957.28
389.25	990.05
389.45	926.85
389.64	947.92
389.84	1036.86
390.03	985.37
390.22	1039.20
390.42	971.32
390.61	1011.11
390.81	929.19
391.00	1064.94
391.19	1095.37
391.39	999.41
391.58	978.34
391.78	1025.15
391.97	947.92
392.16	1013.45
392.36	1090.69
392.55	1008.77
392.75	1146.86
392.94	1095.37
393.13	1025.15
393.33	1109.41
393.52	1135.16
393.71	1165.59
393.91	1123.46
394.10	1050.90
394.29	1123.46
394.49	1076.65
394.68	1107.07
394.88	1128.14
395.07	1263.89
395.26	1135.16
395.46	1081.33
395.65	1123.46
395.84	1149.20
396.04	1219.42
396.23	1210.06
396.42	1224.10
396.62	1270.91
396.81	1210.06
397.00	1210.06
397.19	1181.97
397.39	1165.59
397.58	1200.69
397.77	1221.76
397.97	1268.57
398.16	1212.40
398.35	1266.23
398.55	1219.42
398.74	1249.85
398.93	1359.85
399.12	1427.73
399.32	1329.42
399.51	1238.14
399.70	1334.11
399.90	1303.68
400.09	1320.06
400.28	1448.79
400.47	1437.09
400.67	1404.32
400.86	1327.08
401.05	1366.87
401.24	1404.32
401.44	1385.60
401.63	1401.98
401.82	1434.75
402.01	1378.58
402.21	1488.58
402.40	1502.62
402.59	1460.49
402.78	1521.35
402.97	1514.33
403.17	1551.78
403.36	1523.69
403.55	1575.18
403.74	1535.39
403.93	1577.52
404.13	1526.03
404.32	1540.07
404.51	1638.38
404.70	1659.44
404.89	1526.03
405.09	1727.32
405.28	1596.25
405.47	1654.76
405.66	1631.35
405.85	1778.81
406.05	1659.44
406.24	1750.72
406.43	1727.32
406.62	1764.76
406.81	1858.39
407.00	1689.87
407.20	1811.57
407.39	1846.68
407.58	1832.64
407.77	1919.24
407.96	1933.28
408.15	1834.98
408.34	1748.38
408.54	1923.92
408.73	1856.04
408.92	1980.09
409.11	2085.42
409.30	2136.91
409.49	2083.08
409.68	2003.50
409.87	2005.84
410.07	2003.50
410.26	2038.61
410.45	2022.22
410.64	2062.01
410.83	2066.69
411.02	2141.59
411.21	2214.15
411.40	2057.33
411.59	2174.36
411.78	2256.28
411.98	2108.82
412.17	2267.98
412.36	2298.41
412.55	2293.72
412.74	2284.36
412.93	2408.41
413.12	2228.19
413.31	2370.96
413.50	2373.30
413.69	2354.58
413.88	2499.69
414.07	2583.95
414.26	2469.27
414.45	2562.89
414.64	2572.25
414.83	2569.91
415.02	2562.89
415.22	2637.78
415.41	2738.43
415.60	2560.55
415.79	2705.66
415.98	2719.70
416.17	2700.98
416.36	2754.81
416.55	2710.34
416.74	2761.83
416.93	2843.75
417.12	2883.54
417.31	2693.96
417.50	2843.75
417.69	3075.46
417.88	2881.20
418.07	2993.55
418.26	3005.25
418.45	2991.20
418.64	2974.82
418.83	2944.39
419.02	3007.59
419.21	3073.12
419.39	3038.02
419.58	3023.97
419.77	3143.34
419.96	3171.43
420.15	3143.34
420.34	3260.37
420.53	3112.91
420.72	3171.43
420.91	3187.81
421.10	3272.07
421.29	3351.65
421.48	3094.19
421.67	3194.83
421.86	3108.23
422.05	3309.52
422.24	3382.07
422.43	3300.16
422.61	3375.05
422.80	3485.06
422.99	3410.16
423.18	3396.12
423.37	3438.25
423.56	3321.22
423.75	3236.96
423.94	3236.96
424.13	3234.62
424.32	3412.50
424.50	3473.36
424.69	3492.08
424.88	3468.67
425.07	3311.86
425.26	3375.05
425.45	3365.69
425.64	3405.48
425.83	3487.40
426.01	3566.98
426.20	3566.98
426.39	3501.44
426.58	3428.88
426.77	3452.29
426.96	3375.05
427.15	3487.40
427.33	3529.53
427.52	3431.23
427.71	3672.30
427.90	3625.49
428.09	3536.55
428.28	3597.40
428.46	3655.92
428.65	3700.39
428.84	3803.37
429.03	3765.92
429.22	3723.79
429.40	3665.28
429.59	3789.33
429.78	3723.79
429.97	3630.17
430.16	3676.98
430.34	3875.93
430.53	3908.69
430.72	3857.20
430.91	3803.37
431.10	3735.50
431.28	3932.10
431.47	4086.58
431.66	4014.02
431.85	3899.33
432.03	4058.49
432.22	4046.79
432.41	4058.49
432.60	4042.11
432.79	4063.17
432.97	4067.85
433.16	4107.64
433.35	4119.34
433.54	4180.20
433.72	4227.01
433.91	4219.99
434.10	4187.22
434.28	4081.89
434.47	4149.77
434.66	4395.53
434.85	4156.79
435.03	4369.78
435.22	4395.53
435.41	4318.29
435.59	4407.23
435.78	4320.63
435.97	4280.84
436.16	4451.70
436.34	4283.18
436.53	4440.00
436.72	4585.11
436.90	4362.76
437.09	4629.58
437.28	4524.26
437.46	4418.93
437.65	4437.66
437.84	4561.70
438.02	4671.71
438.21	4608.51
438.40	4521.92
438.58	4702.14
438.77	4826.18
438.96	4854.27
439.14	4795.76
439.33	4812.14
439.52	4943.21
439.70	4917.47
439.89	4954.91
440.08	5151.52
440.26	5027.47
440.45	5027.47
440.63	5006.41
440.82	5313.02
441.01	5093.01
441.19	5144.50
441.38	5261.52
441.57	5238.12
441.75	5205.35
441.94	5343.44
442.12	5383.23
442.31	5411.32
442.50	5465.15
442.68	5371.53
442.87	5357.49
443.05	5514.30
443.24	5554.09
443.43	5479.19
443.61	5570.48
443.80	5612.60
443.98	5338.76
444.17	5273.23
444.35	5647.71
444.54	5607.92
444.73	5673.46
444.91	5619.63
445.10	5741.33
445.28	5598.56
445.47	5593.88
445.65	5703.89
445.84	5680.48
446.02	5755.38
446.21	5570.48
446.39	5680.48
446.58	5671.12
446.77	5717.93
446.95	5371.53
447.14	5792.83
447.32	5647.71
447.51	5853.68
447.69	5600.90
447.88	5633.67
448.06	5863.04
448.25	5748.36
448.43	5767.08
448.62	5860.70
448.80	5769.42
448.99	5856.02
449.17	5830.27
449.36	5661.76
449.54	5930.92
449.73	5963.68
449.91	6029.22
450.10	5970.71
450.28	6118.16
450.46	6036.24
450.65	6171.99
450.83	6132.20
451.02	6132.20
451.20	6272.64
451.39	6148.59
451.57	6120.50
451.76	6150.93
451.94	6232.85
452.13	6211.78
452.31	6260.93
452.49	6321.79
452.68	6300.72
452.86	6307.74
453.05	6270.30
453.23	6335.83
453.42	6232.85
453.60	6530.09
453.78	6443.49
453.97	6413.07
454.15	6434.13
454.34	6356.90
454.52	6413.07
454.70	6609.67
454.89	6356.90
455.07	6413.07
455.26	6771.17
455.44	6551.16
455.62	6715.00
455.81	6612.01
455.99	6689.25
456.17	6813.30
456.36	6782.87
456.54	6834.36
456.73	6836.70
456.91	7101.19
457.09	6977.14
457.28	7178.42
457.46	6820.32
457.64	7166.72
457.83	7206.51
458.01	6977.14
458.19	7176.08
458.38	7190.13
458.56	7171.40
458.74	7119.91
458.93	7063.74
459.11	7159.70
459.29	7208.85
459.48	7272.04
459.66	7162.04
459.84	7330.56
460.03	7316.51
460.21	7279.07
460.39	7279.07
460.57	7489.71
460.76	7463.97
460.94	7391.41
461.12	7485.03
461.31	7548.23
461.49	7541.21
461.67	7262.68
461.85	7775.26
462.04	7599.72
462.22	7817.39
462.40	7782.28
462.59	7595.04
462.77	7747.17
462.95	7592.70
463.13	7648.87
463.32	7714.41
463.50	7826.75
463.68	7772.92
463.86	7976.55
464.05	7882.92
464.23	7751.85
464.41	8028.04
464.59	7918.03
464.78	8114.64
464.96	7941.44
465.14	7892.29
465.32	7887.61
465.50	8189.53
465.69	8067.83
465.87	8030.38
466.05	8105.28
466.23	8119.32
466.41	8133.36
466.60	8379.12
466.78	8397.84
466.96	8147.40
467.14	8084.21
467.32	8264.43
467.51	8430.61
467.69	8037.40
467.87	8194.22
468.05	8346.35
468.23	8252.73
468.41	8180.17
468.60	8449.33
468.78	8615.51
468.96	8454.02
469.14	8425.93
469.32	8613.17
469.50	8470.40
469.69	8709.13
469.87	8753.60
470.05	8580.40
470.23	8739.56
470.41	8741.90
470.59	8840.20
470.77	8674.03
470.95	8894.04
471.14	9151.49
471.32	8985.32
471.50	9046.17
471.68	8997.02
471.86	9053.19
472.04	9146.81
472.22	9200.65
472.40	8964.25
472.58	9060.21
472.77	9132.77
472.95	9474.49
473.13	9568.11
473.31	9446.40
473.49	9455.76
473.67	9275.54
473.85	9479.17
474.03	9748.33
474.21	9696.84
474.39	9673.43
474.57	9806.84
474.75	9930.89
474.93	9916.85
475.12	9797.48
475.30	10010.47
475.48	10193.03
475.66	10083.03
475.84	9902.81
476.02	9935.57
476.20	10132.18
476.38	10258.57
476.56	10593.26
476.74	10656.46
476.92	10457.51
477.10	10408.36
477.28	10611.99
477.46	10586.24
477.64	10586.24
477.82	10888.17
478.00	11059.03
478.18	11131.59
478.36	10984.13
478.54	11236.91
478.72	11307.13
478.90	11386.71
479.08	11698.00
479.26	11571.61
479.44	11723.74
479.62	11665.23
479.80	11833.75
479.98	11995.25
480.16	12180.15
480.34	11838.43
480.52	12278.45
480.70	12074.82
480.88	12058.44
481.06	12386.12
481.24	12554.63
481.41	12659.96
481.59	12540.59
481.77	12746.56
481.95	12692.73
482.13	12861.24
482.31	12842.52
482.49	12894.01
482.67	13242.75
482.85	13596.17
483.03	13357.44
483.21	13441.70
483.39	13654.69
483.57	13944.91
483.74	14125.13
483.92	14146.20
484.10	14300.67
484.28	14150.88
484.46	14471.53
484.64	14677.50
484.82	14469.19
485.00	14581.54
485.18	14792.19
485.35	15211.14
485.53	15073.05
485.71	15260.29
485.89	15204.12
486.07	15187.74
486.25	15140.93
486.43	15330.51
486.61	15585.63
486.78	15943.73
486.96	15686.27
487.14	16184.80
487.32	16257.36
487.50	16121.61
487.68	16383.75
487.85	16346.30
488.03	16631.85
488.21	16912.71
488.39	16739.51
488.57	17310.60
488.75	16919.73
488.92	17315.28
489.10	17675.73
489.28	17537.63
489.46	17532.95
489.64	17542.32
489.81	18104.04
489.99	17862.97
490.17	18272.56
490.35	18258.52
490.53	18520.66
490.70	18572.15
490.88	18721.95
491.06	18911.53
491.24	19070.68
491.41	18930.25
491.59	19145.58
491.77	19185.37
491.95	19262.61
492.13	19482.62
492.30	19564.54
492.48	19389.00
492.66	19896.89
492.84	19960.09
493.01	19960.09
493.19	19864.13
493.37	20482.03
493.54	20203.50
493.72	20650.55
493.90	20402.45
494.08	20397.77
494.25	21090.57
494.43	21043.76
494.61	21209.93
494.79	21139.72
494.96	21181.85
495.14	21425.26
495.32	21891.03
495.49	21642.93
495.67	21649.96
495.85	21706.13
496.02	21968.27
496.20	22670.43
496.38	22373.18
496.55	22539.36
496.73	22757.03
496.91	22527.66
497.09	22548.72
497.26	22698.52
497.44	22506.59
497.62	22993.42
497.79	23192.37
497.97	23065.98
498.14	23335.14
498.32	23529.41
498.50	23690.90
498.67	23754.10
498.85	23623.03
499.03	23885.17
499.20	24004.53
499.38	24020.92
499.56	24060.71
499.73	24360.30
499.91	24594.35
500.08	24617.75
500.26	24762.87
500.44	24758.19
500.61	24369.66
500.79	25022.67
500.97	25025.01
501.14	25177.14
501.32	25586.74
501.49	24893.94
501.67	25422.90
501.84	25462.69
502.02	25685.04
502.20	25298.85
502.37	25989.31
502.55	25577.37
502.72	26047.82
502.90	25862.92
503.07	25806.75
503.25	25907.39
503.43	25886.32
503.60	26312.30
503.78	26024.42
503.95	26251.45
504.13	26513.59
504.30	26548.70
504.48	26899.78
504.65	26930.20
504.83	27065.96
505.01	26911.48
505.18	27185.32
505.36	27087.02
505.53	27222.77
505.71	27072.98
505.88	27353.84
506.06	27096.38
506.23	27503.64
506.41	27590.24
506.58	28011.53
506.76	27646.41
506.93	27824.29
507.11	27784.50
507.28	28018.55
507.46	27763.43
507.63	28407.08
507.81	28095.79
507.98	28446.87
508.16	28376.66
508.33	28650.50
508.50	28856.46
508.68	28741.78
508.85	28877.53
509.03	28811.99
509.20	29013.28
509.38	29268.40
509.55	29179.46
509.73	29366.70
509.90	29394.79
510.08	29226.27
510.25	29392.45
510.42	29677.99
510.60	29785.66
510.77	29923.75
510.95	29813.74
511.12	29776.30
511.30	29809.06
511.47	30010.35
511.64	29937.79
511.82	30455.05
511.99	30436.33
512.17	30532.29
512.34	30167.16
512.51	30644.63
512.69	30433.99
512.86	30710.17
513.04	31108.06
513.21	30890.39
513.38	31089.34
513.56	31005.08
513.73	30808.47
513.90	30878.69
514.08	31077.63
514.25	31459.14
514.43	31587.87
514.60	31592.55
514.77	31763.41
514.95	31660.43
515.12	31395.95
515.29	31316.37
515.47	31974.06
515.64	32079.38
515.81	31842.99
515.99	32315.78
516.16	32048.96
516.33	32353.23
516.51	32435.14
516.68	32100.45
516.85	32648.13
517.03	33013.26
517.20	32786.22
517.37	32629.41
517.54	32708.99
517.72	32699.62
517.89	32982.83
518.06	32905.59
518.24	32795.59
518.41	33050.70
518.58	33078.79
518.75	32861.12
518.93	33422.85
519.10	33404.13
519.27	33240.29
519.45	33448.60
519.62	33479.02
519.79	33860.53
519.96	33577.33
520.14	33668.61
520.31	33827.76
520.48	33881.60
520.65	33975.22
520.83	34574.39
521.00	34323.96
521.17	33961.17
521.34	34220.97
521.52	34480.77
521.69	34455.03
521.86	34724.19
522.03	34628.23
522.20	34983.99
522.38	35164.21
522.55	34728.87
522.72	35089.31
522.89	34937.18
523.07	34773.34
523.24	34789.72
523.41	35409.96
523.58	35086.97
523.75	35154.85
523.92	35377.20
524.10	35435.71
524.27	35838.28
524.44	35498.91
524.61	35772.75
524.78	35683.81
524.96	35915.52
525.13	35866.37
525.30	35878.07
525.47	36231.49
525.64	36041.91
525.81	36170.64
525.98	35941.27
526.16	36308.73
526.33	36463.21
526.50	36463.21
526.67	36187.02
526.84	36655.13
527.01	36339.16
527.18	36690.24
527.36	36769.82
527.53	36603.64
527.70	36664.49
527.87	37209.84
528.04	36781.52
528.21	37120.90
528.38	36830.67
528.55	37404.10
528.72	36779.18
528.89	36723.01
529.07	36835.35
529.24	37230.90
529.41	37532.83
529.58	37172.39
529.75	37490.70
529.92	37481.34
530.09	37670.92
530.26	37670.92
530.43	37539.85
530.60	37617.09
530.77	37701.35
530.94	37717.73
531.11	37649.86
531.28	38033.71
531.46	37776.25
531.63	37851.14
531.80	38204.56
531.97	38213.93
532.14	38291.16
532.31	38557.99
532.48	38469.04
532.65	38990.98
532.82	38405.85
532.99	39175.89
533.16	38356.70
533.33	38424.57
533.50	38719.48
533.67	38836.51
533.84	38408.19
534.01	38763.95
534.18	38937.15
534.35	38782.68
534.52	38941.83
534.69	38986.30
534.86	39440.37
535.03	39232.06
535.20	39466.11
535.37	39140.78
535.54	39828.90
535.71	39037.80
535.88	39831.24
536.05	39461.43
536.22	39840.60
536.38	39473.13
536.55	39847.62
536.72	39622.93
536.89	39613.57
537.06	39903.79
537.23	40006.78
537.40	39826.56
537.57	39917.84
537.74	39887.41
537.91	40243.17
538.08	40177.64
538.25	40039.54
538.42	40451.48
538.59	40320.41
538.75	40006.78
538.92	40587.23
539.09	40381.26
539.26	40638.72
539.43	40486.59
539.60	40463.18
539.77	40371.90
539.94	40755.75
540.11	40360.20
540.28	40884.48
540.44	40524.04
540.61	40514.67
540.78	40392.97
540.95	40746.39
541.12	40627.02
541.29	40507.65
541.46	40589.57
541.62	40786.18
541.79	41226.20
541.96	40847.03
542.13	40973.42
542.30	41055.34
542.47	41280.03
542.63	41640.47
542.80	41401.74
542.97	41429.82
543.14	41762.18
543.31	41827.71
543.48	41605.36
543.64	42038.36
543.81	41792.61
543.98	41998.57
544.15	41834.74
544.32	42153.05
544.48	42312.20
544.65	41879.21
544.82	42141.35
544.99	41476.63
545.16	42225.60
545.32	42005.59
545.49	42394.12
545.66	42794.36
545.83	42576.69
546.00	42710.10
546.16	42408.17
546.33	42417.53
546.50	42431.57
546.67	42906.70
546.83	42085.17
547.00	42646.90
547.17	43065.86
547.34	42602.43
547.50	42976.92
547.67	42988.62
547.84	42782.65
548.00	42848.19
548.17	43206.29
548.34	43096.28
548.51	42960.53
548.67	43716.53
548.84	43229.69
549.01	43014.37
549.18	42937.13
549.34	43374.81
549.51	43445.02
549.68	43388.85
549.84	43456.73
550.01	43711.84
550.18	42976.92
550.34	43718.87
550.51	43854.62
550.68	43814.83
550.84	43100.97
551.01	43695.46
551.18	43433.32
551.34	43543.33
551.51	43735.25
551.68	44179.95
551.84	44027.82
552.01	43543.33
552.18	43695.46
552.34	43459.07
552.51	44058.24
552.68	43519.92
552.84	44074.63
553.01	43686.10
553.18	44062.93
553.34	43746.95
553.51	44381.24
553.67	44226.76
553.84	44531.03
554.01	44257.19
554.17	44273.57
554.34	44737.00
554.51	44493.58
554.67	44570.82
554.84	44442.09
555.00	44205.70
555.17	44296.98
555.33	44912.54
555.50	44554.44
555.67	44718.28
555.83	45003.82
556.00	44882.11
556.16	45195.74
556.33	44935.95
556.50	44886.79
556.66	45071.70
556.83	44465.50
556.99	44858.71
557.16	45132.55
557.32	44964.03
557.49	45368.94
557.65	44804.88
557.82	45160.64
557.98	45193.40
558.15	45181.70
558.32	45106.80
558.48	44615.29
558.65	45270.64
558.81	45502.35
558.98	45067.02
559.14	44938.29
559.31	45415.76
559.47	45045.95
559.64	45624.06
559.80	45240.21
559.97	45392.35
560.13	44999.14
560.30	45418.10
560.46	45743.43
560.63	45886.20
560.79	45600.66
560.96	45663.85
561.12	45703.64
561.29	45497.67
561.45	45755.13
561.61	45610.02
561.78	45785.56
561.94	45511.72
562.11	45888.54
562.27	45228.51
562.44	45804.28
562.60	45811.31
562.77	45736.41
562.93	45584.27
563.10	46028.98
563.26	45773.86
563.42	46092.17
563.59	45696.62
563.75	45771.52
563.92	46117.92
564.08	45549.17
564.24	45722.37
564.41	45794.92
564.57	46246.65
564.74	45961.10
564.90	45954.08
565.07	45806.62
565.23	45792.58
565.39	45757.47
565.56	46464.32
565.72	45808.96
565.88	46028.98
566.05	46052.38
566.21	46089.83
566.38	46422.19
566.54	45975.14
566.70	46291.12
566.87	46438.57
567.03	45860.46
567.19	46483.04
567.36	45865.14
567.52	46204.52
567.68	46604.75
567.85	46731.14
568.01	46164.73
568.17	46256.01
568.34	46389.42
568.50	46457.29
568.66	46174.09
568.83	45921.31
568.99	46263.03
569.15	46520.49
569.32	46223.24
569.48	46319.20
569.64	46595.38
569.81	46426.87
569.97	46232.60
570.13	46501.76
570.30	46347.29
570.46	46499.42
570.62	46241.96
570.78	46604.75
570.95	46408.14
571.11	46595.38
571.27	46169.41
571.43	46504.10
571.60	46534.53
571.76	46693.69
571.92	46490.06
572.09	46043.02
572.25	46623.47
572.41	46209.20
572.57	46590.70
572.74	47166.48
572.90	46773.27
573.06	46637.51
573.22	46806.03
573.38	46665.60
573.55	47098.60
573.71	46876.25
573.87	47093.92
574.03	46588.36
574.20	47353.72
574.36	47082.22
574.52	46738.16
574.68	46487.72
574.84	47086.90
575.01	47407.55
575.17	47533.94
575.33	46843.48
575.49	46761.56
575.65	46944.12
575.82	46791.99
575.98	46904.34
576.14	47168.82
576.30	47313.93
576.46	46469.00
576.62	46799.01
576.79	47110.30
576.95	46293.46
577.11	46894.97
577.27	46944.12
577.43	47407.55
577.59	47112.64
577.75	46843.48
577.92	46607.09
578.08	46845.82
578.24	46909.02
578.40	46667.94
578.56	47007.32
578.72	46885.61
578.88	47049.45
579.04	46934.76
579.21	46944.12
579.37	47014.34
579.53	47267.12
579.69	46583.68
579.85	47019.02
580.01	46843.48
580.17	46670.28
580.33	46799.01
580.49	47049.45
580.65	47217.97
580.82	46930.08
580.98	46990.94
581.14	47070.51
581.30	47297.55
581.46	47047.11
581.62	47274.14
581.78	47178.18
581.94	46824.76
582.10	46894.97
582.26	47496.49
582.42	47166.48
582.58	47049.45
582.74	47409.89
582.90	46944.12
583.06	47547.98
583.22	46944.12
583.38	47522.24
583.54	47487.13
583.70	47119.66
583.86	47430.96
584.02	47281.16
584.18	47559.69
584.34	47065.83
584.50	47533.94
584.66	47489.47
584.82	47646.29
584.98	47580.75
585.14	47620.54
585.30	47007.32
585.46	47587.77
585.62	46974.55
585.78	47377.12
585.94	47091.58
586.10	47327.97
586.26	46962.85
586.42	47220.31
586.58	47543.30
586.74	47264.78
586.90	47194.56
587.06	46918.38
587.22	47922.47
587.38	47168.82
587.54	47613.52
587.70	47646.29
587.86	47562.03
588.02	47217.97
588.18	47332.65
588.34	47618.20
588.49	47533.94
588.65	47136.05
588.81	47295.21
588.97	47456.70
589.13	47398.19
589.29	47753.95
589.45	47267.12
589.61	47594.79
589.77	47831.19
589.93	47594.79
590.08	47878.00
