SpectraSuite Data File
++++++++++++++++++++++++++++++++++++
Date: Fri Oct 25 11:25:58 EDT 2013
User: price-jones
Dark Spectrum Present: No
Reference Spectrum Present: No
Number of Sampled Component Spectra: 1
Spectrometers: USB2+H05261
Integration Time (usec): 100000 (USB2+H05261)
Spectra Averaged: 1 (USB2+H05261)
Boxcar Smoothing: 0 (USB2+H05261)
Correct for Electrical Dark: No (USB2+H05261)
Strobe/Lamp Enabled: No (USB2+H05261)
Correct for Detector Non-linearity: No (USB2+H05261)
Correct for Stray Light: No (USB2+H05261)
Number of Pixels in Processed Spectrum: 2048
>>>>>Begin Processed Spectral Data<<<<<
365.73	234.05
365.92	234.05
366.12	234.05
366.32	180.22
366.52	126.39
366.72	135.75
366.91	77.24
367.11	173.20
367.31	154.48
367.51	114.69
367.70	156.82
367.90	152.13
368.10	154.48
368.30	145.11
368.49	102.98
368.69	163.84
368.89	222.35
369.09	180.22
369.28	182.56
369.48	149.79
369.68	269.16
369.87	182.56
370.07	131.07
370.27	337.04
370.47	297.25
370.66	547.69
370.86	674.07
371.06	695.14
371.25	720.88
371.45	638.97
371.65	706.84
371.84	683.44
372.04	678.76
372.24	690.46
372.44	634.29
372.63	713.86
372.83	758.33
373.03	688.12
373.22	812.17
373.42	699.82
373.62	786.42
373.81	823.87
374.01	732.59
374.21	875.36
374.40	835.57
374.60	826.21
374.79	774.72
374.99	833.23
375.19	833.23
375.38	882.38
375.58	807.48
375.78	929.19
375.97	901.11
376.17	884.72
376.37	830.89
376.56	847.27
376.76	858.98
376.95	891.74
377.15	933.87
377.35	830.89
377.54	854.30
377.74	880.04
377.93	891.74
378.13	922.17
378.33	908.13
378.52	891.74
378.72	971.32
378.91	1067.28
379.11	903.45
379.31	933.87
379.50	952.60
379.70	987.71
379.89	903.45
380.09	997.07
380.28	973.66
380.48	990.05
380.68	1011.11
380.87	1004.09
381.07	933.87
381.26	1078.99
381.46	1090.69
381.65	1107.07
381.85	1004.09
382.04	940.90
382.24	992.39
382.43	1116.44
382.63	1097.71
382.83	1050.90
383.02	1132.82
383.22	1118.78
383.41	1146.86
383.61	1064.94
383.80	1203.04
384.00	1135.16
384.19	1135.16
384.39	1107.07
384.58	1203.04
384.78	1146.86
384.97	1170.27
385.17	1151.54
385.36	1114.10
385.56	1174.95
385.75	1217.08
385.95	1184.31
386.14	1200.69
386.34	1158.57
386.53	1200.69
386.72	1186.65
386.92	1315.38
387.11	1277.93
387.31	1299.00
387.50	1256.87
387.70	1200.69
387.89	1242.82
388.09	1301.34
388.28	1268.57
388.48	1320.06
388.67	1228.78
388.86	1371.55
389.06	1327.08
389.25	1331.76
389.45	1315.38
389.64	1411.34
389.84	1334.11
390.03	1418.36
390.22	1409.00
390.42	1341.13
390.61	1383.26
390.81	1371.55
391.00	1324.74
391.19	1409.00
391.39	1439.43
391.58	1549.43
391.78	1448.79
391.97	1509.65
392.16	1507.30
392.36	1507.30
392.55	1521.35
392.75	1626.67
392.94	1481.56
393.13	1549.43
393.33	1509.65
393.52	1568.16
393.71	1603.27
393.91	1624.33
394.10	1598.59
394.29	1631.35
394.49	1638.38
394.68	1715.61
394.88	1526.03
395.07	1610.29
395.26	1743.70
395.46	1661.78
395.65	1675.82
395.84	1703.91
396.04	1762.42
396.23	1753.06
396.42	1785.83
396.62	1799.87
396.81	1863.07
397.00	1846.68
397.19	1692.21
397.39	1762.42
397.58	1895.83
397.77	1853.70
397.97	1863.07
398.16	1825.62
398.35	1816.26
398.55	1874.77
398.74	1907.54
398.93	1952.01
399.12	1991.80
399.32	1900.52
399.51	1905.20
399.70	1970.73
399.90	1914.56
400.09	2008.18
400.28	2083.08
400.47	1923.92
400.67	2085.42
400.86	2113.50
401.05	2071.37
401.24	2101.80
401.44	2047.97
401.63	2125.21
401.82	2155.63
402.01	2225.85
402.21	2146.27
402.40	2122.87
402.59	2136.91
402.78	2153.29
402.97	2186.06
403.17	2242.23
403.36	2328.83
403.55	2282.02
403.74	2342.88
403.93	2356.92
404.13	2424.80
404.32	2260.96
404.51	2361.60
404.70	2260.96
404.89	2387.35
405.09	2516.08
405.28	2487.99
405.47	2450.54
405.66	2532.46
405.85	2445.86
406.05	2544.16
406.24	2541.82
406.43	2616.72
406.62	2623.74
406.81	2565.23
407.00	2614.38
407.20	2555.86
407.39	2607.36
407.58	2658.85
407.77	2644.81
407.96	2754.81
408.15	2775.88
408.34	2600.34
408.54	2708.00
408.73	2834.39
408.92	2888.22
409.11	3063.76
409.30	3040.36
409.49	3021.63
409.68	2939.71
409.87	2977.16
410.07	3002.91
410.26	3143.34
410.45	2972.48
410.64	3152.70
410.83	3108.23
411.02	3035.67
411.21	3131.64
411.40	3056.74
411.59	3162.06
411.78	3141.00
411.98	3178.45
412.17	3229.94
412.36	3293.13
412.55	3255.69
412.74	3543.57
412.93	3456.97
413.12	3566.98
413.31	3527.19
413.50	3499.10
413.69	3456.97
413.88	3517.83
414.07	3669.96
414.26	3592.72
414.45	3618.47
414.64	3630.17
414.83	3772.94
415.02	3779.97
415.22	3866.56
415.41	3882.95
415.60	3810.39
415.79	3922.74
415.98	3983.59
416.17	4016.36
416.36	3932.10
416.55	3974.23
416.74	4227.01
416.93	4025.72
417.12	4023.38
417.31	4147.43
417.50	4128.70
417.69	4287.86
417.88	4236.37
418.07	4280.84
418.26	4374.46
418.45	4337.01
418.64	4461.06
418.83	4456.38
419.02	4475.10
419.21	4526.60
419.39	4542.98
419.58	4414.25
419.77	4557.02
419.96	4615.54
420.15	4566.39
420.34	4631.92
420.53	4580.43
420.72	4669.37
420.91	4664.69
421.10	4634.26
421.29	4699.80
421.48	4706.82
421.67	4662.35
421.86	4699.80
422.05	4748.95
422.24	4634.26
422.43	4999.38
422.61	4643.62
422.80	4915.12
422.99	4966.62
423.18	4959.60
423.37	5008.75
423.56	4966.62
423.75	4922.15
423.94	4889.38
424.13	4650.64
424.32	4781.71
424.50	4966.62
424.69	5205.35
424.88	4975.98
425.07	4994.70
425.26	4812.14
425.45	4770.01
425.64	4877.68
425.83	4978.32
426.01	5043.85
426.20	5011.09
426.39	5034.49
426.58	4999.38
426.77	4957.25
426.96	5090.67
427.15	5041.51
427.33	5214.71
427.52	5034.49
427.71	5284.93
427.90	4992.36
428.09	5387.91
428.28	5465.15
428.46	5298.97
428.65	5245.14
428.84	5497.92
429.03	5504.94
429.22	5341.10
429.40	5378.55
429.59	5493.24
429.78	5268.55
429.97	5188.97
430.16	5558.77
430.34	5551.75
430.53	5589.20
430.72	5673.46
430.91	5706.23
431.10	5579.84
431.28	5692.18
431.47	5841.98
431.66	5820.91
431.85	5870.06
432.03	5912.19
432.22	6043.26
432.41	5905.17
432.60	5928.58
432.79	5785.80
432.97	6024.54
433.16	6040.92
433.35	5940.28
433.54	6050.28
433.72	6115.82
433.91	6078.37
434.10	6146.25
434.28	6282.00
434.47	6179.01
434.66	6392.00
434.85	6366.26
435.03	6466.90
435.22	6307.74
435.41	6548.82
435.59	6310.08
435.78	6361.58
435.97	6574.56
436.16	6382.64
436.34	6373.28
436.53	6464.56
436.72	6630.74
436.90	6326.47
437.09	6715.00
437.28	6410.73
437.46	6562.86
437.65	6668.19
437.84	6654.14
438.02	6815.64
438.21	6707.98
438.40	6703.29
438.58	6970.12
438.77	6981.82
438.96	6970.12
439.14	6951.39
439.33	7215.87
439.52	7323.54
439.70	7225.23
439.89	7337.58
440.08	7414.82
440.26	7363.33
440.45	7447.58
440.63	7297.79
440.82	7482.69
441.01	7482.69
441.19	7573.97
441.38	7740.15
441.57	7700.36
441.75	7854.84
441.94	7817.39
442.12	8004.63
442.31	8023.36
442.50	8049.10
442.68	7854.84
442.87	8004.63
443.05	8086.55
443.24	8161.45
443.43	8142.72
443.61	8198.90
443.80	8315.92
443.98	7950.80
444.17	7913.35
444.35	8236.35
444.54	8304.22
444.73	8266.77
444.91	8135.70
445.10	8348.69
445.28	8374.44
445.47	8353.37
445.65	8423.59
445.84	8535.93
446.02	8430.61
446.21	8587.43
446.39	8290.18
446.58	8369.76
446.77	8435.29
446.95	8264.43
447.14	8383.80
447.32	8578.06
447.51	8493.80
447.69	8517.21
447.88	8498.49
448.06	8339.33
448.25	8458.70
448.43	8688.07
448.62	8496.14
448.80	8519.55
448.99	8671.68
449.17	8758.28
449.36	8573.38
449.54	8840.20
449.73	9128.09
449.91	8980.64
450.10	8915.10
450.28	9050.85
450.46	9100.00
450.65	8863.61
450.83	9027.45
451.02	9032.13
451.20	9137.45
451.39	9305.97
451.57	9287.25
451.76	9123.41
451.94	9004.04
452.13	9315.33
452.31	9055.53
452.49	9046.17
452.68	9259.16
452.86	9415.98
453.05	9516.62
453.23	9509.60
453.42	9399.59
453.60	9327.03
453.78	9275.54
453.97	9596.20
454.15	9448.74
454.34	9547.05
454.52	9610.24
454.70	9631.30
454.89	9731.95
455.07	9811.53
455.26	9858.34
455.44	9916.85
455.62	9785.78
455.81	9921.53
455.99	10136.86
456.17	9940.26
456.36	10169.63
456.54	10064.30
456.73	10272.61
456.91	10303.04
457.09	10150.90
457.28	10431.77
457.46	10251.55
457.64	10541.77
457.83	10342.83
458.01	10298.36
458.19	10705.61
458.38	10450.49
458.56	10778.17
458.74	10609.65
458.93	10668.16
459.11	10785.19
459.29	10520.71
459.48	10778.17
459.66	10661.14
459.84	10771.15
460.03	11192.44
460.21	10953.71
460.39	11056.69
460.57	10773.49
460.76	11068.39
460.94	11351.60
461.12	11496.71
461.31	10932.64
461.49	11150.31
461.67	11541.18
461.85	11367.98
462.04	11379.68
462.22	11508.41
462.40	11559.91
462.59	11576.29
462.77	11398.41
462.95	11672.25
463.13	11499.05
463.32	11721.40
463.50	11637.14
463.68	11690.98
463.86	11871.20
464.05	11637.14
464.23	11707.36
464.41	12058.44
464.59	11494.37
464.78	12173.13
464.96	12072.48
465.14	11733.11
465.32	12098.23
465.50	12149.72
465.69	12028.01
465.87	12198.87
466.05	12042.06
466.23	12407.18
466.41	12166.10
466.60	12404.84
466.78	12126.32
466.96	12065.46
467.14	12358.03
467.32	12400.16
467.51	12587.40
467.69	12077.16
467.87	12622.51
468.05	12774.64
468.23	12397.82
468.41	12566.34
468.60	12631.87
468.78	12671.66
468.96	12629.53
469.14	12688.04
469.32	13095.30
469.50	12716.13
469.69	12868.27
469.87	12891.67
470.05	13167.85
470.23	13378.50
470.41	13048.49
470.59	13214.66
470.77	13345.73
470.95	13259.13
471.14	13415.95
471.32	13001.68
471.50	13642.98
471.68	13444.04
471.86	13771.71
472.04	13727.24
472.22	14040.87
472.40	13607.87
472.58	13928.53
472.77	13874.70
472.95	14033.85
473.13	14532.39
473.31	14066.62
473.49	14202.37
473.67	14162.58
473.85	14071.30
474.03	14736.01
474.21	14616.65
474.39	14712.61
474.57	14719.63
474.75	15002.83
474.93	14792.19
475.12	14920.92
475.30	15187.74
475.48	14986.45
475.66	15220.50
475.84	15183.06
476.02	15665.21
476.20	15349.23
476.38	15644.14
476.56	15709.68
476.74	15957.77
476.92	15648.82
477.10	15960.11
477.28	15981.18
477.46	16025.65
477.64	16329.92
477.82	16482.05
478.00	17067.19
478.18	16793.34
478.36	16891.65
478.54	16978.25
478.72	16912.71
478.90	17303.58
479.08	17479.12
479.26	17507.21
479.44	17603.17
479.62	17818.50
479.80	17905.10
479.98	18293.63
480.16	18242.14
480.34	18164.90
480.52	18752.37
480.70	18443.42
480.88	18345.12
481.06	18698.54
481.24	19000.47
481.41	18981.74
481.59	19243.88
481.77	19609.01
481.95	19545.81
482.13	19667.52
482.31	19967.11
482.49	20210.53
482.67	20255.00
482.85	20170.74
483.03	20594.37
483.21	20528.84
483.39	21062.48
483.57	21041.42
483.74	20971.20
483.92	21420.58
484.10	21322.28
484.28	21797.41
484.46	21795.07
484.64	22478.50
484.82	21743.58
485.00	21991.67
485.18	22731.28
485.35	22860.01
485.53	23098.75
485.71	22911.50
485.89	23339.82
486.07	23192.37
486.25	22892.78
486.43	23693.24
486.61	24072.41
486.78	24056.03
486.96	24219.86
487.14	24556.90
487.32	24800.32
487.50	24741.80
487.68	25032.03
487.85	24875.21
488.03	25703.76
488.21	25638.23
488.39	25275.45
488.57	26363.79
488.75	26033.78
488.92	26134.42
489.10	27051.91
489.28	26363.79
489.46	27147.87
489.64	26991.06
489.81	27709.60
489.99	27414.69
490.17	27894.50
490.35	28074.73
490.53	27922.59
490.70	28479.64
490.88	28360.27
491.06	28519.43
491.24	28252.61
491.41	29043.71
491.59	29448.62
491.77	29315.21
491.95	29617.14
492.13	29572.67
492.30	29305.85
492.48	29806.72
492.66	29785.66
492.84	30433.99
493.01	30345.05
493.19	30412.92
493.37	30838.90
493.54	31299.98
493.72	31239.13
493.90	31412.33
494.08	31386.58
494.25	32023.21
494.43	31732.98
494.61	32002.14
494.79	32472.59
494.96	32556.85
495.14	32458.55
495.32	32751.12
495.49	32903.25
495.67	33165.39
495.85	33446.26
496.02	33230.93
496.20	34061.82
496.38	34356.72
496.55	33879.25
496.73	34684.40
496.91	34204.59
497.09	34742.91
497.26	34675.04
497.44	34845.90
497.62	35239.11
497.79	35866.37
497.97	35501.25
498.14	35742.32
498.32	36320.43
498.50	35978.72
498.67	35838.28
498.85	36210.43
499.03	36547.47
499.20	36631.72
499.38	36987.49
499.56	37294.10
499.73	36987.49
499.91	37312.82
500.08	37605.39
500.26	37605.39
500.44	37860.51
500.61	37755.18
500.79	37411.12
500.97	37940.08
501.14	38864.60
501.32	38555.64
501.49	38220.95
501.67	38888.00
501.84	38948.85
502.02	38649.27
502.20	38778.00
502.37	39079.92
502.55	39641.65
502.72	39667.40
502.90	39667.40
503.07	39475.48
503.25	39929.54
503.43	39421.64
503.60	39777.40
503.78	40318.07
503.95	40357.86
504.13	40313.39
504.30	40924.27
504.48	40315.73
504.65	40664.47
504.83	41064.70
505.01	41652.17
505.18	41160.66
505.36	41399.40
505.53	41823.03
505.71	41715.37
505.88	41834.74
506.06	41546.85
506.23	41780.90
506.41	41701.32
506.58	42005.59
506.76	42110.92
506.93	42293.48
507.11	42305.18
507.28	42593.07
507.46	42483.06
507.63	42698.39
507.81	43239.06
507.98	42997.98
508.16	42974.58
508.33	43161.82
508.50	43250.76
508.68	43356.08
508.85	43849.94
509.03	43531.62
509.20	44020.80
509.38	44175.27
509.55	44378.90
509.73	44477.20
509.90	44318.04
510.08	44353.15
510.25	44329.75
510.42	44460.82
510.60	45069.36
510.77	44982.76
510.95	45045.95
511.12	45120.85
511.30	45181.70
511.47	45425.12
511.64	45125.53
511.82	45921.31
511.99	45748.11
512.17	45797.26
512.34	45738.75
512.51	46279.41
512.69	46480.70
512.86	45832.37
513.04	46220.90
513.21	46546.23
513.38	46464.32
513.56	47014.34
513.73	46707.73
513.90	46885.61
514.08	47054.13
514.25	47105.62
514.43	47189.88
514.60	47257.76
514.77	47325.63
514.95	47122.01
515.12	47222.65
515.29	47594.79
515.47	47922.47
515.64	48222.06
515.81	48311.00
515.99	48439.73
516.16	48446.75
516.33	48591.86
516.51	48706.55
516.68	48673.78
516.85	48528.67
517.03	48858.68
517.20	48868.05
517.37	48720.59
517.54	48968.69
517.72	48811.87
517.89	49165.29
518.06	49057.63
518.24	49200.40
518.41	49265.94
518.58	49448.50
518.75	48959.33
518.93	49429.77
519.10	49331.47
519.27	49741.06
519.45	49722.34
519.62	49769.15
519.79	49914.26
519.96	49844.05
520.14	49956.39
520.31	50099.17
520.48	50178.75
520.65	50609.40
520.83	50316.84
521.00	50241.94
521.17	50293.43
521.34	50806.01
521.52	50955.80
521.69	50796.65
521.86	51131.34
522.03	50759.20
522.20	51330.29
522.38	51405.19
522.55	51381.78
522.72	51089.21
522.89	51351.35
523.07	51662.64
523.24	51234.33
523.41	51728.18
523.58	51136.02
523.75	51955.21
523.92	51669.67
524.10	51929.47
524.27	52025.43
524.44	51934.15
524.61	52023.09
524.78	51892.02
524.96	52217.35
525.13	52142.45
525.30	52360.12
525.47	52236.08
525.64	52252.46
525.81	52750.99
525.98	52528.64
526.16	52364.81
526.33	52350.76
526.50	52868.02
526.67	52975.69
526.84	52917.17
527.01	52718.23
527.18	52755.68
527.36	53043.56
527.53	53038.88
527.70	53432.09
527.87	53036.54
528.04	53265.91
528.21	53689.55
528.38	53123.14
528.55	53439.11
528.72	53345.49
528.89	53216.76
529.07	53305.70
529.24	53340.81
529.41	53579.54
529.58	53530.39
529.75	53626.35
529.92	53539.75
530.09	53900.20
530.26	53883.81
530.43	54019.56
530.60	53822.96
530.77	53818.28
530.94	53867.43
531.11	54113.19
531.28	53907.22
531.46	54382.35
531.63	54328.52
531.80	54087.44
531.97	54607.04
532.14	54361.28
532.31	54410.43
532.48	54293.41
532.65	54277.02
532.82	54321.49
532.99	54611.72
533.16	54504.06
533.33	54663.21
533.50	54899.61
533.67	54780.24
533.84	54735.77
534.01	54855.14
534.18	54649.17
534.35	55246.00
534.52	54845.77
534.69	55224.94
534.86	55084.51
535.03	54810.67
535.20	55047.06
535.37	55079.83
535.54	55320.90
535.71	55278.77
535.88	55302.18
536.05	55370.05
536.22	55295.16
536.38	55693.05
536.55	55695.39
536.72	55540.91
536.89	55571.34
537.06	55569.00
537.23	55784.33
537.40	55365.37
537.57	55552.62
537.74	55927.10
537.91	55807.73
538.08	55835.82
538.25	55669.64
538.42	55697.73
538.59	56023.06
538.75	55744.54
538.92	55964.55
539.09	55978.59
539.26	55920.08
539.43	55994.98
539.60	56320.31
539.77	56067.53
539.94	56402.23
540.11	56257.12
540.28	56362.44
540.44	56332.01
540.61	56355.42
540.78	56289.88
540.95	56374.14
541.12	56329.67
541.29	56336.69
541.46	56420.95
541.62	56598.83
541.79	56692.46
541.96	56308.61
542.13	56636.28
542.30	56474.79
542.47	56650.33
542.63	56711.18
542.80	56935.87
542.97	56900.76
543.14	56898.42
543.31	57045.88
543.48	57064.60
543.64	57322.06
543.81	57275.25
543.98	57387.60
544.15	57104.39
544.32	57462.49
544.48	57434.41
544.65	57406.32
544.82	57251.84
544.99	57113.75
545.16	57347.81
545.32	57361.85
545.49	57668.46
545.66	57474.20
545.83	57689.52
546.00	57635.69
546.16	57455.47
546.33	57446.11
546.50	57366.53
546.67	57911.88
546.83	57497.60
547.00	57736.34
547.17	57455.47
547.34	57736.34
547.50	57909.53
547.67	58206.78
547.84	58071.03
548.00	57993.79
548.17	58171.67
548.34	58143.59
548.51	58223.17
548.67	58241.89
548.84	58106.14
549.01	58127.20
549.18	58171.67
549.34	58206.78
549.51	58129.54
549.68	58466.58
549.84	58478.28
550.01	58377.64
550.18	58230.19
550.34	58440.84
550.51	58370.62
550.68	58309.77
550.84	58136.57
551.01	58412.75
551.18	58466.58
551.34	58482.97
551.51	58536.80
551.68	58548.50
551.84	58405.73
552.01	58379.98
552.18	58735.74
552.34	58609.35
552.51	58815.32
552.68	58368.28
552.84	58518.07
553.01	58848.09
553.18	58618.72
553.34	58684.25
553.51	58817.66
553.67	58656.17
553.84	58915.96
554.01	58857.45
554.17	58817.66
554.34	59072.78
554.51	58955.75
554.67	59091.51
554.84	59075.12
555.00	58934.69
555.17	59030.65
555.33	58946.39
555.50	58988.52
555.67	58941.71
555.83	59208.53
556.00	59079.80
556.16	59442.59
556.33	59299.81
556.50	59018.95
556.66	59192.15
556.83	58941.71
556.99	59381.73
557.16	59442.59
557.32	59391.09
557.49	59522.16
557.65	59363.01
557.82	59344.28
557.98	59360.67
558.15	59253.00
558.32	59374.71
558.48	59344.28
558.65	59482.37
558.81	59458.97
558.98	59351.30
559.14	59557.27
559.31	59515.14
559.47	59749.20
559.64	59725.79
559.80	59718.77
559.97	59594.72
560.13	59585.36
560.30	59578.34
560.46	59608.76
560.63	59826.43
560.79	59657.91
560.96	59777.28
561.12	59746.86
561.29	59529.19
561.45	59767.92
561.61	59632.17
561.78	59854.52
561.94	59641.53
562.11	59751.54
562.27	59805.37
562.44	60130.70
562.60	59838.14
562.77	59976.23
562.93	59880.27
563.10	60088.57
563.26	59936.44
563.42	60196.24
563.59	60013.68
563.75	59859.20
563.92	59943.46
564.08	59901.33
564.24	59999.63
564.41	60156.45
564.57	60268.79
564.74	59962.18
564.90	60107.30
565.07	60018.36
565.23	60046.44
565.39	60121.34
565.56	60203.26
565.72	59915.37
565.88	59959.84
566.05	60254.75
566.21	60233.69
566.38	60123.68
566.54	60177.51
566.70	60212.62
566.87	60343.69
567.03	60104.96
567.19	60484.12
567.36	60196.24
567.52	60236.03
567.68	60690.09
567.85	60184.54
568.01	60514.55
568.17	60135.38
568.34	60584.77
568.50	60067.51
568.66	60184.54
568.83	60327.31
568.99	60381.14
569.15	60261.77
569.32	60486.46
569.48	60350.71
569.64	60395.18
569.81	60250.07
569.97	60360.08
570.13	60507.53
570.30	60224.32
570.46	60664.35
570.62	60254.75
570.78	60540.30
570.95	60493.49
571.11	60554.34
571.27	60542.64
571.43	60636.26
571.60	60434.97
571.76	60458.38
571.92	60390.50
572.09	60481.78
572.25	60474.76
572.41	60310.92
572.57	60376.46
572.74	60708.82
572.90	60589.45
573.06	60687.75
573.22	60692.43
573.38	60669.03
573.55	60786.05
573.71	60612.85
573.87	60629.24
574.03	60425.61
574.20	60793.07
574.36	60460.72
574.52	60505.19
574.68	60711.16
574.84	60687.75
575.01	60732.22
575.17	60603.49
575.33	60662.00
575.49	60629.24
575.65	60549.66
575.82	60584.77
575.98	60743.92
576.14	60966.27
576.30	60690.09
576.46	60849.25
576.62	60713.50
576.79	60631.58
576.95	60566.04
577.11	60720.52
577.27	60671.37
577.43	60769.67
577.59	60666.69
577.75	60561.36
577.92	60678.39
578.08	60727.54
578.24	60729.88
578.40	60874.99
578.56	60818.82
578.72	60650.30
578.88	60720.52
579.04	60872.65
579.21	60755.63
579.37	60905.42
579.53	61041.17
579.69	60516.89
579.85	60692.43
580.01	60879.67
580.17	60631.58
580.33	60818.82
580.49	60903.08
580.65	61001.38
580.82	60795.42
580.98	60788.39
581.14	60837.54
581.30	60893.72
581.46	60809.46
581.62	60980.32
581.78	60776.69
581.94	60802.44
582.10	60818.82
582.26	60786.05
582.42	60619.88
582.58	60980.32
582.74	60917.12
582.90	60963.93
583.06	61038.83
583.22	60886.70
583.38	60949.89
583.54	60961.59
583.70	60802.44
583.86	61006.06
584.02	60863.29
584.18	60940.53
584.34	60818.82
584.50	60898.40
584.66	60856.27
584.82	60851.59
584.98	61282.25
585.14	61027.13
585.30	60931.17
585.46	60966.27
585.62	61090.32
585.78	61024.79
585.94	60821.16
586.10	61003.72
586.26	60914.78
586.42	61235.44
586.58	61155.86
586.74	60919.46
586.90	60797.76
587.06	60919.46
587.22	61268.20
587.38	60973.30
587.54	61265.86
587.70	61179.26
587.86	60987.34
588.02	60846.91
588.18	61162.88
588.34	61017.77
588.49	61038.83
