SpectraSuite Data File
++++++++++++++++++++++++++++++++++++
Date: Fri Oct 25 10:44:54 EDT 2013
User: price-jones
Dark Spectrum Present: No
Reference Spectrum Present: No
Number of Sampled Component Spectra: 1
Spectrometers: USB2+H05261
Integration Time (usec): 100000 (USB2+H05261)
Spectra Averaged: 1 (USB2+H05261)
Boxcar Smoothing: 0 (USB2+H05261)
Correct for Electrical Dark: No (USB2+H05261)
Strobe/Lamp Enabled: No (USB2+H05261)
Correct for Detector Non-linearity: No (USB2+H05261)
Correct for Stray Light: No (USB2+H05261)
Number of Pixels in Processed Spectrum: 2048
>>>>>Begin Processed Spectral Data<<<<<
365.73	224.69
365.92	224.69
366.12	224.69
366.32	37.45
366.52	0.00
366.72	25.75
366.91	25.75
367.11	16.38
367.31	28.09
367.51	46.81
367.70	11.70
367.90	72.56
368.10	42.13
368.30	46.81
368.49	0.00
368.69	14.04
368.89	93.62
369.09	53.83
369.28	39.79
369.48	42.13
369.68	124.05
369.87	95.96
370.07	14.04
370.27	74.90
370.47	238.73
370.66	313.63
370.86	444.70
371.06	390.87
371.25	475.13
371.45	397.89
371.65	557.05
371.84	482.15
372.04	435.34
372.24	496.19
372.44	477.47
372.63	475.13
372.83	470.45
373.03	486.83
373.22	468.11
373.42	498.53
373.62	430.66
373.81	491.51
374.01	622.58
374.21	526.62
374.40	500.87
374.60	524.28
374.79	557.05
374.99	564.07
375.19	484.49
375.38	573.43
375.58	599.18
375.78	554.71
375.97	587.47
376.17	610.88
376.37	566.41
376.56	533.64
376.76	564.07
376.95	557.05
377.15	627.26
377.35	603.86
377.54	645.99
377.74	610.88
377.93	589.82
378.13	573.43
378.33	615.56
378.52	648.33
378.72	627.26
378.91	655.35
379.11	699.82
379.31	580.45
379.50	575.77
379.70	674.07
379.89	662.37
380.09	702.16
380.28	631.94
380.48	674.07
380.68	629.60
380.87	650.67
381.07	620.24
381.26	655.35
381.46	730.25
381.65	723.23
381.85	636.63
382.04	702.16
382.24	746.63
382.43	671.73
382.63	622.58
382.83	697.48
383.02	704.50
383.22	795.78
383.41	650.67
383.61	662.37
383.80	711.52
384.00	739.61
384.19	674.07
384.39	814.51
384.58	650.67
384.78	765.36
384.97	772.38
385.17	683.44
385.36	713.86
385.56	734.93
385.75	772.38
385.95	641.31
386.14	772.38
386.34	826.21
386.53	870.68
386.72	793.44
386.92	772.38
387.11	800.46
387.31	786.42
387.50	781.74
387.70	823.87
387.89	779.40
388.09	809.83
388.28	905.79
388.48	851.96
388.67	884.72
388.86	802.80
389.06	858.98
389.25	903.45
389.45	870.68
389.64	868.34
389.84	938.55
390.03	983.02
390.22	987.71
390.42	973.66
390.61	898.77
390.81	896.43
391.00	908.13
391.19	1020.47
391.39	940.90
391.58	931.53
391.78	990.05
391.97	968.98
392.16	1039.20
392.36	1006.43
392.55	929.19
392.75	952.60
392.94	877.70
393.13	1095.37
393.33	873.02
393.52	947.92
393.71	945.58
393.91	1022.81
394.10	1034.52
394.29	954.94
394.49	1025.15
394.68	1104.73
394.88	1029.84
395.07	1107.07
395.26	1027.50
395.46	1135.16
395.65	1125.80
395.84	1151.54
396.04	1163.25
396.23	1139.84
396.42	1165.59
396.62	1130.48
396.81	1076.65
397.00	1210.06
397.19	1139.84
397.39	1252.19
397.58	1247.51
397.77	1224.10
397.97	1322.40
398.16	1188.99
398.35	1275.59
398.55	1203.04
398.74	1287.29
398.93	1334.11
399.12	1291.98
399.32	1317.72
399.51	1327.08
399.70	1359.85
399.90	1357.51
400.09	1308.36
400.28	1511.99
400.47	1409.00
400.67	1406.66
400.86	1406.66
401.05	1437.09
401.24	1416.02
401.44	1483.90
401.63	1502.62
401.82	1467.52
402.01	1481.56
402.21	1526.03
402.40	1439.43
402.59	1500.28
402.78	1558.80
402.97	1495.60
403.17	1586.88
403.36	1591.56
403.55	1540.07
403.74	1629.01
403.93	1664.12
404.13	1673.48
404.32	1643.06
404.51	1631.35
404.70	1722.63
404.89	1689.87
405.09	1771.79
405.28	1710.93
405.47	1626.67
405.66	1703.91
405.85	1720.29
406.05	1694.55
406.24	1764.76
406.43	1839.66
406.62	1781.15
406.81	1877.11
407.00	1788.17
407.20	1923.92
407.39	1823.28
407.58	1879.45
407.77	1891.15
407.96	2012.86
408.15	1874.77
408.34	1923.92
408.54	1961.37
408.73	1987.11
408.92	2003.50
409.11	2069.03
409.30	2003.50
409.49	2085.42
409.68	2085.42
409.87	2069.03
410.07	2146.27
410.26	2207.13
410.45	2165.00
410.64	2062.01
410.83	2232.87
411.02	2211.81
411.21	2267.98
411.40	2258.62
411.59	2251.60
411.78	2359.26
411.98	2342.88
412.17	2326.49
412.36	2298.41
412.55	2443.52
412.74	2312.45
412.93	2399.05
413.12	2410.75
413.31	2558.21
413.50	2422.45
413.69	2511.39
413.88	2670.55
414.07	2640.12
414.26	2654.17
414.45	2736.09
414.64	2658.85
414.83	2726.72
415.02	2773.53
415.22	2794.60
415.41	2808.64
415.60	2754.81
415.79	2871.84
415.98	2855.45
416.17	2920.99
416.36	2813.32
416.55	2913.97
416.74	2841.41
416.93	2913.97
417.12	2977.16
417.31	2876.52
417.50	2895.24
417.69	3162.06
417.88	3052.06
418.07	3023.97
418.26	2995.89
418.45	3110.57
418.64	3297.81
418.83	3243.98
419.02	3183.13
419.21	3206.53
419.39	3157.38
419.58	3232.28
419.77	3199.51
419.96	3234.62
420.15	3129.30
420.34	3243.98
420.53	3269.73
420.72	3365.69
420.91	3316.54
421.10	3421.86
421.29	3485.06
421.48	3459.31
421.67	3412.50
421.86	3433.57
422.05	3426.54
422.24	3433.57
422.43	3461.65
422.61	3475.70
422.80	3562.30
422.99	3529.53
423.18	3468.67
423.37	3517.83
423.56	3508.46
423.75	3550.59
423.94	3496.76
424.13	3288.45
424.32	3403.14
424.50	3625.49
424.69	3609.11
424.88	3672.30
425.07	3494.42
425.26	3536.55
425.45	3602.08
425.64	3538.89
425.83	3501.44
426.01	3602.08
426.20	3543.57
426.39	3637.19
426.58	3634.85
426.77	3487.40
426.96	3506.12
427.15	3508.46
427.33	3686.34
427.52	3679.32
427.71	3646.55
427.90	3684.00
428.09	3679.32
428.28	3768.26
428.46	3735.50
428.65	3705.07
428.84	3943.80
429.03	3829.12
429.22	3775.28
429.40	3817.41
429.59	3756.56
429.78	3658.26
429.97	3658.26
430.16	3716.77
430.34	3871.25
430.53	3957.85
430.72	3908.69
430.91	3871.25
431.10	3983.59
431.28	3967.21
431.47	4149.77
431.66	4102.96
431.85	4025.72
432.03	4301.90
432.22	4344.03
432.41	4292.54
432.60	4126.36
432.79	4079.55
432.97	4231.69
433.16	4208.28
433.35	4152.11
433.54	4241.05
433.72	4224.67
433.91	4124.02
434.10	4278.50
434.28	4259.78
434.47	4367.44
434.66	4463.40
434.85	4320.63
435.03	4510.21
435.22	4409.57
435.41	4458.72
435.59	4545.32
435.78	4606.17
435.97	4550.00
436.16	4475.10
436.34	4557.02
436.53	4751.29
436.72	4805.12
436.90	4526.60
437.09	4734.90
437.28	4489.15
437.46	4681.07
437.65	4585.11
437.84	4662.35
438.02	4704.48
438.21	4683.41
438.40	4636.60
438.58	4823.84
438.77	4830.87
438.96	4854.27
439.14	4950.23
439.33	4919.81
439.52	5081.30
439.70	5137.48
439.89	5158.54
440.08	5184.29
440.26	5235.78
440.45	5149.18
440.63	5263.86
440.82	5284.93
441.01	5364.51
441.19	5446.43
441.38	5514.30
441.57	5397.28
441.75	5535.37
441.94	5708.57
442.12	5593.88
442.31	5547.07
442.50	5568.13
442.68	5689.84
442.87	5565.79
443.05	5832.62
443.24	5905.17
443.43	5837.30
443.61	5788.14
443.80	5928.58
443.98	5746.02
444.17	5561.11
444.35	5832.62
444.54	5916.87
444.73	5839.64
444.91	5937.94
445.10	5769.42
445.28	5767.08
445.47	5776.44
445.65	5654.73
445.84	6017.52
446.02	5949.64
446.21	5968.37
446.39	5874.74
446.58	5832.62
446.77	5895.81
446.95	5692.18
447.14	5795.17
447.32	5907.51
447.51	5951.98
447.69	5916.87
447.88	5930.92
448.06	5895.81
448.25	5935.60
448.43	5970.71
448.62	6052.63
448.80	5907.51
448.99	6118.16
449.17	6115.82
449.36	5919.21
449.54	6340.51
449.73	6338.17
449.91	6263.27
450.10	6143.91
450.28	6431.79
450.46	6380.30
450.65	6410.73
450.83	6483.28
451.02	6380.30
451.20	6565.20
451.39	6459.88
451.57	6480.94
451.76	6258.59
451.94	6586.27
452.13	6513.71
452.31	6197.74
452.49	6375.62
452.68	6464.56
452.86	6499.67
453.05	6539.46
453.23	6392.00
453.42	6504.35
453.60	6422.43
453.78	6630.74
453.97	6492.65
454.15	6682.23
454.34	6576.91
454.52	6874.15
454.70	6874.15
454.89	6906.92
455.07	6703.29
455.26	6810.96
455.44	6991.18
455.62	6913.94
455.81	6881.18
455.99	6967.77
456.17	6995.86
456.36	7138.63
456.54	6946.71
456.73	7082.46
456.91	7386.73
457.09	7042.67
457.28	7396.09
457.46	7241.62
457.64	7185.44
457.83	7335.24
458.01	7105.87
458.19	7342.26
458.38	7459.29
458.56	7447.58
458.74	7417.16
458.93	7396.09
459.11	7419.50
459.29	7358.64
459.48	7503.76
459.66	7548.23
459.84	7662.91
460.03	7634.83
460.21	7449.93
460.39	7808.03
460.57	7609.08
460.76	7901.65
460.94	7955.48
461.12	7744.83
461.31	7833.77
461.49	7648.87
461.67	7606.74
461.85	7686.32
462.04	7641.85
462.22	8023.36
462.40	7922.71
462.59	7868.88
462.77	7943.78
462.95	8105.28
463.13	7929.74
463.32	7936.76
463.50	8121.66
463.68	8187.19
463.86	8112.30
464.05	8128.68
464.23	7953.14
464.41	8430.61
464.59	8016.33
464.78	8315.92
464.96	8163.79
465.14	8072.51
465.32	8367.42
465.50	8304.22
465.69	8418.91
465.87	8313.58
466.05	8329.97
466.23	8409.54
466.41	8393.16
466.60	8603.81
466.78	8259.75
466.96	8430.61
467.14	8496.14
467.32	8498.49
467.51	8617.85
467.69	8402.52
467.87	8627.21
468.05	8594.45
468.23	8388.48
468.41	8643.60
468.60	8559.34
468.78	8582.74
468.96	8758.28
469.14	8788.71
469.32	8835.52
469.50	8491.46
469.69	8814.46
469.87	8863.61
470.05	8769.99
470.23	9170.22
470.41	8725.52
470.59	9139.79
470.77	8858.93
470.95	9135.11
471.14	9121.07
471.32	9067.24
471.50	9357.46
471.68	9125.75
471.86	9184.26
472.04	9142.13
472.22	9364.48
472.40	9322.35
472.58	9523.64
472.77	9570.45
472.95	9530.66
473.13	10001.11
473.31	9570.45
473.49	9820.89
473.67	9577.47
473.85	9626.62
474.03	9991.75
474.21	9975.36
474.39	10057.28
474.57	10169.63
474.75	10162.61
474.93	10078.35
475.12	10186.01
475.30	10242.18
475.48	10099.41
475.66	10399.00
475.84	10143.88
476.02	10317.08
476.20	10406.02
476.38	10485.60
476.56	10696.25
476.74	10778.17
476.92	10782.85
477.10	10710.29
477.28	11012.22
477.46	10824.98
477.64	11171.38
477.82	11372.66
478.00	11454.58
478.18	11494.37
478.36	11468.62
478.54	11531.82
478.72	11770.55
478.90	11751.83
479.08	11698.00
479.26	11854.81
479.44	11824.39
479.62	12177.81
479.80	12070.14
479.98	12142.70
480.16	12358.03
480.34	12194.19
480.52	12346.33
480.70	12610.81
480.88	12208.23
481.06	12690.38
481.24	12561.66
481.41	12800.39
481.59	13008.70
481.77	13090.62
481.95	13172.54
482.13	13205.30
482.31	13291.90
482.49	13722.56
482.67	13500.21
482.85	13404.25
483.03	13607.87
483.21	13996.40
483.39	13804.48
483.57	13991.72
483.74	14047.90
483.92	14223.44
484.10	14078.32
484.28	14822.61
484.46	14604.94
484.64	14923.26
484.82	14607.28
485.00	14773.46
485.18	15084.75
485.35	15377.32
485.53	14895.17
485.71	15091.77
485.89	15227.53
486.07	15227.53
486.25	15557.54
486.43	15279.02
486.61	16006.92
486.78	16025.65
486.96	15943.73
487.14	16140.33
487.32	16423.54
487.50	16594.40
487.68	16664.61
487.85	16737.17
488.03	16947.82
488.21	17097.61
488.39	16791.00
488.57	17146.76
488.75	17219.32
488.92	17649.98
489.10	17509.55
489.28	17624.23
489.46	18113.41
489.64	17844.24
489.81	18291.29
489.99	18434.06
490.17	18457.46
490.35	18679.82
490.53	18462.15
490.70	18853.02
490.88	18728.97
491.06	18864.72
491.24	18902.17
491.41	19019.19
491.59	18853.02
491.77	19056.64
491.95	19634.75
492.13	19641.78
492.30	19983.49
492.48	19803.27
492.66	20023.28
492.84	20161.37
493.01	20374.36
493.19	19896.89
493.37	20463.30
493.54	20596.71
493.72	20594.37
493.90	20587.35
494.08	21078.86
494.25	20940.77
494.43	21001.63
494.61	21422.92
494.79	21509.52
494.96	21343.35
495.14	21668.68
495.32	22017.42
495.49	21944.86
495.67	22040.82
495.85	22157.85
496.02	22071.25
496.20	22295.94
496.38	22270.20
496.55	22764.05
496.73	23161.94
496.91	22860.01
497.09	22993.42
497.26	22731.28
497.44	22937.25
497.62	22991.08
497.79	23016.83
497.97	23152.58
498.14	23246.20
498.32	23400.68
498.50	23922.62
498.67	24009.22
498.85	23915.59
499.03	23922.62
499.20	24500.73
499.38	24060.71
499.56	24474.98
499.73	24482.00
499.91	24388.38
500.08	24259.65
500.26	24135.60
500.44	24898.62
500.61	24613.07
500.79	24603.71
500.97	24889.26
501.14	25071.82
501.32	25092.88
501.49	25083.52
501.67	25081.18
501.84	25331.62
502.02	25563.33
502.20	25743.55
502.37	25813.77
502.55	25764.62
502.72	25907.39
502.90	26103.99
503.07	25710.78
503.25	26115.70
503.43	25912.07
503.60	26085.27
503.78	26099.31
503.95	26391.88
504.13	26272.51
504.30	26396.56
504.48	26199.96
504.65	26649.34
504.83	26703.17
505.01	27147.87
505.18	26871.69
505.36	27211.07
505.53	27159.58
505.71	27620.66
505.88	27552.79
506.06	26923.18
506.23	27178.30
506.41	27557.47
506.58	27274.26
506.76	27552.79
506.93	27498.95
507.11	27772.80
507.28	27662.79
507.46	28025.57
507.63	27768.12
507.81	28170.69
507.98	27819.61
508.16	27840.67
508.33	28243.24
508.50	28306.44
508.68	28549.85
508.85	28744.12
509.03	28542.83
509.20	28851.78
509.38	28739.44
509.55	29228.61
509.73	28961.79
509.90	28973.49
510.08	28907.96
510.25	29376.06
510.42	29310.53
510.60	29317.55
510.77	29476.71
510.95	29991.62
511.12	29663.95
511.30	30033.75
511.47	29933.11
511.64	29717.78
511.82	30391.86
511.99	29518.84
512.17	30153.12
512.34	29839.49
512.51	30480.80
512.69	30518.25
512.86	30740.60
513.04	30590.80
513.21	31063.59
513.38	30745.28
513.56	30604.84
513.73	30441.01
513.90	30876.35
514.08	30801.45
514.25	31019.12
514.43	30778.04
514.60	30803.79
514.77	31014.44
514.95	31400.63
515.12	31309.35
515.29	31405.31
515.47	31901.50
515.64	31688.51
515.81	31321.05
515.99	31304.67
516.16	31688.51
516.33	31651.06
516.51	31473.18
516.68	31646.38
516.85	31496.59
517.03	31580.85
517.20	32091.09
517.37	32016.19
517.54	32233.86
517.72	32116.83
517.89	32275.99
518.06	31929.59
518.24	31882.78
518.41	32147.26
518.58	32381.31
518.75	32486.64
518.93	32563.87
519.10	32828.35
519.27	32835.38
519.45	32659.84
519.62	32910.27
519.79	33106.88
519.96	32833.04
520.14	33205.18
520.31	33104.54
520.48	33542.22
520.65	33017.94
520.83	33516.47
521.00	33706.05
521.17	33617.11
521.34	33862.87
521.52	33984.58
521.69	33984.58
521.86	34000.96
522.03	33769.25
522.20	34019.69
522.38	33961.17
522.55	34272.46
522.72	34237.36
522.89	34108.63
523.07	34429.28
523.24	34134.37
523.41	34518.22
523.58	34565.03
523.75	34976.97
523.92	34471.41
524.10	34717.17
524.27	35154.85
524.44	35152.51
524.61	35096.33
524.78	35475.50
524.96	35035.48
525.13	35278.89
525.30	35545.72
525.47	35400.60
525.64	35503.59
525.81	35185.27
525.98	35035.48
526.16	35332.73
526.33	35194.64
526.50	35569.12
526.67	35208.68
526.84	35189.95
527.01	35402.94
527.18	35744.66
527.36	35819.56
527.53	36130.85
527.70	36400.01
527.87	36467.89
528.04	35775.09
528.21	35721.26
528.38	36224.47
528.55	36442.14
528.72	36484.27
528.89	36348.52
529.07	36350.86
529.24	36098.08
529.41	36290.01
529.58	36261.92
529.75	36282.98
529.92	36680.88
530.09	36498.31
530.26	36650.45
530.43	37277.71
530.60	36818.97
530.77	36446.82
530.94	37354.95
531.11	36992.17
531.28	37453.25
531.46	37247.29
531.63	37401.76
531.80	37261.33
531.97	37413.46
532.14	37326.86
532.31	37081.11
532.48	37165.37
532.65	37731.78
532.82	37404.10
532.99	37750.50
533.16	37041.32
533.33	37310.48
533.50	37724.75
533.67	37572.62
533.84	37801.99
534.01	37811.35
534.18	37961.15
534.35	38106.26
534.52	37860.51
534.69	38396.49
534.86	38260.74
535.03	38000.94
535.20	38511.17
535.37	38314.57
535.54	38562.67
535.71	38050.09
535.88	38333.29
536.05	38431.60
536.22	38691.40
536.38	38602.46
536.55	38464.36
536.72	38572.03
536.89	38443.30
537.06	38349.68
537.23	38747.57
537.40	38541.60
537.57	38946.51
537.74	38773.31
537.91	38960.56
538.08	38916.09
538.25	38504.15
538.42	38792.04
538.59	39716.55
538.75	38644.59
538.92	39023.75
539.09	39145.46
539.26	38930.13
539.43	39253.12
539.60	39012.05
539.77	39030.77
539.94	39267.17
540.11	38981.62
540.28	39412.28
540.44	39646.33
540.61	39264.83
540.78	39398.24
540.95	39812.51
541.12	39768.04
541.29	39262.49
541.46	39332.70
541.62	39852.30
541.79	39875.71
541.96	39517.60
542.13	39487.18
542.30	39573.78
542.47	39864.00
542.63	39917.84
542.80	40105.08
542.97	40409.35
543.14	40538.08
543.31	40364.88
543.48	40098.06
543.64	40666.81
543.81	40896.18
543.98	40692.55
544.15	40395.31
544.32	41027.25
544.48	41261.30
544.65	40603.61
544.82	40758.09
544.99	40493.61
545.16	40912.56
545.32	40657.45
545.49	40821.28
545.66	40968.74
545.83	41045.97
546.00	40825.96
546.16	41045.97
546.33	40783.83
546.50	40418.71
546.67	41034.27
546.83	40577.87
547.00	41036.61
547.17	40898.52
547.34	41099.81
547.50	41163.00
547.67	41303.43
547.84	41193.43
548.00	41502.38
548.17	41649.83
548.34	41808.99
548.51	41481.31
548.67	41642.81
548.84	41862.82
549.01	41785.58
549.18	41392.37
549.34	41668.56
549.51	41439.18
549.68	41691.96
549.84	41619.41
550.01	41813.67
550.18	41825.37
550.34	41895.59
550.51	41933.04
550.68	41748.14
550.84	41265.99
551.01	42036.02
551.18	42047.72
551.34	41544.51
551.51	42527.53
551.68	42078.15
551.84	42045.38
552.01	41942.40
552.18	42061.77
552.34	42103.90
552.51	42241.99
552.68	41738.77
552.84	42564.98
553.01	42436.25
553.18	42237.31
553.34	42204.54
553.51	42195.18
553.67	42471.36
553.84	42550.94
554.01	42735.84
554.17	42525.19
554.34	42653.92
554.51	42424.55
554.67	42862.23
554.84	42569.66
555.00	42817.76
555.17	42773.29
555.33	42471.36
555.50	42298.16
555.67	42775.63
555.83	42674.99
556.00	43028.41
556.16	43009.68
556.33	43122.03
556.50	42988.62
556.66	43201.61
556.83	42646.90
556.99	43225.01
557.16	42990.96
557.32	43358.42
557.49	43297.57
557.65	42719.46
557.82	42770.95
557.98	43124.37
558.15	42887.98
558.32	43295.23
558.48	42857.55
558.65	42866.91
558.81	42733.50
558.98	42927.77
559.14	43213.31
559.31	43007.34
559.47	43196.93
559.64	43358.42
559.80	43555.03
559.97	43421.62
560.13	43267.14
560.30	43246.08
560.46	43620.56
560.63	43683.76
560.79	43438.00
560.96	43758.66
561.12	43756.32
561.29	43363.11
561.45	43311.61
561.61	43044.79
561.78	43372.47
561.94	43196.93
562.11	43274.16
562.27	43482.47
562.44	43405.23
562.60	43758.66
562.77	43583.12
562.93	43421.62
563.10	43936.54
563.26	43255.44
563.42	43587.80
563.59	43601.84
563.75	43601.84
563.92	43517.58
564.08	43924.83
564.24	43861.64
564.41	43889.73
564.57	43732.91
564.74	43452.05
564.90	43915.47
565.07	43697.80
565.23	43491.83
565.39	43540.99
565.56	43866.32
565.72	43468.43
565.88	44027.82
566.05	43990.37
566.21	43990.37
566.38	43920.15
566.54	44121.44
566.70	44238.47
566.87	44460.82
567.03	43966.96
567.19	44371.88
567.36	44285.28
567.52	44055.90
567.68	43978.67
567.85	44023.14
568.01	43903.77
568.17	44301.66
568.34	43981.01
568.50	43536.30
568.66	43868.66
568.83	44041.86
568.99	43529.28
569.15	43578.43
569.32	43871.00
569.48	43936.54
569.64	44411.67
569.81	44268.89
569.97	44264.21
570.13	44362.51
570.30	44069.95
570.46	43849.94
570.62	43861.64
570.78	44058.24
570.95	44233.78
571.11	44320.38
571.27	44020.80
571.43	43892.07
571.60	43784.40
571.76	44388.26
571.92	44135.48
572.09	44339.11
572.25	43751.63
572.41	44282.94
572.57	44002.07
572.74	44449.11
572.90	44428.05
573.06	44158.89
573.22	44575.50
573.38	43896.75
573.55	44177.61
573.71	44353.15
573.87	44023.14
574.03	44215.06
574.20	44186.97
574.36	44027.82
574.52	44645.72
574.68	44563.80
574.84	44404.64
575.01	44484.22
575.17	44416.35
575.33	44086.33
575.49	44023.14
575.65	44404.64
575.82	44016.11
575.98	44397.62
576.14	44594.23
576.30	44488.90
576.46	44102.71
576.62	44289.96
576.79	44374.22
576.95	44100.37
577.11	44467.84
577.27	44350.81
577.43	44392.94
577.59	44137.82
577.75	44069.95
577.92	44083.99
578.08	43945.90
578.24	44430.39
578.40	44250.17
578.56	44142.50
578.72	44046.54
578.88	44837.64
579.04	44746.36
579.21	44346.13
579.37	44421.03
579.53	44629.34
579.69	44519.33
579.85	44196.34
580.01	44493.58
580.17	44156.55
580.33	44505.29
580.49	44439.75
580.65	44285.28
580.82	44524.01
580.98	44100.37
581.14	44442.09
581.30	44671.46
581.46	44662.10
581.62	44502.95
581.78	44601.25
581.94	45235.53
582.10	44524.01
582.26	44617.63
582.42	44378.90
582.58	44535.71
582.74	44535.71
582.90	44409.32
583.06	44746.36
583.22	44720.62
583.38	44893.82
583.54	44341.45
583.70	44636.36
583.86	44423.37
584.02	44219.74
584.18	44697.21
584.34	44205.70
584.50	44278.25
584.66	44378.90
584.82	44706.57
584.98	44563.80
585.14	44648.06
585.30	44528.69
585.46	44612.95
585.62	44524.01
585.78	44343.79
585.94	44170.59
586.10	44404.64
586.26	44509.97
586.42	44886.79
586.58	44722.96
586.74	44514.65
586.90	44783.81
587.06	44177.61
587.22	44184.63
587.38	44397.62
587.54	44837.64
587.70	44275.91
587.86	44502.95
588.02	44699.55
588.18	44772.11
588.34	44610.61
588.49	44282.94
588.65	43782.06
588.81	44313.36
588.97	44479.54
589.13	44243.15
589.29	44435.07
589.45	44416.35
589.61	44526.35
589.77	44622.31
589.93	44978.07
590.08	45198.09
590.24	44636.36
