SpectraSuite Data File
++++++++++++++++++++++++++++++++++++
Date: Fri Oct 25 11:26:23 EDT 2013
User: price-jones
Dark Spectrum Present: No
Reference Spectrum Present: No
Number of Sampled Component Spectra: 1
Spectrometers: USB2+H05261
Integration Time (usec): 100000 (USB2+H05261)
Spectra Averaged: 1 (USB2+H05261)
Boxcar Smoothing: 0 (USB2+H05261)
Correct for Electrical Dark: No (USB2+H05261)
Strobe/Lamp Enabled: No (USB2+H05261)
Correct for Detector Non-linearity: No (USB2+H05261)
Correct for Stray Light: No (USB2+H05261)
Number of Pixels in Processed Spectrum: 2048
>>>>>Begin Processed Spectral Data<<<<<
365.73	287.89
365.92	287.89
366.12	287.89
366.32	191.92
366.52	182.56
366.72	88.94
366.91	154.48
367.11	159.16
367.31	163.84
367.51	168.52
367.70	147.45
367.90	182.56
368.10	168.52
368.30	168.52
368.49	166.18
368.69	245.76
368.89	177.88
369.09	191.92
369.28	205.97
369.48	175.54
369.68	114.69
369.87	194.26
370.07	278.52
370.27	238.73
370.47	294.91
370.66	493.85
370.86	683.44
371.06	613.22
371.25	674.07
371.45	681.10
371.65	634.29
371.84	664.71
372.04	692.80
372.24	781.74
372.44	695.14
372.63	765.36
372.83	718.54
373.03	779.40
373.22	709.18
373.42	828.55
373.62	758.33
373.81	758.33
374.01	800.46
374.21	800.46
374.40	798.12
374.60	833.23
374.79	751.31
374.99	851.96
375.19	826.21
375.38	807.48
375.58	866.00
375.78	875.36
375.97	929.19
376.17	908.13
376.37	835.57
376.56	849.61
376.76	901.11
376.95	840.25
377.15	884.72
377.35	896.43
377.54	933.87
377.74	990.05
377.93	882.38
378.13	976.00
378.33	952.60
378.52	933.87
378.72	905.79
378.91	938.55
379.11	952.60
379.31	936.21
379.50	908.13
379.70	1011.11
379.89	1022.81
380.09	959.62
380.28	961.96
380.48	985.37
380.68	915.15
380.87	938.55
381.07	1015.79
381.26	1050.90
381.46	1050.90
381.65	1022.81
381.85	987.71
382.04	917.49
382.24	1048.56
382.43	1064.94
382.63	1008.77
382.83	985.37
383.02	1111.75
383.22	1118.78
383.41	1046.22
383.61	1104.73
383.80	1095.37
384.00	1142.18
384.19	1048.56
384.39	1130.48
384.58	1053.24
384.78	1102.39
384.97	1212.40
385.17	1128.14
385.36	1107.07
385.56	1090.69
385.75	1172.61
385.95	1184.31
386.14	1128.14
386.34	1212.40
386.53	1275.59
386.72	1217.08
386.92	1233.46
387.11	1179.63
387.31	1177.29
387.50	1179.63
387.70	1221.76
387.89	1266.23
388.09	1252.19
388.28	1275.59
388.48	1228.78
388.67	1378.58
388.86	1273.25
389.06	1303.68
389.25	1287.29
389.45	1263.89
389.64	1376.24
389.84	1345.81
390.03	1371.55
390.22	1420.71
390.42	1418.36
390.61	1322.40
390.81	1409.00
391.00	1362.19
391.19	1511.99
391.39	1376.24
391.58	1359.85
391.78	1432.41
391.97	1383.26
392.16	1437.09
392.36	1575.18
392.55	1598.59
392.75	1558.80
392.94	1516.67
393.13	1528.37
393.33	1511.99
393.52	1558.80
393.71	1586.88
393.91	1502.62
394.10	1607.95
394.29	1612.63
394.49	1521.35
394.68	1617.31
394.88	1640.72
395.07	1762.42
395.26	1701.57
395.46	1661.78
395.65	1727.32
395.84	1760.08
396.04	1813.92
396.23	1788.17
396.42	1682.85
396.62	1671.14
396.81	1764.76
397.00	1790.51
397.19	1748.38
397.39	1839.66
397.58	1886.47
397.77	1771.79
397.97	1884.13
398.16	1916.90
398.35	1856.04
398.55	1867.75
398.74	1909.88
398.93	1928.60
399.12	1886.47
399.32	1914.56
399.51	1900.52
399.70	1994.14
399.90	1879.45
400.09	1907.54
400.28	2069.03
400.47	1996.48
400.67	1952.01
400.86	2062.01
401.05	2043.29
401.24	2111.16
401.44	2125.21
401.63	2143.93
401.82	2200.10
402.01	2160.31
402.21	2019.88
402.40	2106.48
402.59	2162.66
402.78	2204.78
402.97	2263.30
403.17	2207.13
403.36	2218.83
403.55	2354.58
403.74	2356.92
403.93	2455.22
404.13	2356.92
404.32	2256.28
404.51	2305.43
404.70	2385.01
404.89	2401.39
405.09	2387.35
405.28	2321.81
405.47	2410.75
405.66	2487.99
405.85	2415.43
406.05	2459.90
406.24	2487.99
406.43	2492.67
406.62	2616.72
406.81	2576.93
407.00	2579.27
407.20	2602.68
407.39	2696.30
407.58	2647.15
407.77	2612.04
407.96	2808.64
408.15	2771.19
408.34	2747.79
408.54	2703.32
408.73	2775.88
408.92	2825.03
409.11	2754.81
409.30	2670.55
409.49	2832.05
409.68	2928.01
409.87	2916.31
410.07	3026.31
410.26	2949.08
410.45	2925.67
410.64	3056.74
410.83	2846.09
411.02	2890.56
411.21	3101.21
411.40	3136.32
411.59	3225.26
411.78	3286.11
411.98	3178.45
412.17	3199.51
412.36	3274.41
412.55	3375.05
412.74	3449.95
412.93	3440.59
413.12	3267.39
413.31	3431.23
413.50	3424.20
413.69	3517.83
413.88	3651.24
414.07	3438.25
414.26	3662.94
414.45	3599.74
414.64	3552.93
414.83	3658.26
415.02	3812.73
415.22	3784.65
415.41	3747.20
415.60	3749.54
415.79	3779.97
415.98	3904.01
416.17	3941.46
416.36	3962.53
416.55	4018.70
416.74	4065.51
416.93	4147.43
417.12	3992.95
417.31	4161.47
417.50	4210.62
417.69	4283.18
417.88	4257.43
418.07	4201.26
418.26	4346.37
418.45	4327.65
418.64	4456.38
418.83	4386.16
419.02	4465.74
419.21	4388.50
419.39	4402.55
419.58	4458.72
419.77	4475.10
419.96	4662.35
420.15	4615.54
420.34	4615.54
420.53	4610.86
420.72	4596.81
420.91	4730.22
421.10	4603.83
421.29	4671.71
421.48	4566.39
421.67	4870.65
421.86	4718.52
422.05	4676.39
422.24	4793.42
422.43	4734.90
422.61	4767.67
422.80	4727.88
422.99	4954.91
423.18	4968.96
423.37	5069.60
423.56	4896.40
423.75	4910.44
423.94	4772.35
424.13	4594.47
424.32	4622.56
424.50	5085.98
424.69	5025.13
424.88	5081.30
425.07	4990.02
425.26	4922.15
425.45	4889.38
425.64	4891.72
425.83	4933.85
426.01	5036.83
426.20	5114.07
426.39	4954.91
426.58	4908.10
426.77	5062.58
426.96	5128.11
427.15	5069.60
427.33	5029.81
427.52	5238.12
427.71	5387.91
427.90	5226.42
428.09	5144.50
428.28	5284.93
428.46	5322.38
428.65	5245.14
428.84	5474.51
429.03	5589.20
429.22	5294.29
429.40	5413.66
429.59	5420.68
429.78	5322.38
429.97	5111.73
430.16	5385.57
430.34	5607.92
430.53	5479.19
430.72	5687.50
430.91	5451.11
431.10	5565.79
431.28	5626.65
431.47	5689.84
431.66	5729.63
431.85	5568.13
432.03	5834.96
432.22	5905.17
432.41	5841.98
432.60	5905.17
432.79	5825.59
432.97	5799.85
433.16	5865.38
433.35	5856.02
433.54	5954.32
433.72	6043.26
433.91	6057.31
434.10	6132.20
434.28	5853.68
434.47	6057.31
434.66	6331.15
434.85	6296.04
435.03	6223.48
435.22	6230.51
435.41	6478.60
435.59	6230.51
435.78	6317.11
435.97	6466.90
436.16	6347.53
436.34	6333.49
436.53	6370.94
436.72	6656.48
436.90	6487.96
437.09	6548.82
437.28	6485.62
437.46	6502.01
437.65	6567.54
437.84	6850.75
438.02	6637.76
438.21	6609.67
438.40	6684.57
438.58	6946.71
438.77	6956.07
438.96	6808.62
439.14	7007.56
439.33	7103.53
439.52	7176.08
439.70	7119.91
439.89	7070.76
440.08	7269.70
440.26	7098.84
440.45	7375.03
440.63	7358.64
440.82	7522.48
441.01	7438.22
441.19	7428.86
441.38	7826.75
441.57	7492.05
441.75	7875.90
441.94	7866.54
442.12	7868.88
442.31	7967.18
442.50	7990.59
442.68	7953.14
442.87	7960.16
443.05	7948.46
443.24	8196.56
443.43	7955.48
443.61	8021.02
443.80	8486.78
443.98	8060.80
444.17	7740.15
444.35	8175.49
444.54	8212.94
444.73	8142.72
444.91	8297.20
445.10	8276.13
445.28	8243.37
445.47	8236.35
445.65	8116.98
445.84	8404.86
446.02	8306.56
446.21	8306.56
446.39	8306.56
446.58	8442.31
446.77	8290.18
446.95	8266.77
447.14	8407.20
447.32	8528.91
447.51	8526.57
447.69	8477.42
447.88	8388.48
448.06	8521.89
448.25	8360.39
448.43	8549.98
448.62	8524.23
448.80	8617.85
448.99	8730.20
449.17	8671.68
449.36	8486.78
449.54	8765.31
449.73	8957.23
449.91	8945.53
450.10	8882.33
450.28	9092.98
450.46	8894.04
450.65	8800.41
450.83	8971.27
451.02	9111.71
451.20	9116.39
451.39	9078.94
451.57	9130.43
451.76	9125.75
451.94	9224.05
452.13	9399.59
452.31	9170.22
452.49	9186.60
452.68	9242.78
452.86	9254.48
453.05	9247.46
453.23	9483.85
453.42	9362.14
453.60	9256.82
453.78	9355.12
453.97	9394.91
454.15	9327.03
454.34	9420.66
454.52	9593.86
454.70	9497.89
454.89	9600.88
455.07	9518.96
455.26	9628.96
455.44	9989.41
455.62	9797.48
455.81	9816.21
455.99	9933.23
456.17	10001.11
456.36	9933.23
456.54	10050.26
456.73	10413.04
456.91	10239.84
457.09	10249.21
457.28	10478.58
457.46	10579.22
457.64	10281.97
457.83	10457.51
458.01	10370.91
458.19	10761.78
458.38	10338.15
458.56	10670.50
458.74	10588.58
458.93	10569.86
459.11	10651.78
459.29	10523.05
459.48	10803.91
459.66	10834.34
459.84	10810.93
460.03	10974.77
460.21	10860.09
460.39	10747.74
460.57	10981.79
460.76	11042.65
460.94	11197.12
461.12	11112.86
461.31	11082.44
461.49	11068.39
461.67	11204.14
461.85	11117.54
462.04	11208.83
462.22	11716.72
462.40	11356.28
462.59	11431.18
462.77	11431.18
462.95	11541.18
463.13	11566.93
463.32	11410.11
463.50	11665.23
463.68	11592.67
463.86	11929.71
464.05	11494.37
464.23	11587.99
464.41	11815.02
464.59	11716.72
464.78	12376.75
464.96	12142.70
465.14	11871.20
465.32	11941.41
465.50	12002.27
465.69	12095.89
465.87	11838.43
466.05	12074.82
466.23	12152.06
466.41	12351.01
466.60	12538.25
466.78	12135.68
466.96	12332.28
467.14	12168.45
467.32	12280.79
467.51	12318.24
467.69	11978.86
467.87	12407.18
468.05	12442.29
468.23	12255.04
468.41	12194.19
468.60	12608.47
468.78	12774.64
468.96	12395.48
469.14	12683.36
469.32	12950.18
469.50	12713.79
469.69	12767.62
469.87	12980.61
470.05	13123.38
470.23	12842.52
470.41	12865.92
470.59	13184.24
470.77	13392.55
470.95	12905.71
471.14	13392.55
471.32	13135.09
471.50	13294.24
471.68	13444.04
471.86	13551.70
472.04	13668.73
472.22	13727.24
472.40	13774.05
472.58	13764.69
472.77	13940.23
472.95	13841.93
473.13	14485.58
473.31	14136.84
473.49	14193.01
473.67	14022.15
473.85	14052.58
474.03	14354.51
474.21	14380.25
474.39	14626.01
474.57	14850.70
474.75	14593.24
474.93	15040.28
475.12	14836.66
475.30	14951.34
475.48	15019.22
475.66	15183.06
475.84	15131.56
476.02	15318.81
476.20	15082.41
476.38	15538.82
476.56	15756.49
476.74	15810.32
476.92	15784.57
477.10	15639.46
477.28	15995.22
477.46	16105.23
477.64	16210.55
477.82	16304.17
478.00	16835.47
478.18	16437.58
478.36	16952.50
478.54	17036.76
478.72	16933.78
478.90	17256.77
479.08	17275.49
479.26	17640.62
479.44	17345.71
479.62	17549.34
479.80	17802.11
479.98	17816.16
480.16	18342.78
480.34	18022.12
480.52	18576.83
480.70	18625.98
480.88	18342.78
481.06	18429.38
481.24	18504.28
481.41	18930.25
481.59	19012.17
481.77	19271.97
481.95	19707.31
482.13	19346.87
482.31	19847.74
482.49	20074.77
482.67	20013.92
482.85	20074.77
483.03	20599.05
483.21	20491.39
483.39	20634.16
483.57	20987.58
483.74	20926.73
483.92	21010.99
484.10	21006.31
484.28	21497.82
484.46	21902.73
484.64	22129.77
484.82	21778.68
485.00	22078.27
485.18	22314.67
485.35	22611.92
485.53	22466.80
485.71	22759.37
485.89	23328.12
486.07	22911.50
486.25	23077.68
486.43	23253.22
486.61	23749.42
486.78	23889.85
486.96	24105.18
487.14	24217.52
487.32	24507.75
487.50	24575.62
487.68	24699.67
487.85	24912.66
488.03	25439.28
488.21	25546.95
488.39	26015.05
488.57	26059.52
488.75	25696.74
488.92	26038.46
489.10	26609.55
489.28	26609.55
489.46	26934.88
489.64	26527.63
489.81	27297.67
489.99	27447.46
490.17	27566.83
490.35	27557.47
490.53	27917.91
490.70	28243.24
490.88	28032.60
491.06	28676.24
491.24	28554.54
491.41	28704.33
491.59	28980.51
491.77	29132.65
491.95	29390.11
492.13	29589.05
492.30	29900.34
492.48	30012.69
492.66	30258.45
492.84	29809.06
493.01	30356.75
493.19	30377.81
493.37	30426.96
493.54	30714.85
493.72	31030.82
493.90	31349.14
494.08	31353.82
494.25	32009.17
494.43	32224.50
494.61	32020.87
494.79	32081.72
494.96	32189.39
495.14	32589.62
495.32	32921.98
495.49	32961.76
495.67	33010.92
495.85	33036.66
496.02	33464.98
496.20	33818.40
496.38	33844.15
496.55	33930.75
496.73	34684.40
496.91	34548.65
497.09	34728.87
497.26	34373.11
497.44	34230.33
497.62	34988.67
497.79	35445.07
497.97	35438.05
498.14	35438.05
498.32	35959.99
498.50	35901.48
498.67	36121.49
498.85	36053.61
499.03	36268.94
499.20	36154.26
499.38	36928.97
499.56	36753.43
499.73	36821.31
499.91	36928.97
500.08	36870.46
500.26	37127.92
500.44	36954.72
500.61	37376.01
500.79	37385.38
500.97	37851.14
501.14	37975.19
501.32	38330.95
501.49	38319.25
501.67	38127.33
501.84	38649.27
502.02	38513.52
502.20	38670.33
502.37	39154.82
502.55	38850.55
502.72	38768.63
502.90	39524.63
503.07	39271.85
503.25	39791.45
503.43	40105.08
503.60	39503.56
503.78	40172.96
503.95	39814.85
504.13	39770.38
504.30	40439.78
504.48	40196.36
504.65	40142.53
504.83	40694.89
505.01	40837.67
505.18	41113.85
505.36	41429.82
505.53	40641.06
505.71	41067.04
505.88	41303.43
506.06	41195.77
506.23	41710.69
506.41	41233.22
506.58	41928.36
506.76	42316.89
506.93	41827.71
507.11	41876.86
507.28	42693.71
507.46	42277.10
507.63	42691.37
507.81	42691.37
507.98	42604.77
508.16	42677.33
508.33	42834.14
508.50	43126.71
508.68	43360.76
508.85	43412.26
509.03	43672.06
509.20	43629.93
509.38	44184.63
509.55	43831.21
509.73	44360.17
509.90	44687.85
510.08	44498.26
510.25	44086.33
510.42	44346.13
510.60	45027.23
510.77	44781.47
510.95	45443.84
511.12	44737.00
511.30	44917.22
511.47	44875.09
511.64	45261.28
511.82	45282.34
511.99	45434.48
512.17	45610.02
512.34	45661.51
512.51	45954.08
512.69	46190.47
512.86	46401.12
513.04	46436.23
513.21	46412.82
513.38	46770.93
513.56	46515.81
513.73	46534.53
513.90	46691.35
514.08	46202.18
514.25	47028.38
514.43	46969.87
514.60	47051.79
514.77	47297.55
514.95	47585.43
515.12	47442.66
515.29	47159.45
515.47	47562.03
515.64	48039.50
515.81	47217.97
515.99	47749.27
516.16	47938.85
516.33	47817.14
516.51	48287.59
516.68	48224.40
516.85	48224.40
517.03	48371.85
517.20	48662.08
517.37	48191.63
517.54	48715.91
517.72	48715.91
517.89	48598.88
518.06	49401.69
518.24	48748.68
518.41	49169.97
518.58	48807.19
518.75	49148.91
518.93	49305.73
519.10	48779.10
519.27	49411.05
519.45	49574.89
519.62	49666.17
519.79	49701.28
519.96	49736.38
520.14	49911.92
520.31	49558.50
520.48	50021.93
520.65	49949.37
520.83	50520.46
521.00	50342.58
521.17	50607.06
521.34	50045.33
521.52	50761.54
521.69	50529.83
521.86	50401.10
522.03	50436.20
522.20	51189.86
522.38	50897.29
522.55	51037.72
522.72	50913.67
522.89	50979.21
523.07	51002.61
523.24	51239.01
523.41	51320.93
523.58	51079.85
523.75	51524.55
523.92	51468.38
524.10	51643.92
524.27	51608.81
524.44	51889.68
524.61	51969.26
524.78	52097.98
524.96	51735.20
525.13	51990.32
525.30	52039.47
525.47	52048.83
525.64	52133.09
525.81	52540.35
525.98	52236.08
526.16	52205.65
526.33	52299.27
526.50	52402.25
526.67	52526.30
526.84	52699.50
527.01	52521.62
527.18	52512.26
527.36	52879.72
527.53	52287.57
527.70	53055.26
527.87	53169.95
528.04	52739.29
528.21	53464.86
528.38	52996.75
528.55	53322.08
528.72	53081.01
528.89	53167.61
529.07	52907.81
529.24	53176.97
529.41	53380.60
529.58	53338.47
529.75	53492.94
529.92	53598.27
530.09	53722.32
530.26	53785.51
530.43	53874.45
530.60	53471.88
530.77	53794.87
530.94	53897.86
531.11	53708.27
531.28	53925.94
531.46	53799.55
531.63	53853.39
531.80	53956.37
531.97	54157.66
532.14	54113.19
532.31	53900.20
532.48	54340.22
532.65	54372.99
532.82	54361.28
532.99	54419.80
533.16	54527.46
533.33	54663.21
533.50	54623.42
533.67	54815.35
533.84	54508.74
534.01	54492.35
534.18	54672.57
534.35	54937.05
534.52	54918.33
534.69	54969.82
534.86	55014.29
535.03	54864.50
535.20	54813.01
535.37	55213.24
535.54	55037.70
535.71	55100.89
535.88	55203.88
536.05	55302.18
536.22	55447.29
536.38	55463.67
536.55	55381.76
536.72	55339.63
536.89	55213.24
537.06	55384.10
537.23	55496.44
537.40	55377.08
537.57	55540.91
537.74	55524.53
537.91	55728.16
538.08	55601.77
538.25	55641.56
538.42	55763.26
538.59	55725.81
538.75	55777.31
538.92	55632.19
539.09	56126.05
539.26	55676.66
539.43	55812.41
539.60	55880.29
539.77	56142.43
539.94	56205.62
540.11	56030.08
540.28	56037.11
540.44	56020.72
540.61	56168.18
540.78	56009.02
540.95	56018.38
541.12	56170.52
541.29	56196.26
541.46	56128.39
541.62	56502.87
541.79	56231.37
541.96	56016.04
542.13	56523.94
542.30	56327.33
542.47	56472.45
542.63	56823.53
542.80	56640.96
542.97	56868.00
543.14	56893.74
543.31	56928.85
543.48	56865.66
543.64	57190.99
543.81	57312.70
543.98	57436.75
544.15	57027.15
544.32	57024.81
544.48	57315.04
544.65	57228.44
544.82	57354.83
544.99	57106.73
545.16	57293.97
545.32	57214.40
545.49	57602.92
545.66	57492.92
545.83	57432.07
546.00	57425.04
546.16	57385.25
546.33	57329.08
546.50	57137.16
546.67	57504.62
546.83	57174.61
547.00	57326.74
547.17	57361.85
547.34	57553.77
547.50	57975.07
547.67	58010.18
547.84	57954.00
548.00	57869.75
548.17	57977.41
548.34	57918.90
548.51	58188.06
548.67	58152.95
548.84	57956.35
549.01	57834.64
549.18	57918.90
549.34	58035.92
549.51	58108.48
549.68	57984.43
549.84	58052.31
550.01	58028.90
550.18	58014.86
550.34	58101.46
550.51	58447.86
550.68	58176.36
550.84	58122.52
551.01	58356.58
551.18	58365.94
551.34	58314.45
551.51	58473.60
551.68	58302.74
551.84	58363.60
552.01	58120.18
552.18	58508.71
552.34	58166.99
552.51	58298.06
552.68	58375.30
552.84	58440.84
553.01	58803.62
553.18	58644.46
553.34	58733.40
553.51	58518.07
553.67	58681.91
553.84	58773.19
554.01	58700.64
554.17	58752.13
554.34	58733.40
554.51	58841.07
554.67	58752.13
554.84	58894.90
555.00	58777.87
555.17	58773.19
555.33	58672.55
555.50	58742.77
555.67	58717.02
555.83	58698.30
556.00	58820.00
556.16	59220.23
556.33	58983.84
556.50	58836.39
556.66	59201.51
556.83	58925.33
556.99	59021.29
557.16	59330.24
557.32	59407.48
557.49	59302.15
557.65	59077.46
557.82	59393.43
557.98	59161.72
558.15	59044.69
558.32	59138.32
558.48	59140.66
558.65	59316.20
558.81	59222.58
558.98	59430.88
559.14	59203.85
559.31	59344.28
559.47	59587.70
559.64	59407.48
559.80	59725.79
559.97	59554.93
560.13	59489.40
560.30	59468.33
560.46	59545.57
560.63	59629.83
560.79	59798.35
560.96	59700.04
561.12	59615.79
561.29	59756.22
561.45	59760.90
561.61	59524.50
561.78	59522.16
561.94	59484.72
562.11	59477.69
562.27	59859.20
562.44	59704.73
562.60	59929.42
562.77	59784.30
562.93	59653.23
563.10	60046.44
563.26	59803.03
563.42	60027.72
563.59	59894.31
563.75	59718.77
563.92	59875.58
564.08	59728.13
564.24	60037.08
564.41	59810.05
564.57	59854.52
564.74	59934.10
564.90	59641.53
565.07	59891.97
565.23	60158.79
565.39	59906.01
565.56	60121.34
565.72	60100.28
565.88	59922.40
566.05	59943.46
566.21	60037.08
566.38	59990.27
566.54	59903.67
566.70	60013.68
566.87	60161.13
567.03	59964.52
567.19	60147.09
567.36	60083.89
567.52	60282.84
567.68	60348.37
567.85	59964.52
568.01	60093.25
568.17	60013.68
568.34	60133.04
568.50	60133.04
568.66	60126.02
568.83	60111.98
568.99	59985.59
569.15	60353.05
569.32	60163.47
569.48	60027.72
569.64	60378.80
569.81	60142.41
569.97	59924.74
570.13	60172.83
570.30	60142.41
570.46	60226.66
570.62	60170.49
570.78	60217.30
570.95	60224.32
571.11	60327.31
571.27	60299.22
571.43	60238.37
571.60	60411.57
571.76	60453.70
571.92	60250.07
572.09	60402.21
572.25	60310.92
572.41	60355.39
572.57	60406.89
572.74	60456.04
572.90	60516.89
573.06	60317.95
573.22	60479.44
573.38	60329.65
573.55	60402.21
573.71	60652.64
573.87	60460.72
574.03	60385.82
574.20	60479.44
574.36	60346.03
574.52	60687.75
574.68	60430.29
574.84	60381.14
575.01	60605.83
575.17	60523.91
575.33	60329.65
575.49	60294.54
575.65	60474.76
575.82	60622.22
575.98	60570.72
576.14	60732.22
576.30	60603.49
576.46	60388.16
576.62	60472.42
576.79	60666.69
576.95	60186.88
577.11	60589.45
577.27	60540.30
577.43	60570.72
577.59	60671.37
577.75	60591.79
577.92	60463.06
578.08	60533.28
578.24	60589.45
578.40	60774.35
578.56	60631.58
578.72	60640.94
578.88	60835.20
579.04	61078.62
579.21	60631.58
579.37	60666.69
579.53	60786.05
579.69	60456.04
579.85	60692.43
580.01	60491.15
580.17	60420.93
580.33	60617.53
580.49	60788.39
580.65	60493.49
580.82	60739.24
580.98	60509.87
581.14	60669.03
581.30	60814.14
581.46	60587.11
581.62	60807.12
581.78	60638.60
581.94	60521.57
582.10	60608.17
582.26	60680.73
582.42	60505.19
582.58	60708.82
582.74	60755.63
582.90	60741.58
583.06	60725.20
583.22	60720.52
583.38	60764.99
583.54	60809.46
583.70	60903.08
583.86	60746.26
584.02	60687.75
584.18	60849.25
584.34	60650.30
584.50	60701.79
584.66	60584.77
584.82	60591.79
584.98	60963.93
585.14	60872.65
585.30	60781.37
585.46	60963.93
585.62	60811.80
585.78	60865.63
585.94	60554.34
586.10	60509.87
586.26	60711.16
586.42	60917.12
586.58	60860.95
586.74	60816.48
586.90	60865.63
587.06	60598.81
587.22	60837.54
587.38	60680.73
587.54	60961.59
587.70	60872.65
587.86	60912.44
588.02	60977.98
588.18	60945.21
588.34	60608.17
588.49	60865.63
