SpectraSuite Data File
++++++++++++++++++++++++++++++++++++
Date: Fri Oct 25 11:33:53 EDT 2013
User: price-jones
Dark Spectrum Present: No
Reference Spectrum Present: No
Number of Sampled Component Spectra: 1
Spectrometers: USB2+H05261
Integration Time (usec): 100000 (USB2+H05261)
Spectra Averaged: 1 (USB2+H05261)
Boxcar Smoothing: 0 (USB2+H05261)
Correct for Electrical Dark: No (USB2+H05261)
Strobe/Lamp Enabled: No (USB2+H05261)
Correct for Detector Non-linearity: No (USB2+H05261)
Correct for Stray Light: No (USB2+H05261)
Number of Pixels in Processed Spectrum: 2048
>>>>>Begin Processed Spectral Data<<<<<
365.73	306.61
365.92	306.61
366.12	306.61
366.32	147.45
366.52	133.41
366.72	191.92
366.91	201.29
367.11	128.73
367.31	203.63
367.51	201.29
367.70	224.69
367.90	224.69
368.10	114.69
368.30	196.60
368.49	173.20
368.69	220.01
368.89	196.60
369.09	119.37
369.28	224.69
369.48	248.10
369.68	292.57
369.87	191.92
370.07	248.10
370.27	198.95
370.47	301.93
370.66	503.22
370.86	498.53
371.06	524.28
371.25	538.32
371.45	510.24
371.65	603.86
371.84	566.41
372.04	557.05
372.24	580.45
372.44	592.16
372.63	613.22
372.83	484.49
373.03	580.45
373.22	634.29
373.42	601.52
373.62	547.69
373.81	610.88
374.01	603.86
374.21	638.97
374.40	599.18
374.60	662.37
374.79	653.01
374.99	681.10
375.19	648.33
375.38	692.80
375.58	664.71
375.78	692.80
375.97	655.35
376.17	648.33
376.37	634.29
376.56	648.33
376.76	674.07
376.95	671.73
377.15	678.76
377.35	692.80
377.54	685.78
377.74	641.31
377.93	674.07
378.13	711.52
378.33	760.67
378.52	645.99
378.72	741.95
378.91	669.39
379.11	716.20
379.31	734.93
379.50	779.40
379.70	814.51
379.89	702.16
380.09	779.40
380.28	638.97
380.48	727.91
380.68	688.12
380.87	667.05
381.07	777.06
381.26	664.71
381.46	751.31
381.65	809.83
381.85	830.89
382.04	791.10
382.24	814.51
382.43	809.83
382.63	725.57
382.83	711.52
383.02	809.83
383.22	826.21
383.41	847.27
383.61	854.30
383.80	770.04
384.00	786.42
384.19	784.08
384.39	816.85
384.58	713.86
384.78	737.27
384.97	821.53
385.17	840.25
385.36	880.04
385.56	887.06
385.75	772.38
385.95	866.00
386.14	842.59
386.34	854.30
386.53	819.19
386.72	858.98
386.92	919.83
387.11	908.13
387.31	856.64
387.50	781.74
387.70	875.36
387.89	866.00
388.09	854.30
388.28	947.92
388.48	910.47
388.67	877.70
388.86	889.40
389.06	891.74
389.25	849.61
389.45	973.66
389.64	933.87
389.84	961.96
390.03	1004.09
390.22	954.94
390.42	1060.26
390.61	882.38
390.81	1008.77
391.00	992.39
391.19	966.64
391.39	990.05
391.58	1015.79
391.78	987.71
391.97	1071.97
392.16	933.87
392.36	1034.52
392.55	1146.86
392.75	1036.86
392.94	1090.69
393.13	1008.77
393.33	1022.81
393.52	1111.75
393.71	1025.15
393.91	1074.31
394.10	1086.01
394.29	1093.03
394.49	1071.97
394.68	1146.86
394.88	1207.72
395.07	1069.62
395.26	1186.65
395.46	1121.12
395.65	1160.91
395.84	1170.27
396.04	1280.27
396.23	1109.41
396.42	1226.44
396.62	1158.57
396.81	1210.06
397.00	1191.33
397.19	1228.78
397.39	1188.99
397.58	1275.59
397.77	1217.08
397.97	1205.38
398.16	1181.97
398.35	1268.57
398.55	1320.06
398.74	1284.95
398.93	1231.12
399.12	1235.80
399.32	1364.53
399.51	1343.47
399.70	1357.51
399.90	1306.02
400.09	1320.06
400.28	1451.13
400.47	1310.70
400.67	1296.66
400.86	1397.30
401.05	1380.92
401.24	1460.49
401.44	1437.09
401.63	1427.73
401.82	1399.64
402.01	1455.81
402.21	1547.09
402.40	1479.22
402.59	1483.90
402.78	1544.75
402.97	1554.12
403.17	1469.86
403.36	1486.24
403.55	1558.80
403.74	1542.41
403.93	1614.97
404.13	1640.72
404.32	1638.38
404.51	1621.99
404.70	1633.69
404.89	1703.91
405.09	1687.53
405.28	1699.23
405.47	1661.78
405.66	1664.12
405.85	1689.87
406.05	1708.59
406.24	1806.89
406.43	1788.17
406.62	1762.42
406.81	1783.49
407.00	1764.76
407.20	1741.36
407.39	1724.97
407.58	1809.23
407.77	1774.13
407.96	1895.83
408.15	1877.11
408.34	1870.09
408.54	1888.81
408.73	1842.00
408.92	1834.98
409.11	1933.28
409.30	1816.26
409.49	1973.07
409.68	2029.24
409.87	2010.52
410.07	1942.64
410.26	2010.52
410.45	2050.31
410.64	2022.22
410.83	2076.06
411.02	2160.31
411.21	2141.59
411.40	2150.95
411.59	2186.06
411.78	2221.17
411.98	2113.50
412.17	2230.53
412.36	2331.17
412.55	2202.44
412.74	2424.80
412.93	2331.17
413.12	2368.62
413.31	2363.94
413.50	2490.33
413.69	2300.75
413.88	2553.52
414.07	2380.32
414.26	2445.86
414.45	2373.30
414.64	2434.16
414.83	2574.59
415.02	2495.01
415.22	2609.70
415.41	2532.46
415.60	2597.99
415.79	2642.46
415.98	2885.88
416.17	2708.00
416.36	2715.02
416.55	2871.84
416.74	2766.51
416.93	2717.36
417.12	2794.60
417.31	2913.97
417.50	2775.88
417.69	3063.76
417.88	2848.43
418.07	2928.01
418.26	2935.03
418.45	2965.46
418.64	3122.27
418.83	3026.31
419.02	3052.06
419.21	3166.74
419.39	3192.49
419.58	3033.33
419.77	3077.80
419.96	3162.06
420.15	3335.26
420.34	3243.98
420.53	3248.66
420.72	3187.81
420.91	3213.56
421.10	3337.60
421.29	3325.90
421.48	3239.30
421.67	3368.03
421.86	3260.37
422.05	3222.92
422.24	3269.73
422.43	3290.79
422.61	3330.58
422.80	3309.52
422.99	3276.75
423.18	3447.61
423.37	3489.74
423.56	3452.29
423.75	3410.16
423.94	3393.78
424.13	3201.85
424.32	3311.86
424.50	3361.01
424.69	3438.25
424.88	3426.54
425.07	3431.23
425.26	3323.56
425.45	3428.88
425.64	3290.79
425.83	3522.51
426.01	3442.93
426.20	3449.95
426.39	3590.38
426.58	3428.88
426.77	3428.88
426.96	3574.00
427.15	3461.65
427.33	3508.46
427.52	3489.74
427.71	3475.70
427.90	3599.74
428.09	3613.79
428.28	3604.42
428.46	3887.63
428.65	3627.83
428.84	3810.39
429.03	3737.84
429.22	3557.61
429.40	3768.26
429.59	3784.65
429.78	3676.98
429.97	3569.32
430.16	3815.07
430.34	3651.24
430.53	3892.31
430.72	3950.82
430.91	3962.53
431.10	3894.65
431.28	3871.25
431.47	4051.47
431.66	4016.36
431.85	3885.29
432.03	4126.36
432.22	4117.00
432.41	4025.72
432.60	3974.23
432.79	4105.30
432.97	4051.47
433.16	4210.62
433.35	3981.25
433.54	4091.26
433.72	4217.65
433.91	4058.49
434.10	4224.67
434.28	4161.47
434.47	4215.30
434.66	4290.20
434.85	4271.48
435.03	4442.34
435.22	4318.29
435.41	4421.27
435.59	4430.63
435.78	4367.44
435.97	4458.72
436.16	4329.99
436.34	4416.59
436.53	4428.29
436.72	4456.38
436.90	4423.61
437.09	4451.70
437.28	4479.79
437.46	4594.47
437.65	4554.68
437.84	4582.77
438.02	4545.32
438.21	4512.55
438.40	4526.60
438.58	4613.20
438.77	4765.33
438.96	4648.30
439.14	4718.52
439.33	4791.08
439.52	4865.97
439.70	4870.65
439.89	5050.88
440.08	5137.48
440.26	4837.89
440.45	4926.83
440.63	5046.20
440.82	5170.24
441.01	5008.75
441.19	5142.16
441.38	5069.60
441.57	5135.14
441.75	5174.92
441.94	5390.25
442.12	5467.49
442.31	5542.39
442.50	5469.83
442.68	5263.86
442.87	5315.36
443.05	5350.46
443.24	5526.00
443.43	5371.53
443.61	5516.64
443.80	5703.89
443.98	5509.62
444.17	5383.23
444.35	5504.94
444.54	5612.60
444.73	5633.67
444.91	5575.16
445.10	5671.12
445.28	5685.16
445.47	5680.48
445.65	5547.07
445.84	5678.14
446.02	5699.20
446.21	5657.07
446.39	5746.02
446.58	5678.14
446.77	5654.73
446.95	5586.86
447.14	5682.82
447.32	5717.93
447.51	5755.38
447.69	5654.73
447.88	5680.48
448.06	5802.19
448.25	5647.71
448.43	5851.34
448.62	5706.23
448.80	5844.32
448.99	5757.72
449.17	6097.10
449.36	5928.58
449.54	5853.68
449.73	6038.58
449.91	5905.17
450.10	6104.12
450.28	6284.34
450.46	6160.29
450.65	6197.74
450.83	6108.80
451.02	6047.94
451.20	6223.48
451.39	6195.40
451.57	6122.84
451.76	6195.40
451.94	6120.50
452.13	6136.88
452.31	6307.74
452.49	6249.23
452.68	6228.17
452.86	6373.28
453.05	6394.34
453.23	6476.26
453.42	6331.15
453.60	6209.44
453.78	6352.21
453.97	6274.98
454.15	6448.18
454.34	6157.95
454.52	6466.90
454.70	6513.71
454.89	6516.05
455.07	6525.41
455.26	6530.09
455.44	6558.18
455.62	6684.57
455.81	6494.99
455.99	6743.08
456.17	6754.79
456.36	6696.27
456.54	6916.28
456.73	6773.51
456.91	6960.75
457.09	7042.67
457.28	7115.23
457.46	6892.88
457.64	7145.66
457.83	7007.56
458.01	6993.52
458.19	7295.45
458.38	7052.03
458.56	7126.93
458.74	7105.87
458.93	7047.35
459.11	7124.59
459.29	7316.51
459.48	7279.07
459.66	7176.08
459.84	7267.36
460.03	7520.14
460.21	7304.81
460.39	7389.07
460.57	7330.56
460.76	7407.80
460.94	7531.84
461.12	7555.25
461.31	7353.96
461.49	7410.14
461.67	7522.48
461.85	7569.29
462.04	7623.12
462.22	8065.49
462.40	7751.85
462.59	7702.70
462.77	7735.47
462.95	7669.94
463.13	7861.86
463.32	7744.83
463.50	8009.31
463.68	7901.65
463.86	8065.49
464.05	7672.28
464.23	7861.86
464.41	7906.33
464.59	7850.16
464.78	7962.50
464.96	7873.56
465.14	7789.30
465.32	7911.01
465.50	8102.93
465.69	8109.96
465.87	8053.78
466.05	8105.28
466.23	8152.09
466.41	8238.69
466.60	8458.70
466.78	8182.51
466.96	8304.22
467.14	8152.09
467.32	8051.44
467.51	8273.79
467.69	8173.15
467.87	8383.80
468.05	8327.63
468.23	8547.64
468.41	8170.81
468.60	8582.74
468.78	8535.93
468.96	8477.42
469.14	8542.96
469.32	8713.81
469.50	8320.60
469.69	8662.32
469.87	8692.75
470.05	8762.97
470.23	8648.28
470.41	8716.16
470.59	8917.44
470.77	8929.14
470.95	8940.85
471.14	9025.11
471.32	8868.29
471.50	9020.42
471.68	9055.53
471.86	8887.01
472.04	9191.28
472.22	9345.76
472.40	9195.96
472.58	9385.55
472.77	9256.82
472.95	9188.94
473.13	9502.58
473.31	9254.48
473.49	9268.52
473.67	9336.40
473.85	9542.36
474.03	9706.20
474.21	9717.90
474.39	9741.31
474.57	9818.55
474.75	9877.06
474.93	9881.74
475.12	9825.57
475.30	9963.66
475.48	9968.34
475.66	10150.90
475.84	10087.71
476.02	10228.14
476.20	10136.86
476.38	10490.28
476.56	10600.29
476.74	10586.24
476.92	10289.00
477.10	10394.32
477.28	10778.17
477.46	10724.33
477.64	10939.66
477.82	10846.04
478.00	11248.61
478.18	11204.14
478.36	11154.99
478.54	11405.43
478.72	11412.45
478.90	11447.56
479.08	11531.82
479.26	11758.85
479.44	11548.20
479.62	11602.04
479.80	11786.94
479.98	12065.46
480.16	12170.79
480.34	12081.85
480.52	12119.29
480.70	12182.49
480.88	12245.68
481.06	12388.46
481.24	12294.83
481.41	12496.12
481.59	12819.11
481.77	12786.35
481.95	12732.51
482.13	12898.69
482.31	12828.48
482.49	13263.82
482.67	13074.23
482.85	13261.48
483.03	13287.22
483.21	13659.37
483.39	13898.10
483.57	13832.57
483.74	14045.55
483.92	13820.86
484.10	13949.59
484.28	14422.38
484.46	14504.30
484.64	14530.05
484.82	14181.31
485.00	14480.89
485.18	14714.95
485.35	14984.11
485.53	15051.99
485.71	15091.77
485.89	15300.08
486.07	15414.77
486.25	15325.83
486.43	15503.71
486.61	15538.82
486.78	15854.79
486.96	15536.48
487.14	15817.34
487.32	15997.56
487.50	16624.83
487.68	16299.49
487.85	16751.21
488.03	16634.19
488.21	17132.72
488.39	16905.69
488.57	17069.53
488.75	16924.41
488.92	17097.61
489.10	17539.97
489.28	17261.45
489.46	17577.42
489.64	17500.19
489.81	17914.46
489.99	18061.91
490.17	18101.70
490.35	18317.03
490.53	18354.48
490.70	18574.49
490.88	18581.51
491.06	18661.09
491.24	18920.89
491.41	19091.75
491.59	19461.55
491.77	19300.06
491.95	19360.91
492.13	19606.67
492.30	19548.15
492.48	19494.32
492.66	19555.18
492.84	19850.08
493.01	20013.92
493.19	20255.00
493.37	20470.33
493.54	20318.19
493.72	20418.83
493.90	20542.88
494.08	20737.15
494.25	20957.16
494.43	20819.07
494.61	21139.72
494.79	21228.66
494.96	20973.54
495.14	21198.23
495.32	21954.22
495.49	21699.11
495.67	21813.79
495.85	22075.93
496.02	21797.41
496.20	22202.32
496.38	22434.03
496.55	22324.03
496.73	22801.50
496.91	22766.39
497.09	22719.58
497.26	22752.35
497.44	22630.64
497.62	23157.26
497.79	22944.27
497.97	23494.30
498.14	23183.01
498.32	23351.52
498.50	23637.07
498.67	23625.37
498.85	23756.44
499.03	24025.60
499.20	24271.36
499.38	24009.22
499.56	24238.59
499.73	24159.01
499.91	24608.39
500.08	24435.19
500.26	24547.54
500.44	24236.25
500.61	24493.71
500.79	24594.35
500.97	25317.57
501.14	24812.02
501.32	25191.19
501.49	25116.29
501.67	25268.42
501.84	25415.88
502.02	25345.66
502.20	25369.07
502.37	25703.76
502.55	25895.69
502.72	26120.38
502.90	25458.01
503.07	25652.27
503.25	26263.15
503.43	25703.76
503.60	26129.74
503.78	26235.06
503.95	26108.68
504.13	26300.60
504.30	26345.07
504.48	26569.76
504.65	26513.59
504.83	27072.98
505.01	27051.91
505.18	26721.90
505.36	27187.66
505.53	26618.91
505.71	27192.34
505.88	27285.97
506.06	27220.43
506.23	27786.84
506.41	27419.38
506.58	27641.73
506.76	27606.62
506.93	28166.01
507.11	27632.36
507.28	28423.47
507.46	28156.64
507.63	27917.91
507.81	28362.61
507.98	28306.44
508.16	28460.91
508.33	28453.89
508.50	28594.32
508.68	28711.35
508.85	28802.63
509.03	28830.72
509.20	28669.22
509.38	29268.40
509.55	28961.79
509.73	29207.55
509.90	28980.51
510.08	29652.25
510.25	29134.99
510.42	29015.62
510.60	29869.92
510.77	29638.20
510.95	29750.55
511.12	29535.22
511.30	29549.26
511.47	30375.47
511.64	30246.74
511.82	29989.28
511.99	30190.57
512.17	30377.81
512.34	30183.55
512.51	30733.57
512.69	30859.96
512.86	30761.66
513.04	31037.84
513.21	31098.70
513.38	31145.51
513.56	30808.47
513.73	31096.36
513.90	30656.34
514.08	31346.79
514.25	31246.15
514.43	31037.84
514.60	31503.61
514.77	31271.90
514.95	31892.14
515.12	31634.68
515.29	31573.83
515.47	31866.39
515.64	32081.72
515.81	31714.26
515.99	31842.99
516.16	32180.03
516.33	31868.73
516.51	32093.43
516.68	31639.36
516.85	32528.77
517.03	32833.04
517.20	32491.32
517.37	32556.85
517.54	32519.40
517.72	33113.90
517.89	32613.02
518.06	32732.39
518.24	32926.66
518.41	32788.56
518.58	32886.87
518.75	33109.22
518.93	33088.15
519.10	33097.52
519.27	32999.21
519.45	32737.07
519.62	33762.23
519.79	33687.33
519.96	33715.42
520.14	33769.25
520.31	33610.09
520.48	33933.09
520.65	34080.54
520.83	34323.96
521.00	34579.07
521.17	33874.57
521.34	34380.13
521.52	34717.17
521.69	34359.06
521.86	34478.43
522.03	34288.85
522.20	34604.82
522.38	34904.41
522.55	34735.89
522.72	34958.24
522.89	34752.27
523.07	35498.91
523.24	35019.10
523.41	35461.46
523.58	34855.26
523.75	35295.28
523.92	35145.48
524.10	35679.13
524.27	35599.55
524.44	35335.07
524.61	35379.54
524.78	36116.81
524.96	35985.74
525.13	35871.05
525.30	35997.44
525.47	35929.56
525.64	35967.01
525.81	36093.40
525.98	36388.31
526.16	35634.66
526.33	36039.57
526.50	36685.56
526.67	36514.70
526.84	36591.94
527.01	36484.27
527.18	36378.95
527.36	36624.70
527.53	36900.89
527.70	37053.02
527.87	36793.22
528.04	36694.92
528.21	37106.85
528.38	36793.22
528.55	37354.95
528.72	37053.02
528.89	37046.00
529.07	37001.53
529.24	37041.32
529.41	37425.17
529.58	37031.96
529.75	37240.26
529.92	37277.71
530.09	37247.29
530.26	37486.02
530.43	37521.13
530.60	37518.79
530.77	37635.81
530.94	37851.14
531.11	37860.51
531.28	37801.99
531.46	38099.24
531.63	37869.87
531.80	38071.15
531.97	38256.06
532.14	38043.07
532.31	37942.42
532.48	38176.48
532.65	38246.69
532.82	38340.32
532.99	38244.35
533.16	38284.14
533.33	38557.99
533.50	38548.62
533.67	38541.60
533.84	38366.06
534.01	38403.51
534.18	38471.39
534.35	38780.34
534.52	39255.46
534.69	39253.12
534.86	39119.71
535.03	38906.73
535.20	39297.59
535.37	39548.03
535.54	39220.36
535.71	39297.59
535.88	39700.17
536.05	39349.09
536.22	39505.90
536.38	39772.72
536.55	39550.37
536.72	39662.72
536.89	39742.30
537.06	39166.52
537.23	39817.19
537.40	39552.71
537.57	39318.66
537.74	39599.52
537.91	40123.80
538.08	39936.56
538.25	39955.29
538.42	39569.10
538.59	40147.21
538.75	40219.77
538.92	40453.82
539.09	40240.83
539.26	39908.47
539.43	40437.44
539.60	40528.72
539.77	40428.07
539.94	40435.10
540.11	40491.27
540.28	40531.06
540.44	40306.37
540.61	40470.20
540.78	40318.07
540.95	40491.27
541.12	40774.47
541.29	40912.56
541.46	40744.05
541.62	41102.15
541.79	41462.59
541.96	40730.00
542.13	40828.30
542.30	40517.01
542.47	40847.03
542.63	41422.80
542.80	41478.97
542.97	41420.46
543.14	41717.71
543.31	41801.97
543.48	41811.33
543.64	42103.90
543.81	41507.06
543.98	41823.03
544.15	41523.44
544.32	41937.72
544.48	42043.04
544.65	42277.10
544.82	42087.51
544.99	41928.36
545.16	42061.77
545.32	42258.37
545.49	42059.43
545.66	42576.69
545.83	42181.13
546.00	42361.36
546.16	42356.67
546.33	42342.63
546.50	42384.76
546.67	42667.97
546.83	42183.48
547.00	42227.95
547.17	42398.80
547.34	42492.43
547.50	42763.93
547.67	43222.67
547.84	42518.17
548.00	43143.09
548.17	42887.98
548.34	43033.09
548.51	43232.04
548.67	43313.95
548.84	42981.60
549.01	42827.12
549.18	43274.16
549.34	43328.00
549.51	43023.73
549.68	43775.04
549.84	43100.97
550.01	43786.74
550.18	43112.67
550.34	43386.51
550.51	43632.27
550.68	43409.92
550.84	43175.86
551.01	43871.00
551.18	43295.23
551.34	43641.63
551.51	43531.62
551.68	43676.74
551.84	43739.93
552.01	43536.30
552.18	44020.80
552.34	43606.52
552.51	43786.74
552.68	44079.31
552.84	44194.00
553.01	43817.17
553.18	44109.74
553.34	44329.75
553.51	43604.18
553.67	44105.06
553.84	44456.14
554.01	44449.11
554.17	44114.42
554.34	44385.92
554.51	44083.99
554.67	44346.13
554.84	44161.23
555.00	44189.31
555.17	44069.95
555.33	44395.28
555.50	44561.46
555.67	44362.51
555.83	44397.62
556.00	44751.04
556.16	44835.30
556.33	44825.94
556.50	44484.22
556.66	44748.70
556.83	44406.98
556.99	45144.25
557.16	44882.11
557.32	45071.70
557.49	44797.85
557.65	44577.84
557.82	44839.98
557.98	45038.93
558.15	44748.70
558.32	44961.69
558.48	44823.60
558.65	44837.64
558.81	45223.83
558.98	45055.31
559.14	44521.67
559.31	45219.15
559.47	45083.40
559.64	45439.16
559.80	44959.35
559.97	45476.61
560.13	45017.86
560.30	45099.78
560.46	45469.59
560.63	45673.21
560.79	45703.64
560.96	45448.52
561.12	45593.64
561.29	45399.37
561.45	45951.74
561.61	45090.42
561.78	45366.60
561.94	45235.53
562.11	45603.00
562.27	45287.03
562.44	45888.54
562.60	45900.25
562.77	46078.13
562.93	45715.34
563.10	45731.73
563.26	45954.08
563.42	45965.78
563.59	45778.54
563.75	45148.93
563.92	45848.75
564.08	45581.93
564.24	45598.32
564.41	45911.95
564.57	45897.91
564.74	45907.27
564.90	45394.69
565.07	45893.22
565.23	45832.37
565.39	46281.75
565.56	46052.38
565.72	45834.71
565.88	45734.07
566.05	45993.87
566.21	45853.44
566.38	46082.81
566.54	46370.69
566.70	45951.74
566.87	45677.90
567.03	46052.38
567.19	46618.79
567.36	46101.53
567.52	46010.25
567.68	46454.95
567.85	46265.37
568.01	45972.80
568.17	46251.33
568.34	46412.82
568.50	46223.24
568.66	45631.08
568.83	46211.54
568.99	46017.27
569.15	46220.90
569.32	46024.29
569.48	46040.68
569.64	46471.34
569.81	46326.22
569.97	46457.29
570.13	46630.49
570.30	46295.80
570.46	46522.83
570.62	46171.75
570.78	46387.08
570.95	46272.39
571.11	46309.84
571.27	46391.76
571.43	46206.86
571.60	46630.49
571.76	46277.07
571.92	46082.81
572.09	46120.26
572.25	46387.08
572.41	46438.57
572.57	46426.87
572.74	47194.56
572.90	46478.36
573.06	46497.08
573.22	46630.49
573.38	46674.96
573.55	46815.40
573.71	46855.18
573.87	46740.50
574.03	46574.32
574.20	46728.80
574.36	46784.97
574.52	46775.61
574.68	46623.47
574.84	46852.84
575.01	46974.55
575.17	46749.86
575.33	46866.89
575.49	46677.30
575.65	46993.28
575.82	46904.34
575.98	46890.29
576.14	46902.00
576.30	46930.08
576.46	46913.70
576.62	46714.75
576.79	46801.35
576.95	46380.06
577.11	46609.43
577.27	46689.01
577.43	46593.04
577.59	47047.11
577.75	46604.75
577.92	46658.58
578.08	46667.94
578.24	46607.09
578.40	46887.95
578.56	47016.68
578.72	46997.96
578.88	46799.01
579.04	46838.80
579.21	46550.91
579.37	46770.93
579.53	47026.04
579.69	46553.26
579.85	46794.33
580.01	47098.60
580.17	46806.03
580.33	47201.58
580.49	47222.65
580.65	47140.73
580.82	47091.58
580.98	46799.01
581.14	46834.12
581.30	47000.30
581.46	46588.36
581.62	46836.46
581.78	46813.05
581.94	47143.07
582.10	47033.07
582.26	47241.37
582.42	47035.41
582.58	46894.97
582.74	46969.87
582.90	47082.22
583.06	47215.63
583.22	46761.56
583.38	46960.51
583.54	47117.32
583.70	47112.64
583.86	47271.80
584.02	46820.08
584.18	47351.38
584.34	47405.21
584.50	47374.78
584.66	47318.61
584.82	47332.65
584.98	47796.08
585.14	47143.07
585.30	46930.08
585.46	46866.89
585.62	46962.85
585.78	47201.58
585.94	47023.70
586.10	47236.69
586.26	46904.34
586.42	47070.51
586.58	47019.02
586.74	47054.13
586.90	47171.16
587.06	47089.24
587.22	46990.94
587.38	47339.68
587.54	47590.11
587.70	47978.64
587.86	47337.33
588.02	46855.18
588.18	47030.72
588.34	47014.34
588.49	47274.14
588.65	47042.43
588.81	47217.97
588.97	47334.99
589.13	47409.89
589.29	47274.14
589.45	47866.30
589.61	47569.05
589.77	47320.95
589.93	47201.58
590.08	47550.32
