SpectraSuite Data File
++++++++++++++++++++++++++++++++++++
Date: Fri Oct 25 11:23:38 EDT 2013
User: price-jones
Dark Spectrum Present: No
Reference Spectrum Present: No
Number of Sampled Component Spectra: 1
Spectrometers: USB2+H05261
Integration Time (usec): 100000 (USB2+H05261)
Spectra Averaged: 1 (USB2+H05261)
Boxcar Smoothing: 0 (USB2+H05261)
Correct for Electrical Dark: No (USB2+H05261)
Strobe/Lamp Enabled: No (USB2+H05261)
Correct for Detector Non-linearity: No (USB2+H05261)
Correct for Stray Light: No (USB2+H05261)
Number of Pixels in Processed Spectrum: 2048
>>>>>Begin Processed Spectral Data<<<<<
365.73	170.86
365.92	170.86
366.12	170.86
366.32	154.48
366.52	119.37
366.72	177.88
366.91	140.43
367.11	98.30
367.31	117.03
367.51	110.01
367.70	67.88
367.90	70.22
368.10	88.94
368.30	152.13
368.49	67.88
368.69	140.43
368.89	173.20
369.09	112.35
369.28	107.66
369.48	166.18
369.68	201.29
369.87	208.31
370.07	210.65
370.27	212.99
370.47	294.91
370.66	676.41
370.86	624.92
371.06	653.01
371.25	676.41
371.45	606.20
371.65	685.78
371.84	692.80
372.04	669.39
372.24	748.97
372.44	730.25
372.63	763.01
372.83	746.63
373.03	788.76
373.22	713.86
373.42	772.38
373.62	802.80
373.81	819.19
374.01	835.57
374.21	858.98
374.40	816.85
374.60	793.44
374.79	875.36
374.99	837.91
375.19	833.23
375.38	821.53
375.58	842.59
375.78	887.06
375.97	847.27
376.17	863.66
376.37	720.88
376.56	837.91
376.76	809.83
376.95	891.74
377.15	882.38
377.35	912.81
377.54	903.45
377.74	835.57
377.93	898.77
378.13	924.51
378.33	903.45
378.52	964.30
378.72	950.26
378.91	940.90
379.11	912.81
379.31	983.02
379.50	891.74
379.70	987.71
379.89	940.90
380.09	926.85
380.28	952.60
380.48	1008.77
380.68	1034.52
380.87	992.39
381.07	957.28
381.26	1011.11
381.46	959.62
381.65	1078.99
381.85	910.47
382.04	1008.77
382.24	1006.43
382.43	1020.47
382.63	1151.54
382.83	1013.45
383.02	1097.71
383.22	1062.60
383.41	1032.18
383.61	1139.84
383.80	1109.41
384.00	1062.60
384.19	1036.86
384.39	1165.59
384.58	1146.86
384.78	1179.63
384.97	1095.37
385.17	1107.07
385.36	1203.04
385.56	1174.95
385.75	1156.22
385.95	1193.67
386.14	1238.14
386.34	1179.63
386.53	1214.74
386.72	1172.61
386.92	1203.04
387.11	1294.32
387.31	1266.23
387.50	1139.84
387.70	1188.99
387.89	1263.89
388.09	1259.21
388.28	1277.93
388.48	1266.23
388.67	1399.64
388.86	1313.04
389.06	1296.66
389.25	1411.34
389.45	1345.81
389.64	1355.17
389.84	1434.75
390.03	1317.72
390.22	1329.42
390.42	1329.42
390.61	1350.49
390.81	1359.85
391.00	1439.43
391.19	1430.07
391.39	1476.88
391.58	1416.02
391.78	1451.13
391.97	1467.52
392.16	1490.92
392.36	1493.26
392.55	1493.26
392.75	1556.46
392.94	1577.52
393.13	1619.65
393.33	1519.01
393.52	1519.01
393.71	1621.99
393.91	1636.03
394.10	1556.46
394.29	1643.06
394.49	1497.94
394.68	1668.80
394.88	1586.88
395.07	1607.95
395.26	1664.12
395.46	1724.97
395.65	1703.91
395.84	1689.87
396.04	1788.17
396.23	1694.55
396.42	1680.50
396.62	1706.25
396.81	1788.17
397.00	1825.62
397.19	1825.62
397.39	1830.30
397.58	1963.71
397.77	1825.62
397.97	1886.47
398.16	1804.55
398.35	1947.33
398.55	1856.04
398.74	1872.43
398.93	1980.09
399.12	1916.90
399.32	1783.49
399.51	1860.73
399.70	2022.22
399.90	1973.07
400.09	2050.31
400.28	2176.70
400.47	2157.97
400.67	2078.40
400.86	2050.31
401.05	2017.54
401.24	2115.84
401.44	2148.61
401.63	2106.48
401.82	2099.46
402.01	2005.84
402.21	2115.84
402.40	2120.53
402.59	2099.46
402.78	2113.50
402.97	2251.60
403.17	2223.51
403.36	2265.64
403.55	2317.13
403.74	2380.32
403.93	2445.86
404.13	2338.20
404.32	2328.83
404.51	2345.22
404.70	2495.01
404.89	2373.30
405.09	2399.05
405.28	2511.39
405.47	2452.88
405.66	2476.29
405.85	2668.21
406.05	2429.48
406.24	2525.44
406.43	2567.57
406.62	2640.12
406.81	2590.97
407.00	2527.78
407.20	2553.52
407.39	2637.78
407.58	2691.62
407.77	2722.04
407.96	2787.58
408.15	2750.13
408.34	2808.64
408.54	2958.44
408.73	2780.56
408.92	2799.28
409.11	2883.54
409.30	2909.29
409.49	2937.37
409.68	3021.63
409.87	2825.03
410.07	2944.39
410.26	3056.74
410.45	3138.66
410.64	2965.46
410.83	3002.91
411.02	3084.83
411.21	3143.34
411.40	3126.96
411.59	3309.52
411.78	3236.96
411.98	3208.87
412.17	3218.24
412.36	3211.22
412.55	3370.37
412.74	3428.88
412.93	3379.73
413.12	3351.65
413.31	3616.13
413.50	3389.10
413.69	3475.70
413.88	3529.53
414.07	3559.95
414.26	3702.73
414.45	3801.03
414.64	3705.07
414.83	3733.15
415.02	3723.79
415.22	3864.22
415.41	3822.09
415.60	3786.99
415.79	3789.33
415.98	3997.64
416.17	4051.47
416.36	3939.12
416.55	3899.33
416.74	4032.74
416.93	4091.26
417.12	4109.98
417.31	4173.18
417.50	4236.37
417.69	4313.61
417.88	4311.27
418.07	4231.69
418.26	4346.37
418.45	4423.61
418.64	4318.29
418.83	4411.91
419.02	4470.42
419.21	4425.95
419.39	4538.30
419.58	4540.64
419.77	4484.47
419.96	4664.69
420.15	4519.57
420.34	4664.69
420.53	4688.09
420.72	4535.96
420.91	4636.60
421.10	4760.65
421.29	4880.02
421.48	4660.01
421.67	4753.63
421.86	4765.33
422.05	4833.21
422.24	4880.02
422.43	4706.82
422.61	4784.06
422.80	4999.38
422.99	4882.36
423.18	4905.76
423.37	5048.54
423.56	4943.21
423.75	4945.55
423.94	4858.95
424.13	4627.24
424.32	4770.01
424.50	5114.07
424.69	5057.90
424.88	5069.60
425.07	5060.24
425.26	4851.93
425.45	5034.49
425.64	4894.06
425.83	4901.08
426.01	5107.05
426.20	5081.30
426.39	5135.14
426.58	5109.39
426.77	5041.51
426.96	5317.70
427.15	5188.97
427.33	5207.69
427.52	5207.69
427.71	5203.01
427.90	5273.23
428.09	5212.37
428.28	5263.86
428.46	5291.95
428.65	5184.29
428.84	5675.80
429.03	5654.73
429.22	5446.43
429.40	5345.78
429.59	5490.90
429.78	5203.01
429.97	5235.78
430.16	5387.91
430.34	5551.75
430.53	5856.02
430.72	5565.79
430.91	5530.69
431.10	5479.19
431.28	5830.27
431.47	5874.74
431.66	5984.75
431.85	5689.84
432.03	5865.38
432.22	6066.67
432.41	5912.19
432.60	5966.03
432.79	6059.65
432.97	6036.24
433.16	6132.20
433.35	6040.92
433.54	6127.52
433.72	6012.84
433.91	6164.97
434.10	6223.48
434.28	5973.05
434.47	6047.94
434.66	6340.51
434.85	6239.87
435.03	6190.72
435.22	6132.20
435.41	6527.75
435.59	6356.90
435.78	6492.65
435.97	6469.24
436.16	6424.77
436.34	6429.45
436.53	6492.65
436.72	6572.22
436.90	6520.73
437.09	6633.08
437.28	6394.34
437.46	6469.24
437.65	6871.81
437.84	6822.66
438.02	6815.64
438.21	6754.79
438.40	6677.55
438.58	7073.10
438.77	6963.09
438.96	7077.78
439.14	7045.01
439.33	7194.81
439.52	7187.79
439.70	7250.98
439.89	7131.61
440.08	7475.67
440.26	7314.17
440.45	7323.54
440.63	7531.84
440.82	7515.46
441.01	7688.66
441.19	7541.21
441.38	7740.15
441.57	7737.81
441.75	7719.09
441.94	7992.93
442.12	8018.68
442.31	8156.77
442.50	7990.59
442.68	7805.69
442.87	7978.89
443.05	8152.09
443.24	8269.11
443.43	8390.82
443.61	8140.38
443.80	8428.27
443.98	7901.65
444.17	7899.31
444.35	8121.66
444.54	8390.82
444.73	8362.73
444.91	8362.73
445.10	8222.30
445.28	8414.23
445.47	8336.99
445.65	8308.90
445.84	8376.78
446.02	8517.21
446.21	8484.44
446.39	8297.20
446.58	8395.50
446.77	8435.29
446.95	8411.89
447.14	8517.21
447.32	8538.27
447.51	8367.42
447.69	8615.51
447.88	8664.66
448.06	8561.68
448.25	8482.10
448.43	8587.43
448.62	8456.36
448.80	8484.44
448.99	8554.66
449.17	8800.41
449.36	8727.86
449.54	8884.67
449.73	8978.30
449.91	9130.43
450.10	8947.87
450.28	9198.31
450.46	9104.68
450.65	9083.62
450.83	9193.62
451.02	9004.04
451.20	9387.89
451.39	9018.08
451.57	9097.66
451.76	9174.90
451.94	9228.73
452.13	9305.97
452.31	9252.14
452.49	9095.32
452.68	9495.55
452.86	9465.13
453.05	9432.36
453.23	9385.55
453.42	9394.91
453.60	9214.69
453.78	9518.96
453.97	9465.13
454.15	9497.89
454.34	9596.20
454.52	9628.96
454.70	9776.42
454.89	9816.21
455.07	9825.57
455.26	9900.47
455.44	9919.19
455.62	9731.95
455.81	10022.17
455.99	9884.08
456.17	9905.15
456.36	10050.26
456.54	9989.41
456.73	10359.21
456.91	10375.59
457.09	10394.32
457.28	10654.12
457.46	10427.09
457.64	10417.72
457.83	10527.73
458.01	10286.65
458.19	10633.05
458.38	10635.39
458.56	10780.51
458.74	10719.65
458.93	10630.71
459.11	10682.20
459.29	10874.13
459.48	10967.75
459.66	10913.92
459.84	10862.43
460.03	11164.36
460.21	10906.90
460.39	10916.26
460.57	10911.58
460.76	10909.24
460.94	11192.44
461.12	11103.50
461.31	11295.43
461.49	11023.92
461.67	11218.19
461.85	11538.84
462.04	11197.12
462.22	11461.60
462.40	11597.35
462.59	11613.74
462.77	11737.79
462.95	11571.61
463.13	11679.27
463.32	11716.72
463.50	12042.06
463.68	11936.73
463.86	11943.75
464.05	11754.17
464.23	11742.47
464.41	11894.60
464.59	11695.66
464.78	12201.21
464.96	11946.09
465.14	11882.90
465.32	12145.04
465.50	12205.89
465.69	12280.79
465.87	12131.00
466.05	12229.30
466.23	12257.39
466.41	12327.60
466.60	12428.24
466.78	12196.53
466.96	12170.79
467.14	12346.33
467.32	12465.69
467.51	12709.11
467.69	12215.26
467.87	12468.03
468.05	12812.09
468.23	12514.84
468.41	12542.93
468.60	12830.82
468.78	12627.19
468.96	12561.66
469.14	12617.83
469.32	12896.35
469.50	12678.68
469.69	12732.51
469.87	13170.19
470.05	13317.65
470.23	13252.11
470.41	13128.06
470.59	13329.35
470.77	13235.73
470.95	13369.14
471.14	13469.78
471.32	13151.47
471.50	13509.57
471.68	13610.22
471.86	13612.56
472.04	13886.40
472.22	13907.46
472.40	13689.79
472.58	13914.48
472.77	14207.05
472.95	13755.33
473.13	14607.28
473.31	13949.59
473.49	14080.66
473.67	14207.05
473.85	14303.01
474.03	14731.33
474.21	14656.43
474.39	14600.26
474.57	14710.27
474.75	15101.14
474.93	15213.48
475.12	14984.11
475.30	15260.29
475.48	15094.11
475.66	15323.49
475.84	15115.18
476.02	15274.34
476.20	15222.84
476.38	15735.42
476.56	15925.00
476.74	15798.62
476.92	15803.30
477.10	15646.48
477.28	16444.60
477.46	16175.44
477.64	16320.56
477.82	16489.07
478.00	17081.23
478.18	16933.78
478.36	16879.94
478.54	17050.80
478.72	17088.25
478.90	17619.55
479.08	17568.06
479.26	17930.84
479.44	17642.96
479.62	17694.45
479.80	17844.24
479.98	18031.49
480.16	18808.54
480.34	18265.54
480.52	18572.15
480.70	18792.16
480.88	18354.48
481.06	18808.54
481.24	18803.86
481.41	19288.35
481.59	19431.13
481.77	19421.77
481.95	19501.34
482.13	19913.28
482.31	19651.14
482.49	20479.69
482.67	20065.41
482.85	20725.44
483.03	20755.87
483.21	20479.69
483.39	20893.96
483.57	20971.20
483.74	21247.38
483.92	21575.06
484.10	20943.11
484.28	21834.86
484.46	21579.74
484.64	22354.46
484.82	22143.81
485.00	22415.31
485.18	22794.48
485.35	22927.89
485.53	22845.97
485.71	23082.36
485.89	23290.67
486.07	23468.55
486.25	23606.64
486.43	23616.01
486.61	23939.00
486.78	24184.76
486.96	24039.64
487.14	24575.62
487.32	24690.31
487.50	24915.00
487.68	25163.10
487.85	25312.89
488.03	25755.26
488.21	25654.61
488.39	25640.57
488.57	26293.58
488.75	25930.80
488.92	26396.56
489.10	26738.28
489.28	26864.67
489.46	27187.66
489.64	27040.21
489.81	27557.47
489.99	27630.02
490.17	27861.74
490.35	28175.37
490.53	28357.93
490.70	28430.49
490.88	28212.82
491.06	29008.60
491.24	28877.53
491.41	28989.88
491.59	29233.29
491.77	29326.91
491.95	30019.71
492.13	30153.12
492.30	30218.66
492.48	30223.34
492.66	30597.82
492.84	30202.27
493.01	30803.79
493.19	30316.96
493.37	30850.60
493.54	30806.13
493.72	31791.50
493.90	31576.17
494.08	31861.71
494.25	31742.35
494.43	31920.23
494.61	32570.90
494.79	32304.07
494.96	32634.09
495.14	32704.31
495.32	32875.16
495.49	32910.27
495.67	33706.05
495.85	33048.36
496.02	33532.86
496.20	34115.65
496.38	33965.85
496.55	34164.80
496.73	34981.65
496.91	34763.98
497.09	34586.10
497.26	34888.03
497.44	34785.04
497.62	35370.18
497.79	35662.74
497.97	35629.98
498.14	35983.40
498.32	36292.35
498.50	36467.89
498.67	36804.92
498.85	36390.65
499.03	36514.70
499.20	36790.88
499.38	36631.72
499.56	37158.34
499.73	37378.36
499.91	37324.52
500.08	37617.09
500.26	37301.12
500.44	37235.58
500.61	37741.14
500.79	37748.16
500.97	38375.42
501.14	38487.77
501.32	38546.28
501.49	38691.40
501.67	38675.01
501.84	38972.26
502.02	38602.46
502.20	39381.85
502.37	39274.19
502.55	39103.33
502.72	39203.97
502.90	40037.20
503.07	39665.06
503.25	40072.31
503.43	40018.48
503.60	39901.45
503.78	40172.96
503.95	39948.26
504.13	40889.16
504.30	40905.54
504.48	40666.81
504.65	41074.06
504.83	40917.25
505.01	41308.11
505.18	40928.95
505.36	41949.42
505.53	41511.74
505.71	41539.83
505.88	41612.38
506.06	41577.28
506.23	42232.63
506.41	41853.46
506.58	42354.33
506.76	42033.68
506.93	42057.09
507.11	41942.40
507.28	42904.36
507.46	43239.06
507.63	42958.19
507.81	43325.66
507.98	43187.56
508.16	43267.14
508.33	43459.07
508.50	43459.07
508.68	43601.84
508.85	43955.26
509.03	43931.86
509.20	43756.32
509.38	44624.65
509.55	44409.32
509.73	44591.89
509.90	44481.88
510.08	44851.69
510.25	45043.61
510.42	45347.88
510.60	44746.36
510.77	45216.81
510.95	45390.01
511.12	45375.97
511.30	45258.94
511.47	45492.99
511.64	45570.23
511.82	46124.94
511.99	45446.18
512.17	45537.46
512.34	46043.02
512.51	46185.79
512.69	46609.43
512.86	46321.54
513.04	46824.76
513.21	46298.14
513.38	46850.50
513.56	46827.10
513.73	46520.49
513.90	47124.35
514.08	47220.31
514.25	47435.64
514.43	47643.94
514.60	47709.48
514.77	47760.97
514.95	47543.30
515.12	47693.10
515.29	47779.70
515.47	47936.51
515.64	48102.69
515.81	47845.23
515.99	48533.35
516.16	48491.22
516.33	48636.33
516.51	48388.24
516.68	48821.23
516.85	48549.73
517.03	48559.09
517.20	48994.43
517.37	48886.77
517.54	48877.41
517.72	48769.74
517.89	49066.99
518.06	49298.70
518.24	49205.08
518.41	49263.60
518.58	49443.82
518.75	49092.74
518.93	49542.12
519.10	49605.31
519.27	49577.23
519.45	49404.03
519.62	50026.61
519.79	49930.65
519.96	49846.39
520.14	50148.32
520.31	49977.46
520.48	50712.39
520.65	50527.48
520.83	50822.39
521.00	50923.04
521.17	50838.78
521.34	50913.67
521.52	50693.66
521.69	51143.05
521.86	51304.54
522.03	51526.89
522.20	51257.73
522.38	51578.39
522.55	51360.72
522.72	51515.19
522.89	51278.80
523.07	51824.14
523.24	51784.35
523.41	51571.36
523.58	51648.60
523.75	51840.53
523.92	52051.17
524.10	52191.61
524.27	52203.31
524.44	51831.16
524.61	52261.82
524.78	52418.64
524.96	52233.74
525.13	52315.65
525.30	52519.28
525.47	52748.65
525.64	52364.81
525.81	52746.31
525.98	52575.45
526.16	52652.69
526.33	52413.96
526.50	52959.30
526.67	52559.07
526.84	53212.08
527.01	52891.43
527.18	53277.61
527.36	52999.09
527.53	53212.08
527.70	53502.31
527.87	53385.28
528.04	52989.73
528.21	53361.87
528.38	53375.92
528.55	53825.30
528.72	53499.97
528.89	53502.31
529.07	53577.20
529.24	53322.08
529.41	53715.29
529.58	53998.50
529.75	53738.70
529.92	53965.73
530.09	53785.51
530.26	53886.15
530.43	53914.24
530.60	53687.21
530.77	53970.41
530.94	53951.69
531.11	54021.90
531.28	54124.89
531.46	54298.09
531.63	54328.52
531.80	54265.32
531.97	54438.52
532.14	54459.58
532.31	54614.06
532.48	54401.07
532.65	54869.18
532.82	54508.74
532.99	54681.94
533.16	54508.74
533.33	54948.76
533.50	55164.09
533.67	54836.41
533.84	54960.46
534.01	54824.71
534.18	54773.22
534.35	55358.35
534.52	54941.74
534.69	55182.81
534.86	55260.05
535.03	54983.86
535.20	55281.11
535.37	55540.91
535.54	55519.85
535.71	55330.26
535.88	55428.57
536.05	55515.17
536.22	55662.62
536.38	55810.07
536.55	55484.74
536.72	55594.74
536.89	55573.68
537.06	56037.11
537.23	56030.08
537.40	55739.86
537.57	55987.95
537.74	55751.56
537.91	56397.55
538.08	55695.39
538.25	55786.67
538.42	56037.11
538.59	56362.44
538.75	56236.05
538.92	56093.28
539.09	56376.48
539.26	56083.92
539.43	56266.48
539.60	56472.45
539.77	56243.07
539.94	56514.58
540.11	56598.83
540.28	56439.68
540.44	56451.38
540.61	56261.80
540.78	56601.18
540.95	56449.04
541.12	56446.70
541.29	56617.56
541.46	56591.81
541.62	56755.65
541.79	56545.00
541.96	56296.91
542.13	56509.89
542.30	56327.33
542.47	56875.02
542.63	56970.98
542.80	56657.35
542.97	57387.60
543.14	57282.27
543.31	57256.53
543.48	57228.44
543.64	57490.58
543.81	57434.41
543.98	57312.70
544.15	57448.45
544.32	57422.70
544.48	57635.69
544.65	57212.06
544.82	57441.43
544.99	57315.04
545.16	57558.45
545.32	57310.36
545.49	57911.88
545.66	57979.75
545.83	57607.61
546.00	57879.11
546.16	57609.95
546.33	57600.58
546.50	57623.99
546.67	57757.40
546.83	57249.50
547.00	57867.40
547.17	57750.38
547.34	57846.34
547.50	58054.65
547.67	57916.56
547.84	58106.14
548.00	58227.85
548.17	58183.38
548.34	57968.05
548.51	58426.79
548.67	58185.72
548.84	58230.19
549.01	58174.02
549.18	58174.02
549.34	58323.81
549.51	58419.77
549.68	58412.75
549.84	58394.03
550.01	58398.71
550.18	58412.75
550.34	58546.16
550.51	58635.10
550.68	58508.71
550.84	58241.89
551.01	58621.06
551.18	58576.59
551.34	58691.27
551.51	58845.75
551.68	58693.61
551.84	58810.64
552.01	58550.84
552.18	58838.73
552.34	58834.05
552.51	58887.88
552.68	58494.67
552.84	58576.59
553.01	58974.48
553.18	58674.89
553.34	58915.96
553.51	58890.22
553.67	58948.73
553.84	58876.18
554.01	58962.78
554.17	59145.34
554.34	58904.26
554.51	58976.82
554.67	59091.51
554.84	59114.91
555.00	59002.56
555.17	59000.22
555.33	59164.06
555.50	58944.05
555.67	59082.14
555.83	59035.33
556.00	59124.27
556.16	59377.05
556.33	59550.25
556.50	59236.62
556.66	59451.95
556.83	59161.72
556.99	59344.28
557.16	59496.42
557.32	59400.46
557.49	59606.42
557.65	59449.61
557.82	59367.69
557.98	59449.61
558.15	59636.85
558.32	59547.91
558.48	59540.89
558.65	59501.10
558.81	59440.24
558.98	59576.00
559.14	59611.10
559.31	59702.38
559.47	59678.98
559.64	59770.26
559.80	59657.91
559.97	59835.80
560.13	59711.75
560.30	59721.11
560.46	59690.68
560.63	59735.15
560.79	59807.71
560.96	59955.16
561.12	60020.70
561.29	59891.97
561.45	59943.46
561.61	59887.29
561.78	59976.23
561.94	59690.68
562.11	59791.33
562.27	59896.65
562.44	59898.99
562.60	60165.81
562.77	60027.72
562.93	59767.92
563.10	60051.12
563.26	60001.97
563.42	60144.75
563.59	60027.72
563.75	60009.00
563.92	60168.15
564.08	60016.02
564.24	60275.82
564.41	60250.07
564.57	60406.89
564.74	60289.86
564.90	60320.29
565.07	60460.72
565.23	60221.98
565.39	60104.96
565.56	60275.82
565.72	60111.98
565.88	60261.77
566.05	60076.87
566.21	60292.20
566.38	60205.60
566.54	60406.89
566.70	60528.59
566.87	60430.29
567.03	60278.16
567.19	60666.69
567.36	60449.02
567.52	60348.37
567.68	60444.33
567.85	60500.51
568.01	60615.19
568.17	60434.97
568.34	60470.08
568.50	60666.69
568.66	60212.62
568.83	60430.29
568.99	60360.08
569.15	60456.04
569.32	60509.87
569.48	60399.86
569.64	60488.80
569.81	60418.59
569.97	60449.02
570.13	60477.10
570.30	60488.80
570.46	60734.56
570.62	60486.46
570.78	60619.88
570.95	60626.90
571.11	60701.79
571.27	60678.39
571.43	60757.97
571.60	60596.47
571.76	60657.32
571.92	60647.96
572.09	60505.19
572.25	60409.23
572.41	60432.63
572.57	60509.87
572.74	60989.68
572.90	60619.88
573.06	60821.16
573.22	60629.24
573.38	60622.22
573.55	60544.98
573.71	60762.65
573.87	60818.82
574.03	60528.59
574.20	61003.72
574.36	60580.09
574.52	60800.10
574.68	60755.63
574.84	60912.44
575.01	60615.19
575.17	60692.43
575.33	60893.72
575.49	60694.77
575.65	60865.63
575.82	60898.40
575.98	60767.33
576.14	60989.68
576.30	60713.50
576.46	60772.01
576.62	60828.18
576.79	60790.73
576.95	60605.83
577.11	60954.57
577.27	60959.25
577.43	60734.56
577.59	61010.74
577.75	60720.52
577.92	60851.59
578.08	60781.37
578.24	60970.96
578.40	61034.15
578.56	61020.11
578.72	61043.51
578.88	61029.47
579.04	60938.19
579.21	61102.03
579.37	61181.60
579.53	60891.38
579.69	60711.16
579.85	60933.51
580.01	60781.37
580.17	60762.65
580.33	61071.60
580.49	60877.33
580.65	61024.79
580.82	60853.93
580.98	60956.91
581.14	60739.24
581.30	61183.94
581.46	60891.38
581.62	61050.53
581.78	60807.12
581.94	60961.59
582.10	60996.70
582.26	61169.90
582.42	60966.27
582.58	60846.91
582.74	60996.70
582.90	60891.38
583.06	60992.02
583.22	60809.46
583.38	61052.87
583.54	61029.47
583.70	61169.90
583.86	61092.66
584.02	60865.63
584.18	61202.67
584.34	61006.06
584.50	61034.15
584.66	60940.53
584.82	60657.32
584.98	61219.05
585.14	61090.32
585.30	61003.72
585.46	61111.39
585.62	61205.01
585.78	61181.60
585.94	60994.36
586.10	60947.55
586.26	61275.22
586.42	61120.75
586.58	61151.18
586.74	61216.71
586.90	61097.34
587.06	60844.57
587.22	61209.69
587.38	61087.98
587.54	61258.84
587.70	61277.57
587.86	61167.56
588.02	61057.56
588.18	61425.02
588.34	60996.70
588.49	61083.30
