SpectraSuite Data File
++++++++++++++++++++++++++++++++++++
Date: Fri Oct 25 11:22:56 EDT 2013
User: price-jones
Dark Spectrum Present: No
Reference Spectrum Present: No
Number of Sampled Component Spectra: 1
Spectrometers: USB2+H05261
Integration Time (usec): 100000 (USB2+H05261)
Spectra Averaged: 1 (USB2+H05261)
Boxcar Smoothing: 0 (USB2+H05261)
Correct for Electrical Dark: No (USB2+H05261)
Strobe/Lamp Enabled: No (USB2+H05261)
Correct for Detector Non-linearity: No (USB2+H05261)
Correct for Stray Light: No (USB2+H05261)
Number of Pixels in Processed Spectrum: 2048
>>>>>Begin Processed Spectral Data<<<<<
365.73	189.58
365.92	189.58
366.12	189.58
366.32	121.71
366.52	205.97
366.72	147.45
366.91	142.77
367.11	135.75
367.31	133.41
367.51	74.90
367.70	196.60
367.90	105.32
368.10	152.13
368.30	119.37
368.49	147.45
368.69	170.86
368.89	147.45
369.09	114.69
369.28	224.69
369.48	156.82
369.68	203.63
369.87	231.71
370.07	121.71
370.27	201.29
370.47	276.18
370.66	564.07
370.86	631.94
371.06	629.60
371.25	629.60
371.45	664.71
371.65	697.48
371.84	688.12
372.04	655.35
372.24	636.63
372.44	671.73
372.63	746.63
372.83	758.33
373.03	713.86
373.22	814.51
373.42	748.97
373.62	690.46
373.81	758.33
374.01	758.33
374.21	812.17
374.40	821.53
374.60	814.51
374.79	877.70
374.99	851.96
375.19	809.83
375.38	922.17
375.58	847.27
375.78	858.98
375.97	847.27
376.17	952.60
376.37	866.00
376.56	968.98
376.76	851.96
376.95	887.06
377.15	905.79
377.35	884.72
377.54	873.02
377.74	863.66
377.93	868.34
378.13	912.81
378.33	919.83
378.52	1004.09
378.72	947.92
378.91	1004.09
379.11	894.08
379.31	912.81
379.50	851.96
379.70	1069.62
379.89	1027.50
380.09	910.47
380.28	980.68
380.48	968.98
380.68	968.98
380.87	1032.18
381.07	1100.05
381.26	1034.52
381.46	997.07
381.65	966.64
381.85	1004.09
382.04	1039.20
382.24	999.41
382.43	1083.67
382.63	1029.84
382.83	1039.20
383.02	1121.12
383.22	1221.76
383.41	1036.86
383.61	1163.25
383.80	1095.37
384.00	1139.84
384.19	1210.06
384.39	1132.82
384.58	1121.12
384.78	1165.59
384.97	1118.78
385.17	1081.33
385.36	1167.93
385.56	1144.52
385.75	1097.71
385.95	1231.12
386.14	1191.33
386.34	1055.58
386.53	1146.86
386.72	1186.65
386.92	1303.68
387.11	1186.65
387.31	1263.89
387.50	1170.27
387.70	1313.04
387.89	1355.17
388.09	1357.51
388.28	1193.67
388.48	1219.42
388.67	1315.38
388.86	1331.76
389.06	1359.85
389.25	1310.70
389.45	1313.04
389.64	1345.81
389.84	1413.68
390.03	1476.88
390.22	1430.07
390.42	1380.92
390.61	1413.68
390.81	1409.00
391.00	1390.28
391.19	1455.81
391.39	1446.45
391.58	1432.41
391.78	1472.20
391.97	1502.62
392.16	1474.54
392.36	1614.97
392.55	1521.35
392.75	1579.86
392.94	1514.33
393.13	1586.88
393.33	1526.03
393.52	1558.80
393.71	1551.78
393.91	1610.29
394.10	1558.80
394.29	1582.20
394.49	1664.12
394.68	1715.61
394.88	1544.75
395.07	1607.95
395.26	1703.91
395.46	1713.27
395.65	1750.72
395.84	1687.53
396.04	1739.02
396.23	1769.44
396.42	1710.93
396.62	1729.66
396.81	1727.32
397.00	1804.55
397.19	1797.53
397.39	1912.22
397.58	1886.47
397.77	1788.17
397.97	1900.52
398.16	1935.62
398.35	1900.52
398.55	1832.64
398.74	1966.05
398.93	1963.71
399.12	1907.54
399.32	1874.77
399.51	1919.24
399.70	2054.99
399.90	1891.15
400.09	2062.01
400.28	2033.93
400.47	1959.03
400.67	2003.50
400.86	2085.42
401.05	2134.57
401.24	2139.25
401.44	2045.63
401.63	2253.94
401.82	2150.95
402.01	2136.91
402.21	2188.40
402.40	2216.49
402.59	2176.70
402.78	2225.85
402.97	2197.76
403.17	2284.36
403.36	2167.34
403.55	2342.88
403.74	2417.77
403.93	2455.22
404.13	2354.58
404.32	2427.14
404.51	2471.61
404.70	2422.45
404.89	2303.09
405.09	2429.48
405.28	2516.08
405.47	2502.03
405.66	2471.61
405.85	2438.84
406.05	2427.14
406.24	2551.18
406.43	2677.57
406.62	2525.44
406.81	2843.75
407.00	2541.82
407.20	2527.78
407.39	2628.42
407.58	2724.38
407.77	2773.53
407.96	2818.00
408.15	2766.51
408.34	2771.19
408.54	2789.92
408.73	2815.66
408.92	2815.66
409.11	2928.01
409.30	2846.09
409.49	2803.96
409.68	2860.13
409.87	2967.80
410.07	3000.57
410.26	3012.27
410.45	3035.67
410.64	3012.27
410.83	3059.08
411.02	3272.07
411.21	3222.92
411.40	3187.81
411.59	3178.45
411.78	3206.53
411.98	3267.39
412.17	3225.26
412.36	3321.22
412.55	3391.44
412.74	3391.44
412.93	3405.48
413.12	3461.65
413.31	3559.95
413.50	3468.67
413.69	3555.27
413.88	3461.65
414.07	3576.34
414.26	3819.75
414.45	3599.74
414.64	3604.42
414.83	3861.88
415.02	3733.15
415.22	3880.61
415.41	3906.35
415.60	3971.89
415.79	3892.31
415.98	3964.87
416.17	4051.47
416.36	3950.82
416.55	4067.85
416.74	4058.49
416.93	4163.81
417.12	4147.43
417.31	4184.88
417.50	4187.22
417.69	4365.10
417.88	4262.12
418.07	4355.74
418.26	4203.60
418.45	4271.48
418.64	4479.79
418.83	4592.13
419.02	4393.19
419.21	4411.91
419.39	4568.73
419.58	4561.70
419.77	4477.44
419.96	4545.32
420.15	4809.80
420.34	4620.22
420.53	4664.69
420.72	4734.90
420.91	4664.69
421.10	4812.14
421.29	4777.03
421.48	4709.16
421.67	4887.04
421.86	4777.03
422.05	4704.48
422.24	4854.27
422.43	4992.36
422.61	4924.49
422.80	4943.21
422.99	4816.82
423.18	4938.53
423.37	5090.67
423.56	5107.05
423.75	5048.54
423.94	4971.30
424.13	4741.93
424.32	4819.16
424.50	5149.18
424.69	5256.84
424.88	5064.92
425.07	4929.17
425.26	4915.12
425.45	5057.90
425.64	4889.38
425.83	4889.38
426.01	5085.98
426.20	5090.67
426.39	5053.22
426.58	5181.95
426.77	4961.94
426.96	5125.77
427.15	5219.39
427.33	5308.34
427.52	5181.95
427.71	5338.76
427.90	5298.97
428.09	5338.76
428.28	5383.23
428.46	5294.29
428.65	5476.85
428.84	5481.53
429.03	5533.03
429.22	5458.13
429.40	5570.48
429.59	5586.86
429.78	5266.21
429.97	5282.59
430.16	5561.11
430.34	5774.10
430.53	5813.89
430.72	5645.37
430.91	5526.00
431.10	5781.12
431.28	5708.57
431.47	5809.21
431.66	5867.72
431.85	5741.33
432.03	5893.47
432.22	6087.73
432.41	6073.69
432.60	5935.60
432.79	5940.28
432.97	5935.60
433.16	6225.82
433.35	6061.99
433.54	6113.48
433.72	6188.38
433.91	6202.42
434.10	6113.48
434.28	6143.91
434.47	6146.25
434.66	6153.27
434.85	6289.02
435.03	6352.21
435.22	6389.66
435.41	6586.27
435.59	6480.94
435.78	6668.19
435.97	6328.81
436.16	6539.46
436.34	6581.59
436.53	6696.27
436.72	6691.59
436.90	6499.67
437.09	6621.38
437.28	6457.54
437.46	6586.27
437.65	6602.65
437.84	6693.93
438.02	6778.19
438.21	6876.49
438.40	6698.61
438.58	7183.10
438.77	7213.53
438.96	6878.83
439.14	7166.72
439.33	7222.89
439.52	7119.91
439.70	7253.32
439.89	7501.42
440.08	7445.24
440.26	7538.87
440.45	7421.84
440.63	7419.50
440.82	7583.34
441.01	7620.78
441.19	7597.38
441.38	7700.36
441.57	7730.79
441.75	7892.29
441.94	7960.16
442.12	7934.42
442.31	8161.45
442.50	8320.60
442.68	8156.77
442.87	7934.42
443.05	8177.83
443.24	8224.64
443.43	8121.66
443.61	8304.22
443.80	8716.16
443.98	8149.75
444.17	7918.03
444.35	8173.15
444.54	8493.80
444.73	8400.18
444.91	8355.71
445.10	8454.02
445.28	8306.56
445.47	8482.10
445.65	8358.05
445.84	8451.67
446.02	8397.84
446.21	8620.19
446.39	8503.17
446.58	8575.72
446.77	8631.90
446.95	8280.82
447.14	8465.72
447.32	8386.14
447.51	8493.80
447.69	8540.61
447.88	8596.79
448.06	8667.00
448.25	8292.52
448.43	8709.13
448.62	8528.91
448.80	8669.34
448.99	8688.07
449.17	8720.84
449.36	8753.60
449.54	8922.12
449.73	8917.44
449.91	9076.60
450.10	9018.08
450.28	9200.65
450.46	9081.28
450.65	9238.09
450.83	9125.75
451.02	9167.88
451.20	9254.48
451.39	9156.18
451.57	9142.13
451.76	9186.60
451.94	9170.22
452.13	9420.66
452.31	9350.44
452.49	9235.75
452.68	9240.44
452.86	9509.60
453.05	9338.74
453.23	9453.42
453.42	9570.45
453.60	9430.02
453.78	9799.82
453.97	9488.53
454.15	9619.60
454.34	9596.20
454.52	9827.91
454.70	9671.09
454.89	9774.08
455.07	9781.10
455.26	9792.80
455.44	9996.43
455.62	9956.64
455.81	9996.43
455.99	10289.00
456.17	10214.10
456.36	10190.69
456.54	10326.44
456.73	10284.31
456.91	10553.48
457.09	10434.11
457.28	10567.52
457.46	10483.26
457.64	10403.68
457.83	10820.30
458.01	10490.28
458.19	10820.30
458.38	10445.81
458.56	10827.32
458.74	10738.38
458.93	10864.77
459.11	10740.72
459.29	10635.39
459.48	10824.98
459.66	10932.64
459.84	10925.62
460.03	11143.29
460.21	11075.42
460.39	11009.88
460.57	10963.07
460.76	11307.13
460.94	11075.42
461.12	11208.83
461.31	11309.47
461.49	11138.61
461.67	11293.08
461.85	11623.10
462.04	11377.34
462.22	11843.11
462.40	11740.13
462.59	11583.31
462.77	11477.99
462.95	11929.71
463.13	11363.30
463.32	11854.81
463.50	12023.33
463.68	11887.58
463.86	11896.94
464.05	11737.79
464.23	12002.27
464.41	12018.65
464.59	11943.75
464.78	12325.26
464.96	11910.99
465.14	11815.02
465.32	12341.64
465.50	12243.34
465.69	12348.67
465.87	12503.14
466.05	12304.20
466.23	12449.31
466.41	12358.03
466.60	12599.10
466.78	12299.52
466.96	12285.47
467.14	12587.40
467.32	12547.61
467.51	12624.85
467.69	12294.83
467.87	12461.01
468.05	12755.92
468.23	12556.97
468.41	12503.14
468.60	12538.25
468.78	13205.30
468.96	12830.82
469.14	13071.89
469.32	13212.32
469.50	12872.95
469.69	13118.70
469.87	13474.46
470.05	13350.42
470.23	13352.76
470.41	13275.52
470.59	13364.46
470.77	13441.70
470.95	13334.03
471.14	13582.13
471.32	13369.14
471.50	13914.48
471.68	13694.47
471.86	13991.72
472.04	13965.98
472.22	14286.63
472.40	13614.90
472.58	13921.51
472.77	14083.00
472.95	13926.19
473.13	14572.18
473.31	14232.80
473.49	14146.20
473.67	14171.94
473.85	14628.35
474.03	14560.47
474.21	14736.01
474.39	14562.81
474.57	15119.86
474.75	14806.23
474.93	15094.11
475.12	15087.09
475.30	15126.88
475.48	15131.56
475.66	15522.43
475.84	15449.88
476.02	15426.47
476.20	15571.58
476.38	15871.17
476.56	16278.43
476.74	16023.31
476.92	15974.16
477.10	16039.69
477.28	16332.26
477.46	16294.81
477.64	16362.69
477.82	16369.71
478.00	17226.34
478.18	16975.91
478.36	17071.87
478.54	17326.99
478.72	17418.27
478.90	17638.28
479.08	17799.77
479.26	17638.28
479.44	17954.25
479.62	17909.78
479.80	18087.66
479.98	18518.32
480.16	18698.54
480.34	18644.71
480.52	18707.90
480.70	18789.82
480.88	18511.30
481.06	18883.44
481.24	18890.46
481.41	19503.68
481.59	19726.04
481.77	19864.13
481.95	19737.74
482.13	20269.04
482.31	19948.39
482.49	20596.71
482.67	20446.92
482.85	20650.55
483.03	20814.38
483.21	21015.67
483.39	21539.95
483.57	21128.02
483.74	21933.16
483.92	21570.38
484.10	21568.04
484.28	22176.58
484.46	22455.10
484.64	22312.33
484.82	22150.83
485.00	22504.25
485.18	22871.72
485.35	23325.78
485.53	23145.56
485.71	23124.49
485.89	23819.63
486.07	23496.64
486.25	23271.95
486.43	23833.68
486.61	23695.58
486.78	24580.31
486.96	24482.00
487.14	24723.08
487.32	25003.94
487.50	24989.90
487.68	25221.61
487.85	25708.44
488.03	25734.19
488.21	25809.09
488.39	25984.63
488.57	26485.50
488.75	26511.25
488.92	26696.15
489.10	26962.97
489.28	26888.07
489.46	27285.97
489.64	27491.93
489.81	27873.44
489.99	27723.65
490.17	28114.52
490.35	28500.70
490.53	28414.10
490.70	28959.45
490.88	28439.85
491.06	28900.94
491.24	29095.20
491.41	29347.98
491.59	29504.79
491.77	29673.31
491.95	29949.50
492.13	30345.05
492.30	30263.13
492.48	30221.00
492.66	30476.12
492.84	30654.00
493.01	30909.11
493.19	30881.03
493.37	30955.93
493.54	31875.76
493.72	32034.91
493.90	31630.00
494.08	32067.68
494.25	32421.10
494.43	32343.86
494.61	32250.24
494.79	32837.72
494.96	33181.77
495.14	33205.18
495.32	33696.69
495.49	33537.54
495.67	33399.44
495.85	33804.36
496.02	34298.21
496.20	34323.96
496.38	34609.50
496.55	33827.76
496.73	35332.73
496.91	35318.68
497.09	35339.75
497.26	35061.22
497.44	35557.42
497.62	35573.80
497.79	36112.13
497.97	35728.28
498.14	36428.10
498.32	36292.35
498.50	36954.72
498.67	37027.28
498.85	37081.11
499.03	36989.83
499.20	36877.48
499.38	37247.29
499.56	37193.45
499.73	37450.91
499.91	38075.84
500.08	38157.75
500.26	37818.38
500.44	38244.35
500.61	38188.18
500.79	38249.03
500.97	38300.53
501.14	38761.61
501.32	39122.05
501.49	38941.83
501.67	39150.14
501.84	39676.76
502.02	39306.96
502.20	39271.85
502.37	39690.80
502.55	39714.21
502.72	39896.77
502.90	39810.17
503.07	39903.79
503.25	40402.33
503.43	39777.40
503.60	40526.38
503.78	40549.78
503.95	40832.99
504.13	41123.21
504.30	41050.66
504.48	40945.33
504.65	40683.19
504.83	41242.58
505.01	42043.04
505.18	41813.67
505.36	41984.53
505.53	41918.99
505.71	41926.02
505.88	42244.33
506.06	41998.57
506.23	42302.84
506.41	42417.53
506.58	42096.88
506.76	42295.82
506.93	42801.38
507.11	42792.01
507.28	43292.89
507.46	43086.92
507.63	43863.98
507.81	44018.46
507.98	43234.38
508.16	43562.05
508.33	43344.38
508.50	44123.78
508.68	44053.56
508.85	44430.39
509.03	44182.29
509.20	44811.90
509.38	45027.23
509.55	44701.89
509.73	44680.83
509.90	44889.13
510.08	45247.24
510.25	44741.68
510.42	44914.88
510.60	45453.20
510.77	45682.58
510.95	45830.03
511.12	45511.72
511.30	45598.32
511.47	46057.06
511.64	45933.01
511.82	46302.82
511.99	46021.95
512.17	46293.46
512.34	46316.86
512.51	46649.22
512.69	46916.04
512.86	46335.59
513.04	46859.87
513.21	46878.59
513.38	46857.52
513.56	47632.24
513.73	47056.47
513.90	47442.66
514.08	47384.15
514.25	47606.50
514.43	47973.96
514.60	47889.70
514.77	48020.77
514.95	48107.37
515.12	47683.73
515.29	48041.84
515.47	48301.64
515.64	48563.78
515.81	48378.87
515.99	48736.98
516.16	48751.02
516.33	48605.91
516.51	49015.50
516.68	48914.86
516.85	48940.60
517.03	49413.39
517.20	49226.15
517.37	49172.31
517.54	49535.10
517.72	49645.10
517.89	49783.19
518.06	49820.64
518.24	49628.72
518.41	49560.84
518.58	49722.34
518.75	49373.60
518.93	49862.77
519.10	49846.39
519.27	50192.79
519.45	50265.34
519.62	50279.39
519.79	50267.69
519.96	50429.18
520.14	50508.76
520.31	50555.57
520.48	50705.37
520.65	50995.59
520.83	51082.19
521.00	51098.58
521.17	50766.22
521.34	51124.32
521.52	51374.76
521.69	51089.21
521.86	51349.01
522.03	51187.52
522.20	51475.40
522.38	52203.31
522.55	51657.96
522.72	51547.96
522.89	51498.81
523.07	51971.60
523.24	51751.59
523.41	52514.60
523.58	51819.46
523.75	51955.21
523.92	52238.42
524.10	52364.81
524.27	52348.42
524.44	52420.98
524.61	52336.72
524.78	52589.50
524.96	52596.52
525.13	52811.85
525.30	52767.38
525.47	52849.30
525.64	52626.95
525.81	52903.13
525.98	53221.44
526.16	52921.85
526.33	53036.54
526.50	53373.58
526.67	53272.93
526.84	53162.93
527.01	52861.00
527.18	53191.01
527.36	53214.42
527.53	53483.58
527.70	53710.61
527.87	53741.04
528.04	53446.13
528.21	53752.74
528.38	53846.36
528.55	53783.17
528.72	53485.92
528.89	53839.34
529.07	53656.78
529.24	53652.10
529.41	54033.61
529.58	53975.09
529.75	54347.24
529.92	53811.26
530.09	54164.68
530.26	54223.19
530.43	54431.50
530.60	54096.80
530.77	54274.68
530.94	54447.88
531.11	54131.91
531.28	54354.26
531.46	54541.50
531.63	54464.27
531.80	54588.31
531.97	54885.56
532.14	54731.09
532.31	54602.36
532.48	54801.30
532.65	55014.29
532.82	54703.00
532.99	55161.75
533.16	55049.40
533.33	55068.12
533.50	55136.00
533.67	55332.60
533.84	55152.38
534.01	55304.52
534.18	55264.73
534.35	55590.06
534.52	55257.71
534.69	55402.82
534.86	55613.47
535.03	55412.18
535.20	55423.89
535.37	55391.12
535.54	55545.59
535.71	55627.51
535.88	55662.62
536.05	55880.29
536.22	55941.14
536.38	55896.67
536.55	55875.61
536.72	55922.42
536.89	55756.24
537.06	55934.12
537.23	55882.63
537.40	55955.19
537.57	55861.57
537.74	56032.42
537.91	56285.20
538.08	56030.08
538.25	55817.10
538.42	56048.81
538.59	56282.86
538.75	56353.08
538.92	56203.28
539.09	56549.68
539.26	56402.23
539.43	56306.27
539.60	56432.66
539.77	56575.43
539.94	56851.61
540.11	56662.03
540.28	56617.56
540.44	56849.27
540.61	56788.42
540.78	56392.87
540.95	56697.14
541.12	56596.49
541.29	56617.56
541.46	56966.30
541.62	56924.17
541.79	57064.60
541.96	56540.32
542.13	56835.23
542.30	56814.16
542.47	57024.81
542.63	57137.16
542.80	57104.39
542.97	57354.83
543.14	57469.51
543.31	57427.38
543.48	57286.95
543.64	57476.54
543.81	57677.82
543.98	57666.12
544.15	57492.92
544.32	57670.80
544.48	57836.98
544.65	57684.84
544.82	58038.26
544.99	57581.86
545.16	57776.12
545.32	57694.21
545.49	57918.90
545.66	57841.66
545.83	57921.24
546.00	58099.12
546.16	57839.32
546.33	57762.08
546.50	57897.83
546.67	57890.81
546.83	57673.14
547.00	58199.76
547.17	58103.80
547.34	58148.27
547.50	58141.25
547.67	58330.83
547.84	58117.84
548.00	58602.33
548.17	58585.95
548.34	58532.12
548.51	58431.47
548.67	58515.73
548.84	58061.67
549.01	58459.56
549.18	58433.81
549.34	58466.58
549.51	58504.03
549.68	58578.93
549.84	58548.50
550.01	58695.95
550.18	58571.91
550.34	58700.64
550.51	58609.35
550.68	58642.12
550.84	58546.16
551.01	58960.44
551.18	58695.95
551.34	58838.73
551.51	58983.84
551.68	58848.09
551.84	58763.83
552.01	58583.61
552.18	58885.54
552.34	58805.96
552.51	58951.07
552.68	58740.42
552.84	58993.20
553.01	59014.27
553.18	59290.45
553.34	59054.06
553.51	58930.01
553.67	59044.69
553.84	59203.85
554.01	59182.79
554.17	59260.02
554.34	59199.17
554.51	59002.56
554.67	59274.07
554.84	59189.81
555.00	59203.85
555.17	59234.28
555.33	59360.67
555.50	59175.76
555.67	59201.51
555.83	59245.98
556.00	59309.18
556.16	59716.43
556.33	59573.66
556.50	59505.78
556.66	59435.56
556.83	59271.73
556.99	59730.47
557.16	59536.21
557.32	59585.36
557.49	59774.94
557.65	59550.25
557.82	59814.73
557.98	59657.91
558.15	59643.87
558.32	59646.21
558.48	59772.60
558.65	59819.41
558.81	59742.17
558.98	59749.20
559.14	59964.52
559.31	59980.91
559.47	59971.55
559.64	60044.10
559.80	59992.61
559.97	60229.01
560.13	59945.80
560.30	60055.81
560.46	60083.89
560.63	59959.84
560.79	60207.94
560.96	60111.98
561.12	60081.55
561.29	60198.58
561.45	60116.66
561.61	60163.47
561.78	60144.75
561.94	60186.88
562.11	60303.90
562.27	60285.18
562.44	60306.24
562.60	60399.86
562.77	60245.39
562.93	59997.29
563.10	60046.44
563.26	60088.57
563.42	60406.89
563.59	60268.79
563.75	60273.48
563.92	60273.48
564.08	60133.04
564.24	60360.08
564.41	60252.41
564.57	60554.34
564.74	60388.16
564.90	60633.92
565.07	60353.05
565.23	60388.16
565.39	60472.42
565.56	60397.52
565.72	60495.83
565.88	60608.17
566.05	60367.10
566.21	60343.69
566.38	60636.26
566.54	60446.68
566.70	60537.96
566.87	60605.83
567.03	60509.87
567.19	60750.94
567.36	60580.09
567.52	60580.09
567.68	60699.45
567.85	60540.30
568.01	60568.38
568.17	60355.39
568.34	60772.01
568.50	60559.02
568.66	60376.46
568.83	60905.42
568.99	60659.66
569.15	60556.68
569.32	60687.75
569.48	60556.68
569.64	60552.00
569.81	60683.07
569.97	60561.36
570.13	60563.70
570.30	60631.58
570.46	60662.00
570.62	60846.91
570.78	60870.31
570.95	60734.56
571.11	60860.95
571.27	60914.78
571.43	60846.91
571.60	60928.83
571.76	60757.97
571.92	60954.57
572.09	60879.67
572.25	60772.01
572.41	60647.96
572.57	60699.45
572.74	61113.73
572.90	60860.95
573.06	60844.57
573.22	60931.17
573.38	60793.07
573.55	60748.60
573.71	60999.04
573.87	60912.44
574.03	60596.47
574.20	60992.02
574.36	60687.75
574.52	61041.17
574.68	60961.59
574.84	61148.84
575.01	60879.67
575.17	60963.93
575.33	60982.66
575.49	60750.94
575.65	61003.72
575.82	61092.66
575.98	61027.13
576.14	61120.75
576.30	61127.77
576.46	61001.38
576.62	61057.56
576.79	60903.08
576.95	60877.33
577.11	60896.06
577.27	61146.50
577.43	61291.61
577.59	60872.65
577.75	60994.36
577.92	60617.53
578.08	60985.00
578.24	61024.79
578.40	61216.71
578.56	61322.04
578.72	61073.94
578.88	61181.60
579.04	61179.26
579.21	61097.34
579.37	61237.78
579.53	61312.67
579.69	60994.36
579.85	61197.99
580.01	61038.83
580.17	61078.62
580.33	61256.50
580.49	61111.39
580.65	61083.30
580.82	61024.79
580.98	60956.91
581.14	61151.18
581.30	61062.24
581.46	61069.26
581.62	61146.50
581.78	61055.21
581.94	61212.03
582.10	61085.64
582.26	61244.80
582.42	61111.39
582.58	60996.70
582.74	61275.22
582.90	61144.16
583.06	61043.51
583.22	61165.22
583.38	61275.22
583.54	61396.93
583.70	61069.26
583.86	61254.16
584.02	61310.33
584.18	61263.52
584.34	61333.74
584.50	61277.57
584.66	61151.18
584.82	61097.34
584.98	61293.95
585.14	61256.50
585.30	61146.50
585.46	61244.80
585.62	61183.94
585.78	61476.51
585.94	61146.50
586.10	61151.18
586.26	61300.97
586.42	61291.61
586.58	61322.04
586.74	61162.88
586.90	61296.29
587.06	61284.59
587.22	61310.33
587.38	61235.44
587.54	61420.34
587.70	61497.58
587.86	61310.33
588.02	61254.16
588.18	61439.06
588.34	61223.73
588.49	61378.21
