SpectraSuite Data File
++++++++++++++++++++++++++++++++++++
Date: Fri Oct 25 10:44:32 EDT 2013
User: price-jones
Dark Spectrum Present: No
Reference Spectrum Present: No
Number of Sampled Component Spectra: 1
Spectrometers: USB2+H05261
Integration Time (usec): 100000 (USB2+H05261)
Spectra Averaged: 1 (USB2+H05261)
Boxcar Smoothing: 0 (USB2+H05261)
Correct for Electrical Dark: No (USB2+H05261)
Strobe/Lamp Enabled: No (USB2+H05261)
Correct for Detector Non-linearity: No (USB2+H05261)
Correct for Stray Light: No (USB2+H05261)
Number of Pixels in Processed Spectrum: 2048
>>>>>Begin Processed Spectral Data<<<<<
365.73	105.32
365.92	105.32
366.12	105.32
366.32	65.54
366.52	30.43
366.72	81.92
366.91	0.00
367.11	0.00
367.31	0.00
367.51	39.79
367.70	46.81
367.90	21.06
368.10	51.49
368.30	63.19
368.49	0.00
368.69	16.38
368.89	14.04
369.09	84.26
369.28	16.38
369.48	35.11
369.68	117.03
369.87	110.01
370.07	23.41
370.27	91.28
370.47	210.65
370.66	332.36
370.86	440.02
371.06	397.89
371.25	409.59
371.45	435.34
371.65	472.79
371.84	454.06
372.04	433.00
372.24	475.13
372.44	437.68
372.63	547.69
372.83	411.93
373.03	449.38
373.22	521.94
373.42	564.07
373.62	580.45
373.81	510.24
374.01	561.73
374.21	603.86
374.40	554.71
374.60	559.39
374.79	482.15
374.99	571.09
375.19	557.05
375.38	554.71
375.58	524.28
375.78	568.75
375.97	606.20
376.17	627.26
376.37	596.84
376.56	617.90
376.76	559.39
376.95	566.41
377.15	641.31
377.35	585.13
377.54	622.58
377.74	559.39
377.93	540.66
378.13	573.43
378.33	580.45
378.52	573.43
378.72	559.39
378.91	627.26
379.11	578.11
379.31	592.16
379.50	538.32
379.70	678.76
379.89	643.65
380.09	699.82
380.28	667.05
380.48	664.71
380.68	524.28
380.87	575.77
381.07	683.44
381.26	634.29
381.46	704.50
381.65	688.12
381.85	711.52
382.04	648.33
382.24	702.16
382.43	723.23
382.63	617.90
382.83	697.48
383.02	690.46
383.22	702.16
383.41	744.29
383.61	802.80
383.80	763.01
384.00	781.74
384.19	753.65
384.39	739.61
384.58	657.69
384.78	767.70
384.97	730.25
385.17	741.95
385.36	702.16
385.56	718.54
385.75	812.17
385.95	760.67
386.14	816.85
386.34	821.53
386.53	758.33
386.72	704.50
386.92	770.04
387.11	798.12
387.31	835.57
387.50	868.34
387.70	765.36
387.89	912.81
388.09	837.91
388.28	781.74
388.48	828.55
388.67	840.25
388.86	842.59
389.06	884.72
389.25	924.51
389.45	908.13
389.64	875.36
389.84	910.47
390.03	891.74
390.22	966.64
390.42	957.28
390.61	931.53
390.81	894.08
391.00	912.81
391.19	938.55
391.39	1006.43
391.58	1071.97
391.78	929.19
391.97	910.47
392.16	994.73
392.36	959.62
392.55	1029.84
392.75	1008.77
392.94	954.94
393.13	936.21
393.33	950.26
393.52	1055.58
393.71	1004.09
393.91	1011.11
394.10	1078.99
394.29	1050.90
394.49	1100.05
394.68	1050.90
394.88	1156.22
395.07	1132.82
395.26	1128.14
395.46	1151.54
395.65	1259.21
395.84	1132.82
396.04	1121.12
396.23	1046.22
396.42	1097.71
396.62	1128.14
396.81	1097.71
397.00	1160.91
397.19	1198.35
397.39	1207.72
397.58	1235.80
397.77	1352.83
397.97	1336.45
398.16	1231.12
398.35	1345.81
398.55	1301.34
398.74	1427.73
398.93	1430.07
399.12	1331.76
399.32	1343.47
399.51	1401.98
399.70	1413.68
399.90	1420.71
400.09	1423.05
400.28	1394.96
400.47	1437.09
400.67	1432.41
400.86	1465.18
401.05	1413.68
401.24	1558.80
401.44	1579.86
401.63	1621.99
401.82	1507.30
402.01	1511.99
402.21	1565.82
402.40	1584.54
402.59	1577.52
402.78	1575.18
402.97	1493.26
403.17	1624.33
403.36	1584.54
403.55	1692.21
403.74	1664.12
403.93	1640.72
404.13	1792.85
404.32	1682.85
404.51	1687.53
404.70	1734.34
404.89	1671.14
405.09	1806.89
405.28	1769.44
405.47	1795.19
405.66	1741.36
405.85	1865.41
406.05	1837.32
406.24	1853.70
406.43	1895.83
406.62	1858.39
406.81	1944.99
407.00	1954.35
407.20	1905.20
407.39	1834.98
407.58	1900.52
407.77	1994.14
407.96	1895.83
408.15	2071.37
408.34	1856.04
408.54	1977.75
408.73	2071.37
408.92	2069.03
409.11	2062.01
409.30	2153.29
409.49	2036.27
409.68	2062.01
409.87	2099.46
410.07	2242.23
410.26	2153.29
410.45	2235.21
410.64	2190.74
410.83	2284.36
411.02	2291.38
411.21	2420.11
411.40	2312.45
411.59	2347.56
411.78	2340.54
411.98	2413.09
412.17	2312.45
412.36	2385.01
412.55	2480.97
412.74	2530.12
412.93	2457.56
413.12	2328.83
413.31	2670.55
413.50	2565.23
413.69	2691.62
413.88	2644.81
414.07	2640.12
414.26	2771.19
414.45	2600.34
414.64	2715.02
414.83	2738.43
415.02	2913.97
415.22	2780.56
415.41	2825.03
415.60	2829.71
415.79	2899.92
415.98	2904.60
416.17	2857.79
416.36	2942.05
416.55	2888.22
416.74	2911.63
416.93	3049.72
417.12	3009.93
417.31	3052.06
417.50	3042.70
417.69	3152.70
417.88	3215.90
418.07	3129.30
418.26	3145.68
418.45	3108.23
418.64	3248.66
418.83	3276.75
419.02	3295.47
419.21	3269.73
419.39	3204.19
419.58	3201.85
419.77	3236.96
419.96	3435.91
420.15	3445.27
420.34	3361.01
420.53	3382.07
420.72	3545.91
420.91	3475.70
421.10	3485.06
421.29	3447.61
421.48	3421.86
421.67	3496.76
421.86	3454.63
422.05	3421.86
422.24	3478.04
422.43	3487.40
422.61	3595.06
422.80	3566.98
422.99	3721.45
423.18	3716.77
423.37	3728.47
423.56	3391.44
423.75	3520.17
423.94	3613.79
424.13	3475.70
424.32	3508.46
424.50	3801.03
424.69	3735.50
424.88	3730.81
425.07	3599.74
425.26	3527.19
425.45	3648.90
425.64	3723.79
425.83	3632.51
426.01	3712.09
426.20	3733.15
426.39	3751.88
426.58	3684.00
426.77	3700.39
426.96	3602.08
427.15	3688.68
427.33	3644.21
427.52	3723.79
427.71	3763.58
427.90	3885.29
428.09	3885.29
428.28	3733.15
428.46	3934.44
428.65	3817.41
428.84	3981.25
429.03	3953.16
429.22	3726.13
429.40	3854.86
429.59	3812.73
429.78	3648.90
429.97	3740.18
430.16	3801.03
430.34	3887.63
430.53	3850.18
430.72	3941.46
430.91	3934.44
431.10	4049.13
431.28	4285.52
431.47	4093.60
431.66	4383.82
431.85	4112.32
432.03	4203.60
432.22	4194.24
432.41	4294.88
432.60	4334.67
432.79	4306.59
432.97	4510.21
433.16	4269.14
433.35	4299.56
433.54	4360.42
433.72	4257.43
433.91	4376.80
434.10	4376.80
434.28	4521.92
434.47	4470.42
434.66	4559.36
434.85	4533.62
435.03	4674.05
435.22	4648.30
435.41	4702.14
435.59	4648.30
435.78	4681.07
435.97	4725.54
436.16	4699.80
436.34	4746.61
436.53	4725.54
436.72	4840.23
436.90	4807.46
437.09	4777.03
437.28	4631.92
437.46	4755.97
437.65	4770.01
437.84	4884.70
438.02	4734.90
438.21	4854.27
438.40	4779.37
438.58	5090.67
438.77	4933.85
438.96	4851.93
439.14	5074.28
439.33	5167.90
439.52	5172.58
439.70	5172.58
439.89	5270.89
440.08	5259.18
440.26	5233.44
440.45	5249.82
440.63	5303.65
440.82	5572.82
441.01	5371.53
441.19	5516.64
441.38	5628.99
441.57	5605.58
441.75	5671.12
441.94	5774.10
442.12	5760.06
442.31	5884.11
442.50	5944.96
442.68	5741.33
442.87	5870.06
443.05	5818.57
443.24	6085.39
443.43	6019.86
443.61	5881.77
443.80	6225.82
443.98	6010.50
444.17	5774.10
444.35	6019.86
444.54	6118.16
444.73	6134.54
444.91	6024.54
445.10	6005.81
445.28	5909.85
445.47	5870.06
445.65	6015.18
445.84	6010.50
446.02	5954.32
446.21	6038.58
446.39	6136.88
446.58	6050.28
446.77	6024.54
446.95	6031.56
447.14	6176.67
447.32	6179.01
447.51	6181.35
447.69	6150.93
447.88	6136.88
448.06	6106.46
448.25	6150.93
448.43	6179.01
448.62	6136.88
448.80	6148.59
448.99	6373.28
449.17	6335.83
449.36	6300.72
449.54	6303.06
449.73	6691.59
449.91	6492.65
450.10	6485.62
450.28	6565.20
450.46	6614.35
450.65	6682.23
450.83	6658.82
451.02	6579.25
451.20	6590.95
451.39	6654.14
451.57	6712.66
451.76	6569.88
451.94	6771.17
452.13	6899.90
452.31	6602.65
452.49	6567.54
452.68	6771.17
452.86	6539.46
453.05	6785.21
453.23	6817.98
453.42	6773.51
453.60	6696.27
453.78	6822.66
453.97	6775.85
454.15	6740.74
454.34	6834.36
454.52	7021.61
454.70	6803.94
454.89	7087.14
455.07	6825.00
455.26	6972.46
455.44	7234.60
455.62	6995.86
455.81	7087.14
455.99	7098.84
456.17	7204.17
456.36	7150.34
456.54	7440.56
456.73	7267.36
456.91	7433.54
457.09	7620.78
457.28	7691.00
457.46	7353.96
457.64	7496.74
457.83	7384.39
458.01	7435.88
458.19	7590.36
458.38	7501.42
458.56	7634.83
458.74	7606.74
458.93	7595.04
459.11	7585.68
459.29	7536.52
459.48	7698.02
459.66	7529.50
459.84	7744.83
460.03	7838.45
460.21	7850.16
460.39	7789.30
460.57	7885.26
460.76	7714.41
460.94	7955.48
461.12	7939.10
461.31	8032.72
461.49	7957.82
461.67	7775.26
461.85	8037.40
462.04	8079.53
462.22	8098.25
462.40	8231.66
462.59	8145.06
462.77	8276.13
462.95	8329.97
463.13	8194.22
463.32	8222.30
463.50	8081.87
463.68	8276.13
463.86	8224.64
464.05	8255.07
464.23	8219.96
464.41	8273.79
464.59	8231.66
464.78	8645.94
464.96	8393.16
465.14	8269.11
465.32	8381.46
465.50	8622.53
465.69	8582.74
465.87	8566.36
466.05	8400.18
466.23	8503.17
466.41	8573.38
466.60	8744.24
466.78	8585.08
466.96	8615.51
467.14	8573.38
467.32	8484.44
467.51	8751.26
467.69	8416.57
467.87	8805.10
468.05	8947.87
468.23	8725.52
468.41	8601.47
468.60	8765.31
468.78	8861.27
468.96	8748.92
469.14	8954.89
469.32	9160.86
469.50	8959.57
469.69	9060.21
469.87	9179.58
470.05	9186.60
470.23	8954.89
470.41	9172.56
470.59	9308.31
470.77	9064.89
470.95	9296.61
471.14	9509.60
471.32	9179.58
471.50	9516.62
471.68	9579.81
471.86	9696.84
472.04	9479.17
472.22	9867.70
472.40	9624.28
472.58	9708.54
472.77	9617.26
472.95	9916.85
473.13	10125.16
473.31	9975.36
473.49	9886.42
473.67	10076.01
473.85	10040.90
474.03	10129.84
474.21	10221.12
474.39	10286.65
474.57	10216.44
474.75	10438.79
474.93	10310.06
475.12	10321.76
475.30	10497.30
475.48	10373.25
475.66	10457.51
475.84	10204.74
476.02	10712.63
476.20	10539.43
476.38	10848.38
476.56	10923.28
476.74	10927.96
476.92	10930.30
477.10	11059.03
477.28	11304.79
477.46	11152.65
477.64	11449.90
477.82	11382.03
478.00	11737.79
478.18	11480.33
478.36	11707.36
478.54	11726.08
478.72	11910.99
478.90	11969.50
479.08	12044.40
479.26	12084.19
479.44	12248.02
479.62	12159.08
479.80	12500.80
479.98	12287.81
480.16	12730.17
480.34	12718.47
480.52	13008.70
480.70	12704.43
480.88	12915.08
481.06	12966.57
481.24	12819.11
481.41	13263.82
481.59	13209.98
481.77	13439.36
481.95	13523.62
482.13	13317.65
482.31	13647.66
482.49	13994.06
482.67	13834.91
482.85	13785.76
483.03	14031.51
483.21	14340.46
483.39	14434.08
483.57	14565.15
483.74	14277.27
483.92	14600.26
484.10	14672.82
484.28	15044.96
484.46	14986.45
484.64	15269.66
484.82	15117.52
485.00	15105.82
485.18	15290.72
485.35	15475.62
485.53	15197.10
485.71	15218.16
485.89	15859.47
486.07	15367.96
486.25	15508.39
486.43	15936.71
486.61	16023.31
486.78	15978.84
486.96	16292.47
487.14	16788.66
487.32	16786.32
487.50	16826.11
487.68	16816.75
487.85	17125.70
488.03	17221.66
488.21	17280.18
488.39	17296.56
488.57	17467.42
488.75	17589.13
488.92	17649.98
489.10	18405.97
489.28	18036.17
489.46	18569.81
489.64	18384.91
489.81	18771.10
489.99	18906.85
490.17	18918.55
490.35	19051.96
490.53	19070.68
490.70	18948.98
490.88	19073.03
491.06	19758.80
491.24	19374.95
491.41	19374.95
491.59	19674.54
491.77	19599.65
491.95	19531.77
492.13	19744.76
492.30	20287.76
492.48	20280.74
492.66	20449.26
492.84	20306.49
493.01	20559.27
493.19	20659.91
493.37	20830.77
493.54	21184.19
493.72	21193.55
493.90	21399.52
494.08	21422.92
494.25	21280.15
494.43	21259.09
494.61	21804.43
494.79	22003.38
494.96	21837.20
495.14	22022.10
495.32	22338.07
495.49	22188.28
495.67	22401.27
495.85	22621.28
496.02	22630.64
496.20	22780.43
496.38	23026.19
496.55	22897.46
496.73	23716.65
496.91	23370.25
497.09	23166.62
497.26	23274.29
497.44	23536.43
497.62	23552.81
497.79	23765.80
497.97	23566.85
498.14	23941.34
498.32	23784.52
498.50	24086.45
498.67	24325.19
498.85	24240.93
499.03	24732.44
499.20	24762.87
499.38	24472.64
499.56	24594.35
499.73	24940.75
499.91	24898.62
500.08	25027.35
500.26	25025.01
500.44	24896.28
500.61	25106.93
500.79	25078.84
500.97	25350.34
501.14	25591.42
501.32	25666.31
501.49	25537.59
501.67	25687.38
501.84	25848.88
502.02	25633.55
502.20	26162.51
502.37	26342.73
502.55	26024.42
502.72	26216.34
502.90	26597.85
503.07	26309.96
503.25	26864.67
503.43	26733.60
503.60	26527.63
503.78	26426.99
503.95	26614.23
504.13	27145.53
504.30	26794.45
504.48	27215.75
504.65	26953.61
504.83	27241.50
505.01	27660.45
505.18	27573.85
505.36	27812.59
505.53	27264.90
505.71	27967.06
505.88	27990.47
506.06	27508.32
506.23	27772.80
506.41	28130.90
506.58	27824.29
506.76	28041.96
506.93	28037.28
507.11	28489.00
507.28	28311.12
507.46	28318.14
507.63	28128.56
507.81	28130.90
507.98	28386.02
508.16	28849.44
508.33	29130.31
508.50	29125.63
508.68	29022.64
508.85	29439.26
509.03	29230.95
509.20	29343.30
509.38	29654.59
509.55	29425.22
509.73	29350.32
509.90	29357.34
510.08	29179.46
510.25	29928.43
510.42	29883.96
510.60	30291.21
510.77	30225.68
510.95	30139.08
511.12	30307.60
511.30	30391.86
511.47	30661.02
511.64	30473.78
511.82	30806.13
511.99	30698.47
512.17	30588.46
512.34	30785.07
512.51	30906.77
512.69	30738.26
512.86	30918.48
513.04	31197.00
513.21	30969.97
513.38	31098.70
513.56	31131.47
513.73	31016.78
513.90	31608.93
514.08	31239.13
514.25	31651.06
514.43	31346.79
514.60	31646.38
514.77	31648.72
514.95	32283.01
515.12	31644.04
515.29	31732.98
515.47	32023.21
515.64	32229.18
515.81	32128.53
515.99	31967.04
516.16	32505.36
516.33	32011.51
516.51	32393.01
516.68	31885.12
516.85	32393.01
517.03	31952.99
517.20	32421.10
517.37	32708.99
517.54	32596.64
517.72	32872.82
517.89	32584.94
518.06	32793.25
518.24	32451.53
518.41	32795.59
518.58	32851.76
518.75	33064.75
518.93	33305.82
519.10	33443.91
519.27	33574.98
519.45	33022.62
519.62	33364.34
519.79	33317.53
519.96	33652.22
520.14	33738.82
520.31	33359.66
520.48	33467.32
520.65	33764.57
520.83	34497.16
521.00	34380.13
521.17	33926.07
521.34	34480.77
521.52	33762.23
521.69	34534.60
521.86	34396.51
522.03	34536.94
522.20	34532.26
522.38	34635.25
522.55	34550.99
522.72	34735.89
522.89	34946.54
523.07	35037.82
523.24	34749.93
523.41	34866.96
523.58	34850.58
523.75	35475.50
523.92	35222.72
524.10	35248.47
524.27	35122.08
524.44	35615.93
524.61	35606.57
524.78	35775.09
524.96	36037.23
525.13	35522.31
525.30	35889.77
525.47	35805.52
525.64	36538.10
525.81	35835.94
525.98	35768.07
526.16	35470.82
526.33	35604.23
526.50	35908.50
526.67	35646.36
526.84	36074.68
527.01	35550.40
527.18	36018.50
527.36	36304.05
527.53	36577.89
527.70	36460.87
527.87	36383.63
528.04	36896.20
528.21	36863.44
528.38	36659.81
528.55	37184.09
528.72	36900.89
528.89	37289.42
529.07	37207.50
529.24	36723.01
529.41	36835.35
529.58	36975.78
529.75	36809.61
529.92	37146.64
530.09	37364.31
530.26	37111.53
530.43	37813.70
530.60	37125.58
530.77	36816.63
530.94	37535.17
531.11	37535.17
531.28	37579.64
531.46	37441.55
531.63	37507.08
531.80	37418.14
531.97	37755.18
532.14	37675.60
532.31	37546.87
532.48	38005.62
532.65	37757.52
532.82	38363.72
532.99	38391.81
533.16	37668.58
533.33	38375.42
533.50	38080.52
533.67	38382.45
533.84	38057.11
534.01	38288.82
534.18	38494.79
534.35	38906.73
534.52	38370.74
534.69	38583.73
534.86	38630.54
535.03	38951.20
535.20	38810.76
535.37	39370.15
535.54	39342.06
535.71	38728.84
535.88	38902.04
536.05	38855.23
536.22	39019.07
536.38	39304.62
536.55	38979.28
536.72	38644.59
536.89	38794.38
537.06	38649.27
537.23	39012.05
537.40	39328.02
537.57	39313.98
537.74	39278.87
537.91	39629.95
538.08	39629.95
538.25	39182.91
538.42	39655.70
538.59	39445.05
538.75	39505.90
538.92	39431.01
539.09	39615.91
539.26	39931.88
539.43	39770.38
539.60	39653.36
539.77	39864.00
539.94	40137.85
540.11	39339.72
540.28	39852.30
540.44	40151.89
540.61	39817.19
540.78	39578.46
540.95	39786.77
541.12	40151.89
541.29	39526.97
541.46	40439.78
541.62	40179.98
541.79	40264.24
541.96	39693.15
542.13	40236.15
542.30	39889.75
542.47	40261.90
542.63	40910.22
542.80	40727.66
542.97	41216.83
543.14	40961.72
543.31	41160.66
543.48	40811.92
543.64	41268.33
543.81	41170.02
543.98	41139.60
544.15	41500.04
544.32	41380.67
544.48	41631.11
544.65	41343.22
544.82	41546.85
544.99	41069.38
545.16	41738.77
545.32	41067.04
545.49	41659.20
545.66	41675.58
545.83	41366.63
546.00	41687.28
546.16	41593.66
546.33	41493.02
546.50	40722.98
546.67	41537.49
546.83	41146.62
547.00	41467.27
547.17	41509.40
547.34	41596.00
547.50	41727.07
547.67	41954.10
547.84	41640.47
548.00	41837.08
548.17	42026.66
548.34	41874.52
548.51	42167.09
548.67	42422.21
548.84	42476.04
549.01	42148.37
549.18	41942.40
549.34	42370.72
549.51	41832.39
549.68	42047.72
549.84	42391.78
550.01	42536.90
550.18	41996.23
550.34	42478.38
550.51	42454.98
550.68	42403.49
550.84	41837.08
551.01	42394.12
551.18	42696.05
551.34	42682.01
551.51	42859.89
551.68	42576.69
551.84	42511.15
552.01	42646.90
552.18	42539.24
552.34	42960.53
552.51	42660.94
552.68	42394.12
552.84	43299.91
553.01	43047.13
553.18	42756.91
553.34	42733.50
553.51	43206.29
553.67	42941.81
553.84	43035.43
554.01	43049.47
554.17	43138.41
554.34	43438.00
554.51	43452.05
554.67	43452.05
554.84	42834.14
555.00	43117.35
555.17	42777.97
555.33	42822.44
555.50	43068.20
555.67	43283.53
555.83	43100.97
556.00	42962.87
556.16	43501.20
556.33	43091.60
556.50	43267.14
556.66	43761.00
556.83	43318.64
556.99	43718.87
557.16	43599.50
557.32	43665.03
557.49	43393.53
557.65	43372.47
557.82	43325.66
557.98	43573.75
558.15	43681.42
558.32	44163.57
558.48	43569.07
558.65	43517.58
558.81	43283.53
558.98	43583.12
559.14	43641.63
559.31	43564.39
559.47	43639.29
559.64	44168.25
559.80	44020.80
559.97	44144.84
560.13	43718.87
560.30	43318.64
560.46	43697.80
560.63	43512.90
560.79	44168.25
560.96	44055.90
561.12	44161.23
561.29	44170.59
561.45	43835.89
561.61	44215.06
561.78	43739.93
561.94	43587.80
562.11	44046.54
562.27	43512.90
562.44	44002.07
562.60	44102.71
562.77	44037.18
562.93	44086.33
563.10	44083.99
563.26	43732.91
563.42	44011.43
563.59	44088.67
563.75	43878.02
563.92	44158.89
564.08	44355.49
564.24	44009.09
564.41	44554.44
564.57	44203.36
564.74	44378.90
564.90	44226.76
565.07	43901.43
565.23	44514.65
565.39	44273.57
565.56	44301.66
565.72	43997.39
565.88	44130.80
566.05	44156.55
566.21	44025.48
566.38	43999.73
566.54	44247.83
566.70	44973.39
566.87	44561.46
567.03	44266.55
567.19	44767.43
567.36	44577.84
567.52	44444.43
567.68	44650.40
567.85	44320.38
568.01	44779.13
568.17	44446.77
568.34	44601.25
568.50	44755.72
568.66	44294.64
568.83	43955.26
568.99	44296.98
569.15	44374.22
569.32	44629.34
569.48	44254.85
569.64	44760.40
569.81	44584.86
569.97	44683.17
570.13	44914.88
570.30	44381.24
570.46	44514.65
570.62	44598.91
570.78	44758.06
570.95	44233.78
571.11	44301.66
571.27	44491.24
571.43	44109.74
571.60	44697.21
571.76	44458.48
571.92	44994.46
572.09	44479.54
572.25	44535.71
572.41	44194.00
572.57	44172.93
572.74	44921.90
572.90	44662.10
573.06	44591.89
573.22	44573.16
573.38	44580.18
573.55	44612.95
573.71	44725.30
573.87	44619.97
574.03	44561.46
574.20	44509.97
574.36	44900.84
574.52	44790.83
574.68	44610.61
574.84	44533.37
575.01	44837.64
575.17	44851.69
575.33	45013.18
575.49	44432.73
575.65	44559.12
575.82	45074.04
575.98	44591.89
576.14	44842.32
576.30	44900.84
576.46	44945.31
576.62	44512.31
576.79	44622.31
576.95	44435.07
577.11	44872.75
577.27	44465.50
577.43	44774.45
577.59	44879.77
577.75	44858.71
577.92	45008.50
578.08	44533.37
578.24	44563.80
578.40	44406.98
578.56	44318.04
578.72	44851.69
578.88	45069.36
579.04	44863.39
579.21	45085.74
579.37	44877.43
579.53	45062.33
579.69	44678.49
579.85	44964.03
580.01	44605.93
580.17	44556.78
580.33	44980.42
580.49	45088.08
580.65	44601.25
580.82	45467.25
580.98	44643.38
581.14	44844.66
581.30	45195.74
581.46	45078.72
581.62	45649.81
581.78	44744.02
581.94	44947.65
582.10	44697.21
582.26	44952.33
582.42	44690.19
582.58	45010.84
582.74	44580.18
582.90	45415.76
583.06	44999.14
583.22	45361.92
583.38	45162.98
583.54	44971.05
583.70	44966.37
583.86	44847.00
584.02	44959.35
584.18	44961.69
584.34	44996.80
584.50	44772.11
584.66	44545.08
584.82	44629.34
584.98	45223.83
585.14	44999.14
585.30	44535.71
585.46	45226.17
585.62	44671.46
585.78	44559.12
585.94	44446.77
586.10	44734.66
586.26	44966.37
586.42	44814.24
586.58	45249.58
586.74	44872.75
586.90	44898.50
587.06	44699.55
587.22	44748.70
587.38	44486.56
587.54	44905.52
587.70	44830.62
587.86	45261.28
588.02	45109.14
588.18	44797.85
588.34	44605.93
588.49	44683.17
588.65	45010.84
588.81	44477.20
588.97	44907.86
589.13	44507.63
589.29	44835.30
589.45	44758.06
589.61	45153.62
589.77	45298.73
589.93	45008.50
590.08	45413.41
590.24	45167.66
