SpectraSuite Data File
++++++++++++++++++++++++++++++++++++
Date: Fri Oct 25 11:25:20 EDT 2013
User: price-jones
Dark Spectrum Present: No
Reference Spectrum Present: No
Number of Sampled Component Spectra: 1
Spectrometers: USB2+H05261
Integration Time (usec): 100000 (USB2+H05261)
Spectra Averaged: 1 (USB2+H05261)
Boxcar Smoothing: 0 (USB2+H05261)
Correct for Electrical Dark: No (USB2+H05261)
Strobe/Lamp Enabled: No (USB2+H05261)
Correct for Detector Non-linearity: No (USB2+H05261)
Correct for Stray Light: No (USB2+H05261)
Number of Pixels in Processed Spectrum: 2048
>>>>>Begin Processed Spectral Data<<<<<
365.73	320.65
365.92	320.65
366.12	320.65
366.32	105.32
366.52	124.05
366.72	215.33
366.91	86.60
367.11	182.56
367.31	168.52
367.51	100.64
367.70	60.85
367.90	175.54
368.10	156.82
368.30	135.75
368.49	93.62
368.69	163.84
368.89	220.01
369.09	166.18
369.28	149.79
369.48	294.91
369.68	187.24
369.87	215.33
370.07	152.13
370.27	227.03
370.47	346.40
370.66	496.19
370.86	517.26
371.06	664.71
371.25	753.65
371.45	657.69
371.65	695.14
371.84	746.63
372.04	699.82
372.24	704.50
372.44	805.14
372.63	758.33
372.83	788.76
373.03	720.88
373.22	690.46
373.42	784.08
373.62	833.23
373.81	784.08
374.01	870.68
374.21	821.53
374.40	730.25
374.60	791.10
374.79	760.67
374.99	830.89
375.19	856.64
375.38	950.26
375.58	835.57
375.78	849.61
375.97	823.87
376.17	952.60
376.37	875.36
376.56	854.30
376.76	868.34
376.95	866.00
377.15	912.81
377.35	870.68
377.54	856.64
377.74	912.81
377.93	828.55
378.13	905.79
378.33	964.30
378.52	894.08
378.72	912.81
378.91	973.66
379.11	919.83
379.31	901.11
379.50	966.64
379.70	1064.94
379.89	964.30
380.09	954.94
380.28	922.17
380.48	1043.88
380.68	980.68
380.87	959.62
381.07	990.05
381.26	1067.28
381.46	1001.75
381.65	1090.69
381.85	1034.52
382.04	1076.65
382.24	1062.60
382.43	1050.90
382.63	1102.39
382.83	1057.92
383.02	1123.46
383.22	1107.07
383.41	1137.50
383.61	1123.46
383.80	1163.25
384.00	987.71
384.19	1160.91
384.39	1118.78
384.58	1167.93
384.78	1151.54
384.97	1116.44
385.17	1181.97
385.36	1057.92
385.56	1114.10
385.75	1249.85
385.95	1181.97
386.14	1240.48
386.34	1224.10
386.53	1261.55
386.72	1165.59
386.92	1167.93
387.11	1144.52
387.31	1235.80
387.50	1193.67
387.70	1282.61
387.89	1261.55
388.09	1261.55
388.28	1277.93
388.48	1221.76
388.67	1348.15
388.86	1280.27
389.06	1336.45
389.25	1313.04
389.45	1299.00
389.64	1416.02
389.84	1287.29
390.03	1409.00
390.22	1341.13
390.42	1320.06
390.61	1394.96
390.81	1355.17
391.00	1404.32
391.19	1427.73
391.39	1418.36
391.58	1411.34
391.78	1427.73
391.97	1488.58
392.16	1394.96
392.36	1589.22
392.55	1544.75
392.75	1617.31
392.94	1451.13
393.13	1451.13
393.33	1444.11
393.52	1549.43
393.71	1582.20
393.91	1526.03
394.10	1540.07
394.29	1575.18
394.49	1558.80
394.68	1678.16
394.88	1675.82
395.07	1661.78
395.26	1638.38
395.46	1614.97
395.65	1687.53
395.84	1612.63
396.04	1771.79
396.23	1722.63
396.42	1734.34
396.62	1874.77
396.81	1797.53
397.00	1771.79
397.19	1774.13
397.39	1783.49
397.58	1741.36
397.77	1806.89
397.97	1750.72
398.16	1858.39
398.35	1994.14
398.55	1825.62
398.74	1867.75
398.93	2026.90
399.12	1863.07
399.32	1816.26
399.51	2005.84
399.70	1912.22
399.90	1935.62
400.09	2052.65
400.28	2036.27
400.47	1984.77
400.67	2012.86
400.86	2092.44
401.05	2101.80
401.24	1966.05
401.44	2062.01
401.63	2183.72
401.82	2071.37
402.01	2120.53
402.21	2104.14
402.40	2179.04
402.59	2230.53
402.78	2165.00
402.97	2237.55
403.17	2200.10
403.36	2293.72
403.55	2275.00
403.74	2380.32
403.93	2424.80
404.13	2359.26
404.32	2328.83
404.51	2335.85
404.70	2363.94
404.89	2218.83
405.09	2499.69
405.28	2396.71
405.47	2469.27
405.66	2579.27
405.85	2530.12
406.05	2459.90
406.24	2572.25
406.43	2614.38
406.62	2523.10
406.81	2708.00
407.00	2593.31
407.20	2506.71
407.39	2509.05
407.58	2616.72
407.77	2871.84
407.96	2820.35
408.15	2677.57
408.34	2633.10
408.54	2738.43
408.73	2733.75
408.92	2834.39
409.11	2876.52
409.30	2967.80
409.49	2850.77
409.68	2869.50
409.87	2820.35
410.07	2935.03
410.26	2810.98
410.45	2953.76
410.64	3096.53
410.83	3009.93
411.02	3187.81
411.21	3126.96
411.40	3150.36
411.59	3199.51
411.78	3047.38
411.98	3096.53
412.17	3218.24
412.36	3269.73
412.55	3344.63
412.74	3297.81
412.93	3372.71
413.12	3403.14
413.31	3555.27
413.50	3391.44
413.69	3566.98
413.88	3646.55
414.07	3634.85
414.26	3637.19
414.45	3669.96
414.64	3674.64
414.83	3779.97
415.02	3719.11
415.22	3854.86
415.41	3742.52
415.60	3857.20
415.79	3880.61
415.98	3932.10
416.17	3976.57
416.36	3962.53
416.55	3995.29
416.74	4058.49
416.93	3988.27
417.12	3922.74
417.31	4353.40
417.50	4053.81
417.69	4166.15
417.88	4257.43
418.07	4250.41
418.26	4285.52
418.45	4208.28
418.64	4463.40
418.83	4320.63
419.02	4367.44
419.21	4449.36
419.39	4451.70
419.58	4395.53
419.77	4381.48
419.96	4568.73
420.15	4573.41
420.34	4451.70
420.53	4571.07
420.72	4601.49
420.91	4498.51
421.10	4631.92
421.29	4795.76
421.48	4699.80
421.67	4669.37
421.86	4821.50
422.05	4732.56
422.24	4798.10
422.43	4896.40
422.61	4669.37
422.80	5032.15
422.99	4858.95
423.18	4924.49
423.37	5013.43
423.56	4870.65
423.75	4858.95
423.94	4882.36
424.13	4627.24
424.32	4819.16
424.50	4983.00
424.69	5048.54
424.88	4975.98
425.07	4793.42
425.26	4919.81
425.45	4973.64
425.64	5036.83
425.83	4912.78
426.01	5032.15
426.20	5036.83
426.39	4961.94
426.58	4966.62
426.77	4968.96
426.96	5242.80
427.15	5053.22
427.33	5144.50
427.52	5149.18
427.71	5191.31
427.90	5191.31
428.09	5093.01
428.28	5320.04
428.46	5434.72
428.65	5284.93
428.84	5502.60
429.03	5490.90
429.22	5331.74
429.40	5277.91
429.59	5369.19
429.78	5303.65
429.97	5191.31
430.16	5570.48
430.34	5589.20
430.53	5577.50
430.72	5636.01
430.91	5710.91
431.10	5516.64
431.28	5526.00
431.47	5771.76
431.66	5926.24
431.85	5762.40
432.03	5863.04
432.22	5837.30
432.41	5994.11
432.60	5816.23
432.79	5832.62
432.97	5994.11
433.16	5919.21
433.35	5809.21
433.54	6167.31
433.72	5893.47
433.91	5980.07
434.10	6183.70
434.28	5991.77
434.47	6366.26
434.66	6136.88
434.85	6345.19
435.03	6277.32
435.22	6221.14
435.41	6644.78
435.59	6462.22
435.78	6420.09
435.97	6326.47
436.16	6413.07
436.34	6380.30
436.53	6562.86
436.72	6511.37
436.90	6441.15
437.09	6504.35
437.28	6497.33
437.46	6553.50
437.65	6743.08
437.84	6628.40
438.02	6612.01
438.21	6726.70
438.40	6621.38
438.58	6864.79
438.77	6839.05
438.96	6857.77
439.14	7112.89
439.33	7073.10
439.52	7087.14
439.70	7246.30
439.89	7267.36
440.08	7494.40
440.26	7344.60
440.45	7204.17
440.63	7288.43
440.82	7632.49
441.01	7456.95
441.19	7648.87
441.38	7609.08
441.57	7658.23
441.75	7726.11
441.94	7803.35
442.12	7873.56
442.31	7990.59
442.50	8079.53
442.68	7955.48
442.87	7946.12
443.05	8016.33
443.24	8170.81
443.43	8168.47
443.61	8315.92
443.80	8266.77
443.98	7840.79
444.17	7681.64
444.35	8046.76
444.54	8311.24
444.73	8369.76
444.91	8084.21
445.10	8477.42
445.28	8163.79
445.47	7971.86
445.65	8280.82
445.84	8571.04
446.02	8294.86
446.21	8236.35
446.39	8152.09
446.58	8486.78
446.77	8379.12
446.95	8173.15
447.14	8189.53
447.32	8432.95
447.51	8374.44
447.69	8379.12
447.88	8386.14
448.06	8414.23
448.25	8482.10
448.43	8638.92
448.62	8589.77
448.80	8470.40
448.99	8732.54
449.17	8671.68
449.36	8564.02
449.54	8685.73
449.73	8718.50
449.91	8922.12
450.10	8842.54
450.28	8978.30
450.46	8903.40
450.65	9146.81
450.83	9039.15
451.02	9046.17
451.20	9163.20
451.39	9137.45
451.57	9022.77
451.76	8791.05
451.94	9217.03
452.13	9226.39
452.31	9277.88
452.49	9071.92
452.68	9376.19
452.86	9090.64
453.05	9298.95
453.23	9378.53
453.42	9364.48
453.60	9268.52
453.78	9373.85
453.97	9460.45
454.15	9589.17
454.34	9355.12
454.52	9757.69
454.70	9399.59
454.89	9729.61
455.07	9724.93
455.26	9570.45
455.44	9893.44
455.62	9916.85
455.81	9816.21
455.99	10022.17
456.17	10038.56
456.36	9935.57
456.54	10038.56
456.73	10146.22
456.91	10520.71
457.09	10459.85
457.28	10499.64
457.46	10246.87
457.64	10354.53
457.83	10520.71
458.01	10218.78
458.19	10754.76
458.38	10347.51
458.56	10611.99
458.74	10487.94
458.93	10649.44
459.11	10700.93
459.29	10558.16
459.48	10738.38
459.66	10757.10
459.84	10841.36
460.03	10988.82
460.21	10965.41
460.39	10995.84
460.57	11016.90
460.76	10946.69
460.94	11035.63
461.12	11082.44
461.31	11246.27
461.49	11080.10
461.67	11063.71
461.85	11426.50
462.04	11112.86
462.22	11611.40
462.40	11442.88
462.59	11454.58
462.77	11375.00
462.95	11421.81
463.13	11569.27
463.32	11602.04
463.50	11630.12
463.68	11667.57
463.86	11508.41
464.05	11506.07
464.23	11485.01
464.41	11674.59
464.59	11492.03
464.78	12004.61
464.96	12154.40
465.14	11688.64
465.32	11964.82
465.50	12058.44
465.69	12098.23
465.87	11950.78
466.05	12077.16
466.23	11843.11
466.41	11976.52
466.60	12285.47
466.78	12088.87
466.96	12119.29
467.14	12191.85
467.32	12329.94
467.51	12575.70
467.69	12056.10
467.87	12241.00
468.05	12512.50
468.23	12259.73
468.41	12461.01
468.60	12402.50
468.78	12624.85
468.96	12339.30
469.14	12772.30
469.32	12938.48
469.50	12549.95
469.69	12912.74
469.87	13090.62
470.05	13022.74
470.23	13076.57
470.41	13132.75
470.59	13188.92
470.77	13034.44
470.95	13025.08
471.14	13139.77
471.32	13102.32
471.50	13563.40
471.68	13348.08
471.86	13678.09
472.04	13621.92
472.22	13877.04
472.40	13820.86
472.58	13657.03
472.77	13827.88
472.95	14092.37
473.13	14478.55
473.31	13827.88
473.49	14080.66
473.67	14202.37
473.85	14228.12
474.03	14422.38
474.21	14544.09
474.39	14368.55
474.57	14586.22
474.75	14616.65
474.93	14752.40
475.12	14939.64
475.30	14871.76
475.48	15037.94
475.66	15140.93
475.84	15037.94
476.02	15171.35
476.20	15300.08
476.38	15613.71
476.56	15791.59
476.74	15903.94
476.92	15910.96
477.10	15873.51
477.28	16032.67
477.46	16053.73
477.64	16252.68
477.82	16662.27
478.00	17018.04
478.18	16636.53
478.36	16617.80
478.54	17008.67
478.72	17078.89
478.90	17434.65
479.08	17455.72
479.26	17865.31
479.44	17542.32
479.62	17390.18
479.80	18033.83
479.98	18050.21
480.16	18497.25
480.34	18225.75
480.52	18483.21
480.70	18403.63
480.88	18033.83
481.06	18644.71
481.24	18665.77
481.41	18918.55
481.59	19426.45
481.77	19321.12
481.95	19463.90
482.13	19534.11
482.31	19536.45
482.49	20121.59
482.67	20238.61
482.85	20144.99
483.03	20563.95
483.21	20418.83
483.39	20664.59
483.57	20739.49
483.74	20922.05
483.92	20903.32
484.10	21036.74
484.28	21233.34
484.46	21991.67
484.64	22244.45
484.82	21977.63
485.00	22104.02
485.18	22326.37
485.35	22759.37
485.53	22630.64
485.71	22766.39
485.89	23094.07
486.07	23302.37
486.25	23290.67
486.43	23381.95
486.61	23651.11
486.78	23931.98
486.96	23941.34
487.14	24105.18
487.32	24402.43
487.50	24830.74
487.68	24772.23
487.85	24755.85
488.03	25186.50
488.21	25937.82
488.39	25708.44
488.57	25881.64
488.75	25984.63
488.92	26525.29
489.10	26703.17
489.28	26424.65
489.46	27080.00
489.64	26841.26
489.81	27323.41
489.99	27672.15
490.17	27182.98
490.35	27882.80
490.53	28173.03
490.70	28109.83
490.88	28100.47
491.06	28306.44
491.24	28292.40
491.41	28655.18
491.59	29008.60
491.77	28994.56
491.95	29593.73
492.13	29383.09
492.30	29874.60
492.48	29792.68
492.66	30169.51
492.84	30251.42
493.01	30476.12
493.19	30450.37
493.37	30822.51
493.54	31108.06
493.72	31400.63
493.90	31051.89
494.08	31433.39
494.25	31599.57
494.43	31641.70
494.61	31964.70
494.79	32390.67
494.96	32278.33
495.14	32528.77
495.32	32622.39
495.49	32596.64
495.67	33022.62
495.85	33315.19
496.02	33570.30
496.20	33851.17
496.38	33986.92
496.55	33804.36
496.73	34366.09
496.91	34469.07
497.09	34911.43
497.26	34686.74
497.44	34520.56
497.62	35098.67
497.79	35704.87
497.97	35634.66
498.14	35578.48
498.32	36053.61
498.50	36091.06
498.67	35969.35
498.85	35948.29
499.03	36648.11
499.20	36741.73
499.38	36481.93
499.56	36641.09
499.73	36889.18
499.91	36924.29
500.08	37368.99
500.26	37216.86
500.44	37509.43
500.61	37897.95
500.79	37352.61
500.97	37937.74
501.14	38227.97
501.32	38232.65
501.49	38167.12
501.67	38543.94
501.84	38607.14
502.02	38710.12
502.20	39194.61
502.37	38822.47
502.55	39100.99
502.72	39288.23
502.90	39536.33
503.07	39234.40
503.25	39316.32
503.43	39372.49
503.60	40109.76
503.78	39952.94
503.95	39791.45
504.13	40257.21
504.30	40285.30
504.48	39915.50
504.65	40322.75
504.83	40547.44
505.01	41013.21
505.18	41055.34
505.36	40882.14
505.53	40851.71
505.71	41361.95
505.88	41626.43
506.06	41029.59
506.23	41745.80
506.41	41457.91
506.58	41989.21
506.76	42148.37
506.93	42216.24
507.11	42408.17
507.28	41921.34
507.46	42714.78
507.63	42658.60
507.81	43056.50
507.98	42302.84
508.16	42902.02
508.33	43168.84
508.50	43707.16
508.68	43346.72
508.85	43882.70
509.03	43313.95
509.20	43660.35
509.38	44364.85
509.55	43997.39
509.73	43765.68
509.90	43718.87
510.08	44210.38
510.25	44334.43
510.42	44343.79
510.60	44734.66
510.77	45223.83
510.95	45315.11
511.12	45088.08
511.30	44694.87
511.47	44889.13
511.64	45331.50
511.82	45713.00
511.99	45270.64
512.17	45731.73
512.34	45357.24
512.51	45682.58
512.69	46213.88
512.86	46241.96
513.04	46522.83
513.21	46024.29
513.38	46429.21
513.56	46775.61
513.73	46789.65
513.90	46698.37
514.08	46583.68
514.25	46976.89
514.43	47201.58
514.60	47232.01
514.77	47096.26
514.95	47482.45
515.12	47405.21
515.29	47632.24
515.47	47796.08
515.64	47807.78
515.81	47585.43
515.99	47803.10
516.16	48266.53
516.33	47995.03
516.51	48224.40
516.68	48161.20
516.85	48322.70
517.03	48425.68
517.20	48334.40
517.37	48741.66
517.54	48498.24
517.72	48266.53
517.89	48952.30
518.06	48879.75
518.24	48655.06
518.41	48980.39
518.58	49219.13
518.75	49048.27
518.93	49258.91
519.10	48907.83
519.27	49471.90
519.45	49462.54
519.62	49471.90
519.79	49675.53
519.96	49492.97
520.14	49970.44
520.31	49694.25
520.48	50284.07
520.65	50204.49
520.83	50698.34
521.00	50871.54
521.17	49687.23
521.34	50213.85
521.52	50752.18
521.69	50766.22
521.86	50794.31
522.03	50656.21
522.20	50916.01
522.38	51180.49
522.55	51023.68
522.72	50981.55
522.89	51248.37
523.07	51208.58
523.24	51283.48
523.41	51147.73
523.58	51466.04
523.75	51587.75
523.92	51428.59
524.10	51732.86
524.27	51639.24
524.44	51964.57
524.61	51908.40
524.78	51814.78
524.96	51770.31
525.13	52030.11
525.30	52102.67
525.47	52102.67
525.64	52151.82
525.81	51966.91
525.98	52317.99
526.16	52294.59
526.33	52734.61
526.50	52509.92
526.67	52589.50
526.84	52444.38
527.01	52603.54
527.18	52743.97
527.36	52589.50
527.53	52718.23
527.70	53102.07
527.87	53132.50
528.04	53036.54
528.21	53132.50
528.38	52952.28
528.55	53612.31
528.72	53125.48
528.89	53434.43
529.07	53205.06
529.24	53289.32
529.41	53455.50
529.58	53556.14
529.75	53504.65
529.92	53396.98
530.09	53485.92
530.26	53640.40
530.43	53752.74
530.60	53357.19
530.77	53675.51
530.94	53925.94
531.11	53755.08
531.28	53872.11
531.46	53888.49
531.63	53996.16
531.80	54003.18
531.97	54211.49
532.14	54380.01
532.31	54183.40
532.48	54185.74
532.65	54740.45
532.82	54295.75
532.99	54508.74
533.16	54267.66
533.33	54747.47
533.50	54747.47
533.67	54735.77
533.84	54836.41
534.01	54791.94
534.18	54742.79
534.35	55028.34
534.52	55030.68
534.69	54960.46
534.86	54988.55
535.03	54827.05
535.20	54906.63
535.37	55105.57
535.54	55121.96
535.71	54953.44
535.88	55253.03
536.05	55285.79
536.22	55374.73
536.38	55512.83
536.55	55388.78
536.72	55316.22
536.89	55751.56
537.06	55440.27
537.23	55669.64
537.40	55217.92
537.57	55735.18
537.74	55622.83
537.91	55868.59
538.08	55641.56
538.25	55512.83
538.42	55758.58
538.59	55852.20
538.75	55833.48
538.92	55875.61
539.09	55920.08
539.26	55828.80
539.43	56086.26
539.60	56140.09
539.77	55693.05
539.94	56203.28
540.11	56282.86
540.28	56275.84
540.44	56217.33
540.61	56406.91
540.78	56233.71
540.95	56170.52
541.12	56266.48
541.29	56144.77
541.46	56308.61
541.62	56336.69
541.79	56530.96
541.96	56182.22
542.13	56378.82
542.30	56540.32
542.47	56905.44
542.63	56638.62
542.80	56647.99
542.97	56903.10
543.14	56963.96
543.31	56987.36
543.48	56844.59
543.64	57308.02
543.81	57200.35
543.98	57123.11
544.15	57064.60
544.32	57345.47
544.48	57340.78
544.65	57338.44
544.82	57422.70
544.99	57088.01
545.16	57291.63
545.32	57336.10
545.49	57448.45
545.66	57584.20
545.83	57324.40
546.00	57333.76
546.16	57450.79
546.33	57305.68
546.50	57298.65
546.67	57492.92
546.83	57396.96
547.00	57420.36
547.17	57485.90
547.34	57628.67
547.50	57851.02
547.67	57764.42
547.84	57733.99
548.00	57958.69
548.17	57839.32
548.34	57701.23
548.51	58087.42
548.67	58108.48
548.84	57832.30
549.01	57930.60
549.18	58131.89
549.34	57996.13
549.51	58127.20
549.68	58295.72
549.84	58129.54
550.01	58075.71
550.18	58136.57
550.34	58211.46
550.51	58223.17
550.68	58239.55
550.84	58010.18
551.01	58417.43
551.18	58295.72
551.34	58365.94
551.51	58293.38
551.68	58258.27
551.84	58417.43
552.01	58382.32
552.18	58557.86
552.34	58391.68
552.51	58487.65
552.68	58344.87
552.84	58546.16
553.01	58695.95
553.18	58614.04
553.34	58698.30
553.51	58548.50
553.67	58550.84
553.84	58901.92
554.01	58735.74
554.17	58796.60
554.34	58955.75
554.51	58710.00
554.67	58981.50
554.84	58602.33
555.00	58688.93
555.17	58871.49
555.33	58997.88
555.50	58960.44
555.67	58864.47
555.83	58831.71
556.00	58759.15
556.16	59227.26
556.33	59056.40
556.50	59150.02
556.66	59040.01
556.83	59030.65
556.99	59229.60
557.16	59454.29
557.32	59398.12
557.49	59437.90
557.65	59147.68
557.82	59402.80
557.98	59374.71
558.15	59346.62
558.32	59304.49
558.48	59430.88
558.65	59271.73
558.81	59435.56
558.98	59412.16
559.14	59391.09
559.31	59423.86
559.47	59533.87
559.64	59292.79
559.80	59512.80
559.97	59550.25
560.13	59536.21
560.30	59440.24
560.46	59583.02
560.63	59676.64
560.79	59547.91
560.96	59683.66
561.12	59730.47
561.29	59686.00
561.45	59547.91
561.61	59606.42
561.78	59849.84
561.94	59611.10
562.11	59803.03
562.27	59870.90
562.44	59950.48
562.60	59866.22
562.77	59744.51
562.93	59735.15
563.10	59796.01
563.26	59664.94
563.42	59796.01
563.59	59751.54
563.75	59917.71
563.92	59800.69
564.08	59838.14
564.24	59884.95
564.41	59952.82
564.57	59880.27
564.74	59938.78
564.90	59917.71
565.07	59889.63
565.23	59997.29
565.39	59964.52
565.56	60058.15
565.72	60147.09
565.88	59812.39
566.05	59957.50
566.21	60053.47
566.38	59969.21
566.54	60149.43
566.70	60184.54
566.87	60336.67
567.03	60161.13
567.19	60308.58
567.36	60100.28
567.52	60088.57
567.68	60383.48
567.85	60247.73
568.01	60233.69
568.17	60121.34
568.34	60264.11
568.50	60317.95
568.66	60409.23
568.83	60360.08
568.99	60100.28
569.15	60161.13
569.32	60186.88
569.48	60076.87
569.64	60362.42
569.81	60151.77
569.97	60151.77
570.13	60144.75
570.30	60217.30
570.46	60420.93
570.62	60231.35
570.78	60299.22
570.95	60163.47
571.11	60348.37
571.27	60434.97
571.43	60360.08
571.60	60413.91
571.76	60275.82
571.92	60339.01
572.09	60654.98
572.25	60544.98
572.41	60376.46
572.57	60343.69
572.74	60491.15
572.90	60406.89
573.06	60498.17
573.22	60423.27
573.38	60285.18
573.55	60341.35
573.71	60542.64
573.87	60523.91
574.03	60360.08
574.20	60399.86
574.36	60364.76
574.52	60416.25
574.68	60589.45
574.84	60659.66
575.01	60512.21
575.17	60540.30
575.33	60559.02
575.49	60285.18
575.65	60556.68
575.82	60727.54
575.98	60734.56
576.14	60952.23
576.30	60643.28
576.46	60631.58
576.62	60757.97
576.79	60477.10
576.95	60430.29
577.11	60582.43
577.27	60764.99
577.43	60554.34
577.59	60591.79
577.75	60645.62
577.92	60491.15
578.08	60516.89
578.24	60336.67
578.40	60795.42
578.56	60750.94
578.72	60605.83
578.88	60835.20
579.04	60884.36
579.21	60690.09
579.37	60898.40
579.53	60788.39
579.69	60601.15
579.85	60687.75
580.01	60865.63
580.17	60605.83
580.33	60748.60
580.49	60863.29
580.65	60762.65
580.82	60713.50
580.98	60781.37
581.14	60533.28
581.30	60774.35
581.46	60584.77
581.62	60762.65
581.78	60657.32
581.94	60886.70
582.10	60804.78
582.26	60867.97
582.42	60544.98
582.58	61003.72
582.74	60746.26
582.90	60659.66
583.06	60807.12
583.22	60718.18
583.38	60835.20
583.54	60905.42
583.70	60975.64
583.86	60851.59
584.02	60767.33
584.18	61076.28
584.34	60718.18
584.50	60776.69
584.66	60863.29
584.82	60690.09
584.98	61003.72
585.14	60996.70
585.30	60619.88
585.46	60912.44
585.62	60694.77
585.78	60853.93
585.94	60617.53
586.10	60781.37
586.26	60800.10
586.42	60874.99
586.58	61087.98
586.74	60823.50
586.90	60807.12
587.06	60912.44
587.22	61038.83
587.38	60814.14
587.54	61052.87
587.70	61158.20
587.86	60912.44
588.02	60867.97
588.18	61104.37
588.34	60795.42
588.49	60760.31
