SpectraSuite Data File
++++++++++++++++++++++++++++++++++++
Date: Fri Oct 25 10:43:47 EDT 2013
User: price-jones
Dark Spectrum Present: No
Reference Spectrum Present: No
Number of Sampled Component Spectra: 1
Spectrometers: USB2+H05261
Integration Time (usec): 100000 (USB2+H05261)
Spectra Averaged: 1 (USB2+H05261)
Boxcar Smoothing: 0 (USB2+H05261)
Correct for Electrical Dark: No (USB2+H05261)
Strobe/Lamp Enabled: No (USB2+H05261)
Correct for Detector Non-linearity: No (USB2+H05261)
Correct for Stray Light: No (USB2+H05261)
Number of Pixels in Processed Spectrum: 2048
>>>>>Begin Processed Spectral Data<<<<<
365.73	140.43
365.92	140.43
366.12	140.43
366.32	0.00
366.52	110.01
366.72	0.00
366.91	25.75
367.11	56.17
367.31	21.06
367.51	0.00
367.70	0.00
367.90	18.72
368.10	0.00
368.30	4.68
368.49	0.00
368.69	63.19
368.89	23.41
369.09	81.92
369.28	65.54
369.48	18.72
369.68	117.03
369.87	42.13
370.07	117.03
370.27	119.37
370.47	201.29
370.66	402.57
370.86	423.64
371.06	477.47
371.25	475.13
371.45	493.85
371.65	458.74
371.84	456.40
372.04	418.96
372.24	519.60
372.44	503.22
372.63	552.37
372.83	526.62
373.03	566.41
373.22	451.72
373.42	552.37
373.62	543.00
373.81	540.66
374.01	517.26
374.21	559.39
374.40	493.85
374.60	500.87
374.79	552.37
374.99	578.11
375.19	599.18
375.38	589.82
375.58	620.24
375.78	575.77
375.97	613.22
376.17	573.43
376.37	585.13
376.56	521.94
376.76	641.31
376.95	624.92
377.15	692.80
377.35	634.29
377.54	676.41
377.74	720.88
377.93	667.05
378.13	648.33
378.33	641.31
378.52	653.01
378.72	645.99
378.91	692.80
379.11	667.05
379.31	578.11
379.50	678.76
379.70	697.48
379.89	793.44
380.09	655.35
380.28	732.59
380.48	699.82
380.68	655.35
380.87	683.44
381.07	662.37
381.26	748.97
381.46	741.95
381.65	690.46
381.85	734.93
382.04	697.48
382.24	690.46
382.43	716.20
382.63	669.39
382.83	704.50
383.02	737.27
383.22	737.27
383.41	716.20
383.61	718.54
383.80	779.40
384.00	716.20
384.19	755.99
384.39	809.83
384.58	816.85
384.78	840.25
384.97	791.10
385.17	770.04
385.36	826.21
385.56	858.98
385.75	753.65
385.95	828.55
386.14	875.36
386.34	748.97
386.53	800.46
386.72	739.61
386.92	795.78
387.11	964.30
387.31	844.93
387.50	908.13
387.70	784.08
387.89	875.36
388.09	849.61
388.28	816.85
388.48	887.06
388.67	875.36
388.86	889.40
389.06	1015.79
389.25	947.92
389.45	903.45
389.64	980.68
389.84	1015.79
390.03	1011.11
390.22	1011.11
390.42	1039.20
390.61	973.66
390.81	1043.88
391.00	1090.69
391.19	1078.99
391.39	1048.56
391.58	1067.28
391.78	1020.47
391.97	1062.60
392.16	1041.54
392.36	1025.15
392.55	966.64
392.75	985.37
392.94	940.90
393.13	957.28
393.33	1029.84
393.52	1102.39
393.71	1011.11
393.91	1184.31
394.10	1060.26
394.29	1196.01
394.49	1081.33
394.68	1273.25
394.88	1118.78
395.07	1123.46
395.26	1329.42
395.46	1188.99
395.65	1219.42
395.84	1203.04
396.04	1256.87
396.23	1224.10
396.42	1088.35
396.62	1181.97
396.81	1177.29
397.00	1196.01
397.19	1359.85
397.39	1273.25
397.58	1399.64
397.77	1362.19
397.97	1427.73
398.16	1383.26
398.35	1561.14
398.55	1523.69
398.74	1479.22
398.93	1586.88
399.12	1411.34
399.32	1446.45
399.51	1409.00
399.70	1558.80
399.90	1523.69
400.09	1556.46
400.28	1598.59
400.47	1589.22
400.67	1657.10
400.86	1530.71
401.05	1650.08
401.24	1640.72
401.44	1657.10
401.63	1629.01
401.82	1720.29
402.01	1699.23
402.21	1739.02
402.40	1736.68
402.59	1694.55
402.78	1769.44
402.97	1767.10
403.17	1846.68
403.36	1727.32
403.55	1804.55
403.74	1834.98
403.93	1769.44
404.13	1916.90
404.32	1893.49
404.51	1746.04
404.70	1886.47
404.89	1851.36
405.09	1912.22
405.28	1914.56
405.47	1870.09
405.66	1975.41
405.85	1942.64
406.05	1919.24
406.24	2010.52
406.43	1991.80
406.62	2073.71
406.81	2071.37
407.00	1989.46
407.20	2024.56
407.39	1970.73
407.58	2111.16
407.77	2136.91
407.96	2218.83
408.15	2132.23
408.34	2197.76
408.54	2136.91
408.73	2303.09
408.92	2307.77
409.11	2335.85
409.30	2207.13
409.49	2179.04
409.68	2277.34
409.87	2218.83
410.07	2296.07
410.26	2314.79
410.45	2422.45
410.64	2310.11
410.83	2462.24
411.02	2539.48
411.21	2495.01
411.40	2525.44
411.59	2581.61
411.78	2513.74
411.98	2588.63
412.17	2539.48
412.36	2576.93
412.55	2651.83
412.74	2761.83
412.93	2710.34
413.12	2689.28
413.31	2647.15
413.50	2672.89
413.69	2801.62
413.88	2876.52
414.07	2937.37
414.26	2813.32
414.45	2916.31
414.64	2932.69
414.83	3045.04
415.02	2981.84
415.22	2984.18
415.41	2993.55
415.60	3061.42
415.79	3138.66
415.98	3236.96
416.17	3110.57
416.36	3222.92
416.55	3192.49
416.74	3192.49
416.93	3229.94
417.12	3325.90
417.31	3297.81
417.50	3342.28
417.69	3424.20
417.88	3265.05
418.07	3379.73
418.26	3349.31
418.45	3646.55
418.64	3503.78
418.83	3555.27
419.02	3529.53
419.21	3548.25
419.39	3548.25
419.58	3529.53
419.77	3517.83
419.96	3742.52
420.15	3667.62
420.34	3665.28
420.53	3756.56
420.72	3838.48
420.91	3679.32
421.10	3911.04
421.29	3772.94
421.48	3712.09
421.67	3775.28
421.86	3754.22
422.05	3620.81
422.24	3716.77
422.43	3721.45
422.61	3700.39
422.80	3894.65
422.99	3861.88
423.18	3988.27
423.37	3936.78
423.56	3946.14
423.75	3829.12
423.94	3836.14
424.13	3576.34
424.32	3742.52
424.50	3976.57
424.69	3873.59
424.88	3960.19
425.07	3803.37
425.26	3857.20
425.45	3892.31
425.64	3941.46
425.83	3960.19
426.01	3929.76
426.20	3946.14
426.39	3939.12
426.58	3983.59
426.77	3847.84
426.96	4007.00
427.15	3950.82
427.33	4102.96
427.52	4126.36
427.71	4084.23
427.90	4124.02
428.09	4007.00
428.28	4201.26
428.46	4100.62
428.65	4166.15
428.84	4145.09
429.03	4196.58
429.22	3880.61
429.40	4091.26
429.59	4079.55
429.78	3990.61
429.97	3810.39
430.16	4114.66
430.34	4109.98
430.53	4042.11
430.72	4086.58
430.91	4222.33
431.10	4243.39
431.28	4442.34
431.47	4603.83
431.66	4592.13
431.85	4470.42
432.03	4561.70
432.22	4636.60
432.41	4702.14
432.60	4568.73
432.79	4599.15
432.97	4748.95
433.16	4734.90
433.35	4578.09
433.54	4648.30
433.72	4690.43
433.91	4727.88
434.10	4671.71
434.28	4692.77
434.47	4844.91
434.66	4863.63
434.85	4699.80
435.03	4837.89
435.22	4877.68
435.41	5142.16
435.59	5001.72
435.78	4973.64
435.97	5071.94
436.16	4954.91
436.34	5177.26
436.53	5034.49
436.72	5238.12
436.90	5203.01
437.09	5041.51
437.28	4950.23
437.46	5015.77
437.65	5074.28
437.84	5025.13
438.02	5151.52
438.21	5165.56
438.40	5050.88
438.58	5336.42
438.77	5359.83
438.96	5305.99
439.14	5502.60
439.33	5572.82
439.52	5511.96
439.70	5568.13
439.89	5453.45
440.08	5643.03
440.26	5706.23
440.45	5612.60
440.63	5806.87
440.82	5867.72
441.01	5631.33
441.19	5937.94
441.38	5961.34
441.57	5921.56
441.75	6092.41
441.94	6312.42
442.12	6242.21
442.31	6310.08
442.50	6258.59
442.68	6223.48
442.87	6157.95
443.05	6291.36
443.24	6359.24
443.43	6361.58
443.61	6462.22
443.80	6462.22
443.98	6258.59
444.17	6155.61
444.35	6630.74
444.54	6623.72
444.73	6403.71
444.91	6384.98
445.10	6384.98
445.28	6359.24
445.47	6225.82
445.65	6289.02
445.84	6504.35
446.02	6626.06
446.21	6569.88
446.39	6579.25
446.58	6698.61
446.77	6604.99
446.95	6434.13
447.14	6630.74
447.32	6586.27
447.51	6799.26
447.69	6485.62
447.88	6509.03
448.06	6527.75
448.25	6675.21
448.43	6607.33
448.62	6616.69
448.80	6609.67
448.99	6761.81
449.17	6658.82
449.36	6808.62
449.54	7012.24
449.73	7091.82
449.91	6904.58
450.10	7101.19
450.28	7119.91
450.46	7124.59
450.65	7131.61
450.83	7213.53
451.02	7094.16
451.20	6965.43
451.39	7166.72
451.57	7246.30
451.76	7150.34
451.94	7145.66
452.13	7115.23
452.31	7101.19
452.49	7087.14
452.68	7318.86
452.86	7190.13
453.05	7131.61
453.23	7236.94
453.42	7080.12
453.60	7356.30
453.78	7295.45
453.97	7204.17
454.15	7314.17
454.34	7265.02
454.52	7342.26
454.70	7382.05
454.89	7513.12
455.07	7555.25
455.26	7545.89
455.44	7709.72
455.62	7758.88
455.81	7562.27
455.99	7639.51
456.17	7763.56
456.36	7850.16
456.54	8028.04
456.73	7906.33
456.91	8142.72
457.09	7873.56
457.28	8109.96
457.46	7887.61
457.64	8093.57
457.83	8009.31
458.01	7836.11
458.19	8128.68
458.38	8173.15
458.56	8280.82
458.74	8145.06
458.93	8198.90
459.11	8205.92
459.29	8395.50
459.48	8358.05
459.66	8390.82
459.84	8191.88
460.03	8486.78
460.21	8505.51
460.39	8346.35
460.57	8425.93
460.76	8430.61
460.94	8514.87
461.12	8348.69
461.31	8599.13
461.49	8468.06
461.67	8606.15
461.85	8697.43
462.04	8437.63
462.22	8826.16
462.40	8805.10
462.59	8755.94
462.77	8856.59
462.95	8889.35
463.13	8809.78
463.32	8779.35
463.50	8964.25
463.68	8966.59
463.86	8826.16
464.05	8725.52
464.23	8784.03
464.41	8908.08
464.59	8753.60
464.78	9083.62
464.96	9034.47
465.14	8870.63
465.32	9160.86
465.50	9076.60
465.69	9270.86
465.87	9022.77
466.05	8945.53
466.23	9226.39
466.41	9053.19
466.60	9280.22
466.78	9289.59
466.96	9081.28
467.14	9219.37
467.32	9418.32
467.51	9413.63
467.69	9102.34
467.87	9179.58
468.05	9490.87
468.23	9186.60
468.41	9261.50
468.60	9462.79
468.78	9528.32
468.96	9500.23
469.14	9701.52
469.32	9661.73
469.50	9399.59
469.69	9647.69
469.87	9825.57
470.05	9954.30
470.23	9628.96
470.41	9884.08
470.59	9944.94
470.77	9788.12
470.95	9975.36
471.14	9947.28
471.32	9790.46
471.50	10293.68
471.68	10270.27
471.86	10073.67
472.04	10361.55
472.22	10375.59
472.40	10223.46
472.58	10221.12
472.77	10324.10
472.95	10471.56
473.13	10871.79
473.31	10567.52
473.49	10399.00
473.67	10525.39
473.85	10483.26
474.03	10810.93
474.21	10822.64
474.39	11117.54
474.57	10993.50
474.75	11197.12
474.93	10956.05
475.12	10923.28
475.30	11173.72
475.48	11035.63
475.66	11356.28
475.84	11014.56
476.02	11234.57
476.20	11157.33
476.38	11742.47
476.56	11847.79
476.74	11653.53
476.92	11775.24
477.10	11754.17
477.28	11918.01
477.46	11906.31
477.64	12189.51
477.82	12189.51
478.00	12575.70
478.18	12360.37
478.36	12657.62
478.54	12556.97
478.72	12374.41
478.90	12531.23
479.08	12772.30
479.26	13069.55
479.44	13350.42
479.62	13200.62
479.80	13121.04
479.98	13401.91
480.16	13624.26
480.34	13385.52
480.52	13469.78
480.70	13434.68
480.88	13488.51
481.06	13568.09
481.24	13855.97
481.41	13923.85
481.59	14340.46
481.77	14183.65
481.95	14174.28
482.13	14462.17
482.31	14630.69
482.49	14754.74
482.67	14693.88
482.85	14874.10
483.03	14944.32
483.21	15016.88
483.39	15211.14
483.57	15405.41
483.74	15276.68
483.92	15391.36
484.10	15077.73
484.28	15805.64
484.46	15786.91
484.64	16512.48
484.82	15861.81
485.00	16159.06
485.18	16159.06
485.35	16397.79
485.53	16194.17
485.71	16208.21
485.89	16180.12
486.07	16109.91
486.25	16645.89
486.43	16652.91
486.61	16659.93
486.78	16952.50
486.96	17228.68
487.14	17481.46
487.32	17490.82
487.50	17797.43
487.68	18022.12
487.85	18148.51
488.03	18228.09
488.21	18431.72
488.39	18588.53
488.57	18455.12
488.75	18558.11
488.92	18939.62
489.10	19129.20
489.28	18923.23
489.46	19508.37
489.64	19583.26
489.81	19777.53
489.99	19758.80
490.17	20119.24
490.35	19995.20
490.53	20357.98
490.70	19924.98
490.88	20128.61
491.06	20699.70
491.24	20418.83
491.41	20673.95
491.59	20994.61
491.77	20547.56
491.95	20959.50
492.13	20917.37
492.30	21296.53
492.48	21528.25
492.66	21582.08
492.84	21678.04
493.01	21949.54
493.19	21998.70
493.37	22190.62
493.54	22412.97
493.72	22202.32
493.90	22333.39
494.08	22909.16
494.25	23047.26
494.43	23028.53
494.61	23367.91
494.79	23112.79
494.96	23445.15
495.14	23218.11
495.32	23597.28
495.49	23468.55
495.67	23828.99
495.85	23850.06
496.02	23948.36
496.20	24222.20
496.38	24177.73
496.55	24114.54
496.73	24624.78
496.91	24837.76
497.09	24751.17
497.26	24673.93
497.44	24723.08
497.62	24989.90
497.79	24882.24
497.97	24739.46
498.14	25422.90
498.32	25830.15
498.50	25420.56
498.67	25881.64
498.85	25750.57
499.03	26103.99
499.20	25926.11
499.38	25930.80
499.56	26225.70
499.73	26162.51
499.91	26157.83
500.08	26515.93
500.26	26010.37
500.44	26513.59
500.61	26150.81
500.79	26328.69
500.97	26398.90
501.14	26838.92
501.32	27157.24
501.49	26742.96
501.67	26930.20
501.84	27211.07
502.02	27222.77
502.20	27428.74
502.37	27768.12
502.55	27754.07
502.72	27648.75
502.90	27763.43
503.07	27831.31
503.25	27531.72
503.43	27548.11
503.60	28191.75
503.78	27662.79
503.95	28051.32
504.13	27974.08
504.30	28339.21
504.48	28683.27
504.65	28514.75
504.83	28767.52
505.01	28975.83
505.18	28945.41
505.36	29631.18
505.53	29205.20
505.71	29586.71
505.88	29677.99
506.06	29200.52
506.23	29221.59
506.41	29462.66
506.58	29607.78
506.76	29404.15
506.93	29628.84
507.11	29890.98
507.28	29682.67
507.46	29858.21
507.63	30029.07
507.81	30162.48
507.98	29963.54
508.16	30270.15
508.33	30125.04
508.50	30520.59
508.68	30529.95
508.85	30462.07
509.03	30593.14
509.20	31028.48
509.38	30841.24
509.55	30909.11
509.73	31454.46
509.90	31082.31
510.08	30955.93
510.25	31229.77
510.42	31477.86
510.60	31548.08
510.77	31655.75
510.95	32032.57
511.12	31517.65
511.30	32058.32
511.47	32053.64
511.64	32079.38
511.82	32032.57
511.99	32313.44
512.17	32081.72
512.34	32245.56
512.51	32687.92
512.69	32474.93
512.86	32318.12
513.04	32615.37
513.21	32816.65
513.38	32797.93
513.56	32683.24
513.73	32458.55
513.90	32744.09
514.08	32950.06
514.25	33177.09
514.43	33394.76
514.60	32554.51
514.77	33237.95
514.95	33074.11
515.12	33153.69
515.29	33226.24
515.47	33825.42
515.64	33890.96
515.81	33642.86
515.99	33282.42
516.16	33680.31
516.33	32945.38
516.51	33401.79
516.68	32931.34
516.85	33329.23
517.03	33228.59
517.20	33619.46
517.37	33919.04
517.54	34424.60
517.72	34216.29
517.89	33605.41
518.06	33771.59
518.24	34181.18
518.41	34047.77
518.58	34876.32
518.75	34260.76
518.93	34719.51
519.10	34539.29
519.27	35019.10
519.45	34848.24
519.62	35283.58
519.79	35402.94
519.96	34539.29
520.14	35342.09
520.31	34991.01
520.48	34920.79
520.65	35316.34
520.83	35587.85
521.00	35599.55
521.17	35119.74
521.34	35997.44
521.52	35639.34
521.69	35894.46
521.86	36109.78
522.03	36362.56
522.20	35849.99
522.38	36016.16
522.55	36348.52
522.72	36177.66
522.89	35873.39
523.07	36514.70
523.24	36084.04
523.41	36498.31
523.58	36638.75
523.75	37347.93
523.92	36994.51
524.10	37113.87
524.27	36818.97
524.44	37167.71
524.61	37116.22
524.78	37251.97
524.96	37266.01
525.13	37425.17
525.30	37268.35
525.47	37818.38
525.64	37567.94
525.81	37280.05
525.98	36999.19
526.16	37361.97
526.33	37219.20
526.50	37427.51
526.67	36486.61
526.84	37413.46
527.01	37001.53
527.18	37624.11
527.36	37628.79
527.53	38029.02
527.70	38064.13
527.87	38501.81
528.04	37848.80
528.21	38124.99
528.38	38628.20
528.55	38923.11
528.72	38520.54
528.89	38820.13
529.07	38206.90
529.24	38352.02
529.41	38590.75
529.58	38497.13
529.75	38394.15
529.92	38483.09
530.09	38602.46
530.26	38976.94
530.43	38824.81
530.60	38600.12
530.77	39093.97
530.94	39023.75
531.11	38969.92
531.28	39526.97
531.46	39426.32
531.63	39299.94
531.80	39571.44
531.97	39290.57
532.14	39433.35
532.31	39040.14
532.48	39250.78
532.65	39377.17
532.82	39129.08
532.99	39501.22
533.16	38944.17
533.33	39573.78
533.50	39557.39
533.67	39739.96
533.84	39533.99
534.01	39679.10
534.18	40196.36
534.35	40339.13
534.52	39859.32
534.69	40435.10
534.86	40107.42
535.03	40622.34
535.20	40889.16
535.37	40547.44
535.54	40423.39
535.71	40549.78
535.88	40594.25
536.05	40399.99
536.22	40236.15
536.38	40673.83
536.55	40390.62
536.72	40439.78
536.89	40208.06
537.06	40428.07
537.23	40959.38
537.40	40666.81
537.57	40730.00
537.74	40711.28
537.91	40837.67
538.08	40622.34
538.25	40734.68
538.42	41097.47
538.59	40837.67
538.75	40999.16
538.92	41155.98
539.09	41331.52
539.26	41263.64
539.43	40924.27
539.60	41570.25
539.77	40732.34
539.94	41170.02
540.11	41151.30
540.28	41177.04
540.44	41048.32
540.61	41666.22
540.78	40868.09
540.95	41036.61
541.12	41343.22
541.29	41408.76
541.46	42050.06
541.62	41359.61
541.79	41673.24
541.96	41546.85
542.13	41333.86
542.30	41720.05
542.47	41511.74
542.63	41832.39
542.80	41874.52
542.97	42342.63
543.14	42429.23
543.31	41975.17
543.48	42291.14
543.64	42607.11
543.81	42775.63
543.98	42983.94
544.15	42555.62
544.32	42361.36
544.48	43082.24
544.65	42705.41
544.82	42466.68
544.99	42314.55
545.16	42665.63
545.32	42604.77
545.49	42593.07
545.66	43061.18
545.83	42995.64
546.00	43096.28
546.16	42932.45
546.33	42691.37
546.50	42494.77
546.67	43063.52
546.83	42792.01
547.00	42953.51
547.17	43084.58
547.34	42890.32
547.50	42887.98
547.67	43419.28
547.84	43304.59
548.00	43430.98
548.17	43496.52
548.34	43445.02
548.51	43896.75
548.67	43569.07
548.84	43969.30
549.01	43082.24
549.18	43601.84
549.34	43543.33
549.51	43611.20
549.68	43601.84
549.84	44172.93
550.01	44020.80
550.18	43356.08
550.34	43723.55
550.51	43484.81
550.68	43901.43
550.84	43306.93
551.01	43711.84
551.18	44088.67
551.34	43648.65
551.51	44233.78
551.68	44116.76
551.84	43772.70
552.01	44039.52
552.18	44114.42
552.34	43381.83
552.51	43597.16
552.68	44030.16
552.84	43887.39
553.01	44191.65
553.18	43859.30
553.34	44296.98
553.51	44126.12
553.67	44158.89
553.84	44273.57
554.01	44603.59
554.17	44577.84
554.34	44566.14
554.51	44465.50
554.67	44240.81
554.84	44472.52
555.00	44570.82
555.17	44325.07
555.33	44383.58
555.50	44744.02
555.67	44556.78
555.83	44215.06
556.00	44603.59
556.16	45027.23
556.33	44561.46
556.50	44830.62
556.66	44680.83
556.83	44549.76
556.99	44512.31
557.16	44832.96
557.32	44488.90
557.49	44992.12
557.65	44748.70
557.82	44891.48
557.98	45123.19
558.15	44498.26
558.32	44697.21
558.48	44439.75
558.65	44446.77
558.81	44540.39
558.98	44697.21
559.14	44751.04
559.31	44460.82
559.47	44891.48
559.64	44942.97
559.80	44865.73
559.97	44928.92
560.13	44992.12
560.30	44715.93
560.46	45052.97
560.63	45385.33
560.79	45102.12
560.96	45404.05
561.12	45195.74
561.29	45146.59
561.45	44928.92
561.61	45202.77
561.78	44542.74
561.94	45062.33
562.11	44973.39
562.27	44781.47
562.44	45287.03
562.60	45467.25
562.77	45315.11
562.93	45336.18
563.10	45549.17
563.26	45144.25
563.42	45504.70
563.59	44793.17
563.75	45261.28
563.92	45565.55
564.08	45432.14
564.24	45680.24
564.41	45352.56
564.57	45247.24
564.74	45373.63
564.90	45366.60
565.07	45588.95
565.23	45752.79
565.39	45448.52
565.56	45422.78
565.72	45064.67
565.88	45275.32
566.05	45432.14
566.21	45350.22
566.38	45265.96
566.54	45179.36
566.70	45947.06
566.87	45811.31
567.03	45762.15
567.19	45656.83
567.36	45916.63
567.52	45333.84
567.68	45521.08
567.85	45043.61
568.01	45544.48
568.17	45326.81
568.34	45783.22
568.50	45687.26
568.66	45485.97
568.83	45647.47
568.99	45698.96
569.15	45902.59
569.32	45495.33
569.48	45586.61
569.64	45799.60
569.81	45897.91
569.97	45471.93
570.13	45441.50
570.30	45296.39
570.46	45106.80
570.62	45251.92
570.78	45219.15
570.95	45331.50
571.11	45544.48
571.27	45385.33
571.43	45837.05
571.60	45804.28
571.76	45790.24
571.92	45708.32
572.09	45935.35
572.25	45352.56
572.41	46155.36
572.57	46206.86
572.74	46213.88
572.90	45645.13
573.06	46033.66
573.22	45928.33
573.38	45453.20
573.55	46017.27
573.71	46108.55
573.87	45780.88
574.03	45673.21
574.20	45780.88
574.36	45638.11
574.52	45551.51
574.68	45958.76
574.84	45731.73
575.01	45476.61
575.17	45907.27
575.33	45752.79
575.49	45549.17
575.65	46007.91
575.82	46038.34
575.98	45532.78
576.14	45797.26
576.30	45914.29
576.46	45902.59
576.62	45656.83
576.79	45621.72
576.95	45801.94
577.11	45748.11
577.27	45811.31
577.43	46115.58
577.59	45610.02
577.75	45511.72
577.92	45357.24
578.08	45783.22
578.24	45113.83
578.40	45881.52
578.56	45413.41
578.72	46057.06
578.88	45834.71
579.04	45942.38
579.21	45567.89
579.37	45883.86
579.53	45841.73
579.69	46150.68
579.85	45713.00
580.01	45731.73
580.17	45958.76
580.33	46183.45
580.49	45958.76
580.65	46082.81
580.82	45925.99
580.98	45579.59
581.14	45666.19
581.30	46043.02
581.46	46028.98
581.62	46199.83
581.78	45504.70
581.94	46391.76
582.10	46106.21
582.26	46199.83
582.42	46155.36
582.58	46256.01
582.74	46138.98
582.90	45741.09
583.06	46113.23
583.22	46043.02
583.38	46316.86
583.54	45914.29
583.70	46344.95
583.86	46288.77
584.02	45792.58
584.18	46183.45
584.34	45965.78
584.50	46080.47
584.66	45755.13
584.82	45895.56
584.98	46246.65
585.14	46033.66
585.30	45928.33
585.46	45935.35
585.62	45422.78
585.78	45762.15
585.94	45638.11
586.10	45703.64
586.26	45647.47
586.42	46527.51
586.58	46256.01
586.74	45897.91
586.90	45923.65
587.06	45991.53
587.22	46010.25
587.38	45652.15
587.54	46085.15
587.70	46033.66
587.86	45979.82
588.02	45734.07
588.18	46061.74
588.34	45591.30
588.49	45586.61
588.65	45504.70
588.81	45457.88
588.97	45668.53
589.13	45595.98
589.29	45677.90
589.45	45705.98
589.61	45577.25
589.77	46450.27
589.93	45921.31
