SpectraSuite Data File
++++++++++++++++++++++++++++++++++++
Date: Fri Oct 25 11:33:53 EDT 2013
User: price-jones
Dark Spectrum Present: No
Reference Spectrum Present: No
Number of Sampled Component Spectra: 1
Spectrometers: USB2+H05261
Integration Time (usec): 100000 (USB2+H05261)
Spectra Averaged: 1 (USB2+H05261)
Boxcar Smoothing: 0 (USB2+H05261)
Correct for Electrical Dark: No (USB2+H05261)
Strobe/Lamp Enabled: No (USB2+H05261)
Correct for Detector Non-linearity: No (USB2+H05261)
Correct for Stray Light: No (USB2+H05261)
Number of Pixels in Processed Spectrum: 2048
>>>>>Begin Processed Spectral Data<<<<<
365.73	308.95
365.92	308.95
366.12	308.95
366.32	138.09
366.52	180.22
366.72	182.56
366.91	140.43
367.11	255.12
367.31	161.50
367.51	168.52
367.70	163.84
367.90	131.07
368.10	203.63
368.30	187.24
368.49	107.66
368.69	154.48
368.89	184.90
369.09	245.76
369.28	182.56
369.48	243.42
369.68	194.26
369.87	238.73
370.07	306.61
370.27	287.89
370.47	362.78
370.66	430.66
370.86	538.32
371.06	589.82
371.25	589.82
371.45	479.81
371.65	547.69
371.84	533.64
372.04	557.05
372.24	543.00
372.44	543.00
372.63	620.24
372.83	622.58
373.03	648.33
373.22	592.16
373.42	631.94
373.62	704.50
373.81	631.94
374.01	704.50
374.21	669.39
374.40	681.10
374.60	690.46
374.79	645.99
374.99	636.63
375.19	592.16
375.38	695.14
375.58	660.03
375.78	624.92
375.97	704.50
376.17	683.44
376.37	627.26
376.56	702.16
376.76	695.14
376.95	713.86
377.15	643.65
377.35	678.76
377.54	695.14
377.74	645.99
377.93	648.33
378.13	669.39
378.33	650.67
378.52	741.95
378.72	690.46
378.91	655.35
379.11	720.88
379.31	650.67
379.50	683.44
379.70	791.10
379.89	755.99
380.09	718.54
380.28	770.04
380.48	716.20
380.68	641.31
380.87	786.42
381.07	720.88
381.26	788.76
381.46	732.59
381.65	760.67
381.85	802.80
382.04	744.29
382.24	744.29
382.43	786.42
382.63	833.23
382.83	812.17
383.02	727.91
383.22	844.93
383.41	770.04
383.61	884.72
383.80	835.57
384.00	809.83
384.19	809.83
384.39	763.01
384.58	767.70
384.78	938.55
384.97	835.57
385.17	816.85
385.36	760.67
385.56	826.21
385.75	800.46
385.95	866.00
386.14	849.61
386.34	840.25
386.53	910.47
386.72	976.00
386.92	924.51
387.11	968.98
387.31	929.19
387.50	866.00
387.70	798.12
387.89	880.04
388.09	858.98
388.28	961.96
388.48	915.15
388.67	1060.26
388.86	1004.09
389.06	943.24
389.25	922.17
389.45	931.53
389.64	1036.86
389.84	973.66
390.03	957.28
390.22	1048.56
390.42	971.32
390.61	873.02
390.81	973.66
391.00	985.37
391.19	1048.56
391.39	978.34
391.58	1011.11
391.78	966.64
391.97	1039.20
392.16	1018.13
392.36	1125.80
392.55	1018.13
392.75	1083.67
392.94	1048.56
393.13	1013.45
393.33	1053.24
393.52	1116.44
393.71	1088.35
393.91	1132.82
394.10	1128.14
394.29	1181.97
394.49	1057.92
394.68	1146.86
394.88	1109.41
395.07	1160.91
395.26	1135.16
395.46	1088.35
395.65	1217.08
395.84	1156.22
396.04	1228.78
396.23	1118.78
396.42	1174.95
396.62	1158.57
396.81	1226.44
397.00	1165.59
397.19	1299.00
397.39	1146.86
397.58	1291.98
397.77	1188.99
397.97	1207.72
398.16	1284.95
398.35	1310.70
398.55	1231.12
398.74	1329.42
398.93	1399.64
399.12	1350.49
399.32	1245.16
399.51	1324.74
399.70	1306.02
399.90	1350.49
400.09	1345.81
400.28	1380.92
400.47	1315.38
400.67	1432.41
400.86	1359.85
401.05	1378.58
401.24	1430.07
401.44	1380.92
401.63	1397.30
401.82	1441.77
402.01	1413.68
402.21	1446.45
402.40	1504.96
402.59	1495.60
402.78	1483.90
402.97	1481.56
403.17	1455.81
403.36	1607.95
403.55	1535.39
403.74	1530.71
403.93	1519.01
404.13	1556.46
404.32	1509.65
404.51	1598.59
404.70	1633.69
404.89	1577.52
405.09	1706.25
405.28	1614.97
405.47	1671.14
405.66	1694.55
405.85	1732.00
406.05	1692.21
406.24	1764.76
406.43	1727.32
406.62	1748.38
406.81	1867.75
407.00	1736.68
407.20	1750.72
407.39	1830.30
407.58	1870.09
407.77	1799.87
407.96	1900.52
408.15	1870.09
408.34	1886.47
408.54	1907.54
408.73	1930.94
408.92	1921.58
409.11	2017.54
409.30	2017.54
409.49	1984.77
409.68	2064.35
409.87	2057.33
410.07	2017.54
410.26	1961.37
410.45	1970.73
410.64	2120.53
410.83	2122.87
411.02	2019.88
411.21	2160.31
411.40	2202.44
411.59	2291.38
411.78	2129.89
411.98	2146.27
412.17	2258.62
412.36	2307.77
412.55	2356.92
412.74	2349.90
412.93	2298.41
413.12	2197.76
413.31	2361.60
413.50	2406.07
413.69	2427.14
413.88	2605.02
414.07	2450.54
414.26	2492.67
414.45	2382.67
414.64	2527.78
414.83	2483.31
415.02	2537.14
415.22	2605.02
415.41	2490.33
415.60	2677.57
415.79	2654.17
415.98	2724.38
416.17	2782.90
416.36	2733.75
416.55	2757.15
416.74	2796.94
416.93	2698.64
417.12	2836.73
417.31	2855.45
417.50	2963.12
417.69	3056.74
417.88	3021.63
418.07	3014.61
418.26	2888.22
418.45	3068.44
418.64	3089.51
418.83	3021.63
419.02	3094.19
419.21	3117.59
419.39	3169.09
419.58	3215.90
419.77	2960.78
419.96	3192.49
420.15	3119.93
420.34	3148.02
420.53	3265.05
420.72	3192.49
420.91	3159.72
421.10	3272.07
421.29	3321.22
421.48	3269.73
421.67	3353.99
421.86	3232.28
422.05	3260.37
422.24	3314.20
422.43	3211.22
422.61	3281.43
422.80	3372.71
422.99	3346.97
423.18	3236.96
423.37	3363.35
423.56	3426.54
423.75	3426.54
423.94	3372.71
424.13	3185.47
424.32	3276.75
424.50	3419.52
424.69	3403.14
424.88	3475.70
425.07	3417.18
425.26	3480.38
425.45	3377.39
425.64	3419.52
425.83	3447.61
426.01	3506.12
426.20	3466.33
426.39	3365.69
426.58	3452.29
426.77	3487.40
426.96	3658.26
427.15	3585.70
427.33	3536.55
427.52	3487.40
427.71	3676.98
427.90	3527.19
428.09	3632.51
428.28	3735.50
428.46	3576.34
428.65	3772.94
428.84	3749.54
429.03	3906.35
429.22	3662.94
429.40	3733.15
429.59	3768.26
429.78	3714.43
429.97	3585.70
430.16	3768.26
430.34	3796.35
430.53	3719.11
430.72	3758.90
430.91	3840.82
431.10	3878.27
431.28	3974.23
431.47	4002.32
431.66	3880.61
431.85	3864.22
432.03	4060.83
432.22	3964.87
432.41	3983.59
432.60	4100.62
432.79	4070.19
432.97	4105.30
433.16	4088.92
433.35	4194.24
433.54	4030.40
433.72	4159.13
433.91	4166.15
434.10	4243.39
434.28	4067.85
434.47	4170.83
434.66	4320.63
434.85	4210.62
435.03	4498.51
435.22	4271.48
435.41	4383.82
435.59	4341.69
435.78	4320.63
435.97	4341.69
436.16	4430.63
436.34	4311.27
436.53	4395.53
436.72	4629.58
436.90	4407.23
437.09	4465.74
437.28	4337.01
437.46	4512.55
437.65	4582.77
437.84	4468.08
438.02	4409.57
438.21	4655.33
438.40	4472.76
438.58	4678.73
438.77	4678.73
438.96	4669.37
439.14	4793.42
439.33	4889.38
439.52	4898.74
439.70	4870.65
439.89	4887.04
440.08	4837.89
440.26	4966.62
440.45	4936.19
440.63	5018.11
440.82	5125.77
441.01	5121.09
441.19	5116.41
441.38	5341.10
441.57	5135.14
441.75	5270.89
441.94	5523.66
442.12	5294.29
442.31	5481.53
442.50	5483.88
442.68	5434.72
442.87	5399.62
443.05	5626.65
443.24	5516.64
443.43	5434.72
443.61	5493.24
443.80	5785.80
443.98	5420.68
444.17	5343.44
444.35	5511.96
444.54	5668.78
444.73	5668.78
444.91	5617.29
445.10	5530.69
445.28	5504.94
445.47	5544.73
445.65	5736.65
445.84	5680.48
446.02	5668.78
446.21	5710.91
446.39	5884.11
446.58	5834.96
446.77	5755.38
446.95	5614.95
447.14	5537.71
447.32	5818.57
447.51	5638.35
447.69	5809.21
447.88	5874.74
448.06	5820.91
448.25	5762.40
448.43	5673.46
448.62	5799.85
448.80	5724.95
448.99	5813.89
449.17	5874.74
449.36	5951.98
449.54	6104.12
449.73	6066.67
449.91	6050.28
450.10	6129.86
450.28	6017.52
450.46	6045.60
450.65	6029.22
450.83	6080.71
451.02	5926.24
451.20	6228.17
451.39	6239.87
451.57	6122.84
451.76	6146.25
451.94	6225.82
452.13	6216.46
452.31	6263.27
452.49	6033.90
452.68	6204.76
452.86	6195.40
453.05	6317.11
453.23	6377.96
453.42	6239.87
453.60	6296.04
453.78	6431.79
453.97	6417.75
454.15	6455.20
454.34	6352.21
454.52	6696.27
454.70	6462.22
454.89	6532.44
455.07	6487.96
455.26	6558.18
455.44	6483.28
455.62	6443.49
455.81	6738.40
455.99	6949.05
456.17	6686.91
456.36	6612.01
456.54	6806.28
456.73	6881.18
456.91	7014.59
457.09	7037.99
457.28	6920.96
457.46	6986.50
457.64	7091.82
457.83	7197.15
458.01	6885.86
458.19	7190.13
458.38	7052.03
458.56	7220.55
458.74	7075.44
458.93	7269.70
459.11	7290.77
459.29	7117.57
459.48	7199.49
459.66	7250.98
459.84	7344.60
460.03	7445.24
460.21	7454.61
460.39	7379.71
460.57	7222.89
460.76	7480.35
460.94	7524.82
461.12	7414.82
461.31	7527.16
461.49	7442.90
461.67	7265.02
461.85	7658.23
462.04	7396.09
462.22	7969.52
462.40	7803.35
462.59	7557.59
462.77	7772.92
462.95	7995.27
463.13	7681.64
463.32	7796.32
463.50	7791.64
463.68	7742.49
463.86	7915.69
464.05	7786.96
464.23	8006.97
464.41	7852.50
464.59	7815.05
464.78	8049.10
464.96	7960.16
465.14	7854.84
465.32	7971.86
465.50	8210.60
465.69	8166.13
465.87	8002.29
466.05	8084.21
466.23	8046.76
466.41	7981.23
466.60	8362.73
466.78	8180.17
466.96	8004.63
467.14	8203.58
467.32	8334.65
467.51	8217.62
467.69	8060.80
467.87	8243.37
468.05	8177.83
468.23	8276.13
468.41	8184.85
468.60	8306.56
468.78	8428.27
468.96	8454.02
469.14	8681.05
469.32	8461.04
469.50	8365.07
469.69	8711.47
469.87	8678.71
470.05	8765.31
470.23	8807.44
470.41	8706.79
470.59	9004.04
470.77	8599.13
470.95	8772.33
471.14	8997.02
471.32	8826.16
471.50	9125.75
471.68	8809.78
471.86	8964.25
472.04	9135.11
472.22	9224.05
472.40	8929.14
472.58	9312.99
472.77	9298.95
472.95	9458.10
473.13	9598.54
473.31	9291.93
473.49	9390.23
473.67	9624.28
473.85	9406.61
474.03	9895.78
474.21	9420.66
474.39	9657.05
474.57	9753.01
474.75	9863.02
474.93	9893.44
475.12	9909.83
475.30	9963.66
475.48	10073.67
475.66	10113.45
475.84	10071.33
476.02	10057.28
476.20	9909.83
476.38	10391.98
476.56	10410.70
476.74	10581.56
476.92	10408.36
477.10	10551.14
477.28	10731.36
477.46	10665.82
477.64	10729.02
477.82	10963.07
478.00	11019.24
478.18	11124.57
478.36	11250.96
478.54	11185.42
478.72	11342.24
478.90	11332.87
479.08	11700.34
479.26	11634.80
479.44	11698.00
479.62	11920.35
479.80	11559.91
479.98	12030.35
480.16	12241.00
480.34	11941.41
480.52	12170.79
480.70	12170.79
480.88	12138.02
481.06	12421.22
481.24	12418.88
481.41	12318.24
481.59	12603.78
481.77	12784.01
481.95	12690.38
482.13	12964.23
482.31	12929.12
482.49	13261.48
482.67	13139.77
482.85	13465.10
483.03	13451.06
483.21	13607.87
483.39	13827.88
483.57	13848.95
483.74	13745.97
483.92	13961.30
484.10	14036.19
484.28	14382.59
484.46	14368.55
484.64	14806.23
484.82	14267.91
485.00	14651.75
485.18	14654.09
485.35	15009.86
485.53	15056.67
485.71	15028.58
485.89	15309.44
486.07	15225.18
486.25	15318.81
486.43	15496.69
486.61	15494.35
486.78	15632.44
486.96	15616.05
487.14	15885.22
487.32	15922.66
487.50	16383.75
487.68	16514.82
487.85	16360.34
488.03	16477.37
488.21	16910.37
488.39	16615.46
488.57	17128.04
488.75	17153.79
488.92	17380.82
489.10	17261.45
489.28	17479.12
489.46	17544.66
489.64	17565.72
489.81	18017.44
489.99	18026.81
490.17	18111.07
490.35	18129.79
490.53	18586.19
490.70	18569.81
490.88	18398.95
491.06	18801.52
491.24	18761.73
491.41	18944.30
491.59	18759.39
491.77	19222.82
491.95	19440.49
492.13	19241.54
492.30	19513.05
492.48	19817.32
492.66	19810.29
492.84	19784.55
493.01	20044.35
493.19	20180.10
493.37	20109.88
493.54	20524.16
493.72	20435.22
493.90	20657.57
494.08	20746.51
494.25	20819.07
494.43	21039.08
494.61	21139.72
494.79	21139.72
494.96	21078.86
495.14	21422.92
495.32	21928.48
495.49	21743.58
495.67	21689.74
495.85	21762.30
496.02	21799.75
496.20	22361.48
496.38	22073.59
496.55	22417.65
496.73	22607.23
496.91	22700.86
497.09	22834.27
497.26	22869.37
497.44	22724.26
497.62	23016.83
497.79	23253.22
497.97	23452.17
498.14	23248.54
498.32	23620.69
498.50	23697.92
498.67	23728.35
498.85	23555.15
499.03	24126.24
499.20	24016.24
499.38	24070.07
499.56	24161.35
499.73	24332.21
499.91	24425.83
500.08	24446.90
500.26	24517.11
500.44	24673.93
500.61	24435.19
500.79	24671.59
500.97	24947.77
501.14	25156.08
501.32	25039.05
501.49	25120.97
501.67	25034.37
501.84	25715.47
502.02	25102.25
502.20	25261.40
502.37	25736.53
502.55	25619.50
502.72	25500.14
502.90	25781.00
503.07	25731.85
503.25	26199.96
503.43	25855.90
503.60	26209.32
503.78	26401.24
503.95	25979.95
504.13	26309.96
504.30	26862.33
504.48	26780.41
504.65	26506.57
504.83	27225.11
505.01	27091.70
505.18	27297.67
505.36	26979.36
505.53	27173.62
505.71	27395.97
505.88	27587.89
506.06	27300.01
506.23	27335.12
506.41	27260.22
506.58	27651.09
506.76	27250.86
506.93	28023.23
507.11	27751.73
507.28	27789.18
507.46	27917.91
507.63	27957.70
507.81	28236.22
507.98	28077.07
508.16	28079.41
508.33	28479.64
508.50	28554.54
508.68	28629.43
508.85	28781.57
509.03	29055.41
509.20	29067.11
509.38	29163.08
509.55	29156.05
509.73	29010.94
509.90	29317.55
510.08	29092.86
510.25	28987.53
510.42	29823.11
510.60	29764.59
510.77	29862.90
510.95	30045.46
511.12	29509.47
511.30	29778.64
511.47	29958.86
511.64	30183.55
511.82	30040.78
511.99	30075.88
512.17	30183.55
512.34	30045.46
512.51	30836.56
512.69	30525.27
512.86	30822.51
513.04	30698.47
513.21	30801.45
513.38	30756.98
513.56	31189.98
513.73	31140.83
513.90	31110.40
514.08	30831.88
514.25	31597.23
514.43	31487.23
514.60	31754.05
514.77	31442.76
514.95	31592.55
515.12	31388.92
515.29	31817.24
515.47	31363.18
515.64	31611.28
515.81	31641.70
515.99	32243.22
516.16	32060.66
516.33	32229.18
516.51	32254.92
516.68	32039.59
516.85	31920.23
517.03	32538.13
517.20	32591.96
517.37	32250.24
517.54	32870.48
517.72	32465.57
517.89	32877.51
518.06	33069.43
518.24	32615.37
518.41	32669.20
518.58	32606.00
518.75	33010.92
518.93	33221.56
519.10	32950.06
519.27	33647.54
519.45	33223.90
519.62	33619.46
519.79	33710.74
519.96	33914.36
520.14	33633.50
520.31	33558.60
520.48	34007.98
520.65	33949.47
520.83	34321.62
521.00	34167.14
521.17	34457.37
521.34	34422.26
521.52	34539.29
521.69	34548.65
521.86	34527.58
522.03	34735.89
522.20	35028.46
522.38	34960.58
522.55	35019.10
522.72	34707.80
522.89	35065.91
523.07	34878.66
523.24	34923.13
523.41	35702.53
523.58	34766.32
523.75	35297.62
523.92	35040.16
524.10	35559.76
524.27	35257.83
524.44	35644.02
524.61	35770.41
524.78	35562.10
524.96	35660.40
525.13	35608.91
525.30	35868.71
525.47	35924.88
525.64	35613.59
525.81	36252.56
525.98	36400.01
526.16	36006.80
526.33	36030.21
526.50	36355.54
526.67	36294.69
526.84	36823.65
527.01	36701.94
527.18	36264.26
527.36	36194.04
527.53	36669.17
527.70	37069.40
527.87	36966.42
528.04	36687.90
528.21	36662.15
528.38	36711.30
528.55	37099.83
528.72	36842.37
528.89	36905.57
529.07	36959.40
529.24	36907.91
529.41	37380.70
529.58	37078.77
529.75	37060.04
529.92	36945.36
530.09	37322.18
530.26	37607.73
530.43	37448.57
530.60	36954.72
530.77	37301.12
530.94	37956.47
531.11	37940.08
531.28	37745.82
531.46	37687.31
531.63	37993.92
531.80	37703.69
531.97	38160.09
532.14	37809.01
532.31	37916.68
532.48	37989.24
532.65	38766.29
532.82	38466.70
532.99	38567.35
533.16	38239.67
533.33	38462.02
533.50	38735.87
533.67	38731.18
533.84	38335.63
534.01	38817.78
534.18	38628.20
534.35	38815.44
534.52	38763.95
534.69	39044.82
534.86	39192.27
535.03	38960.56
535.20	39391.22
535.37	39182.91
535.54	39138.44
535.71	39281.21
535.88	39189.93
536.05	39281.21
536.22	39522.29
536.38	39182.91
536.55	39166.52
536.72	39594.84
536.89	39026.09
537.06	39716.55
537.23	40037.20
537.40	39093.97
537.57	39452.07
537.74	39749.32
537.91	39583.14
538.08	39791.45
538.25	39557.39
538.42	39985.71
538.59	40404.67
538.75	39456.75
538.92	40208.06
539.09	40091.04
539.26	40217.43
539.43	40367.22
539.60	40573.19
539.77	40182.32
539.94	40741.71
540.11	40547.44
540.28	40725.32
540.44	40479.57
540.61	40472.54
540.78	40245.51
540.95	40306.37
541.12	40069.97
541.29	40409.35
541.46	40449.14
541.62	40484.25
541.79	41207.47
541.96	40919.59
542.13	40432.75
542.30	40629.36
542.47	41165.34
542.63	41223.86
542.80	41284.71
542.97	41682.60
543.14	41553.87
543.31	41698.98
543.48	41694.30
543.64	41867.50
543.81	41902.61
543.98	42139.00
544.15	41734.09
544.32	42052.41
544.48	42000.91
544.65	41839.42
544.82	42012.62
544.99	42007.94
545.16	42150.71
545.32	41890.91
545.49	42391.78
545.66	42518.17
545.83	42335.61
546.00	42377.74
546.16	42738.18
546.33	41944.74
546.50	42047.72
546.67	42522.85
546.83	42155.39
547.00	42314.55
547.17	42665.63
547.34	42433.91
547.50	43236.72
547.67	42731.16
547.84	42827.12
548.00	42916.06
548.17	43189.91
548.34	42864.57
548.51	43241.40
548.67	43091.60
548.84	42822.44
549.01	43030.75
549.18	42981.60
549.34	43171.18
549.51	43264.80
549.68	43187.56
549.84	42904.36
550.01	43377.15
550.18	43072.88
550.34	43353.74
550.51	43225.01
550.68	43063.52
550.84	42761.59
551.01	43693.12
551.18	43030.75
551.34	43538.65
551.51	43117.35
551.68	43414.60
551.84	43393.53
552.01	43489.49
552.18	43679.08
552.34	43477.79
552.51	43840.57
552.68	43913.13
552.84	43292.89
553.01	44128.46
553.18	44205.70
553.34	44264.21
553.51	43812.49
553.67	43805.47
553.84	44083.99
554.01	44577.84
554.17	44416.35
554.34	44514.65
554.51	44488.90
554.67	44311.02
554.84	44425.71
555.00	44608.27
555.17	44275.91
555.33	44458.48
555.50	44194.00
555.67	44460.82
555.83	44325.07
556.00	44659.76
556.16	44626.99
556.33	44521.67
556.50	44769.77
556.66	44725.30
556.83	44114.42
556.99	44971.05
557.16	44444.43
557.32	44486.56
557.49	44886.79
557.65	44516.99
557.82	45123.19
557.98	45193.40
558.15	45083.40
558.32	44898.50
558.48	45001.48
558.65	44788.49
558.81	45237.87
558.98	44896.16
559.14	44964.03
559.31	45200.43
559.47	45057.65
559.64	45013.18
559.80	44966.37
559.97	45551.51
560.13	44760.40
560.30	45216.81
560.46	45350.22
560.63	45572.57
560.79	45675.55
560.96	45422.78
561.12	45436.82
561.29	45586.61
561.45	45418.10
561.61	45516.40
561.78	45469.59
561.94	45464.91
562.11	44968.71
562.27	45478.95
562.44	45600.66
562.60	45862.80
562.77	45848.75
562.93	45574.91
563.10	45745.77
563.26	45467.25
563.42	45975.14
563.59	45352.56
563.75	45584.27
563.92	45624.06
564.08	45977.48
564.24	45797.26
564.41	45834.71
564.57	45888.54
564.74	45607.68
564.90	45614.70
565.07	45280.00
565.23	45848.75
565.39	45727.05
565.56	46124.94
565.72	45544.48
565.88	45897.91
566.05	45799.60
566.21	46040.68
566.38	45837.05
566.54	46234.94
566.70	46183.45
566.87	46164.73
567.03	45979.82
567.19	45928.33
567.36	46473.68
567.52	46183.45
567.68	46218.56
567.85	46061.74
568.01	46667.94
568.17	45944.72
568.34	46316.86
568.50	46412.82
568.66	45715.34
568.83	46021.95
568.99	46305.16
569.15	46293.46
569.32	46183.45
569.48	46321.54
569.64	46515.81
569.81	46309.84
569.97	46553.26
570.13	46328.56
570.30	45937.69
570.46	46267.71
570.62	46237.28
570.78	46263.03
570.95	46440.91
571.11	46504.10
571.27	46230.26
571.43	46092.17
571.60	46543.89
571.76	46389.42
571.92	46487.72
572.09	46328.56
572.25	46525.17
572.41	46394.10
572.57	46604.75
572.74	47131.37
572.90	46513.47
573.06	46457.29
573.22	46281.75
573.38	46733.48
573.55	46632.83
573.71	47009.66
573.87	46522.83
574.03	46663.26
574.20	46890.29
574.36	46579.00
574.52	46916.04
574.68	46813.05
574.84	46773.27
575.01	46988.60
575.17	46581.34
575.33	46965.19
575.49	46735.82
575.65	46871.57
575.82	46995.62
575.98	46314.52
576.14	47175.84
576.30	46775.61
576.46	46586.02
576.62	46644.54
576.79	46560.28
576.95	46279.41
577.11	46579.00
577.27	46820.08
577.43	46862.21
577.59	46351.97
577.75	46546.23
577.92	46452.61
578.08	46344.95
578.24	46883.27
578.40	47288.18
578.56	46876.25
578.72	46745.18
578.88	46712.41
579.04	47114.98
579.21	46672.62
579.37	47056.47
579.53	46897.31
579.69	46745.18
579.85	46681.98
580.01	46955.83
580.17	46724.11
580.33	46906.68
580.49	47014.34
580.65	46862.21
580.82	46976.89
580.98	46693.69
581.14	46899.65
581.30	47063.49
581.46	46909.02
581.62	46799.01
581.78	47150.09
581.94	46902.00
582.10	46731.14
582.26	47529.26
582.42	47234.35
582.58	47372.44
582.74	46894.97
582.90	46670.28
583.06	47161.79
583.22	46820.08
583.38	46873.91
583.54	47182.86
583.70	47262.44
583.86	47136.05
584.02	47044.77
584.18	47363.08
584.34	47203.92
584.50	47405.21
584.66	47445.00
584.82	47239.03
584.98	47501.17
585.14	47409.89
585.30	47374.78
585.46	47374.78
585.62	46775.61
585.78	47206.26
585.94	46990.94
586.10	47126.69
586.26	46799.01
586.42	46911.36
586.58	47007.32
586.74	46749.86
586.90	46902.00
587.06	47009.66
587.22	47250.74
587.38	47196.90
587.54	47313.93
587.70	47152.43
587.86	47075.19
588.02	46925.40
588.18	47489.47
588.34	47138.39
588.49	47402.87
588.65	47103.28
588.81	47227.33
588.97	47374.78
589.13	47119.66
589.29	47482.45
589.45	47236.69
589.61	47381.80
589.77	47257.76
589.93	47302.23
