SpectraSuite Data File
++++++++++++++++++++++++++++++++++++
Date: Fri Oct 25 10:43:44 EDT 2013
User: price-jones
Dark Spectrum Present: No
Reference Spectrum Present: No
Number of Sampled Component Spectra: 1
Spectrometers: USB2+H05261
Integration Time (usec): 100000 (USB2+H05261)
Spectra Averaged: 1 (USB2+H05261)
Boxcar Smoothing: 0 (USB2+H05261)
Correct for Electrical Dark: No (USB2+H05261)
Strobe/Lamp Enabled: No (USB2+H05261)
Correct for Detector Non-linearity: No (USB2+H05261)
Correct for Stray Light: No (USB2+H05261)
Number of Pixels in Processed Spectrum: 2048
>>>>>Begin Processed Spectral Data<<<<<
365.73	124.05
365.92	124.05
366.12	124.05
366.32	37.45
366.52	18.72
366.72	56.17
366.91	42.13
367.11	67.88
367.31	21.06
367.51	30.43
367.70	53.83
367.90	25.75
368.10	4.68
368.30	49.15
368.49	9.36
368.69	51.49
368.89	72.56
369.09	58.51
369.28	2.34
369.48	95.96
369.68	23.41
369.87	102.98
370.07	46.81
370.27	156.82
370.47	212.99
370.66	390.87
370.86	435.34
371.06	435.34
371.25	468.11
371.45	409.59
371.65	409.59
371.84	470.45
372.04	526.62
372.24	528.96
372.44	505.56
372.63	613.22
372.83	531.30
373.03	489.17
373.22	454.06
373.42	571.09
373.62	543.00
373.81	425.98
374.01	461.09
374.21	606.20
374.40	606.20
374.60	528.96
374.79	547.69
374.99	496.19
375.19	671.73
375.38	573.43
375.58	660.03
375.78	622.58
375.97	617.90
376.17	606.20
376.37	603.86
376.56	629.60
376.76	566.41
376.95	624.92
377.15	580.45
377.35	704.50
377.54	730.25
377.74	608.54
377.93	638.97
378.13	645.99
378.33	594.50
378.52	650.67
378.72	683.44
378.91	664.71
379.11	671.73
379.31	610.88
379.50	643.65
379.70	669.39
379.89	730.25
380.09	627.26
380.28	727.91
380.48	706.84
380.68	688.12
380.87	765.36
381.07	734.93
381.26	615.56
381.46	732.59
381.65	690.46
381.85	671.73
382.04	718.54
382.24	699.82
382.43	702.16
382.63	695.14
382.83	671.73
383.02	758.33
383.22	716.20
383.41	746.63
383.61	774.72
383.80	732.59
384.00	770.04
384.19	734.93
384.39	779.40
384.58	826.21
384.78	833.23
384.97	791.10
385.17	816.85
385.36	786.42
385.56	772.38
385.75	835.57
385.95	809.83
386.14	833.23
386.34	882.38
386.53	784.08
386.72	802.80
386.92	896.43
387.11	795.78
387.31	887.06
387.50	929.19
387.70	870.68
387.89	875.36
388.09	844.93
388.28	770.04
388.48	891.74
388.67	873.02
388.86	915.15
389.06	929.19
389.25	987.71
389.45	968.98
389.64	980.68
389.84	1008.77
390.03	1018.13
390.22	880.04
390.42	1020.47
390.61	943.24
390.81	1109.41
391.00	1043.88
391.19	1027.50
391.39	997.07
391.58	1057.92
391.78	973.66
391.97	1064.94
392.16	1032.18
392.36	983.02
392.55	1004.09
392.75	1100.05
392.94	959.62
393.13	945.58
393.33	1078.99
393.52	1001.75
393.71	1067.28
393.91	1093.03
394.10	1125.80
394.29	1153.88
394.49	1153.88
394.68	1181.97
394.88	1095.37
395.07	1341.13
395.26	1165.59
395.46	1207.72
395.65	1261.55
395.84	1142.18
396.04	1287.29
396.23	1069.62
396.42	1177.29
396.62	1109.41
396.81	1193.67
397.00	1200.69
397.19	1371.55
397.39	1362.19
397.58	1432.41
397.77	1401.98
397.97	1352.83
398.16	1373.89
398.35	1423.05
398.55	1427.73
398.74	1556.46
398.93	1544.75
399.12	1434.75
399.32	1418.36
399.51	1504.96
399.70	1549.43
399.90	1526.03
400.09	1565.82
400.28	1514.33
400.47	1582.20
400.67	1685.19
400.86	1734.34
401.05	1652.42
401.24	1680.50
401.44	1638.38
401.63	1664.12
401.82	1703.91
402.01	1638.38
402.21	1692.21
402.40	1830.30
402.59	1703.91
402.78	1760.08
402.97	1736.68
403.17	1863.07
403.36	1746.04
403.55	1865.41
403.74	1853.70
403.93	1884.13
404.13	1891.15
404.32	1834.98
404.51	1867.75
404.70	1923.92
404.89	1937.96
405.09	1912.22
405.28	1994.14
405.47	1952.01
405.66	1970.73
405.85	1926.26
406.05	2033.93
406.24	1921.58
406.43	1975.41
406.62	2120.53
406.81	2160.31
407.00	1970.73
407.20	1991.80
407.39	2094.78
407.58	2118.18
407.77	2106.48
407.96	2165.00
408.15	2272.66
408.34	2225.85
408.54	2289.04
408.73	2253.94
408.92	2298.41
409.11	2310.11
409.30	2251.60
409.49	2204.78
409.68	2230.53
409.87	2319.47
410.07	2270.32
410.26	2387.35
410.45	2319.47
410.64	2347.56
410.83	2520.76
411.02	2422.45
411.21	2509.05
411.40	2640.12
411.59	2509.05
411.78	2633.10
411.98	2572.25
412.17	2677.57
412.36	2710.34
412.55	2700.98
412.74	2806.30
412.93	2616.72
413.12	2672.89
413.31	2822.69
413.50	2743.11
413.69	2909.29
413.88	2904.60
414.07	2768.85
414.26	2883.54
414.45	2911.63
414.64	2885.88
414.83	2918.65
415.02	3056.74
415.22	3016.95
415.41	3012.27
415.60	3049.72
415.79	3194.83
415.98	3281.43
416.17	3194.83
416.36	3028.65
416.55	3208.87
416.74	3274.41
416.93	3206.53
417.12	3342.28
417.31	3258.03
417.50	3349.31
417.69	3506.12
417.88	3337.60
418.07	3412.50
418.26	3475.70
418.45	3407.82
418.64	3499.10
418.83	3485.06
419.02	3571.66
419.21	3581.02
419.39	3648.90
419.58	3475.70
419.77	3564.64
419.96	3623.15
420.15	3581.02
420.34	3581.02
420.53	3749.54
420.72	3772.94
420.91	3798.69
421.10	3779.97
421.29	3885.29
421.48	3751.88
421.67	3908.69
421.86	3747.20
422.05	3749.54
422.24	3861.88
422.43	3698.05
422.61	3700.39
422.80	3859.54
422.99	3904.01
423.18	3992.95
423.37	3946.14
423.56	3953.16
423.75	3808.05
423.94	3812.73
424.13	3740.18
424.32	3779.97
424.50	3927.42
424.69	3904.01
424.88	4025.72
425.07	3925.08
425.26	3985.93
425.45	3887.63
425.64	3934.44
425.83	3819.75
426.01	4037.42
426.20	4016.36
426.39	4002.32
426.58	3885.29
426.77	3824.44
426.96	4007.00
427.15	3918.06
427.33	4112.32
427.52	4070.19
427.71	4023.38
427.90	4091.26
428.09	4152.11
428.28	4250.41
428.46	4166.15
428.65	4102.96
428.84	4266.80
429.03	4119.34
429.22	4159.13
429.40	4121.68
429.59	3873.59
429.78	3936.78
429.97	3983.59
430.16	4002.32
430.34	4117.00
430.53	4124.02
430.72	4201.26
430.91	4168.49
431.10	4243.39
431.28	4493.83
431.47	4517.23
431.66	4596.81
431.85	4472.76
432.03	4664.69
432.22	4704.48
432.41	4545.32
432.60	4542.98
432.79	4578.09
432.97	4765.33
433.16	4741.93
433.35	4547.66
433.54	4779.37
433.72	4732.56
433.91	4507.87
434.10	4678.73
434.28	4744.27
434.47	4664.69
434.66	4856.61
434.85	4961.94
435.03	5022.79
435.22	4898.74
435.41	5170.24
435.59	5123.43
435.78	5062.58
435.97	5184.29
436.16	5022.79
436.34	5118.75
436.53	5181.95
436.72	5132.79
436.90	5095.35
437.09	5146.84
437.28	5004.07
437.46	5081.30
437.65	5125.77
437.84	5305.99
438.02	5081.30
438.21	5142.16
438.40	5123.43
438.58	5252.16
438.77	5277.91
438.96	5338.76
439.14	5500.26
439.33	5631.33
439.52	5689.84
439.70	5547.07
439.89	5666.44
440.08	5542.39
440.26	5692.18
440.45	5734.31
440.63	5750.70
440.82	5926.24
441.01	5940.28
441.19	5951.98
441.38	5895.81
441.57	6085.39
441.75	6155.61
441.94	6300.72
442.12	6167.31
442.31	6326.47
442.50	6328.81
442.68	6162.63
442.87	6284.34
443.05	6277.32
443.24	6537.12
443.43	6342.85
443.61	6572.22
443.80	6633.08
443.98	6354.55
444.17	6132.20
444.35	6342.85
444.54	6616.69
444.73	6483.28
444.91	6473.92
445.10	6443.49
445.28	6523.07
445.47	6340.51
445.65	6359.24
445.84	6420.09
446.02	6392.00
446.21	6560.52
446.39	6457.54
446.58	6476.26
446.77	6715.00
446.95	6544.14
447.14	6630.74
447.32	6719.68
447.51	6663.51
447.69	6562.86
447.88	6525.41
448.06	6651.80
448.25	6668.19
448.43	6651.80
448.62	6691.59
448.80	6682.23
448.99	6689.25
449.17	6717.34
449.36	6836.70
449.54	6871.81
449.73	6995.86
449.91	7082.46
450.10	7162.04
450.28	7349.28
450.46	7033.31
450.65	7035.65
450.83	7094.16
451.02	7068.42
451.20	7222.89
451.39	7145.66
451.57	7103.53
451.76	7213.53
451.94	7108.21
452.13	7405.46
452.31	7372.69
452.49	7059.06
452.68	7250.98
452.86	7178.42
453.05	7213.53
453.23	7456.95
453.42	7241.62
453.60	7183.10
453.78	7356.30
453.97	7302.47
454.15	7405.46
454.34	7311.83
454.52	7426.52
454.70	7487.37
454.89	7454.61
455.07	7428.86
455.26	7407.80
455.44	7824.41
455.62	7653.55
455.81	7695.68
455.99	7852.50
456.17	7756.54
456.36	7719.09
456.54	7747.17
456.73	7957.82
456.91	8168.47
457.09	7864.20
457.28	8355.71
457.46	7878.24
457.64	8051.44
457.83	7960.16
458.01	8079.53
458.19	8255.07
458.38	8035.06
458.56	8234.00
458.74	8262.09
458.93	8131.02
459.11	8278.47
459.29	8124.00
459.48	8276.13
459.66	8112.30
459.84	8444.65
460.03	8468.06
460.21	8184.85
460.39	8580.40
460.57	8512.53
460.76	8634.24
460.94	8524.23
461.12	8671.68
461.31	8559.34
461.49	8681.05
461.67	8702.11
461.85	8709.13
462.04	8629.56
462.22	9036.81
462.40	8961.91
462.59	8922.12
462.77	8894.04
462.95	8819.14
463.13	8805.10
463.32	8837.86
463.50	9020.42
463.68	9088.30
463.86	9022.77
464.05	8791.05
464.23	8980.64
464.41	9074.26
464.59	8896.38
464.78	9217.03
464.96	8887.01
465.14	9015.74
465.32	9032.13
465.50	9235.75
465.69	9214.69
465.87	9172.56
466.05	9057.87
466.23	9069.58
466.41	9104.68
466.60	9322.35
466.78	8985.32
466.96	9163.20
467.14	9144.47
467.32	9165.54
467.51	9401.93
467.69	8999.36
467.87	9481.51
468.05	9315.33
468.23	9387.89
468.41	9390.23
468.60	9462.79
468.78	9561.09
468.96	9364.48
469.14	9806.84
469.32	9928.55
469.50	9399.59
469.69	9544.70
469.87	9760.03
470.05	9717.90
470.23	9872.38
470.41	9797.48
470.59	9844.29
470.77	9825.57
470.95	9825.57
471.14	9989.41
471.32	9692.16
471.50	9879.40
471.68	10296.02
471.86	10148.56
472.04	10443.47
472.22	10417.72
472.40	10237.50
472.58	10143.88
472.77	10239.84
472.95	10373.25
473.13	10867.11
473.31	10532.41
473.49	10457.51
473.67	10499.64
473.85	10532.41
474.03	10810.93
474.21	10839.02
474.39	11047.33
474.57	10958.39
474.75	10934.98
474.93	11026.26
475.12	11255.64
475.30	11201.80
475.48	11047.33
475.66	11337.56
475.84	11269.68
476.02	11267.34
476.20	11482.67
476.38	11662.89
476.56	11707.36
476.74	11676.93
476.92	11716.72
477.10	11690.98
477.28	12226.96
477.46	11960.14
477.64	12306.54
477.82	12435.27
478.00	12538.25
478.18	12343.99
478.36	12793.37
478.54	12659.96
478.72	12697.41
478.90	12671.66
479.08	12699.75
479.26	13111.68
479.44	13036.78
479.62	12938.48
479.80	13308.29
479.98	13401.91
480.16	13671.07
480.34	13376.16
480.52	13511.91
480.70	13561.06
480.88	13474.46
481.06	13867.67
481.24	13642.98
481.41	14106.41
481.59	14265.57
481.77	14305.35
481.95	14300.67
482.13	14663.46
482.31	14511.32
482.49	14979.43
482.67	14761.76
482.85	14913.89
483.03	14951.34
483.21	15115.18
483.39	15290.72
483.57	15524.77
483.74	15274.34
483.92	15527.11
484.10	15147.95
484.28	15917.98
484.46	15899.26
484.64	16287.79
484.82	15892.24
485.00	15908.62
485.18	16002.24
485.35	16636.53
485.53	15894.58
485.71	16322.90
485.89	16350.98
486.07	16079.48
486.25	16744.19
486.43	16793.34
486.61	16912.71
486.78	17003.99
486.96	17298.90
487.14	17853.61
487.32	17474.44
487.50	18075.96
487.68	18024.47
487.85	18211.71
488.03	18523.00
488.21	18469.17
488.39	18462.15
488.57	18448.10
488.75	18569.81
488.92	18951.32
489.10	19325.80
489.28	19302.40
489.46	19412.40
489.64	19323.46
489.81	20233.93
489.99	19967.11
490.17	19690.93
490.35	20470.33
490.53	20058.39
490.70	20236.27
490.88	20453.94
491.06	20695.02
491.24	20533.52
491.41	20451.60
491.59	20641.18
491.77	20709.06
491.95	20952.48
492.13	21273.13
492.30	21345.69
492.48	21591.44
492.66	21467.39
492.84	21750.60
493.01	22082.95
493.19	21970.61
493.37	22260.84
493.54	22235.09
493.72	22047.85
493.90	22366.16
494.08	23014.49
494.25	22977.04
494.43	23096.41
494.61	23293.01
494.79	23220.45
494.96	23381.95
495.14	23487.28
495.32	23489.62
495.49	23480.25
495.67	23810.27
495.85	24074.75
496.02	24285.40
496.20	24226.89
496.38	24367.32
496.55	24493.71
496.73	24826.06
496.91	24821.38
497.09	24917.34
497.26	24938.41
497.44	25008.62
497.62	25076.50
497.79	25221.61
497.97	25380.77
498.14	25406.52
498.32	25252.04
498.50	25788.02
498.67	25633.55
498.85	25963.56
499.03	26387.20
499.20	26111.02
499.38	26239.75
499.56	25940.16
499.73	26066.55
499.91	26333.37
500.08	26698.49
500.26	26384.86
500.44	26567.42
500.61	26436.35
500.79	26527.63
500.97	26600.19
501.14	27253.20
501.32	27026.17
501.49	26899.78
501.67	26782.75
501.84	27264.90
502.02	27101.06
502.20	27667.47
502.37	27522.36
502.55	27861.74
502.72	27906.21
502.90	27599.60
503.07	27943.66
503.25	28091.11
503.43	27992.81
503.60	28252.61
503.78	27814.93
503.95	28032.60
504.13	28175.37
504.30	28409.42
504.48	28687.95
504.65	28774.55
504.83	28952.43
505.01	28870.51
505.18	28914.98
505.36	29252.02
505.53	29280.10
505.71	29504.79
505.88	29542.24
506.06	28989.88
506.23	29378.40
506.41	29202.86
506.58	29656.93
506.76	29876.94
506.93	29970.56
507.11	29701.40
507.28	29890.98
507.46	30017.37
507.63	29696.72
507.81	30136.74
507.98	29797.36
508.16	30150.78
508.33	30492.50
508.50	30459.73
508.68	30600.16
508.85	30857.62
509.03	30815.49
509.20	31033.16
509.38	31360.84
509.55	31096.36
509.73	31211.04
509.90	31487.23
510.08	31175.94
510.25	31281.26
510.42	31475.52
510.60	31934.27
510.77	31585.53
510.95	31782.13
511.12	31796.18
511.30	31831.29
511.47	32481.95
511.64	32311.10
511.82	32315.78
511.99	31793.84
512.17	32266.63
512.34	32442.17
512.51	32371.95
512.69	32484.30
512.86	32177.68
513.04	32999.21
513.21	32540.47
513.38	32231.52
513.56	32842.40
513.73	32833.04
513.90	33263.69
514.08	32947.72
514.25	32708.99
514.43	33036.66
514.60	32872.82
514.77	33347.95
514.95	33464.98
515.12	33282.42
515.29	33893.30
515.47	33839.47
515.64	33902.66
515.81	33692.01
515.99	33738.82
516.16	34043.09
516.33	33612.43
516.51	33645.20
516.68	33153.69
516.85	33500.09
517.03	33502.43
517.20	34071.18
517.37	34057.14
517.54	34263.10
517.72	33893.30
517.89	33479.02
518.06	34010.32
518.24	34040.75
518.41	34153.10
518.58	34483.11
518.75	34419.92
518.93	34873.98
519.10	34609.50
519.27	35185.27
519.45	34415.24
519.62	35098.67
519.79	35304.64
519.96	35473.16
520.14	35112.72
520.31	35374.86
520.48	35449.75
520.65	35318.68
520.83	35641.68
521.00	35599.55
521.17	35629.98
521.34	36074.68
521.52	35784.45
521.69	35838.28
521.86	36261.92
522.03	36465.55
522.20	35674.45
522.38	36315.75
522.55	36236.17
522.72	36362.56
522.89	36257.24
523.07	36388.31
523.24	36397.67
523.41	36914.93
523.58	36402.35
523.75	37558.58
523.92	37034.30
524.10	37118.56
524.27	37195.79
524.44	37223.88
524.61	37050.68
524.78	37371.33
524.96	37420.48
525.13	37392.40
525.30	37450.91
525.47	37589.00
525.64	37535.17
525.81	37378.36
525.98	37532.83
526.16	37177.07
526.33	37406.44
526.50	37640.50
526.67	36961.74
526.84	37289.42
527.01	37528.15
527.18	37682.62
527.36	38146.05
527.53	37909.66
527.70	38251.38
527.87	38209.25
528.04	38136.69
528.21	38045.41
528.38	38122.65
528.55	38733.53
528.72	38852.89
528.89	38829.49
529.07	38834.17
529.24	38595.43
529.41	38852.89
529.58	38424.57
529.75	38684.37
529.92	38660.97
530.09	38733.53
530.26	38801.40
530.43	39075.24
530.60	39044.82
530.77	38904.38
530.94	39150.14
531.11	39522.29
531.28	39384.19
531.46	39213.34
531.63	39391.22
531.80	39100.99
531.97	39171.21
532.14	39005.03
532.31	39096.31
532.48	39225.04
532.65	39695.49
532.82	39299.94
532.99	39538.67
533.16	39473.13
533.33	40018.48
533.50	39971.67
533.67	39978.69
533.84	39716.55
534.01	40187.00
534.18	40065.29
534.35	40074.65
534.52	39667.40
534.69	39840.60
534.86	40285.30
535.03	40463.18
535.20	40568.51
535.37	40854.05
535.54	40545.10
535.71	40385.94
535.88	40762.77
536.05	40823.62
536.22	40652.76
536.38	40772.13
536.55	40336.79
536.72	40739.36
536.89	40587.23
537.06	40315.73
537.23	40861.07
537.40	40954.69
537.57	41003.85
537.74	41354.93
537.91	41331.52
538.08	40832.99
538.25	40957.03
538.42	41034.27
538.59	41151.30
538.75	41008.53
538.92	40673.83
539.09	41270.67
539.26	41345.56
539.43	41347.90
539.60	41275.35
539.77	41167.68
539.94	41514.08
540.11	41511.74
540.28	41371.31
540.44	41596.00
540.61	40842.35
540.78	40849.37
540.95	41591.32
541.12	41486.00
541.29	41619.41
541.46	41677.92
541.62	41933.04
541.79	42169.43
541.96	41486.00
542.13	41869.84
542.30	41883.89
542.47	41872.18
542.63	42300.50
542.80	41879.21
542.97	42305.18
543.14	42611.79
543.31	42183.48
543.48	42674.99
543.64	43028.41
543.81	42328.59
543.98	42656.26
544.15	42340.29
544.32	43009.68
544.48	43058.84
544.65	43063.52
544.82	42415.19
544.99	42302.84
545.16	42581.37
545.32	42504.13
545.49	43313.95
545.66	42700.73
545.83	43166.50
546.00	43054.15
546.16	42686.69
546.33	42665.63
546.50	42616.47
546.67	43019.05
546.83	43058.84
547.00	43129.05
547.17	43105.65
547.34	43049.47
547.50	43604.18
547.67	43344.38
547.84	43618.22
548.00	43136.07
548.17	43428.64
548.34	43416.94
548.51	44196.34
548.67	44037.18
548.84	43447.36
549.01	43695.46
549.18	43571.41
549.34	43697.80
549.51	43562.05
549.68	43868.66
549.84	43842.92
550.01	43969.30
550.18	43538.65
550.34	43758.66
550.51	43746.95
550.68	43999.73
550.84	43381.83
551.01	44289.96
551.18	43966.96
551.34	44004.41
551.51	44369.54
551.68	44105.06
551.84	44397.62
552.01	44011.43
552.18	44395.28
552.34	44392.94
552.51	44191.65
552.68	44037.18
552.84	44170.59
553.01	44194.00
553.18	43978.67
553.34	44184.63
553.51	44245.49
553.67	44182.29
553.84	44486.56
554.01	44435.07
554.17	45048.29
554.34	44671.46
554.51	45219.15
554.67	44231.44
554.84	44622.31
555.00	44247.83
555.17	44914.88
555.33	44453.79
555.50	44409.32
555.67	44643.38
555.83	44655.08
556.00	44753.38
556.16	44999.14
556.33	44109.74
556.50	44589.55
556.66	44783.81
556.83	44926.58
556.99	45043.61
557.16	45057.65
557.32	44538.05
557.49	45237.87
557.65	44816.58
557.82	44692.53
557.98	45064.67
558.15	45184.04
558.32	44919.56
558.48	45085.74
558.65	44900.84
558.81	45057.65
558.98	44786.15
559.14	45120.85
559.31	44741.68
559.47	45490.65
559.64	45013.18
559.80	44938.29
559.97	45542.14
560.13	45017.86
560.30	45134.89
560.46	45095.10
560.63	45319.79
560.79	45701.30
560.96	45584.27
561.12	44966.37
561.29	44973.39
561.45	45350.22
561.61	45247.24
561.78	45450.86
561.94	45095.10
562.11	45083.40
562.27	45193.40
562.44	45450.86
562.60	45474.27
562.77	45535.12
562.93	45359.58
563.10	45464.91
563.26	45280.00
563.42	45734.07
563.59	45406.39
563.75	45221.49
563.92	45528.10
564.08	45574.91
564.24	45518.74
564.41	45631.08
564.57	45179.36
564.74	45263.62
564.90	45720.02
565.07	45614.70
565.23	45207.45
565.39	45661.51
565.56	45553.85
565.72	45160.64
565.88	45626.40
566.05	45319.79
566.21	45516.40
566.38	45839.39
566.54	45652.15
566.70	45581.93
566.87	45886.20
567.03	45687.26
567.19	46358.99
567.36	46017.27
567.52	45993.87
567.68	45860.46
567.85	45717.68
568.01	45722.37
568.17	45741.09
568.34	45996.21
568.50	45507.04
568.66	45469.59
568.83	45682.58
568.99	45663.85
569.15	45687.26
569.32	45404.05
569.48	45305.75
569.64	46197.49
569.81	45521.08
569.97	45621.72
570.13	45724.71
570.30	45352.56
570.46	45469.59
570.62	45214.47
570.78	45668.53
570.95	45539.80
571.11	45998.55
571.27	45748.11
571.43	45813.65
571.60	45689.60
571.76	45876.84
571.92	45991.53
572.09	45935.35
572.25	45904.93
572.41	46064.08
572.57	45951.74
572.74	46405.80
572.90	46485.38
573.06	45958.76
573.22	46312.18
573.38	45635.77
573.55	45619.38
573.71	46281.75
573.87	46068.76
574.03	46071.10
574.20	45890.88
574.36	45610.02
574.52	45815.99
574.68	46005.57
574.84	45839.39
575.01	45993.87
575.17	46012.59
575.33	45890.88
575.49	45638.11
575.65	46188.13
575.82	45900.25
575.98	45797.26
576.14	46014.93
576.30	45916.63
576.46	45860.46
576.62	45998.55
576.79	45553.85
576.95	45872.16
577.11	46007.91
577.27	45757.47
577.43	45813.65
577.59	45485.97
577.75	45614.70
577.92	45635.77
578.08	45727.05
578.24	45584.27
578.40	45443.84
578.56	45881.52
578.72	46244.30
578.88	45911.95
579.04	46028.98
579.21	45490.65
579.37	45888.54
579.53	46148.34
579.69	46000.89
579.85	45820.67
580.01	46300.48
580.17	45764.49
580.33	45492.99
580.49	46108.55
580.65	46237.28
580.82	45925.99
580.98	46319.20
581.14	46094.51
581.30	46099.19
581.46	45897.91
581.62	46080.47
581.78	46281.75
581.94	46216.22
582.10	46113.23
582.26	46546.23
582.42	45675.55
582.58	46253.67
582.74	46153.02
582.90	46134.30
583.06	46160.05
583.22	45888.54
583.38	46595.38
583.54	46351.97
583.70	46426.87
583.86	46099.19
584.02	45937.69
584.18	46691.35
584.34	46021.95
584.50	46099.19
584.66	45731.73
584.82	45965.78
584.98	46607.09
585.14	45832.37
585.30	46087.49
585.46	46141.32
585.62	45670.87
585.78	45567.89
585.94	45591.30
586.10	45792.58
586.26	45717.68
586.42	46075.79
586.58	46211.54
586.74	46092.17
586.90	46248.99
587.06	46171.75
587.22	46160.05
587.38	46136.64
587.54	46005.57
587.70	45998.55
587.86	45949.40
588.02	46021.95
588.18	46546.23
588.34	45705.98
588.49	45478.95
588.65	45162.98
588.81	45270.64
588.97	45631.08
589.13	45518.74
589.29	45825.35
589.45	46148.34
589.61	45720.02
589.77	46408.14
589.93	46593.04
590.08	45986.85
