SpectraSuite Data File
++++++++++++++++++++++++++++++++++++
Date: Fri Oct 25 10:44:14 EDT 2013
User: price-jones
Dark Spectrum Present: No
Reference Spectrum Present: No
Number of Sampled Component Spectra: 1
Spectrometers: USB2+H05261
Integration Time (usec): 100000 (USB2+H05261)
Spectra Averaged: 1 (USB2+H05261)
Boxcar Smoothing: 0 (USB2+H05261)
Correct for Electrical Dark: No (USB2+H05261)
Strobe/Lamp Enabled: No (USB2+H05261)
Correct for Detector Non-linearity: No (USB2+H05261)
Correct for Stray Light: No (USB2+H05261)
Number of Pixels in Processed Spectrum: 2048
>>>>>Begin Processed Spectral Data<<<<<
365.73	156.82
365.92	156.82
366.12	156.82
366.32	81.92
366.52	37.45
366.72	65.54
366.91	25.75
367.11	7.02
367.31	42.13
367.51	4.68
367.70	28.09
367.90	65.54
368.10	25.75
368.30	16.38
368.49	46.81
368.69	58.51
368.89	84.26
369.09	39.79
369.28	86.60
369.48	0.00
369.68	105.32
369.87	124.05
370.07	84.26
370.27	124.05
370.47	177.88
370.66	360.44
370.86	519.60
371.06	402.57
371.25	535.98
371.45	465.77
371.65	423.64
371.84	472.79
372.04	442.36
372.24	482.15
372.44	486.83
372.63	517.26
372.83	573.43
373.03	550.03
373.22	543.00
373.42	437.68
373.62	503.22
373.81	528.96
374.01	461.09
374.21	557.05
374.40	512.58
374.60	561.73
374.79	557.05
374.99	528.96
375.19	517.26
375.38	498.53
375.58	624.92
375.78	631.94
375.97	622.58
376.17	653.01
376.37	552.37
376.56	538.32
376.76	657.69
376.95	587.47
377.15	582.79
377.35	578.11
377.54	643.65
377.74	650.67
377.93	674.07
378.13	615.56
378.33	631.94
378.52	653.01
378.72	631.94
378.91	669.39
379.11	662.37
379.31	601.52
379.50	601.52
379.70	732.59
379.89	683.44
380.09	660.03
380.28	641.31
380.48	727.91
380.68	709.18
380.87	655.35
381.07	692.80
381.26	730.25
381.46	699.82
381.65	751.31
381.85	690.46
382.04	674.07
382.24	681.10
382.43	681.10
382.63	671.73
382.83	685.78
383.02	791.10
383.22	788.76
383.41	718.54
383.61	746.63
383.80	833.23
384.00	835.57
384.19	814.51
384.39	795.78
384.58	734.93
384.78	891.74
384.97	760.67
385.17	711.52
385.36	751.31
385.56	805.14
385.75	739.61
385.95	819.19
386.14	868.34
386.34	873.02
386.53	814.51
386.72	840.25
386.92	861.32
387.11	933.87
387.31	835.57
387.50	819.19
387.70	884.72
387.89	840.25
388.09	858.98
388.28	727.91
388.48	959.62
388.67	940.90
388.86	917.49
389.06	985.37
389.25	947.92
389.45	999.41
389.64	997.07
389.84	980.68
390.03	1006.43
390.22	1053.24
390.42	959.62
390.61	1053.24
390.81	1018.13
391.00	985.37
391.19	1090.69
391.39	961.96
391.58	1057.92
391.78	1083.67
391.97	1015.79
392.16	952.60
392.36	1027.50
392.55	976.00
392.75	1081.33
392.94	1008.77
393.13	992.39
393.33	1046.22
393.52	1083.67
393.71	1123.46
393.91	1078.99
394.10	1062.60
394.29	1186.65
394.49	1184.31
394.68	1252.19
394.88	1158.57
395.07	1226.44
395.26	1289.64
395.46	1177.29
395.65	1228.78
395.84	1228.78
396.04	1301.34
396.23	1179.63
396.42	1205.38
396.62	1235.80
396.81	1217.08
397.00	1275.59
397.19	1324.74
397.39	1317.72
397.58	1338.79
397.77	1331.76
397.97	1439.43
398.16	1439.43
398.35	1423.05
398.55	1434.75
398.74	1418.36
398.93	1535.39
399.12	1458.15
399.32	1474.54
399.51	1558.80
399.70	1441.77
399.90	1509.65
400.09	1614.97
400.28	1547.09
400.47	1722.63
400.67	1582.20
400.86	1680.50
401.05	1724.97
401.24	1732.00
401.44	1769.44
401.63	1607.95
401.82	1638.38
402.01	1675.82
402.21	1809.23
402.40	1710.93
402.59	1837.32
402.78	1680.50
402.97	1755.40
403.17	1703.91
403.36	1823.28
403.55	1820.94
403.74	1834.98
403.93	1820.94
404.13	1813.92
404.32	1937.96
404.51	1851.36
404.70	1933.28
404.89	1825.62
405.09	2019.88
405.28	1968.39
405.47	1858.39
405.66	1991.80
405.85	1900.52
406.05	1912.22
406.24	1987.11
406.43	2083.08
406.62	2115.84
406.81	2225.85
407.00	2090.10
407.20	2038.61
407.39	2097.12
407.58	2057.33
407.77	2090.10
407.96	2165.00
408.15	2242.23
408.34	2286.70
408.54	2303.09
408.73	2300.75
408.92	2190.74
409.11	2286.70
409.30	2331.17
409.49	2249.25
409.68	2230.53
409.87	2249.25
410.07	2300.75
410.26	2422.45
410.45	2499.69
410.64	2473.95
410.83	2441.18
411.02	2455.22
411.21	2679.91
411.40	2581.61
411.59	2658.85
411.78	2586.29
411.98	2518.42
412.17	2726.72
412.36	2700.98
412.55	2663.53
412.74	2644.81
412.93	2733.75
413.12	2605.02
413.31	2899.92
413.50	2799.28
413.69	2909.29
413.88	2867.16
414.07	2953.76
414.26	2895.24
414.45	2974.82
414.64	2942.05
414.83	2935.03
415.02	3087.17
415.22	3145.68
415.41	3136.32
415.60	3075.46
415.79	3166.74
415.98	3276.75
416.17	3253.34
416.36	3159.72
416.55	3295.47
416.74	3091.85
416.93	3239.30
417.12	3206.53
417.31	3258.03
417.50	3229.94
417.69	3447.61
417.88	3492.08
418.07	3421.86
418.26	3375.05
418.45	3442.93
418.64	3555.27
418.83	3517.83
419.02	3536.55
419.21	3541.23
419.39	3520.17
419.58	3574.00
419.77	3510.80
419.96	3634.85
420.15	3777.62
420.34	3613.79
420.53	3646.55
420.72	3829.12
420.91	3756.56
421.10	3899.33
421.29	3913.38
421.48	3705.07
421.67	3798.69
421.86	3819.75
422.05	3852.52
422.24	3756.56
422.43	3796.35
422.61	3810.39
422.80	3920.40
422.99	3810.39
423.18	4014.02
423.37	4009.34
423.56	4093.60
423.75	3861.88
423.94	3943.80
424.13	3719.11
424.32	3894.65
424.50	3922.74
424.69	3992.95
424.88	3988.27
425.07	3850.18
425.26	3896.99
425.45	3908.69
425.64	3948.48
425.83	4032.74
426.01	4079.55
426.20	4119.34
426.39	4105.30
426.58	3992.95
426.77	3946.14
426.96	4014.02
427.15	4105.30
427.33	4117.00
427.52	3875.93
427.71	4093.60
427.90	4107.64
428.09	4208.28
428.28	4208.28
428.46	4135.73
428.65	4163.81
428.84	4313.61
429.03	4266.80
429.22	4028.06
429.40	4007.00
429.59	4002.32
429.78	4004.66
429.97	4056.15
430.16	4074.87
430.34	4107.64
430.53	4058.49
430.72	4182.54
430.91	4212.96
431.10	4320.63
431.28	4444.68
431.47	4608.51
431.66	4620.22
431.85	4463.40
432.03	4704.48
432.22	4599.15
432.41	4542.98
432.60	4683.41
432.79	4690.43
432.97	4725.54
433.16	4716.18
433.35	4762.99
433.54	4528.94
433.72	4755.97
433.91	4552.34
434.10	4765.33
434.28	4765.33
434.47	4671.71
434.66	4910.44
434.85	4781.71
435.03	4896.40
435.22	4922.15
435.41	5069.60
435.59	5128.11
435.78	5029.81
435.97	5114.07
436.16	5046.20
436.34	5135.14
436.53	5153.86
436.72	5219.39
436.90	5041.51
437.09	5310.68
437.28	4938.53
437.46	5214.71
437.65	5214.71
437.84	5226.42
438.02	5186.63
438.21	5210.03
438.40	5142.16
438.58	5207.69
438.77	5345.78
438.96	5390.25
439.14	5474.51
439.33	5591.54
439.52	5638.35
439.70	5540.05
439.89	5668.78
440.08	5699.20
440.26	5685.16
440.45	5614.95
440.63	5846.66
440.82	6029.22
441.01	5942.62
441.19	5783.46
441.38	6150.93
441.57	5954.32
441.75	6146.25
441.94	6366.26
442.12	6193.06
442.31	6326.47
442.50	6284.34
442.68	6195.40
442.87	6274.98
443.05	6359.24
443.24	6490.31
443.43	6384.98
443.61	6319.45
443.80	6651.80
443.98	6366.26
444.17	6289.02
444.35	6579.25
444.54	6616.69
444.73	6443.49
444.91	6539.46
445.10	6518.39
445.28	6441.15
445.47	6282.00
445.65	6487.96
445.84	6445.84
446.02	6548.82
446.21	6511.37
446.39	6607.33
446.58	6612.01
446.77	6796.92
446.95	6628.40
447.14	6682.23
447.32	6675.21
447.51	6509.03
447.69	6581.59
447.88	6640.10
448.06	6633.08
448.25	6572.22
448.43	6686.91
448.62	6745.42
448.80	6684.57
448.99	6862.45
449.17	6729.04
449.36	6846.07
449.54	7157.36
449.73	7103.53
449.91	7009.90
450.10	7103.53
450.28	7246.30
450.46	7178.42
450.65	7281.41
450.83	7239.28
451.02	7236.94
451.20	7325.88
451.39	7129.27
451.57	7101.19
451.76	7138.63
451.94	7265.02
452.13	7370.35
452.31	7234.60
452.49	7122.25
452.68	7241.62
452.86	7183.10
453.05	7232.26
453.23	7157.36
453.42	7494.40
453.60	7328.22
453.78	7618.44
453.97	7391.41
454.15	7386.73
454.34	7246.30
454.52	7660.57
454.70	7609.08
454.89	7489.71
455.07	7573.97
455.26	7573.97
455.44	7754.19
455.62	7782.28
455.81	7889.95
455.99	7705.04
456.17	7798.66
456.36	7742.49
456.54	7985.91
456.73	7927.39
456.91	8105.28
457.09	7936.76
457.28	8376.78
457.46	7964.84
457.64	8262.09
457.83	8128.68
458.01	8023.36
458.19	8334.65
458.38	8116.98
458.56	8241.03
458.74	8231.66
458.93	8042.08
459.11	8109.96
459.29	8203.58
459.48	8376.78
459.66	8329.97
459.84	8351.03
460.03	8465.72
460.21	8535.93
460.39	8468.06
460.57	8446.99
460.76	8692.75
460.94	8648.28
461.12	8526.57
461.31	8512.53
461.49	8627.21
461.67	8664.66
461.85	8753.60
462.04	8720.84
462.22	8830.84
462.40	8760.63
462.59	8919.78
462.77	9074.26
462.95	8875.31
463.13	8905.74
463.32	8954.89
463.50	8990.00
463.68	8973.61
463.86	9142.13
464.05	8844.88
464.23	8954.89
464.41	8940.85
464.59	8896.38
464.78	8964.25
464.96	9020.42
465.14	8905.74
465.32	9455.76
465.50	9242.78
465.69	9121.07
465.87	9071.92
466.05	9231.07
466.23	9132.77
466.41	9114.05
466.60	9418.32
466.78	9338.74
466.96	9350.44
467.14	9273.20
467.32	9383.21
467.51	9451.08
467.69	9287.25
467.87	9277.88
468.05	9371.50
468.23	9357.46
468.41	9385.55
468.60	9540.02
468.78	9818.55
468.96	9633.64
469.14	9643.01
469.32	9795.14
469.50	9228.73
469.69	9715.56
469.87	9680.46
470.05	9968.34
470.23	9738.97
470.41	9874.72
470.59	9795.14
470.77	10071.33
470.95	9937.91
471.14	10225.80
471.32	9926.21
471.50	10068.98
471.68	10153.24
471.86	10106.43
472.04	10293.68
472.22	10490.28
472.40	10501.98
472.58	10476.24
472.77	10403.68
472.95	10558.16
473.13	10916.26
473.31	10541.77
473.49	10305.38
473.67	10546.45
473.85	10710.29
474.03	10820.30
474.21	10836.68
474.39	11094.14
474.57	10892.85
474.75	11075.42
474.93	11232.23
475.12	11080.10
475.30	11475.65
475.48	11267.34
475.66	11150.31
475.84	11365.64
476.02	11239.25
476.20	11087.12
476.38	11569.27
476.56	11882.90
476.74	11946.09
476.92	11761.19
477.10	11894.60
477.28	12053.76
477.46	12116.95
477.64	12320.58
477.82	12301.86
478.00	12491.44
478.18	12500.80
478.36	12526.55
478.54	12676.34
478.72	12517.18
478.90	12809.75
479.08	13043.81
479.26	12996.99
479.44	13132.75
479.62	13366.80
479.80	13186.58
479.98	13282.54
480.16	13502.55
480.34	13467.44
480.52	13846.61
480.70	13659.37
480.88	13654.69
481.06	14115.77
481.24	13860.65
481.41	13998.74
481.59	14305.35
481.77	14368.55
481.95	14501.96
482.13	14595.58
482.31	14263.22
482.49	14698.56
482.67	14740.69
482.85	14944.32
483.03	15152.63
483.21	15143.27
483.39	15225.18
483.57	15325.83
483.74	15342.21
483.92	15625.42
484.10	15583.29
484.28	15719.04
484.46	16325.24
484.64	16470.35
484.82	16004.58
485.00	16006.92
485.18	16355.66
485.35	16514.82
485.53	16152.04
485.71	16273.74
485.89	16290.13
486.07	16266.72
486.25	16706.74
486.43	17064.85
486.61	16879.94
486.78	16893.99
486.96	17343.37
487.14	17706.15
487.32	17933.18
487.50	17898.08
487.68	18366.18
487.85	18288.95
488.03	18232.77
488.21	18401.29
488.39	18530.02
488.57	18829.61
488.75	18754.71
488.92	18808.54
489.10	19424.11
489.28	19407.72
489.46	19751.78
489.64	19604.33
489.81	19885.19
489.99	19824.34
490.17	20042.01
490.35	20315.85
490.53	20484.37
490.70	20676.29
490.88	20201.16
491.06	20673.95
491.24	20617.78
491.41	20688.00
491.59	20741.83
491.77	20793.32
491.95	20900.98
492.13	20996.95
492.30	21582.08
492.48	21792.73
492.66	21558.67
492.84	21598.46
493.01	22087.64
493.19	21848.90
493.37	22373.18
493.54	22178.92
493.72	22415.31
493.90	22537.02
494.08	23316.42
494.25	22955.97
494.43	23065.98
494.61	23480.25
494.79	23297.69
494.96	23260.24
495.14	23204.07
495.32	23407.70
495.49	23735.37
495.67	23686.22
495.85	23646.43
496.02	24114.54
496.20	24442.21
496.38	24210.50
496.55	24212.84
496.73	25163.10
496.91	24966.49
497.09	24999.26
497.26	25193.53
497.44	25069.48
497.62	24978.20
497.79	25259.06
497.97	24947.77
498.14	25673.34
498.32	26022.08
498.50	25759.94
498.67	25640.57
498.85	26057.18
499.03	26328.69
499.20	26410.60
499.38	26354.43
499.56	26665.72
499.73	26623.59
499.91	26426.99
500.08	26534.65
500.26	26469.12
500.44	26726.58
500.61	26387.20
500.79	26508.91
500.97	27087.02
501.14	27035.53
501.32	26955.95
501.49	27328.10
501.67	27012.12
501.84	27501.29
502.02	27676.83
502.20	27529.38
502.37	28009.19
502.55	28044.30
502.72	28116.86
502.90	28184.73
503.07	28013.87
503.25	28058.34
503.43	28219.84
503.60	28149.62
503.78	27850.03
503.95	28224.52
504.13	28711.35
504.30	28514.75
504.48	28582.62
504.65	29104.56
504.83	28741.78
505.01	29340.96
505.18	29530.54
505.36	29294.14
505.53	29223.93
505.71	29446.28
505.88	29598.41
506.06	29408.83
506.23	30157.80
506.41	29818.42
506.58	29720.12
506.76	29937.79
506.93	30183.55
507.11	29802.04
507.28	29947.15
507.46	30054.82
507.63	29818.42
507.81	29982.26
507.98	30000.99
508.16	30419.94
508.33	30988.69
508.50	30583.78
508.68	30726.55
508.85	31009.76
509.03	31257.85
509.20	30857.62
509.38	31353.82
509.55	31222.75
509.73	31157.21
509.90	31267.22
510.08	31281.26
510.25	31147.85
510.42	31803.20
510.60	31854.69
510.77	31709.58
510.95	31751.71
511.12	32114.49
511.30	32538.13
511.47	32367.27
511.64	32203.43
511.82	32453.87
511.99	32231.52
512.17	32325.14
512.34	32315.78
512.51	32636.43
512.69	33116.24
512.86	32634.09
513.04	33422.85
513.21	32936.02
513.38	32404.72
513.56	32940.70
513.73	32547.49
513.90	32872.82
514.08	32818.99
514.25	33223.90
514.43	33046.02
514.60	33102.20
514.77	33149.01
514.95	33687.33
515.12	33312.84
515.29	33443.91
515.47	34251.40
515.64	33809.04
515.81	34015.01
515.99	34096.92
516.16	33785.63
516.33	33621.80
516.51	33970.54
516.68	33380.72
516.85	33481.36
517.03	33584.35
517.20	34258.42
517.37	34239.70
517.54	34398.85
517.72	34649.29
517.89	34092.24
518.06	33750.52
518.24	34389.49
518.41	34143.74
518.58	34628.23
518.75	34761.64
518.93	34719.51
519.10	34529.92
519.27	35178.25
519.45	34958.24
519.62	35093.99
519.79	34906.75
519.96	35321.02
520.14	35435.71
520.31	35058.88
520.48	35566.78
520.65	35419.33
520.83	35828.92
521.00	36081.70
521.17	35700.19
521.34	36004.46
521.52	35969.35
521.69	36421.08
521.86	35971.69
522.03	36568.53
522.20	36313.41
522.38	36364.90
522.55	36725.35
522.72	36332.14
522.89	36208.09
523.07	36818.97
523.24	36540.44
523.41	37067.06
523.58	36753.43
523.75	37359.63
523.92	37539.85
524.10	37572.62
524.27	37280.05
524.44	37280.05
524.61	37546.87
524.78	37600.71
524.96	37612.41
525.13	37640.50
525.30	37778.59
525.47	37961.15
525.64	37895.61
525.81	37801.99
525.98	37134.94
526.16	37357.29
526.33	37273.03
526.50	37752.84
526.67	37298.78
526.84	37785.61
527.01	37448.57
527.18	37689.65
527.36	38120.31
527.53	38443.30
527.70	38796.72
527.87	38288.82
528.04	38281.80
528.21	38312.23
528.38	38656.29
528.55	38850.55
528.72	39182.91
528.89	39225.04
529.07	38972.26
529.24	38576.71
529.41	38920.77
529.58	39005.03
529.75	38637.56
529.92	39295.25
530.09	38897.36
530.26	39232.06
530.43	39267.17
530.60	39154.82
530.77	39290.57
530.94	39597.18
531.11	39084.61
531.28	39562.08
531.46	39526.97
531.63	40065.29
531.80	39541.01
531.97	39412.28
532.14	38927.79
532.31	39342.06
532.48	39388.88
532.65	39842.94
532.82	39335.04
532.99	40261.90
533.16	40151.89
533.33	39793.79
533.50	40369.56
533.67	40013.80
533.84	39873.37
534.01	40421.05
534.18	40285.30
534.35	40472.54
534.52	40561.48
534.69	40353.18
534.86	40006.78
535.03	40776.81
535.20	40727.66
535.37	41198.11
535.54	40844.69
535.71	40634.04
535.88	40727.66
536.05	40699.58
536.22	41076.40
536.38	40617.66
536.55	41111.51
536.72	41088.10
536.89	40959.38
537.06	40779.15
537.23	40912.56
537.40	41125.55
537.57	41172.36
537.74	41254.28
537.91	41289.39
538.08	41462.59
538.25	41060.02
538.42	41542.17
538.59	41455.57
538.75	40591.91
538.92	41024.91
539.09	41242.58
539.26	41244.92
539.43	41261.30
539.60	41230.88
539.77	41298.75
539.94	41181.73
540.11	41008.53
540.28	41989.21
540.44	41523.44
540.61	41715.37
540.78	41219.17
540.95	41654.51
541.12	41343.22
541.29	41633.45
541.46	41453.23
541.62	41713.03
541.79	42141.35
541.96	42017.30
542.13	41794.95
542.30	41991.55
542.47	41883.89
542.63	41958.78
542.80	42281.78
542.97	42141.35
543.14	43023.73
543.31	42593.07
543.48	42609.45
543.64	42899.68
543.81	43304.59
543.98	43243.74
544.15	42501.79
544.32	42972.24
544.48	43398.21
544.65	43313.95
544.82	42988.62
544.99	43079.90
545.16	43391.19
545.32	43173.52
545.49	43002.66
545.66	43737.59
545.83	43269.48
546.00	43288.21
546.16	43077.56
546.33	43040.11
546.50	43543.33
546.67	43267.14
546.83	43091.60
547.00	43473.11
547.17	43299.91
547.34	43459.07
547.50	43608.86
547.67	43688.44
547.84	43608.86
548.00	43344.38
548.17	43714.19
548.34	43557.37
548.51	44095.69
548.67	43831.21
548.84	43969.30
549.01	43936.54
549.18	43744.61
549.34	43952.92
549.51	44114.42
549.68	44172.93
549.84	43901.43
550.01	44102.71
550.18	43753.97
550.34	44072.29
550.51	43922.49
550.68	44304.00
550.84	43426.30
551.01	44252.51
551.18	43796.10
551.34	44584.86
551.51	44428.05
551.68	44172.93
551.84	44535.71
552.01	44460.82
552.18	44460.82
552.34	43913.13
552.51	44369.54
552.68	44334.43
552.84	44935.95
553.01	44636.36
553.18	44903.18
553.34	44472.52
553.51	44463.16
553.67	44538.05
553.84	44626.99
554.01	44533.37
554.17	44680.83
554.34	44973.39
554.51	44573.16
554.67	44882.11
554.84	44931.26
555.00	44584.86
555.17	44638.70
555.33	44891.48
555.50	44917.22
555.67	45125.53
555.83	44830.62
556.00	44737.00
556.16	45024.89
556.33	44631.68
556.50	45020.20
556.66	45045.95
556.83	44601.25
556.99	45343.20
557.16	44708.91
557.32	45113.83
557.49	45247.24
557.65	45071.70
557.82	44961.69
557.98	45038.93
558.15	44961.69
558.32	45244.90
558.48	45287.03
558.65	45015.52
558.81	44854.03
558.98	45193.40
559.14	45373.63
559.31	45024.89
559.47	45059.99
559.64	45390.01
559.80	45537.46
559.97	45680.24
560.13	45390.01
560.30	45343.20
560.46	44994.46
560.63	45200.43
560.79	45464.91
560.96	46103.87
561.12	45631.08
561.29	45263.62
561.45	45591.30
561.61	45827.69
561.78	44868.07
561.94	45188.72
562.11	45495.33
562.27	45738.75
562.44	45546.82
562.60	45745.77
562.77	45436.82
562.93	45642.79
563.10	45574.91
563.26	45626.40
563.42	45806.62
563.59	45581.93
563.75	45610.02
563.92	45525.76
564.08	45504.70
564.24	45883.86
564.41	45614.70
564.57	45635.77
564.74	45635.77
564.90	45694.28
565.07	46164.73
565.23	45832.37
565.39	45006.16
565.56	45687.26
565.72	45839.39
565.88	46078.13
566.05	45572.57
566.21	45617.04
566.38	45605.34
566.54	45392.35
566.70	46122.60
566.87	46380.06
567.03	45734.07
567.19	46014.93
567.36	46120.26
567.52	46181.11
567.68	46120.26
567.85	45996.21
568.01	45970.46
568.17	45738.75
568.34	45762.15
568.50	45886.20
568.66	46356.65
568.83	46092.17
568.99	45495.33
569.15	45738.75
569.32	45579.59
569.48	45708.32
569.64	46040.68
569.81	46038.34
569.97	45832.37
570.13	46068.76
570.30	45673.21
570.46	45523.42
570.62	45275.32
570.78	45490.65
570.95	45841.73
571.11	46129.62
571.27	45956.42
571.43	45858.12
571.60	46078.13
571.76	45888.54
571.92	45982.16
572.09	45815.99
572.25	46136.64
572.41	45860.46
572.57	46066.42
572.74	46579.00
572.90	45862.80
573.06	46300.48
573.22	45918.97
573.38	46047.70
573.55	46155.36
573.71	46726.46
573.87	46241.96
574.03	45916.63
574.20	46366.01
574.36	46241.96
574.52	45862.80
574.68	46050.04
574.84	46295.80
575.01	46071.10
575.17	45940.04
575.33	46047.70
575.49	46183.45
575.65	46190.47
575.82	46028.98
575.98	46157.70
576.14	46408.14
576.30	46157.70
576.46	46000.89
576.62	46181.11
576.79	46382.40
576.95	45935.35
577.11	46288.77
577.27	46117.92
577.43	46075.79
577.59	45998.55
577.75	45797.26
577.92	45982.16
578.08	46150.68
578.24	46101.53
578.40	46239.62
578.56	45897.91
578.72	46174.09
578.88	46417.50
579.04	46525.17
579.21	46120.26
579.37	45848.75
579.53	46206.86
579.69	45998.55
579.85	46333.24
580.01	46333.24
580.17	46124.94
580.33	46209.20
580.49	46454.95
580.65	46628.15
580.82	46164.73
580.98	45940.04
581.14	46412.82
581.30	46204.52
581.46	46628.15
581.62	46291.12
581.78	46080.47
581.94	46569.64
582.10	46019.61
582.26	46579.00
582.42	45911.95
582.58	46040.68
582.74	46099.19
582.90	46417.50
583.06	46356.65
583.22	46639.86
583.38	46382.40
583.54	46314.52
583.70	46321.54
583.86	46609.43
584.02	45883.86
584.18	46138.98
584.34	46241.96
584.50	46368.35
584.66	46143.66
584.82	46305.16
584.98	46532.19
585.14	46712.41
585.30	45897.91
585.46	46351.97
585.62	46096.85
585.78	46387.08
585.94	46038.34
586.10	46515.81
586.26	46171.75
586.42	46632.83
586.58	46583.68
586.74	46431.55
586.90	46607.09
587.06	46279.41
587.22	46761.56
587.38	46080.47
587.54	46092.17
587.70	46391.76
587.86	46574.32
588.02	46344.95
588.18	46394.10
588.34	46384.74
588.49	45837.05
588.65	45518.74
588.81	45872.16
588.97	46089.83
589.13	45825.35
589.29	46169.41
589.45	46143.66
589.61	46382.40
589.77	46564.96
589.93	46511.13
