SpectraSuite Data File
++++++++++++++++++++++++++++++++++++
Date: Fri Oct 25 10:44:03 EDT 2013
User: price-jones
Dark Spectrum Present: No
Reference Spectrum Present: No
Number of Sampled Component Spectra: 1
Spectrometers: USB2+H05261
Integration Time (usec): 100000 (USB2+H05261)
Spectra Averaged: 1 (USB2+H05261)
Boxcar Smoothing: 0 (USB2+H05261)
Correct for Electrical Dark: No (USB2+H05261)
Strobe/Lamp Enabled: No (USB2+H05261)
Correct for Detector Non-linearity: No (USB2+H05261)
Correct for Stray Light: No (USB2+H05261)
Number of Pixels in Processed Spectrum: 2048
>>>>>Begin Processed Spectral Data<<<<<
365.73	147.45
365.92	147.45
366.12	147.45
366.32	18.72
366.52	37.45
366.72	23.41
366.91	21.06
367.11	0.00
367.31	74.90
367.51	0.00
367.70	0.00
367.90	42.13
368.10	11.70
368.30	23.41
368.49	0.00
368.69	70.22
368.89	28.09
369.09	11.70
369.28	32.77
369.48	86.60
369.68	65.54
369.87	145.11
370.07	49.15
370.27	95.96
370.47	126.39
370.66	306.61
370.86	435.34
371.06	458.74
371.25	564.07
371.45	416.62
371.65	524.28
371.84	458.74
372.04	421.30
372.24	472.79
372.44	503.22
372.63	547.69
372.83	521.94
373.03	575.77
373.22	519.60
373.42	552.37
373.62	540.66
373.81	622.58
374.01	592.16
374.21	554.71
374.40	592.16
374.60	575.77
374.79	561.73
374.99	526.62
375.19	638.97
375.38	695.14
375.58	615.56
375.78	587.47
375.97	671.73
376.17	641.31
376.37	573.43
376.56	585.13
376.76	613.22
376.95	620.24
377.15	669.39
377.35	695.14
377.54	699.82
377.74	709.18
377.93	706.84
378.13	622.58
378.33	617.90
378.52	685.78
378.72	741.95
378.91	660.03
379.11	620.24
379.31	723.23
379.50	645.99
379.70	713.86
379.89	777.06
380.09	667.05
380.28	678.76
380.48	723.23
380.68	753.65
380.87	772.38
381.07	629.60
381.26	793.44
381.46	777.06
381.65	709.18
381.85	774.72
382.04	702.16
382.24	688.12
382.43	657.69
382.63	732.59
382.83	774.72
383.02	819.19
383.22	772.38
383.41	781.74
383.61	814.51
383.80	851.96
384.00	809.83
384.19	821.53
384.39	889.40
384.58	807.48
384.78	861.32
384.97	809.83
385.17	784.08
385.36	814.51
385.56	763.01
385.75	814.51
385.95	767.70
386.14	809.83
386.34	784.08
386.53	823.87
386.72	858.98
386.92	980.68
387.11	896.43
387.31	917.49
387.50	828.55
387.70	854.30
387.89	926.85
388.09	976.00
388.28	917.49
388.48	938.55
388.67	968.98
388.86	983.02
389.06	1018.13
389.25	976.00
389.45	961.96
389.64	999.41
389.84	880.04
390.03	992.39
390.22	1011.11
390.42	1046.22
390.61	1107.07
390.81	990.05
391.00	1167.93
391.19	1146.86
391.39	1125.80
391.58	1174.95
391.78	1114.10
391.97	1086.01
392.16	1086.01
392.36	1090.69
392.55	1146.86
392.75	1008.77
392.94	1018.13
393.13	971.32
393.33	973.66
393.52	1076.65
393.71	1174.95
393.91	1167.93
394.10	1170.27
394.29	1188.99
394.49	1207.72
394.68	1273.25
394.88	1317.72
395.07	1306.02
395.26	1301.34
395.46	1205.38
395.65	1352.83
395.84	1338.79
396.04	1364.53
396.23	1135.16
396.42	1191.33
396.62	1123.46
396.81	1261.55
397.00	1291.98
397.19	1263.89
397.39	1359.85
397.58	1444.11
397.77	1540.07
397.97	1469.86
398.16	1495.60
398.35	1516.67
398.55	1547.09
398.74	1572.84
398.93	1586.88
399.12	1617.31
399.32	1537.73
399.51	1640.72
399.70	1563.48
399.90	1650.08
400.09	1727.32
400.28	1682.85
400.47	1659.44
400.67	1792.85
400.86	1724.97
401.05	1727.32
401.24	1870.09
401.44	1844.34
401.63	1825.62
401.82	1834.98
402.01	1842.00
402.21	1832.64
402.40	1834.98
402.59	1849.02
402.78	1816.26
402.97	1853.70
403.17	1820.94
403.36	1884.13
403.55	1907.54
403.74	1907.54
403.93	2024.56
404.13	1987.11
404.32	1930.94
404.51	1954.35
404.70	1970.73
404.89	2024.56
405.09	2090.10
405.28	2069.03
405.47	2050.31
405.66	2052.65
405.85	2071.37
406.05	2012.86
406.24	2101.80
406.43	2108.82
406.62	2169.68
406.81	2202.44
407.00	2150.95
407.20	2113.50
407.39	2195.42
407.58	2284.36
407.77	2265.64
407.96	2345.22
408.15	2289.04
408.34	2333.51
408.54	2436.50
408.73	2431.82
408.92	2530.12
409.11	2485.65
409.30	2408.41
409.49	2375.64
409.68	2392.03
409.87	2392.03
410.07	2380.32
410.26	2403.73
410.45	2605.02
410.64	2506.71
410.83	2609.70
411.02	2626.08
411.21	2689.28
411.40	2696.30
411.59	2796.94
411.78	2789.92
411.98	2719.70
412.17	2780.56
412.36	2757.15
412.55	2782.90
412.74	2878.86
412.93	2876.52
413.12	2850.77
413.31	2949.08
413.50	2876.52
413.69	2895.24
413.88	3178.45
414.07	3129.30
414.26	2965.46
414.45	3038.02
414.64	3164.40
414.83	3061.42
415.02	3068.44
415.22	3190.15
415.41	3356.33
415.60	3307.18
415.79	3288.45
415.98	3265.05
416.17	3417.18
416.36	3449.95
416.55	3382.07
416.74	3438.25
416.93	3398.46
417.12	3407.82
417.31	3569.32
417.50	3489.74
417.69	3578.68
417.88	3543.57
418.07	3674.64
418.26	3592.72
418.45	3693.37
418.64	3782.31
418.83	3758.90
419.02	3674.64
419.21	3639.53
419.39	3871.25
419.58	3712.09
419.77	3726.13
419.96	3861.88
420.15	3983.59
420.34	3801.03
420.53	3925.08
420.72	4077.21
420.91	3880.61
421.10	4021.04
421.29	4189.56
421.48	3995.29
421.67	4053.81
421.86	3901.67
422.05	4044.45
422.24	3852.52
422.43	3904.01
422.61	3805.71
422.80	4051.47
422.99	4131.05
423.18	4023.38
423.37	4243.39
423.56	4102.96
423.75	4056.15
423.94	4025.72
424.13	3852.52
424.32	3896.99
424.50	4156.79
424.69	4241.05
424.88	4273.82
425.07	4147.43
425.26	4077.21
425.45	4098.28
425.64	4091.26
425.83	4149.77
426.01	4212.96
426.20	4236.37
426.39	4227.01
426.58	4184.88
426.77	4025.72
426.96	4170.83
427.15	4255.09
427.33	4234.03
427.52	4304.25
427.71	4304.25
427.90	4379.14
428.09	4390.84
428.28	4456.38
428.46	4374.46
428.65	4416.59
428.84	4521.92
429.03	4341.69
429.22	4341.69
429.40	4376.80
429.59	4297.22
429.78	3983.59
429.97	4131.05
430.16	4152.11
430.34	4198.92
430.53	4238.71
430.72	4461.06
430.91	4447.02
431.10	4500.85
431.28	4699.80
431.47	4854.27
431.66	4905.76
431.85	4753.63
432.03	4772.35
432.22	4922.15
432.41	4784.06
432.60	4947.89
432.79	4891.72
432.97	4924.49
433.16	4898.74
433.35	4727.88
433.54	4819.16
433.72	4992.36
433.91	4877.68
434.10	5004.07
434.28	5013.43
434.47	4912.78
434.66	5074.28
434.85	5020.45
435.03	5153.86
435.22	5139.82
435.41	5376.21
435.59	5116.41
435.78	5256.84
435.97	5404.30
436.16	5432.38
436.34	5296.63
436.53	5235.78
436.72	5453.45
436.90	5434.72
437.09	5376.21
437.28	5305.99
437.46	5493.24
437.65	5383.23
437.84	5301.31
438.02	5294.29
438.21	5392.59
438.40	5378.55
438.58	5643.03
438.77	5853.68
438.96	5603.24
439.14	5675.80
439.33	5877.09
439.52	5820.91
439.70	5877.09
439.89	5921.56
440.08	5989.43
440.26	5884.11
440.45	6040.92
440.63	6164.97
440.82	6263.27
441.01	6122.84
441.19	6216.46
441.38	6392.00
441.57	6317.11
441.75	6478.60
441.94	6502.01
442.12	6668.19
442.31	6656.48
442.50	6560.52
442.68	6658.82
442.87	6731.38
443.05	6485.62
443.24	6754.79
443.43	6813.30
443.61	6736.06
443.80	6827.34
443.98	6761.81
444.17	6513.71
444.35	6656.48
444.54	6890.54
444.73	6806.28
444.91	6773.51
445.10	6850.75
445.28	6829.68
445.47	6663.51
445.65	6778.19
445.84	6876.49
446.02	7000.54
446.21	6967.77
446.39	6885.86
446.58	6820.32
446.77	6829.68
446.95	6654.14
447.14	6913.94
447.32	7185.44
447.51	6932.67
447.69	7080.12
447.88	6862.45
448.06	7110.55
448.25	7250.98
448.43	7201.83
448.62	7066.08
448.80	7033.31
448.99	7091.82
449.17	7229.91
449.36	7007.56
449.54	7377.37
449.73	7356.30
449.91	7391.41
450.10	7531.84
450.28	7386.73
450.46	7623.12
450.65	7522.48
450.83	7581.00
451.02	7435.88
451.20	7606.74
451.39	7627.81
451.57	7506.10
451.76	7627.81
451.94	7419.50
452.13	7599.72
452.31	7609.08
452.49	7655.89
452.68	7597.38
452.86	7515.46
453.05	7604.40
453.23	7613.76
453.42	7723.77
453.60	7693.34
453.78	7681.64
453.97	7726.11
454.15	7719.09
454.34	7737.81
454.52	7712.07
454.70	7880.58
454.89	7683.98
455.07	7892.29
455.26	7929.74
455.44	8107.62
455.62	7892.29
455.81	8107.62
455.99	8102.93
456.17	8327.63
456.36	7971.86
456.54	8341.67
456.73	8294.86
456.91	8407.20
457.09	8503.17
457.28	8491.46
457.46	8332.31
457.64	8449.33
457.83	8547.64
458.01	8435.29
458.19	8484.44
458.38	8524.23
458.56	8535.93
458.74	8435.29
458.93	8463.38
459.11	8901.06
459.29	8648.28
459.48	8732.54
459.66	8517.21
459.84	8805.10
460.03	8997.02
460.21	9013.40
460.39	8922.12
460.57	8887.01
460.76	8870.63
460.94	8997.02
461.12	8936.17
461.31	9102.34
461.49	9107.02
461.67	9064.89
461.85	9338.74
462.04	9083.62
462.22	9748.33
462.40	9294.27
462.59	9249.80
462.77	9177.24
462.95	9366.82
463.13	9277.88
463.32	9268.52
463.50	9165.54
463.68	9533.00
463.86	9359.80
464.05	9341.08
464.23	9191.28
464.41	9390.23
464.59	9198.31
464.78	9600.88
464.96	9635.99
465.14	9345.76
465.32	9521.30
465.50	9743.65
465.69	9554.07
465.87	9537.68
466.05	9593.86
466.23	9451.08
466.41	9603.22
466.60	9877.06
466.78	9577.47
466.96	9600.88
467.14	9738.97
467.32	9703.86
467.51	9743.65
467.69	9600.88
467.87	9951.96
468.05	9956.64
468.23	9619.60
468.41	9846.63
468.60	9919.19
468.78	10143.88
468.96	9858.34
469.14	10225.80
469.32	10253.89
469.50	9722.59
469.69	10211.76
469.87	10181.33
470.05	10141.54
470.23	10181.33
470.41	10195.37
470.59	10239.84
470.77	10092.39
470.95	10366.23
471.14	10619.01
471.32	10277.29
471.50	10611.99
471.68	10619.01
471.86	10899.87
472.04	10885.83
472.22	10930.30
472.40	10719.65
472.58	10572.20
472.77	10977.11
472.95	10906.90
473.13	11197.12
473.31	10752.42
473.49	11105.84
473.67	11234.57
473.85	11229.89
474.03	11236.91
474.21	11442.88
474.39	11407.77
474.57	11847.79
474.75	11658.21
474.93	11637.14
475.12	11714.38
475.30	11709.70
475.48	11646.51
475.66	11948.43
475.84	11798.64
476.02	11852.47
476.20	11913.33
476.38	12189.51
476.56	12159.08
476.74	12163.76
476.92	12229.30
477.10	12465.69
477.28	12507.82
477.46	12463.35
477.64	12744.22
477.82	12908.05
478.00	13104.66
478.18	12879.97
478.36	12802.73
478.54	13273.18
478.72	13289.56
478.90	13305.95
479.08	13596.17
479.26	14136.84
479.44	13820.86
479.62	14092.37
479.80	13823.20
479.98	14228.12
480.16	14267.91
480.34	14174.28
480.52	14511.32
480.70	14410.68
480.88	14342.80
481.06	14422.38
481.24	14710.27
481.41	14970.07
481.59	14846.02
481.77	14953.68
481.95	15068.37
482.13	15096.46
482.31	15201.78
482.49	15594.99
482.67	15400.72
482.85	15524.77
483.03	15726.06
483.21	15892.24
483.39	16248.00
483.57	15836.06
483.74	15917.98
483.92	16027.99
484.10	16257.36
484.28	16570.99
484.46	16879.94
484.64	17071.87
484.82	16641.21
485.00	16875.26
485.18	16877.60
485.35	16982.93
485.53	16800.37
485.71	16704.40
485.89	17160.81
486.07	17048.46
486.25	17207.62
486.43	17439.33
486.61	17575.08
486.78	17846.58
486.96	18214.05
487.14	18258.52
487.32	18307.67
487.50	18895.14
487.68	18986.43
487.85	19147.92
488.03	19344.53
488.21	19405.38
488.39	19332.82
488.57	19248.57
488.75	19653.48
488.92	19995.20
489.10	19847.74
489.28	20219.89
489.46	20388.41
489.64	20449.26
489.81	21149.08
489.99	21015.67
490.17	21116.31
490.35	21111.63
490.53	21233.34
490.70	21436.97
490.88	21296.53
491.06	21846.56
491.24	21617.19
491.41	21167.80
491.59	21603.14
491.77	21301.22
491.95	21813.79
492.13	22075.93
492.30	22427.01
492.48	22735.96
492.66	22644.68
492.84	22604.89
493.01	22876.40
493.19	22824.90
493.37	22845.97
493.54	22913.84
493.72	23477.91
493.90	23363.23
494.08	23662.82
494.25	24013.90
494.43	24528.81
494.61	24074.75
494.79	24261.99
494.96	24322.85
495.14	24257.31
495.32	24479.66
495.49	24655.20
495.67	24734.78
495.85	24837.76
496.02	25310.55
496.20	25261.40
496.38	25523.54
496.55	25394.81
496.73	25919.09
496.91	25687.38
497.09	25975.27
497.26	26160.17
497.44	26169.53
497.62	26054.84
497.79	26274.85
497.97	25893.35
498.14	26190.59
498.32	26583.80
498.50	26623.59
498.67	27049.57
498.85	26988.72
499.03	27159.58
499.20	27365.54
499.38	27323.41
499.56	27089.36
499.73	27527.04
499.91	27632.36
500.08	27630.02
500.26	27548.11
500.44	27571.51
500.61	27655.77
500.79	27606.62
500.97	27803.22
501.14	28250.27
501.32	27948.34
501.49	28322.82
501.67	28126.22
501.84	28659.86
502.02	28549.85
502.20	28446.87
502.37	28840.08
502.55	28582.62
502.72	28751.14
502.90	28982.85
503.07	29102.22
503.25	29483.73
503.43	29001.58
503.60	29074.13
503.78	29074.13
503.95	29153.71
504.13	29233.29
504.30	29542.24
504.48	29504.79
504.65	29979.92
504.83	30022.05
505.01	30150.78
505.18	30087.59
505.36	30543.99
505.53	30115.67
505.71	30874.01
505.88	30672.72
506.06	30656.34
506.23	30632.93
506.41	30665.70
506.58	30838.90
506.76	31213.38
506.93	30981.67
507.11	30806.13
507.28	31021.46
507.46	30911.46
507.63	31033.16
507.81	31164.23
507.98	31082.31
508.16	31220.41
508.33	31592.55
508.50	31847.67
508.68	31924.91
508.85	32465.57
509.03	32252.58
509.20	31985.76
509.38	32149.60
509.55	32261.94
509.73	32573.24
509.90	32294.71
510.08	32519.40
510.25	32486.64
510.42	32591.96
510.60	32708.99
510.77	33170.07
510.95	33095.18
511.12	33034.32
511.30	33420.51
511.47	33254.33
511.64	33354.97
511.82	33654.56
511.99	32896.23
512.17	33603.07
512.34	33329.23
512.51	33717.76
512.69	33364.34
512.86	33577.33
513.04	34080.54
513.21	33860.53
513.38	34059.48
513.56	33876.91
513.73	33612.43
513.90	34195.23
514.08	34080.54
514.25	34223.31
514.43	34110.97
514.60	34043.09
514.77	34639.93
514.95	34958.24
515.12	34705.46
515.29	34291.19
515.47	35206.34
515.64	35510.61
515.81	34869.30
515.99	34902.07
516.16	34976.97
516.33	34740.57
516.51	34691.42
516.68	34284.17
516.85	34387.15
517.03	34558.01
517.20	35215.70
517.37	35267.19
517.54	35828.92
517.72	35379.54
517.89	35042.50
518.06	34827.17
518.24	35075.27
518.41	34991.01
518.58	35901.48
518.75	35721.26
518.93	35859.35
519.10	35601.89
519.27	36278.30
519.45	36210.43
519.62	36261.92
519.79	36137.87
519.96	36318.09
520.14	36650.45
520.31	36594.28
520.48	36629.38
520.65	36610.66
520.83	36900.89
521.00	37092.81
521.17	37116.22
521.34	37282.39
521.52	37596.03
521.69	37326.86
521.86	37226.22
522.03	37422.83
522.20	37205.16
522.38	37397.08
522.55	37141.96
522.72	37598.37
522.89	37507.08
523.07	37806.67
523.24	37912.00
523.41	37837.10
523.58	38469.04
523.75	38401.17
523.92	38410.53
524.10	38284.14
524.27	38501.81
524.44	38525.22
524.61	38377.76
524.78	38595.43
524.96	38817.78
525.13	39082.27
525.30	39023.75
525.47	39201.63
525.64	38579.05
525.81	38506.49
525.98	38457.34
526.16	38656.29
526.33	38216.27
526.50	39005.03
526.67	38384.79
526.84	38712.46
527.01	38438.62
527.18	39100.99
527.36	39281.21
527.53	39192.27
527.70	40039.54
527.87	39222.70
528.04	39145.46
528.21	39716.55
528.38	39489.52
528.55	39871.03
528.72	40444.46
528.89	39894.43
529.07	40175.30
529.24	39627.61
529.41	40027.84
529.58	40151.89
529.75	39676.76
529.92	39990.39
530.09	40397.65
530.26	40407.01
530.43	40467.86
530.60	40327.43
530.77	40708.94
530.94	40512.33
531.11	40907.88
531.28	40285.30
531.46	40744.05
531.63	41076.40
531.80	40439.78
531.97	40634.04
532.14	40533.40
532.31	40683.19
532.48	40252.53
532.65	40910.22
532.82	40863.41
532.99	41387.69
533.16	40957.03
533.33	41354.93
533.50	41357.27
533.67	41287.05
533.84	41041.29
534.01	41265.99
534.18	41099.81
534.35	41860.48
534.52	41446.21
534.69	41706.01
534.86	41755.16
535.03	41750.48
535.20	41794.95
535.37	41982.19
535.54	41799.63
535.71	42150.71
535.88	41596.00
536.05	41993.89
536.22	42007.94
536.38	42293.48
536.55	41816.01
536.72	41436.84
536.89	41544.51
537.06	41825.37
537.23	42450.30
537.40	42368.38
537.57	42359.02
537.74	42007.94
537.91	42616.47
538.08	42026.66
538.25	42368.38
538.42	42295.82
538.59	42651.58
538.75	42106.24
538.92	42136.66
539.09	42899.68
539.26	42066.45
539.43	42761.59
539.60	42417.53
539.77	42684.35
539.94	42801.38
540.11	42733.50
540.28	42546.26
540.44	42321.57
540.61	42473.70
540.78	42464.34
540.95	42609.45
541.12	42667.97
541.29	42784.99
541.46	42644.56
541.62	42976.92
541.79	43281.19
541.96	42925.42
542.13	42906.70
542.30	43012.02
542.47	43122.03
542.63	43381.83
542.80	43274.16
542.97	43791.42
543.14	43775.04
543.31	43634.61
543.48	43941.22
543.64	43863.98
543.81	43941.22
543.98	44041.86
544.15	43920.15
544.32	44226.76
544.48	44343.79
544.65	43840.57
544.82	44275.91
544.99	43761.00
545.16	43896.75
545.32	43999.73
545.49	44444.43
545.66	44280.60
545.83	44105.06
546.00	44781.47
546.16	44432.73
546.33	44254.85
546.50	44222.08
546.67	44397.62
546.83	44154.21
547.00	44547.42
547.17	44755.72
547.34	44392.94
547.50	44697.21
547.67	44718.28
547.84	44673.81
548.00	44968.71
548.17	44676.15
548.34	44877.43
548.51	45310.43
548.67	45003.82
548.84	45022.54
549.01	44795.51
549.18	44612.95
549.34	45249.58
549.51	45041.27
549.68	45228.51
549.84	44942.97
550.01	44872.75
550.18	44933.60
550.34	45123.19
550.51	45151.27
550.68	45338.52
550.84	44875.09
551.01	45221.49
551.18	45125.53
551.34	44973.39
551.51	45427.46
551.68	45406.39
551.84	45469.59
552.01	45265.96
552.18	44938.29
552.34	45766.84
552.51	45549.17
552.68	45567.89
552.84	45698.96
553.01	45507.04
553.18	45464.91
553.34	45481.29
553.51	45184.04
553.67	45436.82
553.84	45771.52
554.01	45738.75
554.17	45738.75
554.34	46389.42
554.51	45820.67
554.67	45935.35
554.84	45855.78
555.00	45504.70
555.17	45392.35
555.33	46000.89
555.50	45516.40
555.67	45750.45
555.83	45909.61
556.00	46344.95
556.16	46284.09
556.33	46160.05
556.50	45827.69
556.66	45897.91
556.83	45794.92
556.99	45961.10
557.16	45897.91
557.32	46005.57
557.49	46478.36
557.65	46227.92
557.82	46246.65
557.98	46225.58
558.15	46234.94
558.32	46225.58
558.48	45914.29
558.65	45977.48
558.81	46429.21
558.98	46012.59
559.14	46267.71
559.31	45635.77
559.47	46094.51
559.64	46178.77
559.80	46314.52
559.97	46284.09
560.13	45827.69
560.30	46466.66
560.46	46546.23
560.63	46057.06
560.79	46653.90
560.96	46909.02
561.12	46347.29
561.29	46419.84
561.45	46422.19
561.61	46239.62
561.78	46209.20
561.94	46305.16
562.11	46232.60
562.27	46490.06
562.44	46326.22
562.60	46581.34
562.77	46611.77
562.93	46443.25
563.10	46469.00
563.26	45872.16
563.42	46789.65
563.59	45968.12
563.75	46684.33
563.92	47224.99
564.08	46616.45
564.24	46777.95
564.41	46710.07
564.57	46916.04
564.74	46724.11
564.90	46663.26
565.07	47009.66
565.23	46789.65
565.39	46401.12
565.56	46681.98
565.72	46447.93
565.88	46408.14
566.05	46754.54
566.21	45940.04
566.38	46799.01
566.54	46527.51
566.70	46855.18
566.87	47316.27
567.03	47012.00
567.19	47496.49
567.36	47023.70
567.52	47349.04
567.68	46674.96
567.85	46576.66
568.01	46829.44
568.17	46873.91
568.34	46630.49
568.50	46859.87
568.66	46604.75
568.83	46691.35
568.99	46319.20
569.15	46925.40
569.32	47042.43
569.48	46871.57
569.64	47250.74
569.81	46604.75
569.97	46703.05
570.13	47084.56
570.30	46375.37
570.46	46328.56
570.62	46220.90
570.78	46714.75
570.95	46518.15
571.11	46899.65
571.27	46735.82
571.43	46548.57
571.60	47042.43
571.76	47063.49
571.92	47098.60
572.09	47157.11
572.25	46852.84
572.41	47103.28
572.57	46934.76
572.74	47547.98
572.90	46979.23
573.06	47215.63
573.22	47103.28
573.38	46782.63
573.55	46913.70
573.71	47323.29
573.87	46756.88
574.03	46836.46
574.20	47288.18
574.36	47105.62
574.52	47255.42
574.68	47349.04
574.84	47086.90
575.01	47042.43
575.17	46681.98
575.33	46653.90
575.49	46707.73
575.65	47089.24
575.82	46953.49
575.98	46742.84
576.14	47246.05
576.30	47374.78
576.46	47049.45
576.62	46986.25
576.79	47007.32
576.95	46698.37
577.11	47012.00
577.27	46913.70
577.43	47047.11
577.59	47201.58
577.75	46794.33
577.92	46438.57
578.08	46590.70
578.24	46511.13
578.40	46983.91
578.56	47187.54
578.72	47239.03
578.88	46824.76
579.04	47103.28
579.21	46815.40
579.37	47159.45
579.53	46974.55
579.69	46894.97
579.85	46665.60
580.01	47274.14
580.17	47346.70
580.33	46731.14
580.49	47522.24
580.65	47557.35
580.82	46859.87
580.98	46810.71
581.14	47171.16
581.30	47342.02
581.46	46859.87
581.62	47119.66
581.78	47199.24
581.94	47550.32
582.10	47264.78
582.26	47337.33
582.42	46974.55
582.58	46686.67
582.74	46768.58
582.90	46958.17
583.06	47466.06
583.22	47189.88
583.38	47576.07
583.54	47384.15
583.70	46852.84
583.86	47428.62
584.02	47079.88
584.18	47037.75
584.34	47058.81
584.50	46934.76
584.66	47016.68
584.82	46822.42
584.98	47503.51
585.14	47302.23
585.30	47196.90
585.46	46906.68
585.62	47126.69
585.78	47173.50
585.94	46698.37
586.10	47257.76
586.26	47084.56
586.42	47044.77
586.58	47313.93
586.74	47288.18
586.90	46965.19
587.06	46939.44
587.22	47304.57
587.38	47461.38
587.54	47264.78
587.70	47096.26
587.86	47138.39
588.02	47363.08
588.18	47515.22
588.34	47068.17
588.49	46506.44
588.65	46337.93
588.81	46604.75
588.97	46780.29
589.13	46490.06
589.29	46852.84
589.45	47290.52
589.61	46724.11
589.77	47206.26
589.93	47012.00
