SpectraSuite Data File
++++++++++++++++++++++++++++++++++++
Date: Fri Oct 25 10:43:23 EDT 2013
User: price-jones
Dark Spectrum Present: No
Reference Spectrum Present: No
Number of Sampled Component Spectra: 1
Spectrometers: USB2+H05261
Integration Time (usec): 100000 (USB2+H05261)
Spectra Averaged: 1 (USB2+H05261)
Boxcar Smoothing: 0 (USB2+H05261)
Correct for Electrical Dark: No (USB2+H05261)
Strobe/Lamp Enabled: No (USB2+H05261)
Correct for Detector Non-linearity: No (USB2+H05261)
Correct for Stray Light: No (USB2+H05261)
Number of Pixels in Processed Spectrum: 2048
>>>>>Begin Processed Spectral Data<<<<<
365.73	98.30
365.92	98.30
366.12	98.30
366.32	46.81
366.52	39.79
366.72	25.75
366.91	0.00
367.11	35.11
367.31	35.11
367.51	0.00
367.70	35.11
367.90	44.47
368.10	0.00
368.30	14.04
368.49	0.00
368.69	60.85
368.89	0.00
369.09	30.43
369.28	58.51
369.48	60.85
369.68	35.11
369.87	166.18
370.07	53.83
370.27	95.96
370.47	210.65
370.66	409.59
370.86	465.77
371.06	456.40
371.25	505.56
371.45	442.36
371.65	423.64
371.84	418.96
372.04	496.19
372.24	489.17
372.44	566.41
372.63	491.51
372.83	477.47
373.03	463.43
373.22	521.94
373.42	484.49
373.62	507.90
373.81	603.86
374.01	636.63
374.21	519.60
374.40	514.92
374.60	592.16
374.79	601.52
374.99	545.34
375.19	575.77
375.38	638.97
375.58	615.56
375.78	617.90
375.97	582.79
376.17	568.75
376.37	657.69
376.56	641.31
376.76	664.71
376.95	622.58
377.15	615.56
377.35	660.03
377.54	674.07
377.74	671.73
377.93	657.69
378.13	645.99
378.33	664.71
378.52	648.33
378.72	660.03
378.91	674.07
379.11	645.99
379.31	660.03
379.50	690.46
379.70	720.88
379.89	660.03
380.09	655.35
380.28	634.29
380.48	681.10
380.68	697.48
380.87	699.82
381.07	751.31
381.26	751.31
381.46	770.04
381.65	720.88
381.85	737.27
382.04	681.10
382.24	755.99
382.43	704.50
382.63	739.61
382.83	669.39
383.02	695.14
383.22	648.33
383.41	681.10
383.61	788.76
383.80	732.59
384.00	784.08
384.19	734.93
384.39	821.53
384.58	816.85
384.78	854.30
384.97	866.00
385.17	695.14
385.36	772.38
385.56	849.61
385.75	809.83
385.95	842.59
386.14	959.62
386.34	870.68
386.53	812.17
386.72	812.17
386.92	828.55
387.11	849.61
387.31	901.11
387.50	840.25
387.70	791.10
387.89	961.96
388.09	884.72
388.28	791.10
388.48	933.87
388.67	964.30
388.86	992.39
389.06	994.73
389.25	933.87
389.45	1008.77
389.64	966.64
389.84	1032.18
390.03	1097.71
390.22	901.11
390.42	968.98
390.61	1076.65
390.81	985.37
391.00	1090.69
391.19	1067.28
391.39	1081.33
391.58	1022.81
391.78	994.73
391.97	1053.24
392.16	1071.97
392.36	1013.45
392.55	1011.11
392.75	1027.50
392.94	933.87
393.13	1074.31
393.33	999.41
393.52	968.98
393.71	1076.65
393.91	1055.58
394.10	1048.56
394.29	1111.75
394.49	1139.84
394.68	1191.33
394.88	1256.87
395.07	1268.57
395.26	1303.68
395.46	1207.72
395.65	1228.78
395.84	1280.27
396.04	1277.93
396.23	1186.65
396.42	1207.72
396.62	1188.99
396.81	1188.99
397.00	1163.25
397.19	1238.14
397.39	1308.36
397.58	1455.81
397.77	1425.39
397.97	1497.94
398.16	1476.88
398.35	1416.02
398.55	1507.30
398.74	1540.07
398.93	1479.22
399.12	1537.73
399.32	1481.56
399.51	1647.74
399.70	1533.05
399.90	1577.52
400.09	1638.38
400.28	1570.50
400.47	1551.78
400.67	1689.87
400.86	1666.46
401.05	1696.89
401.24	1666.46
401.44	1678.16
401.63	1741.36
401.82	1621.99
402.01	1694.55
402.21	1813.92
402.40	1760.08
402.59	1717.95
402.78	1743.70
402.97	1879.45
403.17	1732.00
403.36	1715.61
403.55	1774.13
403.74	1809.23
403.93	1778.81
404.13	1949.67
404.32	1830.30
404.51	1790.51
404.70	1851.36
404.89	1881.79
405.09	1891.15
405.28	1921.58
405.47	1930.94
405.66	1989.46
405.85	1980.09
406.05	1942.64
406.24	2015.20
406.43	2010.52
406.62	2012.86
406.81	2134.57
407.00	2059.67
407.20	2078.40
407.39	2015.20
407.58	2139.25
407.77	2204.78
407.96	2265.64
408.15	2204.78
408.34	2211.81
408.54	2258.62
408.73	2335.85
408.92	2310.11
409.11	2436.50
409.30	2354.58
409.49	2300.75
409.68	2195.42
409.87	2335.85
410.07	2406.07
410.26	2342.88
410.45	2427.14
410.64	2434.16
410.83	2518.42
411.02	2457.56
411.21	2492.67
411.40	2607.36
411.59	2724.38
411.78	2644.81
411.98	2581.61
412.17	2644.81
412.36	2623.74
412.55	2698.64
412.74	2640.12
412.93	2712.68
413.12	2661.19
413.31	2995.89
413.50	2839.07
413.69	2913.97
413.88	2991.20
414.07	2897.58
414.26	3077.80
414.45	2913.97
414.64	2906.95
414.83	2946.73
415.02	3080.14
415.22	3007.59
415.41	3131.64
415.60	3213.56
415.79	3185.47
415.98	3215.90
416.17	3148.02
416.36	3286.11
416.55	3346.97
416.74	3265.05
416.93	3342.28
417.12	3309.52
417.31	3398.46
417.50	3251.00
417.69	3522.51
417.88	3258.03
418.07	3302.50
418.26	3421.86
418.45	3471.01
418.64	3506.12
418.83	3548.25
419.02	3613.79
419.21	3662.94
419.39	3620.81
419.58	3660.60
419.77	3639.53
419.96	3676.98
420.15	3653.58
420.34	3719.11
420.53	3747.20
420.72	3904.01
420.91	3681.66
421.10	3836.14
421.29	3861.88
421.48	3880.61
421.67	3992.95
421.86	3854.86
422.05	3763.58
422.24	3822.09
422.43	3873.59
422.61	3915.72
422.80	3978.91
422.99	3997.64
423.18	3859.54
423.37	3981.25
423.56	3871.25
423.75	3878.27
423.94	3868.91
424.13	3632.51
424.32	3815.07
424.50	4004.66
424.69	4011.68
424.88	4074.87
425.07	3854.86
425.26	3833.80
425.45	4065.51
425.64	4072.53
425.83	4053.81
426.01	4093.60
426.20	4074.87
426.39	4072.53
426.58	4011.68
426.77	3840.82
426.96	3967.21
427.15	4070.19
427.33	4002.32
427.52	3992.95
427.71	4035.08
427.90	4276.16
428.09	4182.54
428.28	4210.62
428.46	4154.45
428.65	4095.94
428.84	4332.33
429.03	4311.27
429.22	4093.60
429.40	4222.33
429.59	4177.86
429.78	3939.12
429.97	4018.70
430.16	3962.53
430.34	4126.36
430.53	4252.75
430.72	4318.29
430.91	4184.88
431.10	4304.25
431.28	4456.38
431.47	4594.47
431.66	4575.75
431.85	4517.23
432.03	4580.43
432.22	4652.98
432.41	4695.11
432.60	4664.69
432.79	4685.75
432.97	4791.08
433.16	4720.86
433.35	4657.67
433.54	4627.24
433.72	4683.41
433.91	4730.22
434.10	4784.06
434.28	4727.88
434.47	4870.65
434.66	5076.62
434.85	5015.77
435.03	5053.22
435.22	4997.04
435.41	5088.32
435.59	5158.54
435.78	4919.81
435.97	5121.09
436.16	5252.16
436.34	5170.24
436.53	5055.56
436.72	5245.14
436.90	5011.09
437.09	5116.41
437.28	5193.65
437.46	5235.78
437.65	5088.32
437.84	5081.30
438.02	5074.28
438.21	5121.09
438.40	5249.82
438.58	5472.17
438.77	5523.66
438.96	5444.09
439.14	5607.92
439.33	5647.71
439.52	5537.71
439.70	5668.78
439.89	5575.16
440.08	5790.49
440.26	5715.59
440.45	5818.57
440.63	5799.85
440.82	5942.62
441.01	5961.34
441.19	6090.07
441.38	6223.48
441.57	5977.73
441.75	6237.53
441.94	6312.42
442.12	6277.32
442.31	6375.62
442.50	6300.72
442.68	6494.99
442.87	6263.27
443.05	6394.34
443.24	6408.39
443.43	6282.00
443.61	6607.33
443.80	6761.81
443.98	6349.87
444.17	6223.48
444.35	6438.81
444.54	6761.81
444.73	6586.27
444.91	6424.77
445.10	6530.09
445.28	6345.19
445.47	6483.28
445.65	6420.09
445.84	6586.27
446.02	6633.08
446.21	6656.48
446.39	6630.74
446.58	6825.00
446.77	6628.40
446.95	6616.69
447.14	6604.99
447.32	6785.21
447.51	6628.40
447.69	6661.16
447.88	6651.80
448.06	6836.70
448.25	6700.95
448.43	6724.36
448.62	6726.70
448.80	6740.74
448.99	6911.60
449.17	6834.36
449.36	6883.52
449.54	7101.19
449.73	7307.15
449.91	7148.00
450.10	7110.55
450.28	7428.86
450.46	7314.17
450.65	7157.36
450.83	7201.83
451.02	7232.26
451.20	7122.25
451.39	7290.77
451.57	7447.58
451.76	7375.03
451.94	7335.24
452.13	7318.86
452.31	7201.83
452.49	7045.01
452.68	7183.10
452.86	7248.64
453.05	7314.17
453.23	7267.36
453.42	7356.30
453.60	7201.83
453.78	7480.35
453.97	7456.95
454.15	7321.20
454.34	7412.48
454.52	7707.38
454.70	7414.82
454.89	7660.57
455.07	7346.94
455.26	7627.81
455.44	7899.31
455.62	7740.15
455.81	7789.30
455.99	7981.23
456.17	7925.05
456.36	7808.03
456.54	7985.91
456.73	7896.97
456.91	8327.63
457.09	8135.70
457.28	8439.97
457.46	8023.36
457.64	8009.31
457.83	7964.84
458.01	8095.91
458.19	8273.79
458.38	8177.83
458.56	8341.67
458.74	8482.10
458.93	8248.05
459.11	8182.51
459.29	8161.45
459.48	8161.45
459.66	8468.06
459.84	8358.05
460.03	8533.59
460.21	8456.36
460.39	8606.15
460.57	8535.93
460.76	8678.71
460.94	8676.37
461.12	8451.67
461.31	8699.77
461.49	8561.68
461.67	8805.10
461.85	8959.57
462.04	8795.73
462.22	9352.78
462.40	8966.59
462.59	8992.34
462.77	9041.49
462.95	9043.83
463.13	8760.63
463.32	9020.42
463.50	9146.81
463.68	9214.69
463.86	8950.21
464.05	8896.38
464.23	9015.74
464.41	9135.11
464.59	8828.50
464.78	9263.84
464.96	9249.80
465.14	9097.66
465.32	9118.73
465.50	9310.65
465.69	9401.93
465.87	9308.31
466.05	9231.07
466.23	9352.78
466.41	9301.29
466.60	9413.63
466.78	9121.07
466.96	9305.97
467.14	9420.66
467.32	9287.25
467.51	9654.71
467.69	9327.03
467.87	9535.34
468.05	9523.64
468.23	9481.51
468.41	9528.32
468.60	9523.64
468.78	9722.59
468.96	9479.17
469.14	9554.07
469.32	9778.76
469.50	9523.64
469.69	9830.25
469.87	9926.21
470.05	9750.67
470.23	9944.94
470.41	9813.87
470.59	9820.89
470.77	9928.55
470.95	10143.88
471.14	9872.38
471.32	10153.24
471.50	10279.63
471.68	10223.46
471.86	10368.57
472.04	10490.28
472.22	10740.72
472.40	10200.05
472.58	10553.48
472.77	10431.77
472.95	10274.95
473.13	10864.77
473.31	10628.37
473.49	10644.76
473.67	10609.65
473.85	10675.18
474.03	11112.86
474.21	10843.70
474.39	11257.98
474.57	11178.40
474.75	11190.10
474.93	11215.85
475.12	11059.03
475.30	11187.76
475.48	10981.79
475.66	11576.29
475.84	11351.60
476.02	11307.13
476.20	11431.18
476.38	11632.46
476.56	11941.41
476.74	11875.88
476.92	11962.48
477.10	11967.16
477.28	12074.82
477.46	12259.73
477.64	12332.28
477.82	12484.42
478.00	12692.73
478.18	12397.82
478.36	12535.91
478.54	12718.47
478.72	12816.77
478.90	12847.20
479.08	13123.38
479.26	12872.95
479.44	13334.03
479.62	13364.46
479.80	13289.56
479.98	13123.38
480.16	13809.16
480.34	13535.32
480.52	13736.60
480.70	13809.16
480.88	13650.00
481.06	13858.31
481.24	14043.21
481.41	14506.64
481.59	14300.67
481.77	14494.94
481.95	14471.53
482.13	14483.24
482.31	14417.70
482.49	14967.73
482.67	14988.79
482.85	15021.56
483.03	15286.04
483.21	15325.83
483.39	15367.96
483.57	15433.49
483.74	15538.82
483.92	15543.50
484.10	15779.89
484.28	15826.70
484.46	16184.80
484.64	16285.45
484.82	16212.89
485.00	16222.25
485.18	16418.86
485.35	16535.88
485.53	16091.18
485.71	16060.76
485.89	16411.84
486.07	16507.80
486.25	16498.44
486.43	16872.92
486.61	17137.40
486.78	17331.67
486.96	17390.18
487.14	17748.28
487.32	17525.93
487.50	18040.85
487.68	17987.02
487.85	18232.77
488.03	18370.86
488.21	18637.69
488.39	18707.90
488.57	18504.28
488.75	18918.55
488.92	19073.03
489.10	19040.26
489.28	19454.53
489.46	19541.13
489.64	19463.90
489.81	20456.28
489.99	20116.90
490.17	20006.90
490.35	20505.43
490.53	20514.80
490.70	20250.32
490.88	20517.14
491.06	21212.28
491.24	20966.52
491.41	20802.68
491.59	20563.95
491.77	20945.45
491.95	21331.64
492.13	21291.85
492.30	21553.99
492.48	21678.04
492.66	21811.45
492.84	22085.30
493.01	22265.52
493.19	22111.04
493.37	22043.17
493.54	22410.63
493.72	22572.13
493.90	22618.94
494.08	22836.61
494.25	23014.49
494.43	23124.49
494.61	23506.00
494.79	23431.10
494.96	23578.56
495.14	23644.09
495.32	23676.86
495.49	23786.86
495.67	23852.40
495.85	24212.84
496.02	24498.39
496.20	24484.34
496.38	24353.27
496.55	24444.56
496.73	24706.70
496.91	24568.60
497.09	25163.10
497.26	25167.78
497.44	24905.64
497.62	25230.98
497.79	25404.17
497.97	25064.80
498.14	26064.21
498.32	25577.37
498.50	25415.88
498.67	25919.09
498.85	26005.69
499.03	26260.81
499.20	26080.59
499.38	26422.31
499.56	26480.82
499.73	26485.50
499.91	26670.40
500.08	26593.17
500.26	26314.64
500.44	26324.01
500.61	26834.24
500.79	26658.70
500.97	26513.59
501.14	27173.62
501.32	26948.93
501.49	27119.79
501.67	27138.51
501.84	27365.54
502.02	27356.18
502.20	27634.71
502.37	27997.49
502.55	27735.35
502.72	27679.18
502.90	28018.55
503.07	27620.66
503.25	27974.08
503.43	27908.55
503.60	28374.31
503.78	28350.91
503.95	28294.74
504.13	28163.67
504.30	28746.46
504.48	28636.45
504.65	28650.50
504.83	28694.97
505.01	29127.97
505.18	28952.43
505.36	29151.37
505.53	29563.31
505.71	29556.28
505.88	29509.47
506.06	29649.91
506.23	30029.07
506.41	29544.58
506.58	29755.23
506.76	29802.04
506.93	29979.92
507.11	29832.47
507.28	30478.46
507.46	29696.72
507.63	29869.92
507.81	30331.00
507.98	29860.55
508.16	30272.49
508.33	30773.36
508.50	30766.34
508.68	30735.92
508.85	31077.63
509.03	31070.61
509.20	31166.57
509.38	31353.82
509.55	31428.71
509.73	30988.69
509.90	31129.12
510.08	31253.17
510.25	31138.49
510.42	31407.65
510.60	31604.25
510.77	31496.59
510.95	32077.04
511.12	32088.74
511.30	32254.92
511.47	32336.84
511.64	32374.29
511.82	32285.35
511.99	32444.51
512.17	32556.85
512.34	32177.68
512.51	32882.19
512.69	32690.26
512.86	32655.15
513.04	32659.84
513.21	33254.33
513.38	33099.86
513.56	32811.97
513.73	33015.60
513.90	33460.30
514.08	32870.48
514.25	33249.65
514.43	33146.67
514.60	33209.86
514.77	33392.42
514.95	33827.76
515.12	33504.77
515.29	33490.73
515.47	33701.37
515.64	34256.08
515.81	33867.55
515.99	34029.05
516.16	33977.56
516.33	33340.93
516.51	33532.86
516.68	33427.53
516.85	33191.14
517.03	33727.12
517.20	33755.21
517.37	34192.89
517.54	34295.87
517.72	34136.71
517.89	33771.59
518.06	33811.38
518.24	34176.50
518.41	34141.39
518.58	34785.04
518.75	34424.60
518.93	34663.33
519.10	34569.71
519.27	35044.84
519.45	35091.65
519.62	35255.49
519.79	35229.74
519.96	35332.73
520.14	35360.81
520.31	35196.98
520.48	35955.31
520.65	35571.46
520.83	36236.17
521.00	35599.55
521.17	35697.85
521.34	36203.41
521.52	36201.07
521.69	36292.35
521.86	36180.00
522.03	36381.29
522.20	36659.81
522.38	36486.61
522.55	36758.11
522.72	36182.34
522.89	36217.45
523.07	37029.62
523.24	36659.81
523.41	36741.73
523.58	36680.88
523.75	37172.39
523.92	37312.82
524.10	36999.19
524.27	37060.04
524.44	37160.69
524.61	37544.53
524.78	37748.16
524.96	37691.99
525.13	37738.80
525.30	37127.92
525.47	38073.49
525.64	37401.76
525.81	37638.15
525.98	37315.16
526.16	37612.41
526.33	37123.24
526.50	37612.41
526.67	37113.87
526.84	37668.58
527.01	37397.08
527.18	37521.13
527.36	38202.22
527.53	37996.26
527.70	38494.79
527.87	38059.45
528.04	38499.47
528.21	38286.48
528.38	38237.33
528.55	38557.99
528.72	38401.17
528.89	39000.35
529.07	38738.21
529.24	38735.87
529.41	39229.72
529.58	38632.88
529.75	38705.44
529.92	38969.92
530.09	38953.54
530.26	39208.65
530.43	39098.65
530.60	39077.58
530.77	39578.46
530.94	39445.05
531.11	39414.62
531.28	39433.35
531.46	39618.25
531.63	39658.04
531.80	39643.99
531.97	39407.60
532.14	39578.46
532.31	39145.46
532.48	39789.11
532.65	40191.68
532.82	39576.12
532.99	39775.06
533.16	39585.48
533.33	39938.90
533.50	40140.19
533.67	40203.38
533.84	39852.30
534.01	40112.10
534.18	39894.43
534.35	40215.08
534.52	40187.00
534.69	40509.99
534.86	40814.26
535.03	40210.40
535.20	40685.53
535.37	40753.41
535.54	40704.26
535.71	40313.39
535.88	40610.64
536.05	40676.17
536.22	40690.21
536.38	40540.42
536.55	40577.87
536.72	40636.38
536.89	40505.31
537.06	41053.00
537.23	40907.88
537.40	40793.20
537.57	41453.23
537.74	41141.94
537.91	41205.13
538.08	41074.06
538.25	40683.19
538.42	41064.70
538.59	41242.58
538.75	40545.10
538.92	41146.62
539.09	41605.36
539.26	41165.34
539.43	41663.88
539.60	41509.40
539.77	41106.83
539.94	41359.61
540.11	40959.38
540.28	41584.30
540.44	41570.25
540.61	41689.62
540.78	41141.94
540.95	41308.11
541.12	41413.44
541.29	41579.62
541.46	41851.12
541.62	41937.72
541.79	42227.95
541.96	41581.96
542.13	41865.16
542.30	41834.74
542.47	42295.82
542.63	42136.66
542.80	42110.92
542.97	42476.04
543.14	42291.14
543.31	42422.21
543.48	42323.91
543.64	42946.49
543.81	43093.94
543.98	42927.77
544.15	42653.92
544.32	43096.28
544.48	43185.22
544.65	42799.04
544.82	42843.51
544.99	42707.76
545.16	42597.75
545.32	42920.74
545.49	43580.78
545.66	43227.35
545.83	43086.92
546.00	43288.21
546.16	43100.97
546.33	43133.73
546.50	42679.67
546.67	43416.94
546.83	42773.29
547.00	43550.35
547.17	43557.37
547.34	43030.75
547.50	43084.58
547.67	43739.93
547.84	43580.78
548.00	43913.13
548.17	44100.37
548.34	44016.11
548.51	43686.10
548.67	43681.42
548.84	44039.52
549.01	43969.30
549.18	43826.53
549.34	43723.55
549.51	43440.34
549.68	43416.94
549.84	43662.69
550.01	44268.89
550.18	43718.87
550.34	44107.40
550.51	43880.36
550.68	43959.94
550.84	43494.18
551.01	44584.86
551.18	44009.09
551.34	43856.96
551.51	44233.78
551.68	44502.95
551.84	44521.67
552.01	44325.07
552.18	44484.22
552.34	43945.90
552.51	43936.54
552.68	44076.97
552.84	44327.41
553.01	44598.91
553.18	44004.41
553.34	44346.13
553.51	44411.67
553.67	44304.00
553.84	44835.30
554.01	44804.88
554.17	44498.26
554.34	44577.84
554.51	44713.59
554.67	44594.23
554.84	44739.34
555.00	44149.53
555.17	44711.25
555.33	44931.26
555.50	44722.96
555.67	44790.83
555.83	44463.16
556.00	44631.68
556.16	45228.51
556.33	44725.30
556.50	44744.02
556.66	44863.39
556.83	44453.79
556.99	44746.36
557.16	44959.35
557.32	44748.70
557.49	45261.28
557.65	44629.34
557.82	44942.97
557.98	44957.01
558.15	45263.62
558.32	45265.96
558.48	44835.30
558.65	44814.24
558.81	44559.12
558.98	44957.01
559.14	45308.09
559.31	44524.01
559.47	45123.19
559.64	45006.16
559.80	45289.37
559.97	45294.05
560.13	44741.68
560.30	45104.46
560.46	45139.57
560.63	45446.18
560.79	45691.94
560.96	45581.93
561.12	45689.60
561.29	45162.98
561.45	45167.66
561.61	44760.40
561.78	45043.61
561.94	45675.55
562.11	45572.57
562.27	45083.40
562.44	45415.76
562.60	45467.25
562.77	45446.18
562.93	45537.46
563.10	45525.76
563.26	45394.69
563.42	45703.64
563.59	45134.89
563.75	45427.46
563.92	45645.13
564.08	45762.15
564.24	45553.85
564.41	45675.55
564.57	45289.37
564.74	45450.86
564.90	45495.33
565.07	45907.27
565.23	45504.70
565.39	45535.12
565.56	45680.24
565.72	44898.50
565.88	45415.76
566.05	45350.22
566.21	45619.38
566.38	45509.38
566.54	45294.05
566.70	45359.58
566.87	45869.82
567.03	45790.24
567.19	46124.94
567.36	45865.14
567.52	45738.75
567.68	46059.40
567.85	45638.11
568.01	45621.72
568.17	45698.96
568.34	45769.18
568.50	45511.72
568.66	45422.78
568.83	46024.29
568.99	45525.76
569.15	45984.51
569.32	45406.39
569.48	45595.98
569.64	46270.05
569.81	45705.98
569.97	45631.08
570.13	46038.34
570.30	45422.78
570.46	45928.33
570.62	45160.64
570.78	45631.08
570.95	45181.70
571.11	45773.86
571.27	45490.65
571.43	45958.76
571.60	45565.55
571.76	46199.83
571.92	45979.82
572.09	46014.93
572.25	46183.45
572.41	46251.33
572.57	46040.68
572.74	46440.91
572.90	45925.99
573.06	46312.18
573.22	45825.35
573.38	46204.52
573.55	45787.90
573.71	46256.01
573.87	46251.33
574.03	45900.25
574.20	46197.49
574.36	45745.77
574.52	45771.52
574.68	45745.77
574.84	46073.45
575.01	45748.11
575.17	45411.07
575.33	45755.13
575.49	45560.87
575.65	46272.39
575.82	46162.39
575.98	45705.98
576.14	46185.79
576.30	46326.22
576.46	46033.66
576.62	46031.32
576.79	45790.24
576.95	45525.76
577.11	46314.52
577.27	45928.33
577.43	45972.80
577.59	45666.19
577.75	45956.42
577.92	45492.99
578.08	45907.27
578.24	45731.73
578.40	45773.86
578.56	46305.16
578.72	46108.55
578.88	46309.84
579.04	46075.79
579.21	45567.89
579.37	45904.93
579.53	46199.83
579.69	45621.72
579.85	45893.22
580.01	46082.81
580.17	45888.54
580.33	46138.98
580.49	45645.13
580.65	45769.18
580.82	46040.68
580.98	46185.79
581.14	45490.65
581.30	45940.04
581.46	45860.46
581.62	45961.10
581.78	45958.76
581.94	46728.80
582.10	46157.70
582.26	46157.70
582.42	45902.59
582.58	46234.94
582.74	45722.37
582.90	46211.54
583.06	46438.57
583.22	46426.87
583.38	46216.22
583.54	46527.51
583.70	45427.46
583.86	46162.39
584.02	45993.87
584.18	46368.35
584.34	45858.12
584.50	46143.66
584.66	46071.10
584.82	45904.93
584.98	46300.48
585.14	46068.76
585.30	46225.58
585.46	46057.06
585.62	45977.48
585.78	46185.79
585.94	45340.86
586.10	45855.78
586.26	45626.40
586.42	46082.81
586.58	46403.46
586.74	46244.30
586.90	45989.19
587.06	46445.59
587.22	46052.38
587.38	46045.36
587.54	45879.18
587.70	45904.93
587.86	46143.66
588.02	46321.54
588.18	46277.07
588.34	45490.65
588.49	45474.27
588.65	45518.74
588.81	45818.33
588.97	45956.42
589.13	45605.34
589.29	45516.40
589.45	45806.62
589.61	45731.73
589.77	45680.24
589.93	45947.06
590.08	46014.93
