SpectraSuite Data File
++++++++++++++++++++++++++++++++++++
Date: Fri Oct 25 10:44:08 EDT 2013
User: price-jones
Dark Spectrum Present: No
Reference Spectrum Present: No
Number of Sampled Component Spectra: 1
Spectrometers: USB2+H05261
Integration Time (usec): 100000 (USB2+H05261)
Spectra Averaged: 1 (USB2+H05261)
Boxcar Smoothing: 0 (USB2+H05261)
Correct for Electrical Dark: No (USB2+H05261)
Strobe/Lamp Enabled: No (USB2+H05261)
Correct for Detector Non-linearity: No (USB2+H05261)
Correct for Stray Light: No (USB2+H05261)
Number of Pixels in Processed Spectrum: 2048
>>>>>Begin Processed Spectral Data<<<<<
365.73	107.66
365.92	107.66
366.12	107.66
366.32	77.24
366.52	0.00
366.72	67.88
366.91	0.00
367.11	51.49
367.31	23.41
367.51	16.38
367.70	28.09
367.90	0.00
368.10	30.43
368.30	56.17
368.49	28.09
368.69	98.30
368.89	32.77
369.09	58.51
369.28	63.19
369.48	35.11
369.68	39.79
369.87	91.28
370.07	102.98
370.27	105.32
370.47	170.86
370.66	456.40
370.86	444.70
371.06	486.83
371.25	421.30
371.45	486.83
371.65	482.15
371.84	372.15
372.04	468.11
372.24	500.87
372.44	470.45
372.63	519.60
372.83	510.24
373.03	533.64
373.22	498.53
373.42	526.62
373.62	587.47
373.81	550.03
374.01	484.49
374.21	545.34
374.40	552.37
374.60	613.22
374.79	517.26
374.99	573.43
375.19	433.00
375.38	587.47
375.58	678.76
375.78	540.66
375.97	561.73
376.17	603.86
376.37	657.69
376.56	533.64
376.76	587.47
376.95	660.03
377.15	730.25
377.35	592.16
377.54	669.39
377.74	727.91
377.93	723.23
378.13	636.63
378.33	655.35
378.52	702.16
378.72	643.65
378.91	655.35
379.11	622.58
379.31	737.27
379.50	655.35
379.70	709.18
379.89	678.76
380.09	704.50
380.28	741.95
380.48	667.05
380.68	685.78
380.87	662.37
381.07	739.61
381.26	683.44
381.46	746.63
381.65	702.16
381.85	746.63
382.04	711.52
382.24	657.69
382.43	723.23
382.63	667.05
382.83	744.29
383.02	718.54
383.22	706.84
383.41	678.76
383.61	755.99
383.80	788.76
384.00	765.36
384.19	704.50
384.39	791.10
384.58	828.55
384.78	770.04
384.97	828.55
385.17	739.61
385.36	840.25
385.56	805.14
385.75	767.70
385.95	837.91
386.14	816.85
386.34	791.10
386.53	858.98
386.72	844.93
386.92	896.43
387.11	833.23
387.31	875.36
387.50	812.17
387.70	856.64
387.89	868.34
388.09	908.13
388.28	861.32
388.48	926.85
388.67	898.77
388.86	887.06
389.06	915.15
389.25	994.73
389.45	1015.79
389.64	919.83
389.84	973.66
390.03	997.07
390.22	940.90
390.42	1020.47
390.61	994.73
390.81	985.37
391.00	1036.86
391.19	1093.03
391.39	1022.81
391.58	1004.09
391.78	1121.12
391.97	954.94
392.16	1050.90
392.36	1041.54
392.55	1027.50
392.75	1008.77
392.94	990.05
393.13	1032.18
393.33	1046.22
393.52	1020.47
393.71	1086.01
393.91	1170.27
394.10	1107.07
394.29	1254.53
394.49	1151.54
394.68	1188.99
394.88	1235.80
395.07	1144.52
395.26	1212.40
395.46	1226.44
395.65	1261.55
395.84	1268.57
396.04	1252.19
396.23	1167.93
396.42	1116.44
396.62	1135.16
396.81	1184.31
397.00	1167.93
397.19	1261.55
397.39	1238.14
397.58	1434.75
397.77	1317.72
397.97	1341.13
398.16	1355.17
398.35	1430.07
398.55	1334.11
398.74	1397.30
398.93	1572.84
399.12	1458.15
399.32	1418.36
399.51	1533.05
399.70	1568.16
399.90	1603.27
400.09	1502.62
400.28	1614.97
400.47	1603.27
400.67	1626.67
400.86	1743.70
401.05	1682.85
401.24	1701.57
401.44	1710.93
401.63	1682.85
401.82	1732.00
402.01	1746.04
402.21	1785.83
402.40	1715.61
402.59	1708.59
402.78	1858.39
402.97	1664.12
403.17	1727.32
403.36	1797.53
403.55	1797.53
403.74	1942.64
403.93	1806.89
404.13	1886.47
404.32	1884.13
404.51	1872.43
404.70	1919.24
404.89	1834.98
405.09	1877.11
405.28	1956.69
405.47	1975.41
405.66	1968.39
405.85	2033.93
406.05	2012.86
406.24	2012.86
406.43	2033.93
406.62	2076.06
406.81	2141.59
407.00	2143.93
407.20	2101.80
407.39	1886.47
407.58	2043.29
407.77	2195.42
407.96	2125.21
408.15	2186.06
408.34	2087.76
408.54	2136.91
408.73	2279.68
408.92	2174.36
409.11	2291.38
409.30	2338.20
409.49	2275.00
409.68	2352.24
409.87	2239.89
410.07	2300.75
410.26	2354.58
410.45	2363.94
410.64	2382.67
410.83	2504.37
411.02	2509.05
411.21	2665.87
411.40	2406.07
411.59	2607.36
411.78	2574.59
411.98	2513.74
412.17	2614.38
412.36	2565.23
412.55	2722.04
412.74	2764.17
412.93	2836.73
413.12	2656.51
413.31	2771.19
413.50	2743.11
413.69	2846.09
413.88	2890.56
414.07	2923.33
414.26	2930.35
414.45	2803.96
414.64	2981.84
414.83	2970.14
415.02	2967.80
415.22	3035.67
415.41	3098.87
415.60	3052.06
415.79	3155.04
415.98	3361.01
416.17	3124.62
416.36	3131.64
416.55	3222.92
416.74	3288.45
416.93	3288.45
417.12	3304.84
417.31	3337.60
417.50	3236.96
417.69	3449.95
417.88	3421.86
418.07	3426.54
418.26	3405.48
418.45	3452.29
418.64	3529.53
418.83	3459.31
419.02	3463.99
419.21	3581.02
419.39	3438.25
419.58	3499.10
419.77	3400.80
419.96	3655.92
420.15	3723.79
420.34	3597.40
420.53	3761.24
420.72	3679.32
420.91	3674.64
421.10	3742.52
421.29	3904.01
421.48	3742.52
421.67	3794.01
421.86	3772.94
422.05	3648.90
422.24	3719.11
422.43	3843.16
422.61	3854.86
422.80	3899.33
422.99	3911.04
423.18	3962.53
423.37	3871.25
423.56	3749.54
423.75	4095.94
423.94	3943.80
424.13	3747.20
424.32	3831.46
424.50	3908.69
424.69	4037.42
424.88	4100.62
425.07	3847.84
425.26	3878.27
425.45	3960.19
425.64	3812.73
425.83	3941.46
426.01	4025.72
426.20	4072.53
426.39	4063.17
426.58	4018.70
426.77	3901.67
426.96	4002.32
427.15	3941.46
427.33	3964.87
427.52	3927.42
427.71	4170.83
427.90	4128.70
428.09	4119.34
428.28	4156.79
428.46	4236.37
428.65	4205.94
428.84	4238.71
429.03	4269.14
429.22	4060.83
429.40	4147.43
429.59	4166.15
429.78	3976.57
429.97	3946.14
430.16	3838.48
430.34	4021.04
430.53	4304.25
430.72	4205.94
430.91	4236.37
431.10	4360.42
431.28	4533.62
431.47	4554.68
431.66	4681.07
431.85	4493.83
432.03	4557.02
432.22	4629.58
432.41	4542.98
432.60	4699.80
432.79	4566.39
432.97	4674.05
433.16	4767.67
433.35	4739.58
433.54	4643.62
433.72	4568.73
433.91	4660.01
434.10	4706.82
434.28	4732.56
434.47	4737.24
434.66	4858.95
434.85	4905.76
435.03	5046.20
435.22	4924.49
435.41	5177.26
435.59	5144.50
435.78	5022.79
435.97	5053.22
436.16	5074.28
436.34	4947.89
436.53	5085.98
436.72	5256.84
436.90	5055.56
437.09	5071.94
437.28	5020.45
437.46	5057.90
437.65	5165.56
437.84	5107.05
438.02	5142.16
438.21	5097.69
438.40	5203.01
438.58	5486.22
438.77	5355.15
438.96	5329.40
439.14	5423.02
439.33	5593.88
439.52	5631.33
439.70	5589.20
439.89	5563.45
440.08	5708.57
440.26	5542.39
440.45	5610.26
440.63	5963.68
440.82	5935.60
441.01	5860.70
441.19	5961.34
441.38	6026.88
441.57	6111.14
441.75	6211.78
441.94	6244.55
442.12	6197.74
442.31	6282.00
442.50	6230.51
442.68	6190.72
442.87	6155.61
443.05	6270.30
443.24	6410.73
443.43	6319.45
443.61	6457.54
443.80	6541.80
443.98	6249.23
444.17	6354.55
444.35	6396.68
444.54	6590.95
444.73	6635.42
444.91	6359.24
445.10	6349.87
445.28	6361.58
445.47	6403.71
445.65	6532.44
445.84	6427.11
446.02	6494.99
446.21	6539.46
446.39	6504.35
446.58	6740.74
446.77	6497.33
446.95	6497.33
447.14	6546.48
447.32	6693.93
447.51	6581.59
447.69	6572.22
447.88	6576.91
448.06	6722.02
448.25	6670.53
448.43	6663.51
448.62	6597.97
448.80	6682.23
448.99	6712.66
449.17	6855.43
449.36	6857.77
449.54	6960.75
449.73	7124.59
449.91	7054.37
450.10	6970.12
450.28	7133.95
450.46	7101.19
450.65	7309.49
450.83	7265.02
451.02	7267.36
451.20	7115.23
451.39	7325.88
451.57	7185.44
451.76	7049.69
451.94	7192.47
452.13	7213.53
452.31	7208.85
452.49	6988.84
452.68	7199.49
452.86	7070.76
453.05	7250.98
453.23	7349.28
453.42	7199.49
453.60	7360.98
453.78	7478.01
453.97	7119.91
454.15	7400.77
454.34	7208.85
454.52	7566.95
454.70	7564.61
454.89	7487.37
455.07	7346.94
455.26	7562.27
455.44	7606.74
455.62	7808.03
455.81	7590.36
455.99	7751.85
456.17	7775.26
456.36	7728.45
456.54	7978.89
456.73	7911.01
456.91	8030.38
457.09	7918.03
457.28	8283.16
457.46	8035.06
457.64	8081.87
457.83	8060.80
458.01	7953.14
458.19	8187.19
458.38	8210.60
458.56	8325.29
458.74	8102.93
458.93	8278.47
459.11	8145.06
459.29	8269.11
459.48	8332.31
459.66	8325.29
459.84	8271.45
460.03	8496.14
460.21	8425.93
460.39	8390.82
460.57	8596.79
460.76	8493.80
460.94	8676.37
461.12	8475.08
461.31	8613.17
461.49	8456.36
461.67	8549.98
461.85	8774.67
462.04	8475.08
462.22	9430.02
462.40	8997.02
462.59	8622.53
462.77	8779.35
462.95	8936.17
463.13	8816.80
463.32	8847.22
463.50	8901.06
463.68	8994.68
463.86	9039.15
464.05	8744.24
464.23	9107.02
464.41	8882.33
464.59	8849.57
464.78	9149.15
464.96	9142.13
465.14	8926.80
465.32	9125.75
465.50	9252.14
465.69	9207.67
465.87	9149.15
466.05	9090.64
466.23	9109.36
466.41	9125.75
466.60	9554.07
466.78	9109.36
466.96	9053.19
467.14	9277.88
467.32	9338.74
467.51	9514.28
467.69	9151.49
467.87	9448.74
468.05	9383.21
468.23	9254.48
468.41	9565.77
468.60	9336.40
468.78	9643.01
468.96	9371.50
469.14	9575.13
469.32	9717.90
469.50	9514.28
469.69	9682.80
469.87	9774.08
470.05	9799.82
470.23	9802.16
470.41	9949.62
470.59	9982.38
470.77	9947.28
470.95	9989.41
471.14	10230.48
471.32	9902.81
471.50	10270.27
471.68	10068.98
471.86	10321.76
472.04	10139.20
472.22	10363.89
472.40	10076.01
472.58	10202.40
472.77	10244.52
472.95	10427.09
473.13	10707.95
473.31	10441.13
473.49	10441.13
473.67	10764.12
473.85	10633.05
474.03	10803.91
474.21	11026.26
474.39	10920.94
474.57	11028.60
474.75	11199.46
474.93	11183.08
475.12	11080.10
475.30	11393.73
475.48	11208.83
475.66	11197.12
475.84	11316.49
476.02	11342.24
476.20	11346.92
476.38	11506.07
476.56	11934.39
476.74	11850.13
476.92	11768.21
477.10	11817.36
477.28	12175.47
477.46	12072.48
477.64	12140.36
477.82	12379.09
478.00	12390.80
478.18	12400.16
478.36	12341.64
478.54	12484.42
478.72	12589.74
478.90	12915.08
479.08	13078.91
479.26	13212.32
479.44	13209.98
479.62	13041.46
479.80	13149.13
479.98	13364.46
480.16	13757.67
480.34	13437.02
480.52	13635.96
480.70	13699.16
480.88	13488.51
481.06	13844.27
481.24	13778.73
481.41	14260.88
481.59	14181.31
481.77	14494.94
481.95	14106.41
482.13	14244.50
482.31	14614.30
482.49	14754.74
482.67	15033.26
482.85	14836.66
483.03	15002.83
483.21	15080.07
483.39	15192.42
483.57	15110.50
483.74	15506.05
483.92	15613.71
484.10	15232.21
484.28	15903.94
484.46	16086.50
484.64	16243.32
484.82	15964.79
485.00	15990.54
485.18	16350.98
485.35	16329.92
485.53	15917.98
485.71	16306.51
485.89	16435.24
486.07	16229.27
486.25	16568.65
486.43	16681.00
486.61	16996.97
486.78	17114.00
486.96	17282.52
487.14	17603.17
487.32	17603.17
487.50	18033.83
487.68	18249.16
487.85	18345.12
488.03	18560.45
488.21	18412.99
488.39	18581.51
488.57	18595.56
488.75	18551.09
488.92	19157.28
489.10	18972.38
489.28	19293.04
489.46	19889.87
489.64	19679.22
489.81	19805.61
489.99	20353.30
490.17	20109.88
490.35	20596.71
490.53	20233.93
490.70	20247.97
490.88	20224.57
491.06	20781.62
491.24	20863.54
491.41	20318.19
491.59	20706.72
491.77	20510.11
491.95	21280.15
492.13	21289.51
492.30	21408.88
492.48	21734.21
492.66	21451.01
492.84	21717.83
493.01	21549.31
493.19	21893.37
493.37	22211.68
493.54	22199.98
493.72	22558.08
493.90	22476.16
494.08	22841.29
494.25	23377.27
494.43	22883.42
494.61	23257.90
494.79	23435.78
494.96	22892.78
495.14	23396.00
495.32	23578.56
495.49	23388.97
495.67	23819.63
495.85	23737.71
496.02	24126.24
496.20	24290.08
496.38	24341.57
496.55	24418.81
496.73	24709.04
496.91	24805.00
497.09	24753.51
497.26	25153.74
497.44	25144.38
497.62	25336.30
497.79	25659.29
497.97	25207.57
498.14	25603.12
498.32	25394.81
498.50	25600.78
498.67	25802.07
498.85	25912.07
499.03	26162.51
499.20	25937.82
499.38	26181.23
499.56	26441.03
499.73	26328.69
499.91	26452.73
500.08	26700.83
500.26	26174.21
500.44	26621.25
500.61	26616.57
500.79	26410.60
500.97	26600.19
501.14	26979.36
501.32	26969.99
501.49	26993.40
501.67	26864.67
501.84	27400.65
502.02	27014.46
502.20	27637.05
502.37	27983.44
502.55	27658.11
502.72	27531.72
502.90	28374.31
503.07	27569.17
503.25	28011.53
503.43	28112.17
503.60	28261.97
503.78	28240.90
503.95	27889.82
504.13	28411.76
504.30	28322.82
504.48	28416.44
504.65	28954.77
504.83	29027.32
505.01	29214.57
505.18	28987.53
505.36	29516.50
505.53	29034.35
505.71	29631.18
505.88	29301.17
506.06	29380.74
506.23	29979.92
506.41	29338.62
506.58	29816.08
506.76	29914.39
506.93	29926.09
507.11	29481.39
507.28	29890.98
507.46	29977.58
507.63	30012.69
507.81	30068.86
507.98	30253.76
508.16	30443.35
508.33	30286.53
508.50	30866.98
508.68	30792.09
508.85	30862.30
509.03	31351.48
509.20	30993.37
509.38	31077.63
509.55	30960.61
509.73	30981.67
509.90	31494.25
510.08	31021.46
510.25	31068.27
510.42	31391.26
510.60	31524.68
510.77	32084.06
510.95	31960.02
511.12	31938.95
511.30	32168.32
511.47	32505.36
511.64	32278.33
511.82	32287.69
511.99	32055.98
512.17	32465.57
512.34	32423.44
512.51	32559.19
512.69	32636.43
512.86	32856.44
513.04	32905.59
513.21	32830.69
513.38	32744.09
513.56	32795.59
513.73	33060.07
513.90	32996.87
514.08	33022.62
514.25	32741.75
514.43	33036.66
514.60	32921.98
514.77	33612.43
514.95	33425.19
515.12	33504.77
515.29	33504.77
515.47	33724.78
515.64	34096.92
515.81	33596.05
515.99	33752.87
516.16	33434.55
516.33	33670.95
516.51	33895.64
516.68	33380.72
516.85	33170.07
517.03	33771.59
517.20	33956.49
517.37	34419.92
517.54	34349.70
517.72	34143.74
517.89	33476.68
518.06	34220.97
518.24	34445.66
518.41	34132.03
518.58	34611.84
518.75	34431.62
518.93	34466.73
519.10	34841.21
519.27	34923.13
519.45	35278.89
519.62	35173.57
519.79	35419.33
519.96	35461.46
520.14	35653.38
520.31	34843.56
520.48	35501.25
520.65	35571.46
520.83	35969.35
521.00	36002.12
521.17	35721.26
521.34	35995.10
521.52	35854.67
521.69	36058.29
521.86	36098.08
522.03	36327.45
522.20	36278.30
522.38	36231.49
522.55	36198.73
522.72	36215.11
522.89	35952.97
523.07	36800.24
523.24	36573.21
523.41	36704.28
523.58	36767.48
523.75	37085.79
523.92	37291.76
524.10	37254.31
524.27	37476.66
524.44	37343.25
524.61	37156.00
524.78	37804.33
524.96	37139.62
525.13	37343.25
525.30	37984.55
525.47	37853.48
525.64	37600.71
525.81	37127.92
525.98	37359.63
526.16	37202.82
526.33	37352.61
526.50	37390.06
526.67	37085.79
526.84	37289.42
527.01	37469.64
527.18	37436.87
527.36	37977.53
527.53	38529.90
527.70	38457.34
527.87	38380.10
528.04	38211.59
528.21	38630.54
528.38	38656.29
528.55	38719.48
528.72	38663.31
528.89	38527.56
529.07	38899.70
529.24	38455.00
529.41	38492.45
529.58	38703.10
529.75	38789.70
529.92	38817.78
530.09	39035.45
530.26	39030.77
530.43	39215.68
530.60	39028.43
530.77	38920.77
530.94	39435.69
531.11	39328.02
531.28	39051.84
531.46	39686.12
531.63	39601.86
531.80	39519.95
531.97	39454.41
532.14	39164.18
532.31	38541.60
532.48	39522.29
532.65	39484.84
532.82	39599.52
532.99	39835.92
533.16	39447.39
533.33	39363.13
533.50	39690.80
533.67	40016.14
533.84	39941.24
534.01	40217.43
534.18	39800.81
534.35	40285.30
534.52	40289.98
534.69	40395.31
534.86	40233.81
535.03	40584.89
535.20	40748.73
535.37	40872.78
535.54	40800.22
535.71	40360.20
535.88	40601.27
536.05	40467.86
536.22	40685.53
536.38	40608.29
536.55	40531.06
536.72	40659.79
536.89	40453.82
537.06	40694.89
537.23	40952.35
537.40	41097.47
537.57	40856.39
537.74	41425.14
537.91	40980.44
538.08	40957.03
538.25	40982.78
538.42	40938.31
538.59	41251.94
538.75	41141.94
538.92	41427.48
539.09	41717.71
539.26	41127.89
539.43	41097.47
539.60	41275.35
539.77	41174.70
539.94	41612.38
540.11	41525.78
540.28	41303.43
540.44	41188.75
540.61	41717.71
540.78	41317.48
540.95	41448.55
541.12	41429.82
541.29	41663.88
541.46	41757.50
541.62	41558.55
541.79	42181.13
541.96	41336.20
542.13	41993.89
542.30	41773.88
542.47	42454.98
542.63	42068.79
542.80	41949.42
542.97	42480.72
543.14	42686.69
543.31	42763.93
543.48	42478.38
543.64	43103.31
543.81	42618.81
543.98	42857.55
544.15	42555.62
544.32	42981.60
544.48	43061.18
544.65	42866.91
544.82	42958.19
544.99	42674.99
545.16	42632.86
545.32	42693.71
545.49	43129.05
545.66	43037.77
545.83	43199.27
546.00	43047.13
546.16	43423.96
546.33	42808.40
546.50	42857.55
546.67	43056.50
546.83	42953.51
547.00	43278.85
547.17	43138.41
547.34	42899.68
547.50	43414.60
547.67	43035.43
547.84	43746.95
548.00	43772.70
548.17	43892.07
548.34	43416.94
548.51	44194.00
548.67	44044.20
548.84	43922.49
549.01	43636.95
549.18	43454.39
549.34	43901.43
549.51	44086.33
549.68	44079.31
549.84	44189.31
550.01	44257.19
550.18	44093.35
550.34	43981.01
550.51	44163.57
550.68	44175.27
550.84	43550.35
551.01	44137.82
551.18	43962.28
551.34	43878.02
551.51	43742.27
551.68	44086.33
551.84	44212.72
552.01	43718.87
552.18	44091.01
552.34	43615.88
552.51	44151.87
552.68	44521.67
552.84	44554.44
553.01	44311.02
553.18	44308.68
553.34	44163.57
553.51	44161.23
553.67	44479.54
553.84	44828.28
554.01	44746.36
554.17	44964.03
554.34	44889.13
554.51	44521.67
554.67	44636.36
554.84	44648.06
555.00	44687.85
555.17	44231.44
555.33	44631.68
555.50	44428.05
555.67	44659.76
555.83	44655.08
556.00	44591.89
556.16	44847.00
556.33	44928.92
556.50	44753.38
556.66	45020.20
556.83	44437.41
556.99	44605.93
557.16	45055.31
557.32	44935.95
557.49	45354.90
557.65	44734.66
557.82	45139.57
557.98	45067.02
558.15	45118.51
558.32	44968.71
558.48	45251.92
558.65	44966.37
558.81	44830.62
558.98	44905.52
559.14	44912.54
559.31	44758.06
559.47	45366.60
559.64	45357.24
559.80	45352.56
559.97	45642.79
560.13	45001.48
560.30	45497.67
560.46	45280.00
560.63	45336.18
560.79	45284.68
560.96	45495.33
561.12	45425.12
561.29	45312.77
561.45	44957.01
561.61	45202.77
561.78	45244.90
561.94	45305.75
562.11	45518.74
562.27	45710.66
562.44	45301.07
562.60	45558.53
562.77	45834.71
562.93	45495.33
563.10	45818.33
563.26	45385.33
563.42	45394.69
563.59	45315.11
563.75	45284.68
563.92	45780.88
564.08	46014.93
564.24	45748.11
564.41	45841.73
564.57	45628.74
564.74	45586.61
564.90	46274.73
565.07	45752.79
565.23	45668.53
565.39	45595.98
565.56	45591.30
565.72	45399.37
565.88	45422.78
566.05	45563.21
566.21	45481.29
566.38	45904.93
566.54	45724.71
566.70	45710.66
566.87	45968.12
567.03	45895.56
567.19	46120.26
567.36	45518.74
567.52	45535.12
567.68	45755.13
567.85	45471.93
568.01	45968.12
568.17	45235.53
568.34	45572.57
568.50	45961.10
568.66	45446.18
568.83	45930.67
568.99	45769.18
569.15	46047.70
569.32	45965.78
569.48	45958.76
569.64	45909.61
569.81	45804.28
569.97	45883.86
570.13	45897.91
570.30	45387.67
570.46	46085.15
570.62	45132.55
570.78	45785.56
570.95	45663.85
571.11	45830.03
571.27	45436.82
571.43	45509.38
571.60	45970.46
571.76	45621.72
571.92	46012.59
572.09	45956.42
572.25	46054.72
572.41	46213.88
572.57	46302.82
572.74	46384.74
572.90	45727.05
573.06	46246.65
573.22	46108.55
573.38	46138.98
573.55	45933.01
573.71	45989.19
573.87	46211.54
574.03	45579.59
574.20	46220.90
574.36	46169.41
574.52	45778.54
574.68	45996.21
574.84	46335.59
575.01	46003.23
575.17	46094.51
575.33	46220.90
575.49	45801.94
575.65	46176.43
575.82	46469.00
575.98	45794.92
576.14	46405.80
576.30	46344.95
576.46	46059.40
576.62	45911.95
576.79	46052.38
576.95	46103.87
577.11	45862.80
577.27	46307.50
577.43	46337.93
577.59	45993.87
577.75	46157.70
577.92	45518.74
578.08	45624.06
578.24	45916.63
578.40	45862.80
578.56	46185.79
578.72	45942.38
578.88	46803.69
579.04	46358.99
579.21	46398.78
579.37	46487.72
579.53	46323.88
579.69	45738.75
579.85	45848.75
580.01	46190.47
580.17	46248.99
580.33	45930.67
580.49	45902.59
580.65	46443.25
580.82	46520.49
580.98	45900.25
581.14	46106.21
581.30	46284.09
581.46	46300.48
581.62	46117.92
581.78	46239.62
581.94	46040.68
582.10	46241.96
582.26	46335.59
582.42	46136.64
582.58	45977.48
582.74	46005.57
582.90	46178.77
583.06	46305.16
583.22	46031.32
583.38	46560.28
583.54	46216.22
583.70	46267.71
583.86	46274.73
584.02	45907.27
584.18	46033.66
584.34	46295.80
584.50	46204.52
584.66	45485.97
584.82	46469.00
584.98	46457.29
585.14	46281.75
585.30	46052.38
585.46	46499.42
585.62	45804.28
585.78	46248.99
585.94	45794.92
586.10	46017.27
586.26	45881.52
586.42	46436.23
586.58	46368.35
586.74	46197.49
586.90	46162.39
587.06	46569.64
587.22	46148.34
587.38	45579.59
587.54	46361.33
587.70	46258.35
587.86	46541.55
588.02	46019.61
588.18	46181.11
588.34	46131.96
588.49	45574.91
588.65	45521.08
588.81	45593.64
588.97	45617.04
589.13	46099.19
589.29	46078.13
589.45	46150.68
589.61	45823.01
589.77	46721.77
589.93	45991.53
