SpectraSuite Data File
++++++++++++++++++++++++++++++++++++
Date: Fri Oct 25 11:33:09 EDT 2013
User: price-jones
Dark Spectrum Present: No
Reference Spectrum Present: No
Number of Sampled Component Spectra: 1
Spectrometers: USB2+H05261
Integration Time (usec): 100000 (USB2+H05261)
Spectra Averaged: 1 (USB2+H05261)
Boxcar Smoothing: 0 (USB2+H05261)
Correct for Electrical Dark: No (USB2+H05261)
Strobe/Lamp Enabled: No (USB2+H05261)
Correct for Detector Non-linearity: No (USB2+H05261)
Correct for Stray Light: No (USB2+H05261)
Number of Pixels in Processed Spectrum: 2048
>>>>>Begin Processed Spectral Data<<<<<
365.73	273.84
365.92	273.84
366.12	273.84
366.32	170.86
366.52	187.24
366.72	271.50
366.91	159.16
367.11	205.97
367.31	198.95
367.51	163.84
367.70	196.60
367.90	175.54
368.10	91.28
368.30	168.52
368.49	149.79
368.69	196.60
368.89	227.03
369.09	163.84
369.28	217.67
369.48	161.50
369.68	236.39
369.87	220.01
370.07	175.54
370.27	250.44
370.47	285.55
370.66	451.72
370.86	470.45
371.06	554.71
371.25	615.56
371.45	582.79
371.65	594.50
371.84	540.66
372.04	540.66
372.24	599.18
372.44	540.66
372.63	589.82
372.83	573.43
373.03	631.94
373.22	599.18
373.42	664.71
373.62	627.26
373.81	629.60
374.01	629.60
374.21	596.84
374.40	648.33
374.60	634.29
374.79	699.82
374.99	685.78
375.19	645.99
375.38	732.59
375.58	631.94
375.78	695.14
375.97	631.94
376.17	667.05
376.37	613.22
376.56	699.82
376.76	608.54
376.95	723.23
377.15	667.05
377.35	716.20
377.54	734.93
377.74	709.18
377.93	699.82
378.13	685.78
378.33	720.88
378.52	795.78
378.72	748.97
378.91	641.31
379.11	734.93
379.31	704.50
379.50	660.03
379.70	748.97
379.89	737.27
380.09	709.18
380.28	741.95
380.48	711.52
380.68	760.67
380.87	774.72
381.07	734.93
381.26	765.36
381.46	744.29
381.65	744.29
381.85	809.83
382.04	723.23
382.24	753.65
382.43	819.19
382.63	746.63
382.83	748.97
383.02	763.01
383.22	741.95
383.41	725.57
383.61	851.96
383.80	884.72
384.00	753.65
384.19	807.48
384.39	812.17
384.58	894.08
384.78	727.91
384.97	800.46
385.17	870.68
385.36	863.66
385.56	840.25
385.75	830.89
385.95	882.38
386.14	868.34
386.34	891.74
386.53	851.96
386.72	873.02
386.92	840.25
387.11	966.64
387.31	868.34
387.50	877.70
387.70	910.47
387.89	973.66
388.09	875.36
388.28	870.68
388.48	887.06
388.67	917.49
388.86	908.13
389.06	924.51
389.25	950.26
389.45	905.79
389.64	952.60
389.84	1022.81
390.03	997.07
390.22	983.02
390.42	959.62
390.61	924.51
390.81	940.90
391.00	1029.84
391.19	1083.67
391.39	1095.37
391.58	966.64
391.78	999.41
391.97	997.07
392.16	1015.79
392.36	1090.69
392.55	1050.90
392.75	1041.54
392.94	1069.62
393.13	1100.05
393.33	1050.90
393.52	1118.78
393.71	1184.31
393.91	1078.99
394.10	1062.60
394.29	1022.81
394.49	1137.50
394.68	1153.88
394.88	1142.18
395.07	1114.10
395.26	1221.76
395.46	1109.41
395.65	1111.75
395.84	1188.99
396.04	1247.51
396.23	1273.25
396.42	1188.99
396.62	1242.82
396.81	1254.53
397.00	1259.21
397.19	1280.27
397.39	1254.53
397.58	1163.25
397.77	1228.78
397.97	1245.16
398.16	1242.82
398.35	1254.53
398.55	1280.27
398.74	1369.21
398.93	1357.51
399.12	1306.02
399.32	1294.32
399.51	1341.13
399.70	1329.42
399.90	1268.57
400.09	1409.00
400.28	1394.96
400.47	1474.54
400.67	1437.09
400.86	1357.51
401.05	1385.60
401.24	1441.77
401.44	1451.13
401.63	1493.26
401.82	1526.03
402.01	1446.45
402.21	1430.07
402.40	1474.54
402.59	1509.65
402.78	1497.94
402.97	1497.94
403.17	1624.33
403.36	1530.71
403.55	1682.85
403.74	1554.12
403.93	1603.27
404.13	1633.69
404.32	1621.99
404.51	1675.82
404.70	1544.75
404.89	1640.72
405.09	1727.32
405.28	1748.38
405.47	1685.19
405.66	1661.78
405.85	1680.50
406.05	1781.15
406.24	1715.61
406.43	1776.47
406.62	1820.94
406.81	1830.30
407.00	1729.66
407.20	1788.17
407.39	1837.32
407.58	1851.36
407.77	1921.58
407.96	1900.52
408.15	1963.71
408.34	1872.43
408.54	1968.39
408.73	2017.54
408.92	1937.96
409.11	2001.16
409.30	1975.41
409.49	2015.20
409.68	2012.86
409.87	1989.46
410.07	2005.84
410.26	2008.18
410.45	2115.84
410.64	2064.35
410.83	2303.09
411.02	2090.10
411.21	2174.36
411.40	2143.93
411.59	2289.04
411.78	2146.27
411.98	2165.00
412.17	2216.49
412.36	2169.68
412.55	2279.68
412.74	2396.71
412.93	2415.43
413.12	2300.75
413.31	2455.22
413.50	2438.84
413.69	2375.64
413.88	2553.52
414.07	2466.92
414.26	2513.74
414.45	2544.16
414.64	2642.46
414.83	2619.06
415.02	2560.55
415.22	2569.91
415.41	2787.58
415.60	2675.23
415.79	2677.57
415.98	2766.51
416.17	2799.28
416.36	2841.41
416.55	2745.45
416.74	2794.60
416.93	2787.58
417.12	2850.77
417.31	2876.52
417.50	2939.71
417.69	2860.13
417.88	2972.48
418.07	2855.45
418.26	2937.37
418.45	2913.97
418.64	3035.67
418.83	3101.21
419.02	3075.46
419.21	3098.87
419.39	3007.59
419.58	3098.87
419.77	3199.51
419.96	3148.02
420.15	3232.28
420.34	3208.87
420.53	3183.13
420.72	3375.05
420.91	3215.90
421.10	3232.28
421.29	3265.05
421.48	3253.34
421.67	3325.90
421.86	3344.63
422.05	3466.33
422.24	3435.91
422.43	3536.55
422.61	3253.34
422.80	3356.33
422.99	3377.39
423.18	3468.67
423.37	3604.42
423.56	3368.03
423.75	3478.04
423.94	3337.60
424.13	3115.25
424.32	3346.97
424.50	3438.25
424.69	3632.51
424.88	3534.21
425.07	3342.28
425.26	3499.10
425.45	3473.36
425.64	3473.36
425.83	3536.55
426.01	3597.40
426.20	3585.70
426.39	3543.57
426.58	3438.25
426.77	3494.42
426.96	3623.15
427.15	3566.98
427.33	3597.40
427.52	3550.59
427.71	3653.58
427.90	3492.08
428.09	3578.68
428.28	3581.02
428.46	3674.64
428.65	3803.37
428.84	3812.73
429.03	3955.51
429.22	3796.35
429.40	3838.48
429.59	3824.44
429.78	3723.79
429.97	3669.96
430.16	3789.33
430.34	4007.00
430.53	3747.20
430.72	3904.01
430.91	3845.50
431.10	3817.41
431.28	3927.42
431.47	4028.06
431.66	4058.49
431.85	4086.58
432.03	4046.79
432.22	4238.71
432.41	4135.73
432.60	4147.43
432.79	4084.23
432.97	4238.71
433.16	4147.43
433.35	4315.95
433.54	4344.03
433.72	4264.46
433.91	4329.99
434.10	4278.50
434.28	4154.45
434.47	4198.92
434.66	4348.72
434.85	4348.72
435.03	4400.21
435.22	4133.39
435.41	4564.04
435.59	4435.32
435.78	4418.93
435.97	4528.94
436.16	4465.74
436.34	4348.72
436.53	4559.36
436.72	4575.75
436.90	4542.98
437.09	4491.49
437.28	4517.23
437.46	4500.85
437.65	4669.37
437.84	4706.82
438.02	4676.39
438.21	4650.64
438.40	4713.84
438.58	4645.96
438.77	4748.95
438.96	4716.18
439.14	4840.23
439.33	4945.55
439.52	5001.72
439.70	4929.17
439.89	5036.83
440.08	5053.22
440.26	5242.80
440.45	4968.96
440.63	5170.24
440.82	5268.55
441.01	5184.29
441.19	5270.89
441.38	5177.26
441.57	5366.85
441.75	5303.65
441.94	5416.00
442.12	5364.51
442.31	5530.69
442.50	5558.77
442.68	5542.39
442.87	5516.64
443.05	5547.07
443.24	5715.59
443.43	5582.18
443.61	5650.05
443.80	5593.88
443.98	5558.77
444.17	5397.28
444.35	5631.33
444.54	5717.93
444.73	5614.95
444.91	5699.20
445.10	5687.50
445.28	5654.73
445.47	5729.63
445.65	5762.40
445.84	5893.47
446.02	5774.10
446.21	5673.46
446.39	5699.20
446.58	5834.96
446.77	5804.53
446.95	5628.99
447.14	5797.51
447.32	5921.56
447.51	5888.79
447.69	5900.49
447.88	5827.93
448.06	5877.09
448.25	5685.16
448.43	5947.30
448.62	5841.98
448.80	5841.98
448.99	5902.83
449.17	6010.50
449.36	5668.78
449.54	5961.34
449.73	6120.50
449.91	6122.84
450.10	6127.52
450.28	6052.63
450.46	6274.98
450.65	6270.30
450.83	6214.12
451.02	6197.74
451.20	6176.67
451.39	6251.57
451.57	6134.54
451.76	6200.08
451.94	6394.34
452.13	6361.58
452.31	6408.39
452.49	6274.98
452.68	6338.17
452.86	6263.27
453.05	6370.94
453.23	6534.78
453.42	6565.20
453.60	6389.66
453.78	6490.31
453.97	6427.11
454.15	6590.95
454.34	6502.01
454.52	6602.65
454.70	6478.60
454.89	6670.53
455.07	6661.16
455.26	6890.54
455.44	6813.30
455.62	6696.27
455.81	6787.55
455.99	6719.68
456.17	6885.86
456.36	6778.19
456.54	6888.20
456.73	6967.77
456.91	6974.80
457.09	7087.14
457.28	7000.54
457.46	7009.90
457.64	7162.04
457.83	7073.10
458.01	7084.80
458.19	7220.55
458.38	7045.01
458.56	7309.49
458.74	7185.44
458.93	7279.07
459.11	7250.98
459.29	7295.45
459.48	7281.41
459.66	7325.88
459.84	7335.24
460.03	7644.19
460.21	7517.80
460.39	7398.43
460.57	7456.95
460.76	7737.81
460.94	7552.91
461.12	7466.31
461.31	7424.18
461.49	7639.51
461.67	7496.74
461.85	7903.99
462.04	7562.27
462.22	8011.65
462.40	7918.03
462.59	7754.19
462.77	7824.41
462.95	7719.09
463.13	7859.52
463.32	7878.24
463.50	8035.06
463.68	7985.91
463.86	7868.88
464.05	7978.89
464.23	8210.60
464.41	8168.47
464.59	7866.54
464.78	8032.72
464.96	8079.53
465.14	8032.72
465.32	8131.02
465.50	8421.25
465.69	8262.09
465.87	8301.88
466.05	8180.17
466.23	8175.49
466.41	8351.03
466.60	8203.58
466.78	8159.11
466.96	8294.86
467.14	8292.52
467.32	8362.73
467.51	8491.46
467.69	8234.00
467.87	8468.06
468.05	8514.87
468.23	8365.07
468.41	8439.97
468.60	8538.27
468.78	8643.60
468.96	8531.25
469.14	8627.21
469.32	8709.13
469.50	8571.04
469.69	8676.37
469.87	8741.90
470.05	8863.61
470.23	8997.02
470.41	8800.41
470.59	8945.53
470.77	8872.97
470.95	8788.71
471.14	9048.51
471.32	8952.55
471.50	9118.73
471.68	9165.54
471.86	9074.26
472.04	9359.80
472.22	9441.72
472.40	9352.78
472.58	9167.88
472.77	9310.65
472.95	9603.22
473.13	9666.41
473.31	9439.38
473.49	9542.36
473.67	9720.24
473.85	9650.03
474.03	9823.23
474.21	9778.76
474.39	9856.00
474.57	9783.44
474.75	10024.51
474.93	9987.07
475.12	10209.42
475.30	10312.40
475.48	10092.39
475.66	10195.37
475.84	10104.09
476.02	10291.34
476.20	10284.31
476.38	10534.75
476.56	10649.44
476.74	10544.11
476.92	10546.45
477.10	10436.45
477.28	10724.33
477.46	10766.46
477.64	10878.81
477.82	11087.12
478.00	11330.53
478.18	11318.83
478.36	11318.83
478.54	11456.92
478.72	11475.65
478.90	11625.44
479.08	11758.85
479.26	11838.43
479.44	11662.89
479.62	11793.96
479.80	12046.74
479.98	12114.61
480.16	12351.01
480.34	12060.78
480.52	12327.60
480.70	12262.07
480.88	12336.96
481.06	12524.21
481.24	12510.16
481.41	12931.46
481.59	13107.00
481.77	13018.06
481.95	12875.29
482.13	13139.77
482.31	13092.96
482.49	13401.91
482.67	13474.46
482.85	13626.60
483.03	13795.12
483.21	13689.79
483.39	13706.18
483.57	13926.19
483.74	14101.73
483.92	14108.75
484.10	14368.55
484.28	14492.60
484.46	14679.84
484.64	14829.63
484.82	14466.85
485.00	14817.93
485.18	15089.43
485.35	15087.09
485.53	15236.89
485.71	15204.12
485.89	15637.12
486.07	15641.80
486.25	15744.78
486.43	15520.09
486.61	15875.85
486.78	15594.99
486.96	16077.14
487.14	16222.25
487.32	16248.00
487.50	16615.46
487.68	16690.36
487.85	16748.87
488.03	16868.24
488.21	17256.77
488.39	17202.94
488.57	17315.28
488.75	17359.75
488.92	17600.83
489.10	17797.43
489.28	17862.97
489.46	17848.93
489.64	18052.55
489.81	18284.26
489.99	18031.49
490.17	18216.39
490.35	18310.01
490.53	18775.78
490.70	18703.22
490.88	18806.20
491.06	18693.86
491.24	18953.66
491.41	19014.51
491.59	19262.61
491.77	19391.34
491.95	19789.23
492.13	19793.91
492.30	19981.15
492.48	19990.52
492.66	19939.02
492.84	19756.46
493.01	20105.20
493.19	20357.98
493.37	20596.71
493.54	20697.36
493.72	20903.32
493.90	20844.81
494.08	21301.22
494.25	21221.64
494.43	21373.77
494.61	21392.50
494.79	21310.58
494.96	21357.39
495.14	21783.37
495.32	22036.14
495.49	21579.74
495.67	22202.32
495.85	22209.34
496.02	22649.36
496.20	22567.45
496.38	22347.44
496.55	22710.22
496.73	23183.01
496.91	22799.16
497.09	23321.10
497.26	23007.47
497.44	23199.39
497.62	23419.40
497.79	23742.39
497.97	23384.29
498.14	23852.40
498.32	23892.19
498.50	23917.93
498.67	24584.99
498.85	24418.81
499.03	24304.12
499.20	24191.78
499.38	24444.56
499.56	24521.79
499.73	24788.61
499.91	24973.52
500.08	24610.73
500.26	25006.28
500.44	25102.25
500.61	25006.28
500.79	25238.00
500.97	25343.32
501.14	25495.46
501.32	25598.44
501.49	25701.42
501.67	25329.28
501.84	26012.71
502.02	25818.45
502.20	25628.87
502.37	25949.52
502.55	26080.59
502.72	26221.02
502.90	26143.78
503.07	26078.25
503.25	26780.41
503.43	26457.42
503.60	26625.93
503.78	26719.56
503.95	26707.85
504.13	26698.49
504.30	27087.02
504.48	26951.27
504.65	27075.32
504.83	27215.75
505.01	27065.96
505.18	27435.76
505.36	27615.98
505.53	27438.10
505.71	27828.97
505.88	27866.42
506.06	27782.16
506.23	27847.69
506.41	27789.18
506.58	27735.35
506.76	28039.62
506.93	28212.82
507.11	28854.12
507.28	28531.13
507.46	28657.52
507.63	28465.60
507.81	28734.76
507.98	28627.09
508.16	28847.10
508.33	29256.70
508.50	28996.90
508.68	28992.22
508.85	29219.25
509.03	29373.72
509.20	29263.72
509.38	29558.63
509.55	29593.73
509.73	29654.59
509.90	29776.30
510.08	29645.23
510.25	29898.00
510.42	30050.14
510.60	30132.06
510.77	29944.81
510.95	30724.21
511.12	30342.70
511.30	30391.86
511.47	30354.41
511.64	30096.95
511.82	30841.24
511.99	30567.40
512.17	30951.24
512.34	30684.42
512.51	31604.25
512.69	31182.96
512.86	31402.97
513.04	31449.78
513.21	31084.65
513.38	31042.53
513.56	31468.50
513.73	31197.00
513.90	31770.43
514.08	31594.89
514.25	31475.52
514.43	31842.99
514.60	31983.42
514.77	31974.06
514.95	32151.94
515.12	31686.17
515.29	31852.35
515.47	32182.37
515.64	32474.93
515.81	32357.91
515.99	32472.59
516.16	32460.89
516.33	32493.66
516.51	33202.84
516.68	32594.30
516.85	33102.20
517.03	33034.32
517.20	33132.62
517.37	33170.07
517.54	33081.13
517.72	32905.59
517.89	33280.08
518.06	33331.57
518.24	33563.28
518.41	33170.07
518.58	33549.24
518.75	33296.46
518.93	33787.97
519.10	33532.86
519.27	33741.16
519.45	33619.46
519.62	34232.68
519.79	34380.13
519.96	33804.36
520.14	34452.69
520.31	33879.25
520.48	34213.95
520.65	34637.59
520.83	34054.79
521.00	34363.75
521.17	34429.28
521.34	34822.49
521.52	34953.56
521.69	34497.16
521.86	35358.47
522.03	34731.21
522.20	35316.34
522.38	35192.30
522.55	35232.08
522.72	35204.00
522.89	35541.03
523.07	35363.15
523.24	35725.94
523.41	35889.77
523.58	35482.52
523.75	35889.77
523.92	35491.88
524.10	36226.81
524.27	35992.76
524.44	36077.02
524.61	35997.44
524.78	36275.96
524.96	36086.38
525.13	36474.91
525.30	36659.81
525.47	36325.11
525.64	36676.19
525.81	36453.84
525.98	37329.20
526.16	36535.76
526.33	36531.08
526.50	36795.56
526.67	36776.84
526.84	36652.79
527.01	36966.42
527.18	37055.36
527.36	37310.48
527.53	37446.23
527.70	37570.28
527.87	37179.41
528.04	37448.57
528.21	37687.31
528.38	37284.73
528.55	37986.89
528.72	37380.70
528.89	37214.52
529.07	37516.45
529.24	37495.38
529.41	37907.32
529.58	37745.82
529.75	38129.67
529.92	37666.24
530.09	37912.00
530.26	37916.68
530.43	38155.41
530.60	37893.27
530.77	38422.23
530.94	38087.54
531.11	38157.75
531.28	38415.21
531.46	38396.49
531.63	38553.30
531.80	38562.67
531.97	38733.53
532.14	38862.26
532.31	38691.40
532.48	39009.71
532.65	39014.39
532.82	39199.29
532.99	39199.29
533.16	38780.34
533.33	39234.40
533.50	39756.34
533.67	38918.43
533.84	38855.23
534.01	39498.88
534.18	39342.06
534.35	39597.18
534.52	39522.29
534.69	40004.44
534.86	39976.35
535.03	39679.10
535.20	39990.39
535.37	39679.10
535.54	39992.73
535.71	40259.55
535.88	40388.28
536.05	39882.73
536.22	39976.35
536.38	39831.24
536.55	39999.76
536.72	40147.21
536.89	40198.70
537.06	40107.42
537.23	40491.27
537.40	40030.18
537.57	40055.93
537.74	40486.59
537.91	40620.00
538.08	40484.25
538.25	40336.79
538.42	40673.83
538.59	41289.39
538.75	40500.63
538.92	40884.48
539.09	40989.80
539.26	40598.93
539.43	40926.61
539.60	40891.50
539.77	40814.26
539.94	40957.03
540.11	41067.04
540.28	41364.29
540.44	41631.11
540.61	41427.48
540.78	41216.83
540.95	41067.04
541.12	40996.82
541.29	41497.70
541.46	41041.29
541.62	41359.61
541.79	42234.97
541.96	41139.60
542.13	41139.60
542.30	41874.52
542.47	41741.11
542.63	41516.42
542.80	42078.15
542.97	42483.06
543.14	42452.64
543.31	42155.39
543.48	42319.23
543.64	42817.76
543.81	42674.99
543.98	42272.42
544.15	42206.88
544.32	43019.05
544.48	42960.53
544.65	42408.17
544.82	42368.38
544.99	42651.58
545.16	42911.38
545.32	42986.28
545.49	42813.08
545.66	42981.60
545.83	42770.95
546.00	43175.86
546.16	43107.99
546.33	42960.53
546.50	42906.70
546.67	43098.62
546.83	42897.34
547.00	43255.44
547.17	43313.95
547.34	43180.54
547.50	43138.41
547.67	43552.69
547.84	43948.24
548.00	43398.21
548.17	43868.66
548.34	43384.17
548.51	43597.16
548.67	43438.00
548.84	43545.67
549.01	43683.76
549.18	43676.74
549.34	43976.33
549.51	44119.10
549.68	43662.69
549.84	44034.84
550.01	44350.81
550.18	43793.76
550.34	44006.75
550.51	43824.19
550.68	44341.45
550.84	43688.44
551.01	44734.66
551.18	44617.63
551.34	44308.68
551.51	44315.70
551.68	44025.48
551.84	44020.80
552.01	44016.11
552.18	44479.54
552.34	44161.23
552.51	44266.55
552.68	44189.31
552.84	44540.39
553.01	44748.70
553.18	44208.04
553.34	44526.35
553.51	44753.38
553.67	44498.26
553.84	44935.95
554.01	44844.66
554.17	45055.31
554.34	44788.49
554.51	45062.33
554.67	45214.47
554.84	44882.11
555.00	45102.12
555.17	45041.27
555.33	44928.92
555.50	45078.72
555.67	45319.79
555.83	45422.78
556.00	45165.32
556.16	45872.16
556.33	45478.95
556.50	44837.64
556.66	45226.17
556.83	44954.67
556.99	45460.23
557.16	45951.74
557.32	45476.61
557.49	45837.05
557.65	45249.58
557.82	45469.59
557.98	45710.66
558.15	45478.95
558.32	46073.45
558.48	45397.03
558.65	45755.13
558.81	45839.39
558.98	45542.14
559.14	45633.42
559.31	45923.65
559.47	45748.11
559.64	45518.74
559.80	45823.01
559.97	45818.33
560.13	45642.79
560.30	45790.24
560.46	46075.79
560.63	46241.96
560.79	46157.70
560.96	46433.89
561.12	46169.41
561.29	45984.51
561.45	46230.26
561.61	45900.25
561.78	46309.84
561.94	45720.02
562.11	45874.50
562.27	45923.65
562.44	46209.20
562.60	46124.94
562.77	46480.70
562.93	45762.15
563.10	46691.35
563.26	45872.16
563.42	46653.90
563.59	46309.84
563.75	46333.24
563.92	46721.77
564.08	46932.42
564.24	46689.01
564.41	46307.50
564.57	46618.79
564.74	46295.80
564.90	46344.95
565.07	46075.79
565.23	46726.46
565.39	46609.43
565.56	46597.73
565.72	46642.20
565.88	46490.06
566.05	47196.90
566.21	46326.22
566.38	46932.42
566.54	46763.90
566.70	46796.67
566.87	46696.03
567.03	46656.24
567.19	47056.47
567.36	46859.87
567.52	46291.12
567.68	47276.48
567.85	46768.58
568.01	47320.95
568.17	46492.40
568.34	46759.22
568.50	46941.78
568.66	46848.16
568.83	46937.10
568.99	46880.93
569.15	46878.59
569.32	46911.36
569.48	46759.22
569.64	47641.60
569.81	47084.56
569.97	47325.63
570.13	47079.88
570.30	46845.82
570.46	46885.61
570.62	47435.64
570.78	47269.46
570.95	47222.65
571.11	47159.45
571.27	47084.56
571.43	46944.12
571.60	47150.09
571.76	46766.24
571.92	46784.97
572.09	46808.37
572.25	46869.23
572.41	46862.21
572.57	47091.58
572.74	47477.77
572.90	47178.18
573.06	47295.21
573.22	47044.77
573.38	47608.84
573.55	47508.19
573.71	47585.43
573.87	47002.64
574.03	47384.15
574.20	47545.64
574.36	47274.14
574.52	47110.30
574.68	47487.13
574.84	47613.52
575.01	47423.93
575.17	47648.63
575.33	47674.37
575.49	47288.18
575.65	47304.57
575.82	46869.23
575.98	47367.76
576.14	47636.92
576.30	47531.60
576.46	47370.10
576.62	47421.59
576.79	47367.76
576.95	47386.49
577.11	47229.67
577.27	47082.22
577.43	47676.71
577.59	47224.99
577.75	47414.57
577.92	47014.34
578.08	47498.83
578.24	47988.00
578.40	47772.67
578.56	47639.26
578.72	47615.86
578.88	47346.70
579.04	47770.33
579.21	47910.77
579.37	47765.65
579.53	47920.13
579.69	47175.84
579.85	47367.76
580.01	47838.21
580.17	47166.48
580.33	47751.61
580.49	47487.13
580.65	47779.70
580.82	47377.12
580.98	47709.48
581.14	47592.45
581.30	47793.74
581.46	47777.36
581.62	47653.31
581.78	47592.45
581.94	47756.29
582.10	47475.43
582.26	47599.47
582.42	47786.72
582.58	47805.44
582.74	47683.73
582.90	47697.78
583.06	47737.57
583.22	47594.79
583.38	47798.42
583.54	48074.60
583.70	48098.01
583.86	47983.32
584.02	47421.59
584.18	48140.14
584.34	47997.37
584.50	47775.02
584.66	47866.30
584.82	47873.32
584.98	48161.20
585.14	48292.27
585.30	47718.84
585.46	47578.41
585.62	47697.78
585.78	47688.42
585.94	47538.62
586.10	47669.69
586.26	48109.71
586.42	47744.59
586.58	48016.09
586.74	47711.82
586.90	47665.01
587.06	47988.00
587.22	48018.43
587.38	47746.93
587.54	48193.97
587.70	48266.53
587.86	47611.18
588.02	47690.76
588.18	47861.61
588.34	47767.99
588.49	48142.48
588.65	47990.34
588.81	48357.81
588.97	48048.86
589.13	47763.31
589.29	47990.34
589.45	48149.50
589.61	48013.75
589.77	48322.70
589.93	48151.84
