SpectraSuite Data File
++++++++++++++++++++++++++++++++++++
Date: Fri Oct 25 10:43:13 EDT 2013
User: price-jones
Dark Spectrum Present: No
Reference Spectrum Present: No
Number of Sampled Component Spectra: 1
Spectrometers: USB2+H05261
Integration Time (usec): 100000 (USB2+H05261)
Spectra Averaged: 1 (USB2+H05261)
Boxcar Smoothing: 0 (USB2+H05261)
Correct for Electrical Dark: No (USB2+H05261)
Strobe/Lamp Enabled: No (USB2+H05261)
Correct for Detector Non-linearity: No (USB2+H05261)
Correct for Stray Light: No (USB2+H05261)
Number of Pixels in Processed Spectrum: 2048
>>>>>Begin Processed Spectral Data<<<<<
365.73	79.58
365.92	79.58
366.12	79.58
366.32	21.06
366.52	56.17
366.72	49.15
366.91	0.00
367.11	9.36
367.31	0.00
367.51	23.41
367.70	0.00
367.90	14.04
368.10	81.92
368.30	16.38
368.49	0.00
368.69	37.45
368.89	32.77
369.09	0.00
369.28	93.62
369.48	117.03
369.68	67.88
369.87	72.56
370.07	11.70
370.27	142.77
370.47	138.09
370.66	402.57
370.86	447.04
371.06	414.27
371.25	505.56
371.45	428.32
371.65	496.19
371.84	418.96
372.04	435.34
372.24	486.83
372.44	465.77
372.63	505.56
372.83	491.51
373.03	482.15
373.22	510.24
373.42	470.45
373.62	528.96
373.81	514.92
374.01	519.60
374.21	552.37
374.40	587.47
374.60	580.45
374.79	491.51
374.99	540.66
375.19	599.18
375.38	699.82
375.58	514.92
375.78	585.13
375.97	615.56
376.17	643.65
376.37	573.43
376.56	521.94
376.76	566.41
376.95	519.60
377.15	634.29
377.35	655.35
377.54	713.86
377.74	608.54
377.93	634.29
378.13	662.37
378.33	697.48
378.52	685.78
378.72	676.41
378.91	664.71
379.11	638.97
379.31	573.43
379.50	685.78
379.70	667.05
379.89	674.07
380.09	608.54
380.28	695.14
380.48	739.61
380.68	763.01
380.87	643.65
381.07	741.95
381.26	758.33
381.46	660.03
381.65	716.20
381.85	720.88
382.04	671.73
382.24	711.52
382.43	685.78
382.63	681.10
382.83	800.46
383.02	730.25
383.22	744.29
383.41	692.80
383.61	669.39
383.80	802.80
384.00	753.65
384.19	840.25
384.39	875.36
384.58	751.31
384.78	840.25
384.97	849.61
385.17	800.46
385.36	795.78
385.56	746.63
385.75	788.76
385.95	795.78
386.14	784.08
386.34	784.08
386.53	814.51
386.72	781.74
386.92	814.51
387.11	835.57
387.31	826.21
387.50	901.11
387.70	903.45
387.89	858.98
388.09	898.77
388.28	889.40
388.48	861.32
388.67	915.15
388.86	880.04
389.06	964.30
389.25	997.07
389.45	968.98
389.64	929.19
389.84	954.94
390.03	966.64
390.22	1055.58
390.42	952.60
390.61	983.02
390.81	1020.47
391.00	1032.18
391.19	1093.03
391.39	978.34
391.58	1093.03
391.78	1053.24
391.97	1027.50
392.16	1048.56
392.36	1076.65
392.55	1020.47
392.75	1055.58
392.94	987.71
393.13	901.11
393.33	1018.13
393.52	1001.75
393.71	1011.11
393.91	1090.69
394.10	994.73
394.29	1114.10
394.49	1158.57
394.68	1217.08
394.88	1160.91
395.07	1233.46
395.26	1203.04
395.46	1228.78
395.65	1219.42
395.84	1221.76
396.04	1212.40
396.23	1214.74
396.42	1191.33
396.62	1025.15
396.81	1196.01
397.00	1261.55
397.19	1256.87
397.39	1299.00
397.58	1409.00
397.77	1369.21
397.97	1392.62
398.16	1434.75
398.35	1448.79
398.55	1493.26
398.74	1427.73
398.93	1493.26
399.12	1406.66
399.32	1416.02
399.51	1500.28
399.70	1516.67
399.90	1582.20
400.09	1605.61
400.28	1554.12
400.47	1610.29
400.67	1650.08
400.86	1652.42
401.05	1619.65
401.24	1715.61
401.44	1668.80
401.63	1579.86
401.82	1652.42
402.01	1727.32
402.21	1727.32
402.40	1621.99
402.59	1689.87
402.78	1781.15
402.97	1727.32
403.17	1640.72
403.36	1769.44
403.55	1809.23
403.74	1863.07
403.93	1867.75
404.13	1863.07
404.32	1907.54
404.51	1884.13
404.70	1806.89
404.89	1849.02
405.09	1991.80
405.28	1923.92
405.47	1860.73
405.66	1956.69
405.85	2047.97
406.05	2012.86
406.24	1980.09
406.43	2050.31
406.62	2113.50
406.81	2087.76
407.00	1940.30
407.20	1996.48
407.39	2083.08
407.58	2181.38
407.77	2153.29
407.96	2207.13
408.15	2176.70
408.34	2153.29
408.54	2195.42
408.73	2284.36
408.92	2183.72
409.11	2345.22
409.30	2270.32
409.49	2193.08
409.68	2225.85
409.87	2230.53
410.07	2370.96
410.26	2410.75
410.45	2438.84
410.64	2324.15
410.83	2424.80
411.02	2513.74
411.21	2600.34
411.40	2504.37
411.59	2616.72
411.78	2661.19
411.98	2581.61
412.17	2705.66
412.36	2782.90
412.55	2654.17
412.74	2682.25
412.93	2724.38
413.12	2729.06
413.31	2785.24
413.50	2717.36
413.69	2815.66
413.88	2956.10
414.07	2827.37
414.26	2974.82
414.45	3028.65
414.64	3012.27
414.83	2944.39
415.02	3007.59
415.22	3014.61
415.41	3061.42
415.60	3176.11
415.79	3159.72
415.98	3269.73
416.17	3150.36
416.36	3084.83
416.55	3171.43
416.74	3218.24
416.93	3173.77
417.12	3262.71
417.31	3389.10
417.50	3253.34
417.69	3454.63
417.88	3349.31
418.07	3419.52
418.26	3353.99
418.45	3288.45
418.64	3463.99
418.83	3396.12
419.02	3510.80
419.21	3637.19
419.39	3534.21
419.58	3379.73
419.77	3454.63
419.96	3660.60
420.15	3747.20
420.34	3812.73
420.53	3665.28
420.72	3779.97
420.91	3854.86
421.10	3922.74
421.29	3880.61
421.48	3667.62
421.67	3950.82
421.86	3751.88
422.05	3815.07
422.24	3779.97
422.43	3796.35
422.61	3693.37
422.80	3794.01
422.99	3906.35
423.18	3950.82
423.37	3946.14
423.56	3908.69
423.75	3801.03
423.94	3801.03
424.13	3648.90
424.32	3794.01
424.50	3911.04
424.69	4011.68
424.88	4049.13
425.07	3772.94
425.26	3756.56
425.45	3899.33
425.64	3857.20
425.83	3992.95
426.01	4025.72
426.20	3878.27
426.39	3885.29
426.58	3927.42
426.77	3908.69
426.96	3918.06
427.15	3950.82
427.33	3948.48
427.52	3936.78
427.71	4007.00
427.90	3908.69
428.09	4051.47
428.28	4217.65
428.46	4184.88
428.65	4095.94
428.84	4194.24
429.03	4271.48
429.22	4138.07
429.40	4042.11
429.59	4210.62
429.78	3878.27
429.97	3988.27
430.16	4107.64
430.34	4180.20
430.53	4093.60
430.72	4231.69
430.91	4332.33
431.10	4355.74
431.28	4514.89
431.47	4589.79
431.66	4603.83
431.85	4535.96
432.03	4589.79
432.22	4617.88
432.41	4571.07
432.60	4669.37
432.79	4695.11
432.97	4695.11
433.16	4674.05
433.35	4655.33
433.54	4514.89
433.72	4730.22
433.91	4564.04
434.10	4594.47
434.28	4629.58
434.47	4973.64
434.66	4971.30
434.85	4894.06
435.03	4961.94
435.22	4898.74
435.41	4994.70
435.59	5057.90
435.78	5090.67
435.97	5137.48
436.16	5107.05
436.34	5081.30
436.53	5203.01
436.72	5139.82
436.90	5125.77
437.09	5048.54
437.28	5137.48
437.46	4968.96
437.65	5050.88
437.84	5184.29
438.02	5107.05
438.21	5095.35
438.40	5116.41
438.58	5387.91
438.77	5256.84
438.96	5343.44
439.14	5624.31
439.33	5558.77
439.52	5626.65
439.70	5619.63
439.89	5682.82
440.08	5617.29
440.26	5647.71
440.45	5561.11
440.63	5851.34
440.82	6010.50
441.01	5760.06
441.19	5919.21
441.38	6026.88
441.57	6078.37
441.75	6097.10
441.94	6118.16
442.12	6223.48
442.31	6190.72
442.50	6394.34
442.68	6265.61
442.87	6211.78
443.05	6242.21
443.24	6373.28
443.43	6520.73
443.61	6394.34
443.80	6565.20
443.98	6335.83
444.17	6202.42
444.35	6305.40
444.54	6523.07
444.73	6445.84
444.91	6506.69
445.10	6525.41
445.28	6370.94
445.47	6239.87
445.65	6370.94
445.84	6506.69
446.02	6607.33
446.21	6518.39
446.39	6490.31
446.58	6621.38
446.77	6640.10
446.95	6572.22
447.14	6579.25
447.32	6745.42
447.51	6647.12
447.69	6569.88
447.88	6604.99
448.06	6588.61
448.25	6630.74
448.43	6745.42
448.62	6649.46
448.80	6785.21
448.99	6820.32
449.17	6932.67
449.36	6920.96
449.54	6965.43
449.73	7061.40
449.91	6888.20
450.10	7108.21
450.28	7227.57
450.46	7152.68
450.65	7117.57
450.83	7243.96
451.02	7077.78
451.20	7215.87
451.39	7234.60
451.57	7267.36
451.76	7145.66
451.94	7321.20
452.13	7124.59
452.31	6991.18
452.49	7037.99
452.68	7133.95
452.86	7155.02
453.05	7129.27
453.23	7293.11
453.42	7194.81
453.60	7222.89
453.78	7382.05
453.97	7243.96
454.15	7253.32
454.34	7342.26
454.52	7527.16
454.70	7527.16
454.89	7665.25
455.07	7468.65
455.26	7772.92
455.44	7653.55
455.62	7847.82
455.81	7632.49
455.99	7588.02
456.17	8006.97
456.36	7822.07
456.54	7852.50
456.73	7957.82
456.91	8315.92
457.09	8035.06
457.28	8116.98
457.46	8013.99
457.64	8070.17
457.83	7913.35
458.01	7948.46
458.19	8025.70
458.38	7936.76
458.56	7992.93
458.74	8280.82
458.93	7992.93
459.11	8131.02
459.29	8278.47
459.48	8334.65
459.66	8393.16
459.84	8276.13
460.03	8407.20
460.21	8479.76
460.39	8627.21
460.57	8699.77
460.76	8505.51
460.94	8559.34
461.12	8610.83
461.31	8540.61
461.49	8573.38
461.67	8484.44
461.85	8844.88
462.04	8723.18
462.22	9298.95
462.40	8800.41
462.59	8748.92
462.77	8802.75
462.95	8858.93
463.13	8912.76
463.32	8910.42
463.50	8959.57
463.68	8751.26
463.86	8973.61
464.05	8882.33
464.23	8987.66
464.41	9067.24
464.59	8980.64
464.78	9172.56
464.96	8908.08
465.14	8975.95
465.32	9085.96
465.50	9142.13
465.69	9170.22
465.87	9114.05
466.05	9055.53
466.23	9125.75
466.41	9214.69
466.60	9540.02
466.78	9022.77
466.96	9240.44
467.14	9114.05
467.32	9310.65
467.51	9425.34
467.69	9200.65
467.87	9383.21
468.05	9596.20
468.23	9558.75
468.41	9256.82
468.60	9394.91
468.78	9596.20
468.96	9343.42
469.14	9675.77
469.32	9715.56
469.50	9130.43
469.69	9687.48
469.87	9710.88
470.05	9741.31
470.23	9767.06
470.41	9830.25
470.59	9984.73
470.77	9802.16
470.95	9916.85
471.14	9935.57
471.32	9886.42
471.50	10010.47
471.68	10235.16
471.86	10228.14
472.04	10399.00
472.22	10420.06
472.40	10300.70
472.58	10232.82
472.77	10289.00
472.95	10464.54
473.13	10850.72
473.31	10499.64
473.49	10370.91
473.67	10768.80
473.85	10719.65
474.03	10920.94
474.21	10801.57
474.39	10949.03
474.57	10787.53
474.75	10850.72
474.93	11133.93
475.12	10853.06
475.30	11197.12
475.48	11147.97
475.66	11101.16
475.84	11232.23
476.02	11316.49
476.20	11279.04
476.38	11337.56
476.56	11831.41
476.74	11672.25
476.92	11698.00
477.10	11721.40
477.28	11971.84
477.46	12084.19
477.64	12292.49
477.82	12145.04
478.00	12262.07
478.18	12379.09
478.36	12620.17
478.54	12655.28
478.72	12524.21
478.90	12727.83
479.08	12957.21
479.26	13060.19
479.44	13011.04
479.62	12924.44
479.80	12999.34
479.98	13357.44
480.16	13448.72
480.34	13282.54
480.52	13722.56
480.70	13666.39
480.88	13523.62
481.06	13795.12
481.24	13713.20
481.41	14078.32
481.59	14483.24
481.77	14335.78
481.95	14125.13
482.13	14588.56
482.31	14464.51
482.49	14780.48
482.67	14782.82
482.85	14988.79
483.03	14932.62
483.21	15543.50
483.39	15096.46
483.57	15496.69
483.74	15360.94
483.92	15304.76
484.10	15426.47
484.28	15695.63
484.46	15910.96
484.64	16353.32
484.82	15936.71
485.00	16042.03
485.18	16360.34
485.35	16240.98
485.53	15800.96
485.71	16053.73
485.89	16130.97
486.07	16484.39
486.25	16505.46
486.43	16671.64
486.61	16762.92
486.78	17364.43
486.96	17378.48
487.14	17469.76
487.32	17820.84
487.50	17799.77
487.68	18270.22
487.85	18052.55
488.03	18420.02
488.21	18682.16
488.39	18464.49
488.57	18443.42
488.75	18478.53
488.92	18717.26
489.10	19082.39
489.28	19068.34
489.46	19477.94
489.64	19651.14
489.81	20257.34
489.99	20285.42
490.17	20212.87
490.35	20212.87
490.53	20210.53
490.70	20428.20
490.88	20620.12
491.06	20659.91
491.24	20503.09
491.41	20594.37
491.59	20760.55
491.77	20706.72
491.95	20847.15
492.13	21062.48
492.30	21432.29
492.48	21504.84
492.66	21701.45
492.84	21858.26
493.01	21734.21
493.19	21879.33
493.37	21965.93
493.54	22118.06
493.72	22246.79
493.90	22485.53
494.08	22838.95
494.25	23054.28
494.43	23178.33
494.61	23178.33
494.79	23229.82
494.96	23234.50
495.14	23419.40
495.32	23173.64
495.49	23550.47
495.67	23587.92
495.85	24020.92
496.02	24208.16
496.20	23976.45
496.38	24306.46
496.55	24105.18
496.73	24776.91
496.91	24449.24
497.09	24891.60
497.26	24837.76
497.44	24732.44
497.62	24819.04
497.79	25127.99
497.97	25142.03
498.14	25635.89
498.32	25710.78
498.50	25212.25
498.67	25689.72
498.85	25537.59
499.03	26134.42
499.20	25979.95
499.38	25635.89
499.56	26047.82
499.73	26412.95
499.91	25839.51
500.08	26647.00
500.26	25977.61
500.44	26321.66
500.61	26471.46
500.79	26473.80
500.97	26817.86
501.14	26817.86
501.32	27178.30
501.49	26820.20
501.67	26855.31
501.84	27094.04
502.02	27225.11
502.20	27077.66
502.37	27702.58
502.55	27641.73
502.72	27747.05
502.90	27896.85
503.07	27882.80
503.25	28411.76
503.43	27323.41
503.60	27920.25
503.78	27875.78
503.95	27885.14
504.13	28081.75
504.30	27999.83
504.48	28664.54
504.65	28517.09
504.83	28905.62
505.01	29050.73
505.18	29193.50
505.36	29418.19
505.53	28947.75
505.71	29387.77
505.88	29163.08
506.06	29219.25
506.23	29579.69
506.41	29326.91
506.58	29703.74
506.76	29818.42
506.93	29804.38
507.11	29858.21
507.28	29621.82
507.46	29481.39
507.63	29614.80
507.81	30101.63
507.98	29895.66
508.16	29895.66
508.33	30295.89
508.50	30410.58
508.68	30632.93
508.85	30689.10
509.03	30866.98
509.20	30976.99
509.38	31180.62
509.55	31349.14
509.73	30895.07
509.90	30742.94
510.08	31367.86
510.25	31197.00
510.42	31297.64
510.60	31213.38
510.77	31604.25
510.95	31536.38
511.12	31356.16
511.30	31866.39
511.47	32126.19
511.64	32044.27
511.82	32238.54
511.99	31955.33
512.17	32325.14
512.34	32016.19
512.51	32161.30
512.69	32500.68
512.86	32496.00
513.04	32615.37
513.21	32446.85
513.38	32723.03
513.56	32678.56
513.73	32343.86
513.90	32816.65
514.08	32718.35
514.25	33022.62
514.43	32776.86
514.60	32680.90
514.77	32779.20
514.95	33467.32
515.12	33029.64
515.29	33261.35
515.47	33722.44
515.64	33338.59
515.81	33418.17
515.99	33776.27
516.16	33521.15
516.33	33268.37
516.51	33483.70
516.68	32893.89
516.85	33153.69
517.03	33263.69
517.20	33682.65
517.37	34260.76
517.54	33844.15
517.72	34127.35
517.89	33713.08
518.06	33921.38
518.24	33993.94
518.41	33926.07
518.58	34429.28
518.75	34338.00
518.93	34330.98
519.10	34384.81
519.27	34471.41
519.45	34993.35
519.62	35033.14
519.79	34920.79
519.96	35091.65
520.14	35030.80
520.31	34836.53
520.48	35227.40
520.65	34983.99
520.83	35487.20
521.00	35594.87
521.17	35466.14
521.34	35826.58
521.52	36091.06
521.69	35945.95
521.86	35435.71
522.03	35859.35
522.20	35466.14
522.38	35847.64
522.55	36460.87
522.72	36081.70
522.89	36336.82
523.07	36116.81
523.24	36261.92
523.41	36704.28
523.58	36598.96
523.75	36940.68
523.92	36776.84
524.10	36730.03
524.27	36996.85
524.44	36772.16
524.61	36711.30
524.78	37116.22
524.96	37223.88
525.13	37256.65
525.30	37670.92
525.47	37308.14
525.64	37280.05
525.81	37247.29
525.98	37741.14
526.16	36638.75
526.33	36744.07
526.50	36833.01
526.67	36924.29
526.84	37020.25
527.01	36907.91
527.18	37247.29
527.36	37301.12
527.53	37752.84
527.70	38099.24
527.87	37844.12
528.04	37778.59
528.21	38139.03
528.38	38043.07
528.55	38642.24
528.72	38574.37
528.89	38675.01
529.07	38742.89
529.24	38366.06
529.41	38293.50
529.58	38480.75
529.75	38370.74
529.92	38529.90
530.09	38796.72
530.26	38967.58
530.43	38955.88
530.60	38859.91
530.77	39166.52
530.94	39138.44
531.11	39281.21
531.28	38873.96
531.46	39100.99
531.63	38902.04
531.80	39189.93
531.97	39077.58
532.14	38747.57
532.31	38749.91
532.48	39182.91
532.65	39386.54
532.82	39398.24
532.99	39538.67
533.16	39400.58
533.33	39592.50
533.50	39351.43
533.67	39875.71
533.84	39707.19
534.01	39810.17
534.18	39789.11
534.35	39789.11
534.52	39660.38
534.69	39852.30
534.86	40329.77
535.03	40259.55
535.20	40425.73
535.37	40795.54
535.54	40514.67
535.71	40308.71
535.88	40179.98
536.05	39824.22
536.22	40397.65
536.38	40528.72
536.55	40353.18
536.72	40287.64
536.89	40144.87
537.06	40203.38
537.23	41008.53
537.40	40275.94
537.57	40699.58
537.74	40650.42
537.91	41088.10
538.08	41305.77
538.25	40643.40
538.42	40875.12
538.59	41357.27
538.75	40486.59
538.92	40975.76
539.09	41045.97
539.26	40928.95
539.43	41268.33
539.60	41233.22
539.77	41074.06
539.94	40788.52
540.11	41198.11
540.28	41198.11
540.44	41280.03
540.61	40926.61
540.78	41031.93
540.95	41277.69
541.12	41504.72
541.29	41296.41
541.46	41432.16
541.62	41085.76
541.79	41874.52
541.96	41067.04
542.13	41303.43
542.30	41448.55
542.47	41425.14
542.63	41900.27
542.80	41783.24
542.97	42227.95
543.14	41951.76
543.31	42181.13
543.48	42106.24
543.64	42522.85
543.81	43007.34
543.98	42494.77
544.15	42319.23
544.32	42717.12
544.48	42660.94
544.65	42227.95
544.82	42454.98
544.99	42127.30
545.16	42588.39
545.32	42356.67
545.49	42682.01
545.66	43103.31
545.83	42658.60
546.00	43070.54
546.16	42808.40
546.33	43040.11
546.50	42595.41
546.67	43063.52
546.83	42583.71
547.00	43220.33
547.17	42988.62
547.34	42712.44
547.50	42976.92
547.67	43290.55
547.84	42852.87
548.00	43042.45
548.17	43208.63
548.34	43140.75
548.51	43562.05
548.67	43835.89
548.84	43725.89
549.01	42986.28
549.18	43391.19
549.34	43079.90
549.51	42979.26
549.68	43777.38
549.84	43250.76
550.01	43210.97
550.18	43129.05
550.34	43814.83
550.51	43543.33
550.68	43632.27
550.84	43028.41
551.01	43988.03
551.18	43800.79
551.34	43587.80
551.51	43646.31
551.68	43971.64
551.84	43962.28
552.01	43608.86
552.18	43777.38
552.34	43854.62
552.51	44156.55
552.68	43683.76
552.84	44168.25
553.01	44140.16
553.18	43772.70
553.34	44292.30
553.51	43798.44
553.67	44327.41
553.84	44509.97
554.01	44528.69
554.17	44278.25
554.34	44025.48
554.51	44587.21
554.67	44376.56
554.84	44027.82
555.00	43931.86
555.17	44004.41
555.33	44404.64
555.50	44514.65
555.67	44425.71
555.83	44339.11
556.00	44573.16
556.16	44830.62
556.33	44240.81
556.50	44655.08
556.66	44308.68
556.83	44273.57
556.99	44196.34
557.16	44406.98
557.32	44252.51
557.49	44875.09
557.65	44011.43
557.82	44690.19
557.98	44577.84
558.15	44699.55
558.32	45013.18
558.48	44355.49
558.65	44631.68
558.81	44456.14
558.98	44336.77
559.14	44947.65
559.31	44933.60
559.47	44858.71
559.64	44626.99
559.80	44648.06
559.97	44914.88
560.13	44369.54
560.30	44690.19
560.46	45155.96
560.63	44935.95
560.79	44762.75
560.96	44947.65
561.12	45249.58
561.29	44737.00
561.45	44802.53
561.61	44683.17
561.78	44432.73
561.94	44484.22
562.11	45052.97
562.27	44882.11
562.44	45439.16
562.60	45071.70
562.77	45045.95
562.93	45003.82
563.10	45535.12
563.26	44816.58
563.42	45387.67
563.59	45102.12
563.75	45345.54
563.92	45382.99
564.08	45380.65
564.24	45844.07
564.41	45064.67
564.57	45413.41
564.74	45144.25
564.90	45352.56
565.07	45574.91
565.23	45265.96
565.39	44477.20
565.56	44889.13
565.72	45333.84
565.88	45368.94
566.05	45375.97
566.21	45069.36
566.38	45530.44
566.54	45448.52
566.70	45691.94
566.87	46167.07
567.03	45375.97
567.19	46202.18
567.36	45478.95
567.52	45652.15
567.68	45455.54
567.85	44797.85
568.01	45731.73
568.17	45595.98
568.34	45579.59
568.50	45455.54
568.66	45347.88
568.83	45062.33
568.99	45336.18
569.15	45216.81
569.32	45221.49
569.48	45703.64
569.64	45595.98
569.81	45457.88
569.97	45188.72
570.13	45532.78
570.30	45326.81
570.46	45160.64
570.62	44659.76
570.78	44638.70
570.95	45048.29
571.11	45226.17
571.27	45209.79
571.43	45022.54
571.60	45415.76
571.76	45170.00
571.92	45214.47
572.09	45481.29
572.25	45656.83
572.41	45703.64
572.57	45778.54
572.74	45890.88
572.90	45748.11
573.06	45862.80
573.22	45446.18
573.38	45633.42
573.55	45909.61
573.71	45876.84
573.87	45977.48
574.03	45572.57
574.20	45804.28
574.36	45621.72
574.52	45687.26
574.68	45179.36
574.84	45462.57
575.01	45656.83
575.17	45500.01
575.33	45535.12
575.49	45139.57
575.65	45675.55
575.82	46089.83
575.98	45202.77
576.14	45773.86
576.30	45769.18
576.46	45614.70
576.62	45521.08
576.79	45474.27
576.95	45207.45
577.11	45600.66
577.27	45584.27
577.43	45345.54
577.59	45776.20
577.75	45675.55
577.92	45188.72
578.08	45305.75
578.24	45322.13
578.40	45514.06
578.56	45787.90
578.72	45436.82
578.88	46050.04
579.04	45876.84
579.21	45734.07
579.37	45626.40
579.53	45792.58
579.69	45235.53
579.85	45380.65
580.01	45385.33
580.17	45390.01
580.33	45535.12
580.49	45612.36
580.65	45729.39
580.82	45303.41
580.98	45464.91
581.14	45387.67
581.30	45778.54
581.46	45666.19
581.62	45717.68
581.78	45991.53
581.94	45841.73
582.10	45357.24
582.26	45799.60
582.42	45228.51
582.58	45762.15
582.74	45874.50
582.90	45312.77
583.06	46274.73
583.22	45607.68
583.38	45818.33
583.54	46337.93
583.70	45993.87
583.86	45839.39
584.02	45324.47
584.18	45434.48
584.34	45846.41
584.50	45874.50
584.66	45565.55
584.82	45448.52
584.98	45942.38
585.14	46028.98
585.30	45488.31
585.46	45102.12
585.62	44968.71
585.78	45549.17
585.94	45455.54
586.10	45361.92
586.26	45390.01
586.42	45729.39
586.58	45696.62
586.74	46141.32
586.90	45495.33
587.06	45727.05
587.22	45736.41
587.38	45652.15
587.54	45731.73
587.70	46054.72
587.86	45734.07
588.02	45553.85
588.18	46099.19
588.34	45904.93
588.49	45167.66
588.65	45095.10
588.81	45003.82
588.97	45031.91
589.13	45172.34
589.29	45750.45
589.45	45427.46
589.61	45434.48
589.77	45598.32
589.93	46017.27
590.08	46036.00
