SpectraSuite Data File
++++++++++++++++++++++++++++++++++++
Date: Fri Oct 25 10:47:47 EDT 2013
User: price-jones
Dark Spectrum Present: No
Reference Spectrum Present: No
Number of Sampled Component Spectra: 1
Spectrometers: USB2+H05261
Integration Time (usec): 100000 (USB2+H05261)
Spectra Averaged: 1 (USB2+H05261)
Boxcar Smoothing: 0 (USB2+H05261)
Correct for Electrical Dark: No (USB2+H05261)
Strobe/Lamp Enabled: No (USB2+H05261)
Correct for Detector Non-linearity: No (USB2+H05261)
Correct for Stray Light: No (USB2+H05261)
Number of Pixels in Processed Spectrum: 2048
>>>>>Begin Processed Spectral Data<<<<<
365.73	191.92
365.92	191.92
366.12	191.92
366.32	37.45
366.52	0.00
366.72	35.11
366.91	32.77
367.11	86.60
367.31	25.75
367.51	135.75
367.70	0.00
367.90	7.02
368.10	46.81
368.30	56.17
368.49	18.72
368.69	0.00
368.89	67.88
369.09	42.13
369.28	37.45
369.48	98.30
369.68	133.41
369.87	138.09
370.07	124.05
370.27	147.45
370.47	201.29
370.66	362.78
370.86	489.17
371.06	489.17
371.25	447.04
371.45	456.40
371.65	409.59
371.84	400.23
372.04	503.22
372.24	489.17
372.44	498.53
372.63	458.74
372.83	507.90
373.03	531.30
373.22	540.66
373.42	533.64
373.62	519.60
373.81	566.41
374.01	559.39
374.21	585.13
374.40	533.64
374.60	545.34
374.79	543.00
374.99	505.56
375.19	568.75
375.38	629.60
375.58	533.64
375.78	559.39
375.97	674.07
376.17	631.94
376.37	599.18
376.56	552.37
376.76	531.30
376.95	547.69
377.15	489.17
377.35	543.00
377.54	660.03
377.74	510.24
377.93	641.31
378.13	592.16
378.33	655.35
378.52	550.03
378.72	662.37
378.91	645.99
379.11	589.82
379.31	681.10
379.50	671.73
379.70	636.63
379.89	674.07
380.09	627.26
380.28	650.67
380.48	643.65
380.68	599.18
380.87	566.41
381.07	678.76
381.26	718.54
381.46	695.14
381.65	683.44
381.85	784.08
382.04	711.52
382.24	587.47
382.43	716.20
382.63	711.52
382.83	641.31
383.02	692.80
383.22	746.63
383.41	723.23
383.61	685.78
383.80	648.33
384.00	760.67
384.19	751.31
384.39	723.23
384.58	727.91
384.78	765.36
384.97	823.87
385.17	798.12
385.36	755.99
385.56	741.95
385.75	812.17
385.95	755.99
386.14	779.40
386.34	734.93
386.53	772.38
386.72	748.97
386.92	861.32
387.11	905.79
387.31	898.77
387.50	849.61
387.70	830.89
387.89	919.83
388.09	844.93
388.28	842.59
388.48	779.40
388.67	931.53
388.86	814.51
389.06	823.87
389.25	849.61
389.45	978.34
389.64	837.91
389.84	978.34
390.03	791.10
390.22	894.08
390.42	994.73
390.61	1032.18
390.81	894.08
391.00	947.92
391.19	978.34
391.39	950.26
391.58	987.71
391.78	910.47
391.97	901.11
392.16	976.00
392.36	990.05
392.55	931.53
392.75	922.17
392.94	1004.09
393.13	971.32
393.33	959.62
393.52	997.07
393.71	1074.31
393.91	1025.15
394.10	1081.33
394.29	1062.60
394.49	1027.50
394.68	1123.46
394.88	1060.26
395.07	1128.14
395.26	1188.99
395.46	1165.59
395.65	1102.39
395.84	1174.95
396.04	1198.35
396.23	1212.40
396.42	1181.97
396.62	1156.22
396.81	1114.10
397.00	1102.39
397.19	1069.62
397.39	1200.69
397.58	1324.74
397.77	1345.81
397.97	1324.74
398.16	1263.89
398.35	1329.42
398.55	1284.95
398.74	1263.89
398.93	1411.34
399.12	1273.25
399.32	1299.00
399.51	1275.59
399.70	1404.32
399.90	1427.73
400.09	1404.32
400.28	1439.43
400.47	1462.83
400.67	1444.11
400.86	1385.60
401.05	1390.28
401.24	1465.18
401.44	1502.62
401.63	1540.07
401.82	1425.39
402.01	1418.36
402.21	1544.75
402.40	1511.99
402.59	1577.52
402.78	1565.82
402.97	1633.69
403.17	1610.29
403.36	1558.80
403.55	1607.95
403.74	1624.33
403.93	1713.27
404.13	1696.89
404.32	1647.74
404.51	1717.95
404.70	1675.82
404.89	1720.29
405.09	1748.38
405.28	1750.72
405.47	1722.63
405.66	1820.94
405.85	1804.55
406.05	1757.74
406.24	1811.57
406.43	1771.79
406.62	1902.86
406.81	1870.09
407.00	1898.17
407.20	1874.77
407.39	1834.98
407.58	1923.92
407.77	1921.58
407.96	1968.39
408.15	1930.94
408.34	1966.05
408.54	1930.94
408.73	2010.52
408.92	2054.99
409.11	2090.10
409.30	2148.61
409.49	1942.64
409.68	2139.25
409.87	2169.68
410.07	2047.97
410.26	2251.60
410.45	2087.76
410.64	2127.55
410.83	2090.10
411.02	2139.25
411.21	2223.51
411.40	2230.53
411.59	2319.47
411.78	2345.22
411.98	2265.64
412.17	2317.13
412.36	2282.02
412.55	2293.72
412.74	2413.09
412.93	2567.57
413.12	2387.35
413.31	2483.31
413.50	2452.88
413.69	2509.05
413.88	2621.40
414.07	2574.59
414.26	2651.83
414.45	2612.04
414.64	2609.70
414.83	2672.89
415.02	2693.96
415.22	2768.85
415.41	2803.96
415.60	2768.85
415.79	2925.67
415.98	2946.73
416.17	2820.35
416.36	2818.00
416.55	2876.52
416.74	2839.07
416.93	2867.16
417.12	3002.91
417.31	2960.78
417.50	2967.80
417.69	3049.72
417.88	3089.51
418.07	2949.08
418.26	3098.87
418.45	3096.53
418.64	3232.28
418.83	3218.24
419.02	3162.06
419.21	3208.87
419.39	3073.12
419.58	3169.09
419.77	3098.87
419.96	3239.30
420.15	3344.63
420.34	3405.48
420.53	3365.69
420.72	3290.79
420.91	3363.35
421.10	3384.41
421.29	3307.18
421.48	3335.26
421.67	3508.46
421.86	3433.57
422.05	3478.04
422.24	3400.80
422.43	3569.32
422.61	3550.59
422.80	3485.06
422.99	3541.23
423.18	3531.87
423.37	3538.89
423.56	3527.19
423.75	3529.53
423.94	3466.33
424.13	3386.76
424.32	3361.01
424.50	3555.27
424.69	3618.47
424.88	3702.73
425.07	3557.61
425.26	3435.91
425.45	3538.89
425.64	3510.80
425.83	3442.93
426.01	3559.95
426.20	3644.21
426.39	3585.70
426.58	3667.62
426.77	3646.55
426.96	3644.21
427.15	3574.00
427.33	3595.06
427.52	3639.53
427.71	3772.94
427.90	3681.66
428.09	3747.20
428.28	3723.79
428.46	3770.60
428.65	3770.60
428.84	3859.54
429.03	3974.23
429.22	3672.30
429.40	3913.38
429.59	3899.33
429.78	3698.05
429.97	3754.22
430.16	3744.86
430.34	3639.53
430.53	3899.33
430.72	3918.06
430.91	3913.38
431.10	3784.65
431.28	4163.81
431.47	4081.89
431.66	4234.03
431.85	4100.62
432.03	4201.26
432.22	4379.14
432.41	4257.43
432.60	4077.21
432.79	4234.03
432.97	4227.01
433.16	4184.88
433.35	4121.68
433.54	4196.58
433.72	4196.58
433.91	4280.84
434.10	4411.91
434.28	4245.73
434.47	4372.12
434.66	4358.08
434.85	4374.46
435.03	4674.05
435.22	4425.95
435.41	4657.67
435.59	4678.73
435.78	4692.77
435.97	4622.56
436.16	4573.41
436.34	4491.49
436.53	4578.09
436.72	4875.34
436.90	4578.09
437.09	4674.05
437.28	4615.54
437.46	4723.20
437.65	4739.58
437.84	4683.41
438.02	4603.83
438.21	4711.50
438.40	4699.80
438.58	4917.47
438.77	4882.36
438.96	4959.60
439.14	5125.77
439.33	4968.96
439.52	5097.69
439.70	5004.07
439.89	5179.61
440.08	5193.65
440.26	5128.11
440.45	5116.41
440.63	5348.12
440.82	5296.63
441.01	5448.77
441.19	5380.89
441.38	5493.24
441.57	5570.48
441.75	5500.26
441.94	5631.33
442.12	5682.82
442.31	5701.54
442.50	5827.93
442.68	5717.93
442.87	5678.14
443.05	5633.67
443.24	5853.68
443.43	5844.32
443.61	5619.63
443.80	5853.68
443.98	5647.71
444.17	5558.77
444.35	5991.77
444.54	5753.04
444.73	5914.53
444.91	6008.16
445.10	5895.81
445.28	5753.04
445.47	5778.78
445.65	5734.31
445.84	5708.57
446.02	5905.17
446.21	5825.59
446.39	5818.57
446.58	6066.67
446.77	5914.53
446.95	5853.68
447.14	6040.92
447.32	6094.76
447.51	6087.73
447.69	5984.75
447.88	6209.44
448.06	6083.05
448.25	5930.92
448.43	6164.97
448.62	6125.18
448.80	6125.18
448.99	6230.51
449.17	6179.01
449.36	6101.78
449.54	6183.70
449.73	6389.66
449.91	6359.24
450.10	6293.70
450.28	6572.22
450.46	6389.66
450.65	6307.74
450.83	6347.53
451.02	6555.84
451.20	6424.77
451.39	6544.14
451.57	6310.08
451.76	6492.65
451.94	6520.73
452.13	6492.65
452.31	6483.28
452.49	6289.02
452.68	6597.97
452.86	6443.49
453.05	6703.29
453.23	6654.14
453.42	6635.42
453.60	6504.35
453.78	6806.28
453.97	6530.09
454.15	6438.81
454.34	6715.00
454.52	6843.73
454.70	6705.63
454.89	6736.06
455.07	6876.49
455.26	6729.04
455.44	6986.50
455.62	6878.83
455.81	6766.49
455.99	7033.31
456.17	6967.77
456.36	6958.41
456.54	7098.84
456.73	7068.42
456.91	7311.83
457.09	7337.58
457.28	7382.05
457.46	7021.61
457.64	7368.01
457.83	7234.60
458.01	7328.22
458.19	7407.80
458.38	7342.26
458.56	7309.49
458.74	7503.76
458.93	7316.51
459.11	7522.48
459.29	7522.48
459.48	7466.31
459.66	7562.27
459.84	7534.18
460.03	7810.37
460.21	7693.34
460.39	7655.89
460.57	7672.28
460.76	7644.19
460.94	7885.26
461.12	7611.42
461.31	7751.85
461.49	7850.16
461.67	7815.05
461.85	7950.80
462.04	7791.64
462.22	8285.50
462.40	7953.14
462.59	7934.42
462.77	8035.06
462.95	8142.72
463.13	7997.61
463.32	8093.57
463.50	7927.39
463.68	8201.24
463.86	8018.68
464.05	8168.47
464.23	7995.27
464.41	8226.98
464.59	8042.08
464.78	7985.91
464.96	8222.30
465.14	8112.30
465.32	8297.20
465.50	8383.80
465.69	8493.80
465.87	8435.29
466.05	8500.83
466.23	8234.00
466.41	8432.95
466.60	8482.10
466.78	8367.42
466.96	8250.39
467.14	8451.67
467.32	8372.10
467.51	8383.80
467.69	8180.17
467.87	8353.37
468.05	8706.79
468.23	8503.17
468.41	8463.38
468.60	8531.25
468.78	8648.28
468.96	8589.77
469.14	8786.37
469.32	8692.75
469.50	8688.07
469.69	9022.77
469.87	8982.98
470.05	9006.38
470.23	8997.02
470.41	8910.42
470.59	9006.38
470.77	9032.13
470.95	8997.02
471.14	9238.09
471.32	9083.62
471.50	9256.82
471.68	9130.43
471.86	9373.85
472.04	9404.27
472.22	9638.33
472.40	9273.20
472.58	9551.73
472.77	9392.57
472.95	9671.09
473.13	9837.27
473.31	9603.22
473.49	9596.20
473.67	9650.03
473.85	9762.37
474.03	10057.28
474.21	9942.60
474.39	10073.67
474.57	10284.31
474.75	10080.69
474.93	9951.96
475.12	10188.35
475.30	10183.67
475.48	10214.10
475.66	10511.35
475.84	10321.76
476.02	10462.19
476.20	10427.09
476.38	10630.71
476.56	10738.38
476.74	10700.93
476.92	10576.88
477.10	10764.12
477.28	11047.33
477.46	10813.28
477.64	11049.67
477.82	11042.65
478.00	11447.56
478.18	11522.46
478.36	11372.66
478.54	11536.50
478.72	11688.64
478.90	11573.95
479.08	11854.81
479.26	11922.69
479.44	11936.73
479.62	12187.17
479.80	12049.08
479.98	12432.93
480.16	12259.73
480.34	12196.53
480.52	12575.70
480.70	12629.53
480.88	12287.81
481.06	12641.23
481.24	12798.05
481.41	12943.16
481.59	13331.69
481.77	13235.73
481.95	13027.42
482.13	13308.29
482.31	13228.71
482.49	13497.87
482.67	13427.65
482.85	13827.88
483.03	13947.25
483.21	13860.65
483.39	14022.15
483.57	14029.17
483.74	14317.06
483.92	14640.05
484.10	14171.94
484.28	14661.12
484.46	14937.30
484.64	15061.35
484.82	14773.46
485.00	14768.78
485.18	15180.71
485.35	15239.23
485.53	15009.86
485.71	15246.25
485.89	15447.54
486.07	15470.94
486.25	15389.02
486.43	15527.11
486.61	15571.58
486.78	16112.25
486.96	16060.76
487.14	16161.40
487.32	16226.93
487.50	16875.26
487.68	16414.18
487.85	16919.73
488.03	16898.67
488.21	17205.28
488.39	17092.93
488.57	17336.35
488.75	17224.00
488.92	17626.57
489.10	17708.49
489.28	17820.84
489.46	17984.68
489.64	18045.53
489.81	18387.25
489.99	18459.81
490.17	18457.46
490.35	18918.55
490.53	18738.33
490.70	19040.26
490.88	18974.72
491.06	19211.12
491.24	19253.25
491.41	19068.34
491.59	19159.63
491.77	19117.50
491.95	19403.04
492.13	19740.08
492.30	19924.98
492.48	20222.23
492.66	20236.27
492.84	20255.00
493.01	20327.55
493.19	20465.64
493.37	20650.55
493.54	20503.09
493.72	20402.45
493.90	20971.20
494.08	20739.49
494.25	21125.68
494.43	21137.38
494.61	21465.05
494.79	21834.86
494.96	21556.33
495.14	21502.50
495.32	21879.33
495.49	21830.18
495.67	22216.36
495.85	21998.70
496.02	22328.71
496.20	22162.53
496.38	22766.39
496.55	22836.61
496.73	23019.17
496.91	23030.87
497.09	23026.19
497.26	23054.28
497.44	22869.37
497.62	23171.30
497.79	23667.50
497.97	23208.75
498.14	23704.95
498.32	23491.96
498.50	23618.35
498.67	24442.21
498.85	23737.71
499.03	24119.22
499.20	24070.07
499.38	24095.82
499.56	24250.29
499.73	24643.50
499.91	24671.59
500.08	24297.10
500.26	24580.31
500.44	25008.62
500.61	24617.75
500.79	24723.08
500.97	24765.21
501.14	25312.89
501.32	25483.75
501.49	25404.17
501.67	25458.01
501.84	25500.14
502.02	25462.69
502.20	25921.43
502.37	25785.68
502.55	25633.55
502.72	25816.11
502.90	25532.90
503.07	26003.35
503.25	26211.66
503.43	26008.03
503.60	26242.09
503.78	26265.49
503.95	26225.70
504.13	26483.16
504.30	26396.56
504.48	26677.43
504.65	26962.97
504.83	26871.69
505.01	27021.48
505.18	27192.34
505.36	27225.11
505.53	27288.31
505.71	27255.54
505.88	27391.29
506.06	27023.83
506.23	27604.28
506.41	27496.61
506.58	27786.84
506.76	27903.87
506.93	27821.95
507.11	27765.78
507.28	27896.85
507.46	28004.51
507.63	28388.36
507.81	28142.60
507.98	28238.56
508.16	28364.95
508.33	28477.30
508.50	28498.36
508.68	28343.89
508.85	28957.11
509.03	29186.48
509.20	28823.70
509.38	29706.08
509.55	29050.73
509.73	28985.19
509.90	29034.35
510.08	29308.19
510.25	29109.24
510.42	29401.81
510.60	29446.28
510.77	29139.67
510.95	30195.25
511.12	29610.12
511.30	29654.59
511.47	30033.75
511.64	30143.76
511.82	30169.51
511.99	30139.08
512.17	30000.99
512.34	29968.22
512.51	30221.00
512.69	30164.82
512.86	30764.00
513.04	30728.89
513.21	30361.43
513.38	30822.51
513.56	30525.27
513.73	30684.42
513.90	30913.80
514.08	31033.16
514.25	31227.43
514.43	31108.06
514.60	31220.41
514.77	31541.06
514.95	31789.16
515.12	31519.99
515.29	31136.15
515.47	31566.81
515.64	31948.31
515.81	31693.19
515.99	31903.84
516.16	31857.03
516.33	31917.89
516.51	32107.47
516.68	31615.96
516.85	31906.18
517.03	31971.72
517.20	32407.06
517.37	32194.07
517.54	32629.41
517.72	32362.59
517.89	32037.25
518.06	32308.76
518.24	32074.70
518.41	32390.67
518.58	32329.82
518.75	32685.58
518.93	33008.58
519.10	32493.66
519.27	32910.27
519.45	32996.87
519.62	33067.09
519.79	33380.72
519.96	33132.62
520.14	33448.60
520.31	33376.04
520.48	33633.50
520.65	33198.16
520.83	33862.87
521.00	33497.75
521.17	33673.29
521.34	33905.00
521.52	33579.67
521.69	34073.52
521.86	33783.29
522.03	33986.92
522.20	33972.88
522.38	34164.80
522.55	34623.54
522.72	33799.68
522.89	34366.09
523.07	34209.27
523.24	34553.33
523.41	34614.18
523.58	34511.20
523.75	35098.67
523.92	34607.16
524.10	35208.68
524.27	34899.73
524.44	34726.53
524.61	34848.24
524.78	35274.21
524.96	35395.92
525.13	35302.30
525.30	35679.13
525.47	35887.43
525.64	35838.28
525.81	35400.60
525.98	35618.27
526.16	35311.66
526.33	35629.98
526.50	35800.83
526.67	35508.27
526.84	35400.60
527.01	35962.33
527.18	35737.64
527.36	36556.83
527.53	36098.08
527.70	36208.09
527.87	36250.22
528.04	36187.02
528.21	36355.54
528.38	36147.23
528.55	36694.92
528.72	36175.32
528.89	36762.79
529.07	36662.15
529.24	36676.19
529.41	36458.52
529.58	36472.57
529.75	36449.16
529.92	36762.79
530.09	36615.34
530.26	37221.54
530.43	36950.04
530.60	36650.45
530.77	37230.90
530.94	37794.97
531.11	37179.41
531.28	37626.45
531.46	36877.48
531.63	37371.33
531.80	37303.46
531.97	37581.98
532.14	37553.90
532.31	37535.17
532.48	37242.60
532.65	37998.60
532.82	37663.90
532.99	37930.72
533.16	37862.85
533.33	37872.21
533.50	38101.58
533.67	38132.01
533.84	37495.38
534.01	37797.31
534.18	37600.71
534.35	38354.36
534.52	38197.54
534.69	38370.74
534.86	38232.65
535.03	37923.70
535.20	38075.84
535.37	38508.83
535.54	38766.29
535.71	38288.82
535.88	38553.30
536.05	38471.39
536.22	38670.33
536.38	38801.40
536.55	38763.95
536.72	38899.70
536.89	38438.62
537.06	38560.33
537.23	39154.82
537.40	38817.78
537.57	39016.73
537.74	39084.61
537.91	39431.01
538.08	39026.09
538.25	39108.01
538.42	38986.30
538.59	39236.74
538.75	38862.26
538.92	39147.80
539.09	39613.57
539.26	39498.88
539.43	39456.75
539.60	39440.37
539.77	39234.40
539.94	39894.43
540.11	39531.65
540.28	39407.60
540.44	39496.54
540.61	39667.40
540.78	39236.74
540.95	39318.66
541.12	39342.06
541.29	39459.09
541.46	39765.70
541.62	39828.90
541.79	40065.29
541.96	39744.64
542.13	40119.12
542.30	39730.59
542.47	40107.42
542.63	39711.87
542.80	39749.32
542.97	40098.06
543.14	40840.01
543.31	40425.73
543.48	40364.88
543.64	41261.30
543.81	40573.19
543.98	40491.27
544.15	40669.15
544.32	40994.48
544.48	40730.00
544.65	40919.59
544.82	40854.05
544.99	40774.47
545.16	40802.56
545.32	40732.34
545.49	41067.04
545.66	41258.96
545.83	41298.75
546.00	41855.80
546.16	41254.28
546.33	41076.40
546.50	40650.42
546.67	41483.66
546.83	40737.02
547.00	41518.76
547.17	41020.23
547.34	41228.54
547.50	41563.23
547.67	41551.53
547.84	41972.83
548.00	41558.55
548.17	41918.99
548.34	41427.48
548.51	41808.99
548.67	42103.90
548.84	41724.73
549.01	42036.02
549.18	41947.08
549.34	42089.85
549.51	41811.33
549.68	42263.05
549.84	42162.41
550.01	42520.51
550.18	42171.77
550.34	41954.10
550.51	42089.85
550.68	41993.89
550.84	41448.55
551.01	42131.98
551.18	42433.91
551.34	41921.34
551.51	42122.62
551.68	42450.30
551.84	42188.16
552.01	42522.85
552.18	42218.58
552.34	42291.14
552.51	42354.33
552.68	42307.52
552.84	42337.95
553.01	42674.99
553.18	42733.50
553.34	42691.37
553.51	42597.75
553.67	42452.64
553.84	43388.85
554.01	43044.79
554.17	42859.89
554.34	42862.23
554.51	42927.77
554.67	42667.97
554.84	42850.53
555.00	42572.00
555.17	42923.08
555.33	42796.70
555.50	42335.61
555.67	42813.08
555.83	42906.70
556.00	43161.82
556.16	43206.29
556.33	43222.67
556.50	43377.15
556.66	43290.55
556.83	43180.54
556.99	43044.79
557.16	43194.59
557.32	43246.08
557.49	43306.93
557.65	42665.63
557.82	43318.64
557.98	43255.44
558.15	43370.13
558.32	43489.49
558.48	43147.78
558.65	43192.25
558.81	43281.19
558.98	43892.07
559.14	43505.88
559.31	43501.20
559.47	43438.00
559.64	43566.73
559.80	43934.20
559.97	43655.67
560.13	43381.83
560.30	43416.94
560.46	43732.91
560.63	43555.03
560.79	43585.46
560.96	43777.38
561.12	43456.73
561.29	44137.82
561.45	43658.01
561.61	43758.66
561.78	43658.01
561.94	43784.40
562.11	44065.27
562.27	44006.75
562.44	43800.79
562.60	43999.73
562.77	43791.42
562.93	43971.64
563.10	43812.49
563.26	43665.03
563.42	43910.79
563.59	43887.39
563.75	44088.67
563.92	44201.02
564.08	44240.81
564.24	44067.61
564.41	44215.06
564.57	44154.21
564.74	43749.29
564.90	44098.03
565.07	43988.03
565.23	44406.98
565.39	43971.64
565.56	44444.43
565.72	44350.81
565.88	44240.81
566.05	43831.21
566.21	43826.53
566.38	43924.83
566.54	43906.11
566.70	44526.35
566.87	44753.38
567.03	44147.18
567.19	44685.51
567.36	44502.95
567.52	44268.89
567.68	44275.91
567.85	44154.21
568.01	44507.63
568.17	43885.04
568.34	44430.39
568.50	44683.17
568.66	44502.95
568.83	44570.82
568.99	43765.68
569.15	43746.95
569.32	44142.50
569.48	44191.65
569.64	44360.17
569.81	44341.45
569.97	44364.85
570.13	44509.97
570.30	44128.46
570.46	44329.75
570.62	44304.00
570.78	43999.73
570.95	44203.36
571.11	44304.00
571.27	44308.68
571.43	43882.70
571.60	44484.22
571.76	44390.60
571.92	44615.29
572.09	44463.16
572.25	44699.55
572.41	44327.41
572.57	44528.69
572.74	45202.77
572.90	44720.62
573.06	44732.32
573.22	44687.85
573.38	44954.67
573.55	44350.81
573.71	44652.74
573.87	44355.49
574.03	44699.55
574.20	44446.77
574.36	44425.71
574.52	44828.28
574.68	44804.88
574.84	44683.17
575.01	44538.05
575.17	44507.63
575.33	44402.30
575.49	44278.25
575.65	44809.56
575.82	44910.20
575.98	44823.60
576.14	45237.87
576.30	44531.03
576.46	44617.63
576.62	44308.68
576.79	44432.73
576.95	44353.15
577.11	44456.14
577.27	44591.89
577.43	44446.77
577.59	44584.86
577.75	44718.28
577.92	44034.84
578.08	44409.32
578.24	44636.36
578.40	44587.21
578.56	44481.88
578.72	44535.71
578.88	45146.59
579.04	44676.15
579.21	44416.35
579.37	44446.77
579.53	44811.90
579.69	44610.61
579.85	44626.99
580.01	44519.33
580.17	44594.23
580.33	44968.71
580.49	45207.45
580.65	44758.06
580.82	44968.71
580.98	44626.99
581.14	44629.34
581.30	44985.10
581.46	44814.24
581.62	44917.22
581.78	44444.43
581.94	44949.99
582.10	44957.01
582.26	44832.96
582.42	45111.49
582.58	45155.96
582.74	44746.36
582.90	45144.25
583.06	45151.27
583.22	44844.66
583.38	45282.34
583.54	44737.00
583.70	44748.70
583.86	44495.92
584.02	44259.53
584.18	44687.85
584.34	44875.09
584.50	45036.59
584.66	44603.59
584.82	44404.64
584.98	45202.77
585.14	45043.61
585.30	44690.19
585.46	44875.09
585.62	44755.72
585.78	44800.19
585.94	44364.85
586.10	44519.33
586.26	44622.31
586.42	45092.76
586.58	44760.40
586.74	44816.58
586.90	44877.43
587.06	44451.45
587.22	45088.08
587.38	44809.56
587.54	44987.44
587.70	45006.16
587.86	45254.26
588.02	44765.09
588.18	45315.11
588.34	44795.51
588.49	44856.37
588.65	44296.98
588.81	44755.72
588.97	44369.54
589.13	44657.42
589.29	44552.10
589.45	45017.86
589.61	45132.55
589.77	45055.31
589.93	44804.88
590.08	45034.25
590.24	45265.96
