SpectraSuite Data File
++++++++++++++++++++++++++++++++++++
Date: Fri Oct 25 11:25:32 EDT 2013
User: price-jones
Dark Spectrum Present: No
Reference Spectrum Present: No
Number of Sampled Component Spectra: 1
Spectrometers: USB2+H05261
Integration Time (usec): 100000 (USB2+H05261)
Spectra Averaged: 1 (USB2+H05261)
Boxcar Smoothing: 0 (USB2+H05261)
Correct for Electrical Dark: No (USB2+H05261)
Strobe/Lamp Enabled: No (USB2+H05261)
Correct for Detector Non-linearity: No (USB2+H05261)
Correct for Stray Light: No (USB2+H05261)
Number of Pixels in Processed Spectrum: 2048
>>>>>Begin Processed Spectral Data<<<<<
365.73	283.20
365.92	283.20
366.12	283.20
366.32	119.37
366.52	77.24
366.72	119.37
366.91	121.71
367.11	147.45
367.31	91.28
367.51	119.37
367.70	191.92
367.90	198.95
368.10	184.90
368.30	184.90
368.49	177.88
368.69	173.20
368.89	138.09
369.09	224.69
369.28	189.58
369.48	166.18
369.68	184.90
369.87	154.48
370.07	208.31
370.27	234.05
370.47	292.57
370.66	648.33
370.86	620.24
371.06	610.88
371.25	709.18
371.45	653.01
371.65	704.50
371.84	638.97
372.04	692.80
372.24	739.61
372.44	741.95
372.63	788.76
372.83	788.76
373.03	739.61
373.22	774.72
373.42	788.76
373.62	826.21
373.81	807.48
374.01	858.98
374.21	791.10
374.40	805.14
374.60	887.06
374.79	800.46
374.99	772.38
375.19	812.17
375.38	880.04
375.58	821.53
375.78	833.23
375.97	798.12
376.17	922.17
376.37	809.83
376.56	931.53
376.76	910.47
376.95	856.64
377.15	898.77
377.35	983.02
377.54	922.17
377.74	882.38
377.93	910.47
378.13	882.38
378.33	919.83
378.52	940.90
378.72	830.89
378.91	959.62
379.11	968.98
379.31	875.36
379.50	1013.45
379.70	910.47
379.89	945.58
380.09	952.60
380.28	959.62
380.48	976.00
380.68	978.34
380.87	1046.22
381.07	1046.22
381.26	1083.67
381.46	992.39
381.65	1086.01
381.85	1064.94
382.04	1064.94
382.24	1048.56
382.43	1027.50
382.63	1050.90
382.83	1057.92
383.02	1081.33
383.22	1139.84
383.41	1130.48
383.61	997.07
383.80	1146.86
384.00	1179.63
384.19	1210.06
384.39	1156.22
384.58	1139.84
384.78	1135.16
384.97	1095.37
385.17	1163.25
385.36	1203.04
385.56	1170.27
385.75	1158.57
385.95	1181.97
386.14	1240.48
386.34	1233.46
386.53	1139.84
386.72	1228.78
386.92	1228.78
387.11	1331.76
387.31	1121.12
387.50	1273.25
387.70	1210.06
387.89	1170.27
388.09	1240.48
388.28	1306.02
388.48	1315.38
388.67	1364.53
388.86	1345.81
389.06	1280.27
389.25	1366.87
389.45	1240.48
389.64	1315.38
389.84	1336.45
390.03	1341.13
390.22	1362.19
390.42	1404.32
390.61	1352.83
390.81	1439.43
391.00	1310.70
391.19	1430.07
391.39	1404.32
391.58	1483.90
391.78	1495.60
391.97	1451.13
392.16	1465.18
392.36	1504.96
392.55	1469.86
392.75	1547.09
392.94	1462.83
393.13	1469.86
393.33	1519.01
393.52	1577.52
393.71	1568.16
393.91	1614.97
394.10	1488.58
394.29	1680.50
394.49	1600.93
394.68	1654.76
394.88	1650.08
395.07	1647.74
395.26	1504.96
395.46	1631.35
395.65	1652.42
395.84	1687.53
396.04	1661.78
396.23	1741.36
396.42	1722.63
396.62	1788.17
396.81	1811.57
397.00	1739.02
397.19	1774.13
397.39	1795.19
397.58	1739.02
397.77	1867.75
397.97	1806.89
398.16	1863.07
398.35	1900.52
398.55	1907.54
398.74	1874.77
398.93	1970.73
399.12	1970.73
399.32	1825.62
399.51	1874.77
399.70	1914.56
399.90	1888.81
400.09	1930.94
400.28	2108.82
400.47	2022.22
400.67	2101.80
400.86	2150.95
401.05	2141.59
401.24	2045.63
401.44	2043.29
401.63	2115.84
401.82	2085.42
402.01	2181.38
402.21	2211.81
402.40	2179.04
402.59	2174.36
402.78	2153.29
402.97	2263.30
403.17	2356.92
403.36	2146.27
403.55	2172.02
403.74	2338.20
403.93	2415.43
404.13	2345.22
404.32	2300.75
404.51	2408.41
404.70	2340.54
404.89	2392.03
405.09	2478.63
405.28	2438.84
405.47	2368.62
405.66	2443.52
405.85	2462.24
406.05	2569.91
406.24	2647.15
406.43	2602.68
406.62	2602.68
406.81	2551.18
407.00	2518.42
407.20	2560.55
407.39	2640.12
407.58	2715.02
407.77	2693.96
407.96	2722.04
408.15	2801.62
408.34	2693.96
408.54	2736.09
408.73	2822.69
408.92	2853.11
409.11	2787.58
409.30	2708.00
409.49	2839.07
409.68	2818.00
409.87	2923.33
410.07	3028.65
410.26	2993.55
410.45	3014.61
410.64	3035.67
410.83	3208.87
411.02	3162.06
411.21	3208.87
411.40	3105.89
411.59	3122.27
411.78	3084.83
411.98	3236.96
412.17	3164.40
412.36	3339.94
412.55	3311.86
412.74	3337.60
412.93	3365.69
413.12	3328.24
413.31	3557.61
413.50	3494.42
413.69	3471.01
413.88	3562.30
414.07	3569.32
414.26	3555.27
414.45	3592.72
414.64	3590.38
414.83	3714.43
415.02	3784.65
415.22	3826.78
415.41	3826.78
415.60	3894.65
415.79	3798.69
415.98	3866.56
416.17	3999.98
416.36	3962.53
416.55	3985.93
416.74	3953.16
416.93	4060.83
417.12	4028.06
417.31	4133.39
417.50	4152.11
417.69	4341.69
417.88	4280.84
418.07	4493.83
418.26	4287.86
418.45	4379.14
418.64	4390.84
418.83	4451.70
419.02	4468.08
419.21	4435.32
419.39	4344.03
419.58	4568.73
419.77	4461.06
419.96	4545.32
420.15	4510.21
420.34	4610.86
420.53	4674.05
420.72	4755.97
420.91	4772.35
421.10	4737.24
421.29	4826.18
421.48	4594.47
421.67	4798.10
421.86	4760.65
422.05	4681.07
422.24	4851.93
422.43	4830.87
422.61	5013.43
422.80	4994.70
422.99	4901.08
423.18	4936.19
423.37	4959.60
423.56	4877.68
423.75	4936.19
423.94	4746.61
424.13	4587.45
424.32	4781.71
424.50	5060.24
424.69	5088.32
424.88	5055.56
425.07	4945.55
425.26	4950.23
425.45	5008.75
425.64	4870.65
425.83	5081.30
426.01	4964.28
426.20	5210.03
426.39	4985.34
426.58	4954.91
426.77	4992.36
426.96	5043.85
427.15	5172.58
427.33	5114.07
427.52	4931.51
427.71	5226.42
427.90	5210.03
428.09	5259.18
428.28	5188.97
428.46	5266.21
428.65	5313.02
428.84	5423.02
429.03	5593.88
429.22	5224.08
429.40	5472.17
429.59	5575.16
429.78	5252.16
429.97	5451.11
430.16	5467.49
430.34	5710.91
430.53	5724.95
430.72	5612.60
430.91	5586.86
431.10	5673.46
431.28	5713.25
431.47	5748.36
431.66	5860.70
431.85	5846.66
432.03	5914.53
432.22	5874.74
432.41	5863.04
432.60	5851.34
432.79	5881.77
432.97	6129.86
433.16	5891.13
433.35	5959.00
433.54	5935.60
433.72	6146.25
433.91	6183.70
434.10	6083.05
434.28	6143.91
434.47	6150.93
434.66	6249.23
434.85	6448.18
435.03	6267.95
435.22	6232.85
435.41	6321.79
435.59	6298.38
435.78	6251.57
435.97	6314.77
436.16	6347.53
436.34	6291.36
436.53	6464.56
436.72	6670.53
436.90	6377.96
437.09	6516.05
437.28	6253.91
437.46	6525.41
437.65	6729.04
437.84	6703.29
438.02	6590.95
438.21	6796.92
438.40	6672.87
438.58	6848.41
438.77	7112.89
438.96	6815.64
439.14	7105.87
439.33	7248.64
439.52	7176.08
439.70	7052.03
439.89	7417.16
440.08	7337.58
440.26	7405.46
440.45	7449.93
440.63	7349.28
440.82	7583.34
441.01	7578.65
441.19	7492.05
441.38	7618.44
441.57	7595.04
441.75	7831.43
441.94	8004.63
442.12	7936.76
442.31	7957.82
442.50	8006.97
442.68	7976.55
442.87	7819.73
443.05	7943.78
443.24	8222.30
443.43	8013.99
443.61	8243.37
443.80	8491.46
443.98	7880.58
444.17	7925.05
444.35	8049.10
444.54	8269.11
444.73	8299.54
444.91	8182.51
445.10	8329.97
445.28	8166.13
445.47	8131.02
445.65	8168.47
445.84	8226.98
446.02	8416.57
446.21	8411.89
446.39	8273.79
446.58	8407.20
446.77	8456.36
446.95	8374.44
447.14	8512.53
447.32	8608.49
447.51	8564.02
447.69	8505.51
447.88	8505.51
448.06	8348.69
448.25	8402.52
448.43	8615.51
448.62	8650.62
448.80	8479.76
448.99	8517.21
449.17	8713.81
449.36	8528.91
449.54	8758.28
449.73	8746.58
449.91	8835.52
450.10	8849.57
450.28	8863.61
450.46	8938.51
450.65	8997.02
450.83	9107.02
451.02	8889.35
451.20	9249.80
451.39	9095.32
451.57	9008.72
451.76	8992.34
451.94	9413.63
452.13	9104.68
452.31	9219.37
452.49	9280.22
452.68	9364.48
452.86	9399.59
453.05	9628.96
453.23	9460.45
453.42	9200.65
453.60	9324.69
453.78	9628.96
453.97	9324.69
454.15	9533.00
454.34	9357.46
454.52	9727.27
454.70	9617.26
454.89	9523.64
455.07	9804.50
455.26	9785.78
455.44	9951.96
455.62	9832.59
455.81	9951.96
455.99	9881.74
456.17	10047.92
456.36	10076.01
456.54	10111.11
456.73	10356.87
456.91	10504.32
457.09	10391.98
457.28	10422.41
457.46	10319.42
457.64	10410.70
457.83	10406.02
458.01	10349.85
458.19	10565.18
458.38	10516.03
458.56	10590.92
458.74	10635.39
458.93	10581.56
459.11	10661.14
459.29	10600.29
459.48	10729.02
459.66	10518.37
459.84	10895.19
460.03	11019.24
460.21	10848.38
460.39	10939.66
460.57	11019.24
460.76	11307.13
460.94	11140.95
461.12	11257.98
461.31	11143.29
461.49	10984.13
461.67	11187.76
461.85	11421.81
462.04	11234.57
462.22	11850.13
462.40	11440.54
462.59	11389.05
462.77	11382.03
462.95	11595.01
463.13	11398.41
463.32	11765.87
463.50	11707.36
463.68	11770.55
463.86	11751.83
464.05	11440.54
464.23	11566.93
464.41	11880.56
464.59	11747.15
464.78	11784.60
464.96	11913.33
465.14	11800.98
465.32	12203.55
465.50	12114.61
465.69	12063.12
465.87	12086.53
466.05	11913.33
466.23	12100.57
466.41	11953.12
466.60	12390.80
466.78	11882.90
466.96	12091.21
467.14	12353.35
467.32	12142.70
467.51	12571.02
467.69	12173.13
467.87	12229.30
468.05	12414.20
468.23	12425.90
468.41	12451.65
468.60	12709.11
468.78	12809.75
468.96	12716.13
469.14	12676.34
469.32	13032.10
469.50	12416.54
469.69	12798.05
469.87	13135.09
470.05	12915.08
470.23	13137.43
470.41	13076.57
470.59	13317.65
470.77	13092.96
470.95	13315.31
471.14	13387.86
471.32	13076.57
471.50	13561.06
471.68	13451.06
471.86	13556.38
472.04	13743.63
472.22	14143.86
472.40	13647.66
472.58	13666.39
472.77	13830.23
472.95	14104.07
473.13	14663.46
473.31	14080.66
473.49	14303.01
473.67	14160.24
473.85	14197.69
474.03	14464.51
474.21	14595.58
474.39	14586.22
474.57	14728.99
474.75	14864.74
474.93	14677.50
475.12	14752.40
475.30	15171.35
475.48	14946.66
475.66	15075.39
475.84	15105.82
476.02	15400.72
476.20	15349.23
476.38	15637.12
476.56	15822.02
476.74	16226.93
476.92	15590.31
477.10	15529.45
477.28	16374.39
477.46	16297.15
477.64	16287.79
477.82	16444.60
478.00	16896.33
478.18	16636.53
478.36	16847.18
478.54	16849.52
478.72	17142.08
478.90	17097.61
479.08	17568.06
479.26	17345.71
479.44	17619.55
479.62	17783.39
479.80	18036.17
479.98	18085.32
480.16	18405.97
480.34	18192.98
480.52	18590.88
480.70	18401.29
480.88	18312.35
481.06	18668.11
481.24	18841.31
481.41	18913.87
481.59	19068.34
481.77	19431.13
481.95	19620.71
482.13	19494.32
482.31	19473.26
482.49	20086.48
482.67	20109.88
482.85	20233.93
483.03	20727.78
483.21	20954.82
483.39	20568.63
483.57	20503.09
483.74	21001.63
483.92	21390.16
484.10	20929.07
484.28	21687.40
484.46	21797.41
484.64	21898.05
484.82	21579.74
485.00	22251.47
485.18	22785.12
485.35	22984.06
485.53	22909.16
485.71	22621.28
485.89	23566.85
486.07	23278.97
486.25	23103.43
486.43	23641.75
486.61	23810.27
486.78	23793.89
486.96	23875.80
487.14	24624.78
487.32	24547.54
487.50	24449.24
487.68	24683.29
487.85	25055.43
488.03	25324.60
488.21	25514.18
488.39	25682.70
488.57	26003.35
488.75	25816.11
488.92	26075.91
489.10	26483.16
489.28	26876.37
489.46	26843.60
489.64	26817.86
489.81	27459.16
489.99	27744.71
490.17	27756.41
490.35	27789.18
490.53	27840.67
490.70	28367.29
490.88	28271.33
491.06	29006.26
491.24	28680.92
491.41	29024.98
491.59	29338.62
491.77	29022.64
491.95	29439.26
492.13	29462.66
492.30	29663.95
492.48	30038.44
492.66	29820.77
492.84	30096.95
493.01	30836.56
493.19	30279.51
493.37	30759.32
493.54	31157.21
493.72	31402.97
493.90	31299.98
494.08	31725.96
494.25	31620.64
494.43	31779.79
494.61	31983.42
494.79	32130.87
494.96	32444.51
495.14	32498.34
495.32	33291.78
495.49	32786.22
495.67	33483.70
495.85	33291.78
496.02	33748.18
496.20	34038.41
496.38	34024.37
496.55	33762.23
496.73	34719.51
496.91	34164.80
497.09	34749.93
497.26	35159.53
497.44	34497.16
497.62	35058.88
497.79	35915.52
497.97	34991.01
498.14	35573.80
498.32	35828.92
498.50	36070.00
498.67	36294.69
498.85	36247.88
499.03	36540.44
499.20	36535.76
499.38	36652.79
499.56	36842.37
499.73	37095.15
499.91	37273.03
500.08	37303.46
500.26	37106.85
500.44	37633.47
500.61	37453.25
500.79	37879.23
500.97	37970.51
501.14	38330.95
501.32	38272.44
501.49	38206.90
501.67	38234.99
501.84	38745.23
502.02	38724.16
502.20	38689.06
502.37	39182.91
502.55	38745.23
502.72	39360.79
502.90	39316.32
503.07	39199.29
503.25	39601.86
503.43	39445.05
503.60	39761.02
503.78	39854.64
503.95	40088.70
504.13	40275.94
504.30	40505.31
504.48	40233.81
504.65	40570.85
504.83	40863.41
505.01	41368.97
505.18	41408.76
505.36	41127.89
505.53	40919.59
505.71	41635.79
505.88	41486.00
506.06	41083.42
506.23	41619.41
506.41	41549.19
506.58	41778.56
506.76	41996.23
506.93	42319.23
507.11	42094.53
507.28	42522.85
507.46	42649.24
507.63	42782.65
507.81	42909.04
507.98	42700.73
508.16	42923.08
508.33	43400.55
508.50	43283.53
508.68	43152.46
508.85	44119.10
509.03	43489.49
509.20	43814.83
509.38	43992.71
509.55	43995.05
509.73	44477.20
509.90	44465.50
510.08	44444.43
510.25	44238.47
510.42	44861.05
510.60	44498.26
510.77	44926.58
510.95	45010.84
511.12	45184.04
511.30	45216.81
511.47	45502.35
511.64	45219.15
511.82	45851.09
511.99	45448.52
512.17	45628.74
512.34	45574.91
512.51	45820.67
512.69	46148.34
512.86	46302.82
513.04	46426.87
513.21	46375.37
513.38	46113.23
513.56	46604.75
513.73	46340.27
513.90	46667.94
514.08	46618.79
514.25	47042.43
514.43	46948.81
514.60	46796.67
514.77	47091.58
514.95	47349.04
515.12	47555.00
515.29	47236.69
515.47	47428.62
515.64	48119.07
515.81	47618.20
515.99	48397.60
516.16	48156.52
516.33	48364.83
516.51	48559.09
516.68	48053.54
516.85	48467.81
517.03	48470.15
517.20	48648.03
517.37	48292.27
517.54	48720.59
517.72	48535.69
517.89	48921.88
518.06	48971.03
518.24	48608.25
518.41	49291.68
518.58	49071.67
518.75	48964.01
518.93	49336.15
519.10	49298.70
519.27	49602.97
519.45	49584.25
519.62	49631.06
519.79	49703.62
519.96	49612.34
520.14	49841.71
520.31	49839.37
520.48	50396.42
520.65	50131.93
520.83	50632.81
521.00	50368.33
521.17	50110.87
521.34	50450.25
521.52	50438.54
521.69	50717.07
521.86	50567.27
522.03	50916.01
522.20	51526.89
522.38	51016.66
522.55	51283.48
522.72	51173.47
522.89	51241.35
523.07	51578.39
523.24	51409.87
523.41	51393.48
523.58	51503.49
523.75	51674.35
523.92	51763.29
524.10	51966.91
524.27	51995.00
524.44	52006.70
524.61	51861.59
524.78	51955.21
524.96	52439.70
525.13	52165.86
525.30	52252.46
525.47	52374.17
525.64	52273.52
525.81	52388.21
525.98	52339.06
526.16	52212.67
526.33	52418.64
526.50	52736.95
526.67	52657.37
526.84	52804.83
527.01	52425.66
527.18	52671.42
527.36	52776.74
527.53	53097.39
527.70	53237.83
527.87	53378.26
528.04	53081.01
528.21	53141.86
528.38	53319.74
528.55	53656.78
528.72	53286.98
528.89	53305.70
529.07	53057.60
529.24	53221.44
529.41	53614.65
529.58	53408.68
529.75	53453.15
529.92	53404.00
530.09	53462.52
530.26	53708.27
530.43	53858.07
530.60	53811.26
530.77	53666.14
530.94	54195.10
531.11	53865.09
531.28	54344.90
531.46	54237.23
531.63	54033.61
531.80	54190.42
531.97	53921.26
532.14	54363.62
532.31	54335.54
532.48	54382.35
532.65	54511.08
532.82	54333.20
532.99	54363.62
533.16	54403.41
533.33	54431.50
533.50	55028.34
533.67	54585.97
533.84	54691.30
534.01	54637.47
534.18	54688.96
534.35	55072.81
534.52	54925.35
534.69	54908.97
534.86	55189.83
535.03	54887.90
535.20	55093.87
535.37	55201.53
535.54	55318.56
535.71	54976.84
535.88	55356.01
536.05	55398.14
536.22	55613.47
536.38	55199.19
536.55	55444.95
536.72	55313.88
536.89	55367.71
537.06	55348.99
537.23	55639.22
537.40	55360.69
537.57	55421.55
537.74	55671.98
537.91	55842.84
538.08	55758.58
538.25	55489.42
538.42	55805.39
538.59	56114.34
538.75	55704.75
538.92	55987.95
539.09	55887.31
539.26	56051.15
539.43	56114.34
539.60	56116.68
539.77	56214.99
539.94	56282.86
540.11	56079.24
540.28	56294.56
540.44	56285.20
540.61	56395.21
540.78	56432.66
540.95	56306.27
541.12	56336.69
541.29	56308.61
541.46	56381.16
541.62	56320.31
541.79	56622.24
541.96	56261.80
542.13	56329.67
542.30	56488.83
542.47	56678.41
542.63	56530.96
542.80	56596.49
542.97	56980.34
543.14	57279.93
543.31	56956.94
543.48	57165.24
543.64	57331.42
543.81	57228.44
543.98	57331.42
544.15	56928.85
544.32	57209.71
544.48	57443.77
544.65	57125.46
544.82	57338.44
544.99	57268.23
545.16	57546.75
545.32	57315.04
545.49	57631.01
545.66	57623.99
545.83	57483.56
546.00	57546.75
546.16	57481.22
546.33	57338.44
546.50	57368.87
546.67	57467.17
546.83	57298.65
547.00	57822.93
547.17	57539.73
547.34	57719.95
547.50	57778.46
547.67	58155.29
547.84	57759.74
548.00	58279.34
548.17	57963.37
548.34	57956.35
548.51	58075.71
548.67	58124.86
548.84	58185.72
549.01	57853.36
549.18	57928.26
549.34	58033.58
549.51	58099.12
549.68	58284.02
549.84	58056.99
550.01	58335.51
550.18	58141.25
550.34	58258.27
550.51	58377.64
550.68	58277.00
550.84	58274.66
551.01	58344.87
551.18	58347.21
551.34	58443.18
551.51	58211.46
551.68	58534.46
551.84	58597.65
552.01	58403.39
552.18	58368.28
552.34	58454.88
552.51	58532.12
552.68	58499.35
552.84	58433.81
553.01	58979.16
553.18	58607.01
553.34	58805.96
553.51	58693.61
553.67	58791.92
553.84	58817.66
554.01	58674.89
554.17	58775.53
554.34	58948.73
554.51	58913.62
554.67	59065.76
554.84	58782.55
555.00	58887.88
555.17	58951.07
555.33	58754.47
555.50	58827.02
555.67	58873.84
555.83	58759.15
556.00	59199.17
556.16	59384.07
556.33	59128.95
556.50	59084.48
556.66	59201.51
556.83	59016.61
556.99	59152.36
557.16	59407.48
557.32	59274.07
557.49	59423.86
557.65	59236.62
557.82	59234.28
557.98	59018.95
558.15	59550.25
558.32	59449.61
558.48	59255.34
558.65	59299.81
558.81	59269.39
558.98	59395.77
559.14	59491.74
559.31	59643.87
559.47	59477.69
559.64	59580.68
559.80	59388.75
559.97	59611.10
560.13	59557.27
560.30	59503.44
560.46	59583.02
560.63	59681.32
560.79	59690.68
560.96	59716.43
561.12	59634.51
561.29	59664.94
561.45	59538.55
561.61	59704.73
561.78	59678.98
561.94	59709.41
562.11	59671.96
562.27	59859.20
562.44	59854.52
562.60	59884.95
562.77	59866.22
562.93	59728.13
563.10	60034.74
563.26	59877.93
563.42	60175.17
563.59	59962.18
563.75	59765.58
563.92	59908.35
564.08	59770.26
564.24	60079.21
564.41	60186.88
564.57	60074.53
564.74	60067.51
564.90	59957.50
565.07	59884.95
565.23	59980.91
565.39	60053.47
565.56	60142.41
565.72	60048.78
565.88	60079.21
566.05	60030.06
566.21	59971.55
566.38	59922.40
566.54	60224.32
566.70	60161.13
566.87	60336.67
567.03	60104.96
567.19	60303.90
567.36	60221.98
567.52	60097.94
567.68	60313.26
567.85	60374.12
568.01	60364.76
568.17	60177.51
568.34	60395.18
568.50	60331.99
568.66	60196.24
568.83	60303.90
568.99	60280.50
569.15	60186.88
569.32	60308.58
569.48	60116.66
569.64	60348.37
569.81	60172.83
569.97	60114.32
570.13	60449.02
570.30	60154.11
570.46	60238.37
570.62	60385.82
570.78	60254.75
570.95	60437.31
571.11	60598.81
571.27	60367.10
571.43	60481.78
571.60	60423.27
571.76	60451.36
571.92	60385.82
572.09	60355.39
572.25	60287.52
572.41	60484.12
572.57	60465.40
572.74	60631.58
572.90	60463.06
573.06	60500.51
573.22	60446.68
573.38	60629.24
573.55	60753.29
573.71	60659.66
573.87	60720.52
574.03	60303.90
574.20	60371.78
574.36	60561.36
574.52	60790.73
574.68	60559.02
574.84	60535.62
575.01	60776.69
575.17	60472.42
575.33	60598.81
575.49	60470.08
575.65	60596.47
575.82	60697.11
575.98	60584.77
576.14	60891.38
576.30	60680.73
576.46	60720.52
576.62	60589.45
576.79	60659.66
576.95	60505.19
577.11	60692.43
577.27	60669.03
577.43	60673.71
577.59	60477.10
577.75	60659.66
577.92	60563.70
578.08	60683.07
578.24	60654.98
578.40	60769.67
578.56	60882.02
578.72	60825.84
578.88	60786.05
579.04	60786.05
579.21	60802.44
579.37	60743.92
579.53	60722.86
579.69	60729.88
579.85	60846.91
580.01	60390.50
580.17	60594.13
580.33	60739.24
580.49	60762.65
580.65	60692.43
580.82	60874.99
580.98	60650.30
581.14	60610.51
581.30	60748.60
581.46	60795.42
581.62	60753.29
581.78	60680.73
581.94	60846.91
582.10	60764.99
582.26	60757.97
582.42	60779.03
582.58	60898.40
582.74	60889.04
582.90	60865.63
583.06	60851.59
583.22	60746.26
583.38	60865.63
583.54	60842.23
583.70	60935.85
583.86	60963.93
584.02	60884.36
584.18	60891.38
584.34	60774.35
584.50	60891.38
584.66	60722.86
584.82	60729.88
584.98	60865.63
585.14	60879.67
585.30	60802.44
585.46	60750.94
585.62	60851.59
585.78	60966.27
585.94	60629.24
586.10	60921.80
586.26	60947.55
586.42	60926.49
586.58	61095.00
586.74	60849.25
586.90	60896.06
587.06	60907.76
587.22	61113.73
587.38	61076.28
587.54	61055.21
587.70	61130.11
587.86	61006.06
588.02	60992.02
588.18	61020.11
588.34	60977.98
588.49	60821.16
