SpectraSuite Data File
++++++++++++++++++++++++++++++++++++
Date: Fri Oct 25 11:22:36 EDT 2013
User: price-jones
Dark Spectrum Present: No
Reference Spectrum Present: No
Number of Sampled Component Spectra: 1
Spectrometers: USB2+H05261
Integration Time (usec): 100000 (USB2+H05261)
Spectra Averaged: 1 (USB2+H05261)
Boxcar Smoothing: 0 (USB2+H05261)
Correct for Electrical Dark: No (USB2+H05261)
Strobe/Lamp Enabled: No (USB2+H05261)
Correct for Detector Non-linearity: No (USB2+H05261)
Correct for Stray Light: No (USB2+H05261)
Number of Pixels in Processed Spectrum: 2048
>>>>>Begin Processed Spectral Data<<<<<
365.73	290.23
365.92	290.23
366.12	290.23
366.32	121.71
366.52	161.50
366.72	46.81
366.91	72.56
367.11	128.73
367.31	86.60
367.51	105.32
367.70	166.18
367.90	128.73
368.10	110.01
368.30	117.03
368.49	142.77
368.69	173.20
368.89	163.84
369.09	102.98
369.28	175.54
369.48	140.43
369.68	163.84
369.87	180.22
370.07	135.75
370.27	175.54
370.47	322.99
370.66	585.13
370.86	582.79
371.06	594.50
371.25	685.78
371.45	617.90
371.65	671.73
371.84	648.33
372.04	662.37
372.24	695.14
372.44	718.54
372.63	758.33
372.83	669.39
373.03	678.76
373.22	795.78
373.42	730.25
373.62	704.50
373.81	770.04
374.01	793.44
374.21	798.12
374.40	842.59
374.60	849.61
374.79	812.17
374.99	863.66
375.19	844.93
375.38	816.85
375.58	772.38
375.78	763.01
375.97	788.76
376.17	882.38
376.37	877.70
376.56	863.66
376.76	833.23
376.95	870.68
377.15	978.34
377.35	861.32
377.54	910.47
377.74	971.32
377.93	896.43
378.13	884.72
378.33	1025.15
378.52	954.94
378.72	922.17
378.91	997.07
379.11	898.77
379.31	903.45
379.50	999.41
379.70	957.28
379.89	990.05
380.09	933.87
380.28	933.87
380.48	966.64
380.68	901.11
380.87	968.98
381.07	1060.26
381.26	1050.90
381.46	1053.24
381.65	1020.47
381.85	1036.86
382.04	1013.45
382.24	1055.58
382.43	1043.88
382.63	1081.33
382.83	1067.28
383.02	1151.54
383.22	1107.07
383.41	1188.99
383.61	1086.01
383.80	1128.14
384.00	1125.80
384.19	1078.99
384.39	1191.33
384.58	1090.69
384.78	1128.14
384.97	1151.54
385.17	1139.84
385.36	1132.82
385.56	1135.16
385.75	1151.54
385.95	1193.67
386.14	1198.35
386.34	1238.14
386.53	1179.63
386.72	1144.52
386.92	1266.23
387.11	1301.34
387.31	1348.15
387.50	1226.44
387.70	1231.12
387.89	1212.40
388.09	1324.74
388.28	1245.16
388.48	1296.66
388.67	1273.25
388.86	1352.83
389.06	1294.32
389.25	1378.58
389.45	1282.61
389.64	1385.60
389.84	1411.34
390.03	1397.30
390.22	1446.45
390.42	1310.70
390.61	1338.79
390.81	1397.30
391.00	1423.05
391.19	1502.62
391.39	1423.05
391.58	1469.86
391.78	1476.88
391.97	1444.11
392.16	1507.30
392.36	1577.52
392.55	1561.14
392.75	1584.54
392.94	1528.37
393.13	1537.73
393.33	1544.75
393.52	1556.46
393.71	1561.14
393.91	1596.25
394.10	1619.65
394.29	1600.93
394.49	1678.16
394.68	1619.65
394.88	1673.48
395.07	1652.42
395.26	1629.01
395.46	1673.48
395.65	1657.10
395.84	1757.74
396.04	1771.79
396.23	1736.68
396.42	1612.63
396.62	1795.19
396.81	1703.91
397.00	1825.62
397.19	1830.30
397.39	1785.83
397.58	1734.34
397.77	1837.32
397.97	1736.68
398.16	1816.26
398.35	1823.28
398.55	1834.98
398.74	1944.99
398.93	1930.94
399.12	1907.54
399.32	1867.75
399.51	1853.70
399.70	2047.97
399.90	1834.98
400.09	1928.60
400.28	2078.40
400.47	2047.97
400.67	2076.06
400.86	2111.16
401.05	2150.95
401.24	2076.06
401.44	2057.33
401.63	2010.52
401.82	2069.03
402.01	2026.90
402.21	2111.16
402.40	2265.64
402.59	2188.40
402.78	2267.98
402.97	2326.49
403.17	2392.03
403.36	2275.00
403.55	2216.49
403.74	2340.54
403.93	2377.98
404.13	2324.15
404.32	2417.77
404.51	2392.03
404.70	2469.27
404.89	2417.77
405.09	2380.32
405.28	2471.61
405.47	2485.65
405.66	2457.56
405.85	2572.25
406.05	2534.80
406.24	2628.42
406.43	2640.12
406.62	2619.06
406.81	2661.19
407.00	2644.81
407.20	2668.21
407.39	2670.55
407.58	2715.02
407.77	2759.49
407.96	2747.79
408.15	2867.16
408.34	2700.98
408.54	2808.64
408.73	2864.82
408.92	2836.73
409.11	2897.58
409.30	2991.20
409.49	2841.41
409.68	2949.08
409.87	2981.84
410.07	3145.68
410.26	3030.99
410.45	3049.72
410.64	3028.65
410.83	3110.57
411.02	3136.32
411.21	3232.28
411.40	3152.70
411.59	3194.83
411.78	3255.69
411.98	3049.72
412.17	3269.73
412.36	3276.75
412.55	3393.78
412.74	3403.14
412.93	3321.22
413.12	3510.80
413.31	3508.46
413.50	3433.57
413.69	3438.25
413.88	3611.45
414.07	3515.48
414.26	3658.26
414.45	3691.02
414.64	3651.24
414.83	3698.05
415.02	3840.82
415.22	3920.40
415.41	3957.85
415.60	3964.87
415.79	4046.79
415.98	3929.76
416.17	4009.34
416.36	4077.21
416.55	4117.00
416.74	4348.72
416.93	4074.87
417.12	4140.41
417.31	4269.14
417.50	4294.88
417.69	4341.69
417.88	4278.50
418.07	4269.14
418.26	4386.16
418.45	4358.08
418.64	4491.49
418.83	4386.16
419.02	4475.10
419.21	4519.57
419.39	4519.57
419.58	4535.96
419.77	4456.38
419.96	4580.43
420.15	4542.98
420.34	4657.67
420.53	4652.98
420.72	4645.96
420.91	4685.75
421.10	4748.95
421.29	4800.44
421.48	4851.93
421.67	4802.78
421.86	4737.24
422.05	4671.71
422.24	4938.53
422.43	4938.53
422.61	4922.15
422.80	5109.39
422.99	5050.88
423.18	4999.38
423.37	5149.18
423.56	4912.78
423.75	4926.83
423.94	4842.57
424.13	4627.24
424.32	4870.65
424.50	4985.34
424.69	5090.67
424.88	5071.94
425.07	5006.41
425.26	4795.76
425.45	5097.69
425.64	4887.04
425.83	5097.69
426.01	5188.97
426.20	5114.07
426.39	5123.43
426.58	5022.79
426.77	5048.54
426.96	5146.84
427.15	5151.52
427.33	5121.09
427.52	5210.03
427.71	5210.03
427.90	5355.15
428.09	5254.50
428.28	5277.91
428.46	5474.51
428.65	5317.70
428.84	5549.41
429.03	5579.84
429.22	5497.92
429.40	5514.30
429.59	5640.69
429.78	5338.76
429.97	5247.48
430.16	5483.88
430.34	5572.82
430.53	5612.60
430.72	5668.78
430.91	5467.49
431.10	5671.12
431.28	5825.59
431.47	5923.90
431.66	5729.63
431.85	5804.53
432.03	6033.90
432.22	5961.34
432.41	5926.24
432.60	5809.21
432.79	5879.43
432.97	5984.75
433.16	6076.03
433.35	5888.79
433.54	6171.99
433.72	6214.12
433.91	6193.06
434.10	6258.59
434.28	6211.78
434.47	6279.66
434.66	6279.66
434.85	6167.31
435.03	6373.28
435.22	6356.90
435.41	6532.44
435.59	6420.09
435.78	6464.56
435.97	6630.74
436.16	6347.53
436.34	6530.09
436.53	6476.26
436.72	6532.44
436.90	6555.84
437.09	6750.10
437.28	6675.21
437.46	6661.16
437.65	6619.04
437.84	6855.43
438.02	6684.57
438.21	6918.62
438.40	6794.58
438.58	7026.29
438.77	7026.29
438.96	7126.93
439.14	7131.61
439.33	7152.68
439.52	7241.62
439.70	7307.15
439.89	7253.32
440.08	7400.77
440.26	7480.35
440.45	7494.40
440.63	7555.25
440.82	7569.29
441.01	7632.49
441.19	7679.30
441.38	7590.36
441.57	7925.05
441.75	7964.84
441.94	8021.02
442.12	7829.09
442.31	7920.37
442.50	8166.13
442.68	8149.75
442.87	8170.81
443.05	8105.28
443.24	8290.18
443.43	8332.31
443.61	8344.01
443.80	8542.96
443.98	8184.85
444.17	7988.25
444.35	8393.16
444.54	8538.27
444.73	8299.54
444.91	8306.56
445.10	8505.51
445.28	8313.58
445.47	8451.67
445.65	8416.57
445.84	8521.89
446.02	8435.29
446.21	8559.34
446.39	8617.85
446.58	8299.54
446.77	8332.31
446.95	8327.63
447.14	8648.28
447.32	8692.75
447.51	8521.89
447.69	8554.66
447.88	8629.56
448.06	8557.00
448.25	8571.04
448.43	8613.17
448.62	8657.64
448.80	8552.32
448.99	8725.52
449.17	8793.39
449.36	8898.72
449.54	8952.55
449.73	9210.01
449.91	9060.21
450.10	9287.25
450.28	9207.67
450.46	9191.28
450.65	9102.34
450.83	9067.24
451.02	9050.85
451.20	9121.07
451.39	9057.87
451.57	9298.95
451.76	9235.75
451.94	9163.20
452.13	9617.26
452.31	9177.24
452.49	9135.11
452.68	9432.36
452.86	9474.49
453.05	9500.23
453.23	9575.13
453.42	9521.30
453.60	9467.47
453.78	9549.39
453.97	9652.37
454.15	9626.62
454.34	9710.88
454.52	10026.86
454.70	9708.54
454.89	9856.00
455.07	9914.51
455.26	9912.17
455.44	10026.86
455.62	10012.81
455.81	10033.88
455.99	9848.97
456.17	9991.75
456.36	10085.37
456.54	10157.92
456.73	10253.89
456.91	10675.18
457.09	10525.39
457.28	10780.51
457.46	10413.04
457.64	10724.33
457.83	10415.38
458.01	10595.61
458.19	10970.09
458.38	10572.20
458.56	10820.30
458.74	10731.36
458.93	10759.44
459.11	10857.75
459.29	10771.15
459.48	10803.91
459.66	10939.66
459.84	11101.16
460.03	11208.83
460.21	11035.63
460.39	11206.48
460.57	10902.22
460.76	11199.46
460.94	11204.14
461.12	11204.14
461.31	11309.47
461.49	11220.53
461.67	11365.64
461.85	11595.01
462.04	11332.87
462.22	11721.40
462.40	11735.45
462.59	11721.40
462.77	11517.78
462.95	11695.66
463.13	11506.07
463.32	11655.87
463.50	11943.75
463.68	11819.71
463.86	12020.99
464.05	11735.45
464.23	11892.26
464.41	12002.27
464.59	11894.60
464.78	12280.79
464.96	12114.61
465.14	12093.55
465.32	12299.52
465.50	12109.93
465.69	12472.71
465.87	12149.72
466.05	12271.43
466.23	12304.20
466.41	12526.55
466.60	12528.89
466.78	12404.84
466.96	12386.12
467.14	12355.69
467.32	12425.90
467.51	12556.97
467.69	12166.10
467.87	12409.52
468.05	12535.91
468.23	12475.06
468.41	12276.11
468.60	12844.86
468.78	12812.09
468.96	12676.34
469.14	12985.29
469.32	13006.36
469.50	12945.50
469.69	13004.02
469.87	13207.64
470.05	13296.58
470.23	13289.56
470.41	13411.27
470.59	13495.53
470.77	13380.84
470.95	13289.56
471.14	13638.30
471.32	13069.55
471.50	13715.54
471.68	13790.44
471.86	13678.09
472.04	13872.36
472.22	14218.75
472.40	13738.94
472.58	14167.26
472.77	13886.40
472.95	14370.89
473.13	14600.26
473.31	14209.39
473.49	14574.52
473.67	14366.21
473.85	14239.82
474.03	14682.18
474.21	14684.52
474.39	14661.12
474.57	14944.32
474.75	15016.88
474.93	14754.74
475.12	14909.21
475.30	15068.37
475.48	15384.34
475.66	15318.81
475.84	15164.33
476.02	15578.61
476.20	15632.44
476.38	15733.08
476.56	16215.23
476.74	16231.62
476.92	16437.58
477.10	15847.77
477.28	16332.26
477.46	16126.29
477.64	16580.36
477.82	16751.21
478.00	16929.09
478.18	17111.66
478.36	17088.25
478.54	16957.18
478.72	17282.52
478.90	17680.41
479.08	17741.26
479.26	17806.80
479.44	17930.84
479.62	17996.38
479.80	18167.24
479.98	18291.29
480.16	18787.48
480.34	18593.22
480.52	18640.03
480.70	18827.27
480.88	18721.95
481.06	18728.97
481.24	19063.66
481.41	19438.15
481.59	19421.77
481.77	19927.32
481.95	19840.72
482.13	19857.10
482.31	19793.91
482.49	20545.22
482.67	20814.38
482.85	20718.42
483.03	20659.91
483.21	20933.75
483.39	21266.11
483.57	21088.23
483.74	21572.72
483.92	21706.13
484.10	21338.66
484.28	21858.26
484.46	22139.13
484.64	22604.89
484.82	22209.34
485.00	22555.74
485.18	23115.13
485.35	23248.54
485.53	23009.81
485.71	23122.15
485.89	23768.14
486.07	23440.47
486.25	23522.38
486.43	24149.65
486.61	24191.78
486.78	24339.23
486.96	24290.08
487.14	24917.34
487.32	24870.53
487.50	25322.26
487.68	25376.09
487.85	25223.95
488.03	25605.46
488.21	26141.44
488.39	26209.32
488.57	26522.95
488.75	26991.06
488.92	26944.25
489.10	27061.27
489.28	26869.35
489.46	27161.92
489.64	27040.21
489.81	27761.09
489.99	27941.32
490.17	28402.40
490.35	28390.70
490.53	28393.04
490.70	28877.53
490.88	28711.35
491.06	29235.63
491.24	29198.18
491.41	29319.89
491.59	29750.55
491.77	29853.53
491.95	29970.56
492.13	30349.73
492.30	30581.44
492.48	30441.01
492.66	30661.02
492.84	30742.94
493.01	31189.98
493.19	30986.35
493.37	31152.53
493.54	31480.21
493.72	31957.67
493.90	31831.29
494.08	31648.72
494.25	32484.30
494.43	32395.35
494.61	32484.30
494.79	32723.03
494.96	32650.47
495.14	33277.74
495.32	33462.64
495.49	33600.73
495.67	33586.69
495.85	33972.88
496.02	33750.52
496.20	34085.22
496.38	34333.32
496.55	34696.10
496.73	34892.71
496.91	34969.94
497.09	34904.41
497.26	35431.03
497.44	35426.35
497.62	35323.36
497.79	36533.42
497.97	35845.30
498.14	36180.00
498.32	36524.06
498.50	36545.12
498.67	37483.68
498.85	36734.71
499.03	36919.61
499.20	37163.03
499.38	37174.73
499.56	37338.57
499.73	37537.51
499.91	38024.34
500.08	37982.21
500.26	37668.58
500.44	38614.16
500.61	38337.98
500.79	38354.36
500.97	38497.13
501.14	38979.28
501.32	38815.44
501.49	39009.71
501.67	39213.34
501.84	39133.76
502.02	39435.69
502.20	39454.41
502.37	39786.77
502.55	39515.26
502.72	39711.87
502.90	40016.14
503.07	39833.58
503.25	40081.67
503.43	39803.15
503.60	40470.20
503.78	40444.46
503.95	40687.87
504.13	40783.83
504.30	41284.71
504.48	40800.22
504.65	41092.79
504.83	41378.33
505.01	41626.43
505.18	41738.77
505.36	41956.44
505.53	41567.91
505.71	41855.80
505.88	42756.91
506.06	41956.44
506.23	42087.51
506.41	42497.11
506.58	42543.92
506.76	42810.74
506.93	43054.15
507.11	42494.77
507.28	42735.84
507.46	42918.40
507.63	43342.04
507.81	43784.40
507.98	43262.46
508.16	43475.45
508.33	43576.09
508.50	43882.70
508.68	44018.46
508.85	44147.18
509.03	44334.43
509.20	44016.11
509.38	44589.55
509.55	44842.32
509.73	44882.11
509.90	44889.13
510.08	45076.38
510.25	44858.71
510.42	44926.58
510.60	45331.50
510.77	46068.76
510.95	46043.02
511.12	45647.47
511.30	45544.48
511.47	45572.57
511.64	46026.63
511.82	46377.72
511.99	46019.61
512.17	46309.84
512.34	45940.04
512.51	46749.86
512.69	46843.48
512.86	46703.05
513.04	47157.11
513.21	47133.71
513.38	47309.25
513.56	47571.39
513.73	47098.60
513.90	47655.65
514.08	47463.72
514.25	47775.02
514.43	47449.68
514.60	48119.07
514.77	47611.18
514.95	48294.61
515.12	47810.12
515.29	47838.21
515.47	48500.58
515.64	48421.00
515.81	48538.03
515.99	48535.69
516.16	48776.76
516.33	48849.32
516.51	49057.63
516.68	48626.97
516.85	48685.48
517.03	49310.41
517.20	48973.37
517.37	49130.19
517.54	49155.93
517.72	49331.47
517.89	49298.70
518.06	49495.31
518.24	49949.37
518.41	49633.40
518.58	49694.25
518.75	49916.61
518.93	50040.65
519.10	49708.30
519.27	49968.10
519.45	50024.27
519.62	50408.12
519.79	50220.87
519.96	50192.79
520.14	50412.80
520.31	50216.19
520.48	51091.55
520.65	51084.53
520.83	51004.95
521.00	51243.69
521.17	51168.79
521.34	50972.19
521.52	50836.44
521.69	51182.84
521.86	51367.74
522.03	51463.70
522.20	51983.30
522.38	51814.78
522.55	51725.84
522.72	51746.90
522.89	51503.49
523.07	51929.47
523.24	51882.66
523.41	51999.68
523.58	51526.89
523.75	52432.68
523.92	52119.05
524.10	52547.37
524.27	52268.84
524.44	52278.21
524.61	52418.64
524.78	52505.24
524.96	52652.69
525.13	52505.24
525.30	52687.80
525.47	53003.77
525.64	52732.27
525.81	52657.37
525.98	53158.25
526.16	52802.49
526.33	52945.26
526.50	53226.12
526.67	53015.47
526.84	53230.80
527.01	53162.93
527.18	53235.48
527.36	53455.50
527.53	53446.13
527.70	53808.92
527.87	53450.81
528.04	53399.32
528.21	53600.61
528.38	53539.75
528.55	53696.57
528.72	53511.67
528.89	53560.82
529.07	53806.58
529.24	53717.64
529.41	54255.96
529.58	53881.47
529.75	53790.19
529.92	53947.01
530.09	54197.44
530.26	54298.09
530.43	54452.56
530.60	54253.62
530.77	54321.49
530.94	54520.44
531.11	54342.56
531.28	54356.60
531.46	54532.14
531.63	54852.80
531.80	54478.31
531.97	54766.20
532.14	54923.01
532.31	54803.64
532.48	55035.36
532.65	54955.78
532.82	54522.78
532.99	54920.67
533.16	54700.66
533.33	55353.67
533.50	55208.56
533.67	55203.88
533.84	55002.59
534.01	55084.51
534.18	55236.64
534.35	55571.34
534.52	55491.76
534.69	55494.10
534.86	55533.89
535.03	55613.47
535.20	55480.06
535.37	55463.67
535.54	55620.49
535.71	55391.12
535.88	55856.88
536.05	55536.23
536.22	55810.07
536.38	55796.03
536.55	55985.61
536.72	56016.04
536.89	56030.08
537.06	55938.80
537.23	55985.61
537.40	55704.75
537.57	55810.07
537.74	55980.93
537.91	56292.22
538.08	56175.20
538.25	56011.36
538.42	56165.84
538.59	56512.23
538.75	56409.25
538.92	56207.97
539.09	56535.64
539.26	56465.42
539.43	56552.02
539.60	56540.32
539.77	56772.03
539.94	56718.20
540.11	56535.64
540.28	56589.47
540.44	56589.47
540.61	56736.93
540.78	56685.43
540.95	56757.99
541.12	56662.03
541.29	56762.67
541.46	56928.85
541.62	56933.53
541.79	56905.44
541.96	56762.67
542.13	57006.09
542.30	57017.79
542.47	57017.79
542.63	56996.73
542.80	57305.68
542.97	57476.54
543.14	57408.66
543.31	57432.07
543.48	57310.36
543.64	57649.74
543.81	57467.17
543.98	57687.18
544.15	57813.57
544.32	57712.93
544.48	57677.82
544.65	57588.88
544.82	57748.04
544.99	57572.50
545.16	57712.93
545.32	57645.05
545.49	58028.90
545.66	57961.03
545.83	57883.79
546.00	58042.95
546.16	58047.63
546.33	57712.93
546.50	57551.43
546.67	58218.49
546.83	57523.35
547.00	58082.73
547.17	57881.45
547.34	58101.46
547.50	58321.47
547.67	58337.85
547.84	58246.57
548.00	58431.47
548.17	58349.56
548.34	58319.13
548.51	58616.38
548.67	58497.01
548.84	58344.87
549.01	58279.34
549.18	58480.63
549.34	58681.91
549.51	58740.42
549.68	58651.48
549.84	58660.85
550.01	58543.82
550.18	58677.23
550.34	58625.74
550.51	58843.41
550.68	58775.53
550.84	58513.39
551.01	58808.30
551.18	58787.24
551.34	58822.34
551.51	58637.44
551.68	58873.84
551.84	58965.12
552.01	58698.30
552.18	58808.30
552.34	58653.82
552.51	58796.60
552.68	58812.98
552.84	58995.54
553.01	59182.79
553.18	59257.68
553.34	59171.08
553.51	58958.09
553.67	58962.78
553.84	59096.19
554.01	59311.52
554.17	59374.71
554.34	59215.55
554.51	59028.31
554.67	59323.22
554.84	59086.82
555.00	59068.10
555.17	59168.74
555.33	59035.33
555.50	59164.06
555.67	59119.59
555.83	59206.19
556.00	59468.33
556.16	59753.88
556.33	59613.44
556.50	59278.75
556.66	59620.47
556.83	59482.37
556.99	59655.57
557.16	59779.62
557.32	59730.47
557.49	59742.17
557.65	59435.56
557.82	59676.64
557.98	59676.64
558.15	59657.91
558.32	59725.79
558.48	59599.40
558.65	59678.98
558.81	59657.91
558.98	59690.68
559.14	59863.88
559.31	59929.42
559.47	59929.42
559.64	60027.72
559.80	59810.05
559.97	60020.70
560.13	59744.51
560.30	60025.38
560.46	60116.66
560.63	59938.78
560.79	59962.18
560.96	60126.02
561.12	60168.15
561.29	60264.11
561.45	60123.68
561.61	60193.90
561.78	60032.40
561.94	59913.03
562.11	59938.78
562.27	60205.60
562.44	60186.88
562.60	60409.23
562.77	60271.14
562.93	60135.38
563.10	60334.33
563.26	59945.80
563.42	60456.04
563.59	60259.43
563.75	60177.51
563.92	60172.83
564.08	60172.83
564.24	60561.36
564.41	60214.96
564.57	60444.33
564.74	60465.40
564.90	60622.22
565.07	60446.68
565.23	60364.76
565.39	60402.21
565.56	60348.37
565.72	60158.79
565.88	60397.52
566.05	60336.67
566.21	60425.61
566.38	60638.60
566.54	60629.24
566.70	60528.59
566.87	60561.36
567.03	60381.14
567.19	60713.50
567.36	60568.38
567.52	60470.08
567.68	60664.35
567.85	60699.45
568.01	60797.76
568.17	60554.34
568.34	60954.57
568.50	60544.98
568.66	60402.21
568.83	60736.90
568.99	60479.44
569.15	60769.67
569.32	60629.24
569.48	60512.21
569.64	60781.37
569.81	60809.46
569.97	60788.39
570.13	60779.03
570.30	60741.58
570.46	60521.57
570.62	60945.21
570.78	60809.46
570.95	60654.98
571.11	60814.14
571.27	60500.51
571.43	60910.10
571.60	60907.76
571.76	60779.03
571.92	61015.43
572.09	60764.99
572.25	61015.43
572.41	60746.26
572.57	60832.86
572.74	61197.99
572.90	60755.63
573.06	60872.65
573.22	60741.58
573.38	61008.40
573.55	60755.63
573.71	61041.17
573.87	60933.51
574.03	60680.73
574.20	60853.93
574.36	60956.91
574.52	60900.74
574.68	61102.03
574.84	61029.47
575.01	60846.91
575.17	61090.32
575.33	61036.49
575.49	60940.53
575.65	60980.32
575.82	60994.36
575.98	61048.19
576.14	61258.84
576.30	61181.60
576.46	60982.66
576.62	61188.63
576.79	61038.83
576.95	60877.33
577.11	61048.19
577.27	60940.53
577.43	61099.68
577.59	60910.10
577.75	60963.93
577.92	60942.87
578.08	60919.46
578.24	61001.38
578.40	61247.14
578.56	61209.69
578.72	61106.71
578.88	61207.35
579.04	61387.57
579.21	61095.00
579.37	61298.63
579.53	61251.82
579.69	60891.38
579.85	61130.11
580.01	61155.86
580.17	61125.43
580.33	61282.25
580.49	61174.58
580.65	61123.09
580.82	61118.41
580.98	61179.26
581.14	60956.91
581.30	61286.93
581.46	61268.20
581.62	61380.55
581.78	60919.46
581.94	61324.38
582.10	61197.99
582.26	61036.49
582.42	61087.98
582.58	61116.07
582.74	61291.61
582.90	61223.73
583.06	61085.64
583.22	61024.79
583.38	61066.92
583.54	61247.14
583.70	61446.08
583.86	61144.16
584.02	61165.22
584.18	61162.88
584.34	61228.41
584.50	61132.45
584.66	61076.28
584.82	61069.26
584.98	61469.49
585.14	61237.78
585.30	61024.79
585.46	61265.86
585.62	61317.35
585.78	61579.49
585.94	61188.63
586.10	61242.46
586.26	61434.38
586.42	61258.84
586.58	61326.72
586.74	61359.48
586.90	61095.00
587.06	61134.79
587.22	61254.16
587.38	61230.75
587.54	61467.15
587.70	61422.68
587.86	61403.95
588.02	61242.46
588.18	61282.25
588.34	61169.90
588.49	61195.65
