SpectraSuite Data File
++++++++++++++++++++++++++++++++++++
Date: Fri Oct 25 11:22:58 EDT 2013
User: price-jones
Dark Spectrum Present: No
Reference Spectrum Present: No
Number of Sampled Component Spectra: 1
Spectrometers: USB2+H05261
Integration Time (usec): 100000 (USB2+H05261)
Spectra Averaged: 1 (USB2+H05261)
Boxcar Smoothing: 0 (USB2+H05261)
Correct for Electrical Dark: No (USB2+H05261)
Strobe/Lamp Enabled: No (USB2+H05261)
Correct for Detector Non-linearity: No (USB2+H05261)
Correct for Stray Light: No (USB2+H05261)
Number of Pixels in Processed Spectrum: 2048
>>>>>Begin Processed Spectral Data<<<<<
365.73	266.82
365.92	266.82
366.12	266.82
366.32	231.71
366.52	119.37
366.72	72.56
366.91	145.11
367.11	224.69
367.31	84.26
367.51	140.43
367.70	79.58
367.90	149.79
368.10	93.62
368.30	107.66
368.49	117.03
368.69	198.95
368.89	159.16
369.09	142.77
369.28	154.48
369.48	121.71
369.68	191.92
369.87	205.97
370.07	177.88
370.27	205.97
370.47	297.25
370.66	526.62
370.86	603.86
371.06	695.14
371.25	755.99
371.45	730.25
371.65	802.80
371.84	692.80
372.04	559.39
372.24	606.20
372.44	713.86
372.63	683.44
372.83	699.82
373.03	741.95
373.22	713.86
373.42	725.57
373.62	812.17
373.81	720.88
374.01	807.48
374.21	847.27
374.40	866.00
374.60	772.38
374.79	833.23
374.99	844.93
375.19	844.93
375.38	772.38
375.58	835.57
375.78	851.96
375.97	861.32
376.17	873.02
376.37	849.61
376.56	819.19
376.76	880.04
376.95	875.36
377.15	924.51
377.35	901.11
377.54	844.93
377.74	947.92
377.93	945.58
378.13	952.60
378.33	896.43
378.52	924.51
378.72	938.55
378.91	985.37
379.11	917.49
379.31	896.43
379.50	929.19
379.70	933.87
379.89	957.28
380.09	968.98
380.28	1018.13
380.48	1006.43
380.68	1064.94
380.87	1029.84
381.07	1046.22
381.26	1179.63
381.46	1053.24
381.65	1090.69
381.85	1121.12
382.04	1064.94
382.24	1086.01
382.43	1067.28
382.63	1029.84
382.83	1025.15
383.02	1132.82
383.22	1078.99
383.41	1020.47
383.61	1114.10
383.80	1095.37
384.00	1069.62
384.19	1160.91
384.39	1114.10
384.58	1088.35
384.78	1121.12
384.97	1153.88
385.17	1188.99
385.36	1135.16
385.56	1160.91
385.75	1146.86
385.95	1181.97
386.14	1207.72
386.34	1203.04
386.53	1193.67
386.72	1196.01
386.92	1289.64
387.11	1266.23
387.31	1270.91
387.50	1210.06
387.70	1277.93
387.89	1214.74
388.09	1224.10
388.28	1320.06
388.48	1331.76
388.67	1231.12
388.86	1294.32
389.06	1324.74
389.25	1392.62
389.45	1313.04
389.64	1425.39
389.84	1341.13
390.03	1441.77
390.22	1331.76
390.42	1474.54
390.61	1350.49
390.81	1469.86
391.00	1427.73
391.19	1373.89
391.39	1476.88
391.58	1462.83
391.78	1418.36
391.97	1481.56
392.16	1572.84
392.36	1521.35
392.55	1561.14
392.75	1547.09
392.94	1502.62
393.13	1540.07
393.33	1420.71
393.52	1591.56
393.71	1561.14
393.91	1582.20
394.10	1558.80
394.29	1509.65
394.49	1526.03
394.68	1598.59
394.88	1696.89
395.07	1668.80
395.26	1750.72
395.46	1694.55
395.65	1802.21
395.84	1739.02
396.04	1809.23
396.23	1781.15
396.42	1673.48
396.62	1797.53
396.81	1724.97
397.00	1694.55
397.19	1774.13
397.39	1820.94
397.58	1783.49
397.77	1856.04
397.97	1818.60
398.16	1891.15
398.35	1937.96
398.55	1767.10
398.74	1961.37
398.93	1975.41
399.12	1959.03
399.32	1907.54
399.51	1968.39
399.70	2001.16
399.90	2026.90
400.09	2150.95
400.28	2038.61
400.47	1853.70
400.67	2132.23
400.86	2012.86
401.05	1977.75
401.24	2125.21
401.44	2064.35
401.63	2111.16
401.82	2136.91
402.01	2005.84
402.21	2190.74
402.40	2225.85
402.59	2155.63
402.78	2197.76
402.97	2303.09
403.17	2249.25
403.36	2349.90
403.55	2356.92
403.74	2373.30
403.93	2377.98
404.13	2363.94
404.32	2331.17
404.51	2366.28
404.70	2422.45
404.89	2455.22
405.09	2466.92
405.28	2513.74
405.47	2502.03
405.66	2574.59
405.85	2506.71
406.05	2464.58
406.24	2581.61
406.43	2492.67
406.62	2663.53
406.81	2640.12
407.00	2567.57
407.20	2691.62
407.39	2644.81
407.58	2724.38
407.77	2698.64
407.96	2754.81
408.15	2733.75
408.34	2708.00
408.54	2827.37
408.73	2752.47
408.92	2946.73
409.11	2822.69
409.30	2871.84
409.49	2916.31
409.68	3016.95
409.87	2937.37
410.07	3054.40
410.26	3070.78
410.45	3005.25
410.64	3157.38
410.83	3145.68
411.02	3077.80
411.21	3234.62
411.40	3162.06
411.59	3150.36
411.78	3253.34
411.98	3190.15
412.17	3307.18
412.36	3433.57
412.55	3349.31
412.74	3543.57
412.93	3337.60
413.12	3370.37
413.31	3672.30
413.50	3513.14
413.69	3543.57
413.88	3536.55
414.07	3590.38
414.26	3590.38
414.45	3681.66
414.64	3557.61
414.83	3672.30
415.02	3812.73
415.22	3894.65
415.41	3932.10
415.60	3838.48
415.79	3936.78
415.98	3934.44
416.17	4021.04
416.36	4049.13
416.55	4018.70
416.74	4131.05
416.93	4138.07
417.12	4060.83
417.31	4231.69
417.50	4145.09
417.69	4301.90
417.88	4381.48
418.07	4365.10
418.26	4308.93
418.45	4388.50
418.64	4550.00
418.83	4620.22
419.02	4507.87
419.21	4585.11
419.39	4409.57
419.58	4411.91
419.77	4449.36
419.96	4608.51
420.15	4587.45
420.34	4550.00
420.53	4559.36
420.72	4734.90
420.91	4875.34
421.10	4903.42
421.29	4870.65
421.48	4550.00
421.67	4767.67
421.86	4730.22
422.05	4961.94
422.24	4781.71
422.43	4950.23
422.61	5004.07
422.80	5022.79
422.99	4957.25
423.18	4964.28
423.37	5067.26
423.56	5018.11
423.75	4943.21
423.94	4889.38
424.13	4674.05
424.32	4695.11
424.50	5027.47
424.69	5394.93
424.88	5085.98
425.07	5057.90
425.26	4961.94
425.45	5041.51
425.64	5163.22
425.83	5011.09
426.01	5109.39
426.20	5191.31
426.39	5153.86
426.58	5114.07
426.77	5205.35
426.96	5341.10
427.15	5266.21
427.33	5331.74
427.52	5245.14
427.71	5378.55
427.90	5364.51
428.09	5362.17
428.28	5401.96
428.46	5371.53
428.65	5416.00
428.84	5582.18
429.03	5497.92
429.22	5324.72
429.40	5605.58
429.59	5575.16
429.78	5589.20
429.97	5511.96
430.16	5579.84
430.34	5446.43
430.53	5834.96
430.72	5617.29
430.91	5481.53
431.10	5540.05
431.28	5837.30
431.47	5872.40
431.66	5884.11
431.85	5940.28
432.03	6155.61
432.22	6054.97
432.41	5900.49
432.60	6001.13
432.79	6059.65
432.97	6036.24
433.16	6073.69
433.35	6108.80
433.54	6040.92
433.72	6179.01
433.91	6054.97
434.10	6139.23
434.28	6214.12
434.47	5984.75
434.66	6289.02
434.85	6263.27
435.03	6319.45
435.22	6464.56
435.41	6544.14
435.59	6345.19
435.78	6527.75
435.97	6445.84
436.16	6593.29
436.34	6490.31
436.53	6509.03
436.72	6590.95
436.90	6511.37
437.09	6630.74
437.28	6436.47
437.46	6705.63
437.65	6862.45
437.84	6698.61
438.02	6738.40
438.21	6808.62
438.40	6803.94
438.58	7176.08
438.77	7272.04
438.96	6993.52
439.14	7047.35
439.33	7129.27
439.52	7279.07
439.70	7169.06
439.89	7377.37
440.08	7379.71
440.26	7421.84
440.45	7227.57
440.63	7449.93
440.82	7538.87
441.01	7637.17
441.19	7702.70
441.38	7744.83
441.57	7833.77
441.75	7719.09
441.94	8053.78
442.12	8023.36
442.31	8128.68
442.50	8177.83
442.68	7971.86
442.87	8161.45
443.05	8037.40
443.24	8299.54
443.43	8154.43
443.61	8301.88
443.80	8557.00
443.98	8138.04
444.17	7901.65
444.35	8325.29
444.54	8470.40
444.73	8245.71
444.91	8355.71
445.10	8339.33
445.28	8315.92
445.47	8313.58
445.65	8318.26
445.84	8500.83
446.02	8753.60
446.21	8351.03
446.39	8238.69
446.58	8718.50
446.77	8552.32
446.95	8432.95
447.14	8470.40
447.32	8477.42
447.51	8624.87
447.69	8365.07
447.88	8498.49
448.06	8404.86
448.25	8561.68
448.43	8706.79
448.62	8685.73
448.80	8599.13
448.99	8926.80
449.17	8844.88
449.36	8865.95
449.54	8952.55
449.73	9048.51
449.91	9153.84
450.10	8950.21
450.28	9130.43
450.46	9156.18
450.65	9186.60
450.83	9097.66
451.02	8968.93
451.20	9233.41
451.39	9144.47
451.57	9121.07
451.76	9088.30
451.94	9327.03
452.13	9123.41
452.31	9331.72
452.49	9334.06
452.68	9294.27
452.86	9413.63
453.05	9600.88
453.23	9673.43
453.42	9551.73
453.60	9441.72
453.78	9533.00
453.97	9523.64
454.15	9633.64
454.34	9497.89
454.52	9540.02
454.70	9790.46
454.89	9774.08
455.07	9926.21
455.26	9954.30
455.44	9919.19
455.62	9886.42
455.81	10017.49
455.99	10242.18
456.17	10235.16
456.36	10099.41
456.54	10293.68
456.73	10513.69
456.91	10562.84
457.09	10415.38
457.28	10623.69
457.46	10487.94
457.64	10626.03
457.83	10623.69
458.01	10380.28
458.19	10967.75
458.38	10754.76
458.56	10546.45
458.74	10787.53
458.93	10946.69
459.11	10717.31
459.29	10939.66
459.48	10867.11
459.66	10693.91
459.84	11049.67
460.03	11194.78
460.21	11262.66
460.39	11133.93
460.57	11220.53
460.76	11389.05
460.94	11323.51
461.12	11236.91
461.31	11463.94
461.49	11367.98
461.67	11094.14
461.85	11440.54
462.04	11396.07
462.22	11829.07
462.40	11878.22
462.59	11595.01
462.77	11768.21
462.95	11871.20
463.13	11557.57
463.32	11529.48
463.50	11763.53
463.68	11850.13
463.86	11742.47
464.05	11651.19
464.23	11913.33
464.41	11763.53
464.59	11721.40
464.78	12126.32
464.96	12210.57
465.14	11948.43
465.32	12248.02
465.50	12372.07
465.69	12285.47
465.87	12407.18
466.05	12079.50
466.23	12290.15
466.41	12236.32
466.60	12535.91
466.78	12170.79
466.96	12299.52
467.14	12662.30
467.32	12514.84
467.51	12294.83
467.69	12184.83
467.87	12812.09
468.05	12631.87
468.23	12343.99
468.41	12713.79
468.60	12943.16
468.78	12905.71
468.96	12339.30
469.14	13085.94
469.32	13125.72
469.50	12784.01
469.69	12982.95
469.87	13228.71
470.05	13146.79
470.23	13308.29
470.41	13259.13
470.59	13713.20
470.77	13298.92
470.95	13383.18
471.14	13392.55
471.32	13446.38
471.50	13884.06
471.68	13774.05
471.86	13811.50
472.04	13895.76
472.22	14038.53
472.40	13806.82
472.58	14024.49
472.77	14050.24
472.95	14314.72
473.13	14604.94
473.31	14108.75
473.49	14235.14
473.67	14178.97
473.85	14413.02
474.03	14649.41
474.21	14911.55
474.39	14806.23
474.57	14796.87
474.75	14995.81
474.93	15218.16
475.12	14885.81
475.30	15367.96
475.48	15248.59
475.66	15564.56
475.84	15321.15
476.02	15494.35
476.20	15843.09
476.38	15793.94
476.56	16201.19
476.74	15786.91
476.92	16203.53
477.10	15510.73
477.28	16252.68
477.46	16280.77
477.64	16732.49
477.82	16681.00
478.00	16952.50
478.18	16940.80
478.36	16891.65
478.54	17373.80
478.72	17357.41
478.90	17547.00
479.08	17626.57
479.26	17820.84
479.44	17912.12
479.62	18054.89
479.80	18408.31
479.98	18445.76
480.16	18555.77
480.34	18682.16
480.52	19204.10
480.70	18967.70
480.88	18593.22
481.06	18799.18
481.24	18995.79
481.41	19351.55
481.59	19618.37
481.77	19644.12
481.95	19896.89
482.13	19754.12
482.31	19995.20
482.49	20727.78
482.67	20493.73
482.85	20851.83
483.03	20517.14
483.21	20776.94
483.39	21123.33
483.57	21404.20
483.74	21303.56
483.92	21659.32
484.10	21378.45
484.28	21994.01
484.46	22141.47
484.64	22497.23
484.82	22251.47
485.00	22658.73
485.18	23009.81
485.35	23335.14
485.53	23229.82
485.71	23302.37
485.89	23793.89
486.07	23744.73
486.25	23604.30
486.43	23793.89
486.61	24006.87
486.78	24442.21
486.96	24320.51
487.14	24746.48
487.32	24964.15
487.50	25198.21
487.68	25317.57
487.85	25708.44
488.03	25848.88
488.21	25986.97
488.39	26190.59
488.57	26464.44
488.75	26328.69
488.92	26759.34
489.10	27014.46
489.28	27012.12
489.46	27040.21
489.64	27346.82
489.81	27716.62
489.99	28046.64
490.17	27655.77
490.35	28465.60
490.53	28582.62
490.70	28393.04
490.88	28900.94
491.06	29015.62
491.24	28919.66
491.41	29355.00
491.59	29663.95
491.77	29752.89
491.95	29579.69
492.13	29951.84
492.30	30731.23
492.48	30831.88
492.66	30469.09
492.84	30616.55
493.01	31316.37
493.19	31204.02
493.37	31178.28
493.54	31171.25
493.72	31906.18
493.90	31672.13
494.08	31859.37
494.25	32350.88
494.43	32144.92
494.61	32545.15
494.79	33078.79
494.96	32912.61
495.14	33132.62
495.32	33352.63
495.49	33497.75
495.67	33518.81
495.85	33787.97
496.02	33991.60
496.20	34089.90
496.38	34597.80
496.55	34155.44
496.73	34944.20
496.91	34719.51
497.09	35735.30
497.26	35243.79
497.44	34869.30
497.62	35695.51
497.79	36353.20
497.97	36135.53
498.14	36055.95
498.32	36353.20
498.50	36870.46
498.67	37001.53
498.85	36690.24
499.03	36730.03
499.20	37158.34
499.38	36989.83
499.56	37521.13
499.73	37656.88
499.91	37495.38
500.08	37523.47
500.26	37813.70
500.44	37792.63
500.61	38490.11
500.79	38113.28
500.97	38478.41
501.14	38586.07
501.32	38735.87
501.49	38871.62
501.67	38946.51
501.84	39409.94
502.02	39035.45
502.20	39360.79
502.37	39393.56
502.55	39653.36
502.72	39988.05
502.90	40222.11
503.07	40458.50
503.25	40051.25
503.43	40203.38
503.60	40577.87
503.78	40708.94
503.95	40484.25
504.13	40919.59
504.30	41148.96
504.48	40807.24
504.65	41209.81
504.83	41673.24
505.01	41738.77
505.18	41347.90
505.36	41876.86
505.53	41783.24
505.71	42349.65
505.88	42148.37
506.06	41846.44
506.23	42555.62
506.41	41888.57
506.58	42520.51
506.76	42852.87
506.93	42649.24
507.11	42822.44
507.28	42937.13
507.46	43180.54
507.63	43093.94
507.81	43700.14
507.98	43107.99
508.16	43358.42
508.33	43730.57
508.50	44280.60
508.68	44507.63
508.85	44186.97
509.03	44839.98
509.20	44802.53
509.38	44725.30
509.55	44786.15
509.73	45045.95
509.90	45050.63
510.08	44624.65
510.25	44825.94
510.42	45041.27
510.60	45036.59
510.77	45645.13
510.95	45390.01
511.12	45579.59
511.30	45837.05
511.47	45710.66
511.64	45970.46
511.82	46265.37
511.99	45628.74
512.17	46415.16
512.34	46153.02
512.51	47068.17
512.69	46777.95
512.86	46476.02
513.04	47173.50
513.21	47236.69
513.38	46939.44
513.56	47402.87
513.73	47152.43
513.90	47384.15
514.08	47072.85
514.25	47810.12
514.43	48219.72
514.60	47906.08
514.77	47419.25
514.95	48318.02
515.12	48458.45
515.29	48126.10
515.47	48266.53
515.64	48446.75
515.81	48156.52
515.99	48636.33
516.16	48961.67
516.33	48624.63
516.51	49200.40
516.68	49045.93
516.85	48720.59
517.03	48975.71
517.20	49279.98
517.37	49244.87
517.54	49275.30
517.72	49024.86
517.89	49347.86
518.06	49635.74
518.24	49727.02
518.41	49528.08
518.58	49607.65
518.75	49331.47
518.93	50108.53
519.10	49837.03
519.27	50220.87
519.45	50483.01
519.62	50162.36
519.79	50246.62
519.96	50178.75
520.14	50782.60
520.31	50253.64
520.48	50536.85
520.65	50728.77
520.83	51133.68
521.00	50993.25
521.17	51070.49
521.34	51178.15
521.52	51079.85
521.69	50990.91
521.86	51367.74
522.03	51358.38
522.20	51943.51
522.38	51835.84
522.55	51746.90
522.72	51592.43
522.89	51875.63
523.07	52224.37
523.24	51896.70
523.41	52371.83
523.58	51936.49
523.75	52088.62
523.92	52172.88
524.10	52369.49
524.27	52437.36
524.44	52505.24
524.61	52451.41
524.78	52296.93
524.96	52659.71
525.13	52584.82
525.30	52844.62
525.47	52753.33
525.64	52711.20
525.81	53258.89
525.98	53024.84
526.16	52802.49
526.33	53055.26
526.50	53256.55
526.67	53160.59
526.84	53120.80
527.01	53319.74
527.18	53258.89
527.36	52992.07
527.53	53382.94
527.70	53659.12
527.87	53514.01
528.04	53462.52
528.21	53682.53
528.38	53469.54
528.55	54012.54
528.72	53474.22
528.89	53724.66
529.07	53794.87
529.24	53600.61
529.41	54115.53
529.58	54145.95
529.75	53925.94
529.92	54033.61
530.09	54272.34
530.26	54188.08
530.43	54525.12
530.60	54169.36
530.77	54134.25
530.94	53984.46
531.11	54440.86
531.28	54298.09
531.46	54492.35
531.63	54607.04
531.80	54688.96
531.97	54803.64
532.14	54665.55
532.31	54749.81
532.48	54731.09
532.65	54834.07
532.82	54824.71
532.99	55068.12
533.16	54663.21
533.33	54894.92
533.50	55114.94
533.67	55194.51
533.84	55171.11
534.01	55260.05
534.18	55126.64
534.35	55686.03
534.52	55269.41
534.69	55597.09
534.86	55510.49
535.03	55330.26
535.20	55430.91
535.37	55650.92
535.54	55767.94
535.71	55391.12
535.88	55861.57
536.05	55660.28
536.22	56025.40
536.38	56006.68
536.55	55737.52
536.72	56034.77
536.89	55756.24
537.06	55931.78
537.23	56175.20
537.40	55920.08
537.57	55870.93
537.74	55838.16
537.91	56294.56
538.08	56376.48
538.25	56095.62
538.42	56212.65
538.59	56638.62
538.75	56360.10
538.92	56418.61
539.09	56577.77
539.26	56278.18
539.43	56336.69
539.60	56537.98
539.77	56214.99
539.94	56685.43
540.11	56683.09
540.28	56638.62
540.44	56741.61
540.61	56765.01
540.78	56584.79
540.95	56603.52
541.12	56676.07
541.29	56594.15
541.46	56741.61
541.62	56893.74
541.79	56772.03
541.96	56542.66
542.13	56528.62
542.30	56961.62
542.47	57095.03
542.63	57305.68
542.80	57085.67
542.97	57034.17
543.14	57401.64
543.31	57525.69
543.48	57378.23
543.64	57654.42
543.81	57579.52
543.98	57542.07
544.15	57441.43
544.32	57542.07
544.48	57701.23
544.65	57600.58
544.82	57572.50
544.99	57696.55
545.16	57703.57
545.32	57790.17
545.49	57867.40
545.66	57925.92
545.83	57792.51
546.00	58056.99
546.16	57771.44
546.33	57790.17
546.50	57778.46
546.67	58202.10
546.83	57752.72
547.00	58101.46
547.17	58277.00
547.34	57902.51
547.50	58342.53
547.67	58436.16
547.84	58375.30
548.00	58534.46
548.17	58422.11
548.34	58220.83
548.51	58630.42
548.67	58693.61
548.84	58356.58
549.01	58574.25
549.18	58417.43
549.34	58326.15
549.51	58555.52
549.68	58452.54
549.84	58534.46
550.01	58777.87
550.18	58724.04
550.34	58738.08
550.51	58759.15
550.68	58918.31
550.84	58499.35
551.01	58733.40
551.18	58632.76
551.34	58869.15
551.51	58728.72
551.68	58845.75
551.84	59051.72
552.01	58852.77
552.18	58742.77
552.34	58674.89
552.51	59072.78
552.68	58724.04
552.84	58791.92
553.01	59030.65
553.18	59075.12
553.34	59110.23
553.51	59030.65
553.67	59070.44
553.84	59206.19
554.01	59341.94
554.17	59386.41
554.34	59131.29
554.51	59248.32
554.67	59278.75
554.84	59140.66
555.00	59089.16
555.17	59182.79
555.33	59290.45
555.50	59215.55
555.67	59217.89
555.83	59260.02
556.00	59414.50
556.16	59477.69
556.33	59353.65
556.50	59498.76
556.66	59777.28
556.83	59304.49
556.99	59728.13
557.16	59906.01
557.32	59512.80
557.49	59882.61
557.65	59540.89
557.82	59777.28
557.98	59552.59
558.15	59559.61
558.32	59819.41
558.48	59632.17
558.65	59641.53
558.81	59686.00
558.98	59962.18
559.14	59796.01
559.31	59927.08
559.47	59929.42
559.64	60023.04
559.80	59927.08
559.97	60086.23
560.13	60011.34
560.30	59969.21
560.46	59824.09
560.63	60009.00
560.79	60013.68
560.96	60212.62
561.12	60205.60
561.29	60074.53
561.45	60186.88
561.61	59931.76
561.78	60207.94
561.94	60191.56
562.11	59959.84
562.27	59948.14
562.44	60140.07
562.60	60114.32
562.77	60097.94
562.93	60001.97
563.10	60390.50
563.26	59917.71
563.42	60584.77
563.59	60182.19
563.75	60130.70
563.92	60257.09
564.08	60170.49
564.24	60458.38
564.41	60343.69
564.57	60341.35
564.74	60315.61
564.90	60252.41
565.07	60348.37
565.23	60226.66
565.39	60348.37
565.56	60596.47
565.72	60463.06
565.88	60296.88
566.05	60615.19
566.21	60308.58
566.38	60523.91
566.54	60465.40
566.70	60697.11
566.87	60844.57
567.03	60523.91
567.19	60790.73
567.36	60479.44
567.52	60369.44
567.68	60673.71
567.85	60416.25
568.01	60647.96
568.17	60619.88
568.34	60612.85
568.50	60617.53
568.66	60718.18
568.83	60697.11
568.99	60612.85
569.15	60612.85
569.32	60650.30
569.48	60484.12
569.64	60912.44
569.81	60502.85
569.97	60460.72
570.13	60692.43
570.30	60734.56
570.46	60891.38
570.62	60956.91
570.78	60750.94
570.95	60814.14
571.11	60872.65
571.27	60989.68
571.43	60781.37
571.60	60870.31
571.76	60896.06
571.92	60992.02
572.09	60790.73
572.25	60685.41
572.41	60807.12
572.57	60755.63
572.74	60877.33
572.90	60863.29
573.06	60849.25
573.22	60903.08
573.38	60835.20
573.55	60732.22
573.71	61022.45
573.87	60903.08
574.03	60577.75
574.20	60921.80
574.36	60800.10
574.52	61003.72
574.68	60903.08
574.84	60963.93
575.01	60835.20
575.17	60963.93
575.33	60989.68
575.49	60729.88
575.65	61080.96
575.82	61052.87
575.98	60914.78
576.14	61076.28
576.30	61092.66
576.46	61123.09
576.62	61015.43
576.79	61132.45
576.95	60814.14
577.11	61080.96
577.27	61174.58
577.43	61027.13
577.59	60910.10
577.75	61174.58
577.92	60802.44
578.08	61029.47
578.24	61006.06
578.40	61174.58
578.56	61151.18
578.72	60970.96
578.88	61186.28
579.04	61197.99
579.21	61249.48
579.37	61249.48
579.53	61319.70
579.69	60830.52
579.85	61057.56
580.01	60935.85
580.17	61020.11
580.33	61261.18
580.49	61160.54
580.65	61165.22
580.82	61162.88
580.98	60954.57
581.14	61010.74
581.30	61144.16
581.46	61118.41
581.62	61123.09
581.78	61024.79
581.94	61111.39
582.10	61045.85
582.26	61057.56
582.42	61144.16
582.58	61193.31
582.74	61146.50
582.90	61237.78
583.06	61153.52
583.22	61034.15
583.38	61097.34
583.54	61331.40
583.70	61186.28
583.86	61097.34
584.02	60994.36
584.18	61375.87
584.34	61186.28
584.50	61221.39
584.66	61169.90
584.82	61216.71
584.98	61359.48
585.14	61446.08
585.30	61205.01
585.46	61371.19
585.62	61275.22
585.78	61474.17
585.94	61031.81
586.10	61244.80
586.26	61146.50
586.42	61258.84
586.58	61319.70
586.74	61162.88
586.90	61275.22
587.06	61366.51
587.22	61385.23
587.38	61228.41
587.54	61474.17
587.70	61382.89
587.86	61254.16
588.02	61284.59
588.18	61296.29
588.34	61375.87
588.49	61148.84
