SpectraSuite Data File
++++++++++++++++++++++++++++++++++++
Date: Fri Oct 25 11:26:01 EDT 2013
User: price-jones
Dark Spectrum Present: No
Reference Spectrum Present: No
Number of Sampled Component Spectra: 1
Spectrometers: USB2+H05261
Integration Time (usec): 100000 (USB2+H05261)
Spectra Averaged: 1 (USB2+H05261)
Boxcar Smoothing: 0 (USB2+H05261)
Correct for Electrical Dark: No (USB2+H05261)
Strobe/Lamp Enabled: No (USB2+H05261)
Correct for Detector Non-linearity: No (USB2+H05261)
Correct for Stray Light: No (USB2+H05261)
Number of Pixels in Processed Spectrum: 2048
>>>>>Begin Processed Spectral Data<<<<<
365.73	241.08
365.92	241.08
366.12	241.08
366.32	175.54
366.52	177.88
366.72	142.77
366.91	49.15
367.11	182.56
367.31	124.05
367.51	184.90
367.70	138.09
367.90	177.88
368.10	133.41
368.30	145.11
368.49	154.48
368.69	138.09
368.89	152.13
369.09	142.77
369.28	114.69
369.48	196.60
369.68	224.69
369.87	231.71
370.07	224.69
370.27	285.55
370.47	379.17
370.66	606.20
370.86	613.22
371.06	631.94
371.25	606.20
371.45	657.69
371.65	669.39
371.84	650.67
372.04	678.76
372.24	713.86
372.44	685.78
372.63	760.67
372.83	819.19
373.03	863.66
373.22	746.63
373.42	699.82
373.62	760.67
373.81	821.53
374.01	901.11
374.21	772.38
374.40	819.19
374.60	821.53
374.79	849.61
374.99	866.00
375.19	807.48
375.38	912.81
375.58	814.51
375.78	809.83
375.97	844.93
376.17	943.24
376.37	870.68
376.56	835.57
376.76	828.55
376.95	898.77
377.15	992.39
377.35	908.13
377.54	903.45
377.74	884.72
377.93	894.08
378.13	917.49
378.33	933.87
378.52	905.79
378.72	961.96
378.91	983.02
379.11	938.55
379.31	950.26
379.50	1034.52
379.70	1088.35
379.89	1036.86
380.09	1034.52
380.28	1011.11
380.48	1088.35
380.68	976.00
380.87	1029.84
381.07	959.62
381.26	1064.94
381.46	992.39
381.65	1060.26
381.85	1041.54
382.04	1041.54
382.24	1111.75
382.43	1086.01
382.63	1071.97
382.83	1086.01
383.02	1146.86
383.22	1207.72
383.41	1076.65
383.61	1060.26
383.80	1233.46
384.00	1093.03
384.19	1160.91
384.39	1245.16
384.58	1109.41
384.78	1158.57
384.97	1184.31
385.17	1179.63
385.36	1128.14
385.56	1191.33
385.75	1137.50
385.95	1146.86
386.14	1111.75
386.34	1153.88
386.53	1200.69
386.72	1203.04
386.92	1322.40
387.11	1205.38
387.31	1231.12
387.50	1221.76
387.70	1306.02
387.89	1348.15
388.09	1308.36
388.28	1394.96
388.48	1294.32
388.67	1348.15
388.86	1320.06
389.06	1317.72
389.25	1329.42
389.45	1352.83
389.64	1308.36
389.84	1420.71
390.03	1277.93
390.22	1420.71
390.42	1315.38
390.61	1380.92
390.81	1376.24
391.00	1446.45
391.19	1427.73
391.39	1385.60
391.58	1472.20
391.78	1413.68
391.97	1460.49
392.16	1453.47
392.36	1537.73
392.55	1455.81
392.75	1509.65
392.94	1488.58
393.13	1572.84
393.33	1551.78
393.52	1495.60
393.71	1617.31
393.91	1479.22
394.10	1544.75
394.29	1572.84
394.49	1533.05
394.68	1760.08
394.88	1654.76
395.07	1689.87
395.26	1647.74
395.46	1764.76
395.65	1666.46
395.84	1643.06
396.04	1729.66
396.23	1668.80
396.42	1757.74
396.62	1837.32
396.81	1804.55
397.00	1741.36
397.19	1743.70
397.39	1706.25
397.58	1865.41
397.77	1809.23
397.97	1689.87
398.16	1776.47
398.35	1872.43
398.55	1837.32
398.74	1842.00
398.93	1954.35
399.12	1909.88
399.32	1886.47
399.51	1900.52
399.70	2015.20
399.90	1944.99
400.09	2076.06
400.28	2064.35
400.47	1998.82
400.67	2094.78
400.86	1954.35
401.05	2029.24
401.24	2162.66
401.44	2258.62
401.63	2127.55
401.82	2139.25
402.01	2181.38
402.21	2150.95
402.40	2148.61
402.59	2160.31
402.78	2282.02
402.97	2256.28
403.17	2307.77
403.36	2165.00
403.55	2349.90
403.74	2436.50
403.93	2331.17
404.13	2335.85
404.32	2321.81
404.51	2354.58
404.70	2410.75
404.89	2408.41
405.09	2427.14
405.28	2492.67
405.47	2452.88
405.66	2464.58
405.85	2621.40
406.05	2534.80
406.24	2590.97
406.43	2537.14
406.62	2684.59
406.81	2633.10
407.00	2682.25
407.20	2668.21
407.39	2576.93
407.58	2864.82
407.77	2682.25
407.96	2668.21
408.15	2789.92
408.34	2661.19
408.54	2860.13
408.73	2892.90
408.92	2780.56
409.11	2911.63
409.30	2862.48
409.49	2867.16
409.68	2799.28
409.87	2813.32
410.07	3047.38
410.26	2960.78
410.45	2930.35
410.64	2920.99
410.83	3023.97
411.02	3101.21
411.21	3150.36
411.40	3239.30
411.59	3243.98
411.78	3162.06
411.98	3325.90
412.17	3218.24
412.36	3372.71
412.55	3302.50
412.74	3403.14
412.93	3407.82
413.12	3325.90
413.31	3508.46
413.50	3555.27
413.69	3543.57
413.88	3630.17
414.07	3581.02
414.26	3604.42
414.45	3564.64
414.64	3576.34
414.83	3644.21
415.02	3843.16
415.22	3833.80
415.41	3700.39
415.60	3845.50
415.79	3831.46
415.98	3985.93
416.17	3929.76
416.36	4039.76
416.55	3878.27
416.74	4091.26
416.93	4065.51
417.12	4072.53
417.31	4154.45
417.50	4149.77
417.69	4241.05
417.88	4322.97
418.07	4208.28
418.26	4128.70
418.45	4355.74
418.64	4510.21
418.83	4442.34
419.02	4425.95
419.21	4557.02
419.39	4489.15
419.58	4540.64
419.77	4461.06
419.96	4610.86
420.15	4526.60
420.34	4627.24
420.53	4645.96
420.72	4674.05
420.91	4542.98
421.10	4798.10
421.29	4746.61
421.48	4610.86
421.67	4727.88
421.86	4816.82
422.05	4891.72
422.24	4849.59
422.43	5029.81
422.61	4947.89
422.80	4908.10
422.99	4861.29
423.18	4943.21
423.37	5125.77
423.56	4903.42
423.75	4947.89
423.94	4798.10
424.13	4671.71
424.32	4858.95
424.50	5027.47
424.69	5076.62
424.88	5053.22
425.07	5181.95
425.26	4873.00
425.45	4919.81
425.64	4865.97
425.83	5177.26
426.01	5081.30
426.20	4954.91
426.39	5146.84
426.58	5046.20
426.77	5064.92
426.96	5252.16
427.15	5184.29
427.33	5277.91
427.52	5107.05
427.71	5233.44
427.90	5277.91
428.09	5212.37
428.28	5465.15
428.46	5404.30
428.65	5413.66
428.84	5502.60
429.03	5596.22
429.22	5359.83
429.40	5483.88
429.59	5425.36
429.78	5327.06
429.97	5282.59
430.16	5535.37
430.34	5650.05
430.53	5755.38
430.72	5598.56
430.91	5584.52
431.10	5654.73
431.28	5760.06
431.47	5767.08
431.66	5898.15
431.85	5781.12
432.03	5792.83
432.22	6047.94
432.41	5867.72
432.60	5837.30
432.79	5982.41
432.97	6188.38
433.16	6104.12
433.35	5916.87
433.54	6176.67
433.72	6085.39
433.91	6054.97
434.10	6057.31
434.28	5867.72
434.47	6197.74
434.66	6221.14
434.85	6417.75
435.03	6230.51
435.22	6347.53
435.41	6502.01
435.59	6363.92
435.78	6504.35
435.97	6560.52
436.16	6450.52
436.34	6609.67
436.53	6457.54
436.72	6801.60
436.90	6392.00
437.09	6612.01
437.28	6452.86
437.46	6633.08
437.65	6654.14
437.84	6843.73
438.02	6792.23
438.21	6679.89
438.40	6607.33
438.58	6871.81
438.77	6932.67
438.96	6951.39
439.14	7124.59
439.33	7101.19
439.52	7215.87
439.70	7148.00
439.89	7269.70
440.08	7248.64
440.26	7468.65
440.45	7379.71
440.63	7492.05
440.82	7461.63
441.01	7391.41
441.19	7435.88
441.38	7639.51
441.57	7765.90
441.75	7765.90
441.94	8107.62
442.12	8042.08
442.31	8030.38
442.50	7953.14
442.68	8142.72
442.87	7992.93
443.05	8196.56
443.24	8173.15
443.43	8156.77
443.61	8182.51
443.80	8322.94
443.98	8152.09
444.17	7962.50
444.35	8177.83
444.54	8269.11
444.73	8116.98
444.91	8407.20
445.10	8512.53
445.28	8259.75
445.47	8191.88
445.65	8393.16
445.84	8601.47
446.02	8608.49
446.21	8369.76
446.39	8589.77
446.58	8451.67
446.77	8482.10
446.95	8332.31
447.14	8512.53
447.32	8559.34
447.51	8346.35
447.69	8580.40
447.88	8685.73
448.06	8346.35
448.25	8386.14
448.43	8594.45
448.62	8727.86
448.80	8580.40
448.99	8444.65
449.17	8901.06
449.36	8739.56
449.54	8716.16
449.73	8901.06
449.91	8917.44
450.10	9055.53
450.28	9078.94
450.46	9118.73
450.65	9090.64
450.83	9048.51
451.02	8875.31
451.20	9085.96
451.39	9231.07
451.57	8877.65
451.76	9018.08
451.94	9301.29
452.13	9345.76
452.31	9404.27
452.49	9226.39
452.68	9352.78
452.86	9357.46
453.05	9252.14
453.23	9502.58
453.42	9324.69
453.60	9233.41
453.78	9497.89
453.97	9210.01
454.15	9563.43
454.34	9404.27
454.52	9753.01
454.70	9544.70
454.89	9830.25
455.07	9755.35
455.26	9488.53
455.44	9928.55
455.62	10031.54
455.81	9982.38
455.99	10047.92
456.17	9949.62
456.36	9930.89
456.54	10083.03
456.73	10099.41
456.91	10415.38
457.09	10293.68
457.28	10574.54
457.46	10361.55
457.64	10317.08
457.83	10562.84
458.01	10443.47
458.19	10913.92
458.38	10406.02
458.56	10738.38
458.74	10750.08
458.93	10614.33
459.11	10710.29
459.29	10740.72
459.48	10588.58
459.66	10743.06
459.84	10822.64
460.03	11052.01
460.21	11026.26
460.39	10839.02
460.57	11122.23
460.76	11105.84
460.94	11248.61
461.12	11145.63
461.31	11342.24
461.49	11049.67
461.67	11110.52
461.85	11229.89
462.04	11103.50
462.22	11936.73
462.40	11531.82
462.59	11382.03
462.77	11456.92
462.95	11414.79
463.13	11501.39
463.32	11674.59
463.50	11613.74
463.68	12107.59
463.86	11714.38
464.05	11508.41
464.23	11726.08
464.41	11777.58
464.59	11646.51
464.78	11969.50
464.96	12154.40
465.14	11964.82
465.32	12074.82
465.50	12198.87
465.69	12018.65
465.87	12114.61
466.05	12142.70
466.23	12189.51
466.41	12114.61
466.60	12484.42
466.78	12133.34
466.96	12318.24
467.14	12278.45
467.32	12535.91
467.51	12430.59
467.69	12105.25
467.87	12461.01
468.05	12655.28
468.23	12451.65
468.41	12505.48
468.60	12456.33
468.78	12652.94
468.96	12514.84
469.14	12678.68
469.32	12917.42
469.50	12578.04
469.69	12992.31
469.87	12950.18
470.05	13135.09
470.23	13085.94
470.41	12978.27
470.59	13142.11
470.77	12980.61
470.95	13184.24
471.14	13640.64
471.32	13102.32
471.50	13540.00
471.68	13734.26
471.86	13696.82
472.04	13549.36
472.22	14134.50
472.40	13619.58
472.58	13867.67
472.77	14083.00
472.95	13888.74
473.13	14661.12
473.31	14022.15
473.49	13984.70
473.67	13947.25
473.85	14593.24
474.03	14382.59
474.21	14539.41
474.39	14806.23
474.57	14876.44
474.75	15033.26
474.93	14682.18
475.12	14876.44
475.30	15035.60
475.48	14871.76
475.66	15274.34
475.84	15087.09
476.02	15529.45
476.20	15442.85
476.38	15616.05
476.56	15882.88
476.74	15704.99
476.92	15807.98
477.10	15978.84
477.28	16320.56
477.46	16226.93
477.64	16238.64
477.82	16475.03
478.00	16919.73
478.18	16517.16
478.36	16692.70
478.54	17097.61
478.72	17186.55
478.90	17273.15
479.08	17563.38
479.26	17750.62
479.44	17717.86
479.62	17944.89
479.80	18111.07
479.98	18293.63
480.16	18572.15
480.34	18284.26
480.52	18728.97
480.70	18822.59
480.88	18132.13
481.06	18546.40
481.24	18841.31
481.41	19049.62
481.59	19229.84
481.77	19599.65
481.95	19494.32
482.13	19695.61
482.31	19803.27
482.49	20306.49
482.67	20053.71
482.85	20505.43
483.03	20830.77
483.21	20812.04
483.39	21083.55
483.57	20879.92
483.74	20809.70
483.92	21280.15
484.10	21006.31
484.28	21404.20
484.46	22136.79
484.64	22326.37
484.82	21951.88
485.00	22176.58
485.18	22321.69
485.35	22785.12
485.53	23103.43
485.71	22970.02
485.89	23566.85
486.07	23349.18
486.25	23407.70
486.43	23524.72
486.61	23749.42
486.78	23896.87
486.96	24547.54
487.14	24409.45
487.32	24528.81
487.50	24922.02
487.68	24819.04
487.85	25240.34
488.03	25881.64
488.21	25914.41
488.39	25865.26
488.57	26052.50
488.75	26040.80
488.92	26494.86
489.10	26738.28
489.28	26544.02
489.46	27058.93
489.64	26967.65
489.81	27501.29
489.99	27433.42
490.17	27749.39
490.35	28116.86
490.53	28243.24
490.70	28266.65
490.88	28135.58
491.06	28678.58
491.24	28683.27
491.41	29116.26
491.59	29261.38
491.77	29537.56
491.95	29359.68
492.13	29766.93
492.30	30110.99
492.48	30115.67
492.66	30300.58
492.84	30387.18
493.01	30761.66
493.19	30693.79
493.37	30579.10
493.54	30953.58
493.72	31475.52
493.90	31601.91
494.08	31992.78
494.25	31878.10
494.43	32081.72
494.61	32346.20
494.79	32552.17
494.96	32336.84
495.14	33078.79
495.32	32985.17
495.49	32893.89
495.67	33612.43
495.85	33282.42
496.02	33490.73
496.20	33858.19
496.38	34293.53
496.55	33780.95
496.73	34433.96
496.91	34370.77
497.09	34445.66
497.26	35164.21
497.44	34583.76
497.62	35421.67
497.79	35718.92
497.97	35147.82
498.14	35683.81
498.32	36210.43
498.50	36077.02
498.67	36453.84
498.85	36615.34
499.03	36271.28
499.20	37097.49
499.38	36547.47
499.56	36725.35
499.73	36816.63
499.91	37144.30
500.08	37764.54
500.26	37193.45
500.44	37376.01
500.61	37797.31
500.79	37806.67
500.97	37923.70
501.14	38745.23
501.32	38480.75
501.49	38513.52
501.67	38927.79
501.84	38904.38
502.02	38740.55
502.20	38946.51
502.37	39255.46
502.55	39515.26
502.72	39852.30
502.90	39426.32
503.07	39199.29
503.25	39489.52
503.43	39922.52
503.60	40411.69
503.78	40282.96
503.95	40353.18
504.13	40566.16
504.30	40650.42
504.48	40245.51
504.65	40463.18
504.83	41034.27
505.01	41064.70
505.18	41420.46
505.36	41680.26
505.53	41525.78
505.71	41427.48
505.88	41883.89
506.06	41720.05
506.23	41851.12
506.41	41757.50
506.58	41818.35
506.76	42424.55
506.93	42534.56
507.11	42134.32
507.28	42630.52
507.46	42827.12
507.63	42541.58
507.81	43138.41
507.98	42792.01
508.16	43021.39
508.33	43430.98
508.50	43508.22
508.68	43201.61
508.85	43746.95
509.03	43508.22
509.20	44184.63
509.38	44112.08
509.55	44687.85
509.73	44280.60
509.90	44638.70
510.08	44545.08
510.25	44147.18
510.42	44727.64
510.60	44753.38
510.77	44933.60
510.95	45359.58
511.12	45205.11
511.30	45221.49
511.47	45315.11
511.64	45514.06
511.82	45806.62
511.99	45574.91
512.17	45825.35
512.34	45780.88
512.51	46597.73
512.69	45968.12
512.86	46003.23
513.04	46281.75
513.21	46220.90
513.38	46644.54
513.56	46728.80
513.73	46843.48
513.90	46761.56
514.08	46843.48
514.25	47122.01
514.43	47281.16
514.60	47224.99
514.77	47267.12
514.95	47222.65
515.12	47533.94
515.29	47494.15
515.47	47880.34
515.64	48369.51
515.81	47557.35
515.99	48378.87
516.16	48486.54
516.33	47945.87
516.51	48685.48
516.68	48458.45
516.85	48362.49
517.03	48882.09
517.20	49066.99
517.37	48376.53
517.54	48631.65
517.72	48987.41
517.89	49191.04
518.06	49167.63
518.24	49139.55
518.41	49572.55
518.58	49354.88
518.75	49308.07
518.93	49532.76
519.10	49322.11
519.27	49633.40
519.45	49584.25
519.62	50108.53
519.79	49532.76
519.96	50169.38
520.14	50089.80
520.31	49944.69
520.48	49961.08
520.65	50515.78
520.83	50609.40
521.00	50555.57
521.17	50408.12
521.34	50660.90
521.52	50674.94
521.69	50653.87
521.86	50885.59
522.03	50904.31
522.20	51058.79
522.38	51494.13
522.55	51203.90
522.72	51236.67
522.89	51662.64
523.07	51730.52
523.24	51370.08
523.41	51711.80
523.58	51545.62
523.75	51693.07
523.92	51655.62
524.10	52280.55
524.27	51847.55
524.44	52250.12
524.61	51934.15
524.78	52083.94
524.96	52004.36
525.13	52207.99
525.30	52378.85
525.47	52334.38
525.64	52495.88
525.81	52376.51
525.98	52507.58
526.16	52449.06
526.33	52589.50
526.50	52715.89
526.67	52776.74
526.84	53102.07
527.01	52884.40
527.18	52540.35
527.36	53043.56
527.53	53078.67
527.70	53148.88
527.87	53361.87
528.04	52980.37
528.21	53176.97
528.38	53200.38
528.55	53226.12
528.72	53261.23
528.89	53359.53
529.07	53378.26
529.24	53553.80
529.41	53883.81
529.58	53736.36
529.75	53750.40
529.92	53712.95
530.09	53745.72
530.26	53965.73
530.43	53989.14
530.60	53614.65
530.77	53741.04
530.94	54108.50
531.11	53979.78
531.28	54262.98
531.46	54199.79
531.63	54293.41
531.80	54059.35
531.97	54232.55
532.14	54637.47
532.31	54155.32
532.48	54412.77
532.65	54560.23
532.82	54361.28
532.99	54710.02
533.16	54347.24
533.33	54759.17
533.50	54815.35
533.67	54688.96
533.84	54618.74
534.01	54768.54
534.18	54754.49
534.35	55114.94
534.52	54850.45
534.69	55231.96
534.86	55246.00
535.03	54880.88
535.20	55161.75
535.37	55154.72
535.54	55522.19
535.71	55196.85
535.88	55143.02
536.05	55313.88
536.22	55538.57
536.38	55608.79
536.55	55693.05
536.72	55732.84
536.89	55554.96
537.06	55585.38
537.23	55510.49
537.40	55430.91
537.57	55543.25
537.74	55664.96
537.91	55866.25
538.08	56104.98
538.25	55957.53
538.42	55721.13
538.59	55896.67
538.75	55721.13
538.92	56100.30
539.09	56456.06
539.26	56114.34
539.43	56088.60
539.60	56250.09
539.77	56163.50
539.94	56231.37
540.11	56186.90
540.28	56240.73
540.44	56554.36
540.61	56446.70
540.78	56413.93
540.95	56390.53
541.12	56182.22
541.29	56633.94
541.46	56512.23
541.62	56390.53
541.79	56533.30
541.96	56367.12
542.13	56521.60
542.30	56629.26
542.47	56788.42
542.63	56821.19
542.80	56978.00
542.97	57062.26
543.14	57350.15
543.31	57134.82
543.48	57326.74
543.64	57385.25
543.81	57228.44
543.98	57324.40
544.15	57214.40
544.32	57504.62
544.48	57626.33
544.65	57525.69
544.82	57345.47
544.99	57345.47
545.16	57506.96
545.32	57350.15
545.49	57696.55
545.66	57513.98
545.83	57598.24
546.00	57502.28
546.16	57546.75
546.33	57471.85
546.50	57471.85
546.67	57755.06
546.83	57439.09
547.00	58017.20
547.17	57759.74
547.34	57776.12
547.50	57965.71
547.67	57954.00
547.84	57893.15
548.00	58085.07
548.17	58157.63
548.34	57787.83
548.51	58272.32
548.67	58239.55
548.84	58061.67
549.01	58141.25
549.18	58113.16
549.34	58260.62
549.51	58239.55
549.68	58382.32
549.84	58274.66
550.01	58436.16
550.18	58209.12
550.34	58365.94
550.51	58546.16
550.68	58183.38
550.84	58293.38
551.01	58459.56
551.18	58475.94
551.34	58365.94
551.51	58588.29
551.68	58375.30
551.84	58532.12
552.01	58445.52
552.18	58700.64
552.34	58471.26
552.51	58717.02
552.68	58571.91
552.84	58459.56
553.01	58766.17
553.18	58894.90
553.34	58911.28
553.51	58810.64
553.67	58698.30
553.84	58700.64
554.01	58904.26
554.17	59023.63
554.34	59079.80
554.51	59040.01
554.67	59009.59
554.84	59047.04
555.00	58897.24
555.17	59070.44
555.33	58972.14
555.50	58822.34
555.67	59105.55
555.83	58953.41
556.00	59072.78
556.16	59133.63
556.33	59323.22
556.50	59292.79
556.66	59355.99
556.83	58862.13
556.99	59447.27
557.16	59503.44
557.32	59458.97
557.49	59299.81
557.65	59150.02
557.82	59199.17
557.98	59344.28
558.15	59529.19
558.32	59568.97
558.48	59360.67
558.65	59414.50
558.81	59533.87
558.98	59487.06
559.14	59348.96
559.31	59540.89
559.47	59669.62
559.64	59868.56
559.80	59746.86
559.97	59749.20
560.13	59496.42
560.30	59561.95
560.46	59943.46
560.63	59730.47
560.79	59819.41
560.96	60076.87
561.12	59983.25
561.29	59765.58
561.45	59884.95
561.61	59908.35
561.78	59739.83
561.94	59683.66
562.11	59875.58
562.27	59877.93
562.44	59955.16
562.60	59887.29
562.77	59973.89
562.93	59800.69
563.10	60051.12
563.26	59873.24
563.42	60065.17
563.59	59992.61
563.75	59920.05
563.92	60093.25
564.08	59870.90
564.24	60156.45
564.41	60168.15
564.57	60196.24
564.74	60177.51
564.90	60051.12
565.07	59957.50
565.23	60111.98
565.39	60224.32
565.56	60273.48
565.72	60119.00
565.88	60100.28
566.05	60081.55
566.21	60128.36
566.38	60280.50
566.54	60200.92
566.70	60364.76
566.87	60303.90
567.03	60023.04
567.19	60184.54
567.36	60409.23
567.52	60383.48
567.68	60313.26
567.85	60245.39
568.01	60350.71
568.17	60151.77
568.34	60697.11
568.50	60285.18
568.66	60285.18
568.83	60420.93
568.99	60116.66
569.15	60439.65
569.32	60404.55
569.48	60439.65
569.64	60615.19
569.81	60378.80
569.97	60418.59
570.13	60406.89
570.30	60278.16
570.46	60502.85
570.62	60381.14
570.78	60526.25
570.95	60205.60
571.11	60575.40
571.27	60563.70
571.43	60495.83
571.60	60720.52
571.76	60502.85
571.92	60638.60
572.09	60523.91
572.25	60280.50
572.41	60467.74
572.57	60484.12
572.74	60598.81
572.90	60690.09
573.06	60549.66
573.22	60519.23
573.38	60666.69
573.55	60376.46
573.71	60816.48
573.87	60549.66
574.03	60659.66
574.20	60811.80
574.36	60608.17
574.52	60652.64
574.68	60725.20
574.84	60685.41
575.01	60856.27
575.17	60561.36
575.33	60624.56
575.49	60481.78
575.65	60619.88
575.82	60584.77
575.98	60680.73
576.14	61027.13
576.30	60783.71
576.46	60788.39
576.62	60722.86
576.79	60666.69
576.95	60762.65
577.11	60669.03
577.27	60879.67
577.43	60797.76
577.59	60697.11
577.75	60865.63
577.92	60739.24
578.08	60598.81
578.24	60835.20
578.40	60949.89
578.56	60797.76
578.72	60441.99
578.88	61055.21
579.04	60947.55
579.21	60832.86
579.37	60987.34
579.53	60757.97
579.69	60654.98
579.85	60692.43
580.01	60725.20
580.17	60739.24
580.33	61066.92
580.49	60844.57
580.65	60849.25
580.82	60874.99
580.98	60704.13
581.14	60664.35
581.30	61013.08
581.46	60903.08
581.62	60886.70
581.78	60776.69
581.94	60818.82
582.10	60884.36
582.26	60903.08
582.42	60954.57
582.58	61034.15
582.74	60844.57
582.90	61052.87
583.06	61036.49
583.22	60753.29
583.38	60781.37
583.54	60692.43
583.70	61006.06
583.86	60846.91
584.02	60940.53
584.18	61059.90
584.34	60776.69
584.50	61050.53
584.66	60912.44
584.82	60612.85
584.98	61123.09
585.14	60942.87
585.30	60800.10
585.46	60947.55
585.62	61013.08
585.78	61111.39
585.94	60811.80
586.10	60919.46
586.26	60926.49
586.42	61087.98
586.58	61095.00
586.74	60938.19
586.90	60891.38
587.06	60970.96
587.22	60994.36
587.38	61167.56
587.54	61102.03
587.70	61408.64
587.86	61125.43
588.02	61127.77
588.18	61076.28
588.34	61027.13
