SpectraSuite Data File
++++++++++++++++++++++++++++++++++++
Date: Fri Oct 25 11:23:06 EDT 2013
User: price-jones
Dark Spectrum Present: No
Reference Spectrum Present: No
Number of Sampled Component Spectra: 1
Spectrometers: USB2+H05261
Integration Time (usec): 100000 (USB2+H05261)
Spectra Averaged: 1 (USB2+H05261)
Boxcar Smoothing: 0 (USB2+H05261)
Correct for Electrical Dark: No (USB2+H05261)
Strobe/Lamp Enabled: No (USB2+H05261)
Correct for Detector Non-linearity: No (USB2+H05261)
Correct for Stray Light: No (USB2+H05261)
Number of Pixels in Processed Spectrum: 2048
>>>>>Begin Processed Spectral Data<<<<<
365.73	124.05
365.92	124.05
366.12	124.05
366.32	28.09
366.52	93.62
366.72	105.32
366.91	147.45
367.11	95.96
367.31	140.43
367.51	168.52
367.70	102.98
367.90	107.66
368.10	161.50
368.30	154.48
368.49	166.18
368.69	65.54
368.89	131.07
369.09	149.79
369.28	184.90
369.48	145.11
369.68	156.82
369.87	149.79
370.07	236.39
370.27	208.31
370.47	313.63
370.66	533.64
370.86	650.67
371.06	660.03
371.25	763.01
371.45	631.94
371.65	634.29
371.84	692.80
372.04	704.50
372.24	751.31
372.44	683.44
372.63	739.61
372.83	683.44
373.03	770.04
373.22	739.61
373.42	793.44
373.62	791.10
373.81	823.87
374.01	770.04
374.21	781.74
374.40	767.70
374.60	835.57
374.79	798.12
374.99	767.70
375.19	849.61
375.38	837.91
375.58	905.79
375.78	765.36
375.97	854.30
376.17	851.96
376.37	889.40
376.56	945.58
376.76	819.19
376.95	891.74
377.15	880.04
377.35	912.81
377.54	854.30
377.74	894.08
377.93	924.51
378.13	980.68
378.33	971.32
378.52	950.26
378.72	961.96
378.91	959.62
379.11	861.32
379.31	1025.15
379.50	868.34
379.70	938.55
379.89	987.71
380.09	950.26
380.28	959.62
380.48	959.62
380.68	947.92
380.87	1020.47
381.07	987.71
381.26	1004.09
381.46	992.39
381.65	1050.90
381.85	1125.80
382.04	1001.75
382.24	1050.90
382.43	1116.44
382.63	1064.94
382.83	1097.71
383.02	1144.52
383.22	1174.95
383.41	1088.35
383.61	1163.25
383.80	1217.08
384.00	1111.75
384.19	1174.95
384.39	1125.80
384.58	1100.05
384.78	1149.20
384.97	1170.27
385.17	1149.20
385.36	1193.67
385.56	1167.93
385.75	1214.74
385.95	1181.97
386.14	1280.27
386.34	1160.91
386.53	1212.40
386.72	1224.10
386.92	1214.74
387.11	1284.95
387.31	1303.68
387.50	1256.87
387.70	1261.55
387.89	1196.01
388.09	1315.38
388.28	1275.59
388.48	1233.46
388.67	1352.83
388.86	1291.98
389.06	1320.06
389.25	1306.02
389.45	1357.51
389.64	1317.72
389.84	1359.85
390.03	1448.79
390.22	1404.32
390.42	1341.13
390.61	1364.53
390.81	1352.83
391.00	1373.89
391.19	1563.48
391.39	1460.49
391.58	1411.34
391.78	1481.56
391.97	1469.86
392.16	1544.75
392.36	1561.14
392.55	1544.75
392.75	1654.76
392.94	1504.96
393.13	1626.67
393.33	1558.80
393.52	1629.01
393.71	1629.01
393.91	1516.67
394.10	1607.95
394.29	1582.20
394.49	1504.96
394.68	1617.31
394.88	1647.74
395.07	1598.59
395.26	1675.82
395.46	1689.87
395.65	1734.34
395.84	1703.91
396.04	1790.51
396.23	1710.93
396.42	1888.81
396.62	1797.53
396.81	1781.15
397.00	1734.34
397.19	1732.00
397.39	1748.38
397.58	1865.41
397.77	1741.36
397.97	1856.04
398.16	1856.04
398.35	1872.43
398.55	1900.52
398.74	1895.83
398.93	1881.79
399.12	1928.60
399.32	1820.94
399.51	2036.27
399.70	2080.74
399.90	2017.54
400.09	1937.96
400.28	2052.65
400.47	2054.99
400.67	2132.23
400.86	2120.53
401.05	2097.12
401.24	2003.50
401.44	2066.69
401.63	2083.08
401.82	2160.31
402.01	2195.42
402.21	2139.25
402.40	2167.34
402.59	2258.62
402.78	2249.25
402.97	2272.66
403.17	2186.06
403.36	2363.94
403.55	2246.91
403.74	2272.66
403.93	2305.43
404.13	2289.04
404.32	2401.39
404.51	2328.83
404.70	2441.18
404.89	2415.43
405.09	2553.52
405.28	2450.54
405.47	2567.57
405.66	2471.61
405.85	2530.12
406.05	2637.78
406.24	2487.99
406.43	2516.08
406.62	2614.38
406.81	2649.49
407.00	2597.99
407.20	2712.68
407.39	2708.00
407.58	2740.77
407.77	2766.51
407.96	2764.17
408.15	2801.62
408.34	2686.94
408.54	2808.64
408.73	2677.57
408.92	2782.90
409.11	2864.82
409.30	2965.46
409.49	2935.03
409.68	3038.02
409.87	2918.65
410.07	3019.29
410.26	2935.03
410.45	2960.78
410.64	3054.40
410.83	3098.87
411.02	3119.93
411.21	3215.90
411.40	3148.02
411.59	3332.92
411.78	3218.24
411.98	3283.77
412.17	3220.58
412.36	3241.64
412.55	3445.27
412.74	3339.94
412.93	3351.65
413.12	3431.23
413.31	3447.61
413.50	3576.34
413.69	3527.19
413.88	3606.77
414.07	3630.17
414.26	3669.96
414.45	3669.96
414.64	3716.77
414.83	3796.35
415.02	3772.94
415.22	3934.44
415.41	3896.99
415.60	3995.29
415.79	3887.63
415.98	4044.45
416.17	3997.64
416.36	3880.61
416.55	3904.01
416.74	4124.02
416.93	4049.13
417.12	4117.00
417.31	4264.46
417.50	4121.68
417.69	4241.05
417.88	4351.06
418.07	4355.74
418.26	4374.46
418.45	4423.61
418.64	4573.41
418.83	4395.53
419.02	4423.61
419.21	4444.68
419.39	4454.04
419.58	4528.94
419.77	4505.53
419.96	4660.01
420.15	4638.94
420.34	4690.43
420.53	4634.26
420.72	4624.90
420.91	4692.77
421.10	4718.52
421.29	4802.78
421.48	4779.37
421.67	4814.48
421.86	4704.48
422.05	4966.62
422.24	4781.71
422.43	4912.78
422.61	4922.15
422.80	5114.07
422.99	5034.49
423.18	4844.91
423.37	5128.11
423.56	4922.15
423.75	5064.92
423.94	4926.83
424.13	4723.20
424.32	4739.58
424.50	5036.83
424.69	5104.71
424.88	5088.32
425.07	4957.25
425.26	4910.44
425.45	5062.58
425.64	5025.13
425.83	4997.04
426.01	5226.42
426.20	5149.18
426.39	5116.41
426.58	5111.73
426.77	5181.95
426.96	5170.24
427.15	5198.33
427.33	5186.63
427.52	5139.82
427.71	5387.91
427.90	5203.01
428.09	5329.40
428.28	5301.31
428.46	5380.89
428.65	5338.76
428.84	5664.10
429.03	5570.48
429.22	5195.99
429.40	5352.81
429.59	5483.88
429.78	5256.84
429.97	5305.99
430.16	5579.84
430.34	5537.71
430.53	5652.39
430.72	5535.37
430.91	5636.01
431.10	5678.14
431.28	5795.17
431.47	5666.44
431.66	5963.68
431.85	5811.55
432.03	5973.05
432.22	6108.80
432.41	6050.28
432.60	5881.77
432.79	6010.50
432.97	5895.81
433.16	6076.03
433.35	5973.05
433.54	6134.54
433.72	6129.86
433.91	6033.90
434.10	6249.23
434.28	6148.59
434.47	6160.29
434.66	6282.00
434.85	6253.91
435.03	6546.48
435.22	6289.02
435.41	6525.41
435.59	6546.48
435.78	6396.68
435.97	6342.85
436.16	6478.60
436.34	6520.73
436.53	6689.25
436.72	6747.76
436.90	6434.13
437.09	6623.72
437.28	6546.48
437.46	6733.72
437.65	6607.33
437.84	6878.83
438.02	6927.99
438.21	6895.22
438.40	6733.72
438.58	6897.56
438.77	7138.63
438.96	7068.42
439.14	7129.27
439.33	7211.19
439.52	7173.74
439.70	7405.46
439.89	7358.64
440.08	7339.92
440.26	7414.82
440.45	7417.16
440.63	7653.55
440.82	7566.95
441.01	7480.35
441.19	7524.82
441.38	7616.10
441.57	7651.21
441.75	7985.91
441.94	8142.72
442.12	7934.42
442.31	7913.35
442.50	8084.21
442.68	8049.10
442.87	8173.15
443.05	8229.32
443.24	8266.77
443.43	8252.73
443.61	8194.22
443.80	8587.43
443.98	8084.21
444.17	7826.75
444.35	8177.83
444.54	8226.98
444.73	8255.07
444.91	8362.73
445.10	8212.94
445.28	8336.99
445.47	8236.35
445.65	8290.18
445.84	8622.53
446.02	8418.91
446.21	8334.65
446.39	8571.04
446.58	8606.15
446.77	8411.89
446.95	8454.02
447.14	8638.92
447.32	8767.65
447.51	8470.40
447.69	8528.91
447.88	8549.98
448.06	8542.96
448.25	8720.84
448.43	8491.46
448.62	8699.77
448.80	8685.73
448.99	8741.90
449.17	8765.31
449.36	8777.01
449.54	8774.67
449.73	9261.50
449.91	9001.70
450.10	8985.32
450.28	9172.56
450.46	9179.58
450.65	9078.94
450.83	9291.93
451.02	9179.58
451.20	9116.39
451.39	8990.00
451.57	9090.64
451.76	9151.49
451.94	9202.99
452.13	9362.14
452.31	9249.80
452.49	9322.35
452.68	9418.32
452.86	9437.04
453.05	9575.13
453.23	9621.94
453.42	9242.78
453.60	9219.37
453.78	9582.15
453.97	9518.96
454.15	9493.21
454.34	9675.77
454.52	9818.55
454.70	9659.39
454.89	9692.16
455.07	9834.93
455.26	9994.09
455.44	9980.04
455.62	9832.59
455.81	9902.81
455.99	10146.22
456.17	10183.67
456.36	10097.07
456.54	10171.97
456.73	10183.67
456.91	10427.09
457.09	10656.46
457.28	10443.47
457.46	10689.23
457.64	10588.58
457.83	10637.73
458.01	10586.24
458.19	10656.46
458.38	10609.65
458.56	10583.90
458.74	10745.40
458.93	10902.22
459.11	10796.89
459.29	10670.50
459.48	10890.51
459.66	10934.98
459.84	10944.34
460.03	11154.99
460.21	11066.05
460.39	11253.30
460.57	10813.28
460.76	11375.00
460.94	11470.97
461.12	11204.14
461.31	11353.94
461.49	11105.84
461.67	11225.21
461.85	11616.08
462.04	11662.89
462.22	11784.60
462.40	11723.74
462.59	11580.97
462.77	11627.78
462.95	11667.57
463.13	11599.70
463.32	11831.41
463.50	11845.45
463.68	11920.35
463.86	12100.57
464.05	11513.10
464.23	11922.69
464.41	11964.82
464.59	11791.62
464.78	12535.91
464.96	12138.02
465.14	11896.94
465.32	12184.83
465.50	11976.52
465.69	12276.11
465.87	12241.00
466.05	12177.81
466.23	12477.40
466.41	12526.55
466.60	12606.13
466.78	12126.32
466.96	12329.94
467.14	12512.50
467.32	12517.18
467.51	12821.45
467.69	12304.20
467.87	12500.80
468.05	12683.36
468.23	12617.83
468.41	12437.61
468.60	12559.31
468.78	12826.14
468.96	12784.01
469.14	13114.02
469.32	13008.70
469.50	12643.57
469.69	13057.85
469.87	12968.91
470.05	13062.53
470.23	13392.55
470.41	13160.83
470.59	13310.63
470.77	13137.43
470.95	13378.50
471.14	13497.87
471.32	13011.04
471.50	13558.72
471.68	13769.37
471.86	13710.86
472.04	13619.58
472.22	13996.40
472.40	13729.58
472.58	14190.67
472.77	14101.73
472.95	14384.93
473.13	14731.33
473.31	14335.78
473.49	14305.35
473.67	14333.44
473.85	14494.94
474.03	14888.15
474.21	14864.74
474.39	14848.36
474.57	14764.10
474.75	14764.10
474.93	15014.54
475.12	15094.11
475.30	15112.84
475.48	15241.57
475.66	15527.11
475.84	15337.53
476.02	15576.27
476.20	15515.41
476.38	15690.95
476.56	16301.83
476.74	16077.14
476.92	15978.84
477.10	15969.48
477.28	16301.83
477.46	16212.89
477.64	16421.20
477.82	17118.68
478.00	17392.52
478.18	16980.59
478.36	16978.25
478.54	17364.43
478.72	17530.61
478.90	17476.78
479.08	17921.48
479.26	17774.03
479.44	17886.37
479.62	18125.11
479.80	18438.74
479.98	18246.82
480.16	18752.37
480.34	18459.81
480.52	18616.62
480.70	18548.75
480.88	18724.29
481.06	19058.98
481.24	19124.52
481.41	19360.91
481.59	19332.82
481.77	19655.82
481.95	19896.89
482.13	19772.85
482.31	19950.73
482.49	20273.72
482.67	20130.95
482.85	20767.57
483.03	20381.38
483.21	21142.06
483.39	21193.55
483.57	21142.06
483.74	21324.62
483.92	21500.16
484.10	21256.75
484.28	21659.32
484.46	22113.38
484.64	22661.07
484.82	22017.42
485.00	22462.12
485.18	23009.81
485.35	23513.02
485.53	23042.57
485.71	23136.20
485.89	23637.07
486.07	23318.76
486.25	23498.98
486.43	23885.17
486.61	23976.45
486.78	24166.03
486.96	24357.96
487.14	24720.74
487.32	24786.27
487.50	24999.26
487.68	25525.88
487.85	25436.94
488.03	25752.91
488.21	26206.98
488.39	26113.36
488.57	26249.11
488.75	26314.64
488.92	26792.11
489.10	26939.57
489.28	27026.17
489.46	27213.41
489.64	27262.56
489.81	28102.81
489.99	27702.58
490.17	27887.48
490.35	28458.57
490.53	28521.77
490.70	28683.27
490.88	28584.96
491.06	29076.48
491.24	29205.20
491.41	29273.08
491.59	29181.80
491.77	29347.98
491.95	30115.67
492.13	30410.58
492.30	30288.87
492.48	30108.65
492.66	30553.35
492.84	30756.98
493.01	30815.49
493.19	30771.02
493.37	31096.36
493.54	31552.76
493.72	32060.66
493.90	31875.76
494.08	32224.50
494.25	32444.51
494.43	32362.59
494.61	32444.51
494.79	32732.39
494.96	32835.38
495.14	32903.25
495.32	33469.66
495.49	33331.57
495.67	33411.15
495.85	33591.37
496.02	33813.72
496.20	34632.91
496.38	34405.88
496.55	34436.30
496.73	35222.72
496.91	35007.39
497.09	35129.10
497.26	35454.44
497.44	35262.51
497.62	35653.38
497.79	36088.72
497.97	35634.66
498.14	36287.67
498.32	36552.15
498.50	36570.87
498.67	36596.62
498.85	36552.15
499.03	36886.84
499.20	36933.65
499.38	37481.34
499.56	37244.94
499.73	37361.97
499.91	37893.27
500.08	38127.33
500.26	37776.25
500.44	37895.61
500.61	38199.88
500.79	38115.62
500.97	38412.87
501.14	38658.63
501.32	38803.74
501.49	39173.55
501.67	38763.95
501.84	39374.83
502.02	39159.50
502.20	39309.30
502.37	39505.90
502.55	39276.53
502.72	39501.22
502.90	39882.73
503.07	39672.08
503.25	39981.03
503.43	40081.67
503.60	40381.26
503.78	40793.20
503.95	40605.95
504.13	40643.40
504.30	41010.87
504.48	40737.02
504.65	41015.55
504.83	41390.03
505.01	41607.70
505.18	41570.25
505.36	41853.46
505.53	41680.26
505.71	41680.26
505.88	41977.51
506.06	41666.22
506.23	42139.00
506.41	42171.77
506.58	42319.23
506.76	42431.57
506.93	42691.37
507.11	42983.94
507.28	42763.93
507.46	43344.38
507.63	43239.06
507.81	43756.32
507.98	43611.20
508.16	43562.05
508.33	43508.22
508.50	43716.53
508.68	44158.89
508.85	44327.41
509.03	44332.09
509.20	44657.42
509.38	44957.01
509.55	44847.00
509.73	44582.52
509.90	45015.52
510.08	44650.40
510.25	44896.16
510.42	45378.31
510.60	45425.12
510.77	45680.24
510.95	45998.55
511.12	45251.92
511.30	45408.73
511.47	45909.61
511.64	45844.07
511.82	46148.34
511.99	45916.63
512.17	46099.19
512.34	46218.56
512.51	46602.41
512.69	46810.71
512.86	46450.27
513.04	46988.60
513.21	47110.30
513.38	47145.41
513.56	47723.52
513.73	47159.45
513.90	47374.78
514.08	47145.41
514.25	47473.09
514.43	47854.59
514.60	47665.01
514.77	47988.00
514.95	48318.02
515.12	48341.42
515.29	47903.74
515.47	48442.07
515.64	48451.43
515.81	48311.00
515.99	48416.32
516.16	48605.91
516.33	48521.65
516.51	49202.74
516.68	48945.28
516.85	48875.07
517.03	49095.08
517.20	49153.59
517.37	49272.96
517.54	49177.00
517.72	48949.96
517.89	49212.10
518.06	49731.70
518.24	49453.18
518.41	49731.70
518.58	49853.41
518.75	49397.01
518.93	50110.87
519.10	49958.73
519.27	50078.10
519.45	50085.12
519.62	49942.35
519.79	50160.02
519.96	50122.57
520.14	50560.25
520.31	50438.54
520.48	50974.53
520.65	50864.52
520.83	50791.97
521.00	51063.47
521.17	50752.18
521.34	50986.23
521.52	51187.52
521.69	51065.81
521.86	51386.46
522.03	51402.85
522.20	51718.82
522.38	52030.11
522.55	51442.63
522.72	51770.31
522.89	51835.84
523.07	51950.53
523.24	51728.18
523.41	51683.71
523.58	51840.53
523.75	52191.61
523.92	52175.22
524.10	52423.32
524.27	52233.74
524.44	52296.93
524.61	52582.48
524.78	52392.89
524.96	52409.28
525.13	52479.49
525.30	52643.33
525.47	52713.55
525.64	52673.76
525.81	52945.26
525.98	53052.92
526.16	52963.98
526.33	52949.94
526.50	53450.81
526.67	52959.30
526.84	53134.84
527.01	52968.66
527.18	52973.34
527.36	53432.09
527.53	53399.32
527.70	53528.05
527.87	53595.93
528.04	53352.51
528.21	53518.69
528.38	53682.53
528.55	54066.38
528.72	53680.19
528.89	53668.48
529.07	53895.52
529.24	53521.03
529.41	54148.29
529.58	54026.59
529.75	53745.72
529.92	54052.33
530.09	53837.00
530.26	54246.60
530.43	54145.95
530.60	54234.89
530.77	54061.69
530.94	54663.21
531.11	54368.30
531.28	54010.20
531.46	54618.74
531.63	54604.70
531.80	54300.43
531.97	54534.48
532.14	54646.83
532.31	54803.64
532.48	54766.20
532.65	54770.88
532.82	54653.85
532.99	55018.97
533.16	54775.56
533.33	54995.57
533.50	55182.81
533.67	55021.31
533.84	54962.80
534.01	54932.37
534.18	54979.18
534.35	55393.46
534.52	55327.92
534.69	55487.08
534.86	55423.89
535.03	55269.41
535.20	55456.65
535.37	55650.92
535.54	55707.09
535.71	55461.33
535.88	55725.81
536.05	55683.69
536.22	56051.15
536.38	55866.25
536.55	55824.12
536.72	55997.32
536.89	55700.07
537.06	55753.90
537.23	56079.24
537.40	55477.72
537.57	56016.04
537.74	56189.24
537.91	56163.50
538.08	56069.87
538.25	56006.68
538.42	56067.53
538.59	56315.63
538.75	56210.31
538.92	56310.95
539.09	56474.79
539.26	56294.56
539.43	56640.96
539.60	56530.96
539.77	56484.15
539.94	56802.46
540.11	56715.86
540.28	56587.13
540.44	56793.10
540.61	56622.24
540.78	56678.41
540.95	56835.23
541.12	56619.90
541.29	56940.55
541.46	56940.55
541.62	56601.18
541.79	56765.01
541.96	56596.49
542.13	56657.35
542.30	56884.38
542.47	57216.74
542.63	57090.35
542.80	57137.16
542.97	57375.89
543.14	57497.60
543.31	57481.22
543.48	57375.89
543.64	57602.92
543.81	57495.26
543.98	57635.69
544.15	57481.22
544.32	57724.63
544.48	57930.60
544.65	57759.74
544.82	57586.54
544.99	57631.01
545.16	57733.99
545.32	57488.24
545.49	57633.35
545.66	57717.61
545.83	57769.10
546.00	57958.69
546.16	57991.45
546.33	57811.23
546.50	57682.50
546.67	58000.82
546.83	57701.23
547.00	57886.13
547.17	58028.90
547.34	58026.56
547.50	58206.78
547.67	58117.84
547.84	58248.91
548.00	58452.54
548.17	58375.30
548.34	58321.47
548.51	58361.26
548.67	58433.81
548.84	58293.38
549.01	58429.13
549.18	58513.39
549.34	58368.28
549.51	58464.24
549.68	58618.72
549.84	58679.57
550.01	58445.52
550.18	58365.94
550.34	58686.59
550.51	58738.08
550.68	58567.23
550.84	58377.64
551.01	58791.92
551.18	58766.17
551.34	58848.09
551.51	58869.15
551.68	58890.22
551.84	58749.79
552.01	58564.88
552.18	59000.22
552.34	58866.81
552.51	58834.05
552.68	58777.87
552.84	58871.49
553.01	59257.68
553.18	58920.65
553.34	59004.91
553.51	59121.93
553.67	59100.87
553.84	58944.05
554.01	59152.36
554.17	59323.22
554.34	59346.62
554.51	59178.10
554.67	59269.39
554.84	59042.35
555.00	59253.00
555.17	59295.13
555.33	59313.86
555.50	59124.27
555.67	59299.81
555.83	59196.83
556.00	59346.62
556.16	59653.23
556.33	59552.59
556.50	59585.36
556.66	59608.76
556.83	59379.39
556.99	59536.21
557.16	59690.68
557.32	59690.68
557.49	59774.94
557.65	59552.59
557.82	59686.00
557.98	59538.55
558.15	59625.15
558.32	59599.40
558.48	59426.20
558.65	59515.14
558.81	59592.38
558.98	59812.39
559.14	60055.81
559.31	59842.82
559.47	59990.27
559.64	59994.95
559.80	59739.83
559.97	59906.01
560.13	59821.75
560.30	60023.04
560.46	59945.80
560.63	60062.83
560.79	59887.29
560.96	59805.37
561.12	60088.57
561.29	60095.60
561.45	60114.32
561.61	60013.68
561.78	60074.53
561.94	60088.57
562.11	60074.53
562.27	60142.41
562.44	60446.68
562.60	60121.34
562.77	60292.20
562.93	59868.56
563.10	60189.22
563.26	60032.40
563.42	60294.54
563.59	60236.03
563.75	60214.96
563.92	60226.66
564.08	60271.14
564.24	60488.80
564.41	60444.33
564.57	60418.59
564.74	60404.55
564.90	60360.08
565.07	60275.82
565.23	60427.95
565.39	60306.24
565.56	60360.08
565.72	60301.56
565.88	60247.73
566.05	60259.43
566.21	60598.81
566.38	60313.26
566.54	60474.76
566.70	60388.16
566.87	60584.77
567.03	60615.19
567.19	60603.49
567.36	60678.39
567.52	60413.91
567.68	60664.35
567.85	60479.44
568.01	60495.83
568.17	60493.49
568.34	60708.82
568.50	60491.15
568.66	60451.36
568.83	60720.52
568.99	60687.75
569.15	60746.26
569.32	60559.02
569.48	60821.16
569.64	60650.30
569.81	60701.79
569.97	60339.01
570.13	60720.52
570.30	60643.28
570.46	60673.71
570.62	60933.51
570.78	60828.18
570.95	60659.66
571.11	60835.20
571.27	60907.76
571.43	60662.00
571.60	60851.59
571.76	60636.26
571.92	60776.69
572.09	60884.36
572.25	60954.57
572.41	60659.66
572.57	60818.82
572.74	61057.56
572.90	60987.34
573.06	60947.55
573.22	60659.66
573.38	60825.84
573.55	60741.58
573.71	61139.47
573.87	60853.93
574.03	60650.30
574.20	61034.15
574.36	60807.12
574.52	60788.39
574.68	61034.15
574.84	61095.00
575.01	60891.38
575.17	60947.55
575.33	60760.31
575.49	60760.31
575.65	60874.99
575.82	61085.64
575.98	61095.00
576.14	61146.50
576.30	60910.10
576.46	61003.72
576.62	60985.00
576.79	60914.78
576.95	60697.11
577.11	61123.09
577.27	61092.66
577.43	61008.40
577.59	60907.76
577.75	60917.12
577.92	60863.29
578.08	60992.02
578.24	60893.72
578.40	61216.71
578.56	61062.24
578.72	61155.86
578.88	61233.10
579.04	61111.39
579.21	60996.70
579.37	61116.07
579.53	61235.44
579.69	60839.89
579.85	60999.04
580.01	61050.53
580.17	60891.38
580.33	61097.34
580.49	61207.35
580.65	61097.34
580.82	61214.37
580.98	60811.80
581.14	61109.05
581.30	61357.14
581.46	61354.80
581.62	61038.83
581.78	60973.30
581.94	60996.70
582.10	61144.16
582.26	61020.11
582.42	60961.59
582.58	61062.24
582.74	61130.11
582.90	61106.71
583.06	61268.20
583.22	61008.40
583.38	61237.78
583.54	61104.37
583.70	61188.63
583.86	61223.73
584.02	61176.92
584.18	61195.65
584.34	61228.41
584.50	61291.61
584.66	60982.66
584.82	60935.85
584.98	61104.37
585.14	61066.92
585.30	61226.07
585.46	61174.58
585.62	61298.63
585.78	61403.95
585.94	61174.58
586.10	61134.79
586.26	61111.39
586.42	61242.46
586.58	61410.98
586.74	61174.58
586.90	61235.44
587.06	61123.09
587.22	61410.98
587.38	61214.37
587.54	61352.46
587.70	61401.61
587.86	61113.73
588.02	61087.98
588.18	61385.23
588.34	61307.99
588.49	61209.69
