SpectraSuite Data File
++++++++++++++++++++++++++++++++++++
Date: Fri Oct 25 11:33:59 EDT 2013
User: price-jones
Dark Spectrum Present: No
Reference Spectrum Present: No
Number of Sampled Component Spectra: 1
Spectrometers: USB2+H05261
Integration Time (usec): 100000 (USB2+H05261)
Spectra Averaged: 1 (USB2+H05261)
Boxcar Smoothing: 0 (USB2+H05261)
Correct for Electrical Dark: No (USB2+H05261)
Strobe/Lamp Enabled: No (USB2+H05261)
Correct for Detector Non-linearity: No (USB2+H05261)
Correct for Stray Light: No (USB2+H05261)
Number of Pixels in Processed Spectrum: 2048
>>>>>Begin Processed Spectral Data<<<<<
365.73	264.48
365.92	264.48
366.12	264.48
366.32	241.08
366.52	205.97
366.72	224.69
366.91	180.22
367.11	117.03
367.31	107.66
367.51	140.43
367.70	210.65
367.90	210.65
368.10	168.52
368.30	147.45
368.49	198.95
368.69	234.05
368.89	198.95
369.09	201.29
369.28	138.09
369.48	243.42
369.68	180.22
369.87	290.23
370.07	248.10
370.27	259.80
370.47	299.59
370.66	498.53
370.86	521.94
371.06	512.58
371.25	517.26
371.45	491.51
371.65	674.07
371.84	606.20
372.04	538.32
372.24	636.63
372.44	540.66
372.63	585.13
372.83	662.37
373.03	587.47
373.22	664.71
373.42	557.05
373.62	599.18
373.81	575.77
374.01	622.58
374.21	678.76
374.40	704.50
374.60	692.80
374.79	667.05
374.99	620.24
375.19	674.07
375.38	636.63
375.58	674.07
375.78	704.50
375.97	720.88
376.17	791.10
376.37	669.39
376.56	697.48
376.76	695.14
376.95	636.63
377.15	681.10
377.35	697.48
377.54	664.71
377.74	755.99
377.93	641.31
378.13	617.90
378.33	739.61
378.52	718.54
378.72	727.91
378.91	669.39
379.11	723.23
379.31	699.82
379.50	760.67
379.70	746.63
379.89	678.76
380.09	716.20
380.28	629.60
380.48	730.25
380.68	725.57
380.87	727.91
381.07	709.18
381.26	805.14
381.46	725.57
381.65	809.83
381.85	688.12
382.04	737.27
382.24	748.97
382.43	758.33
382.63	770.04
382.83	741.95
383.02	819.19
383.22	795.78
383.41	849.61
383.61	816.85
383.80	837.91
384.00	847.27
384.19	828.55
384.39	767.70
384.58	854.30
384.78	772.38
384.97	854.30
385.17	854.30
385.36	873.02
385.56	781.74
385.75	805.14
385.95	835.57
386.14	929.19
386.34	884.72
386.53	851.96
386.72	849.61
386.92	919.83
387.11	793.44
387.31	858.98
387.50	866.00
387.70	847.27
387.89	868.34
388.09	915.15
388.28	924.51
388.48	819.19
388.67	908.13
388.86	973.66
389.06	1027.50
389.25	938.55
389.45	957.28
389.64	917.49
389.84	929.19
390.03	1020.47
390.22	957.28
390.42	943.24
390.61	971.32
390.81	964.30
391.00	898.77
391.19	1015.79
391.39	1050.90
391.58	1027.50
391.78	997.07
391.97	957.28
392.16	1036.86
392.36	1034.52
392.55	1071.97
392.75	1018.13
392.94	1046.22
393.13	1018.13
393.33	1008.77
393.52	966.64
393.71	1078.99
393.91	1076.65
394.10	985.37
394.29	1102.39
394.49	1083.67
394.68	1029.84
394.88	1015.79
395.07	1142.18
395.26	1139.84
395.46	1149.20
395.65	1212.40
395.84	1142.18
396.04	1306.02
396.23	1123.46
396.42	1245.16
396.62	1193.67
396.81	1191.33
397.00	1256.87
397.19	1172.61
397.39	1336.45
397.58	1233.46
397.77	1252.19
397.97	1268.57
398.16	1212.40
398.35	1287.29
398.55	1270.91
398.74	1263.89
398.93	1378.58
399.12	1268.57
399.32	1256.87
399.51	1310.70
399.70	1416.02
399.90	1249.85
400.09	1259.21
400.28	1352.83
400.47	1299.00
400.67	1420.71
400.86	1317.72
401.05	1371.55
401.24	1352.83
401.44	1514.33
401.63	1453.47
401.82	1432.41
402.01	1397.30
402.21	1409.00
402.40	1432.41
402.59	1488.58
402.78	1486.24
402.97	1621.99
403.17	1476.88
403.36	1465.18
403.55	1483.90
403.74	1511.99
403.93	1523.69
404.13	1537.73
404.32	1526.03
404.51	1533.05
404.70	1626.67
404.89	1657.10
405.09	1652.42
405.28	1713.27
405.47	1713.27
405.66	1694.55
405.85	1699.23
406.05	1706.25
406.24	1710.93
406.43	1713.27
406.62	1717.95
406.81	1710.93
407.00	1682.85
407.20	1739.02
407.39	1853.70
407.58	1879.45
407.77	1923.92
407.96	1870.09
408.15	1900.52
408.34	1776.47
408.54	1970.73
408.73	1907.54
408.92	1968.39
409.11	1996.48
409.30	1959.03
409.49	1928.60
409.68	1956.69
409.87	1996.48
410.07	2026.90
410.26	1928.60
410.45	1980.09
410.64	2078.40
410.83	2047.97
411.02	2097.12
411.21	2162.66
411.40	2108.82
411.59	2165.00
411.78	2129.89
411.98	2239.89
412.17	2211.81
412.36	2260.96
412.55	2300.75
412.74	2246.91
412.93	2361.60
413.12	2193.08
413.31	2429.48
413.50	2370.96
413.69	2296.07
413.88	2385.01
414.07	2469.27
414.26	2392.03
414.45	2567.57
414.64	2581.61
414.83	2534.80
415.02	2574.59
415.22	2572.25
415.41	2693.96
415.60	2661.19
415.79	2672.89
415.98	2729.06
416.17	2771.19
416.36	2689.28
416.55	2757.15
416.74	2719.70
416.93	2771.19
417.12	2832.05
417.31	2923.33
417.50	2808.64
417.69	2956.10
417.88	2920.99
418.07	2796.94
418.26	2794.60
418.45	2909.29
418.64	2977.16
418.83	3021.63
419.02	2949.08
419.21	3152.70
419.39	3112.91
419.58	3019.29
419.77	3059.08
419.96	3096.53
420.15	3194.83
420.34	3169.09
420.53	3173.77
420.72	3178.45
420.91	3180.79
421.10	3152.70
421.29	3253.34
421.48	3133.98
421.67	3180.79
421.86	3241.64
422.05	3239.30
422.24	3323.56
422.43	3300.16
422.61	3248.66
422.80	3461.65
422.99	3400.80
423.18	3375.05
423.37	3431.23
423.56	3361.01
423.75	3353.99
423.94	3295.47
424.13	3227.60
424.32	3227.60
424.50	3433.57
424.69	3517.83
424.88	3487.40
425.07	3372.71
425.26	3414.84
425.45	3424.20
425.64	3487.40
425.83	3330.58
426.01	3590.38
426.20	3513.14
426.39	3386.76
426.58	3442.93
426.77	3466.33
426.96	3527.19
427.15	3501.44
427.33	3611.45
427.52	3571.66
427.71	3581.02
427.90	3515.48
428.09	3655.92
428.28	3471.01
428.46	3618.47
428.65	3691.02
428.84	3646.55
429.03	3688.68
429.22	3632.51
429.40	3705.07
429.59	3742.52
429.78	3578.68
429.97	3576.34
430.16	3756.56
430.34	3777.62
430.53	3875.93
430.72	3941.46
430.91	3962.53
431.10	3812.73
431.28	3955.51
431.47	3988.27
431.66	3953.16
431.85	3983.59
432.03	3969.55
432.22	3915.72
432.41	4058.49
432.60	3878.27
432.79	3988.27
432.97	3967.21
433.16	4152.11
433.35	4109.98
433.54	4126.36
433.72	4241.05
433.91	4088.92
434.10	4198.92
434.28	4156.79
434.47	4156.79
434.66	4287.86
434.85	4299.56
435.03	4400.21
435.22	4372.12
435.41	4496.17
435.59	4329.99
435.78	4334.67
435.97	4437.66
436.16	4421.27
436.34	4463.40
436.53	4322.97
436.72	4561.70
436.90	4432.97
437.09	4479.79
437.28	4489.15
437.46	4430.63
437.65	4610.86
437.84	4542.98
438.02	4503.19
438.21	4716.18
438.40	4428.29
438.58	4622.56
438.77	4760.65
438.96	4828.53
439.14	4791.08
439.33	4887.04
439.52	4699.80
439.70	4849.59
439.89	4887.04
440.08	4947.89
440.26	5032.15
440.45	4940.87
440.63	4990.02
440.82	5022.79
441.01	4812.14
441.19	5060.24
441.38	5245.14
441.57	5277.91
441.75	5327.06
441.94	5392.59
442.12	5378.55
442.31	5549.41
442.50	5416.00
442.68	5416.00
442.87	5376.21
443.05	5423.02
443.24	5575.16
443.43	5490.90
443.61	5603.24
443.80	5554.09
443.98	5383.23
444.17	5334.08
444.35	5526.00
444.54	5764.74
444.73	5640.69
444.91	5682.82
445.10	5610.26
445.28	5521.32
445.47	5418.34
445.65	5563.45
445.84	5584.52
446.02	5781.12
446.21	5621.97
446.39	5689.84
446.58	5757.72
446.77	5689.84
446.95	5659.42
447.14	5764.74
447.32	5621.97
447.51	5687.50
447.69	5666.44
447.88	5921.56
448.06	5699.20
448.25	5792.83
448.43	5839.64
448.62	5797.51
448.80	5734.31
448.99	5825.59
449.17	5959.00
449.36	5785.80
449.54	5928.58
449.73	6094.76
449.91	5989.43
450.10	5921.56
450.28	6064.33
450.46	6244.55
450.65	6174.33
450.83	6167.31
451.02	6150.93
451.20	6214.12
451.39	6090.07
451.57	6118.16
451.76	5888.79
451.94	6272.64
452.13	6246.89
452.31	6244.55
452.49	6221.14
452.68	6310.08
452.86	6169.65
453.05	6466.90
453.23	6415.41
453.42	6345.19
453.60	6244.55
453.78	6422.43
453.97	6333.49
454.15	6263.27
454.34	6464.56
454.52	6544.14
454.70	6565.20
454.89	6399.02
455.07	6686.91
455.26	6553.50
455.44	6731.38
455.62	6537.12
455.81	6544.14
455.99	6937.35
456.17	6773.51
456.36	6658.82
456.54	6768.83
456.73	6785.21
456.91	7208.85
457.09	7016.93
457.28	7000.54
457.46	7019.27
457.64	7108.21
457.83	7070.76
458.01	6876.49
458.19	7145.66
458.38	7061.40
458.56	7112.89
458.74	7129.27
458.93	7164.38
459.11	7096.50
459.29	7246.30
459.48	7199.49
459.66	7176.08
459.84	7318.86
460.03	7403.11
460.21	7218.21
460.39	7283.75
460.57	7396.09
460.76	7274.38
460.94	7241.62
461.12	7470.99
461.31	7470.99
461.49	7503.76
461.67	7267.36
461.85	7723.77
462.04	7578.65
462.22	8065.49
462.40	7857.18
462.59	7616.10
462.77	7822.07
462.95	7719.09
463.13	7735.47
463.32	7896.97
463.50	7775.26
463.68	7777.60
463.86	7709.72
464.05	7648.87
464.23	7779.94
464.41	7929.74
464.59	7751.85
464.78	8011.65
464.96	7803.35
465.14	7826.75
465.32	7826.75
465.50	7948.46
465.69	8044.42
465.87	7864.20
466.05	8088.89
466.23	8198.90
466.41	8212.94
466.60	8161.45
466.78	8042.08
466.96	8032.72
467.14	8189.53
467.32	8212.94
467.51	8355.71
467.69	8074.85
467.87	8126.34
468.05	8264.43
468.23	8369.76
468.41	8301.88
468.60	8442.31
468.78	8393.16
468.96	8423.59
469.14	8547.64
469.32	8344.01
469.50	8245.71
469.69	8615.51
469.87	8622.53
470.05	8868.29
470.23	8760.63
470.41	8718.50
470.59	8786.37
470.77	8580.40
470.95	8858.93
471.14	8854.25
471.32	8793.39
471.50	8898.72
471.68	8861.27
471.86	8954.89
472.04	9013.40
472.22	9249.80
472.40	8849.57
472.58	9217.03
472.77	9191.28
472.95	9172.56
473.13	9472.15
473.31	9167.88
473.49	9334.06
473.67	9364.48
473.85	9554.07
474.03	9467.47
474.21	9689.82
474.39	9633.64
474.57	9694.50
474.75	9846.63
474.93	9989.41
475.12	9804.50
475.30	9898.13
475.48	9973.02
475.66	10195.37
475.84	9989.41
476.02	10111.11
476.20	10143.88
476.38	10455.17
476.56	10471.56
476.74	10558.16
476.92	10303.04
477.10	10504.32
477.28	10740.72
477.46	10628.37
477.64	10766.46
477.82	10534.75
478.00	11042.65
478.18	11077.76
478.36	10944.34
478.54	11112.86
478.72	11262.66
478.90	11405.43
479.08	11531.82
479.26	11618.42
479.44	11459.26
479.62	11459.26
479.80	11875.88
479.98	11756.51
480.16	12037.38
480.34	12241.00
480.52	12173.13
480.70	12294.83
480.88	12020.99
481.06	12329.94
481.24	12414.20
481.41	12538.25
481.59	12898.69
481.77	12610.81
481.95	12945.50
482.13	12879.97
482.31	12877.63
482.49	13130.41
482.67	13224.03
482.85	13476.80
483.03	13479.15
483.21	13645.32
483.39	13661.71
483.57	13312.97
483.74	14097.05
483.92	13921.51
484.10	13760.01
484.28	14155.56
484.46	14532.39
484.64	14438.76
484.82	14356.85
485.00	14534.73
485.18	14941.98
485.35	15026.24
485.53	14916.23
485.71	14843.68
485.89	15192.42
486.07	15297.74
486.25	15253.27
486.43	15222.84
486.61	15569.24
486.78	15396.04
486.96	15597.33
487.14	16011.60
487.32	15833.72
487.50	16276.09
487.68	16348.64
487.85	16236.30
488.03	16559.29
488.21	16676.32
488.39	16791.00
488.57	16926.75
488.75	16870.58
488.92	17067.19
489.10	17071.87
489.28	17476.78
489.46	17448.69
489.64	17570.40
489.81	18043.19
489.99	18085.32
490.17	18202.35
490.35	18160.22
490.53	18010.42
490.70	18518.32
490.88	18270.22
491.06	18597.90
491.24	18789.82
491.41	19250.91
491.59	18953.66
491.77	19019.19
491.95	19346.87
492.13	19325.80
492.30	19433.47
492.48	19243.88
492.66	19737.74
492.84	19800.93
493.01	19885.19
493.19	19609.01
493.37	20641.18
493.54	20065.41
493.72	20355.64
493.90	20472.67
494.08	20449.26
494.25	20882.26
494.43	21039.08
494.61	21261.43
494.79	20886.94
494.96	20898.64
495.14	21062.48
495.32	21308.24
495.49	21493.14
495.67	21743.58
495.85	21853.58
496.02	21542.29
496.20	22319.35
496.38	22302.96
496.55	22511.27
496.73	22892.78
496.91	22658.73
497.09	22815.54
497.26	22677.45
497.44	22955.97
497.62	23070.66
497.79	23276.63
497.97	23264.92
498.14	23274.29
498.32	23506.00
498.50	23772.82
498.67	23763.46
498.85	23798.57
499.03	23648.77
499.20	23903.89
499.38	23817.29
499.56	23901.55
499.73	24142.63
499.91	24173.05
500.08	24383.70
500.26	24313.48
500.44	24730.10
500.61	24570.94
500.79	24542.86
500.97	24779.25
501.14	24957.13
501.32	25355.02
501.49	24922.02
501.67	25483.75
501.84	25696.74
502.02	25223.95
502.20	25315.23
502.37	25432.26
502.55	25661.63
502.72	25860.58
502.90	25645.25
503.07	26054.84
503.25	25795.04
503.43	25675.68
503.60	26438.69
503.78	26312.30
503.95	25977.61
504.13	26595.51
504.30	26574.44
504.48	26419.97
504.65	26796.79
504.83	26588.49
505.01	27115.11
505.18	26916.16
505.36	27033.19
505.53	27182.98
505.71	26988.72
505.88	27138.51
506.06	26892.76
506.23	27442.78
506.41	27402.99
506.58	27548.11
506.76	27707.26
506.93	27934.29
507.11	27564.49
507.28	28107.49
507.46	28030.26
507.63	27974.08
507.81	28184.73
507.98	27803.22
508.16	28383.68
508.33	28395.38
508.50	28105.15
508.68	28175.37
508.85	28725.39
509.03	28257.29
509.20	28629.43
509.38	28938.38
509.55	28943.06
509.73	28662.20
509.90	29109.24
510.08	29186.48
510.25	29340.96
510.42	29542.24
510.60	29486.07
510.77	29474.37
510.95	29949.50
511.12	29635.86
511.30	29708.42
511.47	29898.00
511.64	29949.50
511.82	30052.48
511.99	29738.85
512.17	30298.23
512.34	30230.36
512.51	30794.43
512.69	30590.80
512.86	30569.74
513.04	31009.76
513.21	30433.99
513.38	30602.50
513.56	31047.21
513.73	30455.05
513.90	30707.83
514.08	30960.61
514.25	31250.83
514.43	31047.21
514.60	31487.23
514.77	31393.61
514.95	31412.33
515.12	31278.92
515.29	31171.25
515.47	31995.12
515.64	31543.40
515.81	31590.21
515.99	31702.56
516.16	32280.67
516.33	31957.67
516.51	32390.67
516.68	31449.78
516.85	32327.48
517.03	32081.72
517.20	32484.30
517.37	32503.02
517.54	32638.77
517.72	32596.64
517.89	32664.52
518.06	32662.18
518.24	32978.15
518.41	32428.12
518.58	32591.96
518.75	32484.30
518.93	33326.89
519.10	33249.65
519.27	33305.82
519.45	33289.44
519.62	33340.93
519.79	33160.71
519.96	33144.33
520.14	33504.77
520.31	33464.98
520.48	33720.10
520.65	33572.64
520.83	34235.02
521.00	33748.18
521.17	33979.90
521.34	33998.62
521.52	34057.14
521.69	33806.70
521.86	34195.23
522.03	34792.06
522.20	34272.46
522.38	34967.60
522.55	34415.24
522.72	34611.84
522.89	34689.08
523.07	34651.63
523.24	35070.59
523.41	34965.26
523.58	34693.76
523.75	35248.47
523.92	34719.51
524.10	35145.48
524.27	35562.10
524.44	35487.20
524.61	35613.59
524.78	35147.82
524.96	35503.59
525.13	35718.92
525.30	35948.29
525.47	35868.71
525.64	35660.40
525.81	35777.43
525.98	35807.86
526.16	35754.02
526.33	35679.13
526.50	36081.70
526.67	35971.69
526.84	36355.54
527.01	36353.20
527.18	36362.56
527.36	36374.27
527.53	36329.80
527.70	36652.79
527.87	36322.77
528.04	36903.23
528.21	36872.80
528.38	36402.35
528.55	37036.64
528.72	36650.45
528.89	37043.66
529.07	36800.24
529.24	36788.54
529.41	37109.19
529.58	36959.40
529.75	36938.33
529.92	36861.10
530.09	37240.26
530.26	37507.08
530.43	37408.78
530.60	36980.46
530.77	37404.10
530.94	37560.92
531.11	37457.93
531.28	37294.10
531.46	37584.32
531.63	37504.74
531.80	37361.97
531.97	38007.96
532.14	37970.51
532.31	38101.58
532.48	37886.25
532.65	38359.04
532.82	37881.57
532.99	38483.09
533.16	38426.92
533.33	38031.36
533.50	37820.72
533.67	38022.00
533.84	37886.25
534.01	38845.87
534.18	38672.67
534.35	39140.78
534.52	38497.13
534.69	38895.02
534.86	39543.35
535.03	38801.40
535.20	38948.85
535.37	38873.96
535.54	39014.39
535.71	38934.81
535.88	39047.16
536.05	39234.40
536.22	38899.70
536.38	39075.24
536.55	39339.72
536.72	39037.80
536.89	39316.32
537.06	39168.87
537.23	39423.98
537.40	39311.64
537.57	39349.09
537.74	39428.66
537.91	39782.09
538.08	39629.95
538.25	39533.99
538.42	40011.46
538.59	39515.26
538.75	39779.74
538.92	39943.58
539.09	40348.50
539.26	39871.03
539.43	40577.87
539.60	40037.20
539.77	39959.97
539.94	40570.85
540.11	40566.16
540.28	40772.13
540.44	40252.53
540.61	40322.75
540.78	40509.99
540.95	40608.29
541.12	40587.23
541.29	40519.35
541.46	40648.08
541.62	40751.07
541.79	40900.86
541.96	40348.50
542.13	40713.62
542.30	40762.77
542.47	41127.89
542.63	40612.98
542.80	40877.46
542.97	41684.94
543.14	41036.61
543.31	41338.54
543.48	41839.42
543.64	42078.15
543.81	41591.32
543.98	41399.40
544.15	41289.39
544.32	41741.11
544.48	41970.49
544.65	41787.92
544.82	41954.10
544.99	41572.60
545.16	41811.33
545.32	41713.03
545.49	42143.69
545.66	42623.50
545.83	42244.33
546.00	42082.83
546.16	42141.35
546.33	42078.15
546.50	41607.70
546.67	42543.92
546.83	42171.77
547.00	42103.90
547.17	41961.12
547.34	42712.44
547.50	42588.39
547.67	42490.09
547.84	42513.49
548.00	42906.70
548.17	42960.53
548.34	42534.56
548.51	42246.67
548.67	42569.66
548.84	42880.95
549.01	43021.39
549.18	43044.79
549.34	43093.94
549.51	43058.84
549.68	42972.24
549.84	42969.90
550.01	43402.89
550.18	42965.21
550.34	43297.57
550.51	43180.54
550.68	43203.95
550.84	42955.85
551.01	43538.65
551.18	43309.27
551.34	42916.06
551.51	43201.61
551.68	43459.07
551.84	43529.28
552.01	43264.80
552.18	43835.89
552.34	43351.40
552.51	43243.74
552.68	43477.79
552.84	43643.97
553.01	43744.61
553.18	43859.30
553.34	43634.61
553.51	43835.89
553.67	44020.80
553.84	44109.74
554.01	43653.33
554.17	43934.20
554.34	44154.21
554.51	44065.27
554.67	44308.68
554.84	44259.53
555.00	44065.27
555.17	44385.92
555.33	44355.49
555.50	44182.29
555.67	44137.82
555.83	44371.88
556.00	44746.36
556.16	44729.98
556.33	44725.30
556.50	44184.63
556.66	44418.69
556.83	44514.65
556.99	44818.92
557.16	44847.00
557.32	44978.07
557.49	44896.16
557.65	44320.38
557.82	44423.37
557.98	44659.76
558.15	44444.43
558.32	44804.88
558.48	44811.90
558.65	44952.33
558.81	45111.49
558.98	44493.58
559.14	44762.75
559.31	44540.39
559.47	45034.25
559.64	44818.92
559.80	45130.21
559.97	44870.41
560.13	44486.56
560.30	44975.73
560.46	45200.43
560.63	45179.36
560.79	45324.47
560.96	45350.22
561.12	45373.63
561.29	45469.59
561.45	45553.85
561.61	45275.32
561.78	45062.33
561.94	45287.03
562.11	45102.12
562.27	45312.77
562.44	45701.30
562.60	45481.29
562.77	45207.45
562.93	45425.12
563.10	45624.06
563.26	45366.60
563.42	45834.71
563.59	45584.27
563.75	45413.41
563.92	45572.57
564.08	45408.73
564.24	45614.70
564.41	45516.40
564.57	45741.09
564.74	45680.24
564.90	45404.05
565.07	45539.80
565.23	45549.17
565.39	45177.02
565.56	46127.28
565.72	45785.56
565.88	45965.78
566.05	45717.68
566.21	45483.63
566.38	45979.82
566.54	45797.26
566.70	46021.95
566.87	45593.64
567.03	45408.73
567.19	45876.84
567.36	45937.69
567.52	46141.32
567.68	46506.44
567.85	45970.46
568.01	45965.78
568.17	45792.58
568.34	46050.04
568.50	46138.98
568.66	45841.73
568.83	46314.52
568.99	46057.06
569.15	45993.87
569.32	46057.06
569.48	46211.54
569.64	46380.06
569.81	46237.28
569.97	46373.03
570.13	46038.34
570.30	45832.37
570.46	46408.14
570.62	46178.77
570.78	45860.46
570.95	46567.30
571.11	46419.84
571.27	46216.22
571.43	46096.85
571.60	45937.69
571.76	45961.10
571.92	46305.16
572.09	46522.83
572.25	46190.47
572.41	45914.29
572.57	46089.83
572.74	46831.78
572.90	46164.73
573.06	46288.77
573.22	46396.44
573.38	46389.42
573.55	46443.25
573.71	46637.51
573.87	46808.37
574.03	46487.72
574.20	46794.33
574.36	46426.87
574.52	46611.77
574.68	46756.88
574.84	46965.19
575.01	46848.16
575.17	46946.47
575.33	46710.07
575.49	46061.74
575.65	46586.02
575.82	46747.52
575.98	46581.34
576.14	46916.04
576.30	47049.45
576.46	46557.94
576.62	46272.39
576.79	46483.04
576.95	46284.09
577.11	46370.69
577.27	46733.48
577.43	46623.47
577.59	46738.16
577.75	46494.74
577.92	46696.03
578.08	46548.57
578.24	46335.59
578.40	47023.70
578.56	46869.23
578.72	46766.24
578.88	46850.50
579.04	46843.48
579.21	46382.40
579.37	47023.70
579.53	46784.97
579.69	46644.54
579.85	46457.29
580.01	46595.38
580.17	46167.07
580.33	47131.37
580.49	46590.70
580.65	46829.44
580.82	46911.36
580.98	46548.57
581.14	46361.33
581.30	47082.22
581.46	46593.04
581.62	46424.53
581.78	46361.33
581.94	47330.31
582.10	47112.64
582.26	47203.92
582.42	46665.60
582.58	46384.74
582.74	46520.49
582.90	47068.17
583.06	46920.72
583.22	46515.81
583.38	47056.47
583.54	46939.44
583.70	46637.51
583.86	46916.04
584.02	46941.78
584.18	47325.63
584.34	46894.97
584.50	47117.32
584.66	46948.81
584.82	46766.24
584.98	47311.59
585.14	46958.17
585.30	46820.08
585.46	47107.96
585.62	46508.79
585.78	46962.85
585.94	46714.75
586.10	46632.83
586.26	46965.19
586.42	46717.09
586.58	46836.46
586.74	46803.69
586.90	46946.47
587.06	47112.64
587.22	47166.48
587.38	46681.98
587.54	46983.91
587.70	47480.11
587.86	47070.51
588.02	47070.51
588.18	47112.64
588.34	47030.72
588.49	47175.84
588.65	47012.00
588.81	46777.95
588.97	47196.90
589.13	46878.59
589.29	47112.64
589.45	47250.74
589.61	47437.98
589.77	47475.43
589.93	47210.95
590.08	47339.68
