SpectraSuite Data File
++++++++++++++++++++++++++++++++++++
Date: Fri Oct 25 11:26:27 EDT 2013
User: price-jones
Dark Spectrum Present: No
Reference Spectrum Present: No
Number of Sampled Component Spectra: 1
Spectrometers: USB2+H05261
Integration Time (usec): 100000 (USB2+H05261)
Spectra Averaged: 1 (USB2+H05261)
Boxcar Smoothing: 0 (USB2+H05261)
Correct for Electrical Dark: No (USB2+H05261)
Strobe/Lamp Enabled: No (USB2+H05261)
Correct for Detector Non-linearity: No (USB2+H05261)
Correct for Stray Light: No (USB2+H05261)
Number of Pixels in Processed Spectrum: 2048
>>>>>Begin Processed Spectral Data<<<<<
365.73	250.44
365.92	250.44
366.12	250.44
366.32	114.69
366.52	117.03
366.72	163.84
366.91	159.16
367.11	138.09
367.31	156.82
367.51	168.52
367.70	140.43
367.90	100.64
368.10	140.43
368.30	142.77
368.49	114.69
368.69	117.03
368.89	88.94
369.09	166.18
369.28	145.11
369.48	203.63
369.68	184.90
369.87	229.37
370.07	224.69
370.27	236.39
370.47	332.36
370.66	568.75
370.86	568.75
371.06	631.94
371.25	709.18
371.45	608.54
371.65	720.88
371.84	620.24
372.04	648.33
372.24	718.54
372.44	718.54
372.63	732.59
372.83	739.61
373.03	725.57
373.22	791.10
373.42	758.33
373.62	763.01
373.81	697.48
374.01	812.17
374.21	807.48
374.40	800.46
374.60	816.85
374.79	788.76
374.99	716.20
375.19	847.27
375.38	830.89
375.58	826.21
375.78	891.74
375.97	793.44
376.17	938.55
376.37	896.43
376.56	833.23
376.76	884.72
376.95	858.98
377.15	922.17
377.35	922.17
377.54	889.40
377.74	873.02
377.93	924.51
378.13	887.06
378.33	873.02
378.52	880.04
378.72	987.71
378.91	915.15
379.11	938.55
379.31	840.25
379.50	978.34
379.70	959.62
379.89	973.66
380.09	936.21
380.28	1013.45
380.48	957.28
380.68	1006.43
380.87	985.37
381.07	1090.69
381.26	1090.69
381.46	1053.24
381.65	1032.18
381.85	1020.47
382.04	994.73
382.24	1111.75
382.43	1128.14
382.63	1060.26
382.83	1074.31
383.02	1086.01
383.22	1125.80
383.41	1135.16
383.61	1137.50
383.80	1111.75
384.00	1076.65
384.19	1078.99
384.39	1287.29
384.58	1116.44
384.78	1165.59
384.97	1104.73
385.17	1114.10
385.36	1109.41
385.56	1069.62
385.75	1186.65
385.95	1242.82
386.14	1188.99
386.34	1261.55
386.53	1259.21
386.72	1217.08
386.92	1306.02
387.11	1315.38
387.31	1266.23
387.50	1226.44
387.70	1240.48
387.89	1224.10
388.09	1362.19
388.28	1341.13
388.48	1334.11
388.67	1249.85
388.86	1315.38
389.06	1289.64
389.25	1294.32
389.45	1413.68
389.64	1299.00
389.84	1371.55
390.03	1303.68
390.22	1376.24
390.42	1277.93
390.61	1378.58
390.81	1427.73
391.00	1439.43
391.19	1383.26
391.39	1380.92
391.58	1582.20
391.78	1509.65
391.97	1526.03
392.16	1537.73
392.36	1504.96
392.55	1526.03
392.75	1540.07
392.94	1509.65
393.13	1598.59
393.33	1579.86
393.52	1476.88
393.71	1537.73
393.91	1537.73
394.10	1540.07
394.29	1612.63
394.49	1586.88
394.68	1589.22
394.88	1600.93
395.07	1755.40
395.26	1659.44
395.46	1753.06
395.65	1776.47
395.84	1694.55
396.04	1776.47
396.23	1724.97
396.42	1764.76
396.62	1825.62
396.81	1820.94
397.00	1739.02
397.19	1682.85
397.39	1811.57
397.58	1898.17
397.77	1746.04
397.97	1886.47
398.16	1909.88
398.35	1818.60
398.55	1804.55
398.74	1923.92
398.93	1928.60
399.12	1914.56
399.32	1963.71
399.51	2024.56
399.70	1991.80
399.90	1989.46
400.09	2057.33
400.28	2136.91
400.47	2050.31
400.67	2169.68
400.86	2101.80
401.05	2139.25
401.24	2106.48
401.44	2169.68
401.63	2218.83
401.82	2162.66
402.01	2113.50
402.21	2146.27
402.40	2125.21
402.59	2186.06
402.78	2162.66
402.97	2146.27
403.17	2122.87
403.36	2305.43
403.55	2232.87
403.74	2272.66
403.93	2230.53
404.13	2401.39
404.32	2363.94
404.51	2359.26
404.70	2513.74
404.89	2431.82
405.09	2574.59
405.28	2434.16
405.47	2427.14
405.66	2480.97
405.85	2399.05
406.05	2719.70
406.24	2626.08
406.43	2572.25
406.62	2401.39
406.81	2705.66
407.00	2562.89
407.20	2576.93
407.39	2630.76
407.58	2780.56
407.77	2733.75
407.96	2747.79
408.15	2881.20
408.34	2745.45
408.54	2700.98
408.73	2736.09
408.92	2738.43
409.11	2832.05
409.30	2813.32
409.49	2839.07
409.68	3056.74
409.87	2761.83
410.07	2860.13
410.26	3096.53
410.45	3038.02
410.64	3028.65
410.83	3073.12
411.02	3070.78
411.21	3190.15
411.40	3152.70
411.59	3375.05
411.78	3164.40
411.98	3246.32
412.17	3262.71
412.36	3353.99
412.55	3279.09
412.74	3433.57
412.93	3410.16
413.12	3314.20
413.31	3459.31
413.50	3398.46
413.69	3522.51
413.88	3688.68
414.07	3623.15
414.26	3632.51
414.45	3604.42
414.64	3595.06
414.83	3646.55
415.02	3721.45
415.22	3997.64
415.41	3962.53
415.60	3819.75
415.79	3988.27
415.98	3964.87
416.17	4044.45
416.36	3955.51
416.55	3955.51
416.74	3885.29
416.93	4072.53
417.12	4112.32
417.31	4081.89
417.50	4004.66
417.69	4271.48
417.88	4152.11
418.07	4315.95
418.26	4280.84
418.45	4177.86
418.64	4514.89
418.83	4414.25
419.02	4353.40
419.21	4381.48
419.39	4311.27
419.58	4362.76
419.77	4388.50
419.96	4575.75
420.15	4734.90
420.34	4627.24
420.53	4657.67
420.72	4779.37
420.91	4842.57
421.10	4774.69
421.29	4765.33
421.48	4741.93
421.67	4753.63
421.86	4592.13
422.05	4751.29
422.24	4713.84
422.43	5025.13
422.61	4933.85
422.80	4922.15
422.99	5015.77
423.18	4952.57
423.37	5046.20
423.56	5078.96
423.75	4931.51
423.94	4732.56
424.13	4594.47
424.32	4660.01
424.50	5015.77
424.69	5142.16
424.88	5027.47
425.07	4805.12
425.26	5076.62
425.45	5057.90
425.64	5050.88
425.83	4980.66
426.01	4971.30
426.20	5114.07
426.39	5200.67
426.58	5041.51
426.77	5039.17
426.96	5057.90
427.15	5022.79
427.33	5233.44
427.52	5165.56
427.71	5247.48
427.90	5233.44
428.09	5336.42
428.28	5425.36
428.46	5329.40
428.65	5434.72
428.84	5533.03
429.03	5413.66
429.22	5261.52
429.40	5404.30
429.59	5336.42
429.78	5207.69
429.97	5310.68
430.16	5521.32
430.34	5577.50
430.53	5537.71
430.72	5774.10
430.91	5797.51
431.10	5706.23
431.28	5764.74
431.47	5689.84
431.66	5914.53
431.85	5823.25
432.03	5832.62
432.22	5998.79
432.41	5884.11
432.60	5884.11
432.79	6036.24
432.97	5966.03
433.16	5928.58
433.35	5975.39
433.54	6183.70
433.72	6108.80
433.91	6010.50
434.10	6164.97
434.28	6033.90
434.47	6148.59
434.66	6253.91
434.85	6207.10
435.03	6361.58
435.22	6209.44
435.41	6609.67
435.59	6384.98
435.78	6298.38
435.97	6448.18
436.16	6471.58
436.34	6279.66
436.53	6497.33
436.72	6558.18
436.90	6424.77
437.09	6593.29
437.28	6340.51
437.46	6719.68
437.65	6686.91
437.84	6871.81
438.02	6691.59
438.21	6773.51
438.40	6703.29
438.58	7129.27
438.77	6946.71
438.96	6974.80
439.14	7098.84
439.33	7087.14
439.52	7232.26
439.70	7213.53
439.89	7190.13
440.08	7248.64
440.26	7232.26
440.45	7393.75
440.63	7573.97
440.82	7606.74
441.01	7489.71
441.19	7749.51
441.38	7777.60
441.57	7784.62
441.75	7779.94
441.94	7861.86
442.12	7939.10
442.31	8166.13
442.50	7868.88
442.68	7971.86
442.87	8035.06
443.05	8028.04
443.24	8093.57
443.43	8327.63
443.61	8065.49
443.80	8325.29
443.98	8229.32
444.17	7962.50
444.35	8341.67
444.54	8344.01
444.73	8203.58
444.91	8549.98
445.10	8327.63
445.28	8439.97
445.47	8456.36
445.65	8229.32
445.84	8526.57
446.02	8388.48
446.21	8285.50
446.39	8430.61
446.58	8645.94
446.77	8496.14
446.95	8238.69
447.14	8589.77
447.32	8505.51
447.51	8304.22
447.69	8449.33
447.88	8390.82
448.06	8503.17
448.25	8463.38
448.43	8404.86
448.62	8557.00
448.80	8561.68
448.99	8620.19
449.17	8702.11
449.36	8655.30
449.54	8915.10
449.73	8994.68
449.91	8982.98
450.10	8971.27
450.28	9039.15
450.46	8919.78
450.65	9013.40
450.83	9053.19
451.02	8912.76
451.20	9224.05
451.39	9146.81
451.57	9331.72
451.76	8968.93
451.94	9071.92
452.13	9217.03
452.31	9109.36
452.49	9256.82
452.68	9303.63
452.86	9287.25
453.05	9289.59
453.23	9570.45
453.42	9294.27
453.60	9308.31
453.78	9502.58
453.97	9378.53
454.15	9497.89
454.34	9350.44
454.52	9706.20
454.70	9582.15
454.89	9846.63
455.07	9844.29
455.26	9809.19
455.44	9856.00
455.62	9877.06
455.81	9811.53
455.99	10038.56
456.17	10127.50
456.36	10160.27
456.54	10167.29
456.73	10303.04
456.91	10403.68
457.09	10384.96
457.28	10466.88
457.46	10317.08
457.64	10335.81
457.83	10546.45
458.01	10478.58
458.19	10644.76
458.38	10469.22
458.56	10750.08
458.74	10511.35
458.93	10516.03
459.11	10703.27
459.29	10619.01
459.48	10710.29
459.66	10836.68
459.84	10951.37
460.03	11044.99
460.21	10906.90
460.39	10813.28
460.57	10932.64
460.76	11028.60
460.94	11026.26
461.12	11023.92
461.31	10939.66
461.49	11115.20
461.67	11290.74
461.85	11433.52
462.04	11421.81
462.22	11709.70
462.40	11583.31
462.59	11620.76
462.77	11513.10
462.95	11662.89
463.13	11669.91
463.32	11702.68
463.50	11625.44
463.68	11653.53
463.86	11698.00
464.05	11442.88
464.23	11667.57
464.41	11831.41
464.59	11623.10
464.78	12112.27
464.96	11999.93
465.14	11852.47
465.32	12283.13
465.50	11950.78
465.69	12173.13
465.87	12189.51
466.05	12133.34
466.23	11983.54
466.41	12081.85
466.60	12594.42
466.78	12184.83
466.96	12177.81
467.14	11964.82
467.32	12446.97
467.51	12699.75
467.69	12166.10
467.87	12292.49
468.05	12716.13
468.23	12166.10
468.41	12311.22
468.60	12472.71
468.78	12730.17
468.96	12545.27
469.14	12725.49
469.32	13027.42
469.50	12662.30
469.69	12910.40
469.87	13013.38
470.05	13198.28
470.23	12943.16
470.41	13020.40
470.59	13331.69
470.77	13153.81
470.95	13303.60
471.14	13540.00
471.32	13020.40
471.50	13289.56
471.68	13556.38
471.86	13720.22
472.04	13645.32
472.22	14066.62
472.40	13708.52
472.58	13701.50
472.77	13956.61
472.95	14373.23
473.13	14537.07
473.31	14045.55
473.49	14200.03
473.67	14244.50
473.85	14045.55
474.03	14593.24
474.21	14457.49
474.39	14675.16
474.57	14546.43
474.75	14824.95
474.93	15091.77
475.12	14862.40
475.30	15124.54
475.48	15075.39
475.66	15234.55
475.84	14869.42
476.02	15356.25
476.20	15421.79
476.38	15789.25
476.56	15922.66
476.74	15974.16
476.92	15939.05
477.10	15955.43
477.28	16018.63
477.46	16208.21
477.64	16198.85
477.82	16222.25
478.00	16931.44
478.18	16973.56
478.36	16683.34
478.54	16936.12
478.72	17099.95
478.90	17436.99
479.08	17621.89
479.26	17722.54
479.44	17682.75
479.62	18019.78
479.80	18059.57
479.98	18204.69
480.16	18560.45
480.34	18391.93
480.52	18457.46
480.70	18602.58
480.88	18581.51
481.06	18513.64
481.24	18831.95
481.41	19122.18
481.59	19447.51
481.77	19711.99
481.95	19271.97
482.13	19618.37
482.31	19840.72
482.49	20271.38
482.67	19985.83
482.85	20173.08
483.03	20725.44
483.21	20620.12
483.39	21048.44
483.57	20634.16
483.74	21022.69
483.92	21233.34
484.10	20947.79
484.28	21586.76
484.46	21869.97
484.64	22022.10
484.82	21598.46
485.00	22134.45
485.18	22703.20
485.35	23178.33
485.53	22803.84
485.71	22897.46
485.89	23264.92
486.07	23367.91
486.25	23222.80
486.43	23590.26
486.61	23939.00
486.78	24088.79
486.96	24166.03
487.14	24816.70
487.32	24610.73
487.50	24877.55
487.68	24851.81
487.85	25127.99
488.03	25441.62
488.21	25741.21
488.39	25841.85
488.57	26129.74
488.75	25947.18
488.92	26672.74
489.10	26974.67
489.28	26651.68
489.46	26946.59
489.64	26993.40
489.81	27470.87
489.99	27557.47
490.17	27398.31
490.35	27999.83
490.53	28226.86
490.70	28622.41
490.88	28414.10
491.06	28758.16
491.24	28259.63
491.41	28776.89
491.59	29235.63
491.77	29219.25
491.95	29120.95
492.13	29628.84
492.30	30045.46
492.48	30139.08
492.66	30373.13
492.84	30000.99
493.01	30515.90
493.19	30286.53
493.37	30773.36
493.54	30899.75
493.72	31587.87
493.90	31260.20
494.08	31955.33
494.25	31824.26
494.43	31960.02
494.61	31901.50
494.79	32374.29
494.96	32793.25
495.14	32622.39
495.32	32889.21
495.49	33144.33
495.67	33172.41
495.85	33633.50
496.02	34113.31
496.20	33848.83
496.38	34506.52
496.55	34455.03
496.73	34822.49
496.91	34656.31
497.09	34567.37
497.26	35056.54
497.44	34707.80
497.62	35026.12
497.79	35480.18
497.97	35367.84
498.14	35920.20
498.32	36109.78
498.50	36027.87
498.67	36151.91
498.85	36341.50
499.03	36793.22
499.20	36385.97
499.38	37024.93
499.56	36760.45
499.73	37141.96
499.91	37067.06
500.08	37024.93
500.26	37104.51
500.44	37474.32
500.61	37806.67
500.79	37621.77
500.97	38003.28
501.14	38778.00
501.32	38288.82
501.49	38110.94
501.67	38249.03
501.84	38845.87
502.02	38845.87
502.20	39150.14
502.37	39306.96
502.55	39257.81
502.72	39370.15
502.90	39433.35
503.07	39288.23
503.25	39941.24
503.43	39421.64
503.60	39812.51
503.78	40348.50
503.95	39934.22
504.13	40067.63
504.30	40439.78
504.48	40285.30
504.65	40308.71
504.83	40573.19
505.01	41347.90
505.18	40950.01
505.36	41432.16
505.53	41273.01
505.71	41420.46
505.88	41420.46
506.06	41420.46
506.23	41961.12
506.41	41593.66
506.58	42103.90
506.76	42265.39
506.93	42230.29
507.11	42270.08
507.28	42689.03
507.46	42693.71
507.63	42597.75
507.81	43014.37
507.98	42810.74
508.16	43126.71
508.33	43414.60
508.50	43290.55
508.68	43508.22
508.85	43728.23
509.03	43929.51
509.20	43658.01
509.38	44203.36
509.55	44392.94
509.73	44425.71
509.90	44088.67
510.08	44311.02
510.25	44678.49
510.42	44795.51
510.60	45041.27
510.77	45020.20
510.95	45226.17
511.12	45003.82
511.30	45001.48
511.47	45371.28
511.64	45464.91
511.82	45460.23
511.99	45378.31
512.17	45940.04
512.34	45710.66
512.51	46445.59
512.69	45811.31
512.86	46052.38
513.04	46529.85
513.21	46557.94
513.38	46866.89
513.56	46841.14
513.73	46831.78
513.90	47061.15
514.08	46808.37
514.25	47208.61
514.43	47646.29
514.60	46738.16
514.77	47220.31
514.95	47657.99
515.12	47480.11
515.29	47423.93
515.47	47866.30
515.64	48114.39
515.81	47540.96
515.99	47863.96
516.16	48547.39
516.33	48449.09
516.51	48697.19
516.68	48418.66
516.85	48601.22
517.03	48727.61
517.20	48406.96
517.37	48861.02
517.54	48790.81
517.72	48884.43
517.89	49062.31
518.06	49258.91
518.24	48900.81
518.41	48722.93
518.58	49350.20
518.75	48900.81
518.93	49570.21
519.10	49567.87
519.27	49563.18
519.45	49649.78
519.62	49645.10
519.79	49748.09
519.96	50131.93
520.14	50483.01
520.31	49811.28
520.48	50733.45
520.65	50206.83
520.83	50440.89
521.00	50426.84
521.17	50546.21
521.34	50574.30
521.52	50866.86
521.69	50490.04
521.86	50693.66
522.03	51178.15
522.20	51395.82
522.38	51400.50
522.55	51276.46
522.72	51227.31
522.89	51264.75
523.07	51243.69
523.24	51217.94
523.41	51669.67
523.58	51526.89
523.75	51793.71
523.92	51728.18
524.10	51824.14
524.27	52121.39
524.44	51667.33
524.61	51950.53
524.78	51936.49
524.96	51889.68
525.13	52259.48
525.30	52390.55
525.47	52287.57
525.64	52509.92
525.81	52381.19
525.98	52655.03
526.16	52453.75
526.33	52589.50
526.50	52797.80
526.67	52736.95
526.84	52907.81
527.01	52655.03
527.18	52362.46
527.36	52748.65
527.53	53083.35
527.70	53303.36
527.87	53303.36
528.04	53017.82
528.21	53085.69
528.38	53069.31
528.55	53518.69
528.72	53191.01
528.89	53340.81
529.07	53165.27
529.24	53200.38
529.41	53549.12
529.58	53631.04
529.75	53567.84
529.92	53750.40
530.09	53764.45
530.26	53989.14
530.43	53804.24
530.60	53586.57
530.77	53790.19
530.94	53951.69
531.11	53785.51
531.28	54054.67
531.46	54380.01
531.63	53769.13
531.80	53921.26
531.97	54426.82
532.14	54316.81
532.31	54447.88
532.48	54433.84
532.65	54667.89
532.82	54550.87
532.99	54349.58
533.16	54274.68
533.33	54747.47
533.50	54607.04
533.67	54728.75
533.84	54632.78
534.01	54691.30
534.18	54944.08
534.35	54983.86
534.52	54880.88
534.69	54915.99
534.86	55194.51
535.03	55121.96
535.20	55126.64
535.37	55250.69
535.54	55398.14
535.71	55077.49
535.88	55440.27
536.05	55475.38
536.22	55711.77
536.38	55540.91
536.55	55590.06
536.72	55498.78
536.89	55679.00
537.06	55428.57
537.23	55632.19
537.40	55704.75
537.57	55571.34
537.74	55774.97
537.91	55950.51
538.08	55891.99
538.25	55440.27
538.42	55789.01
538.59	56292.22
538.75	55615.81
538.92	55880.29
539.09	56158.81
539.26	55999.66
539.43	56088.60
539.60	56273.50
539.77	56074.55
539.94	56432.66
540.11	56465.42
540.28	56126.05
540.44	56519.26
540.61	56247.75
540.78	56481.81
540.95	56257.12
541.12	56287.54
541.29	56383.51
541.46	56617.56
541.62	56601.18
541.79	56474.79
541.96	56484.15
542.13	56671.39
542.30	56781.40
542.47	56690.12
542.63	56563.73
542.80	56734.59
542.97	57038.86
543.14	57216.74
543.31	56926.51
543.48	57207.37
543.64	57240.14
543.81	57420.36
543.98	57137.16
544.15	57193.33
544.32	57319.72
544.48	57542.07
544.65	57293.97
544.82	57425.04
544.99	57085.67
545.16	57364.19
545.32	57378.23
545.49	57680.16
545.66	57663.78
545.83	57439.09
546.00	57687.18
546.16	57588.88
546.33	57331.42
546.50	57322.06
546.67	57649.74
546.83	57476.54
547.00	57537.39
547.17	57602.92
547.34	57764.42
547.50	57705.91
547.67	58042.95
547.84	57909.53
548.00	58049.97
548.17	58220.83
548.34	57822.93
548.51	58073.37
548.67	58131.89
548.84	58068.69
549.01	58131.89
549.18	57958.69
549.34	58075.71
549.51	58412.75
549.68	58279.34
549.84	58274.66
550.01	58218.49
550.18	57897.83
550.34	58457.22
550.51	58286.36
550.68	58464.24
550.84	58265.30
551.01	58398.71
551.18	58443.18
551.34	58122.52
551.51	58578.93
551.68	58688.93
551.84	58417.43
552.01	58447.86
552.18	58487.65
552.34	58443.18
552.51	58920.65
552.68	58440.84
552.84	58592.97
553.01	58834.05
553.18	58632.76
553.34	58803.62
553.51	58672.55
553.67	58958.09
553.84	58958.09
554.01	58937.03
554.17	58883.20
554.34	58880.86
554.51	58850.43
554.67	59110.23
554.84	59032.99
555.00	59187.47
555.17	58930.01
555.33	58965.12
555.50	58843.41
555.67	58717.02
555.83	58728.72
556.00	59220.23
556.16	59311.52
556.33	59421.52
556.50	59229.60
556.66	59089.16
556.83	58976.82
556.99	59318.54
557.16	59351.30
557.32	59320.88
557.49	59536.21
557.65	59412.16
557.82	59262.36
557.98	59391.09
558.15	59353.65
558.32	59568.97
558.48	59348.96
558.65	59447.27
558.81	59370.03
558.98	59370.03
559.14	59529.19
559.31	59683.66
559.47	59421.52
559.64	59419.18
559.80	59465.99
559.97	59714.09
560.13	59538.55
560.30	59545.57
560.46	59629.83
560.63	59821.75
560.79	59643.87
560.96	59725.79
561.12	59704.73
561.29	59590.04
561.45	59765.58
561.61	59798.35
561.78	59742.17
561.94	59583.02
562.11	59606.42
562.27	59887.29
562.44	59796.01
562.60	60060.49
562.77	60039.42
562.93	59587.70
563.10	60076.87
563.26	59798.35
563.42	60163.47
563.59	59980.91
563.75	59812.39
563.92	59849.84
564.08	59929.42
564.24	60100.28
564.41	60104.96
564.57	60058.15
564.74	59987.93
564.90	60065.17
565.07	59934.10
565.23	60044.10
565.39	59924.74
565.56	59976.23
565.72	60011.34
565.88	60102.62
566.05	60076.87
566.21	59985.59
566.38	60151.77
566.54	60116.66
566.70	60111.98
566.87	60126.02
567.03	60161.13
567.19	60233.69
567.36	60278.16
567.52	60261.77
567.68	60353.05
567.85	60498.17
568.01	60357.74
568.17	60130.70
568.34	60437.31
568.50	60289.86
568.66	60322.63
568.83	60364.76
568.99	60172.83
569.15	60294.54
569.32	60257.09
569.48	60229.01
569.64	60390.50
569.81	60303.90
569.97	60203.26
570.13	60310.92
570.30	60186.88
570.46	60444.33
570.62	60381.14
570.78	60420.93
570.95	60189.22
571.11	60633.92
571.27	60264.11
571.43	60418.59
571.60	60479.44
571.76	60449.02
571.92	60432.63
572.09	60594.13
572.25	60458.38
572.41	60369.44
572.57	60463.06
572.74	60683.07
572.90	60310.92
573.06	60748.60
573.22	60556.68
573.38	60573.06
573.55	60537.96
573.71	60842.23
573.87	60722.86
574.03	60706.47
574.20	60846.91
574.36	60640.94
574.52	60776.69
574.68	60683.07
574.84	60989.68
575.01	60832.86
575.17	60559.02
575.33	60666.69
575.49	60652.64
575.65	60741.58
575.82	60760.31
575.98	60746.26
576.14	60914.78
576.30	60790.73
576.46	60828.18
576.62	60617.53
576.79	60739.24
576.95	60673.71
577.11	60683.07
577.27	60608.17
577.43	60863.29
577.59	60774.35
577.75	60776.69
577.92	60608.17
578.08	60591.79
578.24	60727.54
578.40	60867.97
578.56	60970.96
578.72	60844.57
578.88	60917.12
579.04	60889.04
579.21	60912.44
579.37	60800.10
579.53	60772.01
579.69	60385.82
579.85	60762.65
580.01	60879.67
580.17	60638.60
580.33	60835.20
580.49	61027.13
580.65	60725.20
580.82	60793.07
580.98	60481.78
581.14	60837.54
581.30	61106.71
581.46	60949.89
581.62	60715.84
581.78	60692.43
581.94	60928.83
582.10	60786.05
582.26	60800.10
582.42	60638.60
582.58	61029.47
582.74	60708.82
582.90	60919.46
583.06	60980.32
583.22	60643.28
583.38	60767.33
583.54	60818.82
583.70	60877.33
583.86	60823.50
584.02	60858.61
584.18	61148.84
584.34	61045.85
584.50	60896.06
584.66	61085.64
584.82	60933.51
584.98	61048.19
585.14	61008.40
585.30	60863.29
585.46	61003.72
585.62	60804.78
585.78	61020.11
585.94	60790.73
586.10	60844.57
586.26	60858.61
586.42	60889.04
586.58	61137.13
586.74	61029.47
586.90	60851.59
587.06	60846.91
587.22	61057.56
587.38	61008.40
587.54	61127.77
587.70	61148.84
587.86	61141.81
588.02	60858.61
588.18	61153.52
588.34	60910.10
588.49	61073.94
