SpectraSuite Data File
++++++++++++++++++++++++++++++++++++
Date: Fri Oct 25 11:23:39 EDT 2013
User: price-jones
Dark Spectrum Present: No
Reference Spectrum Present: No
Number of Sampled Component Spectra: 1
Spectrometers: USB2+H05261
Integration Time (usec): 100000 (USB2+H05261)
Spectra Averaged: 1 (USB2+H05261)
Boxcar Smoothing: 0 (USB2+H05261)
Correct for Electrical Dark: No (USB2+H05261)
Strobe/Lamp Enabled: No (USB2+H05261)
Correct for Detector Non-linearity: No (USB2+H05261)
Correct for Stray Light: No (USB2+H05261)
Number of Pixels in Processed Spectrum: 2048
>>>>>Begin Processed Spectral Data<<<<<
365.73	259.80
365.92	259.80
366.12	259.80
366.32	159.16
366.52	201.29
366.72	124.05
366.91	102.98
367.11	154.48
367.31	95.96
367.51	93.62
367.70	81.92
367.90	159.16
368.10	74.90
368.30	126.39
368.49	46.81
368.69	112.35
368.89	128.73
369.09	159.16
369.28	215.33
369.48	217.67
369.68	194.26
369.87	149.79
370.07	128.73
370.27	250.44
370.47	425.98
370.66	592.16
370.86	685.78
371.06	655.35
371.25	615.56
371.45	667.05
371.65	685.78
371.84	608.54
372.04	601.52
372.24	697.48
372.44	709.18
372.63	800.46
372.83	767.70
373.03	741.95
373.22	727.91
373.42	814.51
373.62	765.36
373.81	751.31
374.01	858.98
374.21	774.72
374.40	704.50
374.60	849.61
374.79	805.14
374.99	802.80
375.19	777.06
375.38	819.19
375.58	880.04
375.78	854.30
375.97	891.74
376.17	891.74
376.37	929.19
376.56	870.68
376.76	858.98
376.95	826.21
377.15	854.30
377.35	835.57
377.54	933.87
377.74	938.55
377.93	870.68
378.13	851.96
378.33	915.15
378.52	919.83
378.72	992.39
378.91	873.02
379.11	922.17
379.31	992.39
379.50	945.58
379.70	1013.45
379.89	936.21
380.09	1008.77
380.28	936.21
380.48	915.15
380.68	1036.86
380.87	971.32
381.07	1025.15
381.26	1048.56
381.46	1114.10
381.65	1011.11
381.85	973.66
382.04	1020.47
382.24	1114.10
382.43	1039.20
382.63	1032.18
382.83	1032.18
383.02	1130.48
383.22	1062.60
383.41	1060.26
383.61	1062.60
383.80	1109.41
384.00	1060.26
384.19	1123.46
384.39	1224.10
384.58	1186.65
384.78	1205.38
384.97	1111.75
385.17	1128.14
385.36	1170.27
385.56	1191.33
385.75	1177.29
385.95	1221.76
386.14	1132.82
386.34	1184.31
386.53	1205.38
386.72	1261.55
386.92	1313.04
387.11	1273.25
387.31	1266.23
387.50	1263.89
387.70	1266.23
387.89	1277.93
388.09	1266.23
388.28	1341.13
388.48	1291.98
388.67	1341.13
388.86	1301.34
389.06	1242.82
389.25	1338.79
389.45	1308.36
389.64	1336.45
389.84	1324.74
390.03	1322.40
390.22	1446.45
390.42	1352.83
390.61	1427.73
390.81	1373.89
391.00	1306.02
391.19	1441.77
391.39	1528.37
391.58	1427.73
391.78	1504.96
391.97	1469.86
392.16	1490.92
392.36	1514.33
392.55	1476.88
392.75	1533.05
392.94	1479.22
393.13	1444.11
393.33	1530.71
393.52	1542.41
393.71	1462.83
393.91	1603.27
394.10	1589.22
394.29	1556.46
394.49	1577.52
394.68	1556.46
394.88	1614.97
395.07	1568.16
395.26	1687.53
395.46	1621.99
395.65	1654.76
395.84	1811.57
396.04	1788.17
396.23	1778.81
396.42	1657.10
396.62	1788.17
396.81	1818.60
397.00	1696.89
397.19	1818.60
397.39	1717.95
397.58	1820.94
397.77	1760.08
397.97	1823.28
398.16	1781.15
398.35	1984.77
398.55	1820.94
398.74	1942.64
398.93	1937.96
399.12	1806.89
399.32	1921.58
399.51	1891.15
399.70	1966.05
399.90	2024.56
400.09	2026.90
400.28	2083.08
400.47	2019.88
400.67	2134.57
400.86	2024.56
401.05	2066.69
401.24	1998.82
401.44	2132.23
401.63	2216.49
401.82	2139.25
402.01	2094.78
402.21	2136.91
402.40	2157.97
402.59	2190.74
402.78	2232.87
402.97	2235.21
403.17	2207.13
403.36	2298.41
403.55	2286.70
403.74	2354.58
403.93	2289.04
404.13	2284.36
404.32	2399.05
404.51	2319.47
404.70	2396.71
404.89	2314.79
405.09	2492.67
405.28	2450.54
405.47	2392.03
405.66	2509.05
405.85	2602.68
406.05	2473.95
406.24	2595.65
406.43	2675.23
406.62	2642.46
406.81	2593.31
407.00	2658.85
407.20	2640.12
407.39	2675.23
407.58	2703.32
407.77	2717.36
407.96	2729.06
408.15	2743.11
408.34	2745.45
408.54	2871.84
408.73	2799.28
408.92	2822.69
409.11	2808.64
409.30	2871.84
409.49	2953.76
409.68	2825.03
409.87	2864.82
410.07	3005.25
410.26	2986.52
410.45	2897.58
410.64	3061.42
410.83	3047.38
411.02	3166.74
411.21	3185.47
411.40	3019.29
411.59	3241.64
411.78	3136.32
411.98	3110.57
412.17	3323.56
412.36	3272.07
412.55	3283.77
412.74	3438.25
412.93	3400.80
413.12	3323.56
413.31	3536.55
413.50	3449.95
413.69	3559.95
413.88	3557.61
414.07	3585.70
414.26	3627.83
414.45	3609.11
414.64	3552.93
414.83	3667.62
415.02	3751.88
415.22	3758.90
415.41	3967.21
415.60	3878.27
415.79	4009.34
415.98	3999.98
416.17	3948.48
416.36	3943.80
416.55	3976.57
416.74	4086.58
416.93	4067.85
417.12	4107.64
417.31	4088.92
417.50	4283.18
417.69	4166.15
417.88	4194.24
418.07	4355.74
418.26	4325.31
418.45	4477.44
418.64	4374.46
418.83	4386.16
419.02	4379.14
419.21	4573.41
419.39	4479.79
419.58	4381.48
419.77	4407.23
419.96	4521.92
420.15	4641.28
420.34	4720.86
420.53	4690.43
420.72	4695.11
420.91	4720.86
421.10	4966.62
421.29	4645.96
421.48	4531.28
421.67	4814.48
421.86	4861.29
422.05	4554.68
422.24	4779.37
422.43	4903.42
422.61	4896.40
422.80	4947.89
422.99	4961.94
423.18	4877.68
423.37	5062.58
423.56	4938.53
423.75	5020.45
423.94	4884.70
424.13	4631.92
424.32	4816.82
424.50	4997.04
424.69	5041.51
424.88	5078.96
425.07	4905.76
425.26	4891.72
425.45	5018.11
425.64	5011.09
425.83	4966.62
426.01	4905.76
426.20	5057.90
426.39	5043.85
426.58	5041.51
426.77	5036.83
426.96	5191.31
427.15	5118.75
427.33	5277.91
427.52	5200.67
427.71	5254.50
427.90	5263.86
428.09	5313.02
428.28	5380.89
428.46	5371.53
428.65	5277.91
428.84	5561.11
429.03	5607.92
429.22	5427.70
429.40	5460.47
429.59	5495.58
429.78	5294.29
429.97	5434.72
430.16	5437.06
430.34	5572.82
430.53	5675.80
430.72	5657.07
430.91	5696.86
431.10	5671.12
431.28	5638.35
431.47	5830.27
431.66	5727.29
431.85	5830.27
432.03	5795.17
432.22	5991.77
432.41	6071.35
432.60	5989.43
432.79	5834.96
432.97	5998.79
433.16	5921.56
433.35	6029.22
433.54	6015.18
433.72	6083.05
433.91	6015.18
434.10	6188.38
434.28	6071.35
434.47	6389.66
434.66	6179.01
434.85	6324.13
435.03	6342.85
435.22	6328.81
435.41	6490.31
435.59	6347.53
435.78	6525.41
435.97	6401.37
436.16	6450.52
436.34	6408.39
436.53	6408.39
436.72	6630.74
436.90	6438.81
437.09	6525.41
437.28	6523.07
437.46	6579.25
437.65	6691.59
437.84	6775.85
438.02	6693.93
438.21	6862.45
438.40	6686.91
438.58	6960.75
438.77	7056.72
438.96	6970.12
439.14	6939.69
439.33	7091.82
439.52	7250.98
439.70	7178.42
439.89	7335.24
440.08	7421.84
440.26	7307.15
440.45	7506.10
440.63	7426.52
440.82	7618.44
441.01	7604.40
441.19	7595.04
441.38	7901.65
441.57	7573.97
441.75	7808.03
441.94	7918.03
442.12	7887.61
442.31	8152.09
442.50	8098.25
442.68	7988.25
442.87	8135.70
443.05	8030.38
443.24	8360.39
443.43	8107.62
443.61	8116.98
443.80	8423.59
443.98	8086.55
444.17	7749.51
444.35	8159.11
444.54	8477.42
444.73	8163.79
444.91	8290.18
445.10	8435.29
445.28	8161.45
445.47	8404.86
445.65	8327.63
445.84	8547.64
446.02	8444.65
446.21	8498.49
446.39	8374.44
446.58	8582.74
446.77	8578.06
446.95	8311.24
447.14	8393.16
447.32	8692.75
447.51	8615.51
447.69	8409.54
447.88	8503.17
448.06	8477.42
448.25	8542.96
448.43	8816.80
448.62	8659.98
448.80	8416.57
448.99	8657.64
449.17	8917.44
449.36	8657.64
449.54	8821.48
449.73	8985.32
449.91	8917.44
450.10	8933.82
450.28	9104.68
450.46	8917.44
450.65	8971.27
450.83	9064.89
451.02	9081.28
451.20	9322.35
451.39	9214.69
451.57	9085.96
451.76	9095.32
451.94	9046.17
452.13	9303.63
452.31	9408.95
452.49	9055.53
452.68	9486.19
452.86	9149.15
453.05	9542.36
453.23	9334.06
453.42	9352.78
453.60	9338.74
453.78	9521.30
453.97	9357.46
454.15	9472.15
454.34	9554.07
454.52	10022.17
454.70	9582.15
454.89	9652.37
455.07	10019.83
455.26	9884.08
455.44	9958.98
455.62	9923.87
455.81	9956.64
455.99	10171.97
456.17	9905.15
456.36	10162.61
456.54	10249.21
456.73	10228.14
456.91	10555.82
457.09	10298.36
457.28	10649.44
457.46	10106.43
457.64	10579.22
457.83	10527.73
458.01	10691.57
458.19	10799.23
458.38	10506.66
458.56	10553.48
458.74	10710.29
458.93	10773.49
459.11	10853.06
459.29	10775.83
459.48	10780.51
459.66	10733.70
459.84	11059.03
460.03	11201.80
460.21	10916.26
460.39	11014.56
460.57	11211.17
460.76	11138.61
460.94	11253.30
461.12	11227.55
461.31	11044.99
461.49	11311.81
461.67	11225.21
461.85	11485.01
462.04	11438.20
462.22	11480.33
462.40	11606.72
462.59	11569.27
462.77	11459.26
462.95	11815.02
463.13	11569.27
463.32	11496.71
463.50	11740.13
463.68	11840.77
463.86	11859.49
464.05	11679.27
464.23	11754.17
464.41	11964.82
464.59	11660.55
464.78	12128.66
464.96	12060.78
465.14	11953.12
465.32	11988.22
465.50	12243.34
465.69	12121.63
465.87	12116.95
466.05	12173.13
466.23	12084.19
466.41	12032.69
466.60	12414.20
466.78	12145.04
466.96	12173.13
467.14	12388.46
467.32	12388.46
467.51	12456.33
467.69	12276.11
467.87	12421.22
468.05	12868.27
468.23	12346.33
468.41	12491.44
468.60	12664.64
468.78	12657.62
468.96	12613.15
469.14	12805.07
469.32	12926.78
469.50	12442.29
469.69	13291.90
469.87	13305.95
470.05	13137.43
470.23	12959.55
470.41	12929.12
470.59	13200.62
470.77	13188.92
470.95	13338.71
471.14	13408.93
471.32	13060.19
471.50	13657.03
471.68	13708.52
471.86	13631.28
472.04	13816.18
472.22	14061.94
472.40	13654.69
472.58	13912.14
472.77	14045.55
472.95	13975.34
473.13	14871.76
473.31	14195.35
473.49	14111.09
473.67	14235.14
473.85	14005.77
474.03	14609.62
474.21	14665.80
474.39	14647.07
474.57	14508.98
474.75	15033.26
474.93	15138.58
475.12	15000.49
475.30	15267.31
475.48	15026.24
475.66	14951.34
475.84	15143.27
476.02	15428.81
476.20	15557.54
476.38	15892.24
476.56	15967.13
476.74	15681.59
476.92	15988.20
477.10	15829.04
477.28	16166.08
477.46	16145.02
477.64	16306.51
477.82	16566.31
478.00	17135.06
478.18	16884.62
478.36	17216.98
478.54	17039.10
478.72	17121.02
478.90	17343.37
479.08	17621.89
479.26	17675.73
479.44	17577.42
479.62	17886.37
479.80	18120.43
479.98	18106.38
480.16	18677.48
480.34	18623.64
480.52	18735.99
480.70	18574.49
480.88	18448.10
481.06	18745.35
481.24	18869.40
481.41	19145.58
481.59	19332.82
481.77	19353.89
481.95	19356.23
482.13	19934.34
482.31	19616.03
482.49	20264.36
482.67	20098.18
482.85	20505.43
483.03	20659.91
483.21	20884.60
483.39	21006.31
483.57	21233.34
483.74	21188.87
483.92	21436.97
484.10	21207.59
484.28	21781.03
484.46	21905.07
484.64	22043.17
484.82	21991.67
485.00	22541.70
485.18	22803.84
485.35	23157.26
485.53	23016.83
485.71	23019.17
485.89	23337.48
486.07	23667.50
486.25	23576.22
486.43	23672.18
486.61	23648.77
486.78	24058.37
486.96	24222.20
487.14	24744.14
487.32	24533.50
487.50	24758.19
487.68	25348.00
487.85	25238.00
488.03	25600.78
488.21	25898.03
488.39	26183.57
488.57	26445.71
488.75	26132.08
488.92	26349.75
489.10	26424.65
489.28	26934.88
489.46	26623.59
489.64	27037.87
489.81	27728.33
489.99	27758.75
490.17	27749.39
490.35	28095.79
490.53	28390.70
490.70	28671.56
490.88	28503.04
491.06	28917.32
491.24	28790.93
491.41	29371.38
491.59	29174.78
491.77	29385.43
491.95	29567.99
492.13	29839.49
492.30	29907.37
492.48	29996.31
492.66	30401.22
492.84	30298.23
493.01	30745.28
493.19	30696.13
493.37	31061.25
493.54	31452.12
493.72	31452.12
493.90	31587.87
494.08	31793.84
494.25	31798.52
494.43	31854.69
494.61	32154.28
494.79	32826.01
494.96	32521.74
495.14	32739.41
495.32	32952.40
495.49	33371.36
495.67	33446.26
495.85	33544.56
496.02	34054.79
496.20	34323.96
496.38	34047.77
496.55	34232.68
496.73	34869.30
496.91	35056.54
497.09	34761.64
497.26	35171.23
497.44	34724.19
497.62	35398.26
497.79	36149.57
497.97	35580.82
498.14	35901.48
498.32	36334.48
498.50	36259.58
498.67	36718.32
498.85	36453.84
499.03	36727.69
499.20	36521.72
499.38	36968.76
499.56	36943.02
499.73	37427.51
499.91	37240.26
500.08	37628.79
500.26	37773.91
500.44	37699.01
500.61	37832.42
500.79	37706.03
500.97	38513.52
501.14	38649.27
501.32	38527.56
501.49	38401.17
501.67	39203.97
501.84	38576.71
502.02	38932.47
502.20	39276.53
502.37	39171.21
502.55	39538.67
502.72	39290.57
502.90	39503.56
503.07	39758.68
503.25	39423.98
503.43	40044.23
503.60	40112.10
503.78	40378.92
503.95	40135.51
504.13	40830.65
504.30	40737.02
504.48	40615.32
504.65	40800.22
504.83	41453.23
505.01	41500.04
505.18	40961.72
505.36	41483.66
505.53	41326.84
505.71	41682.60
505.88	41769.20
506.06	41359.61
506.23	42440.93
506.41	42031.34
506.58	42073.47
506.76	42658.60
506.93	42665.63
507.11	42263.05
507.28	42747.54
507.46	42642.22
507.63	43351.40
507.81	43360.76
507.98	43152.46
508.16	43288.21
508.33	43445.02
508.50	43634.61
508.68	43620.56
508.85	44151.87
509.03	44048.88
509.20	44121.44
509.38	44708.91
509.55	44591.89
509.73	44559.12
509.90	44318.04
510.08	44835.30
510.25	45083.40
510.42	44652.74
510.60	45064.67
510.77	45160.64
510.95	45359.58
511.12	44924.24
511.30	45139.57
511.47	45425.12
511.64	45785.56
511.82	45832.37
511.99	45743.43
512.17	45963.44
512.34	46260.69
512.51	46429.21
512.69	46651.56
512.86	46560.28
513.04	46447.93
513.21	46801.35
513.38	46724.11
513.56	46845.82
513.73	47089.24
513.90	47093.92
514.08	47262.44
514.25	47742.25
514.43	47721.18
514.60	47529.26
514.77	47435.64
514.95	47978.64
515.12	47856.93
515.29	47831.19
515.47	47952.90
515.64	48540.37
515.81	47945.87
515.99	48053.54
516.16	48339.08
516.33	48442.07
516.51	48430.36
516.68	48369.51
516.85	48732.29
517.03	49003.80
517.20	48966.35
517.37	48954.64
517.54	48992.09
517.72	49275.30
517.89	49296.36
518.06	49492.97
518.24	49233.17
518.41	49525.74
518.58	49467.22
518.75	49492.97
518.93	49799.58
519.10	49446.16
519.27	50040.65
519.45	50066.40
519.62	49916.61
519.79	49734.04
519.96	50230.24
520.14	50183.43
520.31	50466.63
520.48	50344.92
520.65	50429.18
520.83	50841.12
521.00	50700.68
521.17	50356.63
521.34	50855.16
521.52	50747.50
521.69	50663.24
521.86	51082.19
522.03	51302.20
522.20	51622.86
522.38	51496.47
522.55	51370.08
522.72	51452.00
522.89	51325.61
523.07	51814.78
523.24	51580.73
523.41	51746.90
523.58	51573.70
523.75	51894.36
523.92	51948.19
524.10	51842.87
524.27	51990.32
524.44	52329.70
524.61	52093.30
524.78	52362.46
524.96	52381.19
525.13	52306.29
525.30	52406.94
525.47	52556.73
525.64	52516.94
525.81	52692.48
525.98	52973.34
526.16	52404.59
526.33	52360.12
526.50	53010.79
526.67	52968.66
526.84	53415.71
527.01	52858.66
527.18	53052.92
527.36	52935.90
527.53	53137.18
527.70	53614.65
527.87	53368.90
528.04	53364.21
528.21	53319.74
528.38	53401.66
528.55	53689.55
528.72	53392.30
528.89	53624.01
529.07	53509.33
529.24	53394.64
529.41	53757.42
529.58	53340.81
529.75	53628.69
529.92	53947.01
530.09	53851.05
530.26	53879.13
530.43	54052.33
530.60	53755.08
530.77	53801.89
530.94	54277.02
531.11	54145.95
531.28	54291.07
531.46	54227.87
531.63	54248.94
531.80	54614.06
531.97	54536.82
532.14	54518.10
532.31	54782.58
532.48	54593.00
532.65	54628.10
532.82	54677.25
532.99	54810.67
533.16	54869.18
533.33	54632.78
533.50	54791.94
533.67	54824.71
533.84	54862.16
534.01	54923.01
534.18	54822.37
534.35	55398.14
534.52	55138.34
534.69	55290.48
534.86	55173.45
535.03	55341.97
535.20	55405.16
535.37	55295.16
535.54	55508.14
535.71	55140.68
535.88	55442.61
536.05	55597.09
536.22	55737.52
536.38	55683.69
536.55	55632.19
536.72	55842.84
536.89	55697.73
537.06	55625.17
537.23	55870.93
537.40	55891.99
537.57	55842.84
537.74	55873.27
537.91	55849.86
538.08	56020.72
538.25	55524.53
538.42	55882.63
538.59	56062.85
538.75	55856.88
538.92	56177.54
539.09	56488.83
539.26	56179.88
539.43	56175.20
539.60	56308.61
539.77	56268.82
539.94	56900.76
540.11	56561.39
540.28	56540.32
540.44	56360.10
540.61	56704.16
540.78	56353.08
540.95	56556.70
541.12	56444.36
541.29	56395.21
541.46	56664.37
541.62	56704.16
541.79	56680.75
541.96	56594.15
542.13	56877.36
542.30	56603.52
542.47	56825.87
542.63	56947.57
542.80	56868.00
542.97	57010.77
543.14	57167.58
543.31	56982.68
543.48	57249.50
543.64	57436.75
543.81	57609.95
543.98	57429.72
544.15	57476.54
544.32	57406.32
544.48	57834.64
544.65	57350.15
544.82	57242.48
544.99	57205.03
545.16	57549.09
545.32	57488.24
545.49	57694.21
545.66	57792.51
545.83	57623.99
546.00	57787.83
546.16	57757.40
546.33	57638.03
546.50	57448.45
546.67	57726.97
546.83	57574.84
547.00	57710.59
547.17	57961.03
547.34	57682.50
547.50	57815.91
547.67	58274.66
547.84	58071.03
548.00	58162.31
548.17	58412.75
548.34	58218.49
548.51	58279.34
548.67	58204.44
548.84	57998.48
549.01	58117.84
549.18	58188.06
549.34	58295.72
549.51	58485.31
549.68	58291.04
549.84	58522.76
550.01	58522.76
550.18	58279.34
550.34	58480.63
550.51	58424.45
550.68	58487.65
550.84	58403.39
551.01	58777.87
551.18	58480.63
551.34	58511.05
551.51	58642.12
551.68	58562.54
551.84	58616.38
552.01	58539.14
552.18	58583.61
552.34	58536.80
552.51	58789.58
552.68	58679.57
552.84	58810.64
553.01	59150.02
553.18	58869.15
553.34	58841.07
553.51	58834.05
553.67	58901.92
553.84	58960.44
554.01	58983.84
554.17	59061.08
554.34	59103.21
554.51	59135.98
554.67	59007.25
554.84	59040.01
555.00	59091.51
555.17	58887.88
555.33	59203.85
555.50	59117.25
555.67	59281.09
555.83	59143.00
556.00	59166.40
556.16	59505.78
556.33	59379.39
556.50	59393.43
556.66	59505.78
556.83	59157.04
556.99	59475.35
557.16	59538.55
557.32	59597.06
557.49	59571.32
557.65	59465.99
557.82	59367.69
557.98	59421.52
558.15	59538.55
558.32	59721.11
558.48	59512.80
558.65	59578.34
558.81	59473.01
558.98	59545.57
559.14	59800.69
559.31	59695.36
559.47	59725.79
559.64	59657.91
559.80	59753.88
559.97	59671.96
560.13	59522.16
560.30	59760.90
560.46	59671.96
560.63	59810.05
560.79	59828.77
560.96	59835.80
561.12	59927.08
561.29	59831.11
561.45	59861.54
561.61	59854.52
561.78	59969.21
561.94	59786.64
562.11	59917.71
562.27	59943.46
562.44	60177.51
562.60	60025.38
562.77	60266.45
562.93	59716.43
563.10	60116.66
563.26	59826.43
563.42	60299.22
563.59	59891.97
563.75	60107.30
563.92	60088.57
564.08	60168.15
564.24	60329.65
564.41	60032.40
564.57	60294.54
564.74	60041.76
564.90	60207.94
565.07	60116.66
565.23	60320.29
565.39	60182.19
565.56	60254.75
565.72	60186.88
565.88	60198.58
566.05	60172.83
566.21	60322.63
566.38	60339.01
566.54	60191.56
566.70	60203.26
566.87	60542.64
567.03	60191.56
567.19	60587.11
567.36	60437.31
567.52	60257.09
567.68	60509.87
567.85	60425.61
568.01	60362.42
568.17	60331.99
568.34	60392.84
568.50	60371.78
568.66	60392.84
568.83	60519.23
568.99	60226.66
569.15	60598.81
569.32	60317.95
569.48	60418.59
569.64	60404.55
569.81	60470.08
569.97	60441.99
570.13	60769.67
570.30	60423.27
570.46	60444.33
570.62	60591.79
570.78	60584.77
570.95	60488.80
571.11	60594.13
571.27	60580.09
571.43	60650.30
571.60	60638.60
571.76	60528.59
571.92	60687.75
572.09	60657.32
572.25	60640.94
572.41	60619.88
572.57	60638.60
572.74	60774.35
572.90	60755.63
573.06	60690.09
573.22	60528.59
573.38	60605.83
573.55	60638.60
573.71	61029.47
573.87	60856.27
574.03	60589.45
574.20	60851.59
574.36	60596.47
574.52	60671.37
574.68	60891.38
574.84	60919.46
575.01	60753.29
575.17	60704.13
575.33	60636.26
575.49	60563.70
575.65	60832.86
575.82	60746.26
575.98	60802.44
576.14	60900.74
576.30	60903.08
576.46	60818.82
576.62	60860.95
576.79	60935.85
576.95	60715.84
577.11	60809.46
577.27	60748.60
577.43	60804.78
577.59	60533.28
577.75	60774.35
577.92	60687.75
578.08	60772.01
578.24	60790.73
578.40	60938.19
578.56	60893.72
578.72	60898.40
578.88	61057.56
579.04	61109.05
579.21	61080.96
579.37	60963.93
579.53	61118.41
579.69	60666.69
579.85	60842.23
580.01	60886.70
580.17	60985.00
580.33	60760.31
580.49	60846.91
580.65	60994.36
580.82	60889.04
580.98	60910.10
581.14	60889.04
581.30	61048.19
581.46	60893.72
581.62	60982.66
581.78	60933.51
581.94	60896.06
582.10	61085.64
582.26	60994.36
582.42	60814.14
582.58	60804.78
582.74	61020.11
582.90	60996.70
583.06	61029.47
583.22	60865.63
583.38	61144.16
583.54	60828.18
583.70	61031.81
583.86	60926.49
584.02	60729.88
584.18	61076.28
584.34	61078.62
584.50	61113.73
584.66	60970.96
584.82	60783.71
584.98	61329.06
585.14	61249.48
585.30	60940.53
585.46	61029.47
585.62	61258.84
585.78	61095.00
585.94	60863.29
586.10	61134.79
586.26	61029.47
586.42	61003.72
586.58	61148.84
586.74	60987.34
586.90	60856.27
587.06	60907.76
587.22	61291.61
587.38	61038.83
587.54	61378.21
587.70	61113.73
587.86	61322.04
588.02	61165.22
588.18	61286.93
588.34	61141.81
588.49	61073.94
