SpectraSuite Data File
++++++++++++++++++++++++++++++++++++
Date: Fri Oct 25 10:43:31 EDT 2013
User: price-jones
Dark Spectrum Present: No
Reference Spectrum Present: No
Number of Sampled Component Spectra: 1
Spectrometers: USB2+H05261
Integration Time (usec): 100000 (USB2+H05261)
Spectra Averaged: 1 (USB2+H05261)
Boxcar Smoothing: 0 (USB2+H05261)
Correct for Electrical Dark: No (USB2+H05261)
Strobe/Lamp Enabled: No (USB2+H05261)
Correct for Detector Non-linearity: No (USB2+H05261)
Correct for Stray Light: No (USB2+H05261)
Number of Pixels in Processed Spectrum: 2048
>>>>>Begin Processed Spectral Data<<<<<
365.73	152.13
365.92	152.13
366.12	152.13
366.32	30.43
366.52	18.72
366.72	14.04
366.91	0.00
367.11	72.56
367.31	0.00
367.51	63.19
367.70	30.43
367.90	79.58
368.10	77.24
368.30	23.41
368.49	0.00
368.69	37.45
368.89	7.02
369.09	49.15
369.28	95.96
369.48	23.41
369.68	100.64
369.87	67.88
370.07	74.90
370.27	152.13
370.47	170.86
370.66	411.93
370.86	414.27
371.06	440.02
371.25	428.32
371.45	409.59
371.65	503.22
371.84	503.22
372.04	435.34
372.24	521.94
372.44	409.59
372.63	503.22
372.83	477.47
373.03	477.47
373.22	557.05
373.42	580.45
373.62	512.58
373.81	475.13
374.01	594.50
374.21	552.37
374.40	657.69
374.60	657.69
374.79	533.64
374.99	594.50
375.19	599.18
375.38	608.54
375.58	594.50
375.78	624.92
375.97	575.77
376.17	603.86
376.37	566.41
376.56	557.05
376.76	564.07
376.95	622.58
377.15	664.71
377.35	622.58
377.54	540.66
377.74	624.92
377.93	690.46
378.13	627.26
378.33	643.65
378.52	688.12
378.72	617.90
378.91	643.65
379.11	655.35
379.31	592.16
379.50	631.94
379.70	641.31
379.89	685.78
380.09	655.35
380.28	671.73
380.48	674.07
380.68	676.41
380.87	732.59
381.07	727.91
381.26	748.97
381.46	774.72
381.65	636.63
381.85	699.82
382.04	718.54
382.24	697.48
382.43	681.10
382.63	699.82
382.83	760.67
383.02	751.31
383.22	730.25
383.41	716.20
383.61	800.46
383.80	798.12
384.00	704.50
384.19	777.06
384.39	704.50
384.58	746.63
384.78	842.59
384.97	786.42
385.17	777.06
385.36	837.91
385.56	781.74
385.75	784.08
385.95	784.08
386.14	821.53
386.34	884.72
386.53	854.30
386.72	840.25
386.92	873.02
387.11	826.21
387.31	868.34
387.50	837.91
387.70	851.96
387.89	931.53
388.09	844.93
388.28	912.81
388.48	873.02
388.67	987.71
388.86	884.72
389.06	896.43
389.25	990.05
389.45	966.64
389.64	922.17
389.84	1048.56
390.03	947.92
390.22	952.60
390.42	1104.73
390.61	1053.24
390.81	976.00
391.00	971.32
391.19	1076.65
391.39	999.41
391.58	1109.41
391.78	1083.67
391.97	1004.09
392.16	1013.45
392.36	1036.86
392.55	980.68
392.75	983.02
392.94	990.05
393.13	954.94
393.33	1006.43
393.52	971.32
393.71	1027.50
393.91	1050.90
394.10	1174.95
394.29	1165.59
394.49	1167.93
394.68	1188.99
394.88	1210.06
395.07	1170.27
395.26	1259.21
395.46	1210.06
395.65	1238.14
395.84	1210.06
396.04	1170.27
396.23	1149.20
396.42	1214.74
396.62	1104.73
396.81	1156.22
397.00	1217.08
397.19	1214.74
397.39	1343.47
397.58	1397.30
397.77	1460.49
397.97	1502.62
398.16	1378.58
398.35	1488.58
398.55	1416.02
398.74	1441.77
398.93	1462.83
399.12	1516.67
399.32	1495.60
399.51	1488.58
399.70	1537.73
399.90	1451.13
400.09	1593.90
400.28	1593.90
400.47	1657.10
400.67	1584.54
400.86	1614.97
401.05	1675.82
401.24	1703.91
401.44	1657.10
401.63	1682.85
401.82	1696.89
402.01	1764.76
402.21	1675.82
402.40	1689.87
402.59	1790.51
402.78	1792.85
402.97	1682.85
403.17	1741.36
403.36	1774.13
403.55	1856.04
403.74	1778.81
403.93	1797.53
404.13	1849.02
404.32	1860.73
404.51	1898.17
404.70	1963.71
404.89	1954.35
405.09	1984.77
405.28	1792.85
405.47	1937.96
405.66	2003.50
405.85	1956.69
406.05	1923.92
406.24	2026.90
406.43	1933.28
406.62	2099.46
406.81	2176.70
407.00	2057.33
407.20	2010.52
407.39	2008.18
407.58	2064.35
407.77	2174.36
407.96	2235.21
408.15	2118.18
408.34	2146.27
408.54	2202.44
408.73	2377.98
408.92	2260.96
409.11	2232.87
409.30	2260.96
409.49	2298.41
409.68	2225.85
409.87	2265.64
410.07	2270.32
410.26	2370.96
410.45	2436.50
410.64	2408.41
410.83	2380.32
411.02	2553.52
411.21	2539.48
411.40	2497.35
411.59	2495.01
411.78	2551.18
411.98	2525.44
412.17	2626.08
412.36	2656.51
412.55	2715.02
412.74	2726.72
412.93	2764.17
413.12	2682.25
413.31	2869.50
413.50	2789.92
413.69	2862.48
413.88	2984.18
414.07	2745.45
414.26	2801.62
414.45	2928.01
414.64	2956.10
414.83	3038.02
415.02	2867.16
415.22	2937.37
415.41	2972.48
415.60	3084.83
415.79	3108.23
415.98	3176.11
416.17	3143.34
416.36	3272.07
416.55	3082.49
416.74	3288.45
416.93	3246.32
417.12	3155.04
417.31	3265.05
417.50	3243.98
417.69	3421.86
417.88	3288.45
418.07	3279.09
418.26	3428.88
418.45	3410.16
418.64	3461.65
418.83	3522.51
419.02	3672.30
419.21	3557.61
419.39	3574.00
419.58	3550.59
419.77	3438.25
419.96	3562.30
420.15	3693.37
420.34	3620.81
420.53	3676.98
420.72	3730.81
420.91	3777.62
421.10	3733.15
421.29	3859.54
421.48	3698.05
421.67	3904.01
421.86	3836.14
422.05	3794.01
422.24	3679.32
422.43	3719.11
422.61	3763.58
422.80	3775.28
422.99	3892.31
423.18	3988.27
423.37	3836.14
423.56	4046.79
423.75	3885.29
423.94	3822.09
424.13	3705.07
424.32	3709.75
424.50	3960.19
424.69	3985.93
424.88	3908.69
425.07	3904.01
425.26	3819.75
425.45	3969.55
425.64	3854.86
425.83	3829.12
426.01	4095.94
426.20	3918.06
426.39	4016.36
426.58	4016.36
426.77	3840.82
426.96	3904.01
427.15	3969.55
427.33	3985.93
427.52	4016.36
427.71	4028.06
427.90	4053.81
428.09	4095.94
428.28	4028.06
428.46	4070.19
428.65	4051.47
428.84	4173.18
429.03	4187.22
429.22	4149.77
429.40	4149.77
429.59	4002.32
429.78	3948.48
429.97	3925.08
430.16	3871.25
430.34	4095.94
430.53	4091.26
430.72	4152.11
430.91	4283.18
431.10	4102.96
431.28	4472.76
431.47	4585.11
431.66	4601.49
431.85	4498.51
432.03	4528.94
432.22	4681.07
432.41	4643.62
432.60	4676.39
432.79	4629.58
432.97	4844.91
433.16	4631.92
433.35	4641.28
433.54	4575.75
433.72	4692.77
433.91	4755.97
434.10	4744.27
434.28	4791.08
434.47	4833.21
434.66	4940.87
434.85	5008.75
435.03	4912.78
435.22	4798.10
435.41	5013.43
435.59	5153.86
435.78	5011.09
435.97	5142.16
436.16	5142.16
436.34	5067.26
436.53	5078.96
436.72	5153.86
436.90	5006.41
437.09	5376.21
437.28	5069.60
437.46	5109.39
437.65	5160.88
437.84	5329.40
438.02	5057.90
438.21	5123.43
438.40	5088.32
438.58	5238.12
438.77	5387.91
438.96	5401.96
439.14	5495.58
439.33	5591.54
439.52	5673.46
439.70	5652.39
439.89	5675.80
440.08	5596.22
440.26	5673.46
440.45	5753.04
440.63	5963.68
440.82	5846.66
441.01	5767.08
441.19	5888.79
441.38	5982.41
441.57	5900.49
441.75	6040.92
441.94	6050.28
442.12	6183.70
442.31	6242.21
442.50	6296.04
442.68	6289.02
442.87	6148.59
443.05	6225.82
443.24	6242.21
443.43	6431.79
443.61	6242.21
443.80	6583.93
443.98	6389.66
444.17	6216.46
444.35	6586.27
444.54	6595.63
444.73	6532.44
444.91	6396.68
445.10	6141.57
445.28	6361.58
445.47	6223.48
445.65	6221.14
445.84	6363.92
446.02	6595.63
446.21	6427.11
446.39	6434.13
446.58	6574.56
446.77	6750.10
446.95	6310.08
447.14	6656.48
447.32	6745.42
447.51	6640.10
447.69	6661.16
447.88	6881.18
448.06	6619.04
448.25	6490.31
448.43	6825.00
448.62	6593.29
448.80	6576.91
448.99	6750.10
449.17	6642.44
449.36	6853.09
449.54	7009.90
449.73	6960.75
449.91	7063.74
450.10	7054.37
450.28	6958.41
450.46	7241.62
450.65	7178.42
450.83	6984.16
451.02	7000.54
451.20	7192.47
451.39	7178.42
451.57	7157.36
451.76	7094.16
451.94	7117.57
452.13	7236.94
452.31	7255.66
452.49	7126.93
452.68	7131.61
452.86	7187.79
453.05	7246.30
453.23	7304.81
453.42	7105.87
453.60	7222.89
453.78	7360.98
453.97	7262.68
454.15	7297.79
454.34	7222.89
454.52	7499.08
454.70	7573.97
454.89	7332.90
455.07	7384.39
455.26	7573.97
455.44	7616.10
455.62	7578.65
455.81	7817.39
455.99	7669.94
456.17	7815.05
456.36	7859.52
456.54	7850.16
456.73	7728.45
456.91	8074.85
457.09	8032.72
457.28	8187.19
457.46	8058.46
457.64	8234.00
457.83	7941.44
458.01	7985.91
458.19	8084.21
458.38	8149.75
458.56	8201.24
458.74	8035.06
458.93	8011.65
459.11	8226.98
459.29	8285.50
459.48	8252.73
459.66	8109.96
459.84	8482.10
460.03	8430.61
460.21	8446.99
460.39	8376.78
460.57	8311.24
460.76	8395.50
460.94	8617.85
461.12	8430.61
461.31	8538.27
461.49	8376.78
461.67	8734.88
461.85	8781.69
462.04	8582.74
462.22	9329.38
462.40	8858.93
462.59	8947.87
462.77	8835.52
462.95	9025.11
463.13	8854.25
463.32	8887.01
463.50	8964.25
463.68	8863.61
463.86	9011.06
464.05	8896.38
464.23	8985.32
464.41	8912.76
464.59	8777.01
464.78	9212.35
464.96	9100.00
465.14	9013.40
465.32	9294.27
465.50	9064.89
465.69	9371.50
465.87	9193.62
466.05	9071.92
466.23	8985.32
466.41	9188.94
466.60	9179.58
466.78	8994.68
466.96	9060.21
467.14	9301.29
467.32	9432.36
467.51	9415.98
467.69	9198.31
467.87	9226.39
468.05	9369.16
468.23	9345.76
468.41	9212.35
468.60	9483.85
468.78	9472.15
468.96	9329.38
469.14	9748.33
469.32	9495.55
469.50	9418.32
469.69	9509.60
469.87	9633.64
470.05	9816.21
470.23	9930.89
470.41	9666.41
470.59	9715.56
470.77	9565.77
470.95	9834.93
471.14	10010.47
471.32	10083.03
471.50	10162.61
471.68	10169.63
471.86	10132.18
472.04	10197.71
472.22	10387.30
472.40	10197.71
472.58	10246.87
472.77	10377.94
472.95	10438.79
473.13	10764.12
473.31	10485.60
473.49	10349.85
473.67	10562.84
473.85	10658.80
474.03	10747.74
474.21	10949.03
474.39	10956.05
474.57	10862.43
474.75	11070.73
474.93	11094.14
475.12	10972.43
475.30	10970.09
475.48	11344.58
475.66	11225.21
475.84	11112.86
476.02	11482.67
476.20	11328.19
476.38	11499.05
476.56	11740.13
476.74	11763.53
476.92	11618.42
477.10	11758.85
477.28	11903.96
477.46	11983.54
477.64	12063.12
477.82	12442.29
478.00	12446.97
478.18	12517.18
478.36	12166.10
478.54	12479.74
478.72	12575.70
478.90	12669.32
479.08	12901.03
479.26	13071.89
479.44	12978.27
479.62	12947.84
479.80	13256.79
479.98	13336.37
480.16	13525.96
480.34	13675.75
480.52	13366.80
480.70	13598.51
480.88	13465.10
481.06	13785.76
481.24	13776.39
481.41	13837.25
481.59	14068.96
481.77	14335.78
481.95	14239.82
482.13	14483.24
482.31	14370.89
482.49	14883.47
482.67	14796.87
482.85	14878.79
483.03	15122.20
483.21	15255.61
483.39	15470.94
483.57	15131.56
483.74	15154.97
483.92	15396.04
484.10	15389.02
484.28	15604.35
484.46	15777.55
484.64	16301.83
484.82	15702.65
485.00	16016.29
485.18	16334.60
485.35	16533.54
485.53	16119.27
485.71	15712.02
485.89	16411.84
486.07	16133.31
486.25	16592.06
486.43	16552.27
486.61	16802.71
486.78	17095.27
486.96	17036.76
487.14	17624.23
487.32	17469.76
487.50	17589.13
487.68	17804.46
487.85	18038.51
488.03	18113.41
488.21	18565.13
488.39	18408.31
488.57	18675.13
488.75	18328.74
488.92	18773.44
489.10	19293.04
489.28	19276.65
489.46	19541.13
489.64	19328.14
489.81	19985.83
489.99	20004.56
490.17	20156.69
490.35	20081.80
490.53	19955.41
490.70	20484.37
490.88	20217.55
491.06	20528.84
491.24	20442.24
491.41	20575.65
491.59	20306.49
491.77	20730.12
491.95	20896.30
492.13	21032.05
492.30	21568.04
492.48	21376.11
492.66	21661.66
492.84	21769.32
493.01	21888.69
493.19	21795.07
493.37	22183.60
493.54	22183.60
493.72	22019.76
493.90	22649.36
494.08	22551.06
494.25	22993.42
494.43	23016.83
494.61	23133.86
494.79	23051.94
494.96	23023.85
495.14	23316.42
495.32	23276.63
495.49	23520.04
495.67	23639.41
495.85	23791.55
496.02	23770.48
496.20	24196.46
496.38	24184.76
496.55	24159.01
496.73	24952.45
496.91	24500.73
497.09	24718.40
497.26	24893.94
497.44	24821.38
497.62	25270.76
497.79	25006.28
497.97	24989.90
498.14	25076.50
498.32	25450.99
498.50	25406.52
498.67	25542.27
498.85	25806.75
499.03	25855.90
499.20	25834.83
499.38	25701.42
499.56	26190.59
499.73	26412.95
499.91	26316.98
500.08	26581.46
500.26	25860.58
500.44	26253.79
500.61	26515.93
500.79	26419.97
500.97	26616.57
501.14	26932.54
501.32	26583.80
501.49	26752.32
501.67	27005.10
501.84	27433.42
502.02	26960.63
502.20	27449.80
502.37	27475.55
502.55	27314.05
502.72	27304.69
502.90	27924.93
503.07	27653.43
503.25	27857.06
503.43	27920.25
503.60	27962.38
503.78	28032.60
503.95	27864.08
504.13	28357.93
504.30	28407.08
504.48	28549.85
504.65	28589.64
504.83	28683.27
505.01	28540.49
505.18	28975.83
505.36	29139.67
505.53	29088.18
505.71	28989.88
505.88	29261.38
506.06	29298.83
506.23	29287.12
506.41	29146.69
506.58	29670.97
506.76	29542.24
506.93	29912.05
507.11	29612.46
507.28	29598.41
507.46	29633.52
507.63	29490.75
507.81	29820.77
507.98	29596.07
508.16	30204.61
508.33	30309.94
508.50	30476.12
508.68	30756.98
508.85	31030.82
509.03	30616.55
509.20	31084.65
509.38	31042.53
509.55	31007.42
509.73	31068.27
509.90	31035.50
510.08	30953.58
510.25	31234.45
510.42	31356.16
510.60	31599.57
510.77	31012.10
510.95	31613.62
511.12	31660.43
511.30	31854.69
511.47	31967.04
511.64	31875.76
511.82	32149.60
511.99	31711.92
512.17	31943.63
512.34	31421.69
512.51	32388.33
512.69	32304.07
512.86	32542.81
513.04	32594.30
513.21	32481.95
513.38	32519.40
513.56	32603.66
513.73	32088.74
513.90	32566.21
514.08	32683.24
514.25	32966.45
514.43	33134.96
514.60	32905.59
514.77	32933.68
514.95	33582.01
515.12	33130.28
515.29	33390.08
515.47	33928.41
515.64	33507.11
515.81	33333.91
515.99	32877.51
516.16	33359.66
516.33	33177.09
516.51	33392.42
516.68	33401.79
516.85	32713.67
517.03	33266.03
517.20	33755.21
517.37	33886.28
517.54	34003.30
517.72	33612.43
517.89	33858.19
518.06	33897.98
518.24	33612.43
518.41	33867.55
518.58	34050.11
518.75	34162.46
518.93	34403.53
519.10	34410.56
519.27	34604.82
519.45	34789.72
519.62	34932.50
519.79	34995.69
519.96	35077.61
520.14	34763.98
520.31	34780.36
520.48	35269.53
520.65	35138.46
520.83	35400.60
521.00	35487.20
521.17	35805.52
521.34	35805.52
521.52	35882.75
521.69	36149.57
521.86	36250.22
522.03	35971.69
522.20	36065.31
522.38	36009.14
522.55	36020.84
522.72	36451.50
522.89	36081.70
523.07	36460.87
523.24	36577.89
523.41	36510.02
523.58	36210.43
523.75	37303.46
523.92	36575.55
524.10	36818.97
524.27	36823.65
524.44	36907.91
524.61	37057.70
524.78	37153.66
524.96	36919.61
525.13	37174.73
525.30	37193.45
525.47	37574.96
525.64	37427.51
525.81	37390.06
525.98	37453.25
526.16	37092.81
526.33	36692.58
526.50	37156.00
526.67	36648.11
526.84	36865.78
527.01	36980.46
527.18	37553.90
527.36	37565.60
527.53	37460.27
527.70	38164.78
527.87	37429.85
528.04	37642.84
528.21	38384.79
528.38	38305.21
528.55	38197.54
528.72	38710.12
528.89	38284.14
529.07	38312.23
529.24	38274.78
529.41	38143.71
529.58	38178.82
529.75	38401.17
529.92	38810.76
530.09	38550.96
530.26	38724.16
530.43	38904.38
530.60	38494.79
530.77	38857.57
530.94	39014.39
531.11	39051.84
531.28	38930.13
531.46	38976.94
531.63	39129.08
531.80	38911.41
531.97	39227.38
532.14	38974.60
532.31	38354.36
532.48	38752.25
532.65	39426.32
532.82	39096.31
532.99	39920.18
533.16	39440.37
533.33	39285.89
533.50	39583.14
533.67	39573.78
533.84	39639.31
534.01	40011.46
534.18	39122.05
534.35	40142.53
534.52	39761.02
534.69	40243.17
534.86	40641.06
535.03	39777.40
535.20	40428.07
535.37	40128.48
535.54	40395.31
535.71	40383.60
535.88	40449.14
536.05	40259.55
536.22	40165.93
536.38	40364.88
536.55	40147.21
536.72	40374.24
536.89	40175.30
537.06	40308.71
537.23	40879.80
537.40	40430.41
537.57	40704.26
537.74	40786.18
537.91	41270.67
538.08	40727.66
538.25	40692.55
538.42	40797.88
538.59	40896.18
538.75	40816.60
538.92	40954.69
539.09	41347.90
539.26	40772.13
539.43	41282.37
539.60	41155.98
539.77	41109.17
539.94	40856.39
540.11	41104.49
540.28	41404.08
540.44	41043.63
540.61	40985.12
540.78	41406.42
540.95	41120.87
541.12	40669.15
541.29	41551.53
541.46	41359.61
541.62	42099.22
541.79	41907.29
541.96	41163.00
542.13	41668.56
542.30	41516.42
542.47	41518.76
542.63	41209.81
542.80	41799.63
542.97	41998.57
543.14	42497.11
543.31	42309.86
543.48	42492.43
543.64	42462.00
543.81	42630.52
543.98	42408.17
544.15	42855.21
544.32	42457.32
544.48	42749.88
544.65	42560.30
544.82	42733.50
544.99	42653.92
545.16	42724.14
545.32	42967.55
545.49	43065.86
545.66	43124.37
545.83	42927.77
546.00	43082.24
546.16	42646.90
546.33	42918.40
546.50	42305.18
546.67	43009.68
546.83	42787.33
547.00	42817.76
547.17	42773.29
547.34	42752.23
547.50	42824.78
547.67	42878.61
547.84	43217.99
548.00	43079.90
548.17	43267.14
548.34	43222.67
548.51	43709.50
548.67	43522.26
548.84	43468.43
549.01	43143.09
549.18	43328.00
549.34	43246.08
549.51	43456.73
549.68	43658.01
549.84	43409.92
550.01	43538.65
550.18	43213.31
550.34	43587.80
550.51	43491.83
550.68	43058.84
550.84	43330.34
551.01	43669.72
551.18	43665.03
551.34	43311.61
551.51	43964.62
551.68	43737.59
551.84	43653.33
552.01	43971.64
552.18	43875.68
552.34	43365.45
552.51	43723.55
552.68	43835.89
552.84	43999.73
553.01	44360.17
553.18	43929.51
553.34	44320.38
553.51	44184.63
553.67	44238.47
553.84	44973.39
554.01	44615.29
554.17	44306.34
554.34	44294.64
554.51	44098.03
554.67	44137.82
554.84	44250.17
555.00	44296.98
555.17	44055.90
555.33	44280.60
555.50	44453.79
555.67	44280.60
555.83	44217.40
556.00	44591.89
556.16	44524.01
556.33	44828.28
556.50	44690.19
556.66	44531.03
556.83	44318.04
556.99	44371.88
557.16	44673.81
557.32	44629.34
557.49	44676.15
557.65	44748.70
557.82	44596.57
557.98	44460.82
558.15	44481.88
558.32	44786.15
558.48	44612.95
558.65	44388.26
558.81	44561.46
558.98	44315.70
559.14	45092.76
559.31	44334.43
559.47	44732.32
559.64	44882.11
559.80	44828.28
559.97	44928.92
560.13	44638.70
560.30	44842.32
560.46	45251.92
560.63	45027.23
560.79	45411.07
560.96	45397.03
561.12	44751.04
561.29	44669.12
561.45	45041.27
561.61	44877.43
561.78	45172.34
561.94	44910.20
562.11	44996.80
562.27	44596.57
562.44	44928.92
562.60	45579.59
562.77	45366.60
562.93	45216.81
563.10	45153.62
563.26	45027.23
563.42	45738.75
563.59	44996.80
563.75	44917.22
563.92	45272.98
564.08	45406.39
564.24	45364.26
564.41	45645.13
564.57	45251.92
564.74	44835.30
564.90	45240.21
565.07	45586.61
565.23	45041.27
565.39	45017.86
565.56	45085.74
565.72	44931.26
565.88	44821.26
566.05	45361.92
566.21	45155.96
566.38	45301.07
566.54	45055.31
566.70	45336.18
566.87	45523.42
567.03	45118.51
567.19	45659.17
567.36	45865.14
567.52	45319.79
567.68	45614.70
567.85	45298.73
568.01	45525.76
568.17	45539.80
568.34	45656.83
568.50	45270.64
568.66	45375.97
568.83	45490.65
568.99	45048.29
569.15	45265.96
569.32	45439.16
569.48	45439.16
569.64	45986.85
569.81	45705.98
569.97	45429.80
570.13	45359.58
570.30	44935.95
570.46	45338.52
570.62	45017.86
570.78	45123.19
570.95	45212.13
571.11	45298.73
571.27	45542.14
571.43	45326.81
571.60	45659.17
571.76	45652.15
571.92	45298.73
572.09	45610.02
572.25	45235.53
572.41	45776.20
572.57	45684.92
572.74	46153.02
572.90	45757.47
573.06	45736.41
573.22	45801.94
573.38	45577.25
573.55	45443.84
573.71	46426.87
573.87	45537.46
574.03	45441.50
574.20	45495.33
574.36	45453.20
574.52	45806.62
574.68	45488.31
574.84	45717.68
575.01	45441.50
575.17	45544.48
575.33	45443.84
575.49	45216.81
575.65	45649.81
575.82	46024.29
575.98	45731.73
576.14	45965.78
576.30	45858.12
576.46	45860.46
576.62	45698.96
576.79	45713.00
576.95	45167.66
577.11	45188.72
577.27	45846.41
577.43	45638.11
577.59	45703.64
577.75	45397.03
577.92	45603.00
578.08	45076.38
578.24	45464.91
578.40	45450.86
578.56	45727.05
578.72	45553.85
578.88	45958.76
579.04	45687.26
579.21	45226.17
579.37	45888.54
579.53	46127.28
579.69	45177.02
579.85	45317.45
580.01	45977.48
580.17	45111.49
580.33	45720.02
580.49	45830.03
580.65	45340.86
580.82	45668.53
580.98	45385.33
581.14	45198.09
581.30	45591.30
581.46	45837.05
581.62	45839.39
581.78	45815.99
581.94	45834.71
582.10	45982.16
582.26	45698.96
582.42	46047.70
582.58	45839.39
582.74	45677.90
582.90	45968.12
583.06	46068.76
583.22	46038.34
583.38	46162.39
583.54	45813.65
583.70	45731.73
583.86	45909.61
584.02	45450.86
584.18	45591.30
584.34	45696.62
584.50	46124.94
584.66	45858.12
584.82	45794.92
584.98	45724.71
585.14	45930.67
585.30	45600.66
585.46	45689.60
585.62	45415.76
585.78	45607.68
585.94	45504.70
586.10	45478.95
586.26	45603.00
586.42	45815.99
586.58	46330.90
586.74	45680.24
586.90	45769.18
587.06	45619.38
587.22	46134.30
587.38	45385.33
587.54	46024.29
587.70	45937.69
587.86	46078.13
588.02	45855.78
588.18	46017.27
588.34	45813.65
588.49	45373.63
588.65	44919.56
588.81	45247.24
588.97	45546.82
589.13	45216.81
589.29	45347.88
589.45	45535.12
589.61	45904.93
589.77	46277.07
589.93	46073.45
590.08	45785.56
