SpectraSuite Data File
++++++++++++++++++++++++++++++++++++
Date: Fri Oct 25 11:34:14 EDT 2013
User: price-jones
Dark Spectrum Present: No
Reference Spectrum Present: No
Number of Sampled Component Spectra: 1
Spectrometers: USB2+H05261
Integration Time (usec): 100000 (USB2+H05261)
Spectra Averaged: 1 (USB2+H05261)
Boxcar Smoothing: 0 (USB2+H05261)
Correct for Electrical Dark: No (USB2+H05261)
Strobe/Lamp Enabled: No (USB2+H05261)
Correct for Detector Non-linearity: No (USB2+H05261)
Correct for Stray Light: No (USB2+H05261)
Number of Pixels in Processed Spectrum: 2048
>>>>>Begin Processed Spectral Data<<<<<
365.73	245.76
365.92	245.76
366.12	245.76
366.32	210.65
366.52	198.95
366.72	189.58
366.91	184.90
367.11	147.45
367.31	159.16
367.51	177.88
367.70	138.09
367.90	152.13
368.10	184.90
368.30	220.01
368.49	198.95
368.69	168.52
368.89	156.82
369.09	210.65
369.28	220.01
369.48	222.35
369.68	243.42
369.87	290.23
370.07	217.67
370.27	301.93
370.47	311.29
370.66	564.07
370.86	437.68
371.06	564.07
371.25	557.05
371.45	578.11
371.65	575.77
371.84	596.84
372.04	531.30
372.24	589.82
372.44	552.37
372.63	564.07
372.83	631.94
373.03	601.52
373.22	517.26
373.42	627.26
373.62	557.05
373.81	634.29
374.01	655.35
374.21	648.33
374.40	688.12
374.60	706.84
374.79	695.14
374.99	643.65
375.19	704.50
375.38	615.56
375.58	723.23
375.78	734.93
375.97	664.71
376.17	631.94
376.37	685.78
376.56	692.80
376.76	671.73
376.95	648.33
377.15	725.57
377.35	664.71
377.54	669.39
377.74	711.52
377.93	643.65
378.13	730.25
378.33	676.41
378.52	760.67
378.72	711.52
378.91	683.44
379.11	734.93
379.31	685.78
379.50	755.99
379.70	704.50
379.89	741.95
380.09	741.95
380.28	645.99
380.48	681.10
380.68	711.52
380.87	741.95
381.07	755.99
381.26	706.84
381.46	786.42
381.65	737.27
381.85	720.88
382.04	695.14
382.24	758.33
382.43	837.91
382.63	744.29
382.83	770.04
383.02	763.01
383.22	781.74
383.41	772.38
383.61	795.78
383.80	854.30
384.00	805.14
384.19	748.97
384.39	826.21
384.58	863.66
384.78	849.61
384.97	795.78
385.17	802.80
385.36	866.00
385.56	849.61
385.75	891.74
385.95	840.25
386.14	809.83
386.34	875.36
386.53	774.72
386.72	896.43
386.92	950.26
387.11	915.15
387.31	875.36
387.50	898.77
387.70	877.70
387.89	868.34
388.09	861.32
388.28	823.87
388.48	887.06
388.67	919.83
388.86	882.38
389.06	950.26
389.25	894.08
389.45	940.90
389.64	903.45
389.84	884.72
390.03	936.21
390.22	971.32
390.42	908.13
390.61	954.94
390.81	957.28
391.00	938.55
391.19	884.72
391.39	971.32
391.58	926.85
391.78	997.07
391.97	1008.77
392.16	1036.86
392.36	1100.05
392.55	1048.56
392.75	1036.86
392.94	1015.79
393.13	1109.41
393.33	1022.81
393.52	1076.65
393.71	1039.20
393.91	1060.26
394.10	1088.35
394.29	1053.24
394.49	1074.31
394.68	1097.71
394.88	1071.97
395.07	1179.63
395.26	1069.62
395.46	1102.39
395.65	1132.82
395.84	1207.72
396.04	1196.01
396.23	1118.78
396.42	1123.46
396.62	1172.61
396.81	1231.12
397.00	1196.01
397.19	1252.19
397.39	1200.69
397.58	1179.63
397.77	1235.80
397.97	1186.65
398.16	1240.48
398.35	1233.46
398.55	1198.35
398.74	1245.16
398.93	1266.23
399.12	1245.16
399.32	1256.87
399.51	1247.51
399.70	1268.57
399.90	1369.21
400.09	1327.08
400.28	1369.21
400.47	1303.68
400.67	1336.45
400.86	1378.58
401.05	1413.68
401.24	1439.43
401.44	1359.85
401.63	1411.34
401.82	1416.02
402.01	1336.45
402.21	1451.13
402.40	1430.07
402.59	1481.56
402.78	1497.94
402.97	1558.80
403.17	1507.30
403.36	1523.69
403.55	1521.35
403.74	1593.90
403.93	1584.54
404.13	1659.44
404.32	1561.14
404.51	1535.39
404.70	1610.29
404.89	1598.59
405.09	1605.61
405.28	1645.40
405.47	1547.09
405.66	1689.87
405.85	1643.06
406.05	1748.38
406.24	1673.48
406.43	1696.89
406.62	1710.93
406.81	1818.60
407.00	1703.91
407.20	1696.89
407.39	1746.04
407.58	1750.72
407.77	1760.08
407.96	1919.24
408.15	1933.28
408.34	1811.57
408.54	1947.33
408.73	1949.67
408.92	1849.02
409.11	1802.21
409.30	1912.22
409.49	1933.28
409.68	1909.88
409.87	1865.41
410.07	2026.90
410.26	2106.48
410.45	2062.01
410.64	2059.67
410.83	2118.18
411.02	2052.65
411.21	2134.57
411.40	2054.99
411.59	2155.63
411.78	2186.06
411.98	2223.51
412.17	2134.57
412.36	2235.21
412.55	2218.83
412.74	2314.79
412.93	2244.57
413.12	2305.43
413.31	2480.97
413.50	2293.72
413.69	2272.66
413.88	2399.05
414.07	2420.11
414.26	2495.01
414.45	2307.77
414.64	2518.42
414.83	2516.08
415.02	2544.16
415.22	2553.52
415.41	2754.81
415.60	2633.10
415.79	2583.95
415.98	2679.91
416.17	2588.63
416.36	2750.13
416.55	2654.17
416.74	2675.23
416.93	2724.38
417.12	2738.43
417.31	2764.17
417.50	2796.94
417.69	2839.07
417.88	2883.54
418.07	2970.14
418.26	2913.97
418.45	2920.99
418.64	2993.55
418.83	2963.12
419.02	2960.78
419.21	3110.57
419.39	3023.97
419.58	2981.84
419.77	2995.89
419.96	3143.34
420.15	3208.87
420.34	3049.72
420.53	3136.32
420.72	3119.93
420.91	3204.19
421.10	3183.13
421.29	3330.58
421.48	3138.66
421.67	3206.53
421.86	3183.13
422.05	3232.28
422.24	3283.77
422.43	3178.45
422.61	3351.65
422.80	3258.03
422.99	3368.03
423.18	3403.14
423.37	3351.65
423.56	3262.71
423.75	3239.30
423.94	3293.13
424.13	3166.74
424.32	3119.93
424.50	3339.94
424.69	3513.14
424.88	3318.88
425.07	3398.46
425.26	3286.11
425.45	3421.86
425.64	3262.71
425.83	3353.99
426.01	3463.99
426.20	3405.48
426.39	3211.22
426.58	3386.76
426.77	3377.39
426.96	3492.08
427.15	3552.93
427.33	3506.12
427.52	3581.02
427.71	3536.55
427.90	3538.89
428.09	3445.27
428.28	3648.90
428.46	3742.52
428.65	3618.47
428.84	3590.38
429.03	3702.73
429.22	3604.42
429.40	3627.83
429.59	3674.64
429.78	3574.00
429.97	3545.91
430.16	3672.30
430.34	3829.12
430.53	3730.81
430.72	3695.71
430.91	3836.14
431.10	3707.41
431.28	3852.52
431.47	3932.10
431.66	3971.89
431.85	3899.33
432.03	3840.82
432.22	4021.04
432.41	3911.04
432.60	3999.98
432.79	3953.16
432.97	3826.78
433.16	4117.00
433.35	3932.10
433.54	4114.66
433.72	4077.21
433.91	4273.82
434.10	4147.43
434.28	4077.21
434.47	4231.69
434.66	4156.79
434.85	4168.49
435.03	4308.93
435.22	4234.03
435.41	4400.21
435.59	4264.46
435.78	4318.29
435.97	4217.65
436.16	4231.69
436.34	4280.84
436.53	4528.94
436.72	4215.30
436.90	4259.78
437.09	4346.37
437.28	4360.42
437.46	4400.21
437.65	4407.23
437.84	4379.14
438.02	4400.21
438.21	4547.66
438.40	4428.29
438.58	4723.20
438.77	4812.14
438.96	4615.54
439.14	4725.54
439.33	4777.03
439.52	4718.52
439.70	4730.22
439.89	4849.59
440.08	4985.34
440.26	4957.25
440.45	4830.87
440.63	4770.01
440.82	5093.01
441.01	4966.62
441.19	4926.83
441.38	5128.11
441.57	5067.26
441.75	5193.65
441.94	5020.45
442.12	5221.74
442.31	5235.78
442.50	5207.69
442.68	5294.29
442.87	5268.55
443.05	5359.83
443.24	5362.17
443.43	5324.72
443.61	5399.62
443.80	5483.88
443.98	5334.08
444.17	5203.01
444.35	5472.17
444.54	5490.90
444.73	5549.41
444.91	5516.64
445.10	5486.22
445.28	5483.88
445.47	5420.68
445.65	5437.06
445.84	5650.05
446.02	5469.83
446.21	5631.33
446.39	5380.89
446.58	5591.54
446.77	5753.04
446.95	5528.35
447.14	5551.75
447.32	5703.89
447.51	5462.81
447.69	5614.95
447.88	5715.59
448.06	5593.88
448.25	5664.10
448.43	5558.77
448.62	5689.84
448.80	5579.84
448.99	5652.39
449.17	5778.78
449.36	5596.22
449.54	5799.85
449.73	5912.19
449.91	5905.17
450.10	5984.75
450.28	5937.94
450.46	6008.16
450.65	5926.24
450.83	5933.26
451.02	6019.86
451.20	5975.39
451.39	5977.73
451.57	6008.16
451.76	6031.56
451.94	6015.18
452.13	6125.18
452.31	6036.24
452.49	6071.35
452.68	6363.92
452.86	6059.65
453.05	6118.16
453.23	6408.39
453.42	6073.69
453.60	6087.73
453.78	6478.60
453.97	6239.87
454.15	6202.42
454.34	6384.98
454.52	6427.11
454.70	6366.26
454.89	6244.55
455.07	6387.32
455.26	6359.24
455.44	6572.22
455.62	6602.65
455.81	6483.28
455.99	6633.08
456.17	6672.87
456.36	6555.84
456.54	6705.63
456.73	6871.81
456.91	6939.69
457.09	6717.34
457.28	6794.58
457.46	6686.91
457.64	6834.36
457.83	6867.13
458.01	6832.02
458.19	6764.15
458.38	6841.39
458.56	6878.83
458.74	7035.65
458.93	7045.01
459.11	7073.10
459.29	7037.99
459.48	7016.93
459.66	6991.18
459.84	7192.47
460.03	7260.34
460.21	7155.02
460.39	7267.36
460.57	7323.54
460.76	7293.11
460.94	7407.80
461.12	7314.17
461.31	7279.07
461.49	7187.79
461.67	7220.55
461.85	7461.63
462.04	7595.04
462.22	7934.42
462.40	7653.55
462.59	7667.60
462.77	7431.20
462.95	7709.72
463.13	7524.82
463.32	7459.29
463.50	7698.02
463.68	7660.57
463.86	7833.77
464.05	7550.57
464.23	7604.40
464.41	7758.88
464.59	7667.60
464.78	7988.25
464.96	7705.04
465.14	7808.03
465.32	7777.60
465.50	7955.48
465.69	7815.05
465.87	8032.72
466.05	7805.69
466.23	7920.37
466.41	7939.10
466.60	8182.51
466.78	7960.16
466.96	8051.44
467.14	8067.83
467.32	7981.23
467.51	8088.89
467.69	7995.27
467.87	8154.43
468.05	8128.68
468.23	8177.83
468.41	8098.25
468.60	8154.43
468.78	8124.00
468.96	8205.92
469.14	8313.58
469.32	8336.99
469.50	8287.84
469.69	8418.91
469.87	8510.19
470.05	8456.36
470.23	8475.08
470.41	8498.49
470.59	8734.88
470.77	8549.98
470.95	8505.51
471.14	8793.39
471.32	8549.98
471.50	8844.88
471.68	8765.31
471.86	8933.82
472.04	8894.04
472.22	9092.98
472.40	8901.06
472.58	8905.74
472.77	9043.83
472.95	9210.01
473.13	9116.39
473.31	9301.29
473.49	9233.41
473.67	9011.06
473.85	9320.01
474.03	9399.59
474.21	9448.74
474.39	9533.00
474.57	9327.03
474.75	9500.23
474.93	9717.90
475.12	9727.27
475.30	9748.33
475.48	9816.21
475.66	9715.56
475.84	9741.31
476.02	9701.52
476.20	9956.64
476.38	10097.07
476.56	10085.37
476.74	10333.47
476.92	10272.61
477.10	10143.88
477.28	10352.19
477.46	10576.88
477.64	10476.24
477.82	10490.28
478.00	10745.40
478.18	10750.08
478.36	10794.55
478.54	10949.03
478.72	11040.31
478.90	11215.85
479.08	11342.24
479.26	11257.98
479.44	11456.92
479.62	11613.74
479.80	11564.59
479.98	11513.10
480.16	11995.25
480.34	11672.25
480.52	11817.36
480.70	11695.66
480.88	11777.58
481.06	11800.98
481.24	12147.38
481.41	12435.27
481.59	12456.33
481.77	12449.31
481.95	12730.17
482.13	12587.40
482.31	12676.34
482.49	13191.26
482.67	12973.59
482.85	13165.51
483.03	13359.78
483.21	13200.62
483.39	13540.00
483.57	13383.18
483.74	13565.74
483.92	13729.58
484.10	13575.11
484.28	13886.40
484.46	14043.21
484.64	14256.20
484.82	14174.28
485.00	14335.78
485.18	14415.36
485.35	14647.07
485.53	14806.23
485.71	14462.17
485.89	15096.46
486.07	15021.56
486.25	14970.07
486.43	15002.83
486.61	15309.44
486.78	15550.52
486.96	15309.44
487.14	15721.38
487.32	15492.01
487.50	15894.58
487.68	16109.91
487.85	15887.56
488.03	16095.86
488.21	16365.03
488.39	16358.00
488.57	16491.41
488.75	16559.29
488.92	16805.05
489.10	16922.07
489.28	17032.08
489.46	17149.11
489.64	17376.14
489.81	17600.83
489.99	17593.81
490.17	17547.00
490.35	17659.34
490.53	17778.71
490.70	18380.23
490.88	17928.50
491.06	18291.29
491.24	18548.75
491.41	18553.43
491.59	18483.21
491.77	18670.45
491.95	18745.35
492.13	18890.46
492.30	19016.85
492.48	19222.82
492.66	19077.71
492.84	19044.94
493.01	19660.50
493.19	19587.94
493.37	19744.76
493.54	19936.68
493.72	19871.15
493.90	19791.57
494.08	20212.87
494.25	20355.64
494.43	20128.61
494.61	20568.63
494.79	20926.73
494.96	20793.32
495.14	20982.90
495.32	20819.07
495.49	21170.15
495.67	21284.83
495.85	21202.91
496.02	21294.19
496.20	21577.40
496.38	21947.20
496.55	21841.88
496.73	22307.65
496.91	22113.38
497.09	22501.91
497.26	22054.87
497.44	22188.28
497.62	22431.69
497.79	22899.80
497.97	22621.28
498.14	22754.69
498.32	23068.32
498.50	23129.17
498.67	23323.44
498.85	23227.48
499.03	23718.99
499.20	23463.87
499.38	23222.80
499.56	23396.00
499.73	23676.86
499.91	23821.97
500.08	23747.08
500.26	23934.32
500.44	24198.80
500.61	24226.89
500.79	24114.54
500.97	24535.84
501.14	24549.88
501.32	24519.45
501.49	24425.83
501.67	24762.87
501.84	24924.36
502.02	24868.19
502.20	24863.51
502.37	24802.66
502.55	25078.84
502.72	24978.20
502.90	25116.29
503.07	25598.44
503.25	25523.54
503.43	25305.87
503.60	25577.37
503.78	25610.14
503.95	25827.81
504.13	25940.16
504.30	26176.55
504.48	26052.50
504.65	26265.49
504.83	26017.40
505.01	26464.44
505.18	26410.60
505.36	26457.42
505.53	26855.31
505.71	26253.79
505.88	26796.79
506.06	26625.93
506.23	27248.52
506.41	26766.37
506.58	26927.86
506.76	27112.77
506.93	26836.58
507.11	27433.42
507.28	27569.17
507.46	27740.03
507.63	27789.18
507.81	27407.67
507.98	27632.36
508.16	27625.34
508.33	27669.81
508.50	27882.80
508.68	27761.09
508.85	28217.50
509.03	28048.98
509.20	28182.39
509.38	28100.47
509.55	28479.64
509.73	28432.83
509.90	28510.07
510.08	28496.02
510.25	28727.74
510.42	28489.00
510.60	29060.09
510.77	28737.10
510.95	29755.23
511.12	29305.85
511.30	28814.34
511.47	29153.71
511.64	29322.23
511.82	29439.26
511.99	29415.85
512.17	29474.37
512.34	29422.87
512.51	30099.29
512.69	29816.08
512.86	29790.34
513.04	30178.87
513.21	30082.91
513.38	30237.38
513.56	30157.80
513.73	30155.46
513.90	30459.73
514.08	30073.54
514.25	30466.75
514.43	30759.32
514.60	31044.87
514.77	30756.98
514.95	30927.84
515.12	30766.34
515.29	30991.03
515.47	30960.61
515.64	30941.88
515.81	31096.36
515.99	31108.06
516.16	31737.66
516.33	31569.15
516.51	31370.20
516.68	31632.34
516.85	31346.79
517.03	31686.17
517.20	32032.57
517.37	31660.43
517.54	31686.17
517.72	32175.34
517.89	31798.52
518.06	32215.13
518.24	31882.78
518.41	31756.39
518.58	31714.26
518.75	32067.68
518.93	32498.34
519.10	32119.17
519.27	32531.11
519.45	32268.97
519.62	32514.72
519.79	32844.74
519.96	32856.44
520.14	32669.20
520.31	32664.52
520.48	32903.25
520.65	32872.82
520.83	32966.45
521.00	33518.81
521.17	33359.66
521.34	33366.68
521.52	33181.77
521.69	33280.08
521.86	33897.98
522.03	33961.17
522.20	33621.80
522.38	33907.34
522.55	34110.97
522.72	33619.46
522.89	33982.24
523.07	34024.37
523.24	34445.66
523.41	34422.26
523.58	34157.78
523.75	34476.09
523.92	34099.26
524.10	34398.85
524.27	34733.55
524.44	34405.88
524.61	34724.19
524.78	34888.03
524.96	35012.07
525.13	34979.31
525.30	35152.51
525.47	34829.51
525.64	34888.03
525.81	35599.55
525.98	35585.50
526.16	35510.61
526.33	35101.01
526.50	35594.87
526.67	35438.05
526.84	35756.36
527.01	35255.49
527.18	35534.01
527.36	35601.89
527.53	35789.13
527.70	36079.36
527.87	36093.40
528.04	35679.13
528.21	36034.89
528.38	35917.86
528.55	36432.78
528.72	36172.98
528.89	36126.17
529.07	36605.98
529.24	36041.91
529.41	36587.25
529.58	36545.12
529.75	36708.96
529.92	36580.23
530.09	36402.35
530.26	36802.58
530.43	36734.71
530.60	36336.82
530.77	36659.81
530.94	36648.11
531.11	36858.76
531.28	36818.97
531.46	37102.17
531.63	36854.08
531.80	37219.20
531.97	36921.95
532.14	37488.36
532.31	37132.60
532.48	37408.78
532.65	37956.47
532.82	37167.71
532.99	37497.72
533.16	37523.47
533.33	37411.12
533.50	37361.97
533.67	37471.98
533.84	37298.78
534.01	37991.58
534.18	38099.24
534.35	38375.42
534.52	38045.41
534.69	37991.58
534.86	38230.31
535.03	38230.31
535.20	38256.06
535.37	38256.06
535.54	38398.83
535.71	38302.87
535.88	38342.66
536.05	38457.34
536.22	39243.76
536.38	38447.98
536.55	38293.50
536.72	38314.57
536.89	38700.76
537.06	38522.88
537.23	39049.50
537.40	38766.29
537.57	38583.73
537.74	38440.96
537.91	38955.88
538.08	39164.18
538.25	38705.44
538.42	38965.24
538.59	39306.96
538.75	38981.62
538.92	39241.42
539.09	39388.88
539.26	39136.10
539.43	39091.63
539.60	39295.25
539.77	39438.03
539.94	39564.42
540.11	39519.95
540.28	39768.04
540.44	39517.60
540.61	39564.42
540.78	39304.62
540.95	39604.20
541.12	39409.94
541.29	39381.85
541.46	39744.64
541.62	39866.34
541.79	40280.62
541.96	39725.91
542.13	39988.05
542.30	39838.26
542.47	40201.04
542.63	39959.97
542.80	40212.74
542.97	40737.02
543.14	40722.98
543.31	40488.93
543.48	40671.49
543.64	40488.93
543.81	40933.63
543.98	40706.60
544.15	40507.65
544.32	40643.40
544.48	41193.43
544.65	41116.19
544.82	41265.99
544.99	40549.78
545.16	40893.84
545.32	40830.65
545.49	41354.93
545.66	40924.27
545.83	41193.43
546.00	41867.50
546.16	41352.58
546.33	41387.69
546.50	41111.51
546.67	41883.89
546.83	41399.40
547.00	41310.46
547.17	41776.22
547.34	41191.09
547.50	41392.37
547.67	42068.79
547.84	41771.54
548.00	41834.74
548.17	42506.47
548.34	42230.29
548.51	41755.16
548.67	41741.11
548.84	41502.38
549.01	41649.83
549.18	42014.96
549.34	42246.67
549.51	41975.17
549.68	41975.17
549.84	41911.97
550.01	42150.71
550.18	42010.28
550.34	42370.72
550.51	42897.34
550.68	42660.94
550.84	41851.12
551.01	42344.97
551.18	41872.18
551.34	42359.02
551.51	42660.94
551.68	42447.96
551.84	42288.80
552.01	42270.08
552.18	42431.57
552.34	42684.35
552.51	42838.83
552.68	42705.41
552.84	42593.07
553.01	43077.56
553.18	42707.76
553.34	43049.47
553.51	42541.58
553.67	42859.89
553.84	43360.76
554.01	43136.07
554.17	42883.30
554.34	43342.04
554.51	43330.34
554.67	43665.03
554.84	43255.44
555.00	43253.10
555.17	43030.75
555.33	43632.27
555.50	43093.94
555.67	43358.42
555.83	43793.76
556.00	43990.37
556.16	43847.60
556.33	43622.90
556.50	43840.57
556.66	43562.05
556.83	43599.50
556.99	43721.21
557.16	43885.04
557.32	44107.40
557.49	44158.89
557.65	43510.56
557.82	43887.39
557.98	43938.88
558.15	43185.22
558.32	44095.69
558.48	43660.35
558.65	43903.77
558.81	43863.98
558.98	44222.08
559.14	43721.21
559.31	44222.08
559.47	43304.59
559.64	44072.29
559.80	44533.37
559.97	44547.42
560.13	44009.09
560.30	43992.71
560.46	44690.19
560.63	44762.75
560.79	44313.36
560.96	44650.40
561.12	44634.02
561.29	44350.81
561.45	44552.10
561.61	44208.04
561.78	44332.09
561.94	44306.34
562.11	44617.63
562.27	44477.20
562.44	44608.27
562.60	44676.15
562.77	44460.82
562.93	44692.53
563.10	44879.77
563.26	44655.08
563.42	44933.60
563.59	44837.64
563.75	44947.65
563.92	44776.79
564.08	44926.58
564.24	45125.53
564.41	44786.15
564.57	45013.18
564.74	44596.57
564.90	44205.70
565.07	44748.70
565.23	45172.34
565.39	44872.75
565.56	45170.00
565.72	44514.65
565.88	45003.82
566.05	45029.57
566.21	45186.38
566.38	44919.56
566.54	45181.70
566.70	45090.42
566.87	44610.61
567.03	45010.84
567.19	44985.10
567.36	44842.32
567.52	44596.57
567.68	45034.25
567.85	45036.59
568.01	45823.01
568.17	44671.46
568.34	44914.88
568.50	45137.23
568.66	44907.86
568.83	45221.49
568.99	44964.03
569.15	45263.62
569.32	45240.21
569.48	44996.80
569.64	45666.19
569.81	45373.63
569.97	45413.41
570.13	45628.74
570.30	45132.55
570.46	45397.03
570.62	45574.91
570.78	45673.21
570.95	45565.55
571.11	45514.06
571.27	45301.07
571.43	45422.78
571.60	45523.42
571.76	45226.17
571.92	45228.51
572.09	45078.72
572.25	45408.73
572.41	45198.09
572.57	45628.74
572.74	46059.40
572.90	45738.75
573.06	45869.82
573.22	46157.70
573.38	46000.89
573.55	45617.04
573.71	45673.21
573.87	45881.52
574.03	45324.47
574.20	45375.97
574.36	45485.97
574.52	45694.28
574.68	45574.91
574.84	46021.95
575.01	45977.48
575.17	45963.44
575.33	45874.50
575.49	45755.13
575.65	45694.28
575.82	45918.97
575.98	45675.55
576.14	45727.05
576.30	45954.08
576.46	45696.62
576.62	46031.32
576.79	45839.39
576.95	45024.89
577.11	45551.51
577.27	45691.94
577.43	45420.44
577.59	45815.99
577.75	45523.42
577.92	45404.05
578.08	45619.38
578.24	45642.79
578.40	46071.10
578.56	46096.85
578.72	45537.46
578.88	46295.80
579.04	46050.04
579.21	45909.61
579.37	45865.14
579.53	46115.58
579.69	45734.07
579.85	45439.16
580.01	45911.95
580.17	45680.24
580.33	45759.81
580.49	45642.79
580.65	45865.14
580.82	45694.28
580.98	46199.83
581.14	45787.90
581.30	46057.06
581.46	45942.38
581.62	45595.98
581.78	45579.59
581.94	46492.40
582.10	46211.54
582.26	45958.76
582.42	45862.80
582.58	45764.49
582.74	45811.31
582.90	45993.87
583.06	45649.81
583.22	45942.38
583.38	46277.07
583.54	45996.21
583.70	45848.75
583.86	46380.06
584.02	46052.38
584.18	46625.81
584.34	46094.51
584.50	46436.23
584.66	46363.67
584.82	46391.76
584.98	46398.78
585.14	46071.10
585.30	46267.71
585.46	46185.79
585.62	45813.65
585.78	46096.85
585.94	46225.58
586.10	46127.28
586.26	46101.53
586.42	45944.72
586.58	46190.47
586.74	46256.01
586.90	46263.03
587.06	45867.48
587.22	46146.00
587.38	46066.42
587.54	46279.41
587.70	46848.16
587.86	46157.70
588.02	46061.74
588.18	46087.49
588.34	46157.70
588.49	46057.06
588.65	46160.05
588.81	46218.56
588.97	46473.68
589.13	46136.64
589.29	46541.55
589.45	46557.94
589.61	46377.72
589.77	46438.57
589.93	46593.04
590.08	46157.70
