SpectraSuite Data File
++++++++++++++++++++++++++++++++++++
Date: Fri Oct 25 10:47:35 EDT 2013
User: price-jones
Dark Spectrum Present: No
Reference Spectrum Present: No
Number of Sampled Component Spectra: 1
Spectrometers: USB2+H05261
Integration Time (usec): 100000 (USB2+H05261)
Spectra Averaged: 1 (USB2+H05261)
Boxcar Smoothing: 0 (USB2+H05261)
Correct for Electrical Dark: No (USB2+H05261)
Strobe/Lamp Enabled: No (USB2+H05261)
Correct for Detector Non-linearity: No (USB2+H05261)
Correct for Stray Light: No (USB2+H05261)
Number of Pixels in Processed Spectrum: 2048
>>>>>Begin Processed Spectral Data<<<<<
365.73	173.20
365.92	173.20
366.12	173.20
366.32	86.60
366.52	32.77
366.72	114.69
366.91	102.98
367.11	79.58
367.31	0.00
367.51	30.43
367.70	0.00
367.90	58.51
368.10	56.17
368.30	0.00
368.49	0.00
368.69	79.58
368.89	117.03
369.09	70.22
369.28	63.19
369.48	77.24
369.68	67.88
369.87	114.69
370.07	70.22
370.27	128.73
370.47	194.26
370.66	325.33
370.86	402.57
371.06	418.96
371.25	514.92
371.45	510.24
371.65	587.47
371.84	489.17
372.04	447.04
372.24	449.38
372.44	498.53
372.63	528.96
372.83	531.30
373.03	521.94
373.22	468.11
373.42	582.79
373.62	514.92
373.81	533.64
374.01	547.69
374.21	613.22
374.40	514.92
374.60	503.22
374.79	521.94
374.99	648.33
375.19	592.16
375.38	573.43
375.58	643.65
375.78	552.37
375.97	526.62
376.17	624.92
376.37	566.41
376.56	507.90
376.76	589.82
376.95	521.94
377.15	566.41
377.35	596.84
377.54	585.13
377.74	615.56
377.93	603.86
378.13	561.73
378.33	657.69
378.52	566.41
378.72	603.86
378.91	669.39
379.11	596.84
379.31	664.71
379.50	622.58
379.70	648.33
379.89	638.97
380.09	603.86
380.28	645.99
380.48	674.07
380.68	601.52
380.87	613.22
381.07	695.14
381.26	645.99
381.46	699.82
381.65	704.50
381.85	716.20
382.04	685.78
382.24	671.73
382.43	664.71
382.63	695.14
382.83	676.41
383.02	723.23
383.22	695.14
383.41	678.76
383.61	655.35
383.80	786.42
384.00	718.54
384.19	741.95
384.39	702.16
384.58	676.41
384.78	760.67
384.97	751.31
385.17	727.91
385.36	774.72
385.56	748.97
385.75	791.10
385.95	711.52
386.14	716.20
386.34	826.21
386.53	805.14
386.72	779.40
386.92	912.81
387.11	767.70
387.31	718.54
387.50	863.66
387.70	809.83
387.89	861.32
388.09	849.61
388.28	875.36
388.48	847.27
388.67	849.61
388.86	840.25
389.06	908.13
389.25	922.17
389.45	973.66
389.64	917.49
389.84	926.85
390.03	947.92
390.22	882.38
390.42	985.37
390.61	875.36
390.81	908.13
391.00	891.74
391.19	964.30
391.39	966.64
391.58	1015.79
391.78	971.32
391.97	943.24
392.16	901.11
392.36	1013.45
392.55	1013.45
392.75	1025.15
392.94	971.32
393.13	966.64
393.33	964.30
393.52	950.26
393.71	1048.56
393.91	985.37
394.10	1048.56
394.29	1118.78
394.49	1071.97
394.68	961.96
394.88	1083.67
395.07	1076.65
395.26	1041.54
395.46	1116.44
395.65	1181.97
395.84	1158.57
396.04	1163.25
396.23	1207.72
396.42	1097.71
396.62	1109.41
396.81	1212.40
397.00	1111.75
397.19	1167.93
397.39	1259.21
397.58	1224.10
397.77	1273.25
397.97	1196.01
398.16	1207.72
398.35	1310.70
398.55	1313.04
398.74	1317.72
398.93	1357.51
399.12	1299.00
399.32	1327.08
399.51	1413.68
399.70	1362.19
399.90	1352.83
400.09	1341.13
400.28	1399.64
400.47	1401.98
400.67	1425.39
400.86	1493.26
401.05	1338.79
401.24	1493.26
401.44	1514.33
401.63	1474.54
401.82	1430.07
402.01	1460.49
402.21	1582.20
402.40	1511.99
402.59	1507.30
402.78	1544.75
402.97	1507.30
403.17	1554.12
403.36	1633.69
403.55	1565.82
403.74	1710.93
403.93	1570.50
404.13	1607.95
404.32	1668.80
404.51	1778.81
404.70	1682.85
404.89	1671.14
405.09	1781.15
405.28	1699.23
405.47	1689.87
405.66	1668.80
405.85	1813.92
406.05	1778.81
406.24	1776.47
406.43	1762.42
406.62	1769.44
406.81	1930.94
407.00	1865.41
407.20	1797.53
407.39	1898.17
407.58	1940.30
407.77	1914.56
407.96	1912.22
408.15	1856.04
408.34	2005.84
408.54	2134.57
408.73	2047.97
408.92	1933.28
409.11	2038.61
409.30	2024.56
409.49	1961.37
409.68	2052.65
409.87	2092.44
410.07	2134.57
410.26	2143.93
410.45	2172.02
410.64	2155.63
410.83	2256.28
411.02	2251.60
411.21	2310.11
411.40	2239.89
411.59	2223.51
411.78	2291.38
411.98	2277.34
412.17	2366.28
412.36	2263.30
412.55	2300.75
412.74	2443.52
412.93	2462.24
413.12	2387.35
413.31	2544.16
413.50	2520.76
413.69	2520.76
413.88	2686.94
414.07	2448.20
414.26	2560.55
414.45	2628.42
414.64	2663.53
414.83	2715.02
415.02	2637.78
415.22	2672.89
415.41	2724.38
415.60	2808.64
415.79	2705.66
415.98	2780.56
416.17	2909.29
416.36	2881.20
416.55	2869.50
416.74	2960.78
416.93	2862.48
417.12	2935.03
417.31	2951.42
417.50	2864.82
417.69	3084.83
417.88	3159.72
418.07	3052.06
418.26	2930.35
418.45	2944.39
418.64	3215.90
418.83	3112.91
419.02	3112.91
419.21	3126.96
419.39	3108.23
419.58	3141.00
419.77	3098.87
419.96	3276.75
420.15	3332.92
420.34	3272.07
420.53	3253.34
420.72	3304.84
420.91	3463.99
421.10	3344.63
421.29	3435.91
421.48	3386.76
421.67	3506.12
421.86	3328.24
422.05	3279.09
422.24	3499.10
422.43	3473.36
422.61	3466.33
422.80	3466.33
422.99	3513.14
423.18	3588.04
423.37	3517.83
423.56	3520.17
423.75	3494.42
423.94	3510.80
424.13	3342.28
424.32	3449.95
424.50	3510.80
424.69	3508.46
424.88	3662.94
425.07	3524.85
425.26	3492.08
425.45	3468.67
425.64	3524.85
425.83	3478.04
426.01	3576.34
426.20	3562.30
426.39	3379.73
426.58	3471.01
426.77	3590.38
426.96	3571.66
427.15	3709.75
427.33	3597.40
427.52	3620.81
427.71	3639.53
427.90	3740.18
428.09	3772.94
428.28	3676.98
428.46	3674.64
428.65	3789.33
428.84	3819.75
429.03	3777.62
429.22	3740.18
429.40	3798.69
429.59	3686.34
429.78	3625.49
429.97	3590.38
430.16	3676.98
430.34	3822.09
430.53	3735.50
430.72	3801.03
430.91	3911.04
431.10	3985.93
431.28	4067.85
431.47	4234.03
431.66	4126.36
431.85	3906.35
432.03	3983.59
432.22	4360.42
432.41	4112.32
432.60	4142.75
432.79	4161.47
432.97	4348.72
433.16	4301.90
433.35	4093.60
433.54	4318.29
433.72	4217.65
433.91	4156.79
434.10	4322.97
434.28	4227.01
434.47	4276.16
434.66	4334.67
434.85	4423.61
435.03	4491.49
435.22	4489.15
435.41	4564.04
435.59	4699.80
435.78	4517.23
435.97	4631.92
436.16	4491.49
436.34	4554.68
436.53	4713.84
436.72	4739.58
436.90	4594.47
437.09	4500.85
437.28	4489.15
437.46	4587.45
437.65	4697.46
437.84	4624.90
438.02	4603.83
438.21	4678.73
438.40	4676.39
438.58	4760.65
438.77	4910.44
438.96	5006.41
439.14	4990.02
439.33	5114.07
439.52	4980.66
439.70	5027.47
439.89	5062.58
440.08	5057.90
440.26	5188.97
440.45	5149.18
440.63	5235.78
440.82	5268.55
441.01	5364.51
441.19	5462.81
441.38	5404.30
441.57	5282.59
441.75	5544.73
441.94	5533.03
442.12	5612.60
442.31	5675.80
442.50	5514.30
442.68	5640.69
442.87	5591.54
443.05	5781.12
443.24	5628.99
443.43	5781.12
443.61	5696.86
443.80	5949.64
443.98	5696.86
444.17	5507.28
444.35	5738.99
444.54	6122.84
444.73	5678.14
444.91	5687.50
445.10	5738.99
445.28	5944.96
445.47	5788.14
445.65	5867.72
445.84	5881.77
446.02	5823.25
446.21	6047.94
446.39	5795.17
446.58	5921.56
446.77	6003.47
446.95	5905.17
447.14	6204.76
447.32	5975.39
447.51	5926.24
447.69	5858.36
447.88	5963.68
448.06	6012.84
448.25	5867.72
448.43	6073.69
448.62	5928.58
448.80	6064.33
448.99	6228.17
449.17	6113.48
449.36	6099.44
449.54	6071.35
449.73	6382.64
449.91	6139.23
450.10	6253.91
450.28	6399.02
450.46	6356.90
450.65	6527.75
450.83	6525.41
451.02	6354.55
451.20	6466.90
451.39	6532.44
451.57	6443.49
451.76	6448.18
451.94	6525.41
452.13	6462.22
452.31	6551.16
452.49	6494.99
452.68	6497.33
452.86	6476.26
453.05	6473.92
453.23	6462.22
453.42	6384.98
453.60	6544.14
453.78	6710.32
453.97	6502.01
454.15	6614.35
454.34	6619.04
454.52	6663.51
454.70	6743.08
454.89	6792.23
455.07	6869.47
455.26	6885.86
455.44	6958.41
455.62	6911.60
455.81	7028.63
455.99	6871.81
456.17	6932.67
456.36	6902.24
456.54	7265.02
456.73	7162.04
456.91	7208.85
457.09	7225.23
457.28	7269.70
457.46	7187.79
457.64	7332.90
457.83	7232.26
458.01	7152.68
458.19	7330.56
458.38	7384.39
458.56	7470.99
458.74	7569.29
458.93	7405.46
459.11	7412.48
459.29	7478.01
459.48	7569.29
459.66	7707.38
459.84	7562.27
460.03	7548.23
460.21	7541.21
460.39	7564.61
460.57	7545.89
460.76	7705.04
460.94	7714.41
461.12	7632.49
461.31	7669.94
461.49	7634.83
461.67	7803.35
461.85	8065.49
462.04	7882.92
462.22	8402.52
462.40	8102.93
462.59	8035.06
462.77	8049.10
462.95	8095.91
463.13	8088.89
463.32	7992.93
463.50	7878.24
463.68	8124.00
463.86	8028.04
464.05	8067.83
464.23	8002.29
464.41	8107.62
464.59	8194.22
464.78	8393.16
464.96	8175.49
465.14	8163.79
465.32	8334.65
465.50	8355.71
465.69	8451.67
465.87	8301.88
466.05	8367.42
466.23	8266.77
466.41	8145.06
466.60	8472.74
466.78	8468.06
466.96	8372.10
467.14	8580.40
467.32	8582.74
467.51	8674.03
467.69	8383.80
467.87	8559.34
468.05	8610.83
468.23	8629.56
468.41	8578.06
468.60	8505.51
468.78	8765.31
468.96	8631.90
469.14	8793.39
469.32	8751.26
469.50	8758.28
469.69	9015.74
469.87	8926.80
470.05	8889.35
470.23	9060.21
470.41	8847.22
470.59	8926.80
470.77	8865.95
470.95	9092.98
471.14	9123.41
471.32	9011.06
471.50	9235.75
471.68	9270.86
471.86	9357.46
472.04	9228.73
472.22	9373.85
472.40	9451.08
472.58	9369.16
472.77	9689.82
472.95	9628.96
473.13	9853.66
473.31	9647.69
473.49	9493.21
473.67	9673.43
473.85	9521.30
474.03	9902.81
474.21	9891.10
474.39	10113.45
474.57	10003.45
474.75	10047.92
474.93	10249.21
475.12	10059.62
475.30	10150.90
475.48	10319.42
475.66	10249.21
475.84	10289.00
476.02	10319.42
476.20	10452.83
476.38	10422.41
476.56	10867.11
476.74	10686.89
476.92	10663.48
477.10	10768.80
477.28	10937.32
477.46	10834.34
477.64	10977.11
477.82	11166.70
478.00	11419.47
478.18	11192.44
478.36	11503.73
478.54	11440.54
478.72	11487.35
478.90	11508.41
479.08	11676.93
479.26	12030.35
479.44	11824.39
479.62	12175.47
479.80	12067.80
479.98	12184.83
480.16	12313.56
480.34	12159.08
480.52	12545.27
480.70	12631.87
480.88	12182.49
481.06	12505.48
481.24	12379.09
481.41	12924.44
481.59	13163.17
481.77	13067.21
481.95	12992.31
482.13	13296.58
482.31	13170.19
482.49	13706.18
482.67	13392.55
482.85	13504.89
483.03	13790.44
483.21	13919.17
483.39	13998.74
483.57	13760.01
483.74	14136.84
483.92	14373.23
484.10	14263.22
484.28	14340.46
484.46	14817.93
484.64	15044.96
484.82	14626.01
485.00	14860.06
485.18	15096.46
485.35	15178.37
485.53	15005.17
485.71	15047.30
485.89	15243.91
486.07	15124.54
486.25	15049.64
486.43	15461.58
486.61	15585.63
486.78	15852.45
486.96	16100.55
487.14	16283.11
487.32	16465.67
487.50	16255.02
487.68	16362.69
487.85	16858.88
488.03	16870.58
488.21	17102.29
488.39	16886.97
488.57	16917.39
488.75	17104.64
488.92	17542.32
489.10	17633.60
489.28	17914.46
489.46	18052.55
489.64	17972.97
489.81	18408.31
489.99	18092.34
490.17	18515.98
490.35	18506.62
490.53	18824.93
490.70	18721.95
490.88	18586.19
491.06	19208.78
491.24	18815.57
491.41	18897.49
491.59	19161.97
491.77	19164.31
491.95	19293.04
492.13	19688.59
492.30	19934.34
492.48	19735.40
492.66	19990.52
492.84	19796.25
493.01	20255.00
493.19	19962.43
493.37	20219.89
493.54	20528.84
493.72	20900.98
493.90	20826.09
494.08	21263.77
494.25	21460.37
494.43	21523.57
494.61	21355.05
494.79	21432.29
494.96	21287.17
495.14	21701.45
495.32	21862.94
495.49	21811.45
495.67	21921.46
495.85	22398.93
496.02	22146.15
496.20	22335.73
496.38	22579.15
496.55	22047.85
496.73	22764.05
496.91	22651.70
497.09	23016.83
497.26	22857.67
497.44	23077.68
497.62	23047.26
497.79	23541.11
497.97	23388.97
498.14	23616.01
498.32	23716.65
498.50	23892.19
498.67	23814.95
498.85	24004.53
499.03	23943.68
499.20	24098.16
499.38	24325.19
499.56	24088.79
499.73	24599.03
499.91	24388.38
500.08	24489.03
500.26	24364.98
500.44	24706.70
500.61	24606.05
500.79	24816.70
500.97	24540.52
501.14	24933.73
501.32	24978.20
501.49	25322.26
501.67	25514.18
501.84	25263.74
502.02	25441.62
502.20	25544.61
502.37	25940.16
502.55	25860.58
502.72	25916.75
502.90	25614.82
503.07	26045.48
503.25	26274.85
503.43	25991.65
503.60	26370.82
503.78	26396.56
503.95	26441.03
504.13	26424.65
504.30	26300.60
504.48	26415.29
504.65	26553.38
504.83	26897.44
505.01	26923.18
505.18	26836.58
505.36	27232.13
505.53	27145.53
505.71	27658.11
505.88	27489.59
506.06	27201.71
506.23	26998.08
506.41	27204.05
506.58	27405.33
506.76	27496.61
506.93	27646.41
507.11	27887.48
507.28	27805.56
507.46	27754.07
507.63	27740.03
507.81	28158.99
507.98	28044.30
508.16	28318.14
508.33	28371.97
508.50	28437.51
508.68	28367.29
508.85	28982.85
509.03	28669.22
509.20	28498.36
509.38	29142.01
509.55	28959.45
509.73	28788.59
509.90	29179.46
510.08	29134.99
510.25	29408.83
510.42	29319.89
510.60	29598.41
510.77	29310.53
510.95	29792.68
511.12	29448.62
511.30	29668.63
511.47	29968.22
511.64	30096.95
511.82	30141.42
511.99	29783.32
512.17	29830.13
512.34	30157.80
512.51	30064.18
512.69	30529.95
512.86	30127.38
513.04	30593.14
513.21	30579.10
513.38	30642.29
513.56	30764.00
513.73	30604.84
513.90	30981.67
514.08	30885.71
514.25	31185.30
514.43	31309.35
514.60	30920.82
514.77	30775.70
514.95	31400.63
515.12	30965.29
515.29	31180.62
515.47	31557.44
515.64	31810.22
515.81	31662.77
515.99	31424.03
516.16	31725.96
516.33	31665.11
516.51	32002.14
516.68	31505.95
516.85	31646.38
517.03	31527.02
517.20	31756.39
517.37	31805.54
517.54	32247.90
517.72	32102.79
517.89	32252.58
518.06	32388.33
518.24	32304.07
518.41	32126.19
518.58	32428.12
518.75	32268.97
518.93	32716.01
519.10	32856.44
519.27	32929.00
519.45	33017.94
519.62	32903.25
519.79	33523.49
519.96	33130.28
520.14	33605.41
520.31	32945.38
520.48	33635.84
520.65	33237.95
520.83	33956.49
521.00	33682.65
521.17	33743.50
521.34	33593.71
521.52	34155.44
521.69	34125.01
521.86	34057.14
522.03	34209.27
522.20	33975.22
522.38	33921.38
522.55	34171.82
522.72	34312.25
522.89	34066.50
523.07	34562.69
523.24	34466.73
523.41	34951.22
523.58	33930.75
523.75	34443.32
523.92	34532.26
524.10	35276.55
524.27	35208.68
524.44	35349.11
524.61	34998.03
524.78	34988.67
524.96	35227.40
525.13	35508.27
525.30	35742.32
525.47	35421.67
525.64	34820.15
525.81	35393.58
525.98	35274.21
526.16	35150.17
526.33	35168.89
526.50	35377.20
526.67	35379.54
526.84	35536.35
527.01	35442.73
527.18	35648.70
527.36	35662.74
527.53	35861.69
527.70	36460.87
527.87	36336.82
528.04	35948.29
528.21	35913.18
528.38	35819.56
528.55	36275.96
528.72	36278.30
528.89	36526.40
529.07	36886.84
529.24	35782.11
529.41	36568.53
529.58	36446.82
529.75	36395.33
529.92	36605.98
530.09	36617.68
530.26	36535.76
530.43	36662.15
530.60	36526.40
530.77	36512.36
530.94	37184.09
531.11	36912.59
531.28	37209.84
531.46	37137.28
531.63	36982.80
531.80	37209.84
531.97	37184.09
532.14	37179.41
532.31	36896.20
532.48	37500.06
532.65	37797.31
532.82	37617.09
532.99	37570.28
533.16	37591.34
533.33	37361.97
533.50	38321.59
533.67	37759.86
533.84	37357.29
534.01	38047.75
534.18	37783.27
534.35	38565.01
534.52	37968.17
534.69	38300.53
534.86	38169.46
535.03	37820.72
535.20	38162.43
535.37	38794.38
535.54	38684.37
535.71	38232.65
535.88	38504.15
536.05	38562.67
536.22	38469.04
536.38	39019.07
536.55	38602.46
536.72	38600.12
536.89	38347.34
537.06	38763.95
537.23	38684.37
537.40	38829.49
537.57	38539.26
537.74	38609.48
537.91	39096.31
538.08	38710.12
538.25	38583.73
538.42	39068.22
538.59	39201.63
538.75	38586.07
538.92	38880.98
539.09	39323.34
539.26	39117.37
539.43	39091.63
539.60	39421.64
539.77	39248.44
539.94	38990.98
540.11	39405.26
540.28	39552.71
540.44	39407.60
540.61	39267.17
540.78	38998.01
540.95	39428.66
541.12	39182.91
541.29	39618.25
541.46	39969.33
541.62	39452.07
541.79	40196.36
541.96	39412.28
542.13	39667.40
542.30	39861.66
542.47	39924.86
542.63	40112.10
542.80	39952.94
542.97	39962.31
543.14	40378.92
543.31	40774.47
543.48	40500.63
543.64	41022.57
543.81	40905.54
543.98	40493.61
544.15	40261.90
544.32	40460.84
544.48	41310.46
544.65	40975.76
544.82	40638.72
544.99	40666.81
545.16	40868.09
545.32	40739.36
545.49	41027.25
545.66	41240.24
545.83	40898.52
546.00	41563.23
546.16	41373.65
546.33	41387.69
546.50	40395.31
546.67	41120.87
546.83	40769.79
547.00	41635.79
547.17	41703.67
547.34	41474.29
547.50	40933.63
547.67	41593.66
547.84	41701.32
548.00	41909.63
548.17	41916.65
548.34	41684.94
548.51	42026.66
548.67	41848.78
548.84	41947.08
549.01	41706.01
549.18	41453.23
549.34	41879.21
549.51	42012.62
549.68	42038.36
549.84	42174.11
550.01	41991.55
550.18	41617.07
550.34	41806.65
550.51	41511.74
550.68	41380.67
550.84	41652.17
551.01	41764.52
551.18	41839.42
551.34	41759.84
551.51	42197.52
551.68	41893.25
551.84	42373.06
552.01	42026.66
552.18	42202.20
552.34	42085.17
552.51	42796.70
552.68	42747.54
552.84	42316.89
553.01	42667.97
553.18	42251.35
553.34	42630.52
553.51	42134.32
553.67	42438.59
553.84	42808.40
554.01	42962.87
554.17	43274.16
554.34	43257.78
554.51	42803.72
554.67	43054.15
554.84	42431.57
555.00	42541.58
555.17	42717.12
555.33	42642.22
555.50	42625.84
555.67	42696.05
555.83	43178.20
556.00	42576.69
556.16	43496.52
556.33	43115.01
556.50	43096.28
556.66	42684.35
556.83	42710.10
556.99	43157.14
557.16	43302.25
557.32	43253.10
557.49	43033.09
557.65	42665.63
557.82	42560.30
557.98	43007.34
558.15	43304.59
558.32	43454.39
558.48	43133.73
558.65	43115.01
558.81	43037.77
558.98	43332.68
559.14	43372.47
559.31	43634.61
559.47	43489.49
559.64	43566.73
559.80	43213.31
559.97	42960.53
560.13	43557.37
560.30	43482.47
560.46	43590.14
560.63	43606.52
560.79	43449.70
560.96	43658.01
561.12	43573.75
561.29	43690.78
561.45	44140.16
561.61	43112.67
561.78	43716.53
561.94	43421.62
562.11	43875.68
562.27	43744.61
562.44	43765.68
562.60	43545.67
562.77	44074.63
562.93	43714.19
563.10	43803.13
563.26	43716.53
563.42	44280.60
563.59	43931.86
563.75	43555.03
563.92	44371.88
564.08	43676.74
564.24	44201.02
564.41	43901.43
564.57	43962.28
564.74	43903.77
564.90	43908.45
565.07	44184.63
565.23	43950.58
565.39	43585.46
565.56	43576.09
565.72	43735.25
565.88	43824.19
566.05	43826.53
566.21	44266.55
566.38	43941.22
566.54	43978.67
566.70	44100.37
566.87	44034.84
567.03	44105.06
567.19	44601.25
567.36	44451.45
567.52	44128.46
567.68	44332.09
567.85	44126.12
568.01	44346.13
568.17	43833.55
568.34	44201.02
568.50	44341.45
568.66	43995.05
568.83	44582.52
568.99	43746.95
569.15	43723.55
569.32	43887.39
569.48	44041.86
569.64	44177.61
569.81	44315.70
569.97	44247.83
570.13	44137.82
570.30	44198.68
570.46	43702.48
570.62	43945.90
570.78	44020.80
570.95	44027.82
571.11	44491.24
571.27	44205.70
571.43	43913.13
571.60	44648.06
571.76	44292.30
571.92	44383.58
572.09	43950.58
572.25	44257.19
572.41	43885.04
572.57	44449.11
572.74	45057.65
572.90	44175.27
573.06	44690.19
573.22	44605.93
573.38	44406.98
573.55	44589.55
573.71	44451.45
573.87	44444.43
574.03	44332.09
574.20	44212.72
574.36	44760.40
574.52	44779.13
574.68	45036.59
574.84	44697.21
575.01	44582.52
575.17	44797.85
575.33	44168.25
575.49	44320.38
575.65	44542.74
575.82	44790.83
575.98	44767.43
576.14	44842.32
576.30	44645.72
576.46	44470.18
576.62	44210.38
576.79	44472.52
576.95	44605.93
577.11	44355.49
577.27	44657.42
577.43	44762.75
577.59	44655.08
577.75	44659.76
577.92	44158.89
578.08	44566.14
578.24	44449.11
578.40	44313.36
578.56	44669.12
578.72	44664.44
578.88	44818.92
579.04	44842.32
579.21	44545.08
579.37	44481.88
579.53	44493.58
579.69	44182.29
579.85	44526.35
580.01	44884.45
580.17	44938.29
580.33	44392.94
580.49	44823.60
580.65	44790.83
580.82	44470.18
580.98	44793.17
581.14	44484.22
581.30	44769.77
581.46	44507.63
581.62	44502.95
581.78	44329.75
581.94	44648.06
582.10	45134.89
582.26	44985.10
582.42	44329.75
582.58	44662.10
582.74	44296.98
582.90	44336.77
583.06	45249.58
583.22	45059.99
583.38	45120.85
583.54	44591.89
583.70	44889.13
583.86	44683.17
584.02	44072.29
584.18	44554.44
584.34	44514.65
584.50	44545.08
584.66	44786.15
584.82	44463.16
584.98	44987.44
585.14	44928.92
585.30	44746.36
585.46	44734.66
585.62	44498.26
585.78	44755.72
585.94	44208.04
586.10	44839.98
586.26	44678.49
586.42	44933.60
586.58	44692.53
586.74	44818.92
586.90	44502.95
587.06	44617.63
587.22	44643.38
587.38	44374.22
587.54	44875.09
587.70	44753.38
587.86	44861.05
588.02	44762.75
588.18	44886.79
588.34	45064.67
588.49	44666.78
588.65	44240.81
588.81	44451.45
588.97	44683.17
589.13	44781.47
589.29	44772.11
589.45	44779.13
589.61	44575.50
589.77	44973.39
589.93	44863.39
590.08	45322.13
590.24	45298.73
