SpectraSuite Data File
++++++++++++++++++++++++++++++++++++
Date: Fri Oct 25 10:48:17 EDT 2013
User: price-jones
Dark Spectrum Present: No
Reference Spectrum Present: No
Number of Sampled Component Spectra: 1
Spectrometers: USB2+H05261
Integration Time (usec): 100000 (USB2+H05261)
Spectra Averaged: 1 (USB2+H05261)
Boxcar Smoothing: 0 (USB2+H05261)
Correct for Electrical Dark: No (USB2+H05261)
Strobe/Lamp Enabled: No (USB2+H05261)
Correct for Detector Non-linearity: No (USB2+H05261)
Correct for Stray Light: No (USB2+H05261)
Number of Pixels in Processed Spectrum: 2048
>>>>>Begin Processed Spectral Data<<<<<
365.73	126.39
365.92	126.39
366.12	126.39
366.32	102.98
366.52	42.13
366.72	25.75
366.91	46.81
367.11	56.17
367.31	81.92
367.51	60.85
367.70	0.00
367.90	32.77
368.10	74.90
368.30	0.00
368.49	23.41
368.69	42.13
368.89	49.15
369.09	56.17
369.28	58.51
369.48	28.09
369.68	124.05
369.87	131.07
370.07	128.73
370.27	166.18
370.47	241.08
370.66	374.49
370.86	444.70
371.06	395.55
371.25	552.37
371.45	407.25
371.65	442.36
371.84	449.38
372.04	528.96
372.24	503.22
372.44	538.32
372.63	486.83
372.83	463.43
373.03	442.36
373.22	493.85
373.42	606.20
373.62	496.19
373.81	507.90
374.01	629.60
374.21	615.56
374.40	575.77
374.60	526.62
374.79	622.58
374.99	517.26
375.19	554.71
375.38	575.77
375.58	545.34
375.78	643.65
375.97	667.05
376.17	655.35
376.37	634.29
376.56	580.45
376.76	660.03
376.95	627.26
377.15	709.18
377.35	620.24
377.54	608.54
377.74	706.84
377.93	636.63
378.13	671.73
378.33	727.91
378.52	657.69
378.72	634.29
378.91	622.58
379.11	678.76
379.31	716.20
379.50	704.50
379.70	678.76
379.89	655.35
380.09	645.99
380.28	791.10
380.48	723.23
380.68	716.20
380.87	685.78
381.07	741.95
381.26	784.08
381.46	711.52
381.65	763.01
381.85	667.05
382.04	723.23
382.24	741.95
382.43	741.95
382.63	746.63
382.83	791.10
383.02	683.44
383.22	753.65
383.41	751.31
383.61	774.72
383.80	751.31
384.00	781.74
384.19	751.31
384.39	816.85
384.58	828.55
384.78	851.96
384.97	849.61
385.17	809.83
385.36	819.19
385.56	840.25
385.75	795.78
385.95	760.67
386.14	856.64
386.34	908.13
386.53	840.25
386.72	901.11
386.92	734.93
387.11	908.13
387.31	851.96
387.50	842.59
387.70	894.08
387.89	894.08
388.09	812.17
388.28	898.77
388.48	894.08
388.67	851.96
388.86	945.58
389.06	1020.47
389.25	973.66
389.45	936.21
389.64	999.41
389.84	1046.22
390.03	985.37
390.22	1025.15
390.42	959.62
390.61	1029.84
390.81	1160.91
391.00	1043.88
391.19	1074.31
391.39	1097.71
391.58	1139.84
391.78	1067.28
391.97	1107.07
392.16	1100.05
392.36	1081.33
392.55	1032.18
392.75	1011.11
392.94	1011.11
393.13	901.11
393.33	1104.73
393.52	1071.97
393.71	1069.62
393.91	1069.62
394.10	1071.97
394.29	1090.69
394.49	1151.54
394.68	1268.57
394.88	1210.06
395.07	1261.55
395.26	1146.86
395.46	1266.23
395.65	1231.12
395.84	1299.00
396.04	1226.44
396.23	1214.74
396.42	1064.94
396.62	1196.01
396.81	1210.06
397.00	1240.48
397.19	1320.06
397.39	1327.08
397.58	1411.34
397.77	1317.72
397.97	1392.62
398.16	1371.55
398.35	1481.56
398.55	1392.62
398.74	1413.68
398.93	1535.39
399.12	1455.81
399.32	1432.41
399.51	1455.81
399.70	1502.62
399.90	1469.86
400.09	1500.28
400.28	1619.65
400.47	1523.69
400.67	1647.74
400.86	1703.91
401.05	1593.90
401.24	1586.88
401.44	1633.69
401.63	1661.78
401.82	1682.85
402.01	1661.78
402.21	1657.10
402.40	1774.13
402.59	1727.32
402.78	1764.76
402.97	1760.08
403.17	1717.95
403.36	1834.98
403.55	1762.42
403.74	1928.60
403.93	1877.11
404.13	1863.07
404.32	1858.39
404.51	1790.51
404.70	1863.07
404.89	1832.64
405.09	2024.56
405.28	1872.43
405.47	1921.58
405.66	1961.37
405.85	1942.64
406.05	1963.71
406.24	1973.07
406.43	1921.58
406.62	2015.20
406.81	2174.36
407.00	2115.84
407.20	2024.56
407.39	2031.58
407.58	2136.91
407.77	2104.14
407.96	2129.89
408.15	2218.83
408.34	2216.49
408.54	2118.18
408.73	2251.60
408.92	2246.91
409.11	2417.77
409.30	2328.83
409.49	2279.68
409.68	2260.96
409.87	2218.83
410.07	2403.73
410.26	2349.90
410.45	2317.13
410.64	2373.30
410.83	2469.27
411.02	2473.95
411.21	2483.31
411.40	2560.55
411.59	2590.97
411.78	2586.29
411.98	2593.31
412.17	2696.30
412.36	2668.21
412.55	2724.38
412.74	2654.17
412.93	2722.04
413.12	2640.12
413.31	2829.71
413.50	2862.48
413.69	2864.82
413.88	2991.20
414.07	2787.58
414.26	2834.39
414.45	2906.95
414.64	2932.69
414.83	2925.67
415.02	3002.91
415.22	2988.86
415.41	3047.38
415.60	2925.67
415.79	3042.70
415.98	3145.68
416.17	3059.08
416.36	3110.57
416.55	3173.77
416.74	3353.99
416.93	3171.43
417.12	3201.85
417.31	3304.84
417.50	3309.52
417.69	3459.31
417.88	3459.31
418.07	3297.81
418.26	3403.14
418.45	3581.02
418.64	3522.51
418.83	3536.55
419.02	3566.98
419.21	3475.70
419.39	3559.95
419.58	3471.01
419.77	3496.76
419.96	3667.62
420.15	3686.34
420.34	3606.77
420.53	3723.79
420.72	3747.20
420.91	3714.43
421.10	3691.02
421.29	3831.46
421.48	3810.39
421.67	3836.14
421.86	3737.84
422.05	3894.65
422.24	3791.67
422.43	3613.79
422.61	3761.24
422.80	3817.41
422.99	3868.91
423.18	3779.97
423.37	4037.42
423.56	3878.27
423.75	3854.86
423.94	3857.20
424.13	3590.38
424.32	3786.99
424.50	3925.08
424.69	3913.38
424.88	3915.72
425.07	3847.84
425.26	3925.08
425.45	3765.92
425.64	3922.74
425.83	3868.91
426.01	4016.36
426.20	4086.58
426.39	4070.19
426.58	3960.19
426.77	3887.63
426.96	3995.29
427.15	3941.46
427.33	3997.64
427.52	3997.64
427.71	4072.53
427.90	3990.61
428.09	4011.68
428.28	4142.75
428.46	4203.60
428.65	4091.26
428.84	4042.11
429.03	4119.34
429.22	4051.47
429.40	4159.13
429.59	4065.51
429.78	3887.63
429.97	3925.08
430.16	3948.48
430.34	4117.00
430.53	4149.77
430.72	4196.58
430.91	4152.11
431.10	4264.46
431.28	4545.32
431.47	4559.36
431.66	4664.69
431.85	4400.21
432.03	4566.39
432.22	4706.82
432.41	4594.47
432.60	4732.56
432.79	4648.30
432.97	4571.07
433.16	4580.43
433.35	4533.62
433.54	4578.09
433.72	4645.96
433.91	4767.67
434.10	4865.97
434.28	4819.16
434.47	4840.23
434.66	4816.82
434.85	4861.29
435.03	4912.78
435.22	4786.40
435.41	4992.36
435.59	4961.94
435.78	5015.77
435.97	5184.29
436.16	5188.97
436.34	4959.60
436.53	5118.75
436.72	5305.99
436.90	4936.19
437.09	5184.29
437.28	4926.83
437.46	5128.11
437.65	5102.37
437.84	5191.31
438.02	5228.76
438.21	5188.97
438.40	5064.92
438.58	5259.18
438.77	5387.91
438.96	5605.58
439.14	5521.32
439.33	5621.97
439.52	5465.15
439.70	5685.16
439.89	5640.69
440.08	5717.93
440.26	5769.42
440.45	5593.88
440.63	5837.30
440.82	6047.94
441.01	5923.90
441.19	5966.03
441.38	6001.13
441.57	6003.47
441.75	5996.45
441.94	6239.87
442.12	6307.74
442.31	6104.12
442.50	6368.60
442.68	6277.32
442.87	6296.04
443.05	6174.33
443.24	6331.15
443.43	6328.81
443.61	6230.51
443.80	6480.94
443.98	6120.50
444.17	6125.18
444.35	6502.01
444.54	6406.05
444.73	6520.73
444.91	6424.77
445.10	6321.79
445.28	6441.15
445.47	6230.51
445.65	6239.87
445.84	6583.93
446.02	6583.93
446.21	6485.62
446.39	6445.84
446.58	6525.41
446.77	6700.95
446.95	6502.01
447.14	6604.99
447.32	6583.93
447.51	6497.33
447.69	6593.29
447.88	6560.52
448.06	6700.95
448.25	6602.65
448.43	6785.21
448.62	6710.32
448.80	6614.35
448.99	6616.69
449.17	6658.82
449.36	6642.44
449.54	6775.85
449.73	6951.39
449.91	6965.43
450.10	7030.97
450.28	7007.56
450.46	6932.67
450.65	7087.14
450.83	7059.06
451.02	6930.33
451.20	7269.70
451.39	7250.98
451.57	7075.44
451.76	7117.57
451.94	7117.57
452.13	7293.11
452.31	7124.59
452.49	6958.41
452.68	6995.86
452.86	6904.58
453.05	7171.40
453.23	7112.89
453.42	7199.49
453.60	7183.10
453.78	7117.57
453.97	7288.43
454.15	7222.89
454.34	7227.57
454.52	7431.20
454.70	7428.86
454.89	7485.03
455.07	7417.16
455.26	7646.53
455.44	7618.44
455.62	7531.84
455.81	7468.65
455.99	7655.89
456.17	7688.66
456.36	7470.99
456.54	7929.74
456.73	8009.31
456.91	7992.93
457.09	7918.03
457.28	8128.68
457.46	7929.74
457.64	8011.65
457.83	8023.36
458.01	7864.20
458.19	8133.36
458.38	8205.92
458.56	8212.94
458.74	8215.28
458.93	8112.30
459.11	8236.35
459.29	8119.32
459.48	8278.47
459.66	8138.04
459.84	8231.66
460.03	8542.96
460.21	8336.99
460.39	8334.65
460.57	8234.00
460.76	8617.85
460.94	8482.10
461.12	8416.57
461.31	8608.49
461.49	8526.57
461.67	8484.44
461.85	8573.38
462.04	8552.32
462.22	9186.60
462.40	8737.22
462.59	8833.18
462.77	8758.28
462.95	8898.72
463.13	9046.17
463.32	8819.14
463.50	8821.48
463.68	8786.37
463.86	8819.14
464.05	8713.81
464.23	8837.86
464.41	8905.74
464.59	8779.35
464.78	9107.02
464.96	8936.17
465.14	8931.48
465.32	9188.94
465.50	9123.41
465.69	9167.88
465.87	9011.06
466.05	9109.36
466.23	9139.79
466.41	8978.30
466.60	9418.32
466.78	9219.37
466.96	9170.22
467.14	9146.81
467.32	9380.87
467.51	9495.55
467.69	9191.28
467.87	9399.59
468.05	9418.32
468.23	9460.45
468.41	9336.40
468.60	9327.03
468.78	9500.23
468.96	9348.10
469.14	9682.80
469.32	9415.98
469.50	9509.60
469.69	9671.09
469.87	9710.88
470.05	9628.96
470.23	9811.53
470.41	9839.61
470.59	10090.05
470.77	9750.67
470.95	9731.95
471.14	10003.45
471.32	9900.47
471.50	10483.26
471.68	10162.61
471.86	10368.57
472.04	10043.24
472.22	10593.26
472.40	10047.92
472.58	10169.63
472.77	10260.91
472.95	10406.02
473.13	10651.78
473.31	10497.30
473.49	10387.30
473.67	10602.63
473.85	10609.65
474.03	10787.53
474.21	10773.49
474.39	10899.87
474.57	10970.09
474.75	11068.39
474.93	11047.33
475.12	11087.12
475.30	11250.96
475.48	11094.14
475.66	11300.11
475.84	10995.84
476.02	11342.24
476.20	11197.12
476.38	11337.56
476.56	11461.60
476.74	11803.32
476.92	11758.85
477.10	11473.31
477.28	11831.41
477.46	11808.00
477.64	11847.79
477.82	12229.30
478.00	12418.88
478.18	12231.64
478.36	12486.76
478.54	12287.81
478.72	12559.31
478.90	12784.01
479.08	13006.36
479.26	12929.12
479.44	13027.42
479.62	13205.30
479.80	13109.34
479.98	13338.71
480.16	13612.56
480.34	13390.20
480.52	13483.83
480.70	13373.82
480.88	13378.50
481.06	13851.29
481.24	13792.78
481.41	13961.30
481.59	14197.69
481.77	14319.40
481.95	14349.82
482.13	14494.94
482.31	14455.15
482.49	14459.83
482.67	14642.39
482.85	14654.09
483.03	15047.30
483.21	15023.90
483.39	15234.55
483.57	15255.61
483.74	15133.90
483.92	15391.36
484.10	15470.94
484.28	15309.44
484.46	15981.18
484.64	15840.75
484.82	15550.52
485.00	16030.33
485.18	16334.60
485.35	16301.83
485.53	16070.12
485.71	16032.67
485.89	16428.22
486.07	16489.07
486.25	16552.27
486.43	16919.73
486.61	16886.97
486.78	16968.88
486.96	17233.36
487.14	17610.19
487.32	17465.08
487.50	17593.81
487.68	18207.03
487.85	18288.95
488.03	18307.67
488.21	18363.84
488.39	18216.39
488.57	18457.46
488.75	18581.51
488.92	18883.44
489.10	19002.81
489.28	18923.23
489.46	19405.38
489.64	19662.84
489.81	19850.08
489.99	19852.42
490.17	20102.86
490.35	20205.84
490.53	19978.81
490.70	20435.22
490.88	20222.23
491.06	20741.83
491.24	20393.09
491.41	20409.47
491.59	20589.69
491.77	20662.25
491.95	21043.76
492.13	21221.64
492.30	21282.49
492.48	21640.59
492.66	21933.16
492.84	21809.11
493.01	21605.49
493.19	21696.77
493.37	22319.35
493.54	21858.26
493.72	22691.49
493.90	22373.18
494.08	22876.40
494.25	22852.99
494.43	22867.03
494.61	23442.81
494.79	23220.45
494.96	23267.27
495.14	23243.86
495.32	23405.36
495.49	23501.32
495.67	23730.69
495.85	24065.39
496.02	23906.23
496.20	24065.39
496.38	23962.40
496.55	23976.45
496.73	24828.40
496.91	24606.05
497.09	24730.10
497.26	24669.25
497.44	24980.54
497.62	24994.58
497.79	25235.66
497.97	24907.98
498.14	25142.03
498.32	25692.06
498.50	25490.77
498.67	25986.97
498.85	25696.74
499.03	26066.55
499.20	25872.28
499.38	25722.49
499.56	26412.95
499.73	26520.61
499.91	26373.16
500.08	26263.15
500.26	26216.34
500.44	26377.84
500.61	26728.92
500.79	26508.91
500.97	26794.45
501.14	27058.93
501.32	26670.40
501.49	26960.63
501.67	26630.62
501.84	27548.11
502.02	27009.78
502.20	27321.07
502.37	27828.97
502.55	27627.68
502.72	27555.13
502.90	28130.90
503.07	28163.67
503.25	28175.37
503.43	28088.77
503.60	28224.52
503.78	28350.91
503.95	28308.78
504.13	28339.21
504.30	28266.65
504.48	28608.37
504.65	28589.64
504.83	29053.07
505.01	28837.74
505.18	28676.24
505.36	29160.73
505.53	29294.14
505.71	29567.99
505.88	29717.78
506.06	29120.95
506.23	29539.90
506.41	29380.74
506.58	29689.70
506.76	29724.80
506.93	30059.50
507.11	29603.10
507.28	30003.33
507.46	30127.38
507.63	29986.94
507.81	29949.50
507.98	30019.71
508.16	30169.51
508.33	30377.81
508.50	30087.59
508.68	31068.27
508.85	31002.74
509.03	30962.95
509.20	30539.31
509.38	31000.40
509.55	31070.61
509.73	30941.88
509.90	30993.37
510.08	31316.37
510.25	31367.86
510.42	31583.19
510.60	31791.50
510.77	32046.62
510.95	31962.36
511.12	31517.65
511.30	31810.22
511.47	32243.22
511.64	31969.38
511.82	32184.71
511.99	31950.65
512.17	32346.20
512.34	32566.21
512.51	32615.37
512.69	32409.40
512.86	32652.81
513.04	32971.13
513.21	32711.33
513.38	32823.67
513.56	32673.88
513.73	32545.15
513.90	32795.59
514.08	32809.63
514.25	32650.47
514.43	32744.09
514.60	32779.20
514.77	33270.72
514.95	33333.91
515.12	33308.16
515.29	33743.50
515.47	33720.10
515.64	33553.92
515.81	33542.22
515.99	33523.49
516.16	33642.86
516.33	33598.39
516.51	33467.32
516.68	33394.76
516.85	33209.86
517.03	33825.42
517.20	33837.12
517.37	34040.75
517.54	34377.79
517.72	34106.29
517.89	33989.26
518.06	33921.38
518.24	33961.17
518.41	33755.21
518.58	34408.22
518.75	34822.49
518.93	34850.58
519.10	34618.86
519.27	35040.16
519.45	35285.92
519.62	35281.24
519.79	35306.98
519.96	35412.31
520.14	35496.56
520.31	35360.81
520.48	35543.38
520.65	35634.66
520.83	35541.03
521.00	35990.42
521.17	36222.13
521.34	35613.59
521.52	35814.88
521.69	36175.32
521.86	36397.67
522.03	36346.18
522.20	36250.22
522.38	35882.75
522.55	36027.87
522.72	35805.52
522.89	36133.19
523.07	36479.59
523.24	36163.62
523.41	36613.00
523.58	36521.72
523.75	36943.02
523.92	37298.78
524.10	37179.41
524.27	37207.50
524.44	37148.98
524.61	37387.72
524.78	37338.57
524.96	37095.15
525.13	37298.78
525.30	37963.49
525.47	38085.20
525.64	37560.92
525.81	37523.47
525.98	37230.90
526.16	37083.45
526.33	37390.06
526.50	37787.95
526.67	37385.38
526.84	37621.77
527.01	37392.40
527.18	37649.86
527.36	38281.80
527.53	38155.41
527.70	38227.97
527.87	38590.75
528.04	38398.83
528.21	38703.10
528.38	38670.33
528.55	38820.13
528.72	38550.96
528.89	38820.13
529.07	38665.65
529.24	38494.79
529.41	38857.57
529.58	38672.67
529.75	38932.47
529.92	39189.93
530.09	39227.38
530.26	39035.45
530.43	39323.34
530.60	38824.81
530.77	38986.30
530.94	39487.18
531.11	39239.08
531.28	39145.46
531.46	39498.88
531.63	39374.83
531.80	39269.51
531.97	39613.57
532.14	39522.29
532.31	38838.85
532.48	39442.71
532.65	39519.95
532.82	39587.82
532.99	39842.94
533.16	39239.08
533.33	40147.21
533.50	39971.67
533.67	39842.94
533.84	39683.78
534.01	40093.38
534.18	39819.53
534.35	40266.58
534.52	40187.00
534.69	39910.82
534.86	40355.52
535.03	40399.99
535.20	40687.87
535.37	40872.78
535.54	40898.52
535.71	40701.92
535.88	40528.72
536.05	40531.06
536.22	40404.67
536.38	40645.74
536.55	40772.13
536.72	40481.91
536.89	40659.79
537.06	40601.27
537.23	40858.73
537.40	41263.64
537.57	40975.76
537.74	40910.22
537.91	41226.20
538.08	41329.18
538.25	40928.95
538.42	41050.66
538.59	41619.41
538.75	40737.02
538.92	41209.81
539.09	41462.59
539.26	41146.62
539.43	40994.48
539.60	41556.21
539.77	41385.35
539.94	41724.73
540.11	41296.41
540.28	41277.69
540.44	41387.69
540.61	41265.99
540.78	41088.10
540.95	41769.20
541.12	41530.47
541.29	41823.03
541.46	41628.77
541.62	41818.35
541.79	42029.00
541.96	41148.96
542.13	41713.03
542.30	41998.57
542.47	42375.40
542.63	42300.50
542.80	42293.48
542.97	42447.96
543.14	42590.73
543.31	42487.74
543.48	42904.36
543.64	43075.22
543.81	42946.49
543.98	42796.70
544.15	42422.21
544.32	43086.92
544.48	43246.08
544.65	43302.25
544.82	42646.90
544.99	42429.23
545.16	43037.77
545.32	42780.31
545.49	43288.21
545.66	42948.83
545.83	43564.39
546.00	43311.61
546.16	43129.05
546.33	43313.95
546.50	42775.63
546.67	42733.50
546.83	42946.49
547.00	43005.00
547.17	43173.52
547.34	43503.54
547.50	43297.57
547.67	43503.54
547.84	43217.99
548.00	43510.56
548.17	43658.01
548.34	43700.14
548.51	44023.14
548.67	43770.36
548.84	44189.31
549.01	43714.19
549.18	43913.13
549.34	44006.75
549.51	43847.60
549.68	43981.01
549.84	43959.94
550.01	44278.25
550.18	43985.69
550.34	43871.00
550.51	43761.00
550.68	43761.00
550.84	44086.33
551.01	44273.57
551.18	44308.68
551.34	44282.94
551.51	44322.72
551.68	44123.78
551.84	44404.64
552.01	43981.01
552.18	44252.51
552.34	43826.53
552.51	44238.47
552.68	44273.57
552.84	44362.51
553.01	44793.17
553.18	44563.80
553.34	44467.84
553.51	44257.19
553.67	44465.50
553.84	44715.93
554.01	44830.62
554.17	44645.72
554.34	45184.04
554.51	44842.32
554.67	44765.09
554.84	44383.58
555.00	44631.68
555.17	44737.00
555.33	45303.41
555.50	44931.26
555.67	44793.17
555.83	44687.85
556.00	44891.48
556.16	45446.18
556.33	45184.04
556.50	45043.61
556.66	45216.81
556.83	44648.06
556.99	45200.43
557.16	45118.51
557.32	44900.84
557.49	44926.58
557.65	44315.70
557.82	44755.72
557.98	45223.83
558.15	45504.70
558.32	45359.58
558.48	45263.62
558.65	45188.72
558.81	44987.44
558.98	45500.01
559.14	45024.89
559.31	45090.42
559.47	45280.00
559.64	45352.56
559.80	45682.58
559.97	45141.91
560.13	45104.46
560.30	45322.13
560.46	45352.56
560.63	45240.21
560.79	45745.77
560.96	45928.33
561.12	45595.98
561.29	45287.03
561.45	45563.21
561.61	46003.23
561.78	45282.34
561.94	45387.67
562.11	45518.74
562.27	45713.00
562.44	45263.62
562.60	45928.33
562.77	45776.20
562.93	45280.00
563.10	45727.05
563.26	45579.59
563.42	45755.13
563.59	45404.05
563.75	46211.54
563.92	46117.92
564.08	45635.77
564.24	46073.45
564.41	45565.55
564.57	45834.71
564.74	45876.84
564.90	45904.93
565.07	45752.79
565.23	45727.05
565.39	45736.41
565.56	45949.40
565.72	45577.25
565.88	45584.27
566.05	45790.24
566.21	45530.44
566.38	45598.32
566.54	46066.42
566.70	46368.35
566.87	46422.19
567.03	45916.63
567.19	46328.56
567.36	46087.49
567.52	46216.22
567.68	45918.97
567.85	45930.67
568.01	46108.55
568.17	45694.28
568.34	46202.18
568.50	46028.98
568.66	46195.15
568.83	46171.75
568.99	45680.24
569.15	46307.50
569.32	45673.21
569.48	45792.58
569.64	45998.55
569.81	46085.15
569.97	45750.45
570.13	46351.97
570.30	45925.99
570.46	45825.35
570.62	45839.39
570.78	45900.25
570.95	45797.26
571.11	46134.30
571.27	45715.34
571.43	46122.60
571.60	46438.57
571.76	46288.77
571.92	45593.64
572.09	45890.88
572.25	46192.81
572.41	46021.95
572.57	46007.91
572.74	46873.91
572.90	46412.82
573.06	46237.28
573.22	46356.65
573.38	46305.16
573.55	46005.57
573.71	46522.83
573.87	46295.80
574.03	46012.59
574.20	46494.74
574.36	46045.36
574.52	46085.15
574.68	46635.17
574.84	46377.72
575.01	46522.83
575.17	46089.83
575.33	45783.22
575.49	46550.91
575.65	46340.27
575.82	46714.75
575.98	46068.76
576.14	46637.51
576.30	46040.68
576.46	46223.24
576.62	46480.70
576.79	45872.16
576.95	45792.58
577.11	46066.42
577.27	46031.32
577.43	46387.08
577.59	45961.10
577.75	46082.81
577.92	45612.36
578.08	45741.09
578.24	46305.16
578.40	46068.76
578.56	46150.68
578.72	46050.04
578.88	45989.19
579.04	46426.87
579.21	46454.95
579.37	46286.43
579.53	46110.89
579.69	46064.08
579.85	45940.04
580.01	46115.58
580.17	46780.29
580.33	46176.43
580.49	46787.31
580.65	46284.09
580.82	46438.57
580.98	46232.60
581.14	46431.55
581.30	46384.74
581.46	46183.45
581.62	46321.54
581.78	46237.28
581.94	46843.48
582.10	46471.34
582.26	46471.34
582.42	46431.55
582.58	46106.21
582.74	45911.95
582.90	46185.79
583.06	46403.46
583.22	46649.22
583.38	46368.35
583.54	46621.13
583.70	46712.41
583.86	46408.14
584.02	46092.17
584.18	46700.71
584.34	46447.93
584.50	46618.79
584.66	46347.29
584.82	46422.19
584.98	46438.57
585.14	46902.00
585.30	46099.19
585.46	46689.01
585.62	45928.33
585.78	46330.90
585.94	46047.70
586.10	46096.85
586.26	46616.45
586.42	46571.98
586.58	46717.09
586.74	46361.33
586.90	46361.33
587.06	46155.36
587.22	46066.42
587.38	46075.79
587.54	46705.39
587.70	47023.70
587.86	46340.27
588.02	46263.03
588.18	46630.49
588.34	46256.01
588.49	45708.32
588.65	45799.60
588.81	45865.14
588.97	45949.40
589.13	46138.98
589.29	45551.51
589.45	46387.08
589.61	46415.16
589.77	46555.60
589.93	46541.55
