SpectraSuite Data File
++++++++++++++++++++++++++++++++++++
Date: Fri Oct 25 10:47:39 EDT 2013
User: price-jones
Dark Spectrum Present: No
Reference Spectrum Present: No
Number of Sampled Component Spectra: 1
Spectrometers: USB2+H05261
Integration Time (usec): 100000 (USB2+H05261)
Spectra Averaged: 1 (USB2+H05261)
Boxcar Smoothing: 0 (USB2+H05261)
Correct for Electrical Dark: No (USB2+H05261)
Strobe/Lamp Enabled: No (USB2+H05261)
Correct for Detector Non-linearity: No (USB2+H05261)
Correct for Stray Light: No (USB2+H05261)
Number of Pixels in Processed Spectrum: 2048
>>>>>Begin Processed Spectral Data<<<<<
365.73	124.05
365.92	124.05
366.12	124.05
366.32	60.85
366.52	0.00
366.72	63.19
366.91	0.00
367.11	95.96
367.31	7.02
367.51	46.81
367.70	74.90
367.90	49.15
368.10	51.49
368.30	0.00
368.49	0.00
368.69	72.56
368.89	159.16
369.09	37.45
369.28	58.51
369.48	4.68
369.68	145.11
369.87	42.13
370.07	154.48
370.27	154.48
370.47	198.95
370.66	381.51
370.86	372.15
371.06	500.87
371.25	407.25
371.45	449.38
371.65	526.62
371.84	437.68
372.04	451.72
372.24	418.96
372.44	477.47
372.63	491.51
372.83	491.51
373.03	461.09
373.22	444.70
373.42	496.19
373.62	519.60
373.81	526.62
374.01	603.86
374.21	613.22
374.40	528.96
374.60	566.41
374.79	496.19
374.99	470.45
375.19	519.60
375.38	585.13
375.58	594.50
375.78	575.77
375.97	491.51
376.17	624.92
376.37	617.90
376.56	648.33
376.76	559.39
376.95	472.79
377.15	622.58
377.35	617.90
377.54	664.71
377.74	589.82
377.93	594.50
378.13	622.58
378.33	667.05
378.52	594.50
378.72	667.05
378.91	620.24
379.11	695.14
379.31	664.71
379.50	624.92
379.70	660.03
379.89	667.05
380.09	636.63
380.28	653.01
380.48	667.05
380.68	711.52
380.87	645.99
381.07	683.44
381.26	671.73
381.46	734.93
381.65	629.60
381.85	650.67
382.04	704.50
382.24	711.52
382.43	629.60
382.63	681.10
382.83	723.23
383.02	662.37
383.22	695.14
383.41	772.38
383.61	725.57
383.80	774.72
384.00	681.10
384.19	725.57
384.39	683.44
384.58	758.33
384.78	849.61
384.97	861.32
385.17	823.87
385.36	669.39
385.56	678.76
385.75	709.18
385.95	748.97
386.14	802.80
386.34	791.10
386.53	798.12
386.72	819.19
386.92	812.17
387.11	791.10
387.31	912.81
387.50	798.12
387.70	725.57
387.89	851.96
388.09	767.70
388.28	877.70
388.48	854.30
388.67	812.17
388.86	875.36
389.06	898.77
389.25	898.77
389.45	978.34
389.64	940.90
389.84	877.70
390.03	973.66
390.22	957.28
390.42	929.19
390.61	929.19
390.81	992.39
391.00	931.53
391.19	933.87
391.39	952.60
391.58	1036.86
391.78	985.37
391.97	933.87
392.16	905.79
392.36	994.73
392.55	1034.52
392.75	1053.24
392.94	973.66
393.13	994.73
393.33	947.92
393.52	976.00
393.71	1062.60
393.91	1043.88
394.10	1137.50
394.29	994.73
394.49	1036.86
394.68	1125.80
394.88	1074.31
395.07	1188.99
395.26	1111.75
395.46	1142.18
395.65	1114.10
395.84	1111.75
396.04	1139.84
396.23	1151.54
396.42	1153.88
396.62	1191.33
396.81	1184.31
397.00	1235.80
397.19	1167.93
397.39	1181.97
397.58	1196.01
397.77	1226.44
397.97	1406.66
398.16	1291.98
398.35	1401.98
398.55	1287.29
398.74	1334.11
398.93	1345.81
399.12	1343.47
399.32	1413.68
399.51	1291.98
399.70	1406.66
399.90	1455.81
400.09	1427.73
400.28	1399.64
400.47	1310.70
400.67	1425.39
400.86	1441.77
401.05	1493.26
401.24	1451.13
401.44	1526.03
401.63	1451.13
401.82	1598.59
402.01	1526.03
402.21	1605.61
402.40	1572.84
402.59	1530.71
402.78	1572.84
402.97	1493.26
403.17	1575.18
403.36	1593.90
403.55	1668.80
403.74	1694.55
403.93	1706.25
404.13	1727.32
404.32	1577.52
404.51	1666.46
404.70	1757.74
404.89	1607.95
405.09	1778.81
405.28	1769.44
405.47	1804.55
405.66	1788.17
405.85	1802.21
406.05	1870.09
406.24	1823.28
406.43	1842.00
406.62	1888.81
406.81	1942.64
407.00	1860.73
407.20	1818.60
407.39	1928.60
407.58	1970.73
407.77	1956.69
407.96	1959.03
408.15	2036.27
408.34	2092.44
408.54	2015.20
408.73	2059.67
408.92	2094.78
409.11	2113.50
409.30	2174.36
409.49	2146.27
409.68	2071.37
409.87	2038.61
410.07	2118.18
410.26	2099.46
410.45	2162.66
410.64	2167.34
410.83	2230.53
411.02	2246.91
411.21	2361.60
411.40	2286.70
411.59	2396.71
411.78	2363.94
411.98	2289.04
412.17	2396.71
412.36	2471.61
412.55	2387.35
412.74	2406.07
412.93	2436.50
413.12	2413.09
413.31	2612.04
413.50	2408.41
413.69	2574.59
413.88	2565.23
414.07	2658.85
414.26	2628.42
414.45	2736.09
414.64	2691.62
414.83	2644.81
415.02	2586.29
415.22	2846.09
415.41	2808.64
415.60	2881.20
415.79	2782.90
415.98	2998.23
416.17	2946.73
416.36	2965.46
416.55	2853.11
416.74	2979.50
416.93	2963.12
417.12	2991.20
417.31	2937.37
417.50	3023.97
417.69	3068.44
417.88	3112.91
418.07	2935.03
418.26	3108.23
418.45	3164.40
418.64	3274.41
418.83	3192.49
419.02	3199.51
419.21	3225.26
419.39	3335.26
419.58	3185.47
419.77	3262.71
419.96	3335.26
420.15	3276.75
420.34	3253.34
420.53	3346.97
420.72	3368.03
420.91	3421.86
421.10	3372.71
421.29	3449.95
421.48	3485.06
421.67	3501.44
421.86	3438.25
422.05	3496.76
422.24	3480.38
422.43	3597.40
422.61	3524.85
422.80	3471.01
422.99	3506.12
423.18	3676.98
423.37	3604.42
423.56	3520.17
423.75	3618.47
423.94	3524.85
424.13	3274.41
424.32	3375.05
424.50	3611.45
424.69	3686.34
424.88	3639.53
425.07	3559.95
425.26	3625.49
425.45	3541.23
425.64	3508.46
425.83	3599.74
426.01	3667.62
426.20	3669.96
426.39	3611.45
426.58	3559.95
426.77	3559.95
426.96	3658.26
427.15	3503.78
427.33	3646.55
427.52	3651.24
427.71	3627.83
427.90	3754.22
428.09	3798.69
428.28	3871.25
428.46	3754.22
428.65	3775.28
428.84	3871.25
429.03	3941.46
429.22	3761.24
429.40	3843.16
429.59	3843.16
429.78	3705.07
429.97	3829.12
430.16	3805.71
430.34	3999.98
430.53	3878.27
430.72	3812.73
430.91	3939.12
431.10	4095.94
431.28	4182.54
431.47	4168.49
431.66	4091.26
431.85	4011.68
432.03	4273.82
432.22	4128.70
432.41	4276.16
432.60	4402.55
432.79	4198.92
432.97	4486.81
433.16	4395.53
433.35	4231.69
433.54	4327.65
433.72	4311.27
433.91	4196.58
434.10	4432.97
434.28	4395.53
434.47	4404.89
434.66	4486.81
434.85	4379.14
435.03	4585.11
435.22	4484.47
435.41	4702.14
435.59	4613.20
435.78	4510.21
435.97	4655.33
436.16	4645.96
436.34	4741.93
436.53	4645.96
436.72	4760.65
436.90	4601.49
437.09	4737.24
437.28	4540.64
437.46	4648.30
437.65	4699.80
437.84	4650.64
438.02	4821.50
438.21	4713.84
438.40	4631.92
438.58	4952.57
438.77	5004.07
438.96	4854.27
439.14	5135.14
439.33	5111.73
439.52	5233.44
439.70	5142.16
439.89	5111.73
440.08	5210.03
440.26	5160.88
440.45	5210.03
440.63	5348.12
440.82	5408.98
441.01	5444.09
441.19	5533.03
441.38	5476.85
441.57	5397.28
441.75	5624.31
441.94	5776.44
442.12	5790.49
442.31	5893.47
442.50	5790.49
442.68	5757.72
442.87	5673.46
443.05	5804.53
443.24	5909.85
443.43	5771.76
443.61	5891.13
443.80	6113.48
443.98	5802.19
444.17	5605.58
444.35	5944.96
444.54	6033.90
444.73	5987.09
444.91	5851.34
445.10	5928.58
445.28	5891.13
445.47	5867.72
445.65	5968.37
445.84	5937.94
446.02	5930.92
446.21	5905.17
446.39	5811.55
446.58	6076.03
446.77	6069.01
446.95	5860.70
447.14	6101.78
447.32	6183.70
447.51	6033.90
447.69	5926.24
447.88	5905.17
448.06	5998.79
448.25	6003.47
448.43	6024.54
448.62	6141.57
448.80	6183.70
448.99	6188.38
449.17	6249.23
449.36	6291.36
449.54	6272.64
449.73	6450.52
449.91	6534.78
450.10	6403.71
450.28	6534.78
450.46	6569.88
450.65	6312.42
450.83	6443.49
451.02	6649.46
451.20	6630.74
451.39	6663.51
451.57	6572.22
451.76	6490.31
451.94	6700.95
452.13	6672.87
452.31	6466.90
452.49	6392.00
452.68	6633.08
452.86	6541.80
453.05	6771.17
453.23	6719.68
453.42	6626.06
453.60	6693.93
453.78	6719.68
453.97	6520.73
454.15	6705.63
454.34	6679.89
454.52	6761.81
454.70	6665.85
454.89	6761.81
455.07	6848.41
455.26	6967.77
455.44	6958.41
455.62	7178.42
455.81	6998.20
455.99	7133.95
456.17	7201.83
456.36	7063.74
456.54	7105.87
456.73	7449.93
456.91	7274.38
457.09	7386.73
457.28	7412.48
457.46	7321.20
457.64	7529.50
457.83	7407.80
458.01	7213.53
458.19	7597.38
458.38	7456.95
458.56	7571.63
458.74	7452.27
458.93	7473.33
459.11	7508.44
459.29	7478.01
459.48	7501.42
459.66	7534.18
459.84	7620.78
460.03	7758.88
460.21	7833.77
460.39	7562.27
460.57	7833.77
460.76	7566.95
460.94	7889.95
461.12	7714.41
461.31	7843.14
461.49	7723.77
461.67	7882.92
461.85	8081.87
462.04	8011.65
462.22	8547.64
462.40	8145.06
462.59	8163.79
462.77	7864.20
462.95	8414.23
463.13	8196.56
463.32	8250.39
463.50	8259.75
463.68	8252.73
463.86	8243.37
464.05	8013.99
464.23	8049.10
464.41	8344.01
464.59	8229.32
464.78	8374.44
464.96	8376.78
465.14	8283.16
465.32	8234.00
465.50	8517.21
465.69	8587.43
465.87	8519.55
466.05	8454.02
466.23	8376.78
466.41	8552.32
466.60	8636.58
466.78	8322.94
466.96	8341.67
467.14	8585.08
467.32	8542.96
467.51	8767.65
467.69	8458.70
467.87	8512.53
468.05	8865.95
468.23	8671.68
468.41	8772.33
468.60	8608.49
468.78	8755.94
468.96	8695.09
469.14	8887.01
469.32	9025.11
469.50	8816.80
469.69	9078.94
469.87	9095.32
470.05	9202.99
470.23	9083.62
470.41	8975.95
470.59	9060.21
470.77	9111.71
470.95	9085.96
471.14	9418.32
471.32	9341.08
471.50	9415.98
471.68	9458.10
471.86	9556.41
472.04	9441.72
472.22	9631.30
472.40	9221.71
472.58	9296.61
472.77	9516.62
472.95	9614.92
473.13	9914.51
473.31	9710.88
473.49	9643.01
473.67	9788.12
473.85	9832.59
474.03	10054.94
474.21	10015.15
474.39	10127.50
474.57	10057.28
474.75	10108.77
474.93	10307.72
475.12	10211.76
475.30	10169.63
475.48	10267.93
475.66	10492.62
475.84	10469.22
476.02	10548.79
476.20	10640.08
476.38	10576.88
476.56	10995.84
476.74	10850.72
476.92	10895.19
477.10	11012.22
477.28	11054.35
477.46	11164.36
477.64	11124.57
477.82	11377.34
478.00	11555.22
478.18	11426.50
478.36	11485.01
478.54	11833.75
478.72	12020.99
478.90	11901.62
479.08	11943.75
479.26	11910.99
479.44	11988.22
479.62	12166.10
479.80	12290.15
479.98	12318.24
480.16	12116.95
480.34	12437.61
480.52	12674.00
480.70	12929.12
480.88	12423.56
481.06	12613.15
481.24	12884.65
481.41	12849.54
481.59	13121.04
481.77	13209.98
481.95	13303.60
482.13	13446.38
482.31	13207.64
482.49	13818.52
482.67	13757.67
482.85	13851.29
483.03	13713.20
483.21	13961.30
483.39	14083.00
483.57	13956.61
483.74	14085.34
483.92	14487.92
484.10	14387.27
484.28	14867.08
484.46	15087.09
484.64	15197.10
484.82	15019.22
485.00	15028.58
485.18	15431.15
485.35	15239.23
485.53	15328.17
485.71	15328.17
485.89	15496.69
486.07	15316.47
486.25	15674.57
486.43	15484.98
486.61	15709.68
486.78	15995.22
486.96	16374.39
487.14	16407.16
487.32	16287.79
487.50	16720.79
487.68	16573.33
487.85	17144.42
488.03	17118.68
488.21	17322.30
488.39	17149.11
488.57	17696.79
488.75	17413.59
488.92	17830.20
489.10	18097.02
489.28	18045.53
489.46	18216.39
489.64	18134.47
489.81	18553.43
489.99	18466.83
490.17	18979.40
490.35	18843.65
490.53	18707.90
490.70	18925.57
490.88	18970.04
491.06	19566.88
491.24	19597.31
491.41	19428.79
491.59	19227.50
491.77	19309.42
491.95	19969.45
492.13	20159.03
492.30	20095.84
492.48	20013.92
492.66	20407.13
492.84	20325.21
493.01	20489.05
493.19	20318.19
493.37	20608.42
493.54	21036.74
493.72	21369.09
493.90	21174.83
494.08	21434.63
494.25	21453.35
494.43	21589.10
494.61	21598.46
494.79	21642.93
494.96	21825.50
495.14	21958.91
495.32	22167.21
495.49	22352.12
495.67	22317.01
495.85	22188.28
496.02	22565.10
496.20	22387.22
496.38	22911.50
496.55	22874.06
496.73	23194.71
496.91	23262.58
497.09	23360.89
497.26	23131.51
497.44	23232.16
497.62	23697.92
497.79	23700.26
497.97	23255.56
498.14	23845.38
498.32	23452.17
498.50	23901.55
498.67	24032.62
498.85	24332.21
499.03	24517.11
499.20	24446.90
499.38	24407.11
499.56	24587.33
499.73	24584.99
499.91	24542.86
500.08	25069.48
500.26	24545.20
500.44	24694.99
500.61	25188.85
500.79	25104.59
500.97	25238.00
501.14	25591.42
501.32	25439.28
501.49	25596.10
501.67	25275.45
501.84	25605.46
502.02	25656.95
502.20	25762.28
502.37	25956.54
502.55	25970.58
502.72	25933.14
502.90	26125.06
503.07	26567.42
503.25	26380.18
503.43	26267.83
503.60	26242.09
503.78	26375.50
503.95	26223.36
504.13	26703.17
504.30	27199.37
504.48	26927.86
504.65	27023.83
504.83	27054.25
505.01	27175.96
505.18	27213.41
505.36	27297.67
505.53	27178.30
505.71	27395.97
505.88	27714.28
506.06	27438.10
506.23	27704.92
506.41	27803.22
506.58	27927.27
506.76	27688.54
506.93	27964.72
507.11	27927.27
507.28	28268.99
507.46	28238.56
507.63	28374.31
507.81	28739.44
507.98	28353.25
508.16	28149.62
508.33	28608.37
508.50	28617.73
508.68	28849.44
508.85	29294.14
509.03	28978.17
509.20	29020.30
509.38	29364.36
509.55	29158.39
509.73	29109.24
509.90	29359.68
510.08	29371.38
510.25	29551.60
510.42	29867.58
510.60	29790.34
510.77	29900.34
510.95	30087.59
511.12	29958.86
511.30	30110.99
511.47	30331.00
511.64	30333.34
511.82	30436.33
511.99	30146.10
512.17	30515.90
512.34	30270.15
512.51	30874.01
512.69	31012.10
512.86	30508.88
513.04	31009.76
513.21	30960.61
513.38	30684.42
513.56	30984.01
513.73	31215.72
513.90	31145.51
514.08	30958.27
514.25	31424.03
514.43	31562.12
514.60	31335.09
514.77	31669.79
514.95	31761.07
515.12	31185.30
515.29	31807.88
515.47	32243.22
515.64	32575.58
515.81	31545.74
515.99	32065.34
516.16	31920.23
516.33	31997.46
516.51	32486.64
516.68	31599.57
516.85	32095.77
517.03	31772.77
517.20	31985.76
517.37	32165.98
517.54	32512.38
517.72	32367.27
517.89	32376.63
518.06	32336.84
518.24	32341.52
518.41	32706.65
518.58	32699.62
518.75	33050.70
518.93	32648.13
519.10	32945.38
519.27	33464.98
519.45	33041.34
519.62	33219.22
519.79	33558.60
519.96	33125.60
520.14	33818.40
520.31	33720.10
520.48	33628.82
520.65	33727.12
520.83	33883.94
521.00	33979.90
521.17	34024.37
521.34	34316.93
521.52	34005.64
521.69	34366.09
521.86	34565.03
522.03	34682.06
522.20	34073.52
522.38	34541.63
522.55	34717.17
522.72	34574.39
522.89	34520.56
523.07	34494.82
523.24	34684.40
523.41	34892.71
523.58	34616.52
523.75	35353.79
523.92	35328.05
524.10	34976.97
524.27	35445.07
524.44	35613.59
524.61	35424.01
524.78	35634.66
524.96	35529.33
525.13	35629.98
525.30	35992.76
525.47	35985.74
525.64	36165.96
525.81	35695.51
525.98	35548.06
526.16	35686.15
526.33	35398.26
526.50	36184.68
526.67	35941.27
526.84	35716.58
527.01	35814.88
527.18	36297.03
527.36	36474.91
527.53	36172.98
527.70	36788.54
527.87	36355.54
528.04	36671.51
528.21	36360.22
528.38	36531.08
528.55	37095.15
528.72	36491.29
528.89	37099.83
529.07	36886.84
529.24	36840.03
529.41	36669.17
529.58	36804.92
529.75	37331.54
529.92	36964.08
530.09	37158.34
530.26	37249.63
530.43	37003.87
530.60	37156.00
530.77	37156.00
530.94	37610.07
531.11	37446.23
531.28	37137.28
531.46	37422.83
531.63	37755.18
531.80	37565.60
531.97	37708.37
532.14	37675.60
532.31	37277.71
532.48	37837.10
532.65	38300.53
532.82	37694.33
532.99	38122.65
533.16	37771.57
533.33	38066.47
533.50	37979.87
533.67	37890.93
533.84	37970.51
534.01	38230.31
534.18	38459.68
534.35	38340.32
534.52	38211.59
534.69	38199.88
534.86	38260.74
535.03	38373.08
535.20	38614.16
535.37	39150.14
535.54	38934.81
535.71	38611.82
535.88	39009.71
536.05	38883.32
536.22	38913.75
536.38	38948.85
536.55	38752.25
536.72	39147.80
536.89	38651.61
537.06	38801.40
537.23	39428.66
537.40	38813.10
537.57	39325.68
537.74	39299.94
537.91	39959.97
538.08	39342.06
538.25	38850.55
538.42	39667.40
538.59	39489.52
538.75	39007.37
538.92	39435.69
539.09	39515.26
539.26	39629.95
539.43	39288.23
539.60	40034.86
539.77	39512.92
539.94	39833.58
540.11	39541.01
540.28	39505.90
540.44	39550.37
540.61	39756.34
540.78	39871.03
540.95	39377.17
541.12	39583.14
541.29	40034.86
541.46	39721.23
541.62	40084.01
541.79	39835.92
541.96	40203.38
542.13	40109.76
542.30	40067.63
542.47	40517.01
542.63	40130.83
542.80	40495.95
542.97	40669.15
543.14	41006.19
543.31	41380.67
543.48	40870.43
543.64	40994.48
543.81	40830.65
543.98	40926.61
544.15	40652.76
544.32	41148.96
544.48	41078.74
544.65	41347.90
544.82	41251.94
544.99	41209.81
545.16	41106.83
545.32	41298.75
545.49	41521.10
545.66	41359.61
545.83	41521.10
546.00	41935.38
546.16	41537.49
546.33	41375.99
546.50	41074.06
546.67	41191.09
546.83	41109.17
547.00	41638.13
547.17	41422.80
547.34	41516.42
547.50	41708.35
547.67	41909.63
547.84	41546.85
548.00	41923.68
548.17	41787.92
548.34	41537.49
548.51	42099.22
548.67	42206.88
548.84	42244.33
549.01	42061.77
549.18	41851.12
549.34	41574.94
549.51	42213.90
549.68	42548.60
549.84	42382.42
550.01	42274.76
550.18	42309.86
550.34	42513.49
550.51	42267.73
550.68	42005.59
550.84	42267.73
551.01	42597.75
551.18	42330.93
551.34	41918.99
551.51	42663.28
551.68	42447.96
551.84	42644.56
552.01	42717.12
552.18	42087.51
552.34	42241.99
552.51	42696.05
552.68	42766.27
552.84	42583.71
553.01	42951.17
553.18	42733.50
553.34	42721.80
553.51	42941.81
553.67	42810.74
553.84	42656.26
554.01	43236.72
554.17	43367.79
554.34	43246.08
554.51	43239.06
554.67	42820.10
554.84	43140.75
555.00	43049.47
555.17	42827.12
555.33	42993.30
555.50	42548.60
555.67	43257.78
555.83	43220.33
556.00	43250.76
556.16	43199.27
556.33	43374.81
556.50	43768.02
556.66	43435.66
556.83	43210.97
556.99	43763.34
557.16	43430.98
557.32	43702.48
557.49	43428.64
557.65	43103.31
557.82	43761.00
557.98	43311.61
558.15	43475.45
558.32	43344.38
558.48	43449.70
558.65	43442.68
558.81	43475.45
558.98	43306.93
559.14	43880.36
559.31	43985.69
559.47	43725.89
559.64	43903.77
559.80	43711.84
559.97	43992.71
560.13	43564.39
560.30	43278.85
560.46	43402.89
560.63	43882.70
560.79	44135.48
560.96	43999.73
561.12	43988.03
561.29	44208.04
561.45	43634.61
561.61	43845.26
561.78	43838.23
561.94	43988.03
562.11	43761.00
562.27	44098.03
562.44	44318.04
562.60	44149.53
562.77	44172.93
562.93	44208.04
563.10	44591.89
563.26	43854.62
563.42	44158.89
563.59	44123.78
563.75	43945.90
563.92	44589.55
564.08	43878.02
564.24	44746.36
564.41	44091.01
564.57	44245.49
564.74	44107.40
564.90	44175.27
565.07	44112.08
565.23	44868.07
565.39	44409.32
565.56	44194.00
565.72	44123.78
565.88	44622.31
566.05	44257.19
566.21	44346.13
566.38	44051.22
566.54	44266.55
566.70	44360.17
566.87	44432.73
567.03	44435.07
567.19	44364.85
567.36	44807.22
567.52	44392.94
567.68	45010.84
567.85	44900.84
568.01	44851.69
568.17	44474.86
568.34	44769.77
568.50	44760.40
568.66	44137.82
568.83	44680.83
568.99	44514.65
569.15	44395.28
569.32	44516.99
569.48	44556.78
569.64	44617.63
569.81	44278.25
569.97	44779.13
570.13	44493.58
570.30	44385.92
570.46	44397.62
570.62	44114.42
570.78	44474.86
570.95	44062.93
571.11	45057.65
571.27	44423.37
571.43	45092.76
571.60	44577.84
571.76	44540.39
571.92	45277.66
572.09	44502.95
572.25	44854.03
572.41	44854.03
572.57	44425.71
572.74	45390.01
572.90	44835.30
573.06	44718.28
573.22	44671.46
573.38	44545.08
573.55	44547.42
573.71	45038.93
573.87	44208.04
574.03	44254.85
574.20	44540.39
574.36	44369.54
574.52	45134.89
574.68	45008.50
574.84	45069.36
575.01	44954.67
575.17	44556.78
575.33	44432.73
575.49	44933.60
575.65	45242.56
575.82	45024.89
575.98	45050.63
576.14	44973.39
576.30	45020.20
576.46	44397.62
576.62	44531.03
576.79	44739.34
576.95	44341.45
577.11	44636.36
577.27	44582.52
577.43	45247.24
577.59	44751.04
577.75	44722.96
577.92	44404.64
578.08	44659.76
578.24	44491.24
578.40	44788.49
578.56	44879.77
578.72	45116.17
578.88	44957.01
579.04	44865.73
579.21	45109.14
579.37	44648.06
579.53	45167.66
579.69	44563.80
579.85	44849.35
580.01	44816.58
580.17	44741.68
580.33	44713.59
580.49	45453.20
580.65	45043.61
580.82	45181.70
580.98	44727.64
581.14	45102.12
581.30	44987.44
581.46	44891.48
581.62	45062.33
581.78	44959.35
581.94	44968.71
582.10	44737.00
582.26	45315.11
582.42	44872.75
582.58	45038.93
582.74	44882.11
582.90	45258.94
583.06	44877.43
583.22	44849.35
583.38	45373.63
583.54	45041.27
583.70	44816.58
583.86	44825.94
584.02	44343.79
584.18	44772.11
584.34	45551.51
584.50	45382.99
584.66	44928.92
584.82	45111.49
584.98	45581.93
585.14	44968.71
585.30	44863.39
585.46	45207.45
585.62	45064.67
585.78	45055.31
585.94	44451.45
586.10	45024.89
586.26	44889.13
586.42	44980.42
586.58	45137.23
586.74	44975.73
586.90	44772.11
587.06	44725.30
587.22	45272.98
587.38	44718.28
587.54	45319.79
587.70	45331.50
587.86	45162.98
588.02	45081.06
588.18	45684.92
588.34	44772.11
588.49	44811.90
588.65	44582.52
588.81	45031.91
588.97	45008.50
589.13	44865.73
589.29	45242.56
589.45	45125.53
589.61	45401.71
589.77	45017.86
589.93	45762.15
590.08	45425.12
590.24	45326.81
