SpectraSuite Data File
++++++++++++++++++++++++++++++++++++
Date: Fri Oct 25 10:43:37 EDT 2013
User: price-jones
Dark Spectrum Present: No
Reference Spectrum Present: No
Number of Sampled Component Spectra: 1
Spectrometers: USB2+H05261
Integration Time (usec): 100000 (USB2+H05261)
Spectra Averaged: 1 (USB2+H05261)
Boxcar Smoothing: 0 (USB2+H05261)
Correct for Electrical Dark: No (USB2+H05261)
Strobe/Lamp Enabled: No (USB2+H05261)
Correct for Detector Non-linearity: No (USB2+H05261)
Correct for Stray Light: No (USB2+H05261)
Number of Pixels in Processed Spectrum: 2048
>>>>>Begin Processed Spectral Data<<<<<
365.73	98.30
365.92	98.30
366.12	98.30
366.32	60.85
366.52	4.68
366.72	102.98
366.91	0.00
367.11	0.00
367.31	0.00
367.51	32.77
367.70	25.75
367.90	56.17
368.10	39.79
368.30	0.00
368.49	0.00
368.69	37.45
368.89	110.01
369.09	60.85
369.28	0.00
369.48	14.04
369.68	42.13
369.87	88.94
370.07	112.35
370.27	140.43
370.47	191.92
370.66	404.91
370.86	388.53
371.06	479.81
371.25	498.53
371.45	482.15
371.65	458.74
371.84	407.25
372.04	458.74
372.24	519.60
372.44	519.60
372.63	500.87
372.83	524.28
373.03	507.90
373.22	517.26
373.42	472.79
373.62	543.00
373.81	475.13
374.01	610.88
374.21	540.66
374.40	538.32
374.60	636.63
374.79	519.60
374.99	550.03
375.19	505.56
375.38	624.92
375.58	601.52
375.78	596.84
375.97	578.11
376.17	559.39
376.37	622.58
376.56	655.35
376.76	627.26
376.95	550.03
377.15	688.12
377.35	627.26
377.54	704.50
377.74	688.12
377.93	643.65
378.13	681.10
378.33	688.12
378.52	599.18
378.72	678.76
378.91	631.94
379.11	643.65
379.31	564.07
379.50	566.41
379.70	699.82
379.89	770.04
380.09	671.73
380.28	660.03
380.48	702.16
380.68	697.48
380.87	662.37
381.07	716.20
381.26	772.38
381.46	702.16
381.65	816.85
381.85	695.14
382.04	685.78
382.24	662.37
382.43	737.27
382.63	763.01
382.83	709.18
383.02	730.25
383.22	791.10
383.41	674.07
383.61	737.27
383.80	788.76
384.00	791.10
384.19	763.01
384.39	870.68
384.58	833.23
384.78	798.12
384.97	786.42
385.17	720.88
385.36	678.76
385.56	788.76
385.75	791.10
385.95	847.27
386.14	870.68
386.34	837.91
386.53	805.14
386.72	849.61
386.92	882.38
387.11	875.36
387.31	884.72
387.50	842.59
387.70	889.40
387.89	842.59
388.09	910.47
388.28	903.45
388.48	959.62
388.67	880.04
388.86	856.64
389.06	980.68
389.25	1013.45
389.45	1055.58
389.64	1039.20
389.84	1125.80
390.03	1071.97
390.22	1053.24
390.42	973.66
390.61	1055.58
390.81	1025.15
391.00	1064.94
391.19	1104.73
391.39	1015.79
391.58	1071.97
391.78	987.71
391.97	1006.43
392.16	1006.43
392.36	1048.56
392.55	1097.71
392.75	1027.50
392.94	959.62
393.13	1041.54
393.33	1029.84
393.52	1041.54
393.71	1125.80
393.91	1181.97
394.10	1104.73
394.29	1163.25
394.49	1219.42
394.68	1233.46
394.88	1233.46
395.07	1226.44
395.26	1280.27
395.46	1291.98
395.65	1275.59
395.84	1149.20
396.04	1284.95
396.23	1172.61
396.42	1135.16
396.62	1210.06
396.81	1210.06
397.00	1362.19
397.19	1359.85
397.39	1352.83
397.58	1404.32
397.77	1376.24
397.97	1427.73
398.16	1507.30
398.35	1420.71
398.55	1418.36
398.74	1430.07
398.93	1533.05
399.12	1472.20
399.32	1528.37
399.51	1526.03
399.70	1561.14
399.90	1411.34
400.09	1565.82
400.28	1736.68
400.47	1727.32
400.67	1678.16
400.86	1572.84
401.05	1769.44
401.24	1769.44
401.44	1762.42
401.63	1715.61
401.82	1659.44
402.01	1729.66
402.21	1762.42
402.40	1790.51
402.59	1685.19
402.78	1806.89
402.97	1813.92
403.17	1809.23
403.36	1783.49
403.55	1954.35
403.74	1886.47
403.93	1858.39
404.13	1877.11
404.32	1865.41
404.51	1849.02
404.70	1989.46
404.89	1884.13
405.09	1977.75
405.28	1963.71
405.47	2012.86
405.66	2062.01
405.85	1954.35
406.05	2073.71
406.24	2122.87
406.43	1987.11
406.62	2083.08
406.81	2188.40
407.00	2172.02
407.20	2092.44
407.39	2101.80
407.58	2174.36
407.77	2256.28
407.96	2146.27
408.15	2221.17
408.34	2172.02
408.54	2314.79
408.73	2312.45
408.92	2275.00
409.11	2193.08
409.30	2310.11
409.49	2342.88
409.68	2293.72
409.87	2342.88
410.07	2410.75
410.26	2352.24
410.45	2464.58
410.64	2331.17
410.83	2431.82
411.02	2539.48
411.21	2649.49
411.40	2663.53
411.59	2796.94
411.78	2757.15
411.98	2691.62
412.17	2654.17
412.36	2752.47
412.55	2778.22
412.74	2766.51
412.93	2829.71
413.12	2597.99
413.31	2977.16
413.50	2935.03
413.69	2871.84
413.88	3000.57
414.07	2923.33
414.26	3002.91
414.45	3047.38
414.64	2986.52
414.83	3133.98
415.02	3117.59
415.22	3136.32
415.41	3211.22
415.60	3141.00
415.79	3346.97
415.98	3232.28
416.17	3295.47
416.36	3251.00
416.55	3197.17
416.74	3337.60
416.93	3279.09
417.12	3368.03
417.31	3307.18
417.50	3304.84
417.69	3316.54
417.88	3386.76
418.07	3485.06
418.26	3513.14
418.45	3435.91
418.64	3632.51
418.83	3604.42
419.02	3637.19
419.21	3688.68
419.39	3646.55
419.58	3644.21
419.77	3655.92
419.96	3658.26
420.15	3786.99
420.34	3808.05
420.53	3716.77
420.72	3836.14
420.91	3791.67
421.10	3995.29
421.29	3962.53
421.48	3796.35
421.67	3810.39
421.86	3808.05
422.05	3843.16
422.24	3817.41
422.43	3857.20
422.61	3791.67
422.80	3964.87
422.99	3871.25
423.18	3997.64
423.37	3988.27
423.56	4131.05
423.75	3974.23
423.94	3852.52
424.13	3763.58
424.32	3840.82
424.50	4147.43
424.69	4222.33
424.88	4093.60
425.07	3913.38
425.26	3995.29
425.45	3948.48
425.64	4072.53
425.83	3985.93
426.01	4079.55
426.20	4016.36
426.39	4095.94
426.58	3934.44
426.77	4042.11
426.96	4109.98
427.15	4065.51
427.33	4147.43
427.52	4107.64
427.71	4025.72
427.90	4135.73
428.09	4308.93
428.28	4189.56
428.46	4194.24
428.65	4037.42
428.84	4341.69
429.03	4245.73
429.22	4175.52
429.40	4175.52
429.59	4250.41
429.78	3934.44
429.97	3955.51
430.16	4028.06
430.34	4149.77
430.53	4196.58
430.72	4292.54
430.91	4229.35
431.10	4409.57
431.28	4500.85
431.47	4727.88
431.66	4641.28
431.85	4676.39
432.03	4676.39
432.22	4744.27
432.41	4755.97
432.60	4805.12
432.79	4748.95
432.97	4922.15
433.16	4802.78
433.35	4798.10
433.54	4688.09
433.72	4781.71
433.91	4716.18
434.10	4809.80
434.28	4795.76
434.47	5046.20
434.66	5041.51
434.85	4985.34
435.03	4954.91
435.22	5069.60
435.41	5144.50
435.59	5261.52
435.78	5172.58
435.97	5203.01
436.16	5132.79
436.34	5298.97
436.53	5259.18
436.72	5404.30
436.90	5093.01
437.09	5235.78
437.28	5254.50
437.46	5203.01
437.65	5219.39
437.84	5399.62
438.02	5177.26
438.21	5233.44
438.40	5376.21
438.58	5495.58
438.77	5572.82
438.96	5481.53
439.14	5741.33
439.33	5790.49
439.52	5767.08
439.70	5797.51
439.89	5788.14
440.08	5706.23
440.26	5811.55
440.45	5710.91
440.63	5994.11
440.82	6071.35
441.01	6005.81
441.19	6005.81
441.38	6190.72
441.57	6136.88
441.75	6242.21
441.94	6289.02
442.12	6595.63
442.31	6333.49
442.50	6408.39
442.68	6251.57
442.87	6354.55
443.05	6436.47
443.24	6469.24
443.43	6473.92
443.61	6733.72
443.80	6658.82
443.98	6298.38
444.17	6232.85
444.35	6864.79
444.54	6663.51
444.73	6576.91
444.91	6487.96
445.10	6661.16
445.28	6541.80
445.47	6258.59
445.65	6506.69
445.84	6532.44
446.02	6600.31
446.21	6651.80
446.39	6663.51
446.58	6848.41
446.77	6700.95
446.95	6434.13
447.14	6803.94
447.32	6904.58
447.51	6663.51
447.69	6787.55
447.88	6691.59
448.06	6733.72
448.25	6817.98
448.43	6665.85
448.62	6864.79
448.80	6766.49
448.99	6913.94
449.17	7005.22
449.36	6857.77
449.54	7075.44
449.73	7222.89
449.91	7098.84
450.10	7267.36
450.28	7344.60
450.46	7492.05
450.65	7447.58
450.83	7124.59
451.02	7105.87
451.20	7304.81
451.39	7463.97
451.57	7171.40
451.76	7269.70
451.94	7293.11
452.13	7398.43
452.31	7314.17
452.49	7148.00
452.68	7267.36
452.86	7391.41
453.05	7370.35
453.23	7400.77
453.42	7304.81
453.60	7421.84
453.78	7424.18
453.97	7538.87
454.15	7508.44
454.34	7473.33
454.52	7585.68
454.70	7585.68
454.89	7595.04
455.07	7756.54
455.26	7672.28
455.44	7847.82
455.62	7836.11
455.81	7885.26
455.99	7929.74
456.17	7932.08
456.36	7838.45
456.54	8095.91
456.73	8016.33
456.91	8390.82
457.09	8241.03
457.28	8559.34
457.46	8053.78
457.64	8196.56
457.83	8163.79
458.01	8184.85
458.19	8372.10
458.38	8285.50
458.56	8196.56
458.74	8308.90
458.93	8407.20
459.11	8578.06
459.29	8449.33
459.48	8344.01
459.66	8409.54
459.84	8535.93
460.03	8580.40
460.21	8456.36
460.39	8709.13
460.57	8741.90
460.76	8760.63
460.94	8865.95
461.12	8681.05
461.31	8954.89
461.49	8641.26
461.67	8741.90
461.85	8908.08
462.04	8872.97
462.22	9397.25
462.40	8987.66
462.59	9100.00
462.77	8943.19
462.95	9022.77
463.13	9092.98
463.32	8870.63
463.50	9156.18
463.68	9291.93
463.86	9114.05
464.05	8985.32
464.23	8905.74
464.41	9125.75
464.59	9125.75
464.78	9202.99
464.96	9242.78
465.14	9221.71
465.32	9181.92
465.50	9415.98
465.69	9404.27
465.87	9322.35
466.05	9289.59
466.23	9334.06
466.41	9371.50
466.60	9453.42
466.78	9572.79
466.96	9343.42
467.14	9448.74
467.32	9369.16
467.51	9502.58
467.69	9479.17
467.87	9479.17
468.05	9668.75
468.23	9771.74
468.41	9738.97
468.60	9596.20
468.78	9652.37
468.96	9554.07
469.14	9724.93
469.32	9909.83
469.50	9563.43
469.69	9984.73
469.87	10076.01
470.05	9851.31
470.23	9926.21
470.41	10059.62
470.59	10085.37
470.77	10101.75
470.95	10076.01
471.14	10338.15
471.32	10101.75
471.50	10239.84
471.68	10366.23
471.86	10691.57
472.04	10651.78
472.22	10619.01
472.40	10574.54
472.58	10490.28
472.77	10516.03
472.95	10712.63
473.13	10761.78
473.31	10743.06
473.49	10801.57
473.67	10832.00
473.85	10752.42
474.03	11052.01
474.21	11166.70
474.39	11178.40
474.57	11199.46
474.75	11349.26
474.93	11410.11
475.12	11543.52
475.30	11370.32
475.48	11307.13
475.66	11461.60
475.84	11475.65
476.02	11517.78
476.20	11417.13
476.38	11812.68
476.56	12060.78
476.74	11934.39
476.92	12119.29
477.10	12058.44
477.28	12212.92
477.46	12194.19
477.64	12582.72
477.82	12500.80
478.00	12910.40
478.18	12681.02
478.36	12772.30
478.54	13036.78
478.72	13153.81
478.90	13078.91
479.08	13181.90
479.26	13214.66
479.44	13336.37
479.62	13371.48
479.80	13511.91
479.98	13675.75
480.16	13703.84
480.34	13675.75
480.52	13855.97
480.70	14010.45
480.88	13659.37
481.06	14019.81
481.24	14242.16
481.41	14473.87
481.59	14246.84
481.77	14473.87
481.95	14541.75
482.13	14789.85
482.31	14757.08
482.49	15035.60
482.67	14860.06
482.85	15103.48
483.03	15201.78
483.21	15218.16
483.39	15412.43
483.57	15824.36
483.74	15775.21
483.92	15709.68
484.10	15800.96
484.28	16140.33
484.46	16561.63
484.64	16510.14
484.82	16407.16
485.00	16280.77
485.18	16510.14
485.35	16507.80
485.53	16135.65
485.71	16224.59
485.89	16622.48
486.07	16760.58
486.25	17006.33
486.43	17020.38
486.61	17135.06
486.78	17301.24
486.96	17668.70
487.14	17848.93
487.32	17937.87
487.50	18085.32
487.68	18195.32
487.85	18450.44
488.03	18602.58
488.21	18948.98
488.39	18815.57
488.57	19014.51
488.75	18932.59
488.92	19321.12
489.10	19674.54
489.28	19777.53
489.46	19674.54
489.64	19889.87
489.81	20643.52
489.99	20357.98
490.17	20432.88
490.35	20739.49
490.53	20526.50
490.70	20915.03
490.88	20837.79
491.06	20795.66
491.24	21081.21
491.41	21041.42
491.59	21088.23
491.77	20891.62
491.95	21350.37
492.13	21558.67
492.30	21834.86
492.48	21853.58
492.66	21930.82
492.84	22340.41
493.01	22263.18
493.19	22211.68
493.37	22438.72
493.54	22356.80
493.72	22810.86
493.90	22724.26
494.08	23040.23
494.25	23337.48
494.43	23302.37
494.61	23529.41
494.79	23868.78
494.96	23475.57
495.14	23737.71
495.32	24189.44
495.49	24112.20
495.67	23983.47
495.85	24727.76
496.02	24690.31
496.20	24505.41
496.38	24329.87
496.55	24886.92
496.73	25280.13
496.91	24854.15
497.09	25373.75
497.26	25390.13
497.44	25427.58
497.62	25366.73
497.79	25797.38
497.97	25312.89
498.14	25642.91
498.32	25872.28
498.50	25893.35
498.67	26141.44
498.85	26434.01
499.03	26544.02
499.20	26569.76
499.38	26494.86
499.56	26899.78
499.73	26555.72
499.91	26831.90
500.08	26642.32
500.26	26969.99
500.44	26962.97
500.61	26862.33
500.79	26658.70
500.97	27072.98
501.14	27711.94
501.32	27140.85
501.49	27487.25
501.67	27316.39
501.84	27740.03
502.02	27754.07
502.20	27922.59
502.37	28409.42
502.55	28187.07
502.72	28577.94
502.90	28046.64
503.07	28341.55
503.25	27920.25
503.43	28371.97
503.60	28236.22
503.78	28339.21
503.95	28245.58
504.13	28732.42
504.30	28996.90
504.48	28800.29
504.65	29518.84
504.83	29249.67
505.01	29799.70
505.18	29525.86
505.36	29673.31
505.53	29577.35
505.71	30043.12
505.88	29975.24
506.06	29717.78
506.23	30263.13
506.41	29694.38
506.58	30066.52
506.76	29834.81
506.93	30251.42
507.11	30225.68
507.28	30054.82
507.46	30347.39
507.63	30127.38
507.81	30391.86
507.98	30150.78
508.16	30590.80
508.33	30960.61
508.50	30967.63
508.68	30976.99
508.85	31407.65
509.03	31220.41
509.20	31367.86
509.38	31412.33
509.55	31452.12
509.73	31800.86
509.90	31454.46
510.08	31761.07
510.25	31716.60
510.42	31866.39
510.60	31782.13
510.77	31929.59
510.95	32589.62
511.12	32196.41
511.30	32259.60
511.47	32690.26
511.64	32444.51
511.82	32917.29
511.99	32350.88
512.17	32790.91
512.34	32772.18
512.51	32835.38
512.69	32917.29
512.86	32655.15
513.04	33233.27
513.21	33060.07
513.38	33219.22
513.56	33060.07
513.73	33338.59
513.90	33212.20
514.08	33036.66
514.25	33326.89
514.43	33640.52
514.60	33792.65
514.77	33755.21
514.95	33752.87
515.12	33806.70
515.29	33635.84
515.47	34148.42
515.64	34258.42
515.81	34101.61
515.99	34204.59
516.16	34015.01
516.33	33979.90
516.51	33947.13
516.68	33472.00
516.85	33263.69
517.03	33858.19
517.20	34038.41
517.37	34630.57
517.54	34778.02
517.72	34567.37
517.89	34260.76
518.06	34211.61
518.24	34829.51
518.41	34841.21
518.58	34576.73
518.75	35124.42
518.93	35175.91
519.10	35084.63
519.27	35538.69
519.45	35601.89
519.62	35557.42
519.79	35489.54
519.96	35915.52
520.14	35775.09
520.31	35686.15
520.48	35749.34
520.65	36011.48
520.83	36051.27
521.00	35959.99
521.17	36343.84
521.34	36425.76
521.52	36481.93
521.69	36226.81
521.86	36353.20
522.03	36470.23
522.20	36617.68
522.38	36751.09
522.55	36629.38
522.72	36521.72
522.89	36456.18
523.07	36987.49
523.24	37038.98
523.41	37141.96
523.58	37029.62
523.75	37317.50
523.92	37345.59
524.10	37539.85
524.27	37654.54
524.44	37546.87
524.61	37277.71
524.78	37816.04
524.96	37954.13
525.13	37846.46
525.30	37937.74
525.47	37958.81
525.64	38171.80
525.81	37668.58
525.98	37603.05
526.16	37715.39
526.33	37399.42
526.50	37654.54
526.67	37518.79
526.84	37570.28
527.01	37598.37
527.18	37991.58
527.36	38536.92
527.53	38471.39
527.70	39220.36
527.87	38478.41
528.04	38485.43
528.21	38658.63
528.38	38548.62
528.55	38831.83
528.72	39168.87
528.89	39108.01
529.07	38960.56
529.24	38850.55
529.41	39051.84
529.58	38859.91
529.75	39449.73
529.92	39332.70
530.09	39316.32
530.26	39515.26
530.43	39641.65
530.60	39578.46
530.77	39674.42
530.94	39849.96
531.11	40215.08
531.28	40055.93
531.46	39665.06
531.63	39791.45
531.80	39374.83
531.97	40011.46
532.14	39974.01
532.31	39356.11
532.48	39866.34
532.65	39658.04
532.82	39639.31
532.99	39997.41
533.16	40062.95
533.33	39889.75
533.50	40467.86
533.67	40334.45
533.84	39817.19
534.01	40428.07
534.18	40701.92
534.35	40720.64
534.52	40620.00
534.69	40905.54
534.86	40587.23
535.03	40905.54
535.20	41228.54
535.37	41111.51
535.54	41523.44
535.71	40868.09
535.88	40940.65
536.05	40751.07
536.22	41570.25
536.38	40938.31
536.55	40891.50
536.72	40917.25
536.89	40917.25
537.06	40856.39
537.23	41633.45
537.40	41296.41
537.57	41354.93
537.74	41394.71
537.91	41563.23
538.08	41411.10
538.25	40996.82
538.42	41429.82
538.59	41691.96
538.75	41507.06
538.92	41612.38
539.09	41979.85
539.26	41748.14
539.43	41263.64
539.60	41450.89
539.77	41336.20
539.94	41731.75
540.11	42251.35
540.28	41670.90
540.44	42085.17
540.61	41743.45
540.78	41511.74
540.95	41516.42
541.12	42026.66
541.29	41834.74
541.46	42541.58
541.62	42204.54
541.79	42246.67
541.96	41914.31
542.13	42024.32
542.30	42183.48
542.47	42185.82
542.63	41949.42
542.80	42370.72
542.97	42761.59
543.14	42623.50
543.31	42887.98
543.48	43044.79
543.64	43475.45
543.81	43320.98
543.98	42878.61
544.15	43117.35
544.32	42972.24
544.48	43063.52
544.65	43508.22
544.82	43093.94
544.99	43103.31
545.16	43115.01
545.32	43304.59
545.49	43473.11
545.66	43608.86
545.83	43936.54
546.00	43594.82
546.16	43079.90
546.33	43173.52
546.50	43351.40
546.67	43868.66
546.83	43335.02
547.00	43533.96
547.17	43592.48
547.34	43438.00
547.50	43515.24
547.67	43709.50
547.84	43695.46
548.00	44034.84
548.17	44107.40
548.34	44062.93
548.51	44198.68
548.67	44126.12
548.84	44343.79
549.01	43679.08
549.18	44009.09
549.34	44163.57
549.51	44034.84
549.68	44437.41
549.84	44095.69
550.01	44741.68
550.18	44619.97
550.34	43990.37
550.51	44051.22
550.68	44105.06
550.84	43917.81
551.01	44781.47
551.18	44041.86
551.34	44526.35
551.51	44437.41
551.68	44987.44
551.84	44304.00
552.01	44203.36
552.18	44453.79
552.34	44346.13
552.51	44556.78
552.68	44659.76
552.84	44615.29
553.01	44687.85
553.18	44706.57
553.34	44744.02
553.51	44610.61
553.67	44788.49
553.84	44900.84
554.01	45249.58
554.17	45022.54
554.34	44975.73
554.51	44851.69
554.67	45235.53
554.84	44893.82
555.00	44884.45
555.17	44641.04
555.33	44854.03
555.50	45289.37
555.67	44926.58
555.83	44898.50
556.00	45031.91
556.16	45382.99
556.33	45099.78
556.50	45071.70
556.66	45280.00
556.83	44760.40
556.99	45041.27
557.16	45574.91
557.32	45411.07
557.49	45425.12
557.65	45607.68
557.82	45074.04
557.98	45331.50
558.15	44949.99
558.32	45488.31
558.48	45092.76
558.65	45333.84
558.81	45841.73
558.98	45350.22
559.14	45677.90
559.31	45385.33
559.47	45052.97
559.64	45371.28
559.80	45422.78
559.97	45521.08
560.13	45387.67
560.30	45411.07
560.46	45516.40
560.63	45593.64
560.79	45935.35
560.96	45925.99
561.12	45284.68
561.29	45558.53
561.45	45413.41
561.61	45605.34
561.78	45436.82
561.94	45621.72
562.11	45776.20
562.27	45287.03
562.44	45851.09
562.60	45900.25
562.77	45799.60
562.93	46167.07
563.10	45928.33
563.26	45179.36
563.42	45947.06
563.59	45771.52
563.75	45745.77
563.92	45956.42
564.08	46045.36
564.24	46150.68
564.41	45823.01
564.57	46057.06
564.74	45958.76
564.90	45851.09
565.07	46010.25
565.23	45813.65
565.39	46052.38
565.56	45715.34
565.72	45806.62
565.88	45832.37
566.05	45944.72
566.21	45717.68
566.38	45614.70
566.54	45787.90
566.70	46204.52
566.87	46639.86
567.03	46300.48
567.19	46239.62
567.36	46136.64
567.52	45762.15
567.68	45881.52
567.85	46103.87
568.01	46391.76
568.17	45982.16
568.34	45996.21
568.50	46244.30
568.66	45883.86
568.83	46146.00
568.99	45769.18
569.15	45879.18
569.32	45925.99
569.48	45797.26
569.64	46518.15
569.81	46487.72
569.97	46101.53
570.13	46258.35
570.30	45918.97
570.46	46136.64
570.62	45654.49
570.78	45441.50
570.95	45965.78
571.11	46167.07
571.27	45872.16
571.43	45783.22
571.60	46302.82
571.76	46115.58
571.92	46138.98
572.09	46335.59
572.25	46270.05
572.41	46497.08
572.57	46550.91
572.74	46740.50
572.90	46340.27
573.06	46419.84
573.22	46356.65
573.38	46073.45
573.55	46312.18
573.71	46410.48
573.87	46557.94
574.03	46431.55
574.20	45972.80
574.36	46274.73
574.52	46239.62
574.68	46061.74
574.84	46005.57
575.01	45893.22
575.17	46223.24
575.33	45865.14
575.49	45986.85
575.65	46504.10
575.82	46227.92
575.98	45647.47
576.14	46532.19
576.30	46117.92
576.46	46522.83
576.62	46167.07
576.79	46277.07
576.95	46017.27
577.11	46445.59
577.27	46103.87
577.43	46258.35
577.59	45823.01
577.75	46237.28
577.92	45715.34
578.08	46073.45
578.24	45916.63
578.40	46024.29
578.56	45853.44
578.72	46019.61
578.88	46653.90
579.04	46464.32
579.21	46333.24
579.37	46202.18
579.53	46534.53
579.69	46164.73
579.85	46321.54
580.01	46377.72
580.17	46199.83
580.33	46270.05
580.49	46611.77
580.65	46003.23
580.82	46344.95
580.98	46536.87
581.14	46050.04
581.30	46244.30
581.46	46195.15
581.62	46586.02
581.78	46382.40
581.94	46286.43
582.10	46415.16
582.26	46380.06
582.42	46160.05
582.58	46719.43
582.74	46698.37
582.90	46185.79
583.06	46616.45
583.22	46504.10
583.38	46841.14
583.54	46328.56
583.70	46452.61
583.86	46784.97
584.02	46497.08
584.18	46312.18
584.34	46146.00
584.50	46698.37
584.66	46595.38
584.82	46141.32
584.98	46419.84
585.14	46305.16
585.30	46043.02
585.46	46232.60
585.62	45954.08
585.78	46284.09
585.94	46148.34
586.10	46574.32
586.26	46281.75
586.42	46457.29
586.58	46742.84
586.74	46155.36
586.90	46447.93
587.06	46567.30
587.22	46424.53
587.38	46412.82
587.54	46993.28
587.70	46499.42
587.86	46347.29
588.02	46539.21
588.18	46490.06
588.34	46391.76
588.49	45916.63
588.65	45902.59
588.81	45684.92
588.97	45986.85
589.13	46064.08
589.29	46054.72
589.45	46106.21
589.61	46520.49
589.77	46396.44
589.93	46754.54
