SpectraSuite Data File
++++++++++++++++++++++++++++++++++++
Date: Fri Oct 25 11:25:14 EDT 2013
User: price-jones
Dark Spectrum Present: No
Reference Spectrum Present: No
Number of Sampled Component Spectra: 1
Spectrometers: USB2+H05261
Integration Time (usec): 100000 (USB2+H05261)
Spectra Averaged: 1 (USB2+H05261)
Boxcar Smoothing: 0 (USB2+H05261)
Correct for Electrical Dark: No (USB2+H05261)
Strobe/Lamp Enabled: No (USB2+H05261)
Correct for Detector Non-linearity: No (USB2+H05261)
Correct for Stray Light: No (USB2+H05261)
Number of Pixels in Processed Spectrum: 2048
>>>>>Begin Processed Spectral Data<<<<<
365.73	248.10
365.92	248.10
366.12	248.10
366.32	142.77
366.52	187.24
366.72	156.82
366.91	156.82
367.11	114.69
367.31	142.77
367.51	154.48
367.70	77.24
367.90	182.56
368.10	135.75
368.30	154.48
368.49	138.09
368.69	131.07
368.89	81.92
369.09	147.45
369.28	236.39
369.48	145.11
369.68	175.54
369.87	159.16
370.07	149.79
370.27	238.73
370.47	269.16
370.66	545.34
370.86	617.90
371.06	627.26
371.25	697.48
371.45	624.92
371.65	763.01
371.84	622.58
372.04	702.16
372.24	739.61
372.44	653.01
372.63	781.74
372.83	727.91
373.03	784.08
373.22	723.23
373.42	727.91
373.62	856.64
373.81	744.29
374.01	805.14
374.21	800.46
374.40	788.76
374.60	844.93
374.79	767.70
374.99	809.83
375.19	863.66
375.38	847.27
375.58	840.25
375.78	784.08
375.97	861.32
376.17	938.55
376.37	882.38
376.56	837.91
376.76	908.13
376.95	795.78
377.15	861.32
377.35	922.17
377.54	926.85
377.74	987.71
377.93	877.70
378.13	849.61
378.33	947.92
378.52	887.06
378.72	863.66
378.91	957.28
379.11	894.08
379.31	973.66
379.50	959.62
379.70	980.68
379.89	915.15
380.09	938.55
380.28	980.68
380.48	943.24
380.68	990.05
380.87	978.34
381.07	898.77
381.26	980.68
381.46	1039.20
381.65	1029.84
381.85	999.41
382.04	964.30
382.24	1062.60
382.43	1025.15
382.63	1057.92
382.83	1074.31
383.02	1083.67
383.22	1125.80
383.41	1057.92
383.61	1074.31
383.80	1100.05
384.00	1151.54
384.19	1163.25
384.39	1050.90
384.58	1130.48
384.78	1139.84
384.97	1198.35
385.17	1198.35
385.36	1196.01
385.56	1153.88
385.75	1181.97
385.95	1116.44
386.14	1177.29
386.34	1125.80
386.53	1137.50
386.72	1121.12
386.92	1217.08
387.11	1238.14
387.31	1200.69
387.50	1158.57
387.70	1210.06
387.89	1291.98
388.09	1247.51
388.28	1238.14
388.48	1238.14
388.67	1488.58
388.86	1357.51
389.06	1299.00
389.25	1338.79
389.45	1315.38
389.64	1291.98
389.84	1366.87
390.03	1439.43
390.22	1493.26
390.42	1406.66
390.61	1411.34
390.81	1369.21
391.00	1348.15
391.19	1394.96
391.39	1385.60
391.58	1413.68
391.78	1348.15
391.97	1423.05
392.16	1446.45
392.36	1467.52
392.55	1537.73
392.75	1535.39
392.94	1528.37
393.13	1537.73
393.33	1516.67
393.52	1458.15
393.71	1540.07
393.91	1540.07
394.10	1593.90
394.29	1624.33
394.49	1593.90
394.68	1626.67
394.88	1603.27
395.07	1734.34
395.26	1568.16
395.46	1570.50
395.65	1661.78
395.84	1687.53
396.04	1797.53
396.23	1771.79
396.42	1687.53
396.62	1825.62
396.81	1732.00
397.00	1755.40
397.19	1734.34
397.39	1760.08
397.58	1797.53
397.77	1776.47
397.97	1764.76
398.16	1788.17
398.35	1900.52
398.55	1926.26
398.74	1949.67
398.93	1933.28
399.12	1912.22
399.32	1907.54
399.51	1926.26
399.70	1996.48
399.90	1987.11
400.09	2040.95
400.28	1998.82
400.47	1991.80
400.67	2040.95
400.86	1872.43
401.05	2111.16
401.24	2139.25
401.44	2085.42
401.63	2136.91
401.82	2155.63
402.01	2174.36
402.21	2209.47
402.40	2183.72
402.59	2165.00
402.78	2200.10
402.97	2207.13
403.17	2186.06
403.36	2275.00
403.55	2242.23
403.74	2286.70
403.93	2349.90
404.13	2326.49
404.32	2349.90
404.51	2298.41
404.70	2422.45
404.89	2413.09
405.09	2415.43
405.28	2520.76
405.47	2448.20
405.66	2497.35
405.85	2441.18
406.05	2445.86
406.24	2558.21
406.43	2530.12
406.62	2602.68
406.81	2628.42
407.00	2614.38
407.20	2551.18
407.39	2509.05
407.58	2532.46
407.77	2656.51
407.96	2654.17
408.15	2743.11
408.34	2719.70
408.54	2724.38
408.73	2764.17
408.92	2745.45
409.11	2960.78
409.30	2794.60
409.49	2946.73
409.68	2878.86
409.87	2890.56
410.07	2998.23
410.26	2972.48
410.45	2913.97
410.64	2970.14
410.83	3049.72
411.02	3082.49
411.21	3152.70
411.40	3232.28
411.59	3178.45
411.78	3225.26
411.98	3236.96
412.17	3218.24
412.36	3199.51
412.55	3311.86
412.74	3438.25
412.93	3349.31
413.12	3396.12
413.31	3581.02
413.50	3337.60
413.69	3368.03
413.88	3726.13
414.07	3342.28
414.26	3555.27
414.45	3667.62
414.64	3611.45
414.83	3845.50
415.02	3754.22
415.22	3765.92
415.41	3840.82
415.60	3892.31
415.79	3868.91
415.98	4065.51
416.17	4056.15
416.36	3936.78
416.55	3932.10
416.74	4044.45
416.93	3929.76
417.12	4133.39
417.31	4098.28
417.50	4044.45
417.69	4341.69
417.88	4222.33
418.07	4248.07
418.26	4184.88
418.45	4313.61
418.64	4358.08
418.83	4423.61
419.02	4564.04
419.21	4430.63
419.39	4542.98
419.58	4545.32
419.77	4376.80
419.96	4585.11
420.15	4613.20
420.34	4526.60
420.53	4664.69
420.72	4711.50
420.91	4652.98
421.10	4669.37
421.29	4699.80
421.48	4622.56
421.67	4788.74
421.86	4837.89
422.05	4910.44
422.24	4737.24
422.43	4870.65
422.61	4833.21
422.80	4833.21
422.99	5011.09
423.18	4983.00
423.37	4889.38
423.56	5013.43
423.75	4798.10
423.94	4837.89
424.13	4531.28
424.32	4718.52
424.50	4917.47
424.69	4917.47
424.88	4975.98
425.07	4915.12
425.26	4748.95
425.45	4854.27
425.64	4910.44
425.83	4891.72
426.01	4924.49
426.20	5151.52
426.39	5139.82
426.58	5053.22
426.77	5071.94
426.96	4950.23
427.15	4994.70
427.33	5025.13
427.52	5172.58
427.71	5336.42
427.90	5207.69
428.09	5296.63
428.28	5146.84
428.46	5476.85
428.65	5291.95
428.84	5343.44
429.03	5390.25
429.22	5249.82
429.40	5467.49
429.59	5392.59
429.78	5448.77
429.97	5231.10
430.16	5614.95
430.34	5626.65
430.53	5734.31
430.72	5668.78
430.91	5570.48
431.10	5781.12
431.28	5682.82
431.47	5930.92
431.66	5743.67
431.85	5682.82
432.03	5762.40
432.22	5872.40
432.41	5881.77
432.60	5755.38
432.79	5734.31
432.97	6059.65
433.16	6003.47
433.35	5916.87
433.54	5956.66
433.72	6029.22
433.91	6031.56
434.10	6085.39
434.28	6134.54
434.47	6136.88
434.66	6286.68
434.85	6176.67
435.03	6279.66
435.22	6349.87
435.41	6427.11
435.59	6366.26
435.78	6396.68
435.97	6246.89
436.16	6300.72
436.34	6504.35
436.53	6532.44
436.72	6661.16
436.90	6551.16
437.09	6574.56
437.28	6455.20
437.46	6572.22
437.65	6623.72
437.84	6630.74
438.02	6682.23
438.21	6523.07
438.40	6712.66
438.58	6977.14
438.77	7089.48
438.96	6998.20
439.14	7098.84
439.33	7019.27
439.52	7117.57
439.70	7222.89
439.89	7302.47
440.08	7295.45
440.26	7424.18
440.45	7169.06
440.63	7475.67
440.82	7487.37
441.01	7522.48
441.19	7466.31
441.38	7768.24
441.57	7763.56
441.75	7866.54
441.94	7808.03
442.12	7892.29
442.31	7969.52
442.50	7962.50
442.68	7805.69
442.87	7922.71
443.05	8100.59
443.24	8512.53
443.43	8175.49
443.61	8152.09
443.80	8435.29
443.98	8058.46
444.17	7653.55
444.35	8145.06
444.54	8411.89
444.73	8236.35
444.91	8313.58
445.10	8250.39
445.28	8203.58
445.47	8191.88
445.65	8243.37
445.84	8135.70
446.02	8388.48
446.21	8365.07
446.39	8184.85
446.58	8606.15
446.77	8472.74
446.95	8411.89
447.14	8315.92
447.32	8676.37
447.51	8437.63
447.69	8454.02
447.88	8439.97
448.06	8367.42
448.25	8393.16
448.43	8638.92
448.62	8659.98
448.80	8388.48
448.99	8681.05
449.17	8552.32
449.36	8641.26
449.54	8777.01
449.73	8910.42
449.91	8889.35
450.10	8772.33
450.28	9118.73
450.46	9071.92
450.65	9020.42
450.83	8929.14
451.02	8978.30
451.20	9029.79
451.39	9004.04
451.57	8954.89
451.76	9172.56
451.94	9170.22
452.13	9242.78
452.31	9167.88
452.49	9291.93
452.68	9343.42
452.86	9254.48
453.05	9345.76
453.23	9521.30
453.42	9245.12
453.60	9362.14
453.78	9390.23
453.97	9394.91
454.15	9483.85
454.34	9479.17
454.52	9715.56
454.70	9769.40
454.89	9575.13
455.07	9785.78
455.26	9968.34
455.44	9977.70
455.62	9958.98
455.81	9612.58
455.99	10134.52
456.17	9975.36
456.36	9963.66
456.54	10242.18
456.73	10080.69
456.91	10452.83
457.09	10420.06
457.28	10342.83
457.46	10281.97
457.64	10546.45
457.83	10457.51
458.01	10335.81
458.19	10586.24
458.38	10284.31
458.56	10766.46
458.74	10698.59
458.93	10619.01
459.11	10796.89
459.29	10707.95
459.48	10518.37
459.66	10714.97
459.84	10750.08
460.03	11026.26
460.21	10682.20
460.39	10764.12
460.57	11002.86
460.76	11047.33
460.94	11136.27
461.12	11201.80
461.31	10995.84
461.49	11052.01
461.67	11115.20
461.85	11370.32
462.04	11342.24
462.22	11737.79
462.40	11424.15
462.59	11499.05
462.77	11531.82
462.95	11311.81
463.13	11459.26
463.32	11548.20
463.50	11698.00
463.68	11740.13
463.86	11620.76
464.05	11522.46
464.23	11726.08
464.41	11845.45
464.59	11789.28
464.78	12060.78
464.96	11971.84
465.14	11885.24
465.32	11747.15
465.50	12028.01
465.69	12173.13
465.87	11868.86
466.05	12133.34
466.23	12095.89
466.41	12070.14
466.60	12449.31
466.78	12404.84
466.96	12182.49
467.14	12119.29
467.32	12428.24
467.51	12610.81
467.69	12074.82
467.87	12589.74
468.05	12545.27
468.23	12358.03
468.41	12365.05
468.60	12505.48
468.78	12470.37
468.96	12542.93
469.14	12695.07
469.32	13116.36
469.50	12599.10
469.69	12622.51
469.87	12915.08
470.05	12994.65
470.23	13177.22
470.41	12819.11
470.59	13254.45
470.77	13163.17
470.95	13165.51
471.14	13472.12
471.32	13107.00
471.50	13392.55
471.68	13472.12
471.86	13570.43
472.04	13591.49
472.22	13818.52
472.40	13575.11
472.58	13813.84
472.77	13834.91
472.95	13949.59
473.13	14583.88
473.31	14038.53
473.49	14012.79
473.67	14008.11
473.85	14384.93
474.03	14621.33
474.21	14665.80
474.39	14581.54
474.57	14628.35
474.75	14810.91
474.93	14808.57
475.12	14846.02
475.30	15253.27
475.48	14829.63
475.66	15161.99
475.84	15246.25
476.02	15253.27
476.20	15398.38
476.38	15639.46
476.56	15866.49
476.74	15852.45
476.92	15740.10
477.10	15651.16
477.28	16056.08
477.46	16091.18
477.64	16011.60
477.82	16283.11
478.00	16606.10
478.18	16816.75
478.36	16893.99
478.54	16971.22
478.72	16938.46
478.90	17188.89
479.08	17420.61
479.26	17415.93
479.44	17488.48
479.62	17509.55
479.80	17841.90
479.98	17975.31
480.16	18527.68
480.34	18143.83
480.52	18766.42
480.70	18445.76
480.88	18310.01
481.06	18637.69
481.24	18750.03
481.41	19051.96
481.59	19295.38
481.77	19351.55
481.95	19412.40
482.13	19735.40
482.31	19566.88
482.49	20147.33
482.67	20074.77
482.85	20376.70
483.03	20671.61
483.21	20783.96
483.39	20739.49
483.57	20795.66
483.74	21156.10
483.92	21392.50
484.10	21137.38
484.28	21518.89
484.46	22120.40
484.64	22511.27
484.82	22036.14
485.00	22312.33
485.18	22724.26
485.35	22965.34
485.53	22597.87
485.71	22927.89
485.89	23632.39
486.07	23253.22
486.25	23206.41
486.43	23765.80
486.61	23793.89
486.78	23772.82
486.96	23995.17
487.14	24540.52
487.32	24252.63
487.50	24526.47
487.68	24655.20
487.85	25294.17
488.03	25642.91
488.21	25790.36
488.39	25860.58
488.57	25694.40
488.75	26246.77
488.92	26190.59
489.10	26586.15
489.28	26335.71
489.46	27012.12
489.64	26834.24
489.81	27332.78
489.99	27283.62
490.17	27424.06
490.35	28278.35
490.53	28355.59
490.70	28053.66
490.88	28306.44
491.06	28613.05
491.24	28886.89
491.41	28804.97
491.59	29095.20
491.77	29223.93
491.95	29535.22
492.13	29998.65
492.30	30000.99
492.48	29755.23
492.66	30064.18
492.84	29977.58
493.01	30555.69
493.19	30328.66
493.37	30965.29
493.54	31082.31
493.72	30892.73
493.90	31108.06
494.08	31615.96
494.25	31945.97
494.43	31688.51
494.61	32198.75
494.79	32058.32
494.96	32547.49
495.14	32662.18
495.32	33214.54
495.49	33259.01
495.67	32924.32
495.85	33422.85
496.02	33603.07
496.20	33481.36
496.38	33696.69
496.55	34094.58
496.73	34237.36
496.91	34668.02
497.09	34958.24
497.26	34740.57
497.44	34803.77
497.62	34838.87
497.79	35557.42
497.97	35360.81
498.14	35515.29
498.32	36196.38
498.50	36088.72
498.67	36282.98
498.85	36470.23
499.03	36741.73
499.20	36435.12
499.38	36685.56
499.56	36629.38
499.73	36863.44
499.91	37055.36
500.08	37294.10
500.26	37261.33
500.44	37408.78
500.61	37488.36
500.79	37514.11
500.97	37879.23
501.14	38457.34
501.32	38223.29
501.49	38218.61
501.67	38670.33
501.84	38576.71
502.02	38363.72
502.20	38843.53
502.37	39161.84
502.55	39070.56
502.72	39463.77
502.90	39213.34
503.07	39208.65
503.25	39463.77
503.43	39379.51
503.60	39957.63
503.78	40023.16
503.95	40308.71
504.13	40467.86
504.30	40999.16
504.48	40575.53
504.65	40891.50
504.83	41207.47
505.01	41296.41
505.18	40849.37
505.36	41202.79
505.53	40935.97
505.71	41329.18
505.88	41743.45
506.06	41221.52
506.23	41745.80
506.41	41687.28
506.58	41776.22
506.76	41757.50
506.93	42277.10
507.11	41825.37
507.28	42384.76
507.46	42572.00
507.63	42342.63
507.81	42504.13
507.98	42536.90
508.16	42782.65
508.33	43131.39
508.50	43217.99
508.68	43229.69
508.85	43473.11
509.03	43906.11
509.20	43931.86
509.38	44142.50
509.55	44222.08
509.73	44254.85
509.90	44509.97
510.08	44552.10
510.25	44114.42
510.42	44432.73
510.60	44945.31
510.77	44910.20
510.95	45130.21
511.12	44896.16
511.30	45158.30
511.47	45090.42
511.64	45041.27
511.82	45684.92
511.99	45614.70
512.17	45666.19
512.34	45958.76
512.51	46171.75
512.69	46232.60
512.86	46108.55
513.04	46387.08
513.21	46438.57
513.38	46401.12
513.56	46436.23
513.73	46684.33
513.90	46569.64
514.08	46436.23
514.25	46972.21
514.43	46930.08
514.60	47138.39
514.77	47468.40
514.95	47349.04
515.12	47325.63
515.29	47665.01
515.47	47557.35
515.64	47763.31
515.81	47852.25
515.99	48212.70
516.16	48154.18
516.33	47969.28
516.51	48444.41
516.68	48018.43
516.85	48268.87
517.03	48369.51
517.20	48353.13
517.37	48669.10
517.54	48825.92
517.72	48430.36
517.89	48638.67
518.06	48999.12
518.24	49003.80
518.41	48992.09
518.58	49401.69
518.75	49158.27
518.93	49551.48
519.10	49141.89
519.27	49750.43
519.45	49514.03
519.62	49633.40
519.79	49624.04
519.96	49844.05
520.14	50089.80
520.31	50078.10
520.48	50162.36
520.65	50300.45
520.83	50417.48
521.00	50335.56
521.17	50160.02
521.34	50719.41
521.52	50658.56
521.69	50642.17
521.86	50710.05
522.03	50981.55
522.20	51182.84
522.38	51295.18
522.55	51449.66
522.72	51089.21
522.89	50768.56
523.07	51590.09
523.24	51309.22
523.41	51372.42
523.58	51281.14
523.75	51948.19
523.92	51688.39
524.10	51728.18
524.27	52266.50
524.44	51964.57
524.61	51985.64
524.78	51852.23
524.96	51948.19
525.13	52116.71
525.30	52442.04
525.47	52442.04
525.64	52041.81
525.81	52449.06
525.98	52655.03
526.16	52203.31
526.33	52435.02
526.50	52900.79
526.67	52624.60
526.84	52804.83
527.01	52704.18
527.18	52453.75
527.36	52559.07
527.53	52963.98
527.70	53148.88
527.87	52945.26
528.04	53209.74
528.21	53284.64
528.38	53027.18
528.55	53310.38
528.72	53167.61
528.89	53361.87
529.07	53382.94
529.24	53371.24
529.41	53806.58
529.58	53595.93
529.75	53546.78
529.92	53364.21
530.09	53785.51
530.26	53705.93
530.43	53790.19
530.60	53745.72
530.77	53759.76
530.94	54110.85
531.11	53895.52
531.28	54028.93
531.46	54045.31
531.63	54035.95
531.80	54012.54
531.97	54204.47
532.14	54199.79
532.31	54190.42
532.48	54248.94
532.65	54314.47
532.82	54155.32
532.99	54445.54
533.16	54178.72
533.33	54660.87
533.50	54915.99
533.67	54878.54
533.84	54319.15
534.01	54611.72
534.18	54766.20
534.35	55250.69
534.52	54859.82
534.69	55112.59
534.86	55040.04
535.03	54735.77
535.20	55037.70
535.37	54976.84
535.54	55238.98
535.71	54993.23
535.88	55395.80
536.05	55428.57
536.22	55393.46
536.38	55569.00
536.55	55543.25
536.72	55400.48
536.89	55515.17
537.06	55444.95
537.23	55613.47
537.40	55545.59
537.57	55374.73
537.74	55632.19
537.91	55884.97
538.08	55922.42
538.25	55447.29
538.42	55625.17
538.59	56067.53
538.75	55437.93
538.92	55742.20
539.09	56264.14
539.26	55936.46
539.43	55842.84
539.60	56102.64
539.77	56147.11
539.94	56217.33
540.11	56240.73
540.28	56231.37
540.44	56203.28
540.61	56491.17
540.78	56226.69
540.95	56568.41
541.12	56186.90
541.29	56439.68
541.46	56500.53
541.62	56449.04
541.79	56470.11
541.96	56285.20
542.13	56760.33
542.30	56533.30
542.47	56601.18
542.63	56699.48
542.80	56772.03
542.97	56889.06
543.14	57219.08
543.31	57080.98
543.48	56989.70
543.64	57209.71
543.81	57233.12
543.98	57277.59
544.15	57153.54
544.32	57240.14
544.48	57265.89
544.65	57324.40
544.82	57301.00
544.99	57139.50
545.16	57432.07
545.32	57359.51
545.49	57523.35
545.66	57701.23
545.83	57392.28
546.00	57689.52
546.16	57464.83
546.33	57347.81
546.50	57242.48
546.67	57425.04
546.83	57162.90
547.00	57434.41
547.17	57532.71
547.34	57567.82
547.50	57914.22
547.67	57787.83
547.84	57977.41
548.00	57895.49
548.17	57909.53
548.34	57841.66
548.51	58124.86
548.67	58061.67
548.84	57946.98
549.01	57832.30
549.18	58108.48
549.34	58066.35
549.51	58080.39
549.68	58401.05
549.84	58078.05
550.01	58312.11
550.18	58333.17
550.34	58230.19
550.51	58401.05
550.68	58363.60
550.84	57965.71
551.01	58253.59
551.18	58368.28
551.34	58316.79
551.51	58363.60
551.68	58337.85
551.84	58494.67
552.01	58188.06
552.18	58431.47
552.34	58356.58
552.51	58548.50
552.68	58389.34
552.84	58497.01
553.01	58686.59
553.18	58646.80
553.34	58857.45
553.51	58841.07
553.67	58513.39
553.84	58820.00
554.01	58890.22
554.17	59004.91
554.34	58735.74
554.51	58871.49
554.67	58920.65
554.84	58791.92
555.00	58731.06
555.17	58932.35
555.33	59023.63
555.50	58873.84
555.67	58981.50
555.83	58721.70
556.00	58946.39
556.16	59295.13
556.33	59023.63
556.50	59007.25
556.66	59182.79
556.83	59079.80
556.99	59388.75
557.16	59395.77
557.32	59271.73
557.49	59348.96
557.65	59255.34
557.82	59213.21
557.98	59449.61
558.15	59262.36
558.32	59482.37
558.48	59325.56
558.65	59313.86
558.81	59540.89
558.98	59377.05
559.14	59484.72
559.31	59337.26
559.47	59475.35
559.64	59332.58
559.80	59468.33
559.97	59620.47
560.13	59461.31
560.30	59599.40
560.46	59557.27
560.63	59714.09
560.79	59657.91
560.96	59870.90
561.12	59646.21
561.29	59620.47
561.45	59744.51
561.61	59732.81
561.78	59817.07
561.94	59608.76
562.11	59749.20
562.27	59751.54
562.44	59793.67
562.60	59707.07
562.77	59786.64
562.93	59760.90
563.10	60001.97
563.26	59875.58
563.42	59894.31
563.59	59931.76
563.75	59770.26
563.92	60055.81
564.08	59915.37
564.24	60177.51
564.41	59910.69
564.57	59938.78
564.74	60123.68
564.90	59943.46
565.07	59948.14
565.23	60062.83
565.39	60088.57
565.56	60161.13
565.72	60236.03
565.88	60053.47
566.05	60060.49
566.21	59948.14
566.38	60102.62
566.54	59950.48
566.70	60221.98
566.87	60231.35
567.03	60009.00
567.19	60395.18
567.36	60072.19
567.52	60367.10
567.68	60631.58
567.85	60140.07
568.01	60203.26
568.17	60226.66
568.34	60175.17
568.50	60285.18
568.66	60079.21
568.83	60327.31
568.99	60074.53
569.15	60245.39
569.32	60156.45
569.48	60308.58
569.64	60296.88
569.81	60303.90
569.97	60144.75
570.13	60371.78
570.30	60278.16
570.46	60179.85
570.62	60467.74
570.78	60313.26
570.95	60308.58
571.11	60526.25
571.27	60282.84
571.43	60224.32
571.60	60598.81
571.76	60367.10
571.92	60404.55
572.09	60528.59
572.25	60341.35
572.41	60324.97
572.57	60453.70
572.74	60591.79
572.90	60453.70
573.06	60371.78
573.22	60456.04
573.38	60589.45
573.55	60498.17
573.71	60678.39
573.87	60535.62
574.03	60544.98
574.20	60470.08
574.36	60402.21
574.52	60685.41
574.68	60624.56
574.84	60580.09
575.01	60610.51
575.17	60322.63
575.33	60617.53
575.49	60364.76
575.65	60523.91
575.82	60748.60
575.98	60505.19
576.14	60657.32
576.30	60547.32
576.46	60603.49
576.62	60720.52
576.79	60505.19
576.95	60488.80
577.11	60811.80
577.27	60725.20
577.43	60673.71
577.59	60727.54
577.75	60589.45
577.92	60568.38
578.08	60530.93
578.24	60788.39
578.40	60741.58
578.56	60832.86
578.72	60687.75
578.88	60750.94
579.04	60928.83
579.21	60713.50
579.37	60790.73
579.53	60905.42
579.69	60631.58
579.85	60673.71
580.01	60811.80
580.17	60715.84
580.33	60879.67
580.49	60858.61
580.65	60917.12
580.82	60755.63
580.98	60575.40
581.14	60729.88
581.30	60804.78
581.46	60762.65
581.62	60774.35
581.78	60523.91
581.94	60903.08
582.10	60762.65
582.26	60764.99
582.42	60804.78
582.58	60760.31
582.74	60654.98
582.90	60832.86
583.06	60999.04
583.22	60647.96
583.38	60830.52
583.54	60846.91
583.70	60877.33
583.86	61048.19
584.02	60725.20
584.18	60935.85
584.34	60977.98
584.50	60985.00
584.66	60772.01
584.82	60636.26
584.98	60870.31
585.14	60917.12
585.30	60860.95
585.46	60970.96
585.62	60825.84
585.78	61331.40
585.94	60790.73
586.10	60896.06
586.26	61003.72
586.42	60889.04
586.58	60992.02
586.74	60996.70
586.90	60863.29
587.06	60837.54
587.22	61041.17
587.38	60757.97
587.54	61083.30
587.70	61268.20
587.86	60884.36
588.02	60893.72
588.18	60947.55
588.34	60924.14
588.49	60940.53
