SpectraSuite Data File
++++++++++++++++++++++++++++++++++++
Date: Fri Oct 25 11:33:25 EDT 2013
User: price-jones
Dark Spectrum Present: No
Reference Spectrum Present: No
Number of Sampled Component Spectra: 1
Spectrometers: USB2+H05261
Integration Time (usec): 100000 (USB2+H05261)
Spectra Averaged: 1 (USB2+H05261)
Boxcar Smoothing: 0 (USB2+H05261)
Correct for Electrical Dark: No (USB2+H05261)
Strobe/Lamp Enabled: No (USB2+H05261)
Correct for Detector Non-linearity: No (USB2+H05261)
Correct for Stray Light: No (USB2+H05261)
Number of Pixels in Processed Spectrum: 2048
>>>>>Begin Processed Spectral Data<<<<<
365.73	231.71
365.92	231.71
366.12	231.71
366.32	152.13
366.52	177.88
366.72	180.22
366.91	250.44
367.11	131.07
367.31	177.88
367.51	163.84
367.70	149.79
367.90	208.31
368.10	145.11
368.30	175.54
368.49	140.43
368.69	177.88
368.89	152.13
369.09	222.35
369.28	264.48
369.48	205.97
369.68	191.92
369.87	255.12
370.07	203.63
370.27	238.73
370.47	346.40
370.66	491.51
370.86	514.92
371.06	461.09
371.25	634.29
371.45	526.62
371.65	606.20
371.84	568.75
372.04	559.39
372.24	568.75
372.44	535.98
372.63	550.03
372.83	585.13
373.03	596.84
373.22	648.33
373.42	638.97
373.62	650.67
373.81	645.99
374.01	578.11
374.21	671.73
374.40	568.75
374.60	643.65
374.79	669.39
374.99	610.88
375.19	664.71
375.38	613.22
375.58	603.86
375.78	641.31
375.97	615.56
376.17	725.57
376.37	624.92
376.56	681.10
376.76	643.65
376.95	592.16
377.15	653.01
377.35	702.16
377.54	676.41
377.74	641.31
377.93	730.25
378.13	695.14
378.33	746.63
378.52	718.54
378.72	758.33
378.91	767.70
379.11	730.25
379.31	662.37
379.50	713.86
379.70	711.52
379.89	772.38
380.09	648.33
380.28	760.67
380.48	772.38
380.68	770.04
380.87	723.23
381.07	774.72
381.26	784.08
381.46	760.67
381.65	784.08
381.85	814.51
382.04	760.67
382.24	774.72
382.43	842.59
382.63	807.48
382.83	840.25
383.02	816.85
383.22	816.85
383.41	814.51
383.61	777.06
383.80	851.96
384.00	884.72
384.19	814.51
384.39	816.85
384.58	786.42
384.78	802.80
384.97	858.98
385.17	795.78
385.36	802.80
385.56	812.17
385.75	795.78
385.95	866.00
386.14	924.51
386.34	887.06
386.53	884.72
386.72	898.77
386.92	938.55
387.11	854.30
387.31	880.04
387.50	840.25
387.70	912.81
387.89	926.85
388.09	915.15
388.28	919.83
388.48	819.19
388.67	947.92
388.86	936.21
389.06	880.04
389.25	938.55
389.45	940.90
389.64	905.79
389.84	990.05
390.03	1029.84
390.22	985.37
390.42	938.55
390.61	877.70
390.81	936.21
391.00	1001.75
391.19	1004.09
391.39	980.68
391.58	1008.77
391.78	1060.26
391.97	1027.50
392.16	933.87
392.36	1086.01
392.55	1062.60
392.75	1104.73
392.94	1011.11
393.13	1132.82
393.33	1004.09
393.52	1179.63
393.71	1107.07
393.91	1177.29
394.10	1053.24
394.29	1109.41
394.49	1043.88
394.68	1130.48
394.88	1048.56
395.07	1053.24
395.26	1011.11
395.46	1142.18
395.65	1200.69
395.84	1188.99
396.04	1156.22
396.23	1142.18
396.42	1205.38
396.62	1214.74
396.81	1282.61
397.00	1245.16
397.19	1238.14
397.39	1270.91
397.58	1317.72
397.77	1224.10
397.97	1228.78
398.16	1170.27
398.35	1355.17
398.55	1273.25
398.74	1303.68
398.93	1437.09
399.12	1369.21
399.32	1296.66
399.51	1310.70
399.70	1383.26
399.90	1373.89
400.09	1338.79
400.28	1409.00
400.47	1439.43
400.67	1467.52
400.86	1378.58
401.05	1434.75
401.24	1369.21
401.44	1425.39
401.63	1460.49
401.82	1507.30
402.01	1432.41
402.21	1516.67
402.40	1425.39
402.59	1533.05
402.78	1544.75
402.97	1497.94
403.17	1448.79
403.36	1570.50
403.55	1533.05
403.74	1549.43
403.93	1626.67
404.13	1659.44
404.32	1596.25
404.51	1533.05
404.70	1715.61
404.89	1610.29
405.09	1645.40
405.28	1675.82
405.47	1717.95
405.66	1629.01
405.85	1710.93
406.05	1757.74
406.24	1778.81
406.43	1713.27
406.62	1739.02
406.81	1785.83
407.00	1774.13
407.20	1774.13
407.39	1783.49
407.58	1753.06
407.77	1863.07
407.96	1975.41
408.15	1898.17
408.34	1856.04
408.54	1874.77
408.73	1849.02
408.92	1881.79
409.11	1954.35
409.30	1944.99
409.49	1914.56
409.68	1956.69
409.87	2001.16
410.07	2033.93
410.26	2153.29
410.45	1916.90
410.64	2052.65
410.83	2059.67
411.02	2228.19
411.21	2150.95
411.40	2225.85
411.59	2155.63
411.78	2202.44
411.98	2150.95
412.17	2298.41
412.36	2380.32
412.55	2307.77
412.74	2319.47
412.93	2399.05
413.12	2291.38
413.31	2466.92
413.50	2417.77
413.69	2349.90
413.88	2546.50
414.07	2480.97
414.26	2539.48
414.45	2546.50
414.64	2532.46
414.83	2560.55
415.02	2630.76
415.22	2635.44
415.41	2644.81
415.60	2623.74
415.79	2612.04
415.98	2743.11
416.17	2747.79
416.36	2813.32
416.55	2726.72
416.74	2909.29
416.93	2944.39
417.12	2869.50
417.31	2810.98
417.50	2902.26
417.69	3000.57
417.88	2935.03
418.07	2918.65
418.26	2906.95
418.45	2916.31
418.64	3108.23
418.83	3014.61
419.02	2991.20
419.21	3108.23
419.39	3141.00
419.58	3166.74
419.77	3038.02
419.96	3126.96
420.15	3206.53
420.34	3302.50
420.53	3162.06
420.72	3332.92
420.91	3178.45
421.10	3211.22
421.29	3332.92
421.48	3272.07
421.67	3288.45
421.86	3346.97
422.05	3349.31
422.24	3211.22
422.43	3330.58
422.61	3318.88
422.80	3454.63
422.99	3410.16
423.18	3433.57
423.37	3534.21
423.56	3485.06
423.75	3386.76
423.94	3375.05
424.13	3215.90
424.32	3311.86
424.50	3384.41
424.69	3513.14
424.88	3564.64
425.07	3332.92
425.26	3335.26
425.45	3267.39
425.64	3384.41
425.83	3468.67
426.01	3499.10
426.20	3515.48
426.39	3506.12
426.58	3510.80
426.77	3548.25
426.96	3585.70
427.15	3632.51
427.33	3541.23
427.52	3445.27
427.71	3691.02
427.90	3768.26
428.09	3698.05
428.28	3552.93
428.46	3794.01
428.65	3688.68
428.84	3840.82
429.03	3838.48
429.22	3763.58
429.40	3763.58
429.59	3737.84
429.78	3651.24
429.97	3669.96
430.16	3772.94
430.34	3955.51
430.53	3786.99
430.72	3911.04
430.91	3906.35
431.10	3918.06
431.28	3932.10
431.47	3997.64
431.66	3896.99
431.85	3866.56
432.03	4018.70
432.22	4196.58
432.41	4091.26
432.60	4215.30
432.79	4114.66
432.97	4093.60
433.16	4138.07
433.35	4044.45
433.54	4243.39
433.72	4100.62
433.91	4109.98
434.10	4252.75
434.28	4212.96
434.47	4159.13
434.66	4311.27
434.85	4339.35
435.03	4362.76
435.22	4212.96
435.41	4582.77
435.59	4447.02
435.78	4531.28
435.97	4519.57
436.16	4440.00
436.34	4442.34
436.53	4566.39
436.72	4540.64
436.90	4447.02
437.09	4540.64
437.28	4381.48
437.46	4505.53
437.65	4622.56
437.84	4685.75
438.02	4634.26
438.21	4528.94
438.40	4615.54
438.58	4826.18
438.77	4882.36
438.96	4851.93
439.14	4873.00
439.33	4980.66
439.52	4973.64
439.70	4854.27
439.89	5006.41
440.08	4868.31
440.26	5006.41
440.45	5039.17
440.63	5195.99
440.82	5135.14
441.01	5135.14
441.19	5217.05
441.38	5137.48
441.57	5275.57
441.75	5322.38
441.94	5467.49
442.12	5427.70
442.31	5458.13
442.50	5418.34
442.68	5345.78
442.87	5397.28
443.05	5575.16
443.24	5619.63
443.43	5535.37
443.61	5582.18
443.80	5654.73
443.98	5561.11
444.17	5313.02
444.35	5612.60
444.54	5645.37
444.73	5631.33
444.91	5748.36
445.10	5619.63
445.28	5809.21
445.47	5708.57
445.65	5748.36
445.84	5722.61
446.02	5823.25
446.21	5823.25
446.39	5844.32
446.58	5830.27
446.77	5713.25
446.95	5556.43
447.14	5701.54
447.32	6064.33
447.51	5755.38
447.69	5846.66
447.88	5827.93
448.06	5870.06
448.25	5849.00
448.43	5858.36
448.62	5689.84
448.80	5776.44
448.99	5837.30
449.17	5912.19
449.36	6040.92
449.54	5970.71
449.73	6076.03
449.91	6134.54
450.10	6069.01
450.28	6282.00
450.46	6099.44
450.65	6293.70
450.83	6113.48
451.02	6193.06
451.20	6207.10
451.39	6066.67
451.57	6270.30
451.76	6127.52
451.94	6155.61
452.13	6375.62
452.31	6401.37
452.49	5905.17
452.68	6218.80
452.86	6457.54
453.05	6497.33
453.23	6324.13
453.42	6279.66
453.60	6434.13
453.78	6523.07
453.97	6333.49
454.15	6403.71
454.34	6300.72
454.52	6586.27
454.70	6553.50
454.89	6530.09
455.07	6633.08
455.26	6707.98
455.44	6703.29
455.62	6738.40
455.81	6750.10
455.99	6698.61
456.17	6803.94
456.36	6827.34
456.54	6965.43
456.73	6892.88
456.91	6953.73
457.09	6958.41
457.28	7094.16
457.46	6963.09
457.64	7349.28
457.83	7162.04
458.01	7089.48
458.19	7428.86
458.38	7192.47
458.56	7225.23
458.74	7155.02
458.93	7239.28
459.11	7407.80
459.29	7197.15
459.48	7281.41
459.66	7365.67
459.84	7389.07
460.03	7487.37
460.21	7389.07
460.39	7372.69
460.57	7501.42
460.76	7461.63
460.94	7531.84
461.12	7531.84
461.31	7651.21
461.49	7506.10
461.67	7463.97
461.85	7817.39
462.04	7665.25
462.22	7885.26
462.40	7838.45
462.59	7775.26
462.77	7691.00
462.95	7833.77
463.13	7887.61
463.32	7840.79
463.50	7702.70
463.68	7941.44
463.86	8147.40
464.05	7852.50
464.23	7866.54
464.41	7964.84
464.59	7875.90
464.78	8177.83
464.96	8025.70
465.14	7852.50
465.32	8046.76
465.50	8013.99
465.69	8077.19
465.87	8463.38
466.05	8098.25
466.23	8215.28
466.41	8231.66
466.60	8266.77
466.78	8236.35
466.96	8051.44
467.14	8301.88
467.32	8374.44
467.51	8439.97
467.69	8114.64
467.87	8215.28
468.05	8313.58
468.23	8372.10
468.41	8439.97
468.60	8402.52
468.78	8512.53
468.96	8540.61
469.14	8564.02
469.32	8500.83
469.50	8451.67
469.69	8847.22
469.87	8727.86
470.05	8641.26
470.23	8987.66
470.41	9055.53
470.59	8968.93
470.77	8645.94
470.95	8915.10
471.14	9062.55
471.32	8730.20
471.50	9210.01
471.68	9046.17
471.86	9104.68
472.04	8940.85
472.22	9404.27
472.40	9165.54
472.58	9336.40
472.77	9495.55
472.95	9390.23
473.13	9673.43
473.31	9287.25
473.49	9310.65
473.67	9500.23
473.85	9643.01
474.03	9905.15
474.21	9710.88
474.39	9954.30
474.57	9830.25
474.75	10087.71
474.93	10024.51
475.12	10141.54
475.30	10008.13
475.48	9891.10
475.66	10019.83
475.84	10181.33
476.02	10258.57
476.20	10427.09
476.38	10593.26
476.56	10548.79
476.74	10607.31
476.92	10434.11
477.10	10581.56
477.28	10684.55
477.46	10483.26
477.64	10745.40
477.82	10871.79
478.00	11178.40
478.18	11087.12
478.36	11293.08
478.54	11314.15
478.72	11426.50
478.90	11501.39
479.08	11676.93
479.26	11644.17
479.44	11948.43
479.62	11833.75
479.80	12109.93
479.98	12098.23
480.16	12362.71
480.34	11892.26
480.52	12351.01
480.70	12255.04
480.88	12360.37
481.06	12531.23
481.24	12299.52
481.41	12664.64
481.59	12641.23
481.77	12908.05
481.95	12844.86
482.13	13102.32
482.31	13062.53
482.49	13240.41
482.67	13469.78
482.85	13542.34
483.03	13832.57
483.21	13745.97
483.39	13722.56
483.57	13715.54
483.74	13710.86
483.92	13785.76
484.10	14281.95
484.28	14436.42
484.46	14611.96
484.64	14937.30
484.82	14319.40
485.00	14546.43
485.18	15215.82
485.35	15229.87
485.53	15159.65
485.71	15152.63
485.89	15367.96
486.07	15201.78
486.25	15557.54
486.43	15442.85
486.61	15885.22
486.78	15765.85
486.96	16196.51
487.14	16067.78
487.32	16407.16
487.50	16491.41
487.68	16568.65
487.85	16779.30
488.03	16814.41
488.21	17011.01
488.39	17039.10
488.57	17263.79
488.75	17221.66
488.92	17577.42
489.10	17647.64
489.28	17869.99
489.46	17799.77
489.64	17975.31
489.81	18326.39
489.99	18410.65
490.17	18410.65
490.35	18537.04
490.53	18513.64
490.70	18867.06
490.88	18515.98
491.06	18792.16
491.24	19054.30
491.41	19110.47
491.59	19267.29
491.77	19152.60
491.95	19520.07
492.13	19660.50
492.30	19620.71
492.48	19960.09
492.66	19779.87
492.84	20044.35
493.01	20353.30
493.19	20357.98
493.37	20425.86
493.54	20491.39
493.72	20657.57
493.90	21036.74
494.08	20959.50
494.25	20868.22
494.43	20886.94
494.61	21399.52
494.79	21364.41
494.96	21385.47
495.14	21617.19
495.32	21605.49
495.49	21593.78
495.67	22068.91
495.85	21958.91
496.02	22389.56
496.20	22324.03
496.38	22169.55
496.55	22560.42
496.73	22881.08
496.91	22932.57
497.09	23047.26
497.26	23016.83
497.44	23073.00
497.62	23140.88
497.79	23384.29
497.97	23459.19
498.14	23831.33
498.32	23531.75
498.50	23896.87
498.67	23964.75
498.85	23950.70
499.03	24350.93
499.20	24114.54
499.38	24407.11
499.56	24545.20
499.73	24627.12
499.91	24694.99
500.08	24877.55
500.26	24458.60
500.44	24753.51
500.61	25207.57
500.79	24706.70
500.97	25317.57
501.14	25329.28
501.32	25755.26
501.49	25460.35
501.67	25715.47
501.84	25568.01
502.02	25736.53
502.20	25830.15
502.37	25848.88
502.55	26040.80
502.72	25729.51
502.90	26043.14
503.07	25912.07
503.25	26141.44
503.43	26108.68
503.60	26518.27
503.78	26679.77
503.95	26326.35
504.13	26637.64
504.30	26986.38
504.48	26679.77
504.65	27190.00
504.83	27536.40
505.01	27379.59
505.18	27026.17
505.36	27646.41
505.53	27168.94
505.71	27508.32
505.88	27805.56
506.06	27101.06
506.23	27833.65
506.41	27906.21
506.58	28177.71
506.76	27784.50
506.93	28233.88
507.11	28109.83
507.28	28407.08
507.46	28477.30
507.63	28414.10
507.81	28563.90
507.98	28212.82
508.16	28652.84
508.33	28610.71
508.50	28910.30
508.68	28943.06
508.85	29050.73
509.03	28819.02
509.20	29383.09
509.38	29575.01
509.55	29399.47
509.73	29167.76
509.90	29589.05
510.08	29567.99
510.25	29434.58
510.42	29780.98
510.60	29883.96
510.77	30029.07
510.95	29879.28
511.12	29853.53
511.30	30129.72
511.47	30394.20
511.64	30033.75
511.82	30644.63
511.99	30543.99
512.17	30441.01
512.34	30565.06
512.51	31035.50
512.69	31089.34
512.86	30778.04
513.04	31325.73
513.21	30913.80
513.38	31442.76
513.56	31239.13
513.73	31372.54
513.90	31173.60
514.08	31302.32
514.25	31599.57
514.43	31707.24
514.60	32032.57
514.77	31648.72
514.95	31999.80
515.12	31749.37
515.29	31686.17
515.47	32161.30
515.64	32128.53
515.81	31931.93
515.99	32435.14
516.16	32285.35
516.33	32238.54
516.51	32926.66
516.68	32552.17
516.85	32226.84
517.03	33055.39
517.20	32872.82
517.37	32954.74
517.54	33048.36
517.72	33188.80
517.89	32959.42
518.06	33039.00
518.24	33041.34
518.41	33373.70
518.58	33434.55
518.75	33149.01
518.93	33586.69
519.10	33687.33
519.27	33745.84
519.45	33907.34
519.62	34230.33
519.79	33762.23
519.96	34190.55
520.14	33752.87
520.31	33958.83
520.48	34354.38
520.65	34267.78
520.83	34539.29
521.00	34602.48
521.17	34548.65
521.34	34836.53
521.52	34810.79
521.69	34389.49
521.86	35070.59
522.03	35019.10
522.20	35145.48
522.38	35342.09
522.55	35199.32
522.72	35379.54
522.89	35405.28
523.07	35489.54
523.24	35496.56
523.41	35620.61
523.58	35576.14
523.75	35754.02
523.92	35459.12
524.10	35765.73
524.27	35896.80
524.44	36077.02
524.61	35955.31
524.78	35873.39
524.96	36135.53
525.13	35955.31
525.30	36210.43
525.47	36252.56
525.64	36542.78
525.81	36357.88
525.98	36795.56
526.16	36584.91
526.33	36577.89
526.50	37046.00
526.67	36692.58
526.84	36917.27
527.01	36994.51
527.18	36959.40
527.36	36910.25
527.53	37024.93
527.70	37523.47
527.87	37322.18
528.04	36968.76
528.21	37172.39
528.38	37034.30
528.55	37219.20
528.72	37076.43
528.89	37462.61
529.07	37085.79
529.24	37429.85
529.41	37958.81
529.58	37776.25
529.75	37560.92
529.92	37912.00
530.09	37521.13
530.26	37762.20
530.43	38127.33
530.60	38080.52
530.77	38132.01
530.94	37963.49
531.11	37984.55
531.28	38246.69
531.46	37844.12
531.63	38373.08
531.80	38242.01
531.97	38366.06
532.14	38117.96
532.31	38670.33
532.48	38447.98
532.65	38925.45
532.82	38785.02
532.99	38932.47
533.16	38717.14
533.33	38724.16
533.50	39129.08
533.67	39019.07
533.84	39086.95
534.01	39360.79
534.18	38787.36
534.35	39805.49
534.52	39295.25
534.69	40041.88
534.86	39749.32
535.03	39716.55
535.20	39543.35
535.37	40210.40
535.54	39662.72
535.71	39566.76
535.88	40006.78
536.05	39934.22
536.22	39831.24
536.38	39636.97
536.55	39676.76
536.72	39901.45
536.89	40194.02
537.06	40289.98
537.23	40332.11
537.40	40041.88
537.57	39908.47
537.74	39796.13
537.91	40748.73
538.08	40509.99
538.25	39995.07
538.42	40519.35
538.59	40734.68
538.75	40264.24
538.92	40575.53
539.09	40879.80
539.26	40605.95
539.43	40655.11
539.60	40825.96
539.77	40444.46
539.94	41134.92
540.11	40919.59
540.28	41006.19
540.44	41064.70
540.61	41008.53
540.78	40999.16
540.95	41537.49
541.12	41399.40
541.29	41109.17
541.46	41296.41
541.62	41265.99
541.79	41797.29
541.96	41067.04
542.13	41221.52
542.30	41588.98
542.47	41326.84
542.63	41497.70
542.80	41600.68
542.97	41940.06
543.14	42230.29
543.31	41598.34
543.48	41874.52
543.64	42115.60
543.81	41827.71
543.98	42682.01
544.15	42447.96
544.32	42085.17
544.48	42923.08
544.65	42766.27
544.82	42532.22
544.99	42349.65
545.16	42784.99
545.32	42724.14
545.49	42560.30
545.66	42698.39
545.83	42817.76
546.00	42597.75
546.16	42855.21
546.33	42349.65
546.50	42773.29
546.67	43042.45
546.83	42639.88
547.00	42829.46
547.17	42492.43
547.34	43105.65
547.50	43395.87
547.67	43533.96
547.84	43262.46
548.00	43285.87
548.17	43442.68
548.34	43695.46
548.51	44039.52
548.67	43398.21
548.84	43517.58
549.01	43210.97
549.18	43381.83
549.34	43381.83
549.51	43648.65
549.68	43852.28
549.84	43477.79
550.01	43620.56
550.18	43576.09
550.34	44058.24
550.51	44023.14
550.68	43756.32
550.84	43562.05
551.01	44301.66
551.18	43756.32
551.34	44044.20
551.51	44233.78
551.68	43885.04
551.84	44275.91
552.01	44112.08
552.18	44762.75
552.34	43529.28
552.51	44636.36
552.68	44252.51
552.84	44519.33
553.01	44292.30
553.18	44287.62
553.34	44509.97
553.51	44542.74
553.67	44516.99
553.84	44268.89
554.01	44821.26
554.17	44432.73
554.34	44245.49
554.51	44704.23
554.67	44837.64
554.84	44699.55
555.00	44612.95
555.17	44538.05
555.33	44744.02
555.50	45268.30
555.67	44856.37
555.83	44835.30
556.00	45347.88
556.16	45008.50
556.33	45043.61
556.50	45015.52
556.66	44975.73
556.83	44800.19
556.99	45214.47
557.16	45244.90
557.32	45036.59
557.49	45558.53
557.65	45013.18
557.82	45244.90
557.98	45825.35
558.15	45467.25
558.32	45413.41
558.48	45497.67
558.65	45127.87
558.81	45567.89
558.98	45200.43
559.14	45031.91
559.31	45530.44
559.47	45390.01
559.64	45504.70
559.80	45909.61
559.97	45755.13
560.13	45500.01
560.30	45825.35
560.46	45860.46
560.63	46052.38
560.79	46183.45
560.96	46045.36
561.12	46017.27
561.29	45738.75
561.45	46174.09
561.61	45951.74
561.78	46223.24
561.94	45900.25
562.11	46230.26
562.27	46087.49
562.44	46038.34
562.60	46061.74
562.77	46007.91
562.93	45993.87
563.10	46272.39
563.26	45858.12
563.42	46532.19
563.59	46354.31
563.75	46192.81
563.92	46164.73
564.08	46344.95
564.24	45914.29
564.41	46220.90
564.57	46286.43
564.74	46309.84
564.90	46272.39
565.07	46443.25
565.23	46497.08
565.39	46047.70
565.56	46431.55
565.72	46227.92
565.88	46209.20
566.05	46225.58
566.21	46335.59
566.38	46494.74
566.54	46541.55
566.70	46256.01
566.87	46632.83
567.03	46670.28
567.19	46841.14
567.36	46597.73
567.52	46408.14
567.68	46600.07
567.85	46909.02
568.01	46962.85
568.17	46595.38
568.34	46904.34
568.50	46497.08
568.66	46234.94
568.83	46932.42
568.99	46855.18
569.15	46852.84
569.32	46745.18
569.48	46848.16
569.64	47077.54
569.81	46735.82
569.97	46988.60
570.13	47285.84
570.30	46677.30
570.46	47178.18
570.62	47077.54
570.78	47012.00
570.95	46710.07
571.11	47124.35
571.27	46733.48
571.43	46782.63
571.60	47122.01
571.76	46930.08
571.92	46588.36
572.09	46948.81
572.25	46588.36
572.41	46763.90
572.57	46581.34
572.74	47583.09
572.90	47192.22
573.06	46981.57
573.22	46988.60
573.38	47517.56
573.55	47082.22
573.71	47447.34
573.87	47334.99
574.03	47351.38
574.20	47395.85
574.36	47157.11
574.52	47351.38
574.68	47288.18
574.84	47501.17
575.01	47662.67
575.17	47573.73
575.33	47360.74
575.49	47143.07
575.65	47129.03
575.82	47215.63
575.98	46770.93
576.14	47735.23
576.30	47381.80
576.46	47452.02
576.62	47040.09
576.79	46995.62
576.95	47103.28
577.11	46916.04
577.27	47288.18
577.43	47398.19
577.59	47143.07
577.75	47412.23
577.92	47157.11
578.08	47206.26
578.24	47370.10
578.40	47753.95
578.56	47381.80
578.72	47440.32
578.88	47613.52
579.04	47004.98
579.21	47435.64
579.37	47384.15
579.53	47402.87
579.69	47262.44
579.85	47126.69
580.01	47648.63
580.17	47550.32
580.33	47608.84
580.49	47423.93
580.65	47339.68
580.82	47269.46
580.98	47089.24
581.14	47194.56
581.30	47688.42
581.46	47636.92
581.62	47430.96
581.78	47339.68
581.94	47634.58
582.10	47533.94
582.26	47505.85
582.42	47515.22
582.58	47583.09
582.74	47920.13
582.90	47878.00
583.06	47154.77
583.22	47414.57
583.38	47377.12
583.54	47833.53
583.70	47665.01
583.86	47428.62
584.02	47721.18
584.18	47777.36
584.34	47690.76
584.50	47852.25
584.66	47334.99
584.82	47585.43
584.98	47870.98
585.14	47625.22
585.30	47327.97
585.46	47662.67
585.62	47367.76
585.78	47690.76
585.94	47461.38
586.10	47793.74
586.26	47339.68
586.42	47889.70
586.58	47459.04
586.74	47606.50
586.90	47412.23
587.06	47386.49
587.22	48217.38
587.38	47749.27
587.54	48044.18
587.70	48182.27
587.86	47704.80
588.02	47126.69
588.18	47508.19
588.34	47728.20
588.49	47262.44
588.65	47714.16
588.81	47707.14
588.97	48219.72
589.13	47770.33
589.29	47784.38
589.45	48212.70
589.61	47859.27
589.77	48074.60
589.93	48009.07
