SpectraSuite Data File
++++++++++++++++++++++++++++++++++++
Date: Fri Oct 25 11:25:35 EDT 2013
User: price-jones
Dark Spectrum Present: No
Reference Spectrum Present: No
Number of Sampled Component Spectra: 1
Spectrometers: USB2+H05261
Integration Time (usec): 100000 (USB2+H05261)
Spectra Averaged: 1 (USB2+H05261)
Boxcar Smoothing: 0 (USB2+H05261)
Correct for Electrical Dark: No (USB2+H05261)
Strobe/Lamp Enabled: No (USB2+H05261)
Correct for Detector Non-linearity: No (USB2+H05261)
Correct for Stray Light: No (USB2+H05261)
Number of Pixels in Processed Spectrum: 2048
>>>>>Begin Processed Spectral Data<<<<<
365.73	220.01
365.92	220.01
366.12	220.01
366.32	156.82
366.52	175.54
366.72	119.37
366.91	100.64
367.11	114.69
367.31	140.43
367.51	93.62
367.70	107.66
367.90	98.30
368.10	107.66
368.30	140.43
368.49	65.54
368.69	145.11
368.89	194.26
369.09	198.95
369.28	173.20
369.48	201.29
369.68	152.13
369.87	166.18
370.07	224.69
370.27	194.26
370.47	358.10
370.66	566.41
370.86	608.54
371.06	638.97
371.25	681.10
371.45	617.90
371.65	718.54
371.84	695.14
372.04	763.01
372.24	753.65
372.44	741.95
372.63	858.98
372.83	844.93
373.03	774.72
373.22	709.18
373.42	779.40
373.62	788.76
373.81	770.04
374.01	798.12
374.21	798.12
374.40	849.61
374.60	835.57
374.79	788.76
374.99	784.08
375.19	763.01
375.38	854.30
375.58	800.46
375.78	851.96
375.97	821.53
376.17	924.51
376.37	849.61
376.56	830.89
376.76	861.32
376.95	866.00
377.15	926.85
377.35	851.96
377.54	882.38
377.74	922.17
377.93	968.98
378.13	889.40
378.33	933.87
378.52	959.62
378.72	957.28
378.91	961.96
379.11	968.98
379.31	971.32
379.50	898.77
379.70	1043.88
379.89	933.87
380.09	912.81
380.28	973.66
380.48	976.00
380.68	947.92
380.87	952.60
381.07	1046.22
381.26	1060.26
381.46	1020.47
381.65	1071.97
381.85	1081.33
382.04	966.64
382.24	1076.65
382.43	1015.79
382.63	1076.65
382.83	1067.28
383.02	1128.14
383.22	1153.88
383.41	1107.07
383.61	1118.78
383.80	1205.38
384.00	1135.16
384.19	1118.78
384.39	1137.50
384.58	1200.69
384.78	1055.58
384.97	1114.10
385.17	1167.93
385.36	1188.99
385.56	1125.80
385.75	1142.18
385.95	1137.50
386.14	1198.35
386.34	1294.32
386.53	1284.95
386.72	1226.44
386.92	1266.23
387.11	1282.61
387.31	1266.23
387.50	1144.52
387.70	1280.27
387.89	1303.68
388.09	1280.27
388.28	1296.66
388.48	1228.78
388.67	1282.61
388.86	1310.70
389.06	1242.82
389.25	1390.28
389.45	1284.95
389.64	1366.87
389.84	1315.38
390.03	1315.38
390.22	1392.62
390.42	1352.83
390.61	1380.92
390.81	1369.21
391.00	1427.73
391.19	1530.71
391.39	1427.73
391.58	1465.18
391.78	1448.79
391.97	1423.05
392.16	1394.96
392.36	1502.62
392.55	1430.07
392.75	1556.46
392.94	1526.03
393.13	1540.07
393.33	1488.58
393.52	1610.29
393.71	1582.20
393.91	1671.14
394.10	1554.12
394.29	1603.27
394.49	1638.38
394.68	1678.16
394.88	1607.95
395.07	1668.80
395.26	1652.42
395.46	1668.80
395.65	1682.85
395.84	1703.91
396.04	1741.36
396.23	1696.89
396.42	1739.02
396.62	1797.53
396.81	1778.81
397.00	1720.29
397.19	1781.15
397.39	1830.30
397.58	1771.79
397.77	1774.13
397.97	1886.47
398.16	1888.81
398.35	1825.62
398.55	1879.45
398.74	1914.56
398.93	1942.64
399.12	1977.75
399.32	1781.15
399.51	1952.01
399.70	1977.75
399.90	1977.75
400.09	2015.20
400.28	2024.56
400.47	1959.03
400.67	2101.80
400.86	2160.31
401.05	1998.82
401.24	2085.42
401.44	2230.53
401.63	2204.78
401.82	2284.36
402.01	2108.82
402.21	2106.48
402.40	2155.63
402.59	2209.47
402.78	2256.28
402.97	2300.75
403.17	2277.34
403.36	2251.60
403.55	2230.53
403.74	2286.70
403.93	2424.80
404.13	2265.64
404.32	2443.52
404.51	2296.07
404.70	2385.01
404.89	2303.09
405.09	2548.84
405.28	2429.48
405.47	2548.84
405.66	2497.35
405.85	2450.54
406.05	2583.95
406.24	2637.78
406.43	2516.08
406.62	2572.25
406.81	2633.10
407.00	2506.71
407.20	2623.74
407.39	2562.89
407.58	2621.40
407.77	2731.41
407.96	2853.11
408.15	2693.96
408.34	2771.19
408.54	2843.75
408.73	2904.60
408.92	2818.00
409.11	2867.16
409.30	2841.41
409.49	2930.35
409.68	2930.35
409.87	2864.82
410.07	2935.03
410.26	2995.89
410.45	3021.63
410.64	3040.36
410.83	3211.22
411.02	3066.10
411.21	3143.34
411.40	3187.81
411.59	3213.56
411.78	3211.22
411.98	3211.22
412.17	3229.94
412.36	3272.07
412.55	3295.47
412.74	3440.59
412.93	3213.56
413.12	3386.76
413.31	3583.36
413.50	3391.44
413.69	3478.04
413.88	3581.02
414.07	3592.72
414.26	3625.49
414.45	3562.30
414.64	3578.68
414.83	3639.53
415.02	3747.20
415.22	3946.14
415.41	3941.46
415.60	3929.76
415.79	3798.69
415.98	3922.74
416.17	3969.55
416.36	3967.21
416.55	4037.42
416.74	4145.09
416.93	4044.45
417.12	4016.36
417.31	4142.75
417.50	4189.56
417.69	4231.69
417.88	4290.20
418.07	4344.03
418.26	4236.37
418.45	4393.19
418.64	4416.59
418.83	4351.06
419.02	4458.72
419.21	4526.60
419.39	4479.79
419.58	4416.59
419.77	4440.00
419.96	4578.09
420.15	4627.24
420.34	4657.67
420.53	4744.27
420.72	4730.22
420.91	4678.73
421.10	4819.16
421.29	4772.35
421.48	4711.50
421.67	4770.01
421.86	4631.92
422.05	4737.24
422.24	4800.44
422.43	4795.76
422.61	4915.12
422.80	4891.72
422.99	4875.34
423.18	4887.04
423.37	5041.51
423.56	4985.34
423.75	4961.94
423.94	4720.86
424.13	4514.89
424.32	4840.23
424.50	4999.38
424.69	4966.62
424.88	5170.24
425.07	5060.24
425.26	4952.57
425.45	4959.60
425.64	4985.34
425.83	5029.81
426.01	5137.48
426.20	5025.13
426.39	4978.32
426.58	4844.91
426.77	5093.01
426.96	5041.51
427.15	4924.49
427.33	5341.10
427.52	5069.60
427.71	5200.67
427.90	5252.16
428.09	5245.14
428.28	5345.78
428.46	5357.49
428.65	5472.17
428.84	5458.13
429.03	5511.96
429.22	5322.38
429.40	5444.09
429.59	5448.77
429.78	5252.16
429.97	5205.35
430.16	5373.87
430.34	5621.97
430.53	5692.18
430.72	5703.89
430.91	5577.50
431.10	5563.45
431.28	5731.97
431.47	5879.43
431.66	5865.38
431.85	5731.97
432.03	5902.83
432.22	5858.36
432.41	5830.27
432.60	5935.60
432.79	5975.39
432.97	5914.53
433.16	6078.37
433.35	5888.79
433.54	6225.82
433.72	6015.18
433.91	6059.65
434.10	6071.35
434.28	6101.78
434.47	6083.05
434.66	6289.02
434.85	6108.80
435.03	6415.41
435.22	6127.52
435.41	6375.62
435.59	6359.24
435.78	6333.49
435.97	6448.18
436.16	6516.05
436.34	6408.39
436.53	6471.58
436.72	6712.66
436.90	6553.50
437.09	6633.08
437.28	6574.56
437.46	6417.75
437.65	6710.32
437.84	6745.42
438.02	6642.44
438.21	6778.19
438.40	6743.08
438.58	6815.64
438.77	7059.06
438.96	7002.88
439.14	7145.66
439.33	7204.17
439.52	7131.61
439.70	7199.49
439.89	7211.19
440.08	7316.51
440.26	7452.27
440.45	7307.15
440.63	7494.40
440.82	7508.44
441.01	7681.64
441.19	7646.53
441.38	7831.43
441.57	7693.34
441.75	7667.60
441.94	7995.27
442.12	7908.67
442.31	7981.23
442.50	7985.91
442.68	7932.08
442.87	7885.26
443.05	8336.99
443.24	8245.71
443.43	8140.38
443.61	8126.34
443.80	8304.22
443.98	8086.55
444.17	7896.97
444.35	8250.39
444.54	8215.28
444.73	8189.53
444.91	8301.88
445.10	8435.29
445.28	8229.32
445.47	8194.22
445.65	8238.69
445.84	8313.58
446.02	8430.61
446.21	8346.35
446.39	8430.61
446.58	8266.77
446.77	8423.59
446.95	8231.66
447.14	8266.77
447.32	8650.62
447.51	8489.12
447.69	8498.49
447.88	8807.44
448.06	8451.67
448.25	8568.70
448.43	8554.66
448.62	8589.77
448.80	8755.94
448.99	8702.11
449.17	8578.06
449.36	8643.60
449.54	8870.63
449.73	8884.67
449.91	8908.08
450.10	8791.05
450.28	9083.62
450.46	8964.25
450.65	9060.21
450.83	8910.42
451.02	8994.68
451.20	9165.54
451.39	9228.73
451.57	9125.75
451.76	8945.53
451.94	9118.73
452.13	9289.59
452.31	9100.00
452.49	9151.49
452.68	9348.10
452.86	9259.16
453.05	9341.08
453.23	9371.50
453.42	9338.74
453.60	9401.93
453.78	9540.02
453.97	9530.66
454.15	9378.53
454.34	9579.81
454.52	9614.92
454.70	9544.70
454.89	9610.24
455.07	9771.74
455.26	9832.59
455.44	10143.88
455.62	9788.12
455.81	9989.41
455.99	9933.23
456.17	9973.02
456.36	10080.69
456.54	10078.35
456.73	10083.03
456.91	10476.24
457.09	10209.42
457.28	10406.02
457.46	10361.55
457.64	10401.34
457.83	10436.45
458.01	10420.06
458.19	10677.52
458.38	10441.13
458.56	10682.20
458.74	10506.66
458.93	10703.27
459.11	10890.51
459.29	10799.23
459.48	10710.29
459.66	10637.73
459.84	10771.15
460.03	10972.43
460.21	10803.91
460.39	11082.44
460.57	10768.80
460.76	10937.32
460.94	11103.50
461.12	11225.21
461.31	11136.27
461.49	11248.61
461.67	11159.67
461.85	11267.34
462.04	11508.41
462.22	11866.52
462.40	11714.38
462.59	11201.80
462.77	11405.43
462.95	11644.17
463.13	11524.80
463.32	11580.97
463.50	11824.39
463.68	11798.64
463.86	11641.82
464.05	11817.36
464.23	11761.19
464.41	11840.77
464.59	11791.62
464.78	12070.14
464.96	12049.08
465.14	11681.61
465.32	12198.87
465.50	12156.74
465.69	12154.40
465.87	12070.14
466.05	11983.54
466.23	12135.68
466.41	12184.83
466.60	12517.18
466.78	11969.50
466.96	12044.40
467.14	12362.71
467.32	12493.78
467.51	12168.45
467.69	12189.51
467.87	12613.15
468.05	12524.21
468.23	12369.73
468.41	12266.75
468.60	12489.10
468.78	12744.22
468.96	12470.37
469.14	12603.78
469.32	12826.14
469.50	12608.47
469.69	12961.89
469.87	12872.95
470.05	13266.16
470.23	12943.16
470.41	12772.30
470.59	13137.43
470.77	13114.02
470.95	13214.66
471.14	13444.04
471.32	13181.90
471.50	13490.85
471.68	13429.99
471.86	13413.61
472.04	13678.09
472.22	13879.38
472.40	13575.11
472.58	13984.70
472.77	13881.72
472.95	14270.25
473.13	14736.01
473.31	13888.74
473.49	14150.88
473.67	14106.41
473.85	14342.80
474.03	14609.62
474.21	14618.99
474.39	14724.31
474.57	14595.58
474.75	15220.50
474.93	14810.91
475.12	14977.09
475.30	15152.63
475.48	15037.94
475.66	15264.97
475.84	15056.67
476.02	15204.12
476.20	15199.44
476.38	15559.88
476.56	15988.20
476.74	15651.16
476.92	15733.08
477.10	15950.75
477.28	15700.31
477.46	16013.95
477.64	16276.09
477.82	16568.65
478.00	16851.86
478.18	16442.26
478.36	16706.74
478.54	17411.25
478.72	17202.94
478.90	17453.37
479.08	17439.33
479.26	17441.67
479.44	17579.76
479.62	17809.14
479.80	17919.14
479.98	18012.76
480.16	18340.44
480.34	18448.10
480.52	18401.29
480.70	18743.01
480.88	18328.74
481.06	18918.55
481.24	18698.54
481.41	19164.31
481.59	19101.11
481.77	19358.57
481.95	19468.58
482.13	19711.99
482.31	19683.91
482.49	20044.35
482.67	20428.20
482.85	20191.80
483.03	20472.67
483.21	20673.95
483.39	20980.56
483.57	20573.31
483.74	21111.63
483.92	21528.25
484.10	21184.19
484.28	21888.69
484.46	21933.16
484.64	22338.07
484.82	21766.98
485.00	22192.96
485.18	22773.41
485.35	22782.77
485.53	22860.01
485.71	23178.33
485.89	23498.98
486.07	23185.35
486.25	23131.51
486.43	23421.74
486.61	23412.38
486.78	24027.94
486.96	24107.52
487.14	24409.45
487.32	24407.11
487.50	24379.02
487.68	24730.10
487.85	25380.77
488.03	25766.96
488.21	25947.18
488.39	25689.72
488.57	25891.01
488.75	26267.83
488.92	26331.03
489.10	26752.32
489.28	26501.89
489.46	27372.57
489.64	26714.87
489.81	28002.17
489.99	27637.05
490.17	27800.88
490.35	27896.85
490.53	28226.86
490.70	28149.62
490.88	28126.22
491.06	28472.62
491.24	29003.92
491.41	29057.75
491.59	29303.51
491.77	29294.14
491.95	29282.44
492.13	29441.60
492.30	29631.18
492.48	29642.88
492.66	30361.43
492.84	30199.93
493.01	30436.33
493.19	30558.03
493.37	30920.82
493.54	30859.96
493.72	31166.57
493.90	31625.32
494.08	31676.81
494.25	31604.25
494.43	31938.95
494.61	32385.99
494.79	32259.60
494.96	32444.51
495.14	32692.60
495.32	32720.69
495.49	32952.40
495.67	33172.41
495.85	33593.71
496.02	33378.38
496.20	33696.69
496.38	33984.58
496.55	33975.22
496.73	34763.98
496.91	34347.36
497.09	34827.17
497.26	34888.03
497.44	34803.77
497.62	34644.61
497.79	35625.29
497.97	35683.81
498.14	35510.61
498.32	35791.47
498.50	35927.22
498.67	36531.08
498.85	36133.19
499.03	36697.26
499.20	36594.28
499.38	36517.04
499.56	37027.28
499.73	36786.20
499.91	37156.00
500.08	37640.50
500.26	37474.32
500.44	37502.40
500.61	37670.92
500.79	37907.32
500.97	38096.90
501.14	38555.64
501.32	38501.81
501.49	38164.78
501.67	38185.84
501.84	38728.84
502.02	38775.66
502.20	39035.45
502.37	39246.10
502.55	38756.93
502.72	39426.32
502.90	39784.43
503.07	39150.14
503.25	40055.93
503.43	39709.53
503.60	39590.16
503.78	40374.24
503.95	40144.87
504.13	40694.89
504.30	40779.15
504.48	40481.91
504.65	40662.13
504.83	40715.96
505.01	41212.15
505.18	41202.79
505.36	41326.84
505.53	41031.93
505.71	41352.58
505.88	42061.77
506.06	41717.71
506.23	41698.98
506.41	41617.07
506.58	42131.98
506.76	42272.42
506.93	42389.44
507.11	42124.96
507.28	42707.76
507.46	42611.79
507.63	42724.14
507.81	43136.07
507.98	42869.25
508.16	42862.23
508.33	43215.65
508.50	43339.70
508.68	43330.34
508.85	43789.08
509.03	43917.81
509.20	43835.89
509.38	44217.40
509.55	44549.76
509.73	43842.92
509.90	44875.09
510.08	44729.98
510.25	44023.14
510.42	44397.62
510.60	44877.43
510.77	44662.10
510.95	45151.27
511.12	44921.90
511.30	45074.04
511.47	45373.63
511.64	45361.92
511.82	45858.12
511.99	45598.32
512.17	45521.08
512.34	45764.49
512.51	45907.27
512.69	46483.04
512.86	46480.70
513.04	46415.16
513.21	46571.98
513.38	46616.45
513.56	47056.47
513.73	46574.32
513.90	47075.19
514.08	46588.36
514.25	47260.10
514.43	47414.57
514.60	47058.81
514.77	47236.69
514.95	47496.49
515.12	47339.68
515.29	47634.58
515.47	47887.36
515.64	47952.90
515.81	47360.74
515.99	48074.60
516.16	48243.12
516.33	48184.61
516.51	48296.95
516.68	48271.21
516.85	48467.81
517.03	48690.16
517.20	48594.20
517.37	48861.02
517.54	48774.42
517.72	49036.56
517.89	48989.75
518.06	48994.43
518.24	49375.94
518.41	49078.69
518.58	49397.01
518.75	49085.72
518.93	49315.09
519.10	49226.15
519.27	49434.45
519.45	49717.66
519.62	49792.56
519.79	49654.47
519.96	49762.13
520.14	50408.12
520.31	49993.84
520.48	50487.70
520.65	50564.93
520.83	50347.26
521.00	50588.34
521.17	50244.28
521.34	50457.27
521.52	50653.87
521.69	50527.48
521.86	50913.67
522.03	51091.55
522.20	51016.66
522.38	51409.87
522.55	51234.33
522.72	51077.51
522.89	51435.61
523.07	51519.87
523.24	51215.60
523.41	51615.83
523.58	51562.00
523.75	51838.18
523.92	51936.49
524.10	51796.06
524.27	51751.59
524.44	52076.92
524.61	51957.55
524.78	51903.72
524.96	52046.49
525.13	52273.52
525.30	52411.62
525.47	52566.09
525.64	52144.80
525.81	52664.39
525.98	52514.60
526.16	52416.30
526.33	52657.37
526.50	52989.73
526.67	52790.78
526.84	52959.30
527.01	52849.30
527.18	52591.84
527.36	52729.93
527.53	53050.58
527.70	53125.48
527.87	53532.73
528.04	53357.19
528.21	53460.18
528.38	53279.96
528.55	53560.82
528.72	53120.80
528.89	53413.37
529.07	53240.17
529.24	53471.88
529.41	53647.42
529.58	53614.65
529.75	53701.25
529.92	53675.51
530.09	53670.82
530.26	53911.90
530.43	53876.79
530.60	53661.46
530.77	53710.61
530.94	53977.43
531.11	53895.52
531.28	53963.39
531.46	53970.41
531.63	54281.70
531.80	53977.43
531.97	54309.79
532.14	54401.07
532.31	54597.68
532.48	54541.50
532.65	54721.72
532.82	54351.92
532.99	54855.14
533.16	54501.71
533.33	54679.60
533.50	54904.29
533.67	54691.30
533.84	54693.64
534.01	54815.35
534.18	54899.61
534.35	55164.09
534.52	54941.74
534.69	55063.44
534.86	55194.51
535.03	54911.31
535.20	55257.71
535.37	55248.35
535.54	55267.07
535.71	55332.60
535.88	55489.42
536.05	55255.37
536.22	55414.52
536.38	55454.31
536.55	55573.68
536.72	55585.38
536.89	55330.26
537.06	55302.18
537.23	55583.04
537.40	55304.52
537.57	55749.22
537.74	55683.69
537.91	55821.78
538.08	55835.82
538.25	55671.98
538.42	55929.44
538.59	56128.39
538.75	55959.87
538.92	55817.10
539.09	55994.98
539.26	56205.62
539.43	55866.25
539.60	56259.46
539.77	55910.72
539.94	56254.78
540.11	56243.07
540.28	56367.12
540.44	56610.54
540.61	56306.27
540.78	56275.84
540.95	56273.50
541.12	56247.75
541.29	56236.05
541.46	56336.69
541.62	56526.28
541.79	56491.17
541.96	56324.99
542.13	56306.27
542.30	56348.40
542.47	56748.63
542.63	56769.69
542.80	56823.53
542.97	57001.41
543.14	56903.10
543.31	56879.70
543.48	57205.03
543.64	57361.85
543.81	57455.47
543.98	57092.69
544.15	57310.36
544.32	57366.53
544.48	57361.85
544.65	57333.76
544.82	57415.68
544.99	57240.14
545.16	57378.23
545.32	57261.21
545.49	57551.43
545.66	57752.72
545.83	57455.47
546.00	57481.22
546.16	57574.84
546.33	57359.51
546.50	57249.50
546.67	57626.33
546.83	57317.38
547.00	57670.80
547.17	57511.64
547.34	57609.95
547.50	58003.16
547.67	57918.90
547.84	58000.82
548.00	58089.76
548.17	58031.24
548.34	58014.86
548.51	58279.34
548.67	58141.25
548.84	58026.56
549.01	57909.53
549.18	58045.29
549.34	58174.02
549.51	58211.46
549.68	58223.17
549.84	58387.00
550.01	58150.61
550.18	58248.91
550.34	58356.58
550.51	58429.13
550.68	58475.94
550.84	58136.57
551.01	58286.36
551.18	58576.59
551.34	58534.46
551.51	58347.21
551.68	58639.78
551.84	58417.43
552.01	58478.28
552.18	58473.60
552.34	58349.56
552.51	58501.69
552.68	58419.77
552.84	58337.85
553.01	58925.33
553.18	58583.61
553.34	58918.31
553.51	58731.06
553.67	58740.42
553.84	59049.38
554.01	59175.76
554.17	59206.19
554.34	58876.18
554.51	58859.79
554.67	59105.55
554.84	58869.15
555.00	59070.44
555.17	58791.92
555.33	59023.63
555.50	58798.94
555.67	58817.66
555.83	58990.86
556.00	59107.89
556.16	59402.80
556.33	59018.95
556.50	59110.23
556.66	59276.41
556.83	58965.12
556.99	59377.05
557.16	59522.16
557.32	59250.66
557.49	59491.74
557.65	59433.22
557.82	59189.81
557.98	59332.58
558.15	59355.99
558.32	59501.10
558.48	59491.74
558.65	59377.05
558.81	59475.35
558.98	59353.65
559.14	59559.61
559.31	59554.93
559.47	59648.55
559.64	59714.09
559.80	59545.57
559.97	59777.28
560.13	59601.74
560.30	59760.90
560.46	59814.73
560.63	59894.31
560.79	59650.89
560.96	59753.88
561.12	59941.12
561.29	59735.15
561.45	59826.43
561.61	59594.72
561.78	59578.34
561.94	59669.62
562.11	59793.67
562.27	59770.26
562.44	59987.93
562.60	59938.78
562.77	59922.40
562.93	59648.55
563.10	59662.60
563.26	59739.83
563.42	59896.65
563.59	59922.40
563.75	59920.05
563.92	59833.46
564.08	59934.10
564.24	60004.31
564.41	60053.47
564.57	60079.21
564.74	60011.34
564.90	60037.08
565.07	60144.75
565.23	59943.46
565.39	59887.29
565.56	60214.96
565.72	59849.84
565.88	60245.39
566.05	60245.39
566.21	60116.66
566.38	60203.26
566.54	60093.25
566.70	60250.07
566.87	60126.02
567.03	60041.76
567.19	60460.72
567.36	60177.51
567.52	60280.50
567.68	60605.83
567.85	60331.99
568.01	60243.05
568.17	60065.17
568.34	60303.90
568.50	60243.05
568.66	60018.36
568.83	60320.29
568.99	60133.04
569.15	60350.71
569.32	60231.35
569.48	60299.22
569.64	60369.44
569.81	60453.70
569.97	60250.07
570.13	60552.00
570.30	60037.08
570.46	60409.23
570.62	60493.49
570.78	60308.58
570.95	60383.48
571.11	60493.49
571.27	60432.63
571.43	60399.86
571.60	60755.63
571.76	60322.63
571.92	60582.43
572.09	60472.42
572.25	60315.61
572.41	60327.31
572.57	60420.93
572.74	60643.28
572.90	60470.08
573.06	60547.32
573.22	60453.70
573.38	60563.70
573.55	60570.72
573.71	60589.45
573.87	60610.51
574.03	60591.79
574.20	60664.35
574.36	60505.19
574.52	60746.26
574.68	60619.88
574.84	60584.77
575.01	60828.18
575.17	60683.07
575.33	60631.58
575.49	60500.51
575.65	60811.80
575.82	60671.37
575.98	60811.80
576.14	60800.10
576.30	60893.72
576.46	60692.43
576.62	60610.51
576.79	60589.45
576.95	60427.95
577.11	60643.28
577.27	60739.24
577.43	60767.33
577.59	60722.86
577.75	60772.01
577.92	60481.78
578.08	60589.45
578.24	60825.84
578.40	60968.61
578.56	60889.04
578.72	60970.96
578.88	60807.12
579.04	61045.85
579.21	60720.52
579.37	60809.46
579.53	60666.69
579.69	60516.89
579.85	60617.53
580.01	60722.86
580.17	60690.09
580.33	60706.47
580.49	60874.99
580.65	60858.61
580.82	60701.79
580.98	60879.67
581.14	60858.61
581.30	60989.68
581.46	60886.70
581.62	60896.06
581.78	60879.67
581.94	60905.42
582.10	60739.24
582.26	60657.32
582.42	60830.52
582.58	60823.50
582.74	60779.03
582.90	60781.37
583.06	60931.17
583.22	60619.88
583.38	60973.30
583.54	60786.05
583.70	60877.33
583.86	60992.02
584.02	60788.39
584.18	60973.30
584.34	60828.18
584.50	60774.35
584.66	60872.65
584.82	60690.09
584.98	60877.33
585.14	60966.27
585.30	60851.59
585.46	61144.16
585.62	60764.99
585.78	61080.96
585.94	60779.03
586.10	60966.27
586.26	60973.30
586.42	61017.77
586.58	61017.77
586.74	60992.02
586.90	61052.87
587.06	60839.89
587.22	61139.47
587.38	60912.44
587.54	60989.68
587.70	61399.27
587.86	60781.37
588.02	60919.46
588.18	61041.17
588.34	61045.85
588.49	60821.16
