SpectraSuite Data File
++++++++++++++++++++++++++++++++++++
Date: Fri Oct 25 11:25:56 EDT 2013
User: price-jones
Dark Spectrum Present: No
Reference Spectrum Present: No
Number of Sampled Component Spectra: 1
Spectrometers: USB2+H05261
Integration Time (usec): 100000 (USB2+H05261)
Spectra Averaged: 1 (USB2+H05261)
Boxcar Smoothing: 0 (USB2+H05261)
Correct for Electrical Dark: No (USB2+H05261)
Strobe/Lamp Enabled: No (USB2+H05261)
Correct for Detector Non-linearity: No (USB2+H05261)
Correct for Stray Light: No (USB2+H05261)
Number of Pixels in Processed Spectrum: 2048
>>>>>Begin Processed Spectral Data<<<<<
365.73	173.20
365.92	173.20
366.12	173.20
366.32	177.88
366.52	102.98
366.72	170.86
366.91	114.69
367.11	163.84
367.31	133.41
367.51	112.35
367.70	217.67
367.90	133.41
368.10	145.11
368.30	135.75
368.49	91.28
368.69	156.82
368.89	170.86
369.09	95.96
369.28	95.96
369.48	102.98
369.68	121.71
369.87	269.16
370.07	266.82
370.27	203.63
370.47	301.93
370.66	638.97
370.86	610.88
371.06	641.31
371.25	744.29
371.45	697.48
371.65	727.91
371.84	702.16
372.04	641.31
372.24	631.94
372.44	669.39
372.63	718.54
372.83	739.61
373.03	788.76
373.22	720.88
373.42	777.06
373.62	737.27
373.81	758.33
374.01	863.66
374.21	858.98
374.40	819.19
374.60	816.85
374.79	805.14
374.99	711.52
375.19	751.31
375.38	774.72
375.58	798.12
375.78	875.36
375.97	833.23
376.17	861.32
376.37	884.72
376.56	823.87
376.76	976.00
376.95	940.90
377.15	903.45
377.35	936.21
377.54	819.19
377.74	915.15
377.93	999.41
378.13	924.51
378.33	978.34
378.52	866.00
378.72	999.41
378.91	985.37
379.11	999.41
379.31	924.51
379.50	926.85
379.70	994.73
379.89	980.68
380.09	959.62
380.28	898.77
380.48	1025.15
380.68	1020.47
380.87	936.21
381.07	1015.79
381.26	1060.26
381.46	992.39
381.65	1046.22
381.85	1018.13
382.04	1027.50
382.24	1121.12
382.43	1116.44
382.63	1039.20
382.83	1088.35
383.02	1041.54
383.22	1069.62
383.41	1053.24
383.61	1039.20
383.80	1055.58
384.00	1114.10
384.19	1055.58
384.39	1130.48
384.58	1200.69
384.78	1170.27
384.97	1088.35
385.17	1160.91
385.36	1165.59
385.56	1137.50
385.75	1153.88
385.95	1268.57
386.14	1167.93
386.34	1118.78
386.53	1252.19
386.72	1235.80
386.92	1263.89
387.11	1235.80
387.31	1198.35
387.50	1282.61
387.70	1315.38
387.89	1205.38
388.09	1343.47
388.28	1224.10
388.48	1242.82
388.67	1299.00
388.86	1373.89
389.06	1280.27
389.25	1383.26
389.45	1299.00
389.64	1294.32
389.84	1373.89
390.03	1350.49
390.22	1413.68
390.42	1352.83
390.61	1411.34
390.81	1383.26
391.00	1460.49
391.19	1420.71
391.39	1448.79
391.58	1383.26
391.78	1411.34
391.97	1441.77
392.16	1462.83
392.36	1561.14
392.55	1554.12
392.75	1558.80
392.94	1582.20
393.13	1481.56
393.33	1526.03
393.52	1444.11
393.71	1650.08
393.91	1652.42
394.10	1523.69
394.29	1514.33
394.49	1666.46
394.68	1605.61
394.88	1593.90
395.07	1673.48
395.26	1633.69
395.46	1713.27
395.65	1687.53
395.84	1675.82
396.04	1764.76
396.23	1713.27
396.42	1685.19
396.62	1675.82
396.81	1739.02
397.00	1809.23
397.19	1884.13
397.39	1753.06
397.58	1849.02
397.77	1870.09
397.97	1877.11
398.16	1813.92
398.35	1813.92
398.55	1870.09
398.74	1783.49
398.93	1973.07
399.12	1912.22
399.32	1809.23
399.51	1928.60
399.70	1987.11
399.90	1989.46
400.09	2031.58
400.28	2153.29
400.47	2029.24
400.67	2111.16
400.86	2045.63
401.05	2054.99
401.24	2062.01
401.44	2129.89
401.63	2155.63
401.82	2165.00
402.01	2125.21
402.21	2104.14
402.40	2272.66
402.59	2160.31
402.78	2242.23
402.97	2202.44
403.17	2354.58
403.36	2188.40
403.55	2225.85
403.74	2385.01
403.93	2370.96
404.13	2296.07
404.32	2394.37
404.51	2345.22
404.70	2293.72
404.89	2328.83
405.09	2366.28
405.28	2434.16
405.47	2462.24
405.66	2469.27
405.85	2504.37
406.05	2495.01
406.24	2628.42
406.43	2576.93
406.62	2600.34
406.81	2628.42
407.00	2649.49
407.20	2614.38
407.39	2642.46
407.58	2590.97
407.77	2757.15
407.96	2825.03
408.15	2808.64
408.34	2726.72
408.54	2700.98
408.73	2860.13
408.92	2792.26
409.11	2939.71
409.30	2803.96
409.49	2885.88
409.68	2813.32
409.87	2939.71
410.07	2960.78
410.26	2906.95
410.45	2918.65
410.64	2986.52
410.83	3009.93
411.02	3023.97
411.21	3213.56
411.40	3098.87
411.59	3255.69
411.78	3204.19
411.98	3169.09
412.17	3253.34
412.36	3269.73
412.55	3353.99
412.74	3349.31
412.93	3293.13
413.12	3346.97
413.31	3555.27
413.50	3672.30
413.69	3538.89
413.88	3545.91
414.07	3585.70
414.26	3618.47
414.45	3723.79
414.64	3721.45
414.83	3658.26
415.02	3833.80
415.22	3691.02
415.41	3756.56
415.60	3850.18
415.79	4011.68
415.98	3981.25
416.17	4021.04
416.36	3939.12
416.55	3866.56
416.74	3976.57
416.93	4007.00
417.12	4138.07
417.31	4184.88
417.50	4227.01
417.69	4135.73
417.88	4283.18
418.07	4215.30
418.26	4311.27
418.45	4250.41
418.64	4421.27
418.83	4358.08
419.02	4440.00
419.21	4489.15
419.39	4503.19
419.58	4519.57
419.77	4435.32
419.96	4608.51
420.15	4486.81
420.34	4585.11
420.53	4608.51
420.72	4826.18
420.91	4615.54
421.10	4844.91
421.29	4816.82
421.48	4711.50
421.67	4807.46
421.86	4744.27
422.05	4699.80
422.24	4727.88
422.43	4917.47
422.61	4997.04
422.80	4954.91
422.99	4884.70
423.18	4999.38
423.37	5050.88
423.56	4997.04
423.75	4908.10
423.94	4990.02
424.13	4669.37
424.32	4905.76
424.50	4968.96
424.69	5048.54
424.88	5015.77
425.07	4805.12
425.26	4826.18
425.45	4868.31
425.64	4943.21
425.83	5109.39
426.01	4975.98
426.20	5057.90
426.39	4950.23
426.58	5013.43
426.77	4943.21
426.96	5041.51
427.15	5191.31
427.33	5282.59
427.52	5074.28
427.71	5308.34
427.90	5139.82
428.09	5317.70
428.28	5320.04
428.46	5228.76
428.65	5401.96
428.84	5476.85
429.03	5474.51
429.22	5268.55
429.40	5600.90
429.59	5394.93
429.78	5383.23
429.97	5399.62
430.16	5462.81
430.34	5530.69
430.53	5530.69
430.72	5504.94
430.91	5518.98
431.10	5600.90
431.28	5724.95
431.47	5764.74
431.66	5795.17
431.85	5804.53
432.03	5902.83
432.22	6052.63
432.41	5692.18
432.60	5926.24
432.79	6136.88
432.97	6085.39
433.16	6169.65
433.35	5898.15
433.54	5888.79
433.72	5989.43
433.91	6101.78
434.10	6164.97
434.28	6122.84
434.47	6214.12
434.66	6235.19
434.85	6384.98
435.03	6352.21
435.22	6328.81
435.41	6569.88
435.59	6293.70
435.78	6284.34
435.97	6274.98
436.16	6455.20
436.34	6480.94
436.53	6637.76
436.72	6544.14
436.90	6595.63
437.09	6672.87
437.28	6469.24
437.46	6551.16
437.65	6705.63
437.84	6623.72
438.02	6640.10
438.21	6604.99
438.40	6696.27
438.58	6855.43
438.77	6935.01
438.96	6958.41
439.14	7054.37
439.33	7265.02
439.52	7265.02
439.70	7131.61
439.89	7180.76
440.08	7286.09
440.26	7478.01
440.45	7349.28
440.63	7454.61
440.82	7611.42
441.01	7382.05
441.19	7609.08
441.38	7873.56
441.57	7784.62
441.75	7686.32
441.94	7845.48
442.12	7840.79
442.31	8053.78
442.50	7976.55
442.68	7906.33
442.87	7838.45
443.05	8163.79
443.24	8280.82
443.43	8133.36
443.61	8308.90
443.80	8226.98
443.98	7988.25
444.17	7866.54
444.35	8271.45
444.54	8477.42
444.73	8219.96
444.91	8308.90
445.10	8168.47
445.28	8271.45
445.47	8166.13
445.65	8313.58
445.84	8318.26
446.02	8299.54
446.21	8173.15
446.39	8404.86
446.58	8311.24
446.77	8538.27
446.95	8276.13
447.14	8472.74
447.32	8650.62
447.51	8386.14
447.69	8648.28
447.88	8498.49
448.06	8486.78
448.25	8622.53
448.43	8585.08
448.62	8489.12
448.80	8446.99
448.99	8613.17
449.17	8613.17
449.36	8690.41
449.54	8851.91
449.73	8957.23
449.91	8971.27
450.10	8755.94
450.28	8856.59
450.46	9057.87
450.65	8915.10
450.83	9165.54
451.02	8828.50
451.20	9104.68
451.39	9252.14
451.57	9294.27
451.76	9022.77
451.94	9210.01
452.13	9245.12
452.31	9284.91
452.49	9125.75
452.68	9352.78
452.86	9357.46
453.05	9568.11
453.23	9500.23
453.42	9345.76
453.60	9392.57
453.78	9390.23
453.97	9551.73
454.15	9551.73
454.34	9635.99
454.52	9610.24
454.70	9635.99
454.89	9748.33
455.07	9771.74
455.26	9884.08
455.44	9951.96
455.62	9902.81
455.81	9748.33
455.99	10061.96
456.17	10237.50
456.36	10031.54
456.54	10176.65
456.73	9996.43
456.91	10527.73
457.09	10298.36
457.28	10462.19
457.46	10291.34
457.64	10349.85
457.83	10445.81
458.01	10349.85
458.19	10960.73
458.38	10506.66
458.56	10647.10
458.74	10391.98
458.93	10553.48
459.11	10668.16
459.29	10726.68
459.48	10726.68
459.66	10876.47
459.84	10923.28
460.03	10827.32
460.21	10984.13
460.39	11103.50
460.57	11262.66
460.76	11201.80
460.94	11183.08
461.12	11234.57
461.31	11267.34
461.49	11105.84
461.67	11084.78
461.85	11466.28
462.04	11370.32
462.22	11925.03
462.40	11653.53
462.59	11580.97
462.77	11433.52
462.95	11578.63
463.13	11492.03
463.32	11606.72
463.50	11620.76
463.68	11644.17
463.86	11829.07
464.05	11527.14
464.23	11522.46
464.41	11971.84
464.59	11522.46
464.78	12184.83
464.96	11941.41
465.14	11812.68
465.32	11974.18
465.50	11918.01
465.69	12058.44
465.87	12140.36
466.05	12063.12
466.23	12138.02
466.41	12229.30
466.60	12528.89
466.78	12367.39
466.96	12037.38
467.14	12332.28
467.32	12421.22
467.51	12631.87
467.69	12002.27
467.87	12554.63
468.05	12526.55
468.23	12449.31
468.41	12535.91
468.60	12512.50
468.78	12617.83
468.96	12386.12
469.14	12706.77
469.32	12875.29
469.50	12596.76
469.69	13006.36
469.87	13179.56
470.05	12957.21
470.23	13118.70
470.41	13123.38
470.59	13401.91
470.77	12931.46
470.95	13219.35
471.14	13561.06
471.32	13015.72
471.50	13429.99
471.68	13481.49
471.86	13568.09
472.04	13582.13
472.22	14214.07
472.40	13654.69
472.58	13837.25
472.77	13877.04
472.95	14106.41
473.13	14712.61
473.31	13891.08
473.49	14171.94
473.67	14085.34
473.85	14326.42
474.03	14661.12
474.21	14466.85
474.39	14672.82
474.57	14654.09
474.75	15000.49
474.93	15119.86
475.12	14586.22
475.30	15220.50
475.48	14911.55
475.66	15087.09
475.84	15208.80
476.02	15419.45
476.20	15129.22
476.38	15822.02
476.56	16173.10
476.74	15917.98
476.92	15742.44
477.10	15704.99
477.28	15967.13
477.46	16039.69
477.64	16053.73
477.82	16500.78
478.00	17205.28
478.18	17008.67
478.36	16929.09
478.54	17216.98
478.72	17209.96
478.90	17310.60
479.08	17539.97
479.26	17453.37
479.44	17439.33
479.62	17745.94
479.80	17802.11
479.98	18064.25
480.16	18394.27
480.34	18132.13
480.52	18586.19
480.70	18752.37
480.88	18333.42
481.06	18649.39
481.24	18523.00
481.41	19159.63
481.59	19047.28
481.77	19365.59
481.95	19358.57
482.13	19700.29
482.31	19496.66
482.49	20074.77
482.67	20058.39
482.85	20285.42
483.03	20489.05
483.21	20723.10
483.39	20741.83
483.57	20753.53
483.74	20968.86
483.92	21500.16
484.10	21188.87
484.28	21532.93
484.46	22078.27
484.64	22417.65
484.82	22087.64
485.00	22375.52
485.18	22735.96
485.35	23185.35
485.53	22677.45
485.71	23180.67
485.89	23140.88
486.07	23285.99
486.25	23625.37
486.43	23447.49
486.61	23653.45
486.78	23882.83
486.96	24156.67
487.14	24299.44
487.32	24250.29
487.50	24669.25
487.68	25085.86
487.85	25109.27
488.03	25270.76
488.21	25663.97
488.39	25355.02
488.57	26291.24
488.75	26099.31
488.92	26340.39
489.10	26682.11
489.28	26497.20
489.46	27323.41
489.64	27292.99
489.81	27690.88
489.99	27590.24
490.17	27957.70
490.35	28198.77
490.53	28203.46
490.70	28587.30
490.88	28393.04
491.06	28762.84
491.24	28950.09
491.41	28683.27
491.59	29352.66
491.77	29088.18
491.95	29298.83
492.13	29748.21
492.30	30092.27
492.48	30036.09
492.66	30183.55
492.84	30188.23
493.01	30551.01
493.19	30522.93
493.37	30724.21
493.54	30792.09
493.72	31325.73
493.90	31477.86
494.08	31824.26
494.25	31934.27
494.43	31847.67
494.61	32306.41
494.79	32734.73
494.96	32886.87
495.14	32666.86
495.32	33050.70
495.49	33298.80
495.67	33001.55
495.85	33460.30
496.02	33614.77
496.20	33804.36
496.38	33837.12
496.55	34113.31
496.73	34761.64
496.91	34426.94
497.09	34726.53
497.26	35187.61
497.44	34778.02
497.62	35585.50
497.79	35646.36
497.97	35309.32
498.14	35770.41
498.32	35901.48
498.50	36334.48
498.67	36652.79
498.85	36266.60
499.03	36648.11
499.20	36912.59
499.38	36313.41
499.56	36903.23
499.73	37172.39
499.91	37198.13
500.08	37490.70
500.26	37017.91
500.44	37483.68
500.61	37816.04
500.79	37668.58
500.97	38124.99
501.14	38560.33
501.32	38457.34
501.49	38808.42
501.67	38642.24
501.84	38862.26
502.02	38548.62
502.20	39051.84
502.37	39674.42
502.55	38969.92
502.72	39110.35
502.90	39477.82
503.07	39281.21
503.25	40112.10
503.43	39587.82
503.60	40020.82
503.78	39959.97
503.95	40046.57
504.13	40360.20
504.30	40353.18
504.48	39955.29
504.65	40687.87
504.83	41081.08
505.01	41301.09
505.18	40627.02
505.36	41605.36
505.53	41153.64
505.71	41546.85
505.88	41956.44
506.06	41654.51
506.23	41951.76
506.41	41710.69
506.58	41790.27
506.76	42054.75
506.93	42380.08
507.11	41933.04
507.28	42359.02
507.46	42679.67
507.63	42920.74
507.81	43124.37
507.98	43178.20
508.16	43255.44
508.33	43255.44
508.50	43328.00
508.68	43550.35
508.85	43927.17
509.03	43810.15
509.20	43665.03
509.38	44086.33
509.55	43983.35
509.73	44430.39
509.90	44947.65
510.08	44516.99
510.25	44629.34
510.42	44198.68
510.60	44896.16
510.77	44964.03
510.95	45287.03
511.12	45214.47
511.30	45170.00
511.47	45565.55
511.64	45240.21
511.82	45542.14
511.99	45570.23
512.17	45481.29
512.34	46321.54
512.51	46288.77
512.69	46288.77
512.86	46094.51
513.04	46770.93
513.21	46576.66
513.38	46447.93
513.56	46829.44
513.73	46649.22
513.90	47086.90
514.08	46644.54
514.25	47463.72
514.43	47555.00
514.60	47325.63
514.77	47405.21
514.95	47714.16
515.12	47693.10
515.29	47466.06
515.47	47810.12
515.64	47894.38
515.81	47828.85
515.99	48376.53
516.16	48568.46
516.33	47943.53
516.51	48442.07
516.68	48268.87
516.85	48367.17
517.03	48573.14
517.20	48795.49
517.37	48776.76
517.54	48790.81
517.72	48673.78
517.89	48985.07
518.06	49024.86
518.24	49226.15
518.41	49425.09
518.58	48680.80
518.75	49343.17
518.93	49315.09
519.10	49392.33
519.27	49752.77
519.45	50101.51
519.62	49869.79
519.79	50092.15
519.96	49755.11
520.14	50068.74
520.31	50253.64
520.48	50068.74
520.65	50075.76
520.83	50237.26
521.00	50564.93
521.17	50337.90
521.34	50557.91
521.52	50665.58
521.69	50726.43
521.86	51250.71
522.03	51124.32
522.20	51033.04
522.38	51217.94
522.55	51217.94
522.72	51288.16
522.89	51079.85
523.07	51496.47
523.24	51543.28
523.41	51306.88
523.58	51440.29
523.75	51629.88
523.92	51276.46
524.10	51592.43
524.27	51927.13
524.44	51784.35
524.61	51861.59
524.78	52044.15
524.96	51969.26
525.13	52088.62
525.30	52172.88
525.47	52367.15
525.64	52144.80
525.81	52718.23
525.98	52762.70
526.16	52507.58
526.33	52900.79
526.50	53123.14
526.67	52650.35
526.84	52797.80
527.01	52971.00
527.18	52842.27
527.36	52762.70
527.53	53052.92
527.70	53073.99
527.87	53109.10
528.04	52985.05
528.21	53396.98
528.38	52900.79
528.55	53647.42
528.72	53202.72
528.89	53633.38
529.07	53385.28
529.24	53181.65
529.41	53811.26
529.58	53694.23
529.75	53712.95
529.92	53553.80
530.09	53851.05
530.26	54164.68
530.43	54019.56
530.60	53565.50
530.77	53998.50
530.94	54131.91
531.11	54035.95
531.28	54127.23
531.46	54080.42
531.63	54171.70
531.80	54066.38
531.97	54262.98
532.14	54284.04
532.31	54302.77
532.48	54272.34
532.65	54490.01
532.82	54422.14
532.99	54576.61
533.16	54527.46
533.33	54667.89
533.50	54719.38
533.67	54822.37
533.84	54960.46
534.01	54775.56
534.18	54534.48
534.35	54897.27
534.52	54719.38
534.69	55234.30
534.86	55348.99
535.03	54787.26
535.20	55203.88
535.37	55126.64
535.54	55550.27
535.71	55269.41
535.88	55255.37
536.05	55309.20
536.22	55440.27
536.38	55545.59
536.55	55395.80
536.72	55458.99
536.89	55543.25
537.06	55330.26
537.23	55594.74
537.40	55524.53
537.57	55615.81
537.74	55554.96
537.91	55884.97
538.08	55990.30
538.25	55648.58
538.42	55882.63
538.59	56140.09
538.75	55819.44
538.92	56142.43
539.09	56186.90
539.26	56130.73
539.43	56222.01
539.60	55941.14
539.77	56147.11
539.94	56360.10
540.11	56179.88
540.28	56163.50
540.44	56427.98
540.61	56147.11
540.78	56137.75
540.95	56378.82
541.12	56404.57
541.29	56231.37
541.46	56374.14
541.62	56528.62
541.79	56790.76
541.96	56589.47
542.13	56673.73
542.30	56507.55
542.47	56734.59
542.63	56650.33
542.80	56879.70
542.97	56914.81
543.14	57041.20
543.31	57244.82
543.48	56928.85
543.64	57270.57
543.81	57408.66
543.98	57113.75
544.15	57333.76
544.32	57432.07
544.48	57558.45
544.65	57359.51
544.82	57263.55
544.99	57092.69
545.16	57640.37
545.32	57113.75
545.49	57684.84
545.66	57797.19
545.83	57317.38
546.00	57661.44
546.16	57549.09
546.33	57457.81
546.50	57359.51
546.67	57750.38
546.83	57305.68
547.00	57841.66
547.17	57593.56
547.34	57703.57
547.50	57841.66
547.67	58195.08
547.84	57930.60
548.00	58007.84
548.17	58124.86
548.34	57921.24
548.51	58326.15
548.67	58288.70
548.84	58195.08
549.01	58054.65
549.18	58068.69
549.34	58218.49
549.51	58094.44
549.68	58171.67
549.84	58253.59
550.01	58253.59
550.18	58136.57
550.34	58410.41
550.51	58288.70
550.68	58419.77
550.84	58185.72
551.01	58489.99
551.18	58529.78
551.34	58431.47
551.51	58525.10
551.68	58475.94
551.84	58550.84
552.01	58272.32
552.18	58504.03
552.34	58506.37
552.51	58728.72
552.68	58501.69
552.84	58791.92
553.01	58955.75
553.18	58721.70
553.34	58897.24
553.51	58548.50
553.67	58883.20
553.84	58953.41
554.01	58827.02
554.17	58775.53
554.34	59009.59
554.51	58857.45
554.67	58941.71
554.84	58784.90
555.00	59124.27
555.17	59054.06
555.33	59166.40
555.50	58803.62
555.67	58808.30
555.83	58838.73
556.00	59054.06
556.16	59440.24
556.33	59288.11
556.50	59224.92
556.66	59311.52
556.83	58995.54
556.99	59428.54
557.16	59351.30
557.32	59229.60
557.49	59693.02
557.65	59269.39
557.82	59229.60
557.98	59330.24
558.15	59456.63
558.32	59318.54
558.48	59348.96
558.65	59405.14
558.81	59475.35
558.98	59456.63
559.14	59540.89
559.31	59489.40
559.47	59718.77
559.64	59737.49
559.80	59524.50
559.97	59533.87
560.13	59484.72
560.30	59648.55
560.46	59746.86
560.63	59765.58
560.79	59973.89
560.96	59779.62
561.12	59730.47
561.29	59714.09
561.45	59826.43
561.61	59732.81
561.78	59641.53
561.94	59721.11
562.11	60004.31
562.27	59887.29
562.44	59838.14
562.60	60048.78
562.77	60095.60
562.93	59854.52
563.10	59983.25
563.26	59653.23
563.42	60072.19
563.59	60030.06
563.75	59882.61
563.92	59791.33
564.08	59957.50
564.24	60210.28
564.41	60229.01
564.57	60116.66
564.74	60062.83
564.90	60128.36
565.07	59814.73
565.23	60142.41
565.39	60011.34
565.56	60334.33
565.72	60191.56
565.88	59793.67
566.05	60076.87
566.21	60320.29
566.38	60282.84
566.54	60191.56
566.70	60273.48
566.87	60233.69
567.03	60086.23
567.19	60458.38
567.36	60243.05
567.52	60367.10
567.68	60446.68
567.85	60486.46
568.01	60488.80
568.17	60210.28
568.34	60367.10
568.50	60343.69
568.66	60247.73
568.83	60257.09
568.99	60177.51
569.15	60252.41
569.32	60449.02
569.48	60221.98
569.64	60596.47
569.81	60348.37
569.97	60278.16
570.13	60254.75
570.30	60317.95
570.46	60561.36
570.62	60458.38
570.78	60554.34
570.95	60395.18
571.11	60505.19
571.27	60416.25
571.43	60322.63
571.60	60540.30
571.76	60734.56
571.92	60526.25
572.09	60453.70
572.25	60458.38
572.41	60406.89
572.57	60467.74
572.74	60931.17
572.90	60418.59
573.06	60556.68
573.22	60615.19
573.38	60650.30
573.55	60622.22
573.71	60870.31
573.87	60722.86
574.03	60544.98
574.20	60715.84
574.36	60556.68
574.52	60680.73
574.68	60589.45
574.84	60694.77
575.01	60788.39
575.17	60441.99
575.33	60652.64
575.49	60774.35
575.65	60657.32
575.82	60715.84
575.98	60654.98
576.14	61043.51
576.30	60692.43
576.46	60711.16
576.62	60584.77
576.79	60701.79
576.95	60788.39
577.11	60711.16
577.27	60521.57
577.43	60956.91
577.59	60706.47
577.75	60540.30
577.92	60458.38
578.08	60903.08
578.24	60807.12
578.40	60830.52
578.56	61008.40
578.72	60748.60
578.88	61078.62
579.04	61242.46
579.21	60807.12
579.37	61059.90
579.53	60935.85
579.69	60928.83
579.85	60844.57
580.01	60701.79
580.17	60664.35
580.33	60811.80
580.49	60999.04
580.65	60853.93
580.82	60781.37
580.98	60725.20
581.14	60692.43
581.30	60999.04
581.46	60966.27
581.62	60910.10
581.78	60935.85
581.94	60793.07
582.10	60870.31
582.26	60870.31
582.42	60706.47
582.58	60877.33
582.74	61006.06
582.90	60769.67
583.06	60938.19
583.22	60647.96
583.38	60872.65
583.54	60867.97
583.70	60882.02
583.86	61095.00
584.02	61111.39
584.18	61008.40
584.34	60905.42
584.50	60779.03
584.66	60889.04
584.82	60851.59
584.98	61151.18
585.14	61104.37
585.30	60867.97
585.46	61087.98
585.62	61078.62
585.78	60975.64
585.94	60718.18
586.10	61006.06
586.26	61029.47
586.42	61050.53
586.58	61141.81
586.74	61165.22
586.90	61006.06
587.06	61041.17
587.22	61216.71
587.38	60807.12
587.54	61104.37
587.70	61212.03
587.86	61001.38
588.02	61085.64
588.18	60959.25
588.34	61031.81
588.49	60938.19
