SpectraSuite Data File
++++++++++++++++++++++++++++++++++++
Date: Fri Oct 25 11:26:11 EDT 2013
User: price-jones
Dark Spectrum Present: No
Reference Spectrum Present: No
Number of Sampled Component Spectra: 1
Spectrometers: USB2+H05261
Integration Time (usec): 100000 (USB2+H05261)
Spectra Averaged: 1 (USB2+H05261)
Boxcar Smoothing: 0 (USB2+H05261)
Correct for Electrical Dark: No (USB2+H05261)
Strobe/Lamp Enabled: No (USB2+H05261)
Correct for Detector Non-linearity: No (USB2+H05261)
Correct for Stray Light: No (USB2+H05261)
Number of Pixels in Processed Spectrum: 2048
>>>>>Begin Processed Spectral Data<<<<<
365.73	236.39
365.92	236.39
366.12	236.39
366.32	168.52
366.52	128.73
366.72	168.52
366.91	191.92
367.11	187.24
367.31	159.16
367.51	205.97
367.70	163.84
367.90	166.18
368.10	184.90
368.30	161.50
368.49	119.37
368.69	154.48
368.89	152.13
369.09	88.94
369.28	184.90
369.48	222.35
369.68	194.26
369.87	194.26
370.07	187.24
370.27	266.82
370.47	381.51
370.66	535.98
370.86	657.69
371.06	664.71
371.25	660.03
371.45	631.94
371.65	674.07
371.84	606.20
372.04	678.76
372.24	643.65
372.44	645.99
372.63	748.97
372.83	709.18
373.03	858.98
373.22	798.12
373.42	772.38
373.62	819.19
373.81	800.46
374.01	840.25
374.21	851.96
374.40	807.48
374.60	854.30
374.79	816.85
374.99	805.14
375.19	858.98
375.38	851.96
375.58	823.87
375.78	809.83
375.97	823.87
376.17	924.51
376.37	866.00
376.56	875.36
376.76	779.40
376.95	854.30
377.15	901.11
377.35	854.30
377.54	943.24
377.74	854.30
377.93	898.77
378.13	882.38
378.33	950.26
378.52	891.74
378.72	917.49
378.91	915.15
379.11	926.85
379.31	926.85
379.50	898.77
379.70	938.55
379.89	901.11
380.09	964.30
380.28	1036.86
380.48	954.94
380.68	945.58
380.87	1050.90
381.07	1097.71
381.26	1029.84
381.46	1032.18
381.65	1055.58
381.85	1057.92
382.04	1123.46
382.24	1043.88
382.43	1071.97
382.63	1064.94
382.83	1109.41
383.02	1041.54
383.22	1088.35
383.41	1020.47
383.61	1062.60
383.80	1097.71
384.00	1142.18
384.19	1142.18
384.39	1146.86
384.58	1165.59
384.78	1142.18
384.97	1207.72
385.17	1165.59
385.36	1191.33
385.56	1142.18
385.75	1200.69
385.95	1151.54
386.14	1146.86
386.34	1137.50
386.53	1200.69
386.72	1160.91
386.92	1343.47
387.11	1177.29
387.31	1289.64
387.50	1287.29
387.70	1268.57
387.89	1254.53
388.09	1299.00
388.28	1259.21
388.48	1270.91
388.67	1282.61
388.86	1291.98
389.06	1369.21
389.25	1315.38
389.45	1284.95
389.64	1355.17
389.84	1399.64
390.03	1345.81
390.22	1397.30
390.42	1345.81
390.61	1336.45
390.81	1313.04
391.00	1462.83
391.19	1495.60
391.39	1355.17
391.58	1516.67
391.78	1502.62
391.97	1444.11
392.16	1390.28
392.36	1547.09
392.55	1462.83
392.75	1584.54
392.94	1526.03
393.13	1490.92
393.33	1535.39
393.52	1537.73
393.71	1675.82
393.91	1610.29
394.10	1542.41
394.29	1624.33
394.49	1652.42
394.68	1614.97
394.88	1572.84
395.07	1565.82
395.26	1703.91
395.46	1720.29
395.65	1661.78
395.84	1678.16
396.04	1893.49
396.23	1762.42
396.42	1739.02
396.62	1767.10
396.81	1659.44
397.00	1748.38
397.19	1706.25
397.39	1849.02
397.58	1867.75
397.77	1858.39
397.97	1795.19
398.16	1774.13
398.35	1907.54
398.55	1968.39
398.74	1926.26
398.93	1996.48
399.12	1884.13
399.32	1741.36
399.51	2012.86
399.70	2043.29
399.90	2033.93
400.09	1959.03
400.28	2010.52
400.47	2094.78
400.67	2083.08
400.86	2069.03
401.05	2146.27
401.24	2038.61
401.44	2036.27
401.63	2244.57
401.82	2104.14
402.01	2139.25
402.21	2186.06
402.40	2214.15
402.59	2260.96
402.78	2312.45
402.97	2207.13
403.17	2197.76
403.36	2270.32
403.55	2209.47
403.74	2380.32
403.93	2244.57
404.13	2476.29
404.32	2370.96
404.51	2375.64
404.70	2406.07
404.89	2424.80
405.09	2504.37
405.28	2431.82
405.47	2483.31
405.66	2471.61
405.85	2504.37
406.05	2637.78
406.24	2628.42
406.43	2586.29
406.62	2579.27
406.81	2630.76
407.00	2541.82
407.20	2574.59
407.39	2567.57
407.58	2635.44
407.77	2715.02
407.96	2738.43
408.15	2825.03
408.34	2799.28
408.54	2883.54
408.73	2801.62
408.92	2724.38
409.11	2799.28
409.30	2853.11
409.49	2984.18
409.68	2897.58
409.87	2984.18
410.07	3068.44
410.26	2958.44
410.45	2974.82
410.64	3066.10
410.83	3061.42
411.02	3164.40
411.21	3126.96
411.40	3075.46
411.59	3183.13
411.78	3150.36
411.98	3133.98
412.17	3236.96
412.36	3286.11
412.55	3328.24
412.74	3398.46
412.93	3368.03
413.12	3265.05
413.31	3611.45
413.50	3548.25
413.69	3447.61
413.88	3585.70
414.07	3550.59
414.26	3632.51
414.45	3772.94
414.64	3684.00
414.83	3595.06
415.02	3702.73
415.22	3871.25
415.41	3786.99
415.60	3857.20
415.79	3943.80
415.98	3889.97
416.17	3967.21
416.36	3950.82
416.55	4067.85
416.74	4135.73
416.93	3960.19
417.12	4119.34
417.31	4102.96
417.50	4140.41
417.69	4475.10
417.88	4250.41
418.07	4341.69
418.26	4351.06
418.45	4311.27
418.64	4535.96
418.83	4383.82
419.02	4367.44
419.21	4599.15
419.39	4540.64
419.58	4603.83
419.77	4465.74
419.96	4519.57
420.15	4589.79
420.34	4484.47
420.53	4568.73
420.72	4835.55
420.91	4730.22
421.10	4664.69
421.29	4774.69
421.48	4596.81
421.67	4798.10
421.86	4664.69
422.05	4755.97
422.24	4865.97
422.43	4896.40
422.61	4826.18
422.80	4901.08
422.99	4926.83
423.18	4917.47
423.37	5064.92
423.56	4875.34
423.75	4896.40
423.94	4877.68
424.13	4531.28
424.32	4849.59
424.50	5032.15
424.69	5050.88
424.88	4987.68
425.07	4975.98
425.26	4863.63
425.45	4896.40
425.64	4882.36
425.83	4980.66
426.01	5043.85
426.20	4950.23
426.39	5078.96
426.58	4842.57
426.77	4961.94
426.96	5043.85
427.15	4966.62
427.33	5214.71
427.52	5034.49
427.71	5165.56
427.90	5167.90
428.09	5259.18
428.28	5221.74
428.46	5324.72
428.65	5345.78
428.84	5561.11
429.03	5518.98
429.22	5289.61
429.40	5584.52
429.59	5523.66
429.78	5282.59
429.97	5296.63
430.16	5514.30
430.34	5701.54
430.53	5558.77
430.72	5593.88
430.91	5657.07
431.10	5547.07
431.28	5764.74
431.47	5694.52
431.66	5820.91
431.85	5659.42
432.03	5874.74
432.22	5916.87
432.41	5701.54
432.60	6001.13
432.79	6106.46
432.97	5942.62
433.16	6064.33
433.35	6050.28
433.54	6150.93
433.72	6167.31
433.91	6249.23
434.10	6143.91
434.28	5994.11
434.47	6260.93
434.66	6279.66
434.85	6207.10
435.03	6171.99
435.22	6349.87
435.41	6464.56
435.59	6289.02
435.78	6406.05
435.97	6581.59
436.16	6370.94
436.34	6487.96
436.53	6635.42
436.72	6717.34
436.90	6434.13
437.09	6567.54
437.28	6382.64
437.46	6619.04
437.65	6794.58
437.84	6888.20
438.02	6590.95
438.21	6745.42
438.40	6612.01
438.58	6927.99
438.77	6939.69
438.96	7059.06
439.14	7052.03
439.33	7321.20
439.52	6981.82
439.70	7197.15
439.89	7403.11
440.08	7414.82
440.26	7438.22
440.45	7384.39
440.63	7599.72
440.82	7749.51
441.01	7417.16
441.19	7714.41
441.38	7630.15
441.57	7751.85
441.75	7779.94
441.94	7990.59
442.12	7838.45
442.31	8091.23
442.50	8102.93
442.68	7971.86
442.87	7978.89
443.05	8248.05
443.24	8285.50
443.43	8006.97
443.61	8203.58
443.80	8341.67
443.98	8208.26
444.17	7866.54
444.35	7997.61
444.54	8404.86
444.73	8348.69
444.91	8273.79
445.10	8346.35
445.28	8395.50
445.47	8191.88
445.65	8315.92
445.84	8489.12
446.02	8446.99
446.21	8409.54
446.39	8329.97
446.58	8339.33
446.77	8678.71
446.95	8241.03
447.14	8444.65
447.32	8777.01
447.51	8592.11
447.69	8477.42
447.88	8580.40
448.06	8517.21
448.25	8496.14
448.43	8615.51
448.62	8475.08
448.80	8592.11
448.99	8690.41
449.17	8908.08
449.36	8564.02
449.54	8683.39
449.73	9057.87
449.91	8980.64
450.10	8840.20
450.28	9240.44
450.46	8938.51
450.65	9004.04
450.83	8879.99
451.02	9046.17
451.20	9200.65
451.39	9069.58
451.57	9221.71
451.76	9107.02
451.94	9228.73
452.13	9312.99
452.31	9247.46
452.49	9151.49
452.68	9504.92
452.86	9277.88
453.05	9245.12
453.23	9411.29
453.42	9472.15
453.60	9261.50
453.78	9418.32
453.97	9348.10
454.15	9469.81
454.34	9385.55
454.52	9710.88
454.70	9472.15
454.89	9689.82
455.07	9790.46
455.26	9795.14
455.44	9837.27
455.62	9724.93
455.81	9687.48
455.99	9736.63
456.17	10031.54
456.36	10050.26
456.54	10207.08
456.73	10108.77
456.91	10373.25
457.09	10413.04
457.28	10569.86
457.46	10373.25
457.64	10518.37
457.83	10548.79
458.01	10406.02
458.19	10689.23
458.38	10607.31
458.56	10539.43
458.74	10656.46
458.93	10757.10
459.11	10555.82
459.29	10658.80
459.48	10759.44
459.66	10733.70
459.84	10539.43
460.03	11119.89
460.21	10902.22
460.39	10714.97
460.57	10913.92
460.76	11009.88
460.94	11185.42
461.12	11218.19
461.31	11026.26
461.49	11269.68
461.67	11077.76
461.85	11332.87
462.04	11059.03
462.22	11873.54
462.40	11482.67
462.59	11314.15
462.77	11576.29
462.95	11632.46
463.13	11676.93
463.32	11733.11
463.50	11700.34
463.68	11782.26
463.86	11793.96
464.05	11765.87
464.23	11576.29
464.41	11971.84
464.59	11494.37
464.78	12121.63
464.96	11852.47
465.14	11800.98
465.32	11946.09
465.50	12229.30
465.69	11913.33
465.87	12088.87
466.05	12084.19
466.23	12105.25
466.41	12163.76
466.60	12290.15
466.78	12037.38
466.96	12006.95
467.14	12095.89
467.32	12306.54
467.51	12500.80
467.69	12219.94
467.87	12542.93
468.05	12692.73
468.23	12386.12
468.41	12540.59
468.60	12428.24
468.78	12657.62
468.96	12472.71
469.14	12800.39
469.32	12943.16
469.50	12678.68
469.69	12826.14
469.87	13165.51
470.05	13202.96
470.23	13137.43
470.41	12805.07
470.59	13310.63
470.77	13027.42
470.95	13128.06
471.14	13504.89
471.32	13116.36
471.50	13528.30
471.68	13612.56
471.86	13802.14
472.04	13678.09
472.22	14001.08
472.40	13872.36
472.58	13647.66
472.77	13551.70
472.95	14218.75
473.13	14583.88
473.31	13841.93
473.49	14181.31
473.67	14141.52
473.85	14256.20
474.03	14562.81
474.21	14436.42
474.39	14724.31
474.57	14504.30
474.75	14714.95
474.93	15283.70
475.12	15091.77
475.30	15021.56
475.48	15152.63
475.66	15192.42
475.84	14904.53
476.02	15264.97
476.20	15351.57
476.38	15592.65
476.56	15824.36
476.74	15845.43
476.92	15967.13
477.10	15606.69
477.28	15929.69
477.46	16065.44
477.64	16327.58
477.82	16688.02
478.00	16912.71
478.18	16919.73
478.36	17081.23
478.54	17041.44
478.72	17078.89
478.90	17383.16
479.08	17544.66
479.26	17490.82
479.44	17647.64
479.62	18132.13
479.80	18087.66
479.98	18153.20
480.16	18630.66
480.34	18298.31
480.52	18530.02
480.70	18553.43
480.88	18398.95
481.06	18897.49
481.24	18707.90
481.41	19419.42
481.59	19585.60
481.77	19555.18
481.95	19288.35
482.13	19426.45
482.31	19548.15
482.49	20025.62
482.67	20088.82
482.85	20463.30
483.03	20393.09
483.21	20577.99
483.39	20849.49
483.57	20688.00
483.74	21188.87
483.92	21329.30
484.10	21399.52
484.28	21694.43
484.46	22101.68
484.64	22284.24
484.82	21898.05
485.00	22267.86
485.18	22888.10
485.35	22974.70
485.53	22852.99
485.71	22946.61
485.89	23463.87
486.07	23358.55
486.25	23531.75
486.43	23662.82
486.61	23702.61
486.78	24130.92
486.96	24437.53
487.14	24411.79
487.32	24409.45
487.50	24615.41
487.68	24739.46
487.85	25273.10
488.03	25458.01
488.21	25795.04
488.39	25975.27
488.57	26003.35
488.75	26045.48
488.92	26422.31
489.10	26359.11
489.28	26705.51
489.46	26934.88
489.64	27112.77
489.81	27552.79
489.99	27569.17
490.17	27534.06
490.35	28135.58
490.53	28395.38
490.70	28123.88
490.88	28428.15
491.06	28568.58
491.24	28914.98
491.41	29116.26
491.59	29289.46
491.77	29303.51
491.95	29392.45
492.13	29591.39
492.30	29834.81
492.48	30099.29
492.66	29624.16
492.84	30391.86
493.01	30747.62
493.19	30588.46
493.37	31040.18
493.54	30764.00
493.72	31014.44
493.90	31545.74
494.08	31880.44
494.25	32142.58
494.43	32133.21
494.61	32563.87
494.79	32280.67
494.96	32116.83
495.14	32762.82
495.32	33041.34
495.49	33184.12
495.67	33081.13
495.85	33418.17
496.02	33455.62
496.20	34024.37
496.38	34471.41
496.55	33860.53
496.73	34511.20
496.91	34438.64
497.09	35101.01
497.26	34848.24
497.44	35096.33
497.62	35201.66
497.79	35519.97
497.97	35416.99
498.14	36397.67
498.32	36144.89
498.50	35866.37
498.67	36215.11
498.85	36364.90
499.03	36540.44
499.20	36559.17
499.38	36835.35
499.56	36790.88
499.73	37029.62
499.91	37277.71
500.08	37188.77
500.26	36992.17
500.44	38036.05
500.61	37694.33
500.79	37818.38
500.97	38415.21
501.14	38106.26
501.32	38234.99
501.49	38457.34
501.67	38368.40
501.84	39005.03
502.02	39248.44
502.20	38658.63
502.37	39379.51
502.55	38911.41
502.72	39222.70
502.90	39742.30
503.07	39625.27
503.25	39522.29
503.43	39576.12
503.60	39639.31
503.78	40027.84
503.95	40095.72
504.13	40266.58
504.30	40271.26
504.48	40217.43
504.65	40481.91
504.83	41184.07
505.01	40959.38
505.18	41216.83
505.36	41256.62
505.53	41193.43
505.71	41249.60
505.88	41413.44
506.06	41078.74
506.23	41720.05
506.41	41801.97
506.58	42291.14
506.76	41869.84
506.93	42546.26
507.11	42230.29
507.28	42700.73
507.46	42574.34
507.63	42588.39
507.81	42937.13
507.98	42728.82
508.16	42707.76
508.33	43480.13
508.50	43456.73
508.68	43391.19
508.85	43828.87
509.03	43604.18
509.20	43753.97
509.38	44341.45
509.55	43941.22
509.73	44575.50
509.90	44444.43
510.08	44479.54
510.25	44664.44
510.42	44645.72
510.60	44713.59
510.77	44928.92
510.95	45331.50
511.12	45113.83
511.30	45013.18
511.47	45420.44
511.64	45413.41
511.82	45759.81
511.99	45860.46
512.17	46073.45
512.34	45874.50
512.51	46330.90
512.69	46321.54
512.86	46368.35
513.04	46511.13
513.21	46363.67
513.38	46660.92
513.56	46878.59
513.73	46789.65
513.90	47119.66
514.08	46681.98
514.25	47100.94
514.43	47583.09
514.60	47210.95
514.77	47306.91
514.95	47737.57
515.12	47515.22
515.29	47248.39
515.47	48060.56
515.64	47936.51
515.81	47709.48
515.99	48250.14
516.16	48151.84
516.33	48271.21
516.51	48552.07
516.68	48470.15
516.85	48671.44
517.03	48619.95
517.20	48531.01
517.37	48512.28
517.54	49095.08
517.72	48973.37
517.89	49198.06
518.06	49125.50
518.24	49263.60
518.41	49132.53
518.58	49083.37
518.75	49181.68
518.93	49612.34
519.10	49460.20
519.27	49731.70
519.45	49860.43
519.62	49787.88
519.79	49801.92
519.96	49851.07
520.14	49916.61
520.31	50014.91
520.48	50525.14
520.65	50529.83
520.83	50401.10
521.00	50700.68
521.17	50370.67
521.34	50646.85
521.52	50920.70
521.69	50597.70
521.86	50646.85
522.03	50667.92
522.20	51215.60
522.38	51435.61
522.55	51229.65
522.72	51016.66
522.89	51054.11
523.07	51746.90
523.24	51381.78
523.41	51714.14
523.58	51143.05
523.75	51814.78
523.92	51730.52
524.10	51894.36
524.27	52053.51
524.44	52116.71
524.61	52013.73
524.78	52189.27
524.96	52250.12
525.13	52435.02
525.30	52334.38
525.47	52493.54
525.64	52135.43
525.81	52535.66
525.98	52662.05
526.16	52409.28
526.33	52432.68
526.50	52971.00
526.67	52479.49
526.84	53015.47
527.01	52816.53
527.18	52760.36
527.36	53043.56
527.53	53200.38
527.70	53378.26
527.87	53282.30
528.04	53097.39
528.21	53317.40
528.38	52928.87
528.55	53413.37
528.72	53361.87
528.89	53532.73
529.07	53382.94
529.24	53518.69
529.41	53581.88
529.58	53642.74
529.75	53436.77
529.92	53741.04
530.09	53801.89
530.26	53762.11
530.43	53701.25
530.60	53675.51
530.77	53813.60
530.94	53977.43
531.11	54007.86
531.28	53928.28
531.46	54227.87
531.63	54059.35
531.80	54169.36
531.97	54122.55
532.14	54291.07
532.31	54494.69
532.48	54457.24
532.65	54574.27
532.82	54609.38
532.99	54639.81
533.16	54567.25
533.33	54738.11
533.50	54733.43
533.67	54740.45
533.84	54632.78
534.01	54934.71
534.18	54735.77
534.35	55337.29
534.52	54817.69
534.69	54946.42
534.86	55033.02
535.03	55096.21
535.20	55213.24
535.37	55185.15
535.54	55487.08
535.71	55332.60
535.88	55337.29
536.05	55274.09
536.22	55697.73
536.38	55435.59
536.55	55608.79
536.72	55515.17
536.89	55257.71
537.06	55585.38
537.23	55578.36
537.40	55517.51
537.57	55718.79
537.74	55597.09
537.91	55913.06
538.08	55814.76
538.25	55533.89
538.42	55906.04
538.59	55992.64
538.75	55760.92
538.92	55969.23
539.09	56264.14
539.26	56259.46
539.43	56114.34
539.60	56329.67
539.77	56388.19
539.94	56435.00
540.11	56376.48
540.28	56554.36
540.44	56285.20
540.61	56207.97
540.78	56224.35
540.95	56371.80
541.12	56126.05
541.29	56371.80
541.46	56570.75
541.62	56612.88
541.79	56683.09
541.96	56519.26
542.13	56498.19
542.30	56664.37
542.47	56793.10
542.63	56807.14
542.80	56872.68
542.97	56736.93
543.14	57198.01
543.31	57029.49
543.48	57076.30
543.64	57303.34
543.81	57506.96
543.98	57242.48
544.15	57315.04
544.32	57130.14
544.48	57607.61
544.65	57258.87
544.82	57359.51
544.99	57354.83
545.16	57394.62
545.32	57240.14
545.49	57799.53
545.66	57766.76
545.83	57694.21
546.00	57811.23
546.16	57750.38
546.33	57532.71
546.50	57523.35
546.67	57748.04
546.83	57403.98
547.00	57726.97
547.17	57712.93
547.34	57628.67
547.50	57872.09
547.67	57970.39
547.84	57902.51
548.00	58019.54
548.17	57998.48
548.34	58042.95
548.51	58251.25
548.67	58389.34
548.84	58054.65
549.01	58166.99
549.18	58251.25
549.34	58309.77
549.51	58166.99
549.68	58300.40
549.84	58099.12
550.01	58431.47
550.18	58202.10
550.34	58251.25
550.51	58286.36
550.68	58358.92
550.84	58082.73
551.01	58401.05
551.18	58305.09
551.34	58497.01
551.51	58468.92
551.68	58721.70
551.84	58370.62
552.01	58651.48
552.18	58522.76
552.34	58527.44
552.51	58714.68
552.68	58363.60
552.84	58817.66
553.01	58930.01
553.18	58609.35
553.34	58946.39
553.51	58960.44
553.67	59054.06
553.84	59025.97
554.01	58822.34
554.17	58983.84
554.34	58841.07
554.51	58866.81
554.67	59021.29
554.84	59096.19
555.00	58932.35
555.17	58958.09
555.33	58988.52
555.50	58932.35
555.67	59004.91
555.83	58735.74
556.00	59047.04
556.16	59269.39
556.33	59292.79
556.50	59161.72
556.66	59447.27
556.83	59185.13
556.99	59433.22
557.16	59491.74
557.32	59524.50
557.49	59618.13
557.65	59192.15
557.82	59241.30
557.98	59533.87
558.15	59465.99
558.32	59576.00
558.48	59311.52
558.65	59592.38
558.81	59416.84
558.98	59419.18
559.14	59566.63
559.31	59578.34
559.47	59620.47
559.64	59643.87
559.80	59517.48
559.97	59676.64
560.13	59709.41
560.30	59423.86
560.46	59606.42
560.63	59671.96
560.79	59763.24
560.96	59891.97
561.12	59711.75
561.29	59732.81
561.45	59807.71
561.61	59573.66
561.78	59697.70
561.94	59793.67
562.11	59842.82
562.27	59765.58
562.44	60030.06
562.60	59880.27
562.77	59973.89
562.93	59707.07
563.10	60116.66
563.26	59660.26
563.42	60030.06
563.59	60037.08
563.75	59828.77
563.92	59987.93
564.08	59765.58
564.24	60032.40
564.41	60107.30
564.57	60271.14
564.74	59847.50
564.90	59901.33
565.07	60193.90
565.23	59943.46
565.39	60130.70
565.56	60217.30
565.72	60093.25
565.88	60107.30
566.05	60083.89
566.21	60100.28
566.38	60158.79
566.54	60151.77
566.70	60142.41
566.87	60441.99
567.03	60156.45
567.19	60329.65
567.36	60193.90
567.52	60175.17
567.68	60444.33
567.85	60334.33
568.01	60397.52
568.17	60231.35
568.34	60374.12
568.50	60427.95
568.66	60226.66
568.83	60542.64
568.99	60425.61
569.15	60465.40
569.32	60411.57
569.48	60357.74
569.64	60313.26
569.81	60495.83
569.97	60186.88
570.13	60402.21
570.30	60102.62
570.46	60507.53
570.62	60491.15
570.78	60278.16
570.95	60514.55
571.11	60624.56
571.27	60467.74
571.43	60654.98
571.60	60460.72
571.76	60350.71
571.92	60479.44
572.09	60444.33
572.25	60430.29
572.41	60556.68
572.57	60477.10
572.74	60711.16
572.90	60434.97
573.06	60573.06
573.22	60575.40
573.38	60556.68
573.55	60505.19
573.71	60921.80
573.87	60631.58
574.03	60271.14
574.20	60715.84
574.36	60680.73
574.52	60713.50
574.68	60568.38
574.84	60748.60
575.01	60846.91
575.17	60521.57
575.33	60823.50
575.49	60612.85
575.65	60654.98
575.82	60743.92
575.98	60793.07
576.14	60912.44
576.30	60797.76
576.46	60690.09
576.62	60601.15
576.79	60844.57
576.95	60594.13
577.11	60896.06
577.27	60673.71
577.43	60912.44
577.59	60683.07
577.75	60694.77
577.92	60643.28
578.08	60481.78
578.24	60507.53
578.40	61223.73
578.56	60945.21
578.72	60865.63
578.88	60994.36
579.04	60949.89
579.21	60823.50
579.37	60956.91
579.53	60858.61
579.69	60669.03
579.85	60540.30
580.01	60856.27
580.17	60669.03
580.33	61120.75
580.49	60921.80
580.65	60807.12
580.82	60882.02
580.98	60788.39
581.14	60690.09
581.30	61048.19
581.46	60800.10
581.62	60793.07
581.78	60718.18
581.94	60865.63
582.10	60931.17
582.26	60945.21
582.42	60764.99
582.58	60781.37
582.74	60715.84
582.90	60804.78
583.06	60931.17
583.22	60741.58
583.38	60837.54
583.54	60900.74
583.70	60830.52
583.86	60893.72
584.02	60860.95
584.18	60956.91
584.34	60818.82
584.50	60992.02
584.66	60860.95
584.82	60860.95
584.98	60966.27
585.14	61221.39
585.30	60793.07
585.46	61020.11
585.62	61013.08
585.78	61284.59
585.94	60884.36
586.10	61080.96
586.26	61137.13
586.42	61043.51
586.58	60898.40
586.74	61125.43
586.90	60814.14
587.06	60940.53
587.22	61052.87
587.38	60928.83
587.54	61179.26
587.70	61359.48
587.86	61024.79
588.02	60968.61
588.18	60999.04
588.34	61022.45
588.49	61066.92
