SpectraSuite Data File
++++++++++++++++++++++++++++++++++++
Date: Fri Oct 25 11:34:27 EDT 2013
User: price-jones
Dark Spectrum Present: No
Reference Spectrum Present: No
Number of Sampled Component Spectra: 1
Spectrometers: USB2+H05261
Integration Time (usec): 100000 (USB2+H05261)
Spectra Averaged: 1 (USB2+H05261)
Boxcar Smoothing: 0 (USB2+H05261)
Correct for Electrical Dark: No (USB2+H05261)
Strobe/Lamp Enabled: No (USB2+H05261)
Correct for Detector Non-linearity: No (USB2+H05261)
Correct for Stray Light: No (USB2+H05261)
Number of Pixels in Processed Spectrum: 2048
>>>>>Begin Processed Spectral Data<<<<<
365.73	318.31
365.92	318.31
366.12	318.31
366.32	212.99
366.52	128.73
366.72	138.09
366.91	70.22
367.11	142.77
367.31	173.20
367.51	154.48
367.70	175.54
367.90	86.60
368.10	142.77
368.30	156.82
368.49	161.50
368.69	215.33
368.89	166.18
369.09	163.84
369.28	121.71
369.48	212.99
369.68	290.23
369.87	248.10
370.07	306.61
370.27	308.95
370.47	301.93
370.66	407.25
370.86	512.58
371.06	561.73
371.25	638.97
371.45	472.79
371.65	552.37
371.84	526.62
372.04	554.71
372.24	564.07
372.44	496.19
372.63	550.03
372.83	596.84
373.03	634.29
373.22	608.54
373.42	638.97
373.62	498.53
373.81	627.26
374.01	657.69
374.21	634.29
374.40	629.60
374.60	678.76
374.79	655.35
374.99	664.71
375.19	641.31
375.38	692.80
375.58	617.90
375.78	685.78
375.97	613.22
376.17	617.90
376.37	695.14
376.56	697.48
376.76	690.46
376.95	751.31
377.15	713.86
377.35	655.35
377.54	596.84
377.74	678.76
377.93	573.43
378.13	685.78
378.33	716.20
378.52	727.91
378.72	688.12
378.91	678.76
379.11	725.57
379.31	692.80
379.50	688.12
379.70	725.57
379.89	755.99
380.09	725.57
380.28	727.91
380.48	746.63
380.68	709.18
380.87	784.08
381.07	732.59
381.26	697.48
381.46	713.86
381.65	819.19
381.85	760.67
382.04	765.36
382.24	765.36
382.43	758.33
382.63	760.67
382.83	730.25
383.02	781.74
383.22	793.44
383.41	781.74
383.61	734.93
383.80	795.78
384.00	767.70
384.19	774.72
384.39	851.96
384.58	774.72
384.78	882.38
384.97	805.14
385.17	854.30
385.36	816.85
385.56	854.30
385.75	823.87
385.95	882.38
386.14	812.17
386.34	830.89
386.53	798.12
386.72	835.57
386.92	830.89
387.11	807.48
387.31	819.19
387.50	807.48
387.70	887.06
387.89	856.64
388.09	786.42
388.28	894.08
388.48	868.34
388.67	896.43
388.86	884.72
389.06	908.13
389.25	887.06
389.45	851.96
389.64	936.21
389.84	945.58
390.03	992.39
390.22	933.87
390.42	945.58
390.61	971.32
390.81	952.60
391.00	947.92
391.19	940.90
391.39	966.64
391.58	978.34
391.78	1083.67
391.97	980.68
392.16	954.94
392.36	1039.20
392.55	1132.82
392.75	1043.88
392.94	1020.47
393.13	1076.65
393.33	1036.86
393.52	1078.99
393.71	1111.75
393.91	1064.94
394.10	1130.48
394.29	1048.56
394.49	1081.33
394.68	1060.26
394.88	1118.78
395.07	1076.65
395.26	1104.73
395.46	1104.73
395.65	1100.05
395.84	1100.05
396.04	1263.89
396.23	1153.88
396.42	1177.29
396.62	1203.04
396.81	1100.05
397.00	1186.65
397.19	1158.57
397.39	1144.52
397.58	1128.14
397.77	1170.27
397.97	1221.76
398.16	1184.31
398.35	1268.57
398.55	1200.69
398.74	1282.61
398.93	1284.95
399.12	1254.53
399.32	1214.74
399.51	1266.23
399.70	1324.74
399.90	1273.25
400.09	1336.45
400.28	1371.55
400.47	1376.24
400.67	1245.16
400.86	1294.32
401.05	1401.98
401.24	1352.83
401.44	1315.38
401.63	1453.47
401.82	1425.39
402.01	1420.71
402.21	1303.68
402.40	1537.73
402.59	1394.96
402.78	1493.26
402.97	1432.41
403.17	1504.96
403.36	1516.67
403.55	1575.18
403.74	1610.29
403.93	1621.99
404.13	1582.20
404.32	1500.28
404.51	1521.35
404.70	1617.31
404.89	1612.63
405.09	1610.29
405.28	1621.99
405.47	1682.85
405.66	1631.35
405.85	1636.03
406.05	1666.46
406.24	1582.20
406.43	1722.63
406.62	1699.23
406.81	1790.51
407.00	1701.57
407.20	1659.44
407.39	1680.50
407.58	1792.85
407.77	1727.32
407.96	1851.36
408.15	1813.92
408.34	1818.60
408.54	1849.02
408.73	1830.30
408.92	1764.76
409.11	1898.17
409.30	1914.56
409.49	1863.07
409.68	1919.24
409.87	1926.26
410.07	1975.41
410.26	1923.92
410.45	1933.28
410.64	2026.90
410.83	2022.22
411.02	2085.42
411.21	2141.59
411.40	2150.95
411.59	2141.59
411.78	2111.16
411.98	2148.61
412.17	2108.82
412.36	2083.08
412.55	2307.77
412.74	2275.00
412.93	2167.34
413.12	2204.78
413.31	2363.94
413.50	2260.96
413.69	2331.17
413.88	2342.88
414.07	2307.77
414.26	2349.90
414.45	2363.94
414.64	2410.75
414.83	2445.86
415.02	2431.82
415.22	2623.74
415.41	2588.63
415.60	2626.08
415.79	2654.17
415.98	2605.02
416.17	2581.61
416.36	2703.32
416.55	2656.51
416.74	2649.49
416.93	2796.94
417.12	2677.57
417.31	2712.68
417.50	2780.56
417.69	2862.48
417.88	2810.98
418.07	2843.75
418.26	2876.52
418.45	2792.26
418.64	2939.71
418.83	2981.84
419.02	2942.05
419.21	2860.13
419.39	2864.82
419.58	2949.08
419.77	2986.52
419.96	3021.63
420.15	2953.76
420.34	3045.04
420.53	2991.20
420.72	3108.23
420.91	3197.17
421.10	3199.51
421.29	3187.81
421.48	3075.46
421.67	3124.62
421.86	3129.30
422.05	3164.40
422.24	3143.34
422.43	3176.11
422.61	3241.64
422.80	3279.09
422.99	3286.11
423.18	3370.37
423.37	3309.52
423.56	3269.73
423.75	3309.52
423.94	3386.76
424.13	3073.12
424.32	3061.42
424.50	3314.20
424.69	3361.01
424.88	3318.88
425.07	3435.91
425.26	3218.24
425.45	3323.56
425.64	3297.81
425.83	3581.02
426.01	3389.10
426.20	3241.64
426.39	3356.33
426.58	3281.43
426.77	3424.20
426.96	3358.67
427.15	3346.97
427.33	3375.05
427.52	3471.01
427.71	3461.65
427.90	3463.99
428.09	3517.83
428.28	3440.59
428.46	3522.51
428.65	3545.91
428.84	3700.39
429.03	3658.26
429.22	3576.34
429.40	3660.60
429.59	3602.08
429.78	3515.48
429.97	3515.48
430.16	3686.34
430.34	3716.77
430.53	3679.32
430.72	3709.75
430.91	3791.67
431.10	3899.33
431.28	3754.22
431.47	3735.50
431.66	3880.61
431.85	3815.07
432.03	3840.82
432.22	3920.40
432.41	3838.48
432.60	3885.29
432.79	3906.35
432.97	3960.19
433.16	3983.59
433.35	3875.93
433.54	4051.47
433.72	3960.19
433.91	3880.61
434.10	4086.58
434.28	3908.69
434.47	3960.19
434.66	4126.36
434.85	4217.65
435.03	4180.20
435.22	4201.26
435.41	4138.07
435.59	4215.30
435.78	4325.31
435.97	4337.01
436.16	4072.53
436.34	4175.52
436.53	4273.82
436.72	4306.59
436.90	4294.88
437.09	4210.62
437.28	4194.24
437.46	4283.18
437.65	4425.95
437.84	4423.61
438.02	4484.47
438.21	4472.76
438.40	4285.52
438.58	4568.73
438.77	4606.17
438.96	4547.66
439.14	4697.46
439.33	4564.04
439.52	4779.37
439.70	4706.82
439.89	4751.29
440.08	4779.37
440.26	4688.09
440.45	4802.78
440.63	4929.17
440.82	5006.41
441.01	4889.38
441.19	4936.19
441.38	5095.35
441.57	4957.25
441.75	5067.26
441.94	5287.27
442.12	5074.28
442.31	5043.85
442.50	5233.44
442.68	5355.15
442.87	5315.36
443.05	5336.42
443.24	5256.84
443.43	5458.13
443.61	5423.02
443.80	5441.75
443.98	5385.57
444.17	5163.22
444.35	5296.63
444.54	5343.44
444.73	5310.68
444.91	5408.98
445.10	5441.75
445.28	5390.25
445.47	5399.62
445.65	5444.09
445.84	5554.09
446.02	5462.81
446.21	5493.24
446.39	5423.02
446.58	5668.78
446.77	5516.64
446.95	5355.15
447.14	5502.60
447.32	5528.35
447.51	5577.50
447.69	5479.19
447.88	5577.50
448.06	5600.90
448.25	5493.24
448.43	5476.85
448.62	5547.07
448.80	5584.52
448.99	5671.12
449.17	5650.05
449.36	5626.65
449.54	5760.06
449.73	5832.62
449.91	5788.14
450.10	5757.72
450.28	5982.41
450.46	5774.10
450.65	5916.87
450.83	5963.68
451.02	5912.19
451.20	6012.84
451.39	5942.62
451.57	5905.17
451.76	5762.40
451.94	6097.10
452.13	6171.99
452.31	5982.41
452.49	5923.90
452.68	6111.14
452.86	6087.73
453.05	6040.92
453.23	5982.41
453.42	6090.07
453.60	6010.50
453.78	6181.35
453.97	6171.99
454.15	6115.82
454.34	6204.76
454.52	6104.12
454.70	6237.53
454.89	6284.34
455.07	6284.34
455.26	6448.18
455.44	6340.51
455.62	6544.14
455.81	6485.62
455.99	6394.34
456.17	6483.28
456.36	6399.02
456.54	6581.59
456.73	6595.63
456.91	6839.05
457.09	6764.15
457.28	6679.89
457.46	6602.65
457.64	6850.75
457.83	6759.47
458.01	6876.49
458.19	6857.77
458.38	6766.49
458.56	6960.75
458.74	6825.00
458.93	6803.94
459.11	6972.46
459.29	7000.54
459.48	6923.30
459.66	6937.35
459.84	7005.22
460.03	7356.30
460.21	7143.32
460.39	7115.23
460.57	7059.06
460.76	7136.29
460.94	7307.15
461.12	7126.93
461.31	7304.81
461.49	7246.30
461.67	6977.14
461.85	7480.35
462.04	7293.11
462.22	7866.54
462.40	7492.05
462.59	7485.03
462.77	7391.41
462.95	7496.74
463.13	7492.05
463.32	7442.90
463.50	7321.20
463.68	7653.55
463.86	7527.16
464.05	7438.22
464.23	7655.89
464.41	7625.47
464.59	7466.31
464.78	7859.52
464.96	7475.67
465.14	7646.53
465.32	7782.28
465.50	7604.40
465.69	7826.75
465.87	7676.96
466.05	7730.79
466.23	7857.18
466.41	7719.09
466.60	7875.90
466.78	7658.23
466.96	8088.89
467.14	8163.79
467.32	8035.06
467.51	7978.89
467.69	7793.98
467.87	8011.65
468.05	8039.74
468.23	7981.23
468.41	7913.35
468.60	8070.17
468.78	8166.13
468.96	8023.36
469.14	8264.43
469.32	8416.57
469.50	8042.08
469.69	8304.22
469.87	8500.83
470.05	8301.88
470.23	8344.01
470.41	8458.70
470.59	8446.99
470.77	8318.26
470.95	8491.46
471.14	8657.64
471.32	8421.25
471.50	8573.38
471.68	8589.77
471.86	8732.54
472.04	8732.54
472.22	9090.64
472.40	8938.51
472.58	8858.93
472.77	8908.08
472.95	8959.57
473.13	9207.67
473.31	9043.83
473.49	9029.79
473.67	8753.60
473.85	9205.33
474.03	9184.26
474.21	9282.56
474.39	9628.96
474.57	9151.49
474.75	9451.08
474.93	9523.64
475.12	9493.21
475.30	9757.69
475.48	9453.42
475.66	9624.28
475.84	9551.73
476.02	9860.68
476.20	9692.16
476.38	9797.48
476.56	10087.71
476.74	10087.71
476.92	10108.77
477.10	10029.20
477.28	10408.36
477.46	10298.36
477.64	10452.83
477.82	10436.45
478.00	10616.67
478.18	10703.27
478.36	10747.74
478.54	10778.17
478.72	10672.84
478.90	10899.87
479.08	11052.01
479.26	11154.99
479.44	11173.72
479.62	11115.20
479.80	11297.77
479.98	11342.24
480.16	11721.40
480.34	11639.48
480.52	11749.49
480.70	11796.30
480.88	11768.21
481.06	11910.99
481.24	11775.24
481.41	12149.72
481.59	11978.86
481.77	12107.59
481.95	12353.35
482.13	12453.99
482.31	12409.52
482.49	12851.88
482.67	12758.26
482.85	12950.18
483.03	13104.66
483.21	13179.56
483.39	13242.75
483.57	13078.91
483.74	13338.71
483.92	13303.60
484.10	13273.18
484.28	13682.77
484.46	13764.69
484.64	14113.43
484.82	13935.55
485.00	14202.37
485.18	14307.69
485.35	14305.35
485.53	14618.99
485.71	14218.75
485.89	14635.37
486.07	14466.85
486.25	14752.40
486.43	14925.60
486.61	14946.66
486.78	15274.34
486.96	15220.50
487.14	15456.90
487.32	15616.05
487.50	15690.95
487.68	15929.69
487.85	15915.64
488.03	16100.55
488.21	16336.94
488.39	16159.06
488.57	16404.81
488.75	16575.67
488.92	16599.08
489.10	16737.17
489.28	16779.30
489.46	17048.46
489.64	17142.08
489.81	17415.93
489.99	17231.02
490.17	17500.19
490.35	17619.55
490.53	17729.56
490.70	17774.03
490.88	17537.63
491.06	18059.57
491.24	18082.98
491.41	18190.64
491.59	18249.16
491.77	18230.43
491.95	18448.10
492.13	18611.94
492.30	18937.27
492.48	18672.79
492.66	18930.25
492.84	19108.13
493.01	19241.54
493.19	19295.38
493.37	19536.45
493.54	19461.55
493.72	19499.00
493.90	19829.02
494.08	19740.08
494.25	20262.02
494.43	20058.39
494.61	20130.95
494.79	20393.09
494.96	20388.41
495.14	20470.33
495.32	20566.29
495.49	20594.37
495.67	20765.23
495.85	21022.69
496.02	21135.04
496.20	21675.70
496.38	21191.21
496.55	21514.20
496.73	21921.46
496.91	22001.04
497.09	21781.03
497.26	21984.65
497.44	21724.85
497.62	22050.19
497.79	22616.60
497.97	22387.22
498.14	22471.48
498.32	22356.80
498.50	22422.33
498.67	22890.44
498.85	23033.21
499.03	22864.69
499.20	22883.42
499.38	23185.35
499.56	23028.53
499.73	23255.56
499.91	23506.00
500.08	23674.52
500.26	23606.64
500.44	23805.59
500.61	23676.86
500.79	23726.01
500.97	23775.16
501.14	24266.67
501.32	24294.76
501.49	24512.43
501.67	24212.84
501.84	24236.25
502.02	24568.60
502.20	24465.62
502.37	24318.17
502.55	24692.65
502.72	24833.08
502.90	24966.49
503.07	24687.97
503.25	25053.09
503.43	24718.40
503.60	24947.77
503.78	25205.23
503.95	25032.03
504.13	25287.15
504.30	25605.46
504.48	25621.84
504.65	26061.87
504.83	25661.63
505.01	25729.51
505.18	25802.07
505.36	26221.02
505.53	25762.28
505.71	26176.55
505.88	26497.20
506.06	26178.89
506.23	26518.27
506.41	26118.04
506.58	26834.24
506.76	26684.45
506.93	26813.18
507.11	26403.58
507.28	26967.65
507.46	27087.02
507.63	27241.50
507.81	27559.81
507.98	27175.96
508.16	27337.46
508.33	26913.82
508.50	27398.31
508.68	27452.14
508.85	27644.07
509.03	27470.87
509.20	27810.25
509.38	27929.61
509.55	27810.25
509.73	27777.48
509.90	28273.67
510.08	27992.81
510.25	28348.57
510.42	28116.86
510.60	28531.13
510.77	28198.77
510.95	28898.59
511.12	28304.10
511.30	28734.76
511.47	28800.29
511.64	28868.17
511.82	28776.89
511.99	29034.35
512.17	28917.32
512.34	28975.83
512.51	29448.62
512.69	29497.77
512.86	29415.85
513.04	29448.62
513.21	29439.26
513.38	29605.44
513.56	30026.73
513.73	29692.04
513.90	29766.93
514.08	29465.00
514.25	29963.54
514.43	29970.56
514.60	30249.08
514.77	30555.69
514.95	30115.67
515.12	30143.76
515.29	30316.96
515.47	30684.42
515.64	30693.79
515.81	30485.48
515.99	30969.97
516.16	31372.54
516.33	30604.84
516.51	31131.47
516.68	30740.60
516.85	30888.05
517.03	31290.62
517.20	31197.00
517.37	31686.17
517.54	31592.55
517.72	31459.14
517.89	31606.59
518.06	31400.63
518.24	31718.94
518.41	31475.52
518.58	31697.88
518.75	31522.34
518.93	32091.09
519.10	31772.77
519.27	32128.53
519.45	31955.33
519.62	32268.97
519.79	32500.68
519.96	32437.48
520.14	32481.95
520.31	32290.03
520.48	32603.66
520.65	32538.13
520.83	32830.69
521.00	32767.50
521.17	32505.36
521.34	32606.00
521.52	32896.23
521.69	33230.93
521.86	33422.85
522.03	33511.79
522.20	33294.12
522.38	33453.28
522.55	33647.54
522.72	33862.87
522.89	33397.10
523.07	33750.52
523.24	33333.91
523.41	33652.22
523.58	33532.86
523.75	34155.44
523.92	33916.70
524.10	34000.96
524.27	33703.71
524.44	33975.22
524.61	33935.43
524.78	34108.63
524.96	34665.67
525.13	34267.78
525.30	34309.91
525.47	34553.33
525.64	34445.66
525.81	34998.03
525.98	34946.54
526.16	34543.97
526.33	34703.12
526.50	35005.05
526.67	34972.28
526.84	34724.19
527.01	35211.02
527.18	34738.23
527.36	35590.19
527.53	34885.68
527.70	35353.79
527.87	35414.65
528.04	35374.86
528.21	35639.34
528.38	35526.99
528.55	35234.42
528.72	35494.22
528.89	35611.25
529.07	35849.99
529.24	36020.84
529.41	35999.78
529.58	35648.70
529.75	36018.50
529.92	35751.68
530.09	36247.88
530.26	35990.42
530.43	35908.50
530.60	35777.43
530.77	36198.73
530.94	36243.20
531.11	36268.94
531.28	36102.76
531.46	36486.61
531.63	36540.44
531.80	36486.61
531.97	36657.47
532.14	36804.92
532.31	36385.97
532.48	36800.24
532.65	37312.82
532.82	36835.35
532.99	36900.89
533.16	36837.69
533.33	37081.11
533.50	37158.34
533.67	37378.36
533.84	36556.83
534.01	36985.15
534.18	37165.37
534.35	37280.05
534.52	36943.02
534.69	37610.07
534.86	37645.18
535.03	37071.75
535.20	37844.12
535.37	37830.08
535.54	38272.44
535.71	37851.14
535.88	37921.36
536.05	37862.85
536.22	38096.90
536.38	37638.15
536.55	38038.39
536.72	37827.74
536.89	38005.62
537.06	37851.14
537.23	38426.92
537.40	38258.40
537.57	38085.20
537.74	38319.25
537.91	38504.15
538.08	38181.16
538.25	37949.45
538.42	38452.66
538.59	38742.89
538.75	38356.70
538.92	38927.79
539.09	38703.10
539.26	38646.93
539.43	38616.50
539.60	38880.98
539.77	38719.48
539.94	39063.54
540.11	38890.34
540.28	39363.13
540.44	39124.40
540.61	39220.36
540.78	39267.17
540.95	39405.26
541.12	39225.04
541.29	39103.33
541.46	39044.82
541.62	39487.18
541.79	39625.27
541.96	38932.47
542.13	39306.96
542.30	39428.66
542.47	39583.14
542.63	39772.72
542.80	39906.13
542.97	39763.36
543.14	40172.96
543.31	40023.16
543.48	39938.90
543.64	40369.56
543.81	40093.38
543.98	40198.70
544.15	40172.96
544.32	40428.07
544.48	40172.96
544.65	40212.74
544.82	40449.14
544.99	40465.52
545.16	40168.27
545.32	40208.06
545.49	40870.43
545.66	40863.41
545.83	40507.65
546.00	40556.80
546.16	40774.47
546.33	40531.06
546.50	40657.45
546.67	40917.25
546.83	40570.85
547.00	40472.54
547.17	41113.85
547.34	40690.21
547.50	40921.93
547.67	41766.86
547.84	41294.07
548.00	41352.58
548.17	41455.57
548.34	41303.43
548.51	41617.07
548.67	41614.72
548.84	41392.37
549.01	41464.93
549.18	41324.50
549.34	41734.09
549.51	41713.03
549.68	41593.66
549.84	41581.96
550.01	42164.75
550.18	41474.29
550.34	41759.84
550.51	41963.46
550.68	41729.41
550.84	41799.63
551.01	41581.96
551.18	41961.12
551.34	42232.63
551.51	42237.31
551.68	42183.48
551.84	42108.58
552.01	41888.57
552.18	42047.72
552.34	42387.10
552.51	42429.23
552.68	42036.02
552.84	42630.52
553.01	42211.56
553.18	42387.10
553.34	42635.20
553.51	42213.90
553.67	42431.57
553.84	42206.88
554.01	42279.44
554.17	42548.60
554.34	42876.27
554.51	42354.33
554.67	42478.38
554.84	42869.25
555.00	42745.20
555.17	42731.16
555.33	43070.54
555.50	42412.85
555.67	42061.77
555.83	42880.95
556.00	43257.78
556.16	43529.28
556.33	43042.45
556.50	43171.18
556.66	42951.17
556.83	42742.86
556.99	43325.66
557.16	43325.66
557.32	44004.41
557.49	43571.41
557.65	42607.11
557.82	43353.74
557.98	43264.80
558.15	43328.00
558.32	43297.57
558.48	43047.13
558.65	43187.56
558.81	43175.86
558.98	43192.25
559.14	43065.86
559.31	43419.28
559.47	43168.84
559.64	43409.92
559.80	43751.63
559.97	43433.32
560.13	43227.35
560.30	43861.64
560.46	43770.36
560.63	43597.16
560.79	43571.41
560.96	43995.05
561.12	43929.51
561.29	43658.01
561.45	43562.05
561.61	43648.65
561.78	43922.49
561.94	44006.75
562.11	43917.81
562.27	43770.36
562.44	44119.10
562.60	43943.56
562.77	43952.92
562.93	43676.74
563.10	44392.94
563.26	43852.28
563.42	44243.15
563.59	43739.93
563.75	43856.96
563.92	44076.97
564.08	44196.34
564.24	43833.55
564.41	44261.87
564.57	44182.29
564.74	44439.75
564.90	44030.16
565.07	44238.47
565.23	43835.89
565.39	44926.58
565.56	44421.03
565.72	43955.26
565.88	44020.80
566.05	43786.74
566.21	44264.21
566.38	44308.68
566.54	44133.14
566.70	44711.25
566.87	44313.36
567.03	44226.76
567.19	44657.42
567.36	44479.54
567.52	44626.99
567.68	44694.87
567.85	44271.23
568.01	44760.40
568.17	44549.76
568.34	44311.02
568.50	44521.67
568.66	44790.83
568.83	44549.76
568.99	44671.46
569.15	44411.67
569.32	44790.83
569.48	44446.77
569.64	44465.50
569.81	44619.97
569.97	44783.81
570.13	44774.45
570.30	44587.21
570.46	44615.29
570.62	44842.32
570.78	44884.45
570.95	45017.86
571.11	44706.57
571.27	44425.71
571.43	44570.82
571.60	45123.19
571.76	44566.14
571.92	44570.82
572.09	44711.25
572.25	44507.63
572.41	45067.02
572.57	44849.35
572.74	45492.99
572.90	44931.26
573.06	44863.39
573.22	45179.36
573.38	45017.86
573.55	44561.46
573.71	45268.30
573.87	45043.61
574.03	45457.88
574.20	45034.25
574.36	45198.09
574.52	45013.18
574.68	44879.77
574.84	45200.43
575.01	45633.42
575.17	45109.14
575.33	44940.63
575.49	44837.64
575.65	45048.29
575.82	45343.20
575.98	44938.29
576.14	45188.72
576.30	45425.12
576.46	45375.97
576.62	45366.60
576.79	45020.20
576.95	45162.98
577.11	45294.05
577.27	45193.40
577.43	45443.84
577.59	45265.96
577.75	45148.93
577.92	44793.17
578.08	44816.58
578.24	44912.54
578.40	45432.14
578.56	45336.18
578.72	45162.98
578.88	45352.56
579.04	45488.31
579.21	45558.53
579.37	45373.63
579.53	44982.76
579.69	44830.62
579.85	45282.34
580.01	45109.14
580.17	45174.68
580.33	45310.43
580.49	45172.34
580.65	45041.27
580.82	45153.62
580.98	45088.08
581.14	45069.36
581.30	45425.12
581.46	45310.43
581.62	45347.88
581.78	45095.10
581.94	45329.16
582.10	45045.95
582.26	45291.71
582.42	45495.33
582.58	45265.96
582.74	45591.30
582.90	45249.58
583.06	45713.00
583.22	45476.61
583.38	45434.48
583.54	45294.05
583.70	45425.12
583.86	45673.21
584.02	45324.47
584.18	45352.56
584.34	45310.43
584.50	45514.06
584.66	45427.46
584.82	45347.88
584.98	45523.42
585.14	45682.58
585.30	45132.55
585.46	45186.38
585.62	45347.88
585.78	45296.39
585.94	45223.83
586.10	45605.34
586.26	45268.30
586.42	45345.54
586.58	45485.97
586.74	45539.80
586.90	45455.54
587.06	45574.91
587.22	45385.33
587.38	45399.37
587.54	45755.13
587.70	45879.18
587.86	45638.11
588.02	45481.29
588.18	45244.90
588.34	45909.61
588.49	45794.92
588.65	45507.04
588.81	45724.71
588.97	45502.35
589.13	45502.35
589.29	45806.62
589.45	45947.06
589.61	45773.86
589.77	46164.73
589.93	45516.40
590.08	45720.02
