SpectraSuite Data File
++++++++++++++++++++++++++++++++++++
Date: Fri Oct 25 11:34:02 EDT 2013
User: price-jones
Dark Spectrum Present: No
Reference Spectrum Present: No
Number of Sampled Component Spectra: 1
Spectrometers: USB2+H05261
Integration Time (usec): 100000 (USB2+H05261)
Spectra Averaged: 1 (USB2+H05261)
Boxcar Smoothing: 0 (USB2+H05261)
Correct for Electrical Dark: No (USB2+H05261)
Strobe/Lamp Enabled: No (USB2+H05261)
Correct for Detector Non-linearity: No (USB2+H05261)
Correct for Stray Light: No (USB2+H05261)
Number of Pixels in Processed Spectrum: 2048
>>>>>Begin Processed Spectral Data<<<<<
365.73	334.70
365.92	334.70
366.12	334.70
366.32	212.99
366.52	131.07
366.72	184.90
366.91	210.65
367.11	224.69
367.31	156.82
367.51	161.50
367.70	163.84
367.90	175.54
368.10	187.24
368.30	187.24
368.49	208.31
368.69	154.48
368.89	215.33
369.09	170.86
369.28	227.03
369.48	194.26
369.68	290.23
369.87	217.67
370.07	227.03
370.27	187.24
370.47	294.91
370.66	491.51
370.86	557.05
371.06	458.74
371.25	507.90
371.45	538.32
371.65	521.94
371.84	538.32
372.04	470.45
372.24	521.94
372.44	550.03
372.63	557.05
372.83	557.05
373.03	547.69
373.22	575.77
373.42	688.12
373.62	629.60
373.81	631.94
374.01	645.99
374.21	690.46
374.40	662.37
374.60	704.50
374.79	578.11
374.99	622.58
375.19	587.47
375.38	655.35
375.58	545.34
375.78	688.12
375.97	592.16
376.17	634.29
376.37	692.80
376.56	676.41
376.76	620.24
376.95	669.39
377.15	601.52
377.35	638.97
377.54	643.65
377.74	660.03
377.93	688.12
378.13	624.92
378.33	690.46
378.52	713.86
378.72	723.23
378.91	662.37
379.11	713.86
379.31	669.39
379.50	706.84
379.70	748.97
379.89	713.86
380.09	744.29
380.28	730.25
380.48	641.31
380.68	667.05
380.87	734.93
381.07	709.18
381.26	741.95
381.46	671.73
381.65	755.99
381.85	734.93
382.04	770.04
382.24	674.07
382.43	774.72
382.63	753.65
382.83	765.36
383.02	741.95
383.22	786.42
383.41	739.61
383.61	779.40
383.80	805.14
384.00	800.46
384.19	821.53
384.39	739.61
384.58	802.80
384.78	858.98
384.97	863.66
385.17	830.89
385.36	805.14
385.56	767.70
385.75	821.53
385.95	826.21
386.14	837.91
386.34	816.85
386.53	821.53
386.72	779.40
386.92	873.02
387.11	910.47
387.31	812.17
387.50	898.77
387.70	851.96
387.89	968.98
388.09	905.79
388.28	912.81
388.48	809.83
388.67	837.91
388.86	880.04
389.06	922.17
389.25	945.58
389.45	870.68
389.64	1015.79
389.84	950.26
390.03	887.06
390.22	950.26
390.42	929.19
390.61	884.72
390.81	931.53
391.00	1001.75
391.19	980.68
391.39	868.34
391.58	912.81
391.78	1069.62
391.97	987.71
392.16	1057.92
392.36	1057.92
392.55	978.34
392.75	1149.20
392.94	1067.28
393.13	1020.47
393.33	1036.86
393.52	1067.28
393.71	1050.90
393.91	1076.65
394.10	1086.01
394.29	1130.48
394.49	1097.71
394.68	1062.60
394.88	1050.90
395.07	1139.84
395.26	1207.72
395.46	1170.27
395.65	1132.82
395.84	1111.75
396.04	1179.63
396.23	1100.05
396.42	1249.85
396.62	1210.06
396.81	1186.65
397.00	1174.95
397.19	1217.08
397.39	1221.76
397.58	1296.66
397.77	1289.64
397.97	1224.10
398.16	1280.27
398.35	1263.89
398.55	1334.11
398.74	1217.08
398.93	1366.87
399.12	1327.08
399.32	1254.53
399.51	1371.55
399.70	1481.56
399.90	1401.98
400.09	1327.08
400.28	1369.21
400.47	1416.02
400.67	1345.81
400.86	1409.00
401.05	1348.15
401.24	1432.41
401.44	1432.41
401.63	1334.11
401.82	1444.11
402.01	1376.24
402.21	1401.98
402.40	1474.54
402.59	1502.62
402.78	1488.58
402.97	1483.90
403.17	1504.96
403.36	1462.83
403.55	1530.71
403.74	1556.46
403.93	1537.73
404.13	1521.35
404.32	1570.50
404.51	1629.01
404.70	1591.56
404.89	1659.44
405.09	1685.19
405.28	1664.12
405.47	1554.12
405.66	1671.14
405.85	1720.29
406.05	1671.14
406.24	1703.91
406.43	1727.32
406.62	1851.36
406.81	1769.44
407.00	1713.27
407.20	1769.44
407.39	1762.42
407.58	1732.00
407.77	1746.04
407.96	1877.11
408.15	1891.15
408.34	1912.22
408.54	1863.07
408.73	1884.13
408.92	1935.62
409.11	1900.52
409.30	2031.58
409.49	1977.75
409.68	1942.64
409.87	1923.92
410.07	2029.24
410.26	2029.24
410.45	2078.40
410.64	2031.58
410.83	2188.40
411.02	2026.90
411.21	2172.02
411.40	2033.93
411.59	2150.95
411.78	2113.50
411.98	2176.70
412.17	2134.57
412.36	2263.30
412.55	2324.15
412.74	2387.35
412.93	2347.56
413.12	2216.49
413.31	2354.58
413.50	2417.77
413.69	2354.58
413.88	2361.60
414.07	2380.32
414.26	2530.12
414.45	2448.20
414.64	2483.31
414.83	2511.39
415.02	2560.55
415.22	2572.25
415.41	2703.32
415.60	2579.27
415.79	2595.65
415.98	2656.51
416.17	2717.36
416.36	2656.51
416.55	2726.72
416.74	2724.38
416.93	2789.92
417.12	2857.79
417.31	2820.35
417.50	2759.49
417.69	2825.03
417.88	2799.28
418.07	2963.12
418.26	2864.82
418.45	2986.52
418.64	2986.52
418.83	2986.52
419.02	3087.17
419.21	3012.27
419.39	3016.95
419.58	2967.80
419.77	3012.27
419.96	3206.53
420.15	3276.75
420.34	3178.45
420.53	3091.85
420.72	3199.51
420.91	3155.04
421.10	3159.72
421.29	3159.72
421.48	3251.00
421.67	3269.73
421.86	3117.59
422.05	3267.39
422.24	3260.37
422.43	3323.56
422.61	3368.03
422.80	3461.65
422.99	3302.50
423.18	3431.23
423.37	3379.73
423.56	3204.19
423.75	3386.76
423.94	3201.85
424.13	3246.32
424.32	3361.01
424.50	3342.28
424.69	3342.28
424.88	3433.57
425.07	3304.84
425.26	3396.12
425.45	3309.52
425.64	3368.03
425.83	3393.78
426.01	3335.26
426.20	3496.76
426.39	3368.03
426.58	3424.20
426.77	3199.51
426.96	3543.57
427.15	3358.67
427.33	3426.54
427.52	3475.70
427.71	3529.53
427.90	3468.67
428.09	3595.06
428.28	3709.75
428.46	3576.34
428.65	3492.08
428.84	3639.53
429.03	3758.90
429.22	3758.90
429.40	3620.81
429.59	3735.50
429.78	3590.38
429.97	3651.24
430.16	3763.58
430.34	3768.26
430.53	3789.33
430.72	3758.90
430.91	3812.73
431.10	3880.61
431.28	3904.01
431.47	3904.01
431.66	3873.59
431.85	3899.33
432.03	3847.84
432.22	4173.18
432.41	3964.87
432.60	4025.72
432.79	3976.57
432.97	4203.60
433.16	4053.81
433.35	4142.75
433.54	4131.05
433.72	4191.90
433.91	4184.88
434.10	3960.19
434.28	4109.98
434.47	4182.54
434.66	4198.92
434.85	4365.10
435.03	4219.99
435.22	4107.64
435.41	4334.67
435.59	4273.82
435.78	4341.69
435.97	4451.70
436.16	4376.80
436.34	4374.46
436.53	4421.27
436.72	4442.34
436.90	4348.72
437.09	4402.55
437.28	4337.01
437.46	4608.51
437.65	4428.29
437.84	4573.41
438.02	4510.21
438.21	4552.34
438.40	4376.80
438.58	4833.21
438.77	4770.01
438.96	4711.50
439.14	4702.14
439.33	4854.27
439.52	4784.06
439.70	4828.53
439.89	4835.55
440.08	4929.17
440.26	5022.79
440.45	4912.78
440.63	4901.08
440.82	5109.39
441.01	4950.23
441.19	5050.88
441.38	5181.95
441.57	5048.54
441.75	5210.03
441.94	5371.53
442.12	5270.89
442.31	5231.10
442.50	5345.78
442.68	5074.28
442.87	5408.98
443.05	5518.98
443.24	5336.42
443.43	5441.75
443.61	5479.19
443.80	5521.32
443.98	5394.93
444.17	5322.38
444.35	5572.82
444.54	5572.82
444.73	5614.95
444.91	5488.56
445.10	5652.39
445.28	5610.26
445.47	5628.99
445.65	5654.73
445.84	5731.97
446.02	5746.02
446.21	5558.77
446.39	5645.37
446.58	5659.42
446.77	5640.69
446.95	5518.98
447.14	5682.82
447.32	5715.59
447.51	5614.95
447.69	5687.50
447.88	5696.86
448.06	5849.00
448.25	5652.39
448.43	5654.73
448.62	5692.18
448.80	5631.33
448.99	5678.14
449.17	5781.12
449.36	5785.80
449.54	5706.23
449.73	6099.44
449.91	5963.68
450.10	6064.33
450.28	6090.07
450.46	6183.70
450.65	6026.88
450.83	6054.97
451.02	6036.24
451.20	6059.65
451.39	6186.04
451.57	6069.01
451.76	6094.76
451.94	6036.24
452.13	6040.92
452.31	6157.95
452.49	6050.28
452.68	6209.44
452.86	6256.25
453.05	6174.33
453.23	6399.02
453.42	6097.10
453.60	6207.10
453.78	6256.25
453.97	6204.76
454.15	6232.85
454.34	6284.34
454.52	6448.18
454.70	6354.55
454.89	6530.09
455.07	6464.56
455.26	6523.07
455.44	6604.99
455.62	6574.56
455.81	6597.97
455.99	6675.21
456.17	6743.08
456.36	6642.44
456.54	6860.11
456.73	6836.70
456.91	6932.67
457.09	7066.08
457.28	7056.72
457.46	6913.94
457.64	6956.07
457.83	6864.79
458.01	6890.54
458.19	7096.50
458.38	7012.24
458.56	7222.89
458.74	7077.78
458.93	7070.76
459.11	7026.29
459.29	7108.21
459.48	7112.89
459.66	7089.48
459.84	7194.81
460.03	7262.68
460.21	7250.98
460.39	7162.04
460.57	7283.75
460.76	7253.32
460.94	7391.41
461.12	7440.56
461.31	7403.11
461.49	7171.40
461.67	7431.20
461.85	7302.47
462.04	7709.72
462.22	7845.48
462.40	7634.83
462.59	7555.25
462.77	7585.68
462.95	7632.49
463.13	7522.48
463.32	7623.12
463.50	7674.62
463.68	7749.51
463.86	7854.84
464.05	7681.64
464.23	7627.81
464.41	7808.03
464.59	7651.21
464.78	7962.50
464.96	7948.46
465.14	7796.32
465.32	7981.23
465.50	7939.10
465.69	7934.42
465.87	7943.78
466.05	8004.63
466.23	7864.20
466.41	7981.23
466.60	8224.64
466.78	7999.95
466.96	8049.10
467.14	8119.32
467.32	8142.72
467.51	8252.73
467.69	8056.12
467.87	8114.64
468.05	8226.98
468.23	8124.00
468.41	8093.57
468.60	8226.98
468.78	8231.66
468.96	8177.83
469.14	8463.38
469.32	8463.38
469.50	8344.01
469.69	8594.45
469.87	8421.25
470.05	8578.06
470.23	8496.14
470.41	8662.32
470.59	8697.43
470.77	8664.66
470.95	8711.47
471.14	8854.25
471.32	8732.54
471.50	8884.67
471.68	8987.66
471.86	8947.87
472.04	8849.57
472.22	9252.14
472.40	9036.81
472.58	9067.24
472.77	9207.67
472.95	9153.84
473.13	9650.03
473.31	9315.33
473.49	9238.09
473.67	9219.37
473.85	9404.27
474.03	9748.33
474.21	9467.47
474.39	9544.70
474.57	9547.05
474.75	9643.01
474.93	9928.55
475.12	9586.83
475.30	9837.27
475.48	9720.24
475.66	10024.51
475.84	9799.82
476.02	10033.88
476.20	9921.53
476.38	10141.54
476.56	10565.18
476.74	10455.17
476.92	10703.27
477.10	10244.52
477.28	10675.18
477.46	10410.70
477.64	10761.78
477.82	10539.43
478.00	11105.84
478.18	10799.23
478.36	11028.60
478.54	10977.11
478.72	11171.38
478.90	11440.54
479.08	11489.69
479.26	11543.52
479.44	11393.73
479.62	11583.31
479.80	11674.59
479.98	11782.26
480.16	12177.81
480.34	11943.75
480.52	12044.40
480.70	12002.27
480.88	11908.65
481.06	12006.95
481.24	12283.13
481.41	12404.84
481.59	12706.77
481.77	12540.59
481.95	12650.60
482.13	12812.09
482.31	13027.42
482.49	13217.01
482.67	13172.54
482.85	13114.02
483.03	13453.40
483.21	13282.54
483.39	13827.88
483.57	13446.38
483.74	13511.91
483.92	13774.05
484.10	13865.33
484.28	14019.81
484.46	14427.06
484.64	14530.05
484.82	14253.86
485.00	14193.01
485.18	14906.87
485.35	14813.25
485.53	14853.04
485.71	15012.20
485.89	15515.41
486.07	15279.02
486.25	15040.28
486.43	15227.53
486.61	15634.78
486.78	15594.99
486.96	15545.84
487.14	15843.09
487.32	15721.38
487.50	16119.27
487.68	16189.49
487.85	16465.67
488.03	16477.37
488.21	16681.00
488.39	16631.85
488.57	16741.85
488.75	16718.45
488.92	17106.98
489.10	17242.73
489.28	17415.93
489.46	17593.81
489.64	17460.40
489.81	18031.49
489.99	17811.48
490.17	18181.28
490.35	18207.03
490.53	17930.84
490.70	18221.07
490.88	18153.20
491.06	18595.56
491.24	18567.47
491.41	18970.04
491.59	19166.65
491.77	18918.55
491.95	19164.31
492.13	19215.80
492.30	19260.27
492.48	19667.52
492.66	19613.69
492.84	19676.88
493.01	19594.96
493.19	20121.59
493.37	19953.07
493.54	20002.22
493.72	20149.67
493.90	20467.98
494.08	20505.43
494.25	20432.88
494.43	20631.82
494.61	20680.97
494.79	20882.26
494.96	20741.83
495.14	20978.22
495.32	21298.88
495.49	21111.63
495.67	21418.24
495.85	21509.52
496.02	21446.33
496.20	22017.42
496.38	21930.82
496.55	21963.59
496.73	22824.90
496.91	22211.68
497.09	22319.35
497.26	22630.64
497.44	22427.01
497.62	22459.78
497.79	23005.13
497.97	23077.68
498.14	23175.98
498.32	23288.33
498.50	23190.03
498.67	23819.63
498.85	23740.05
499.03	23583.24
499.20	23864.10
499.38	23353.87
499.56	24236.25
499.73	24053.69
499.91	24189.44
500.08	24290.08
500.26	24023.26
500.44	24430.51
500.61	24493.71
500.79	24514.77
500.97	24568.60
501.14	24793.29
501.32	25020.33
501.49	24741.80
501.67	24849.47
501.84	25680.36
502.02	25088.20
502.20	25240.34
502.37	25123.31
502.55	25504.82
502.72	25390.13
502.90	25755.26
503.07	25563.33
503.25	25834.83
503.43	25685.04
503.60	25642.91
503.78	25820.79
503.95	25656.95
504.13	25926.11
504.30	26434.01
504.48	26405.92
504.65	26431.67
504.83	26321.66
505.01	26932.54
505.18	26878.71
505.36	26829.56
505.53	26803.82
505.71	26551.04
505.88	27300.01
506.06	27103.40
506.23	27047.23
506.41	27023.83
506.58	27330.44
506.76	27349.16
506.93	27480.23
507.11	27494.27
507.28	27454.48
507.46	27604.28
507.63	27693.22
507.81	28173.03
507.98	27957.70
508.16	28095.79
508.33	28091.11
508.50	28360.27
508.68	28311.12
508.85	28474.96
509.03	28226.86
509.20	28456.23
509.38	28748.80
509.55	28849.44
509.73	28884.55
509.90	28687.95
510.08	28917.32
510.25	29214.57
510.42	28526.45
510.60	29221.59
510.77	29259.04
510.95	29778.64
511.12	29525.86
511.30	29418.19
511.47	29373.72
511.64	29614.80
511.82	29919.07
511.99	29766.93
512.17	30230.36
512.34	30398.88
512.51	30223.34
512.69	30436.33
512.86	30356.75
513.04	30525.27
513.21	30455.05
513.38	30738.26
513.56	30724.21
513.73	30450.37
513.90	30614.21
514.08	30682.08
514.25	30719.53
514.43	30897.41
514.60	30764.00
514.77	30911.46
514.95	31653.40
515.12	31026.14
515.29	31056.57
515.47	31351.48
515.64	31784.48
515.81	31658.09
515.99	31770.43
516.16	32077.04
516.33	31604.25
516.51	31903.84
516.68	31658.09
516.85	32114.49
517.03	32128.53
517.20	32308.76
517.37	32023.21
517.54	32123.85
517.72	32187.05
517.89	32451.53
518.06	32533.45
518.24	32613.02
518.41	32187.05
518.58	32575.58
518.75	32367.27
518.93	33017.94
519.10	32802.61
519.27	32783.88
519.45	32893.89
519.62	33156.03
519.79	32952.40
519.96	33170.07
520.14	33434.55
520.31	33287.10
520.48	33455.62
520.65	33345.61
520.83	33858.19
521.00	33652.22
521.17	33633.50
521.34	33764.57
521.52	33736.48
521.69	33846.49
521.86	33935.43
522.03	34333.32
522.20	34422.26
522.38	34291.19
522.55	34700.78
522.72	34176.50
522.89	34576.73
523.07	34969.94
523.24	34789.72
523.41	34967.60
523.58	34274.80
523.75	35070.59
523.92	34703.12
524.10	34714.83
524.27	35166.55
524.44	34852.92
524.61	35545.72
524.78	35204.00
524.96	35587.85
525.13	35026.12
525.30	35555.08
525.47	35847.64
525.64	35248.47
525.81	35693.17
525.98	35819.56
526.16	35821.90
526.33	35545.72
526.50	36322.77
526.67	35859.35
526.84	36119.15
527.01	35931.90
527.18	35910.84
527.36	36297.03
527.53	36421.08
527.70	36528.74
527.87	36442.14
528.04	36601.30
528.21	36594.28
528.38	36484.27
528.55	36662.15
528.72	36603.64
528.89	36926.63
529.07	36711.30
529.24	36589.59
529.41	36767.48
529.58	36458.52
529.75	36795.56
529.92	37268.35
530.09	36872.80
530.26	37439.21
530.43	36783.86
530.60	36954.72
530.77	37144.30
530.94	37453.25
531.11	37148.98
531.28	37488.36
531.46	37137.28
531.63	37420.48
531.80	37766.88
531.97	37713.05
532.14	37287.07
532.31	38029.02
532.48	37720.07
532.65	38281.80
532.82	37553.90
532.99	38190.52
533.16	37991.58
533.33	38106.26
533.50	37984.55
533.67	38232.65
533.84	37902.64
534.01	38375.42
534.18	38459.68
534.35	38677.35
534.52	38286.48
534.69	38923.11
534.86	38745.23
535.03	38902.04
535.20	38698.42
535.37	38841.19
535.54	39040.14
535.71	38953.54
535.88	38981.62
536.05	38689.06
536.22	38857.57
536.38	39009.71
536.55	39295.25
536.72	39093.97
536.89	38831.83
537.06	39344.41
537.23	39206.31
537.40	39093.97
537.57	39105.67
537.74	39124.40
537.91	39531.65
538.08	39297.59
538.25	39267.17
538.42	39405.26
538.59	39861.66
538.75	39487.18
538.92	39966.99
539.09	40112.10
539.26	40411.69
539.43	40062.95
539.60	40020.82
539.77	40076.99
539.94	40074.65
540.11	39660.38
540.28	40053.59
540.44	40119.12
540.61	40109.76
540.78	40079.33
540.95	40339.13
541.12	40297.00
541.29	40399.99
541.46	40304.02
541.62	40392.97
541.79	40421.05
541.96	40397.65
542.13	40076.99
542.30	40238.49
542.47	40748.73
542.63	40772.13
542.80	41247.26
542.97	41303.43
543.14	41303.43
543.31	41083.42
543.48	41029.59
543.64	40924.27
543.81	40978.10
543.98	41024.91
544.15	41343.22
544.32	41258.96
544.48	41837.08
544.65	41717.71
544.82	41799.63
544.99	41408.76
545.16	41469.61
545.32	41387.69
545.49	41998.57
545.66	42040.70
545.83	41846.44
546.00	41914.31
546.16	41759.84
546.33	41677.92
546.50	41731.75
546.67	41579.62
546.83	41429.82
547.00	41741.11
547.17	42092.19
547.34	42017.30
547.50	42241.99
547.67	42485.40
547.84	42405.83
548.00	42036.02
548.17	42536.90
548.34	42368.38
548.51	42485.40
548.67	42539.24
548.84	42419.87
549.01	42508.81
549.18	42323.91
549.34	42873.93
549.51	42799.04
549.68	42384.76
549.84	42890.32
550.01	42747.54
550.18	42572.00
550.34	42522.85
550.51	42813.08
550.68	43615.88
550.84	43100.97
551.01	43349.06
551.18	42883.30
551.34	42885.64
551.51	43157.14
551.68	43082.24
551.84	43119.69
552.01	42721.80
552.18	43452.05
552.34	43248.42
552.51	43225.01
552.68	43241.40
552.84	43005.00
553.01	43363.11
553.18	43421.62
553.34	43658.01
553.51	43061.18
553.67	43501.20
553.84	43697.80
554.01	43676.74
554.17	43922.49
554.34	43730.57
554.51	43765.68
554.67	44041.86
554.84	44041.86
555.00	43629.93
555.17	43775.04
555.33	44091.01
555.50	43835.89
555.67	43810.15
555.83	44140.16
556.00	44091.01
556.16	44048.88
556.33	44257.19
556.50	44030.16
556.66	44521.67
556.83	44210.38
556.99	44442.09
557.16	44594.23
557.32	44781.47
557.49	44566.14
557.65	44030.16
557.82	44449.11
557.98	44172.93
558.15	44697.21
558.32	44397.62
558.48	44666.78
558.65	44388.26
558.81	44505.29
558.98	44921.90
559.14	44388.26
559.31	44273.57
559.47	44353.15
559.64	44711.25
559.80	44467.84
559.97	44437.41
560.13	44694.87
560.30	44449.11
560.46	44774.45
560.63	44889.13
560.79	44809.56
560.96	45359.58
561.12	45050.63
561.29	45052.97
561.45	45020.20
561.61	44629.34
561.78	44992.12
561.94	45008.50
562.11	44884.45
562.27	45001.48
562.44	45111.49
562.60	45195.74
562.77	45029.57
562.93	45134.89
563.10	45333.84
563.26	45380.65
563.42	45720.02
563.59	45240.21
563.75	45055.31
563.92	45214.47
564.08	45631.08
564.24	45851.09
564.41	45453.20
564.57	45153.62
564.74	45228.51
564.90	45195.74
565.07	45364.26
565.23	45471.93
565.39	45291.71
565.56	45635.77
565.72	45205.11
565.88	45633.42
566.05	45497.67
566.21	45652.15
566.38	45923.65
566.54	45366.60
566.70	45511.72
566.87	45921.31
567.03	45485.97
567.19	45656.83
567.36	45722.37
567.52	45621.72
567.68	45811.31
567.85	45764.49
568.01	45900.25
568.17	45523.42
568.34	45638.11
568.50	45727.05
568.66	45687.26
568.83	46293.46
568.99	45703.64
569.15	45853.44
569.32	46047.70
569.48	45448.52
569.64	45947.06
569.81	45986.85
569.97	45872.16
570.13	45778.54
570.30	45495.33
570.46	45855.78
570.62	45921.31
570.78	45993.87
570.95	46234.94
571.11	46288.77
571.27	45537.46
571.43	45586.61
571.60	46248.99
571.76	46204.52
571.92	45588.95
572.09	45846.41
572.25	45666.19
572.41	45794.92
572.57	46248.99
572.74	46274.73
572.90	46040.68
573.06	46316.86
573.22	45813.65
573.38	46368.35
573.55	46625.81
573.71	46452.61
573.87	46630.49
574.03	46192.81
574.20	46181.11
574.36	46511.13
574.52	46377.72
574.68	46216.22
574.84	46630.49
575.01	46691.35
575.17	46213.88
575.33	46693.69
575.49	46403.46
575.65	46396.44
575.82	46649.22
575.98	46520.49
576.14	46178.77
576.30	46703.05
576.46	46476.02
576.62	46057.06
576.79	45996.21
576.95	45642.79
577.11	46129.62
577.27	46003.23
577.43	46244.30
577.59	46347.29
577.75	46033.66
577.92	45872.16
578.08	45947.06
578.24	46220.90
578.40	46593.04
578.56	46700.71
578.72	46405.80
578.88	46731.14
579.04	46480.70
579.21	46363.67
579.37	46429.21
579.53	46391.76
579.69	46337.93
579.85	46358.99
580.01	46454.95
580.17	46122.60
580.33	47185.20
580.49	46457.29
580.65	46567.30
580.82	46335.59
580.98	46511.13
581.14	46316.86
581.30	46742.84
581.46	46373.03
581.62	46534.53
581.78	46492.40
581.94	46780.29
582.10	46174.09
582.26	46574.32
582.42	46244.30
582.58	46670.28
582.74	46494.74
582.90	46234.94
583.06	46834.12
583.22	46227.92
583.38	46506.44
583.54	46824.76
583.70	46564.96
583.86	46454.95
584.02	46230.26
584.18	47377.12
584.34	46450.27
584.50	46899.65
584.66	46447.93
584.82	46780.29
584.98	46714.75
585.14	46604.75
585.30	46499.42
585.46	46333.24
585.62	46621.13
585.78	46602.41
585.94	46138.98
586.10	46525.17
586.26	46433.89
586.42	46815.40
586.58	46710.07
586.74	46312.18
586.90	46522.83
587.06	46838.80
587.22	46541.55
587.38	46485.38
587.54	47000.30
587.70	46904.34
587.86	46852.84
588.02	47093.92
588.18	46513.47
588.34	46550.91
588.49	46740.50
588.65	46810.71
588.81	46469.00
588.97	47082.22
589.13	46674.96
589.29	47016.68
589.45	47234.35
589.61	47150.09
589.77	46974.55
589.93	47157.11
590.08	47185.20
