SpectraSuite Data File
++++++++++++++++++++++++++++++++++++
Date: Fri Oct 25 10:44:28 EDT 2013
User: price-jones
Dark Spectrum Present: No
Reference Spectrum Present: No
Number of Sampled Component Spectra: 1
Spectrometers: USB2+H05261
Integration Time (usec): 100000 (USB2+H05261)
Spectra Averaged: 1 (USB2+H05261)
Boxcar Smoothing: 0 (USB2+H05261)
Correct for Electrical Dark: No (USB2+H05261)
Strobe/Lamp Enabled: No (USB2+H05261)
Correct for Detector Non-linearity: No (USB2+H05261)
Correct for Stray Light: No (USB2+H05261)
Number of Pixels in Processed Spectrum: 2048
>>>>>Begin Processed Spectral Data<<<<<
365.73	138.09
365.92	138.09
366.12	138.09
366.32	65.54
366.52	0.00
366.72	81.92
366.91	9.36
367.11	0.00
367.31	0.00
367.51	39.79
367.70	0.00
367.90	32.77
368.10	30.43
368.30	51.49
368.49	28.09
368.69	65.54
368.89	0.00
369.09	46.81
369.28	117.03
369.48	9.36
369.68	154.48
369.87	95.96
370.07	128.73
370.27	63.19
370.47	201.29
370.66	341.72
370.86	437.68
371.06	528.96
371.25	514.92
371.45	463.43
371.65	435.34
371.84	465.77
372.04	423.64
372.24	507.90
372.44	496.19
372.63	484.49
372.83	465.77
373.03	498.53
373.22	433.00
373.42	454.06
373.62	500.87
373.81	557.05
374.01	552.37
374.21	545.34
374.40	545.34
374.60	589.82
374.79	573.43
374.99	472.79
375.19	587.47
375.38	599.18
375.58	589.82
375.78	629.60
375.97	568.75
376.17	671.73
376.37	629.60
376.56	681.10
376.76	538.32
376.95	566.41
377.15	641.31
377.35	648.33
377.54	620.24
377.74	622.58
377.93	664.71
378.13	610.88
378.33	683.44
378.52	631.94
378.72	664.71
378.91	664.71
379.11	622.58
379.31	681.10
379.50	723.23
379.70	697.48
379.89	692.80
380.09	648.33
380.28	617.90
380.48	610.88
380.68	674.07
380.87	732.59
381.07	732.59
381.26	763.01
381.46	681.10
381.65	711.52
381.85	667.05
382.04	793.44
382.24	739.61
382.43	760.67
382.63	695.14
382.83	770.04
383.02	725.57
383.22	744.29
383.41	765.36
383.61	732.59
383.80	809.83
384.00	763.01
384.19	716.20
384.39	730.25
384.58	746.63
384.78	772.38
384.97	866.00
385.17	807.48
385.36	823.87
385.56	847.27
385.75	763.01
385.95	819.19
386.14	800.46
386.34	833.23
386.53	774.72
386.72	844.93
386.92	830.89
387.11	887.06
387.31	840.25
387.50	873.02
387.70	800.46
387.89	884.72
388.09	896.43
388.28	943.24
388.48	957.28
388.67	854.30
388.86	924.51
389.06	880.04
389.25	964.30
389.45	901.11
389.64	959.62
389.84	1020.47
390.03	938.55
390.22	1008.77
390.42	964.30
390.61	1043.88
390.81	1100.05
391.00	1104.73
391.19	1060.26
391.39	1006.43
391.58	1041.54
391.78	1020.47
391.97	950.26
392.16	985.37
392.36	912.81
392.55	908.13
392.75	1086.01
392.94	1004.09
393.13	1036.86
393.33	954.94
393.52	973.66
393.71	1125.80
393.91	1100.05
394.10	1181.97
394.29	1224.10
394.49	1132.82
394.68	1217.08
394.88	1252.19
395.07	1224.10
395.26	1294.32
395.46	1270.91
395.65	1228.78
395.84	1151.54
396.04	1231.12
396.23	1231.12
396.42	1158.57
396.62	1299.00
396.81	1177.29
397.00	1193.67
397.19	1270.91
397.39	1249.85
397.58	1343.47
397.77	1350.49
397.97	1334.11
398.16	1462.83
398.35	1516.67
398.55	1409.00
398.74	1500.28
398.93	1575.18
399.12	1479.22
399.32	1380.92
399.51	1514.33
399.70	1598.59
399.90	1448.79
400.09	1591.56
400.28	1612.63
400.47	1579.86
400.67	1568.16
400.86	1523.69
401.05	1565.82
401.24	1629.01
401.44	1701.57
401.63	1715.61
401.82	1713.27
402.01	1713.27
402.21	1769.44
402.40	1727.32
402.59	1706.25
402.78	1720.29
402.97	1708.59
403.17	1851.36
403.36	1872.43
403.55	1799.87
403.74	1816.26
403.93	1834.98
404.13	1729.66
404.32	1905.20
404.51	1900.52
404.70	1912.22
404.89	1935.62
405.09	1994.14
405.28	1991.80
405.47	1954.35
405.66	1949.67
405.85	1987.11
406.05	1944.99
406.24	1898.17
406.43	1900.52
406.62	2106.48
406.81	2090.10
407.00	2022.22
407.20	2047.97
407.39	2097.12
407.58	2097.12
407.77	2246.91
407.96	2216.49
408.15	2218.83
408.34	2310.11
408.54	2275.00
408.73	2249.25
408.92	2242.23
409.11	2394.37
409.30	2328.83
409.49	2246.91
409.68	2129.89
409.87	2305.43
410.07	2258.62
410.26	2431.82
410.45	2417.77
410.64	2326.49
410.83	2436.50
411.02	2478.63
411.21	2469.27
411.40	2487.99
411.59	2518.42
411.78	2633.10
411.98	2651.83
412.17	2537.14
412.36	2684.59
412.55	2651.83
412.74	2649.49
412.93	2745.45
413.12	2586.29
413.31	2860.13
413.50	2841.41
413.69	2871.84
413.88	2871.84
414.07	2810.98
414.26	2841.41
414.45	3000.57
414.64	2967.80
414.83	3023.97
415.02	3009.93
415.22	2986.52
415.41	3035.67
415.60	3206.53
415.79	3206.53
415.98	3173.77
416.17	3166.74
416.36	3129.30
416.55	3131.64
416.74	3307.18
416.93	3232.28
417.12	3267.39
417.31	3339.94
417.50	3316.54
417.69	3496.76
417.88	3386.76
418.07	3302.50
418.26	3414.84
418.45	3316.54
418.64	3585.70
418.83	3501.44
419.02	3609.11
419.21	3693.37
419.39	3459.31
419.58	3407.82
419.77	3609.11
419.96	3620.81
420.15	3726.13
420.34	3684.00
420.53	3819.75
420.72	3885.29
420.91	3772.94
421.10	3840.82
421.29	3777.62
421.48	3838.48
421.67	3847.84
421.86	3716.77
422.05	3735.50
422.24	3810.39
422.43	3829.12
422.61	3824.44
422.80	3934.44
422.99	3875.93
423.18	3845.50
423.37	4011.68
423.56	3861.88
423.75	3826.78
423.94	3812.73
424.13	3681.66
424.32	3885.29
424.50	4063.17
424.69	4021.04
424.88	3861.88
425.07	3971.89
425.26	3948.48
425.45	3765.92
425.64	4039.76
425.83	3847.84
426.01	4070.19
426.20	3906.35
426.39	3864.22
426.58	3927.42
426.77	3964.87
426.96	3889.97
427.15	3983.59
427.33	4105.30
427.52	4102.96
427.71	4100.62
427.90	4049.13
428.09	4117.00
428.28	4156.79
428.46	4109.98
428.65	4154.45
428.84	4339.35
429.03	4131.05
429.22	3981.25
429.40	4088.92
429.59	4163.81
429.78	3943.80
429.97	4077.21
430.16	4044.45
430.34	4142.75
430.53	4154.45
430.72	4170.83
430.91	4255.09
431.10	4292.54
431.28	4503.19
431.47	4372.12
431.66	4681.07
431.85	4526.60
432.03	4545.32
432.22	4624.90
432.41	4676.39
432.60	4678.73
432.79	4620.22
432.97	4812.14
433.16	4711.50
433.35	4648.30
433.54	4585.11
433.72	4755.97
433.91	4683.41
434.10	4770.01
434.28	4662.35
434.47	4812.14
434.66	4791.08
434.85	4940.87
435.03	4975.98
435.22	4933.85
435.41	5055.56
435.59	5118.75
435.78	4947.89
435.97	5116.41
436.16	5043.85
436.34	5069.60
436.53	5219.39
436.72	5313.02
436.90	4936.19
437.09	5245.14
437.28	5057.90
437.46	5142.16
437.65	5125.77
437.84	5329.40
438.02	5156.20
438.21	5247.48
438.40	5132.79
438.58	5380.89
438.77	5460.47
438.96	5268.55
439.14	5462.81
439.33	5720.27
439.52	5584.52
439.70	5488.56
439.89	5607.92
440.08	5753.04
440.26	5479.19
440.45	5685.16
440.63	5746.02
440.82	5799.85
441.01	6108.80
441.19	6078.37
441.38	6087.73
441.57	5940.28
441.75	6225.82
441.94	6167.31
442.12	6094.76
442.31	6293.70
442.50	6256.25
442.68	6267.95
442.87	6164.97
443.05	6305.40
443.24	6214.12
443.43	6363.92
443.61	6361.58
443.80	6616.69
443.98	6331.15
444.17	6303.06
444.35	6471.58
444.54	6665.85
444.73	6668.19
444.91	6317.11
445.10	6399.02
445.28	6298.38
445.47	6431.79
445.65	6403.71
445.84	6565.20
446.02	6602.65
446.21	6513.71
446.39	6480.94
446.58	6471.58
446.77	6569.88
446.95	6511.37
447.14	6710.32
447.32	6782.87
447.51	6525.41
447.69	6686.91
447.88	6597.97
448.06	6663.51
448.25	6586.27
448.43	6693.93
448.62	6607.33
448.80	6630.74
448.99	6628.40
449.17	6796.92
449.36	6796.92
449.54	6935.01
449.73	6829.68
449.91	7124.59
450.10	7045.01
450.28	7136.29
450.46	7173.74
450.65	7019.27
450.83	7126.93
451.02	7061.40
451.20	7227.57
451.39	7248.64
451.57	7194.81
451.76	7148.00
451.94	7176.08
452.13	7087.14
452.31	7126.93
452.49	7073.10
452.68	7162.04
452.86	7117.57
453.05	7297.79
453.23	7297.79
453.42	7098.84
453.60	7213.53
453.78	7290.77
453.97	7377.37
454.15	7424.18
454.34	7405.46
454.52	7435.88
454.70	7417.16
454.89	7583.34
455.07	7662.91
455.26	7590.36
455.44	7793.98
455.62	7550.57
455.81	7698.02
455.99	7700.36
456.17	7805.69
456.36	7716.75
456.54	7843.14
456.73	7838.45
456.91	8149.75
457.09	7918.03
457.28	8449.33
457.46	8023.36
457.64	8107.62
457.83	8002.29
458.01	8042.08
458.19	8325.29
458.38	8304.22
458.56	8287.84
458.74	8152.09
458.93	8149.75
459.11	8138.04
459.29	8320.60
459.48	8332.31
459.66	8339.33
459.84	8456.36
460.03	8482.10
460.21	8386.14
460.39	8379.12
460.57	8381.46
460.76	8596.79
460.94	8664.66
461.12	8458.70
461.31	8683.39
461.49	8531.25
461.67	8814.46
461.85	8702.11
462.04	8741.90
462.22	8903.40
462.40	8856.59
462.59	8800.41
462.77	8823.82
462.95	8922.12
463.13	8896.38
463.32	8903.40
463.50	8982.98
463.68	8952.55
463.86	9053.19
464.05	8744.24
464.23	8854.25
464.41	8889.35
464.59	8685.73
464.78	9078.94
464.96	9020.42
465.14	8990.00
465.32	9053.19
465.50	9034.47
465.69	9458.10
465.87	9193.62
466.05	9331.72
466.23	9083.62
466.41	9097.66
466.60	9523.64
466.78	9130.43
466.96	9298.95
467.14	9256.82
467.32	9305.97
467.51	9425.34
467.69	9172.56
467.87	9205.33
468.05	9221.71
468.23	9430.02
468.41	9418.32
468.60	9446.40
468.78	9643.01
468.96	9540.02
469.14	9860.68
469.32	9743.65
469.50	9362.14
469.69	9671.09
469.87	9818.55
470.05	9762.37
470.23	9792.80
470.41	9823.23
470.59	9877.06
470.77	9757.69
470.95	10019.83
471.14	10113.45
471.32	9923.87
471.50	10363.89
471.68	10225.80
471.86	10153.24
472.04	10457.51
472.22	10424.75
472.40	10190.69
472.58	10462.19
472.77	10218.78
472.95	10714.97
473.13	10832.00
473.31	10518.37
473.49	10455.17
473.67	10382.62
473.85	10649.44
474.03	10953.71
474.21	11035.63
474.39	11115.20
474.57	10890.51
474.75	10888.17
474.93	10974.77
475.12	11066.05
475.30	11220.53
475.48	11159.67
475.66	11227.55
475.84	11122.23
476.02	11431.18
476.20	11339.90
476.38	11726.08
476.56	11770.55
476.74	11847.79
476.92	11641.82
477.10	11676.93
477.28	12006.95
477.46	11976.52
477.64	12056.10
477.82	12217.60
478.00	12594.42
478.18	12411.86
478.36	12531.23
478.54	12629.53
478.72	12498.46
478.90	12891.67
479.08	12891.67
479.26	13233.39
479.44	12952.52
479.62	13041.46
479.80	13537.66
479.98	13359.78
480.16	13404.25
480.34	13422.97
480.52	13614.90
480.70	13624.26
480.88	13584.47
481.06	14005.77
481.24	13790.44
481.41	14003.43
481.59	14401.32
481.77	14370.89
481.95	14242.16
482.13	14843.68
482.31	14382.59
482.49	14991.13
482.67	14801.55
482.85	14785.16
483.03	15138.58
483.21	15417.11
483.39	15403.07
483.57	15166.67
483.74	15529.45
483.92	15489.67
484.10	15410.09
484.28	15908.62
484.46	15838.41
484.64	16137.99
484.82	16035.01
485.00	16236.30
485.18	16353.32
485.35	16358.00
485.53	15894.58
485.71	16248.00
485.89	16439.92
486.07	16552.27
486.25	16648.23
486.43	16720.79
486.61	16854.20
486.78	16926.75
486.96	17310.60
487.14	17710.83
487.32	17673.39
487.50	18120.43
487.68	18363.84
487.85	18284.26
488.03	18214.05
488.21	18544.06
488.39	18464.49
488.57	18553.43
488.75	18977.06
488.92	18845.99
489.10	19496.66
489.28	19339.85
489.46	19934.34
489.64	19573.90
489.81	20306.49
489.99	20245.63
490.17	20259.68
490.35	20374.36
490.53	20360.32
490.70	20503.09
490.88	20496.07
491.06	20821.41
491.24	20704.38
491.41	21135.04
491.59	20559.27
491.77	20814.38
491.95	21006.31
492.13	20987.58
492.30	21717.83
492.48	21619.53
492.66	21722.51
492.84	21671.02
493.01	21933.16
493.19	22129.77
493.37	22008.06
493.54	22396.59
493.72	22703.20
493.90	22331.05
494.08	22782.77
494.25	23154.92
494.43	23005.13
494.61	23405.36
494.79	23461.53
494.96	23545.79
495.14	23498.98
495.32	23215.77
495.49	23501.32
495.67	23850.06
495.85	24180.07
496.02	24266.67
496.20	24261.99
496.38	24222.20
496.55	24362.64
496.73	24603.71
496.91	24549.88
497.09	25039.05
497.26	25212.25
497.44	25104.59
497.62	25291.83
497.79	25472.05
497.97	24924.36
498.14	25495.46
498.32	25221.61
498.50	25675.68
498.67	26066.55
498.85	25729.51
499.03	25989.31
499.20	26108.68
499.38	26188.25
499.56	26279.54
499.73	26230.38
499.91	26565.08
500.08	26494.86
500.26	26513.59
500.44	26499.55
500.61	26345.07
500.79	26693.81
500.97	26595.51
501.14	26930.20
501.32	27428.74
501.49	27028.51
501.67	27145.53
501.84	27089.36
502.02	27365.54
502.20	27459.16
502.37	27761.09
502.55	27513.00
502.72	27817.27
502.90	27969.40
503.07	28027.92
503.25	28371.97
503.43	27983.44
503.60	27882.80
503.78	28285.37
503.95	28194.09
504.13	28463.25
504.30	28315.80
504.48	28390.70
504.65	28634.11
504.83	29282.44
505.01	29282.44
505.18	29099.88
505.36	29406.49
505.53	29425.22
505.71	29963.54
505.88	29804.38
506.06	29546.92
506.23	29329.25
506.41	29259.04
506.58	29720.12
506.76	29766.93
506.93	29975.24
507.11	29912.05
507.28	29846.51
507.46	29708.42
507.63	30218.66
507.81	30192.91
507.98	30197.59
508.16	30429.30
508.33	30684.42
508.50	30920.82
508.68	30696.13
508.85	31075.29
509.03	30906.77
509.20	31297.64
509.38	31185.30
509.55	31089.34
509.73	31187.64
509.90	31063.59
510.08	30991.03
510.25	31564.46
510.42	31695.53
510.60	31625.32
510.77	32009.17
510.95	32311.10
511.12	32077.04
511.30	32268.97
511.47	32439.82
511.64	32252.58
511.82	32081.72
511.99	32173.00
512.17	32460.89
512.34	32156.62
512.51	32149.60
512.69	32503.02
512.86	32208.11
513.04	32645.79
513.21	32833.04
513.38	32708.99
513.56	32910.27
513.73	32807.29
513.90	33010.92
514.08	32526.42
514.25	33146.67
514.43	32753.46
514.60	33008.58
514.77	33027.30
514.95	33549.24
515.12	33708.40
515.29	33839.47
515.47	33998.62
515.64	34110.97
515.81	33259.01
515.99	34082.88
516.16	33855.85
516.33	33483.70
516.51	33837.12
516.68	33434.55
516.85	33495.41
517.03	33560.94
517.20	34157.78
517.37	34157.78
517.54	34436.30
517.72	34197.57
517.89	33659.24
518.06	33907.34
518.24	33914.36
518.41	34120.33
518.58	34253.74
518.75	34368.43
518.93	34960.58
519.10	34958.24
519.27	34965.26
519.45	34941.86
519.62	35391.24
519.79	35370.18
519.96	35236.77
520.14	35742.32
520.31	35768.07
520.48	35098.67
520.65	35672.10
520.83	35578.48
521.00	36119.15
521.17	35847.64
521.34	36002.12
521.52	35981.06
521.69	36446.82
521.86	36327.45
522.03	36442.14
522.20	35929.56
522.38	36339.16
522.55	36161.28
522.72	36531.08
522.89	36605.98
523.07	36336.82
523.24	36526.40
523.41	36931.31
523.58	37024.93
523.75	37301.12
523.92	37167.71
524.10	37455.59
524.27	37266.01
524.44	37415.80
524.61	37263.67
524.78	37743.48
524.96	37701.35
525.13	37385.38
525.30	37689.65
525.47	37471.98
525.64	37680.28
525.81	37699.01
525.98	37537.51
526.16	37387.72
526.33	37074.09
526.50	37663.90
526.67	37081.11
526.84	37343.25
527.01	37338.57
527.18	37907.32
527.36	38391.81
527.53	38265.42
527.70	38792.04
527.87	38197.54
528.04	38267.76
528.21	38778.00
528.38	38600.12
528.55	38775.66
528.72	38808.42
528.89	38995.67
529.07	38565.01
529.24	38740.55
529.41	39154.82
529.58	39063.54
529.75	38752.25
529.92	39089.29
530.09	39480.16
530.26	39292.91
530.43	39332.70
530.60	39086.95
530.77	39115.03
530.94	39470.79
531.11	39035.45
531.28	39639.31
531.46	39328.02
531.63	39543.35
531.80	39459.09
531.97	39524.63
532.14	39363.13
532.31	39321.00
532.48	39370.15
532.65	39779.74
532.82	39737.62
532.99	39728.25
533.16	39772.72
533.33	39948.26
533.50	40196.36
533.67	40383.60
533.84	39737.62
534.01	40210.40
534.18	40079.33
534.35	40320.41
534.52	40573.19
534.69	40479.57
534.86	40343.81
535.03	40446.80
535.20	40840.01
535.37	41221.52
535.54	41296.41
535.71	40933.63
535.88	40837.67
536.05	40444.46
536.22	40751.07
536.38	40722.98
536.55	40655.11
536.72	40542.76
536.89	40259.55
537.06	40868.09
537.23	40755.75
537.40	41200.45
537.57	40832.99
537.74	40921.93
537.91	41352.58
538.08	41134.92
538.25	41230.88
538.42	41137.26
538.59	41198.11
538.75	41029.59
538.92	41291.73
539.09	41514.08
539.26	41722.39
539.43	41301.09
539.60	41015.55
539.77	41450.89
539.94	41312.80
540.11	41563.23
540.28	41450.89
540.44	41703.67
540.61	41560.89
540.78	41488.34
540.95	41689.62
541.12	41677.92
541.29	41811.33
541.46	41521.10
541.62	42377.74
541.79	42113.26
541.96	41570.25
542.13	42089.85
542.30	41785.58
542.47	41729.41
542.63	42305.18
542.80	42174.11
542.97	43098.62
543.14	42630.52
543.31	42953.51
543.48	42480.72
543.64	42995.64
543.81	43297.57
543.98	42747.54
544.15	43093.94
544.32	43040.11
544.48	43335.02
544.65	42635.20
544.82	42965.21
544.99	42810.74
545.16	43269.48
545.32	42742.86
545.49	43210.97
545.66	43730.57
545.83	43494.18
546.00	43650.99
546.16	43409.92
546.33	43065.86
546.50	43468.43
546.67	43079.90
546.83	42960.53
547.00	43271.82
547.17	43201.61
547.34	43379.49
547.50	43335.02
547.67	43852.28
547.84	43304.59
548.00	43648.65
548.17	44093.35
548.34	43805.47
548.51	44322.72
548.67	43812.49
548.84	43999.73
549.01	44009.09
549.18	43854.62
549.34	43391.19
549.51	43950.58
549.68	44091.01
549.84	44343.79
550.01	44130.80
550.18	44091.01
550.34	44137.82
550.51	44121.44
550.68	44034.84
550.84	43756.32
551.01	44268.89
551.18	44112.08
551.34	44439.75
551.51	44378.90
551.68	44247.83
551.84	44559.12
552.01	44179.95
552.18	44332.09
552.34	44257.19
552.51	44289.96
552.68	44105.06
552.84	44591.89
553.01	44556.78
553.18	44346.13
553.34	44486.56
553.51	44322.72
553.67	44666.78
553.84	44776.79
554.01	44739.34
554.17	45254.26
554.34	44697.21
554.51	44687.85
554.67	45045.95
554.84	44673.81
555.00	44825.94
555.17	44769.77
555.33	44435.07
555.50	44500.61
555.67	44971.05
555.83	45137.23
556.00	45235.53
556.16	45092.76
556.33	44917.22
556.50	44996.80
556.66	45017.86
556.83	44603.59
556.99	45078.72
557.16	44931.26
557.32	44706.57
557.49	45434.48
557.65	44432.73
557.82	44978.07
557.98	45535.12
558.15	45331.50
558.32	45167.66
558.48	45411.07
558.65	45064.67
558.81	45052.97
558.98	44847.00
559.14	45148.93
559.31	45240.21
559.47	45214.47
559.64	45134.89
559.80	45289.37
559.97	45277.66
560.13	45139.57
560.30	44992.12
560.46	45429.80
560.63	45542.14
560.79	45652.15
560.96	45612.36
561.12	45312.77
561.29	45116.17
561.45	45614.70
561.61	45628.74
561.78	45415.76
561.94	45462.57
562.11	45453.20
562.27	45471.93
562.44	45268.30
562.60	45757.47
562.77	45736.41
562.93	45382.99
563.10	45935.35
563.26	45624.06
563.42	45500.01
563.59	45249.58
563.75	45900.25
563.92	45858.12
564.08	45619.38
564.24	45642.79
564.41	45729.39
564.57	45914.29
564.74	45483.63
564.90	45647.47
565.07	45638.11
565.23	45586.61
565.39	45457.88
565.56	45670.87
565.72	45514.06
565.88	45647.47
566.05	45757.47
566.21	45825.35
566.38	45734.07
566.54	45258.94
566.70	46050.04
566.87	45923.65
567.03	46068.76
567.19	46742.84
567.36	46059.40
567.52	45364.26
567.68	46127.28
567.85	45958.76
568.01	46024.29
568.17	45654.49
568.34	45846.41
568.50	46181.11
568.66	45827.69
568.83	46028.98
568.99	45881.52
569.15	46178.77
569.32	45745.77
569.48	45624.06
569.64	46225.58
569.81	46183.45
569.97	45724.71
570.13	46113.23
570.30	45705.98
570.46	46057.06
570.62	45560.87
570.78	45443.84
570.95	45890.88
571.11	45673.21
571.27	45528.10
571.43	46064.08
571.60	46036.00
571.76	45717.68
571.92	46272.39
572.09	45818.33
572.25	45619.38
572.41	46054.72
572.57	45832.37
572.74	46342.61
572.90	45907.27
573.06	45902.59
573.22	46012.59
573.38	46497.08
573.55	45619.38
573.71	46485.38
573.87	45935.35
574.03	46169.41
574.20	45984.51
574.36	46293.46
574.52	46314.52
574.68	46265.37
574.84	46284.09
575.01	45780.88
575.17	45991.53
575.33	45949.40
575.49	45942.38
575.65	46199.83
575.82	46021.95
575.98	46508.79
576.14	46447.93
576.30	46665.60
576.46	45862.80
576.62	46052.38
576.79	46073.45
576.95	45581.93
577.11	46246.65
577.27	45949.40
577.43	46117.92
577.59	46101.53
577.75	46099.19
577.92	45572.57
578.08	45773.86
578.24	45930.67
578.40	46181.11
578.56	46108.55
578.72	46281.75
578.88	46873.91
579.04	46520.49
579.21	45890.88
579.37	46302.82
579.53	46010.25
579.69	45911.95
579.85	46440.91
580.01	46419.84
580.17	46279.41
580.33	46433.89
580.49	46356.65
580.65	46333.24
580.82	46384.74
580.98	46223.24
581.14	45734.07
581.30	46763.90
581.46	46646.88
581.62	46216.22
581.78	46307.50
581.94	46927.74
582.10	46146.00
582.26	46342.61
582.42	46497.08
582.58	46361.33
582.74	46216.22
582.90	46295.80
583.06	46412.82
583.22	46190.47
583.38	46417.50
583.54	46642.20
583.70	46625.81
583.86	46473.68
584.02	46136.64
584.18	46185.79
584.34	46543.89
584.50	46089.83
584.66	45963.44
584.82	46050.04
584.98	46429.21
585.14	46452.61
585.30	46312.18
585.46	46115.58
585.62	46087.49
585.78	46309.84
585.94	46157.70
586.10	46579.00
586.26	46110.89
586.42	46621.13
586.58	46445.59
586.74	46260.69
586.90	46504.10
587.06	45972.80
587.22	46394.10
587.38	46010.25
587.54	46337.93
587.70	46667.94
587.86	46169.41
588.02	46333.24
588.18	45876.84
588.34	46419.84
588.49	45731.73
588.65	45525.76
588.81	45830.03
588.97	45872.16
589.13	45841.73
589.29	45841.73
589.45	46272.39
589.61	46129.62
589.77	46265.37
589.93	46555.60
590.08	45923.65
