SpectraSuite Data File
++++++++++++++++++++++++++++++++++++
Date: Thu Oct 24 13:21:25 EDT 2013
User: stostad
Dark Spectrum Present: No
Reference Spectrum Present: No
Number of Sampled Component Spectra: 1
Spectrometers: USB2+H05261
Integration Time (usec): 100000 (USB2+H05261)
Spectra Averaged: 1 (USB2+H05261)
Boxcar Smoothing: 0 (USB2+H05261)
Correct for Electrical Dark: No (USB2+H05261)
Strobe/Lamp Enabled: No (USB2+H05261)
Correct for Detector Non-linearity: No (USB2+H05261)
Correct for Stray Light: No (USB2+H05261)
Number of Pixels in Processed Spectrum: 2048
>>>>>Begin Processed Spectral Data<<<<<
365.73	561.73
365.92	561.73
366.12	561.73
366.32	514.92
366.52	456.40
366.72	475.13
366.91	458.74
367.11	397.89
367.31	402.57
367.51	458.74
367.70	404.91
367.90	482.15
368.10	458.74
368.30	533.64
368.49	475.13
368.69	547.69
368.89	505.56
369.09	514.92
369.28	454.06
369.48	479.81
369.68	512.58
369.87	564.07
370.07	475.13
370.27	580.45
370.47	620.24
370.66	873.02
370.86	912.81
371.06	922.17
371.25	1001.75
371.45	964.30
371.65	973.66
371.84	950.26
372.04	1083.67
372.24	1013.45
372.44	950.26
372.63	1097.71
372.83	1071.97
373.03	997.07
373.22	980.68
373.42	1088.35
373.62	1132.82
373.81	1057.92
374.01	1163.25
374.21	1144.52
374.40	1067.28
374.60	1156.22
374.79	1118.78
374.99	1149.20
375.19	1144.52
375.38	1153.88
375.58	1165.59
375.78	1179.63
375.97	1083.67
376.17	1153.88
376.37	1114.10
376.56	1135.16
376.76	1139.84
376.95	1111.75
377.15	1160.91
377.35	1128.14
377.54	1256.87
377.74	1240.48
377.93	1186.65
378.13	1174.95
378.33	1245.16
378.52	1221.76
378.72	1266.23
378.91	1303.68
379.11	1249.85
379.31	1177.29
379.50	1188.99
379.70	1291.98
379.89	1254.53
380.09	1160.91
380.28	1170.27
380.48	1327.08
380.68	1296.66
380.87	1196.01
381.07	1252.19
381.26	1301.34
381.46	1315.38
381.65	1303.68
381.85	1371.55
382.04	1376.24
382.24	1320.06
382.43	1233.46
382.63	1329.42
382.83	1315.38
383.02	1327.08
383.22	1423.05
383.41	1397.30
383.61	1406.66
383.80	1446.45
384.00	1352.83
384.19	1373.89
384.39	1357.51
384.58	1392.62
384.78	1416.02
384.97	1437.09
385.17	1439.43
385.36	1437.09
385.56	1362.19
385.75	1479.22
385.95	1483.90
386.14	1411.34
386.34	1453.47
386.53	1504.96
386.72	1416.02
386.92	1516.67
387.11	1537.73
387.31	1479.22
387.50	1607.95
387.70	1434.75
387.89	1549.43
388.09	1526.03
388.28	1488.58
388.48	1561.14
388.67	1493.26
388.86	1511.99
389.06	1549.43
389.25	1584.54
389.45	1507.30
389.64	1561.14
389.84	1591.56
390.03	1528.37
390.22	1610.29
390.42	1584.54
390.61	1619.65
390.81	1654.76
391.00	1664.12
391.19	1603.27
391.39	1600.93
391.58	1614.97
391.78	1671.14
391.97	1778.81
392.16	1621.99
392.36	1722.63
392.55	1629.01
392.75	1696.89
392.94	1748.38
393.13	1732.00
393.33	1743.70
393.52	1816.26
393.71	1816.26
393.91	1802.21
394.10	1774.13
394.29	1849.02
394.49	1837.32
394.68	1746.04
394.88	1816.26
395.07	1881.79
395.26	1884.13
395.46	1825.62
395.65	1879.45
395.84	1905.20
396.04	1984.77
396.23	1942.64
396.42	2045.63
396.62	2062.01
396.81	2085.42
397.00	1954.35
397.19	2001.16
397.39	2045.63
397.58	1994.14
397.77	1947.33
397.97	2022.22
398.16	2033.93
398.35	2038.61
398.55	1933.28
398.74	2181.38
398.93	2108.82
399.12	2054.99
399.32	2129.89
399.51	2122.87
399.70	2174.36
399.90	2162.66
400.09	2106.48
400.28	2282.02
400.47	2155.63
400.67	2340.54
400.86	2321.81
401.05	2331.17
401.24	2298.41
401.44	2326.49
401.63	2335.85
401.82	2349.90
402.01	2293.72
402.21	2356.92
402.40	2349.90
402.59	2321.81
402.78	2366.28
402.97	2410.75
403.17	2420.11
403.36	2382.67
403.55	2473.95
403.74	2499.69
403.93	2459.90
404.13	2562.89
404.32	2485.65
404.51	2422.45
404.70	2630.76
404.89	2476.29
405.09	2572.25
405.28	2548.84
405.47	2532.46
405.66	2581.61
405.85	2612.04
406.05	2616.72
406.24	2672.89
406.43	2708.00
406.62	2747.79
406.81	2794.60
407.00	2700.98
407.20	2712.68
407.39	2738.43
407.58	2853.11
407.77	2848.43
407.96	2796.94
408.15	2857.79
408.34	2822.69
408.54	2916.31
408.73	2974.82
408.92	2883.54
409.11	2867.16
409.30	2993.55
409.49	3082.49
409.68	3033.33
409.87	3028.65
410.07	3045.04
410.26	3133.98
410.45	3126.96
410.64	3098.87
410.83	3281.43
411.02	3152.70
411.21	3178.45
411.40	3290.79
411.59	3243.98
411.78	3159.72
411.98	3344.63
412.17	3428.88
412.36	3353.99
412.55	3358.67
412.74	3442.93
412.93	3517.83
413.12	3332.92
413.31	3536.55
413.50	3655.92
413.69	3613.79
413.88	3653.58
414.07	3700.39
414.26	3625.49
414.45	3681.66
414.64	3791.67
414.83	3906.35
415.02	3733.15
415.22	3864.22
415.41	3847.84
415.60	3817.41
415.79	3988.27
415.98	3983.59
416.17	3950.82
416.36	4074.87
416.55	3939.12
416.74	3983.59
416.93	3957.85
417.12	4109.98
417.31	4250.41
417.50	4084.23
417.69	4191.90
417.88	4430.63
418.07	4248.07
418.26	4175.52
418.45	4273.82
418.64	4383.82
418.83	4360.42
419.02	4468.08
419.21	4510.21
419.39	4449.36
419.58	4367.44
419.77	4430.63
419.96	4622.56
420.15	4496.17
420.34	4458.72
420.53	4512.55
420.72	4631.92
420.91	4505.53
421.10	4807.46
421.29	4706.82
421.48	4617.88
421.67	4774.69
421.86	4720.86
422.05	4685.75
422.24	4725.54
422.43	4770.01
422.61	4758.31
422.80	4922.15
422.99	4793.42
423.18	4730.22
423.37	5004.07
423.56	4868.31
423.75	4830.87
423.94	4858.95
424.13	4641.28
424.32	4582.77
424.50	5004.07
424.69	4968.96
424.88	4873.00
425.07	4753.63
425.26	4938.53
425.45	4770.01
425.64	4777.03
425.83	4880.02
426.01	5013.43
426.20	5107.05
426.39	4905.76
426.58	4870.65
426.77	4844.91
426.96	4975.98
427.15	4908.10
427.33	4997.04
427.52	5074.28
427.71	5032.15
427.90	5055.56
428.09	5036.83
428.28	5195.99
428.46	5273.23
428.65	5158.54
428.84	5310.68
429.03	5350.46
429.22	5324.72
429.40	5308.34
429.59	5268.55
429.78	5210.03
429.97	5062.58
430.16	5268.55
430.34	5474.51
430.53	5465.15
430.72	5458.13
430.91	5427.70
431.10	5460.47
431.28	5371.53
431.47	5584.52
431.66	5558.77
431.85	5542.39
432.03	5769.42
432.22	5804.53
432.41	5760.06
432.60	5652.39
432.79	5753.04
432.97	5748.36
433.16	5865.38
433.35	5813.89
433.54	5767.08
433.72	5846.66
433.91	5675.80
434.10	5909.85
434.28	5795.17
434.47	5886.45
434.66	6120.50
434.85	6092.41
435.03	6080.71
435.22	6069.01
435.41	6422.43
435.59	6399.02
435.78	6342.85
435.97	6289.02
436.16	6340.51
436.34	6122.84
436.53	6214.12
436.72	6399.02
436.90	6024.54
437.09	6284.34
437.28	6031.56
437.46	6300.72
437.65	6340.51
437.84	6516.05
438.02	6504.35
438.21	6672.87
438.40	6373.28
438.58	6719.68
438.77	6642.44
438.96	6504.35
439.14	6679.89
439.33	6792.23
439.52	6853.09
439.70	6953.73
439.89	6906.92
440.08	7045.01
440.26	7096.50
440.45	7068.42
440.63	7143.32
440.82	7241.62
441.01	7054.37
441.19	7321.20
441.38	7302.47
441.57	7206.51
441.75	7346.94
441.94	7414.82
442.12	7468.65
442.31	7581.00
442.50	7391.41
442.68	7400.77
442.87	7478.01
443.05	7653.55
443.24	7679.30
443.43	7705.04
443.61	7564.61
443.80	7838.45
443.98	7576.31
444.17	7606.74
444.35	7772.92
444.54	7798.66
444.73	7838.45
444.91	7641.85
445.10	7918.03
445.28	7913.35
445.47	7686.32
445.65	7819.73
445.84	7950.80
446.02	7960.16
446.21	7854.84
446.39	7922.71
446.58	7957.82
446.77	7887.61
446.95	7831.43
447.14	7974.21
447.32	8028.04
447.51	7822.07
447.69	7887.61
447.88	7974.21
448.06	8049.10
448.25	8133.36
448.43	8081.87
448.62	8234.00
448.80	8093.57
448.99	8217.62
449.17	8184.85
449.36	8156.77
449.54	8351.03
449.73	8252.73
449.91	8461.04
450.10	8271.45
450.28	8468.06
450.46	8449.33
450.65	8568.70
450.83	8552.32
451.02	8400.18
451.20	8748.92
451.39	8510.19
451.57	8468.06
451.76	8421.25
451.94	8540.61
452.13	8849.57
452.31	8702.11
452.49	8575.72
452.68	8784.03
452.86	8812.12
453.05	8938.51
453.23	8982.98
453.42	8901.06
453.60	8762.97
453.78	9107.02
453.97	8814.46
454.15	8758.28
454.34	8819.14
454.52	9050.85
454.70	8980.64
454.89	9081.28
455.07	9121.07
455.26	9036.81
455.44	9273.20
455.62	9376.19
455.81	9535.34
455.99	9350.44
456.17	9455.76
456.36	9458.10
456.54	9427.68
456.73	9661.73
456.91	9685.14
457.09	9923.87
457.28	9788.12
457.46	9465.13
457.64	9776.42
457.83	9750.67
458.01	9900.47
458.19	9944.94
458.38	9884.08
458.56	9968.34
458.74	10068.98
458.93	10108.77
459.11	10045.58
459.29	9977.70
459.48	10146.22
459.66	10111.11
459.84	10003.45
460.03	10436.45
460.21	10459.85
460.39	10108.77
460.57	10209.42
460.76	10431.77
460.94	10530.07
461.12	10511.35
461.31	10406.02
461.49	10382.62
461.67	10518.37
461.85	10509.01
462.04	10541.77
462.22	11044.99
462.40	10670.50
462.59	10668.16
462.77	10394.32
462.95	10710.29
463.13	10729.02
463.32	10658.80
463.50	11007.54
463.68	10942.00
463.86	11056.69
464.05	10813.28
464.23	10888.17
464.41	11232.23
464.59	10768.80
464.78	11147.97
464.96	11133.93
465.14	10918.60
465.32	11098.82
465.50	11157.33
465.69	10946.69
465.87	11253.30
466.05	11286.06
466.23	10979.45
466.41	11356.28
466.60	11548.20
466.78	11129.25
466.96	11204.14
467.14	11257.98
467.32	11309.47
467.51	11545.86
467.69	11321.17
467.87	11426.50
468.05	11714.38
468.23	11487.35
468.41	11669.91
468.60	11580.97
468.78	11653.53
468.96	11719.06
469.14	11623.10
469.32	11887.58
469.50	11489.69
469.69	11927.37
469.87	11845.45
470.05	12245.68
470.23	11957.80
470.41	11903.96
470.59	12336.96
470.77	12205.89
470.95	12477.40
471.14	12542.93
471.32	12322.92
471.50	12594.42
471.68	12203.55
471.86	12580.38
472.04	12631.87
472.22	12966.57
472.40	12519.53
472.58	12592.08
472.77	12835.50
472.95	13048.49
473.13	13626.60
473.31	13041.46
473.49	13167.85
473.67	12870.61
473.85	13291.90
474.03	13385.52
474.21	13357.44
474.39	13406.59
474.57	13455.74
474.75	13785.76
474.93	13816.18
475.12	13486.17
475.30	13804.48
475.48	13652.34
475.66	14057.26
475.84	13958.96
476.02	14099.39
476.20	14214.07
476.38	14530.05
476.56	14766.44
476.74	14913.89
476.92	14544.09
477.10	14759.42
477.28	14831.97
477.46	14892.83
477.64	14923.26
477.82	15037.94
478.00	15269.66
478.18	15288.38
478.36	15538.82
478.54	15791.59
478.72	15889.90
478.90	15852.45
479.08	16166.08
479.26	16259.70
479.44	16212.89
479.62	16503.12
479.80	16498.44
479.98	16695.04
480.16	17064.85
480.34	16582.70
480.52	17055.48
480.70	17085.91
480.88	17003.99
481.06	17352.73
481.24	17209.96
481.41	17266.13
481.59	17902.76
481.77	17905.10
481.95	18043.19
482.13	18185.96
482.31	18022.12
482.49	18200.01
482.67	18728.97
482.85	18635.35
483.03	19082.39
483.21	18988.77
483.39	19487.30
483.57	18991.11
483.74	19295.38
483.92	19473.26
484.10	19569.22
484.28	19473.26
484.46	20074.77
484.64	20320.53
484.82	19822.00
485.00	20273.72
485.18	20821.41
485.35	20760.55
485.53	20802.68
485.71	21151.42
485.89	21699.11
486.07	21249.72
486.25	21165.46
486.43	21443.99
486.61	21994.01
486.78	22178.92
486.96	22106.36
487.14	22565.10
487.32	22520.63
487.50	22419.99
487.68	23042.57
487.85	23323.44
488.03	23363.23
488.21	23374.93
488.39	23524.72
488.57	23789.20
488.75	23922.62
488.92	24088.79
489.10	24287.74
489.28	24442.21
489.46	24875.21
489.64	24793.29
489.81	25378.43
489.99	25324.60
490.17	24872.87
490.35	25617.16
490.53	25839.51
490.70	25949.52
490.88	25806.75
491.06	26195.28
491.24	26525.29
491.41	26099.31
491.59	26792.11
491.77	26820.20
491.95	26991.06
492.13	26911.48
492.30	27592.58
492.48	27285.97
492.66	27646.41
492.84	27524.70
493.01	27880.46
493.19	27775.14
493.37	28226.86
493.54	28135.58
493.72	28079.41
493.90	28177.71
494.08	28685.61
494.25	28933.70
494.43	29259.04
494.61	29296.49
494.79	29785.66
494.96	29338.62
495.14	29539.90
495.32	29799.70
495.49	29883.96
495.67	30139.08
495.85	30256.11
496.02	30438.67
496.20	30909.11
496.38	30852.94
496.55	30976.99
496.73	31744.69
496.91	31756.39
497.09	31604.25
497.26	31730.64
497.44	31562.12
497.62	31695.53
497.79	32205.77
497.97	32100.45
498.14	32737.07
498.32	33006.23
498.50	33200.50
498.67	33001.55
498.85	33156.03
499.03	33553.92
499.20	33261.35
499.38	33556.26
499.56	33371.36
499.73	33518.81
499.91	33741.16
500.08	34080.54
500.26	33841.81
500.44	34497.16
500.61	34277.15
500.79	34665.67
500.97	34675.04
501.14	35033.14
501.32	34927.81
501.49	35016.75
501.67	35009.73
501.84	35278.89
502.02	34824.83
502.20	35344.43
502.37	35391.24
502.55	35585.50
502.72	35576.14
502.90	35484.86
503.07	35887.43
503.25	36027.87
503.43	36254.90
503.60	36437.46
503.78	36500.65
503.95	36163.62
504.13	36795.56
504.30	36844.71
504.48	36666.83
504.65	36905.57
504.83	37441.55
505.01	37305.80
505.18	36804.92
505.36	37607.73
505.53	37422.83
505.71	37315.16
505.88	37851.14
506.06	38068.81
506.23	38031.36
506.41	38052.43
506.58	38019.66
506.76	37832.42
506.93	38508.83
507.11	38307.55
507.28	38923.11
507.46	39012.05
507.63	38799.06
507.81	39164.18
507.98	38841.19
508.16	38925.45
508.33	39311.64
508.50	39573.78
508.68	39571.44
508.85	39721.23
509.03	39746.98
509.20	39739.96
509.38	40079.33
509.55	40224.45
509.73	40418.71
509.90	40505.31
510.08	40423.39
510.25	40418.71
510.42	40765.11
510.60	40996.82
510.77	40627.02
510.95	40964.06
511.12	41092.79
511.30	41546.85
511.47	41759.84
511.64	41612.38
511.82	42078.15
511.99	41514.08
512.17	41586.64
512.34	41502.38
512.51	42389.44
512.69	42389.44
512.86	42258.37
513.04	42637.54
513.21	42789.67
513.38	42256.03
513.56	42960.53
513.73	42508.81
513.90	42923.08
514.08	42972.24
514.25	43236.72
514.43	43161.82
514.60	43337.36
514.77	43260.12
514.95	43182.88
515.12	42967.55
515.29	43548.01
515.47	43845.26
515.64	44208.04
515.81	43658.01
515.99	43807.81
516.16	44121.44
516.33	44325.07
516.51	44765.09
516.68	44046.54
516.85	44287.62
517.03	44257.19
517.20	44395.28
517.37	44837.64
517.54	44617.63
517.72	44912.54
517.89	44566.14
518.06	45050.63
518.24	45141.91
518.41	44973.39
518.58	45205.11
518.75	45001.48
518.93	44966.37
519.10	44985.10
519.27	45825.35
519.45	45947.06
519.62	45832.37
519.79	45963.44
519.96	45617.04
520.14	46117.92
520.31	45738.75
520.48	45748.11
520.65	46087.49
520.83	46660.92
521.00	46780.29
521.17	46410.48
521.34	46883.27
521.52	46522.83
521.69	46981.57
521.86	46827.10
522.03	46869.23
522.20	47260.10
522.38	47297.55
522.55	47306.91
522.72	47634.58
522.89	47161.79
523.07	47529.26
523.24	47400.53
523.41	47725.86
523.58	47798.42
523.75	48158.86
523.92	47915.45
524.10	47746.93
524.27	48193.97
524.44	48229.08
524.61	48421.00
524.78	48128.44
524.96	48825.92
525.13	48390.58
525.30	48591.86
525.47	48762.72
525.64	48865.70
525.81	48779.10
525.98	49104.44
526.16	48809.53
526.33	48987.41
526.50	49371.26
526.67	49216.78
526.84	49214.44
527.01	49411.05
527.18	49485.95
527.36	49088.06
527.53	49502.33
527.70	49656.81
527.87	49921.29
528.04	49991.50
528.21	49708.30
528.38	50155.34
528.55	49722.34
528.72	49617.02
528.89	49532.76
529.07	50042.99
529.24	49617.02
529.41	50162.36
529.58	50220.87
529.75	50263.00
529.92	50192.79
530.09	50248.96
530.26	49820.64
530.43	50415.14
530.60	49977.46
530.77	50223.22
530.94	50925.38
531.11	50632.81
531.28	50880.91
531.46	50880.91
531.63	50951.12
531.80	50347.26
531.97	50974.53
532.14	50899.63
532.31	50859.84
532.48	51121.98
532.65	51217.94
532.82	51131.34
532.99	51353.69
533.16	51077.51
533.33	51320.93
533.50	51655.62
533.67	51154.75
533.84	51229.65
534.01	51573.70
534.18	51276.46
534.35	51894.36
534.52	51786.69
534.69	51892.02
534.86	52100.32
535.03	51728.18
535.20	51702.43
535.37	52105.01
535.54	52458.43
535.71	52177.56
535.88	51929.47
536.05	52184.58
536.22	52313.31
536.38	52238.42
536.55	51978.62
536.72	52446.72
536.89	51807.76
537.06	52528.64
537.23	52891.43
537.40	52582.48
537.57	52790.78
537.74	52509.92
537.91	53003.77
538.08	52781.42
538.25	52580.13
538.42	52821.21
538.59	52758.02
538.75	52982.71
538.92	52971.00
539.09	53099.73
539.26	52886.74
539.43	52989.73
539.60	53272.93
539.77	53254.21
539.94	53631.04
540.11	53382.94
540.28	53354.85
540.44	53221.44
540.61	53389.96
540.78	53396.98
540.95	53090.37
541.12	53338.47
541.29	53242.51
541.46	53455.50
541.62	53724.66
541.79	53694.23
541.96	53509.33
542.13	53645.08
542.30	53829.98
542.47	53731.68
542.63	53787.85
542.80	53766.79
542.97	54436.18
543.14	54602.36
543.31	54370.64
543.48	54162.34
543.64	54611.72
543.81	54387.03
543.98	54494.69
544.15	54440.86
544.32	54581.29
544.48	54775.56
544.65	54199.79
544.82	54564.91
544.99	54585.97
545.16	54763.85
545.32	54658.53
545.49	54972.16
545.66	54948.76
545.83	55250.69
546.00	55159.41
546.16	54969.82
546.33	54920.67
546.50	55056.42
546.67	55157.06
546.83	54756.83
547.00	54527.46
547.17	54578.95
547.34	54944.08
547.50	55054.08
547.67	55423.89
547.84	55356.01
548.00	55487.08
548.17	55398.14
548.34	55140.68
548.51	55295.16
548.67	55365.37
548.84	55231.96
549.01	55372.39
549.18	55260.05
549.34	55447.29
549.51	55444.95
549.68	55358.35
549.84	55297.50
550.01	55805.39
550.18	54976.84
550.34	55365.37
550.51	55608.79
550.68	55561.98
550.84	55433.25
551.01	55381.76
551.18	55744.54
551.34	55501.12
551.51	55856.88
551.68	55973.91
551.84	55669.64
552.01	55716.45
552.18	55707.09
552.34	55538.57
552.51	55992.64
552.68	55941.14
552.84	55943.48
553.01	56306.27
553.18	56016.04
553.34	55962.21
553.51	55957.53
553.67	55959.87
553.84	56402.23
554.01	56502.87
554.17	56250.09
554.34	56474.79
554.51	55983.27
554.67	56306.27
554.84	56296.91
555.00	55985.61
555.17	56102.64
555.33	56289.88
555.50	56170.52
555.67	56172.86
555.83	56348.40
556.00	56430.32
556.16	56399.89
556.33	56488.83
556.50	56479.47
556.66	56706.50
556.83	56177.54
556.99	56687.78
557.16	56853.95
557.32	56736.93
557.49	56952.26
557.65	56582.45
557.82	56657.35
557.98	56577.77
558.15	56636.28
558.32	56460.74
558.48	56481.81
558.65	56912.47
558.81	56636.28
558.98	56697.14
559.14	56970.98
559.31	56790.76
559.47	56715.86
559.64	56830.55
559.80	56919.49
559.97	57090.35
560.13	56748.63
560.30	56786.08
560.46	57083.33
560.63	57118.43
560.79	57188.65
560.96	57202.69
561.12	57010.77
561.29	56933.53
561.45	57209.71
561.61	57048.22
561.78	56875.02
561.94	57097.37
562.11	57261.21
562.27	57315.04
562.44	57303.34
562.60	57312.70
562.77	57326.74
562.93	57069.28
563.10	57366.53
563.26	56980.34
563.42	57396.96
563.59	57235.46
563.75	57464.83
563.92	57242.48
564.08	57574.84
564.24	57399.30
564.41	57085.67
564.57	57284.61
564.74	57092.69
564.90	57499.94
565.07	57715.27
565.23	57373.55
565.39	57663.78
565.56	57581.86
565.72	57736.34
565.88	57499.94
566.05	57408.66
566.21	57324.40
566.38	57418.02
566.54	57214.40
566.70	57631.01
566.87	57696.55
567.03	57717.61
567.19	57977.41
567.36	57773.78
567.52	57691.86
567.68	57773.78
567.85	57544.41
568.01	57841.66
568.17	57612.29
568.34	57677.82
568.50	57513.98
568.66	57619.31
568.83	57762.08
568.99	57764.42
569.15	57642.71
569.32	57745.70
569.48	57396.96
569.64	57584.20
569.81	57755.06
569.97	57506.96
570.13	58003.16
570.30	57776.12
570.46	57851.02
570.62	57764.42
570.78	57556.11
570.95	57546.75
571.11	57811.23
571.27	57574.84
571.43	57560.79
571.60	57717.61
571.76	57951.66
571.92	57813.57
572.09	58003.16
572.25	57883.79
572.41	57918.90
572.57	57715.27
572.74	58080.39
572.90	57766.76
573.06	57556.11
573.22	57710.59
573.38	57841.66
573.55	57820.59
573.71	58351.90
573.87	57862.72
574.03	57855.70
574.20	57851.02
574.36	57972.73
574.52	57935.28
574.68	58024.22
574.84	57993.79
575.01	58185.72
575.17	58106.14
575.33	57930.60
575.49	57893.15
575.65	58269.98
575.82	58218.49
575.98	57993.79
576.14	58220.83
576.30	58267.64
576.46	57986.77
576.62	57869.75
576.79	58185.72
576.95	57673.14
577.11	57993.79
577.27	58052.31
577.43	58021.88
577.59	58035.92
577.75	58127.20
577.92	58005.50
578.08	57914.22
578.24	58099.12
578.40	58110.82
578.56	58106.14
578.72	58272.32
578.88	58468.92
579.04	58419.77
579.21	58108.48
579.37	58244.23
579.53	58117.84
579.69	58166.99
579.85	58260.62
580.01	58251.25
580.17	58342.53
580.33	58262.96
580.49	58363.60
580.65	58419.77
580.82	58122.52
580.98	58143.59
581.14	58239.55
581.30	58213.80
581.46	58089.76
581.62	58148.27
581.78	57982.09
581.94	58145.93
582.10	57963.37
582.26	58258.27
582.42	58218.49
582.58	58288.70
582.74	58337.85
582.90	58419.77
583.06	58244.23
583.22	58335.51
583.38	58094.44
583.54	58075.71
583.70	58066.35
583.86	58234.87
584.02	58213.80
584.18	58340.19
584.34	58347.21
584.50	58429.13
584.66	58248.91
584.82	58384.66
584.98	58405.73
585.14	58246.57
585.30	58166.99
585.46	58216.14
585.62	58206.78
585.78	58625.74
585.94	58300.40
586.10	58424.45
586.26	58433.81
586.42	58485.31
586.58	58553.18
586.74	58337.85
586.90	58213.80
587.06	58401.05
587.22	58511.05
587.38	58506.37
587.54	58651.48
587.70	58831.71
587.86	58457.22
588.02	58515.73
588.18	58801.28
