SpectraSuite Data File
++++++++++++++++++++++++++++++++++++
Date: Thu Oct 24 13:21:32 EDT 2013
User: stostad
Dark Spectrum Present: No
Reference Spectrum Present: No
Number of Sampled Component Spectra: 1
Spectrometers: USB2+H05261
Integration Time (usec): 100000 (USB2+H05261)
Spectra Averaged: 1 (USB2+H05261)
Boxcar Smoothing: 0 (USB2+H05261)
Correct for Electrical Dark: No (USB2+H05261)
Strobe/Lamp Enabled: No (USB2+H05261)
Correct for Detector Non-linearity: No (USB2+H05261)
Correct for Stray Light: No (USB2+H05261)
Number of Pixels in Processed Spectrum: 2048
>>>>>Begin Processed Spectral Data<<<<<
365.73	535.98
365.92	535.98
366.12	535.98
366.32	470.45
366.52	472.79
366.72	517.26
366.91	507.90
367.11	491.51
367.31	498.53
367.51	535.98
367.70	472.79
367.90	463.43
368.10	458.74
368.30	486.83
368.49	362.78
368.69	447.04
368.89	507.90
369.09	482.15
369.28	484.49
369.48	456.40
369.68	526.62
369.87	486.83
370.07	535.98
370.27	486.83
370.47	674.07
370.66	992.39
370.86	1135.16
371.06	1144.52
371.25	1188.99
371.45	1170.27
371.65	1291.98
371.84	1224.10
372.04	1170.27
372.24	1193.67
372.44	1268.57
372.63	1254.53
372.83	1284.95
373.03	1341.13
373.22	1320.06
373.42	1306.02
373.62	1336.45
373.81	1390.28
374.01	1432.41
374.21	1350.49
374.40	1432.41
374.60	1479.22
374.79	1413.68
374.99	1390.28
375.19	1313.04
375.38	1378.58
375.58	1392.62
375.78	1493.26
375.97	1472.20
376.17	1554.12
376.37	1425.39
376.56	1500.28
376.76	1479.22
376.95	1479.22
377.15	1509.65
377.35	1519.01
377.54	1472.20
377.74	1558.80
377.93	1500.28
378.13	1577.52
378.33	1547.09
378.52	1507.30
378.72	1556.46
378.91	1610.29
379.11	1502.62
379.31	1598.59
379.50	1537.73
379.70	1593.90
379.89	1682.85
380.09	1586.88
380.28	1645.40
380.48	1603.27
380.68	1657.10
380.87	1619.65
381.07	1631.35
381.26	1713.27
381.46	1666.46
381.65	1668.80
381.85	1701.57
382.04	1706.25
382.24	1732.00
382.43	1713.27
382.63	1732.00
382.83	1762.42
383.02	1790.51
383.22	1795.19
383.41	1795.19
383.61	1797.53
383.80	1870.09
384.00	1746.04
384.19	1858.39
384.39	1853.70
384.58	1816.26
384.78	1877.11
384.97	1893.49
385.17	1846.68
385.36	1858.39
385.56	1842.00
385.75	1914.56
385.95	1942.64
386.14	1966.05
386.34	1989.46
386.53	1851.36
386.72	2033.93
386.92	2036.27
387.11	1973.07
387.31	1973.07
387.50	2101.80
387.70	1954.35
387.89	2057.33
388.09	2008.18
388.28	2071.37
388.48	2047.97
388.67	2097.12
388.86	2155.63
389.06	2143.93
389.25	2216.49
389.45	2129.89
389.64	2132.23
389.84	2207.13
390.03	2216.49
390.22	2331.17
390.42	2204.78
390.61	2207.13
390.81	2326.49
391.00	2190.74
391.19	2300.75
391.39	2291.38
391.58	2368.62
391.78	2340.54
391.97	2354.58
392.16	2352.24
392.36	2457.56
392.55	2366.28
392.75	2380.32
392.94	2340.54
393.13	2387.35
393.33	2387.35
393.52	2445.86
393.71	2520.76
393.91	2434.16
394.10	2387.35
394.29	2525.44
394.49	2565.23
394.68	2525.44
394.88	2558.21
395.07	2616.72
395.26	2544.16
395.46	2572.25
395.65	2679.91
395.84	2609.70
396.04	2668.21
396.23	2672.89
396.42	2750.13
396.62	2708.00
396.81	2752.47
397.00	2700.98
397.19	2796.94
397.39	2766.51
397.58	2773.53
397.77	2909.29
397.97	2890.56
398.16	2829.71
398.35	2895.24
398.55	2848.43
398.74	2855.45
398.93	3047.38
399.12	2942.05
399.32	3005.25
399.51	2925.67
399.70	3005.25
399.90	3096.53
400.09	3047.38
400.28	3192.49
400.47	3159.72
400.67	3213.56
400.86	3059.08
401.05	3206.53
401.24	3173.77
401.44	3178.45
401.63	3251.00
401.82	3180.79
402.01	3339.94
402.21	3372.71
402.40	3391.44
402.59	3311.86
402.78	3435.91
402.97	3426.54
403.17	3503.78
403.36	3356.33
403.55	3424.20
403.74	3545.91
403.93	3620.81
404.13	3639.53
404.32	3691.02
404.51	3592.72
404.70	3538.89
404.89	3644.21
405.09	3712.09
405.28	3646.55
405.47	3801.03
405.66	3815.07
405.85	3791.67
406.05	3702.73
406.24	3822.09
406.43	3836.14
406.62	3948.48
406.81	3925.08
407.00	3737.84
407.20	3796.35
407.39	3978.91
407.58	4086.58
407.77	4084.23
407.96	4011.68
408.15	4093.60
408.34	4100.62
408.54	4070.19
408.73	4259.78
408.92	4182.54
409.11	4224.67
409.30	4348.72
409.49	4243.39
409.68	4379.14
409.87	4273.82
410.07	4285.52
410.26	4479.79
410.45	4346.37
410.64	4447.02
410.83	4482.13
411.02	4535.96
411.21	4603.83
411.40	4550.00
411.59	4760.65
411.78	4484.47
411.98	4594.47
412.17	4828.53
412.36	4793.42
412.55	4861.29
412.74	5057.90
412.93	5050.88
413.12	4819.16
413.31	5069.60
413.50	4901.08
413.69	5069.60
413.88	5144.50
414.07	5100.03
414.26	5193.65
414.45	5240.46
414.64	5093.01
414.83	5268.55
415.02	5296.63
415.22	5591.54
415.41	5441.75
415.60	5458.13
415.79	5518.98
415.98	5465.15
416.17	5664.10
416.36	5600.90
416.55	5785.80
416.74	5923.90
416.93	5586.86
417.12	5839.64
417.31	5975.39
417.50	6094.76
417.69	6076.03
417.88	5959.00
418.07	6012.84
418.26	6249.23
418.45	6092.41
418.64	6279.66
418.83	6113.48
419.02	6345.19
419.21	6249.23
419.39	6368.60
419.58	6256.25
419.77	6312.42
419.96	6497.33
420.15	6422.43
420.34	6396.68
420.53	6476.26
420.72	6623.72
420.91	6574.56
421.10	6710.32
421.29	6642.44
421.48	6640.10
421.67	6553.50
421.86	6600.31
422.05	6759.47
422.24	6778.19
422.43	6848.41
422.61	6899.90
422.80	6871.81
422.99	6801.60
423.18	6984.16
423.37	7005.22
423.56	6937.35
423.75	6946.71
423.94	6703.29
424.13	6494.99
424.32	6530.09
424.50	6796.92
424.69	7133.95
424.88	7126.93
425.07	6853.09
425.26	6939.69
425.45	6939.69
425.64	6949.05
425.83	6918.62
426.01	6960.75
426.20	7028.63
426.39	7019.27
426.58	7035.65
426.77	6951.39
426.96	7169.06
427.15	7258.00
427.33	7316.51
427.52	7204.17
427.71	7328.22
427.90	7253.32
428.09	7485.03
428.28	7358.64
428.46	7321.20
428.65	7368.01
428.84	7662.91
429.03	7588.02
429.22	7508.44
429.40	7569.29
429.59	7524.82
429.78	7414.82
429.97	7508.44
430.16	7770.58
430.34	7957.82
430.53	8084.21
430.72	7831.43
430.91	7772.92
431.10	7726.11
431.28	7845.48
431.47	7918.03
431.66	8114.64
431.85	7812.71
432.03	8285.50
432.22	8219.96
432.41	8336.99
432.60	8109.96
432.79	8236.35
432.97	8332.31
433.16	8308.90
433.35	8339.33
433.54	8444.65
433.72	8458.70
433.91	8334.65
434.10	8664.66
434.28	8423.59
434.47	8564.02
434.66	8685.73
434.85	8659.98
435.03	9139.79
435.22	8833.18
435.41	9324.69
435.59	8997.02
435.78	9039.15
435.97	9074.26
436.16	8884.67
436.34	8940.85
436.53	8823.82
436.72	9231.07
436.90	8858.93
437.09	9132.77
437.28	8975.95
437.46	9116.39
437.65	9193.62
437.84	9193.62
438.02	9334.06
438.21	9493.21
438.40	9327.03
438.58	9675.77
438.77	9874.72
438.96	9558.75
439.14	9895.78
439.33	9851.31
439.52	10036.22
439.70	9923.87
439.89	10019.83
440.08	10026.86
440.26	10160.27
440.45	10029.20
440.63	10314.74
440.82	10726.68
441.01	10380.28
441.19	10483.26
441.38	10689.23
441.57	10644.76
441.75	10593.26
441.94	10813.28
442.12	11147.97
442.31	11150.31
442.50	11173.72
442.68	10923.28
442.87	11199.46
443.05	11030.94
443.24	11304.79
443.43	11218.19
443.61	11283.72
443.80	11644.17
443.98	11084.78
444.17	10719.65
444.35	11108.18
444.54	11370.32
444.73	11426.50
444.91	11190.10
445.10	11660.55
445.28	11510.75
445.47	11265.00
445.65	11508.41
445.84	11604.38
446.02	11585.65
446.21	11545.86
446.39	11686.29
446.58	11552.88
446.77	11665.23
446.95	11356.28
447.14	11609.06
447.32	11662.89
447.51	11658.21
447.69	11442.88
447.88	11599.70
448.06	11939.07
448.25	11833.75
448.43	11812.68
448.62	11627.78
448.80	11782.26
448.99	11749.49
449.17	11964.82
449.36	11674.59
449.54	12074.82
449.73	12341.64
449.91	12376.75
450.10	12365.05
450.28	12290.15
450.46	12456.33
450.65	12388.46
450.83	12601.44
451.02	12407.18
451.20	12720.81
451.39	12589.74
451.57	12765.28
451.76	12493.78
451.94	12608.47
452.13	12723.15
452.31	12774.64
452.49	12514.84
452.68	12973.59
452.86	12910.40
453.05	12519.53
453.23	12999.34
453.42	12786.35
453.60	12666.98
453.78	13163.17
453.97	13160.83
454.15	13055.51
454.34	13331.69
454.52	13383.18
454.70	13504.89
454.89	13387.86
455.07	13521.27
455.26	13724.90
455.44	13521.27
455.62	13479.15
455.81	13678.09
455.99	13713.20
456.17	13654.69
456.36	13954.27
456.54	13867.67
456.73	14384.93
456.91	14291.31
457.09	13900.44
457.28	14270.25
457.46	13963.64
457.64	14331.10
457.83	14469.19
458.01	14471.53
458.19	14675.16
458.38	14335.78
458.56	14384.93
458.74	14703.25
458.93	14932.62
459.11	14759.42
459.29	14799.21
459.48	14693.88
459.66	14782.82
459.84	15026.24
460.03	15140.93
460.21	15112.84
460.39	15070.71
460.57	15028.58
460.76	15267.31
460.94	15143.27
461.12	15323.49
461.31	15300.08
461.49	15295.40
461.67	15356.25
461.85	15627.76
462.04	15531.80
462.22	15953.09
462.40	15976.50
462.59	15875.85
462.77	15693.29
462.95	16060.76
463.13	15667.55
463.32	15740.10
463.50	16159.06
463.68	16119.27
463.86	16091.18
464.05	15836.06
464.23	15967.13
464.41	16372.05
464.59	15934.37
464.78	16744.19
464.96	16233.96
465.14	16285.45
465.32	16563.97
465.50	16409.50
465.69	16961.86
465.87	16648.23
466.05	16479.71
466.23	16460.99
466.41	16280.77
466.60	17055.48
466.78	16585.04
466.96	16999.31
467.14	16744.19
467.32	16945.48
467.51	17348.05
467.69	16877.60
467.87	17046.12
468.05	17465.08
468.23	16765.26
468.41	16926.75
468.60	17144.42
468.78	17621.89
468.96	17394.86
469.14	17483.80
469.32	17769.35
469.50	17404.22
469.69	17664.02
469.87	17909.78
470.05	17980.00
470.23	18090.00
470.41	18192.98
470.59	18452.78
470.77	18202.35
470.95	18167.24
471.14	18808.54
471.32	18134.47
471.50	18274.90
471.68	18483.21
471.86	18499.59
472.04	18803.86
472.22	19206.44
472.40	18714.92
472.58	18869.40
472.77	19288.35
472.95	19066.00
473.13	19882.85
473.31	19108.13
473.49	19461.55
473.67	19417.08
473.85	19484.96
474.03	20039.67
474.21	19969.45
474.39	19988.18
474.57	20056.05
474.75	20170.74
474.93	20365.00
475.12	20439.90
475.30	20535.86
475.48	20430.54
475.66	20826.09
475.84	20842.47
476.02	21291.85
476.20	21099.93
476.38	21427.60
476.56	21661.66
476.74	21940.18
476.92	21579.74
477.10	21577.40
477.28	22218.71
477.46	22246.79
477.64	22326.37
477.82	22530.00
478.00	23300.03
478.18	22967.68
478.36	23173.64
478.54	23658.14
478.72	23744.73
478.90	24009.22
479.08	24009.22
479.26	24273.70
479.44	24374.34
479.62	24467.96
479.80	24442.21
479.98	24601.37
480.16	25429.92
480.34	24938.41
480.52	25448.64
480.70	25427.58
480.88	25371.41
481.06	25797.38
481.24	25413.54
481.41	26272.51
481.59	26434.01
481.77	26799.13
481.95	26913.82
482.13	27084.68
482.31	26958.29
482.49	27838.33
482.67	27798.54
482.85	27835.99
483.03	27840.67
483.21	28048.98
483.39	28776.89
483.57	28435.17
483.74	28819.02
483.92	29179.46
484.10	29331.59
484.28	29879.28
484.46	30199.93
484.64	30808.47
484.82	30174.19
485.00	30532.29
485.18	31126.78
485.35	31475.52
485.53	31505.95
485.71	31721.28
485.89	32393.01
486.07	32137.90
486.25	32240.88
486.43	32306.41
486.61	32713.67
486.78	33144.33
486.96	33378.38
487.14	33661.58
487.32	33832.44
487.50	33858.19
487.68	34190.55
487.85	34129.69
488.03	34962.92
488.21	35510.61
488.39	35222.72
488.57	35622.95
488.75	35536.35
488.92	35739.98
489.10	36385.97
489.28	36638.75
489.46	37008.55
489.64	36940.68
489.81	38054.77
489.99	37837.10
490.17	38106.26
490.35	38401.17
490.53	38749.91
490.70	38820.13
490.88	38462.02
491.06	39253.12
491.24	39337.38
491.41	39313.98
491.59	39878.05
491.77	40109.76
491.95	39978.69
492.13	40437.44
492.30	40739.36
492.48	40818.94
492.66	40538.08
492.84	41530.47
493.01	41928.36
493.19	41766.86
493.37	42354.33
493.54	42618.81
493.72	42925.42
493.90	42731.16
494.08	43051.81
494.25	43381.83
494.43	43185.22
494.61	43721.21
494.79	44013.77
494.96	43473.11
495.14	43814.83
495.32	44746.36
495.49	44931.26
495.67	44947.65
495.85	45588.95
496.02	45518.74
496.20	45853.44
496.38	45813.65
496.55	45911.95
496.73	46941.78
496.91	46286.43
497.09	46761.56
497.26	47007.32
497.44	47103.28
497.62	47150.09
497.79	47650.97
497.97	47704.80
498.14	48406.96
498.32	48172.91
498.50	48238.44
498.67	48854.00
498.85	48708.89
499.03	48814.21
499.20	48744.00
499.38	49270.62
499.56	49331.47
499.73	49783.19
499.91	49853.41
500.08	49827.66
500.26	49511.69
500.44	49911.92
500.61	50333.22
500.79	50443.23
500.97	50401.10
501.14	50768.56
501.32	50871.54
501.49	50972.19
501.67	50623.45
501.84	51372.42
502.02	51372.42
502.20	51655.62
502.37	51634.56
502.55	51536.26
502.72	51892.02
502.90	51641.58
503.07	51737.54
503.25	51906.06
503.43	51973.94
503.60	52554.39
503.78	52156.50
503.95	52420.98
504.13	52750.99
504.30	52669.08
504.48	52556.73
504.65	53057.60
504.83	52982.71
505.01	53052.92
505.18	53228.46
505.36	53364.21
505.53	53495.28
505.71	53312.72
505.88	53556.14
506.06	53546.78
506.23	54237.23
506.41	53769.13
506.58	54049.99
506.76	54218.51
506.93	54368.30
507.11	54176.38
507.28	54501.71
507.46	54490.01
507.63	54525.12
507.81	54679.60
507.98	54408.09
508.16	54651.51
508.33	54761.51
508.50	55089.19
508.68	55065.78
508.85	55707.09
509.03	55227.28
509.20	55185.15
509.38	55599.43
509.55	55674.32
509.73	55807.73
509.90	55758.58
510.08	55915.40
510.25	55718.79
510.42	55964.55
510.60	55950.51
510.77	56432.66
510.95	56229.03
511.12	56491.17
511.30	56273.50
511.47	56779.06
511.64	56566.07
511.82	56994.39
511.99	56704.16
512.17	56769.69
512.34	56732.25
512.51	56921.83
512.69	57198.01
512.86	57209.71
513.04	57399.30
513.21	57411.00
513.38	57427.38
513.56	57420.36
513.73	57277.59
513.90	57406.32
514.08	57649.74
514.25	57827.62
514.43	57773.78
514.60	57710.59
514.77	57593.56
514.95	57832.30
515.12	58141.25
515.29	57750.38
515.47	58314.45
515.64	58370.62
515.81	58408.07
515.99	58485.31
516.16	58298.06
516.33	58312.11
516.51	58747.45
516.68	58674.89
516.85	58686.59
517.03	58754.47
517.20	58934.69
517.37	58754.47
517.54	58719.36
517.72	58773.19
517.89	58824.68
518.06	59208.53
518.24	59255.34
518.41	59143.00
518.58	59110.23
518.75	59047.04
518.93	59082.14
519.10	59203.85
519.27	59468.33
519.45	59370.03
519.62	59798.35
519.79	59636.85
519.96	59669.62
520.14	59636.85
520.31	59571.32
520.48	59723.45
520.65	59482.37
520.83	59898.99
521.00	60147.09
521.17	60083.89
521.34	60135.38
521.52	60217.30
521.69	60224.32
521.86	60245.39
522.03	60238.37
522.20	60289.86
522.38	60587.11
522.55	60762.65
522.72	60528.59
522.89	60598.81
523.07	60690.09
523.24	60636.26
523.41	60582.43
523.58	60669.03
523.75	60917.12
523.92	60945.21
524.10	60989.68
524.27	61205.01
524.44	60970.96
524.61	61134.79
524.78	60907.76
524.96	61263.52
525.13	61324.38
525.30	61347.78
525.47	61436.72
525.64	61502.26
525.81	61525.66
525.98	61474.17
526.16	61638.01
526.33	61361.82
526.50	61696.52
526.67	61485.87
526.84	61762.06
527.01	61731.63
527.18	61897.81
527.36	61829.93
527.53	61743.33
527.70	62063.99
527.87	62115.48
528.04	61886.10
528.21	62382.30
528.38	62152.93
528.55	62267.61
528.72	62176.33
528.89	62204.42
529.07	62120.16
529.24	62150.59
529.41	62356.55
529.58	62340.17
529.75	62344.85
529.92	62489.96
530.09	62286.34
530.26	62527.41
530.43	62489.96
530.60	62405.70
530.77	62569.54
530.94	62700.61
531.11	62712.31
531.28	62829.34
531.46	62759.12
531.63	62756.78
531.80	62808.28
531.97	62672.52
532.14	63004.88
532.31	63114.89
532.48	63028.29
532.65	63140.63
532.82	63135.95
532.99	63039.99
533.16	62841.04
533.33	63135.95
533.50	63351.28
533.67	63220.21
533.84	63065.73
534.01	63435.54
534.18	63377.03
534.35	63430.86
534.52	63360.64
534.69	63587.67
534.86	63330.22
535.03	63526.82
535.20	63695.34
535.37	63767.90
535.54	63910.67
535.71	63723.43
535.88	63660.23
536.05	63749.17
536.22	63810.03
536.38	63854.50
536.55	63905.99
536.72	63882.58
536.89	63945.78
537.06	63917.69
537.23	64072.17
537.40	64107.27
537.57	64121.32
537.74	63896.62
537.91	64137.70
538.08	64203.24
538.25	64034.72
538.42	64093.23
538.59	64456.01
538.75	64369.41
538.92	64313.24
539.09	64554.32
539.26	64292.18
539.43	64320.26
539.60	64406.86
539.77	64559.00
539.94	64551.98
540.11	64722.83
540.28	64898.37
540.44	64601.13
540.61	64601.13
540.78	64624.53
540.95	64573.04
541.12	64676.02
541.29	64844.54
541.46	64706.45
541.62	64764.96
541.79	64933.48
541.96	64757.94
542.13	64832.84
542.30	64755.60
542.47	64889.01
542.63	65045.83
542.80	65186.26
542.97	65429.68
543.14	65535.00
543.31	65298.61
543.48	65535.00
543.64	65535.00
543.81	65340.74
543.98	65247.11
544.15	65371.16
544.32	65499.89
544.48	65535.00
544.65	65535.00
544.82	65535.00
544.99	65520.96
545.16	65535.00
545.32	65535.00
545.49	65535.00
545.66	65535.00
545.83	65535.00
546.00	65535.00
546.16	65535.00
546.33	65535.00
546.50	65535.00
546.67	65535.00
546.83	65513.94
547.00	65535.00
547.17	65535.00
547.34	65535.00
547.50	65535.00
547.67	65535.00
547.84	65535.00
548.00	65535.00
548.17	65535.00
548.34	65535.00
548.51	65535.00
548.67	65535.00
548.84	65535.00
549.01	65535.00
549.18	65535.00
549.34	65535.00
549.51	65535.00
549.68	65535.00
549.84	65535.00
550.01	65535.00
550.18	65535.00
550.34	65535.00
550.51	65535.00
550.68	65535.00
550.84	65535.00
551.01	65535.00
551.18	65535.00
551.34	65535.00
551.51	65535.00
551.68	65535.00
551.84	65535.00
552.01	65535.00
552.18	65535.00
552.34	65535.00
552.51	65535.00
552.68	65535.00
552.84	65535.00
553.01	65535.00
553.18	65535.00
553.34	65535.00
553.51	65535.00
553.67	65535.00
553.84	65535.00
554.01	65535.00
554.17	65535.00
554.34	65535.00
554.51	65535.00
554.67	65535.00
554.84	65535.00
555.00	65535.00
555.17	65535.00
555.33	65535.00
555.50	65535.00
555.67	65535.00
555.83	65535.00
556.00	65535.00
556.16	65535.00
556.33	65535.00
556.50	65535.00
556.66	65535.00
556.83	65535.00
556.99	65535.00
557.16	65535.00
557.32	65535.00
557.49	65535.00
557.65	65535.00
557.82	65535.00
557.98	65535.00
558.15	65535.00
558.32	65535.00
558.48	65535.00
558.65	65535.00
558.81	65535.00
558.98	65535.00
559.14	65535.00
559.31	65535.00
559.47	65535.00
559.64	65535.00
559.80	65535.00
559.97	65535.00
560.13	65535.00
560.30	65535.00
560.46	65535.00
560.63	65535.00
560.79	65535.00
560.96	65535.00
561.12	65535.00
561.29	65535.00
561.45	65535.00
561.61	65535.00
561.78	65535.00
561.94	65535.00
562.11	65535.00
562.27	65535.00
562.44	65535.00
562.60	65535.00
562.77	65535.00
562.93	65535.00
563.10	65535.00
563.26	65535.00
563.42	65535.00
563.59	65535.00
563.75	65535.00
563.92	65535.00
564.08	65535.00
564.24	65535.00
564.41	65535.00
564.57	65535.00
564.74	65535.00
564.90	65535.00
565.07	65535.00
565.23	65535.00
565.39	65535.00
565.56	65535.00
565.72	65535.00
565.88	65535.00
566.05	65535.00
566.21	65535.00
566.38	65535.00
566.54	65535.00
566.70	65535.00
566.87	65535.00
567.03	65535.00
567.19	65535.00
567.36	65535.00
567.52	65535.00
567.68	65535.00
567.85	65535.00
568.01	65535.00
568.17	65535.00
568.34	65535.00
568.50	65535.00
568.66	65535.00
568.83	65535.00
568.99	65535.00
569.15	65535.00
569.32	65535.00
569.48	65535.00
569.64	65535.00
569.81	65535.00
569.97	65535.00
570.13	65535.00
570.30	65535.00
570.46	65535.00
570.62	65535.00
570.78	65535.00
570.95	65535.00
571.11	65535.00
571.27	65535.00
571.43	65535.00
571.60	65535.00
571.76	65535.00
571.92	65535.00
572.09	65535.00
572.25	65535.00
572.41	65535.00
572.57	65535.00
572.74	65535.00
572.90	65535.00
573.06	65535.00
573.22	65535.00
573.38	65535.00
573.55	65535.00
573.71	65535.00
573.87	65535.00
574.03	65535.00
574.20	65535.00
574.36	65535.00
574.52	65535.00
574.68	65535.00
574.84	65535.00
575.01	65535.00
575.17	65535.00
575.33	65535.00
575.49	65535.00
575.65	65535.00
575.82	65535.00
575.98	65535.00
576.14	65535.00
576.30	65535.00
576.46	65535.00
576.62	65535.00
576.79	65535.00
576.95	65535.00
577.11	65535.00
577.27	65535.00
577.43	65535.00
577.59	65535.00
577.75	65535.00
577.92	65535.00
578.08	65535.00
578.24	65535.00
578.40	65535.00
578.56	65535.00
578.72	65535.00
578.88	65535.00
579.04	65535.00
579.21	65535.00
579.37	65535.00
579.53	65535.00
579.69	65535.00
579.85	65535.00
580.01	65535.00
580.17	65535.00
580.33	65535.00
580.49	65535.00
580.65	65535.00
580.82	65535.00
580.98	65535.00
581.14	65535.00
581.30	65535.00
581.46	65535.00
581.62	65535.00
581.78	65535.00
581.94	65535.00
582.10	65535.00
582.26	65535.00
582.42	65535.00
582.58	65535.00
582.74	65535.00
582.90	65535.00
583.06	65535.00
583.22	65535.00
583.38	65535.00
583.54	65535.00
583.70	65535.00
583.86	65535.00
584.02	65535.00
584.18	65535.00
584.34	65535.00
584.50	65535.00
584.66	65535.00
584.82	65535.00
584.98	65535.00
585.14	65535.00
585.30	65535.00
585.46	65535.00
585.62	65535.00
585.78	65535.00
585.94	65535.00
586.10	65535.00
586.26	65535.00
586.42	65535.00
586.58	65535.00
586.74	65535.00
586.90	65535.00
587.06	65535.00
