SpectraSuite Data File
++++++++++++++++++++++++++++++++++++
Date: Thu Oct 24 13:21:20 EDT 2013
User: stostad
Dark Spectrum Present: No
Reference Spectrum Present: No
Number of Sampled Component Spectra: 1
Spectrometers: USB2+H05261
Integration Time (usec): 100000 (USB2+H05261)
Spectra Averaged: 1 (USB2+H05261)
Boxcar Smoothing: 0 (USB2+H05261)
Correct for Electrical Dark: No (USB2+H05261)
Strobe/Lamp Enabled: No (USB2+H05261)
Correct for Detector Non-linearity: No (USB2+H05261)
Correct for Stray Light: No (USB2+H05261)
Number of Pixels in Processed Spectrum: 2048
>>>>>Begin Processed Spectral Data<<<<<
365.73	592.16
365.92	592.16
366.12	592.16
366.32	524.28
366.52	451.72
366.72	468.11
366.91	512.58
367.11	411.93
367.31	451.72
367.51	404.91
367.70	433.00
367.90	465.77
368.10	425.98
368.30	386.19
368.49	447.04
368.69	517.26
368.89	449.38
369.09	465.77
369.28	491.51
369.48	470.45
369.68	470.45
369.87	500.87
370.07	535.98
370.27	533.64
370.47	599.18
370.66	812.17
370.86	826.21
371.06	922.17
371.25	987.71
371.45	908.13
371.65	947.92
371.84	816.85
372.04	877.70
372.24	894.08
372.44	964.30
372.63	971.32
372.83	1011.11
373.03	882.38
373.22	915.15
373.42	938.55
373.62	997.07
373.81	1025.15
374.01	1046.22
374.21	1041.54
374.40	968.98
374.60	1048.56
374.79	936.21
374.99	1011.11
375.19	1036.86
375.38	994.73
375.58	966.64
375.78	1008.77
375.97	1001.75
376.17	1050.90
376.37	1039.20
376.56	1165.59
376.76	1020.47
376.95	1069.62
377.15	1118.78
377.35	1064.94
377.54	1083.67
377.74	1032.18
377.93	1064.94
378.13	1060.26
378.33	1151.54
378.52	1174.95
378.72	1067.28
378.91	1100.05
379.11	1107.07
379.31	1027.50
379.50	1146.86
379.70	1057.92
379.89	1174.95
380.09	1142.18
380.28	1191.33
380.48	1104.73
380.68	1088.35
380.87	1160.91
381.07	1219.42
381.26	1146.86
381.46	1172.61
381.65	1114.10
381.85	1137.50
382.04	1142.18
382.24	1163.25
382.43	1093.03
382.63	1170.27
382.83	1219.42
383.02	1186.65
383.22	1235.80
383.41	1193.67
383.61	1207.72
383.80	1170.27
384.00	1198.35
384.19	1214.74
384.39	1280.27
384.58	1181.97
384.78	1263.89
384.97	1181.97
385.17	1139.84
385.36	1252.19
385.56	1355.17
385.75	1261.55
385.95	1322.40
386.14	1263.89
386.34	1280.27
386.53	1371.55
386.72	1306.02
386.92	1376.24
387.11	1378.58
387.31	1320.06
387.50	1282.61
387.70	1263.89
387.89	1331.76
388.09	1336.45
388.28	1259.21
388.48	1369.21
388.67	1371.55
388.86	1366.87
389.06	1371.55
389.25	1413.68
389.45	1315.38
389.64	1362.19
389.84	1430.07
390.03	1385.60
390.22	1416.02
390.42	1315.38
390.61	1362.19
390.81	1352.83
391.00	1455.81
391.19	1455.81
391.39	1495.60
391.58	1521.35
391.78	1401.98
391.97	1519.01
392.16	1509.65
392.36	1565.82
392.55	1441.77
392.75	1577.52
392.94	1504.96
393.13	1593.90
393.33	1523.69
393.52	1577.52
393.71	1603.27
393.91	1488.58
394.10	1633.69
394.29	1549.43
394.49	1589.22
394.68	1643.06
394.88	1621.99
395.07	1607.95
395.26	1633.69
395.46	1612.63
395.65	1629.01
395.84	1610.29
396.04	1762.42
396.23	1750.72
396.42	1755.40
396.62	1746.04
396.81	1682.85
397.00	1827.96
397.19	1748.38
397.39	1715.61
397.58	1727.32
397.77	1750.72
397.97	1769.44
398.16	1736.68
398.35	1788.17
398.55	1790.51
398.74	1844.34
398.93	1905.20
399.12	1769.44
399.32	1806.89
399.51	1809.23
399.70	1926.26
399.90	1879.45
400.09	1867.75
400.28	1956.69
400.47	1952.01
400.67	1968.39
400.86	1888.81
401.05	1919.24
401.24	1982.43
401.44	1949.67
401.63	2045.63
401.82	2003.50
402.01	1914.56
402.21	2003.50
402.40	1952.01
402.59	2043.29
402.78	2125.21
402.97	2071.37
403.17	2033.93
403.36	2125.21
403.55	2197.76
403.74	2045.63
403.93	2221.17
404.13	2221.17
404.32	2300.75
404.51	2162.66
404.70	2172.02
404.89	2291.38
405.09	2356.92
405.28	2380.32
405.47	2190.74
405.66	2349.90
405.85	2289.04
406.05	2401.39
406.24	2275.00
406.43	2324.15
406.62	2464.58
406.81	2480.97
407.00	2370.96
407.20	2452.88
407.39	2377.98
407.58	2377.98
407.77	2438.84
407.96	2429.48
408.15	2422.45
408.34	2469.27
408.54	2567.57
408.73	2511.39
408.92	2429.48
409.11	2623.74
409.30	2553.52
409.49	2586.29
409.68	2640.12
409.87	2794.60
410.07	2644.81
410.26	2581.61
410.45	2708.00
410.64	2794.60
410.83	2576.93
411.02	2792.26
411.21	2843.75
411.40	2782.90
411.59	2846.09
411.78	2888.22
411.98	2930.35
412.17	2906.95
412.36	2928.01
412.55	3026.31
412.74	3019.29
412.93	2958.44
413.12	3007.59
413.31	3138.66
413.50	3035.67
413.69	3084.83
413.88	3105.89
414.07	3136.32
414.26	3258.03
414.45	3192.49
414.64	3096.53
414.83	3220.58
415.02	3382.07
415.22	3300.16
415.41	3375.05
415.60	3335.26
415.79	3262.71
415.98	3506.12
416.17	3377.39
416.36	3363.35
416.55	3475.70
416.74	3361.01
416.93	3496.76
417.12	3494.42
417.31	3660.60
417.50	3620.81
417.69	3705.07
417.88	3585.70
418.07	3728.47
418.26	3768.26
418.45	3702.73
418.64	3815.07
418.83	3789.33
419.02	3782.31
419.21	3829.12
419.39	3854.86
419.58	3882.95
419.77	3779.97
419.96	3904.01
420.15	3894.65
420.34	3892.31
420.53	4009.34
420.72	4011.68
420.91	3894.65
421.10	4058.49
421.29	4018.70
421.48	3882.95
421.67	3974.23
421.86	3922.74
422.05	4093.60
422.24	4133.39
422.43	4046.79
422.61	4290.20
422.80	4093.60
422.99	4142.75
423.18	4259.78
423.37	4257.43
423.56	4243.39
423.75	4175.52
423.94	4168.49
424.13	3772.94
424.32	3983.59
424.50	4121.68
424.69	4337.01
424.88	4271.48
425.07	4170.83
425.26	4219.99
425.45	4320.63
425.64	4184.88
425.83	4074.87
426.01	4149.77
426.20	4184.88
426.39	4149.77
426.58	4257.43
426.77	4133.39
426.96	4292.54
427.15	4409.57
427.33	4383.82
427.52	4351.06
427.71	4458.72
427.90	4383.82
428.09	4395.53
428.28	4437.66
428.46	4493.83
428.65	4493.83
428.84	4655.33
429.03	4470.42
429.22	4561.70
429.40	4519.57
429.59	4610.86
429.78	4519.57
429.97	4622.56
430.16	4423.61
430.34	4596.81
430.53	4713.84
430.72	4774.69
430.91	4786.40
431.10	4704.48
431.28	4798.10
431.47	4854.27
431.66	4725.54
431.85	4936.19
432.03	4929.17
432.22	4917.47
432.41	4882.36
432.60	4875.34
432.79	4940.87
432.97	5018.11
433.16	4891.72
433.35	4968.96
433.54	5184.29
433.72	5029.81
433.91	4980.66
434.10	5090.67
434.28	4985.34
434.47	5128.11
434.66	5184.29
434.85	5217.05
435.03	5401.96
435.22	5411.32
435.41	5497.92
435.59	5336.42
435.78	5526.00
435.97	5516.64
436.16	5270.89
436.34	5334.08
436.53	5287.27
436.72	5537.71
436.90	5320.04
437.09	5437.06
437.28	5416.00
437.46	5390.25
437.65	5528.35
437.84	5518.98
438.02	5401.96
438.21	5565.79
438.40	5404.30
438.58	5717.93
438.77	5802.19
438.96	5612.60
439.14	5813.89
439.33	5832.62
439.52	5877.09
439.70	5919.21
439.89	5940.28
440.08	6029.22
440.26	5944.96
440.45	5872.40
440.63	6050.28
440.82	6244.55
441.01	6120.50
441.19	6169.65
441.38	6291.36
441.57	6333.49
441.75	6202.42
441.94	6415.41
442.12	6483.28
442.31	6415.41
442.50	6525.41
442.68	6520.73
442.87	6513.71
443.05	6628.40
443.24	6679.89
443.43	6588.61
443.61	6696.27
443.80	6855.43
443.98	6452.86
444.17	6450.52
444.35	6466.90
444.54	6644.78
444.73	6626.06
444.91	6581.59
445.10	6761.81
445.28	6855.43
445.47	6717.34
445.65	6820.32
445.84	6785.21
446.02	6876.49
446.21	6829.68
446.39	6789.89
446.58	6841.39
446.77	6815.64
446.95	6647.12
447.14	6904.58
447.32	6836.70
447.51	6881.18
447.69	6803.94
447.88	7023.95
448.06	6750.10
448.25	6972.46
448.43	6909.26
448.62	6988.84
448.80	6787.55
448.99	6972.46
449.17	7047.35
449.36	7136.29
449.54	7122.25
449.73	7173.74
449.91	6874.15
450.10	7068.42
450.28	7131.61
450.46	7272.04
450.65	7356.30
450.83	7143.32
451.02	7330.56
451.20	7407.80
451.39	7335.24
451.57	7379.71
451.76	7295.45
451.94	7431.20
452.13	7496.74
452.31	7375.03
452.49	7199.49
452.68	7559.93
452.86	7482.69
453.05	7543.55
453.23	7468.65
453.42	7583.34
453.60	7478.01
453.78	7555.25
453.97	7375.03
454.15	7559.93
454.34	7470.99
454.52	7779.94
454.70	7719.09
454.89	7662.91
455.07	7831.43
455.26	7915.69
455.44	7850.16
455.62	7847.82
455.81	7899.31
455.99	7971.86
456.17	7967.18
456.36	8128.68
456.54	8056.12
456.73	8325.29
456.91	8252.73
457.09	8236.35
457.28	8266.77
457.46	8301.88
457.64	8496.14
457.83	8318.26
458.01	8397.84
458.19	8437.63
458.38	8156.77
458.56	8456.36
458.74	8475.08
458.93	8470.40
459.11	8638.92
459.29	8435.29
459.48	8657.64
459.66	8578.06
459.84	8561.68
460.03	8830.84
460.21	8748.92
460.39	8425.93
460.57	8865.95
460.76	8887.01
460.94	8861.27
461.12	8992.34
461.31	8863.61
461.49	8634.24
461.67	8812.12
461.85	8894.04
462.04	8688.07
462.22	9301.29
462.40	9266.18
462.59	9149.15
462.77	9240.44
462.95	9116.39
463.13	9156.18
463.32	9284.91
463.50	9085.96
463.68	9228.73
463.86	9406.61
464.05	9153.84
464.23	9256.82
464.41	9385.55
464.59	9163.20
464.78	9408.95
464.96	9376.19
465.14	9334.06
465.32	9387.89
465.50	9516.62
465.69	9514.28
465.87	9444.06
466.05	9612.58
466.23	9542.36
466.41	9392.57
466.60	9872.38
466.78	9727.27
466.96	9518.96
467.14	9692.16
467.32	9675.77
467.51	9839.61
467.69	9551.73
467.87	9975.36
468.05	9813.87
468.23	9811.53
468.41	9813.87
468.60	9811.53
468.78	10090.05
468.96	9776.42
469.14	10057.28
469.32	10052.60
469.50	9884.08
469.69	10178.99
469.87	10221.12
470.05	10216.44
470.23	10263.25
470.41	10221.12
470.59	10347.51
470.77	10485.60
470.95	10272.61
471.14	10640.08
471.32	10413.04
471.50	10497.30
471.68	10485.60
471.86	10689.23
472.04	10445.81
472.22	11002.86
472.40	10684.55
472.58	10771.15
472.77	10939.66
472.95	11063.71
473.13	11358.62
473.31	10850.72
473.49	11084.78
473.67	10930.30
473.85	11089.46
474.03	11552.88
474.21	11417.13
474.39	11414.79
474.57	11405.43
474.75	11686.29
474.93	11609.06
475.12	11683.95
475.30	11667.57
475.48	11688.64
475.66	11646.51
475.84	11754.17
476.02	12170.79
476.20	11683.95
476.38	12252.70
476.56	12035.03
476.74	12383.77
476.92	12201.21
477.10	12156.74
477.28	12383.77
477.46	12571.02
477.64	12589.74
477.82	12657.62
478.00	13343.39
478.18	12826.14
478.36	13109.34
478.54	13413.61
478.72	13099.98
478.90	13415.95
479.08	13673.41
479.26	13645.32
479.44	13610.22
479.62	13731.92
479.80	13991.72
479.98	14008.11
480.16	14539.41
480.34	13987.04
480.52	14052.58
480.70	14539.41
480.88	14167.26
481.06	14368.55
481.24	14452.81
481.41	14895.17
481.59	14714.95
481.77	14906.87
481.95	15028.58
482.13	15068.37
482.31	15328.17
482.49	15648.82
482.67	15602.01
482.85	15662.86
483.03	15892.24
483.21	15871.17
483.39	16343.96
483.57	16004.58
483.74	16250.34
483.92	16292.47
484.10	16276.09
484.28	16514.82
484.46	16877.60
484.64	17259.11
484.82	16996.97
485.00	17228.68
485.18	17294.22
485.35	17797.43
485.53	17537.63
485.71	17785.73
485.89	17942.55
486.07	17858.29
486.25	18106.38
486.43	18295.97
486.61	18242.14
486.78	18787.48
486.96	18714.92
487.14	19021.53
487.32	18576.83
487.50	19080.05
487.68	19311.76
487.85	19768.16
488.03	19466.24
488.21	19894.55
488.39	19941.36
488.57	19894.55
488.75	20112.22
488.92	20280.74
489.10	20292.44
489.28	20526.50
489.46	20779.28
489.64	20449.26
489.81	21252.06
489.99	21184.19
490.17	21149.08
490.35	21460.37
490.53	21687.40
490.70	21891.03
490.88	21619.53
491.06	21872.31
491.24	21935.50
491.41	22125.08
491.59	22469.14
491.77	22829.59
491.95	22424.67
492.13	23042.57
492.30	22483.19
492.48	22871.72
492.66	22951.29
492.84	23054.28
493.01	23398.34
493.19	23555.15
493.37	23534.09
493.54	23648.77
493.72	23880.49
493.90	23957.72
494.08	24056.03
494.25	24474.98
494.43	24271.36
494.61	24545.20
494.79	24704.35
494.96	24896.28
495.14	24608.39
495.32	25453.33
495.49	25418.22
495.67	25352.68
495.85	25422.90
496.02	25106.93
496.20	25816.11
496.38	25846.54
496.55	26167.19
496.73	26553.38
496.91	26307.62
497.09	26492.52
497.26	26927.86
497.44	26345.07
497.62	26752.32
497.79	27215.75
497.97	26909.14
498.14	27728.33
498.32	27627.68
498.50	27676.83
498.67	27803.22
498.85	27330.44
499.03	28116.86
499.20	28039.62
499.38	28137.92
499.56	27747.05
499.73	28259.63
499.91	28460.91
500.08	28320.48
500.26	28379.00
500.44	28414.10
500.61	29228.61
500.79	28587.30
500.97	28788.59
501.14	29336.27
501.32	29394.79
501.49	29387.77
501.67	29638.20
501.84	29806.72
502.02	29771.61
502.20	29937.79
502.37	29745.87
502.55	29553.94
502.72	29830.13
502.90	30139.08
503.07	29820.77
503.25	30150.78
503.43	30384.83
503.60	30546.33
503.78	30705.49
503.95	30483.14
504.13	30445.69
504.30	30483.14
504.48	30775.70
504.65	31206.36
504.83	31075.29
505.01	31255.51
505.18	31304.67
505.36	31805.54
505.53	31466.16
505.71	31859.37
505.88	31796.18
506.06	31674.47
506.23	32580.26
506.41	31625.32
506.58	31936.61
506.76	32114.49
506.93	32395.35
507.11	32243.22
507.28	32414.08
507.46	32510.04
507.63	32776.86
507.81	32816.65
507.98	32439.82
508.16	32531.11
508.33	33024.96
508.50	33120.92
508.68	33364.34
508.85	33380.72
509.03	33237.95
509.20	33694.35
509.38	33198.16
509.55	33912.02
509.73	33858.19
509.90	34038.41
510.08	33963.51
510.25	34370.77
510.42	34176.50
510.60	34380.13
510.77	34258.42
510.95	34333.32
511.12	34382.47
511.30	34960.58
511.47	35442.73
511.64	34485.45
511.82	34979.31
511.99	34838.87
512.17	34941.86
512.34	35510.61
512.51	35681.47
512.69	35723.60
512.86	35732.96
513.04	35772.75
513.21	35885.09
513.38	35824.24
513.56	35967.01
513.73	36144.89
513.90	35945.95
514.08	36027.87
514.25	36238.51
514.43	36556.83
514.60	36514.70
514.77	36226.81
514.95	36514.70
515.12	36484.27
515.29	36336.82
515.47	36418.74
515.64	37188.77
515.81	37104.51
515.99	37209.84
516.16	36919.61
516.33	37064.72
516.51	37598.37
516.68	37195.79
516.85	37621.77
517.03	37706.03
517.20	37919.02
517.37	37631.13
517.54	37280.05
517.72	37935.40
517.89	37998.60
518.06	37986.89
518.24	38061.79
518.41	38150.73
518.58	38082.86
518.75	38286.48
518.93	38307.55
519.10	38398.83
519.27	38382.45
519.45	38227.97
519.62	38920.77
519.79	38618.84
519.96	38871.62
520.14	38951.20
520.31	38787.36
520.48	38866.94
520.65	39044.82
520.83	39000.35
521.00	39241.42
521.17	39470.79
521.34	39292.91
521.52	39611.23
521.69	39606.55
521.86	39725.91
522.03	39714.21
522.20	39849.96
522.38	40297.00
522.55	39936.56
522.72	40107.42
522.89	40032.52
523.07	40430.41
523.24	39945.92
523.41	40594.25
523.58	40086.36
523.75	40748.73
523.92	40858.73
524.10	40767.45
524.27	40858.73
524.44	40975.76
524.61	40701.92
524.78	40414.03
524.96	41048.32
525.13	40680.85
525.30	41301.09
525.47	41462.59
525.64	41340.88
525.81	41446.21
525.98	41385.35
526.16	41155.98
526.33	41331.52
526.50	41773.88
526.67	41581.96
526.84	41998.57
527.01	41841.76
527.18	42052.41
527.36	42099.22
527.53	41963.46
527.70	42375.40
527.87	42412.85
528.04	41977.51
528.21	42686.69
528.38	42529.87
528.55	42827.12
528.72	42483.06
528.89	42548.60
529.07	42445.62
529.24	43112.67
529.41	42916.06
529.58	42487.74
529.75	42731.16
529.92	43026.07
530.09	42918.40
530.26	42988.62
530.43	42759.25
530.60	42934.79
530.77	43033.09
530.94	43276.51
531.11	43185.22
531.28	43672.06
531.46	43302.25
531.63	43381.83
531.80	43304.59
531.97	43566.73
532.14	43658.01
532.31	43559.71
532.48	43824.19
532.65	43856.96
532.82	43768.02
532.99	43849.94
533.16	44189.31
533.33	44020.80
533.50	44318.04
533.67	44318.04
533.84	44289.96
534.01	44264.21
534.18	44507.63
534.35	44760.40
534.52	44526.35
534.69	44596.57
534.86	44875.09
535.03	44573.16
535.20	44650.40
535.37	44893.82
535.54	45270.64
535.71	44999.14
535.88	45006.16
536.05	45162.98
536.22	44933.60
536.38	45619.38
536.55	45357.24
536.72	45539.80
536.89	45069.36
537.06	45804.28
537.23	45811.31
537.40	45766.84
537.57	45319.79
537.74	45397.03
537.91	45598.32
538.08	45324.47
538.25	45471.93
538.42	45860.46
538.59	46300.48
538.75	45710.66
538.92	46234.94
539.09	46071.10
539.26	46181.11
539.43	45911.95
539.60	46012.59
539.77	46232.60
539.94	46829.44
540.11	46637.51
540.28	46703.05
540.44	46754.54
540.61	46806.03
540.78	46581.34
540.95	46665.60
541.12	46281.75
541.29	46983.91
541.46	47269.46
541.62	46946.47
541.79	47276.48
541.96	46899.65
542.13	47166.48
542.30	47295.21
542.47	47213.29
542.63	47407.55
542.80	47459.04
542.97	48191.63
543.14	47882.68
543.31	47859.27
543.48	47978.64
543.64	48392.92
543.81	47739.91
543.98	47709.48
544.15	47990.34
544.32	48238.44
544.48	48130.78
544.65	47927.15
544.82	48105.03
544.99	48226.74
545.16	48296.95
545.32	48411.64
545.49	48278.23
545.66	48994.43
545.83	48907.83
546.00	49216.78
546.16	48610.59
546.33	48748.68
546.50	48453.77
546.67	48542.71
546.83	48161.20
547.00	48769.74
547.17	48224.40
547.34	48418.66
547.50	48748.68
547.67	49294.02
547.84	48825.92
548.00	49399.35
548.17	48935.92
548.34	48793.15
548.51	48643.35
548.67	48746.34
548.84	49200.40
549.01	48870.39
549.18	49029.54
549.34	48762.72
549.51	49074.01
549.68	49256.57
549.84	49045.93
550.01	49455.52
550.18	48891.45
550.34	48685.48
550.51	49364.24
550.68	49291.68
550.84	48994.43
551.01	49663.83
551.18	49778.51
551.34	49279.98
551.51	49270.62
551.68	49734.04
551.84	49081.03
552.01	49127.84
552.18	49411.05
552.34	49560.84
552.51	49921.29
552.68	48980.39
552.84	49783.19
553.01	49750.43
553.18	49764.47
553.34	50089.80
553.51	49822.98
553.67	50096.83
553.84	50124.91
554.01	50005.55
554.17	50263.00
554.34	50375.35
554.51	50054.70
554.67	50307.47
554.84	49834.69
555.00	49499.99
555.17	50082.78
555.33	50178.75
555.50	49907.24
555.67	50272.37
555.83	50031.29
556.00	50396.42
556.16	50213.85
556.33	50511.10
556.50	50454.93
556.66	50160.02
556.83	50181.09
556.99	50333.22
557.16	50649.19
557.32	50822.39
557.49	50525.14
557.65	50380.03
557.82	50742.81
557.98	50815.37
558.15	50672.60
558.32	50806.01
558.48	50450.25
558.65	50787.28
558.81	50553.23
558.98	50553.23
559.14	50948.78
559.31	50824.73
559.47	50384.71
559.64	50562.59
559.80	50728.77
559.97	50649.19
560.13	50712.39
560.30	50672.60
560.46	50892.61
560.63	51086.87
560.79	50974.53
560.96	51199.22
561.12	50934.74
561.29	51320.93
561.45	50988.57
561.61	51014.32
561.78	51110.28
561.94	51377.10
562.11	51386.46
562.27	51440.29
562.44	51409.87
562.60	51138.36
562.77	51290.50
562.93	51199.22
563.10	51437.95
563.26	50911.33
563.42	51751.59
563.59	51236.67
563.75	51384.12
563.92	51583.07
564.08	51178.15
564.24	51419.23
564.41	51182.84
564.57	51178.15
564.74	51180.49
564.90	51690.73
565.07	51241.35
565.23	51346.67
565.39	51641.58
565.56	51625.20
565.72	51707.12
565.88	51686.05
566.05	51515.19
566.21	51515.19
566.38	51384.12
566.54	51569.02
566.70	51686.05
566.87	52060.54
567.03	51585.41
567.19	51859.25
567.36	52093.30
567.52	51566.68
567.68	51634.56
567.85	51903.72
568.01	51915.42
568.17	51721.16
568.34	52074.58
568.50	51812.44
568.66	52149.48
568.83	52299.27
568.99	52079.26
569.15	51889.68
569.32	51777.33
569.48	51618.17
569.64	51646.26
569.81	51863.93
569.97	51519.87
570.13	51880.31
570.30	51529.23
570.46	51938.83
570.62	51910.74
570.78	51667.33
570.95	51852.23
571.11	52179.90
571.27	51636.90
571.43	51760.95
571.60	51774.99
571.76	51976.28
571.92	52430.34
572.09	52193.95
572.25	52411.62
572.41	52095.64
572.57	52006.70
572.74	52219.69
572.90	51782.01
573.06	52182.24
573.22	52233.74
573.38	52137.77
573.55	52294.59
573.71	52327.36
573.87	52296.93
574.03	52100.32
574.20	51969.26
574.36	52198.63
574.52	52168.20
574.68	51924.78
574.84	52261.82
575.01	52317.99
575.17	52257.14
575.33	52060.54
575.49	51950.53
575.65	52399.91
575.82	52299.27
575.98	52161.18
576.14	52371.83
576.30	52245.44
576.46	52102.67
576.62	52189.27
576.79	52205.65
576.95	52032.45
577.11	52519.28
577.27	52191.61
577.43	52500.56
577.59	52165.86
577.75	52336.72
577.92	52172.88
578.08	52315.65
578.24	52442.04
578.40	52615.24
578.56	52411.62
578.72	52168.20
578.88	53137.18
579.04	52879.72
579.21	52355.44
579.37	52711.20
579.53	52570.77
579.69	52640.99
579.85	52418.64
580.01	52645.67
580.17	52257.14
580.33	52463.11
580.49	52584.82
580.65	52458.43
580.82	52615.24
580.98	52446.72
581.14	52615.24
581.30	52753.33
581.46	52624.60
581.62	52404.59
581.78	52172.88
581.94	52507.58
582.10	52388.21
582.26	52596.52
582.42	52516.94
582.58	52083.94
582.74	52439.70
582.90	52655.03
583.06	52215.01
583.22	52299.27
583.38	52282.89
583.54	52250.12
583.70	52299.27
583.86	52683.12
584.02	52355.44
584.18	52348.42
584.34	52622.26
584.50	52844.62
584.66	52540.35
584.82	52617.58
584.98	52423.32
585.14	52545.03
585.30	52577.79
585.46	52711.20
585.62	52575.45
585.78	52999.09
585.94	52509.92
586.10	52617.58
586.26	52926.53
586.42	52790.78
586.58	52708.86
586.74	52629.29
586.90	52446.72
587.06	52547.37
587.22	53139.52
587.38	52474.81
587.54	52949.94
587.70	53219.10
587.86	52825.89
588.02	53024.84
588.18	53144.20
588.34	53031.86
588.49	52818.87
588.65	52453.75
588.81	52535.66
