SpectraSuite Data File
++++++++++++++++++++++++++++++++++++
Date: Thu Oct 24 13:21:01 EDT 2013
User: stostad
Dark Spectrum Present: No
Reference Spectrum Present: No
Number of Sampled Component Spectra: 1
Spectrometers: USB2+H05261
Integration Time (usec): 100000 (USB2+H05261)
Spectra Averaged: 1 (USB2+H05261)
Boxcar Smoothing: 0 (USB2+H05261)
Correct for Electrical Dark: No (USB2+H05261)
Strobe/Lamp Enabled: No (USB2+H05261)
Correct for Detector Non-linearity: No (USB2+H05261)
Correct for Stray Light: No (USB2+H05261)
Number of Pixels in Processed Spectrum: 2048
>>>>>Begin Processed Spectral Data<<<<<
365.73	507.90
365.92	507.90
366.12	507.90
366.32	526.62
366.52	454.06
366.72	493.85
366.91	465.77
367.11	512.58
367.31	423.64
367.51	435.34
367.70	411.93
367.90	517.26
368.10	461.09
368.30	458.74
368.49	404.91
368.69	524.28
368.89	540.66
369.09	500.87
369.28	526.62
369.48	482.15
369.68	535.98
369.87	526.62
370.07	489.17
370.27	561.73
370.47	561.73
370.66	559.39
370.86	596.84
371.06	561.73
371.25	615.56
371.45	624.92
371.65	575.77
371.84	610.88
372.04	615.56
372.24	664.71
372.44	603.86
372.63	514.92
372.83	643.65
373.03	573.43
373.22	624.92
373.42	587.47
373.62	676.41
373.81	580.45
374.01	641.31
374.21	657.69
374.40	648.33
374.60	650.67
374.79	674.07
374.99	554.71
375.19	631.94
375.38	702.16
375.58	681.10
375.78	685.78
375.97	641.31
376.17	594.50
376.37	660.03
376.56	589.82
376.76	610.88
376.95	610.88
377.15	624.92
377.35	648.33
377.54	681.10
377.74	645.99
377.93	566.41
378.13	620.24
378.33	641.31
378.52	660.03
378.72	643.65
378.91	636.63
379.11	615.56
379.31	667.05
379.50	664.71
379.70	580.45
379.89	636.63
380.09	608.54
380.28	641.31
380.48	662.37
380.68	578.11
380.87	533.64
381.07	638.97
381.26	610.88
381.46	617.90
381.65	601.52
381.85	627.26
382.04	641.31
382.24	655.35
382.43	603.86
382.63	568.75
382.83	699.82
383.02	624.92
383.22	622.58
383.41	636.63
383.61	610.88
383.80	695.14
384.00	613.22
384.19	550.03
384.39	601.52
384.58	606.20
384.78	655.35
384.97	587.47
385.17	594.50
385.36	596.84
385.56	575.77
385.75	620.24
385.95	657.69
386.14	667.05
386.34	638.97
386.53	697.48
386.72	641.31
386.92	643.65
387.11	634.29
387.31	578.11
387.50	575.77
387.70	594.50
387.89	608.54
388.09	624.92
388.28	641.31
388.48	662.37
388.67	627.26
388.86	624.92
389.06	571.09
389.25	603.86
389.45	697.48
389.64	648.33
389.84	695.14
390.03	580.45
390.22	622.58
390.42	545.34
390.61	585.13
390.81	627.26
391.00	613.22
391.19	706.84
391.39	589.82
391.58	578.11
391.78	641.31
391.97	636.63
392.16	678.76
392.36	650.67
392.55	613.22
392.75	589.82
392.94	638.97
393.13	627.26
393.33	547.69
393.52	645.99
393.71	592.16
393.91	631.94
394.10	678.76
394.29	596.84
394.49	575.77
394.68	638.97
394.88	711.52
395.07	697.48
395.26	606.20
395.46	650.67
395.65	685.78
395.84	594.50
396.04	641.31
396.23	662.37
396.42	580.45
396.62	594.50
396.81	610.88
397.00	615.56
397.19	690.46
397.39	655.35
397.58	667.05
397.77	622.58
397.97	617.90
398.16	601.52
398.35	606.20
398.55	631.94
398.74	763.01
398.93	592.16
399.12	643.65
399.32	671.73
399.51	655.35
399.70	634.29
399.90	631.94
400.09	606.20
400.28	643.65
400.47	538.32
400.67	636.63
400.86	613.22
401.05	594.50
401.24	636.63
401.44	704.50
401.63	669.39
401.82	631.94
402.01	601.52
402.21	613.22
402.40	622.58
402.59	653.01
402.78	622.58
402.97	603.86
403.17	573.43
403.36	650.67
403.55	622.58
403.74	634.29
403.93	706.84
404.13	718.54
404.32	688.12
404.51	671.73
404.70	767.70
404.89	610.88
405.09	608.54
405.28	667.05
405.47	585.13
405.66	657.69
405.85	601.52
406.05	660.03
406.24	585.13
406.43	631.94
406.62	638.97
406.81	716.20
407.00	627.26
407.20	671.73
407.39	681.10
407.58	624.92
407.77	667.05
407.96	650.67
408.15	596.84
408.34	617.90
408.54	634.29
408.73	627.26
408.92	641.31
409.11	695.14
409.30	608.54
409.49	606.20
409.68	620.24
409.87	645.99
410.07	648.33
410.26	615.56
410.45	664.71
410.64	638.97
410.83	613.22
411.02	610.88
411.21	683.44
411.40	606.20
411.59	678.76
411.78	643.65
411.98	641.31
412.17	564.07
412.36	631.94
412.55	582.79
412.74	601.52
412.93	620.24
413.12	631.94
413.31	692.80
413.50	592.16
413.69	596.84
413.88	650.67
414.07	638.97
414.26	594.50
414.45	627.26
414.64	613.22
414.83	664.71
415.02	676.41
415.22	606.20
415.41	589.82
415.60	634.29
415.79	561.73
415.98	629.60
416.17	648.33
416.36	643.65
416.55	566.41
416.74	601.52
416.93	610.88
417.12	587.47
417.31	641.31
417.50	620.24
417.69	720.88
417.88	641.31
418.07	650.67
418.26	641.31
418.45	622.58
418.64	599.18
418.83	564.07
419.02	603.86
419.21	615.56
419.39	697.48
419.58	610.88
419.77	624.92
419.96	669.39
420.15	601.52
420.34	660.03
420.53	636.63
420.72	669.39
420.91	620.24
421.10	629.60
421.29	676.41
421.48	622.58
421.67	622.58
421.86	664.71
422.05	648.33
422.24	636.63
422.43	608.54
422.61	568.75
422.80	678.76
422.99	653.01
423.18	709.18
423.37	660.03
423.56	596.84
423.75	669.39
423.94	608.54
424.13	641.31
424.32	620.24
424.50	662.37
424.69	688.12
424.88	662.37
425.07	662.37
425.26	615.56
425.45	720.88
425.64	629.60
425.83	573.43
426.01	725.57
426.20	648.33
426.39	610.88
426.58	690.46
426.77	615.56
426.96	571.09
427.15	648.33
427.33	655.35
427.52	610.88
427.71	603.86
427.90	540.66
428.09	610.88
428.28	603.86
428.46	613.22
428.65	606.20
428.84	622.58
429.03	653.01
429.22	561.73
429.40	645.99
429.59	648.33
429.78	657.69
429.97	631.94
430.16	643.65
430.34	643.65
430.53	559.39
430.72	697.48
430.91	606.20
431.10	594.50
431.28	617.90
431.47	695.14
431.66	617.90
431.85	603.86
432.03	650.67
432.22	634.29
432.41	638.97
432.60	676.41
432.79	643.65
432.97	573.43
433.16	615.56
433.35	603.86
433.54	678.76
433.72	629.60
433.91	667.05
434.10	617.90
434.28	683.44
434.47	643.65
434.66	734.93
434.85	667.05
435.03	947.92
435.22	1022.81
435.41	1224.10
435.59	1086.01
435.78	889.40
435.97	933.87
436.16	830.89
436.34	669.39
436.53	667.05
436.72	629.60
436.90	624.92
437.09	578.11
437.28	674.07
437.46	638.97
437.65	704.50
437.84	627.26
438.02	667.05
438.21	669.39
438.40	634.29
438.58	566.41
438.77	660.03
438.96	643.65
439.14	648.33
439.33	702.16
439.52	704.50
439.70	645.99
439.89	650.67
440.08	678.76
440.26	650.67
440.45	655.35
440.63	608.54
440.82	594.50
441.01	643.65
441.19	662.37
441.38	638.97
441.57	617.90
441.75	615.56
441.94	603.86
442.12	613.22
442.31	627.26
442.50	650.67
442.68	669.39
442.87	587.47
443.05	655.35
443.24	622.58
443.43	660.03
443.61	725.57
443.80	643.65
443.98	617.90
444.17	660.03
444.35	627.26
444.54	601.52
444.73	608.54
444.91	685.78
445.10	711.52
445.28	664.71
445.47	636.63
445.65	718.54
445.84	643.65
446.02	648.33
446.21	613.22
446.39	631.94
446.58	669.39
446.77	650.67
446.95	585.13
447.14	589.82
447.32	603.86
447.51	629.60
447.69	603.86
447.88	620.24
448.06	674.07
448.25	711.52
448.43	657.69
448.62	589.82
448.80	578.11
448.99	650.67
449.17	608.54
449.36	660.03
449.54	681.10
449.73	664.71
449.91	664.71
450.10	631.94
450.28	634.29
450.46	716.20
450.65	653.01
450.83	704.50
451.02	688.12
451.20	645.99
451.39	678.76
451.57	592.16
451.76	608.54
451.94	599.18
452.13	636.63
452.31	655.35
452.49	629.60
452.68	653.01
452.86	676.41
453.05	711.52
453.23	575.77
453.42	613.22
453.60	664.71
453.78	643.65
453.97	655.35
454.15	573.43
454.34	615.56
454.52	608.54
454.70	596.84
454.89	657.69
455.07	615.56
455.26	580.45
455.44	706.84
455.62	737.27
455.81	594.50
455.99	645.99
456.17	699.82
456.36	643.65
456.54	608.54
456.73	653.01
456.91	638.97
457.09	711.52
457.28	631.94
457.46	655.35
457.64	662.37
457.83	580.45
458.01	685.78
458.19	636.63
458.38	660.03
458.56	688.12
458.74	587.47
458.93	667.05
459.11	624.92
459.29	596.84
459.48	706.84
459.66	692.80
459.84	697.48
460.03	730.25
460.21	690.46
460.39	706.84
460.57	730.25
460.76	706.84
460.94	627.26
461.12	660.03
461.31	667.05
461.49	660.03
461.67	596.84
461.85	643.65
462.04	613.22
462.22	936.21
462.40	671.73
462.59	620.24
462.77	664.71
462.95	634.29
463.13	627.26
463.32	732.59
463.50	571.09
463.68	662.37
463.86	594.50
464.05	660.03
464.23	720.88
464.41	671.73
464.59	674.07
464.78	608.54
464.96	681.10
465.14	704.50
465.32	631.94
465.50	657.69
465.69	674.07
465.87	589.82
466.05	664.71
466.23	582.79
466.41	620.24
466.60	629.60
466.78	690.46
466.96	688.12
467.14	645.99
467.32	648.33
467.51	603.86
467.69	657.69
467.87	650.67
468.05	599.18
468.23	622.58
468.41	610.88
468.60	620.24
468.78	587.47
468.96	592.16
469.14	575.77
469.32	641.31
469.50	622.58
469.69	594.50
469.87	664.71
470.05	676.41
470.23	662.37
470.41	657.69
470.59	627.26
470.77	629.60
470.95	648.33
471.14	676.41
471.32	645.99
471.50	643.65
471.68	650.67
471.86	582.79
472.04	674.07
472.22	676.41
472.40	615.56
472.58	617.90
472.77	610.88
472.95	678.76
473.13	697.48
473.31	634.29
473.49	662.37
473.67	617.90
473.85	615.56
474.03	603.86
474.21	608.54
474.39	683.44
474.57	636.63
474.75	617.90
474.93	643.65
475.12	662.37
475.30	662.37
475.48	653.01
475.66	617.90
475.84	610.88
476.02	606.20
476.20	648.33
476.38	678.76
476.56	718.54
476.74	650.67
476.92	624.92
477.10	699.82
477.28	704.50
477.46	662.37
477.64	683.44
477.82	648.33
478.00	655.35
478.18	631.94
478.36	645.99
478.54	610.88
478.72	653.01
478.90	601.52
479.08	695.14
479.26	629.60
479.44	629.60
479.62	641.31
479.80	681.10
479.98	617.90
480.16	622.58
480.34	601.52
480.52	674.07
480.70	667.05
480.88	615.56
481.06	664.71
481.24	613.22
481.41	692.80
481.59	716.20
481.77	580.45
481.95	641.31
482.13	709.18
482.31	610.88
482.49	655.35
482.67	725.57
482.85	725.57
483.03	667.05
483.21	653.01
483.39	688.12
483.57	641.31
483.74	713.86
483.92	690.46
484.10	655.35
484.28	678.76
484.46	734.93
484.64	674.07
484.82	702.16
485.00	662.37
485.18	732.59
485.35	723.23
485.53	734.93
485.71	760.67
485.89	697.48
486.07	709.18
486.25	692.80
486.43	627.26
486.61	802.80
486.78	713.86
486.96	676.41
487.14	711.52
487.32	732.59
487.50	704.50
487.68	713.86
487.85	723.23
488.03	671.73
488.21	770.04
488.39	709.18
488.57	741.95
488.75	655.35
488.92	779.40
489.10	688.12
489.28	746.63
489.46	650.67
489.64	697.48
489.81	664.71
489.99	711.52
490.17	732.59
490.35	692.80
490.53	709.18
490.70	692.80
490.88	669.39
491.06	737.27
491.24	676.41
491.41	730.25
491.59	758.33
491.77	660.03
491.95	730.25
492.13	676.41
492.30	617.90
492.48	692.80
492.66	650.67
492.84	713.86
493.01	746.63
493.19	662.37
493.37	704.50
493.54	744.29
493.72	709.18
493.90	667.05
494.08	709.18
494.25	671.73
494.43	732.59
494.61	662.37
494.79	702.16
494.96	624.92
495.14	725.57
495.32	699.82
495.49	678.76
495.67	650.67
495.85	734.93
496.02	631.94
496.20	702.16
496.38	678.76
496.55	690.46
496.73	685.78
496.91	636.63
497.09	617.90
497.26	695.14
497.44	685.78
497.62	676.41
497.79	716.20
497.97	671.73
498.14	678.76
498.32	753.65
498.50	627.26
498.67	629.60
498.85	643.65
499.03	660.03
499.20	699.82
499.38	685.78
499.56	681.10
499.73	657.69
499.91	692.80
500.08	702.16
500.26	676.41
500.44	610.88
500.61	631.94
500.79	671.73
500.97	664.71
501.14	685.78
501.32	718.54
501.49	671.73
501.67	676.41
501.84	697.48
502.02	657.69
502.20	725.57
502.37	681.10
502.55	589.82
502.72	650.67
502.90	685.78
503.07	716.20
503.25	702.16
503.43	653.01
503.60	657.69
503.78	669.39
503.95	660.03
504.13	690.46
504.30	631.94
504.48	718.54
504.65	674.07
504.83	615.56
505.01	676.41
505.18	617.90
505.36	671.73
505.53	685.78
505.71	622.58
505.88	641.31
506.06	685.78
506.23	606.20
506.41	599.18
506.58	664.71
506.76	645.99
506.93	613.22
507.11	734.93
507.28	662.37
507.46	624.92
507.63	674.07
507.81	617.90
507.98	601.52
508.16	664.71
508.33	713.86
508.50	631.94
508.68	615.56
508.85	608.54
509.03	594.50
509.20	648.33
509.38	716.20
509.55	674.07
509.73	692.80
509.90	683.44
510.08	645.99
510.25	634.29
510.42	582.79
510.60	674.07
510.77	636.63
510.95	617.90
511.12	634.29
511.30	634.29
511.47	653.01
511.64	662.37
511.82	594.50
511.99	601.52
512.17	685.78
512.34	634.29
512.51	634.29
512.69	641.31
512.86	599.18
513.04	629.60
513.21	643.65
513.38	669.39
513.56	601.52
513.73	540.66
513.90	624.92
514.08	636.63
514.25	613.22
514.43	615.56
514.60	645.99
514.77	636.63
514.95	615.56
515.12	692.80
515.29	683.44
515.47	655.35
515.64	634.29
515.81	622.58
515.99	627.26
516.16	648.33
516.33	617.90
516.51	678.76
516.68	653.01
516.85	627.26
517.03	713.86
517.20	638.97
517.37	662.37
517.54	603.86
517.72	669.39
517.89	678.76
518.06	667.05
518.24	620.24
518.41	645.99
518.58	631.94
518.75	585.13
518.93	671.73
519.10	669.39
519.27	678.76
519.45	730.25
519.62	674.07
519.79	669.39
519.96	709.18
520.14	601.52
520.31	624.92
520.48	655.35
520.65	699.82
520.83	645.99
521.00	592.16
521.17	681.10
521.34	601.52
521.52	636.63
521.69	662.37
521.86	629.60
522.03	629.60
522.20	641.31
522.38	575.77
522.55	648.33
522.72	676.41
522.89	718.54
523.07	650.67
523.24	706.84
523.41	669.39
523.58	653.01
523.75	613.22
523.92	592.16
524.10	610.88
524.27	709.18
524.44	653.01
524.61	716.20
524.78	578.11
524.96	720.88
525.13	667.05
525.30	718.54
525.47	681.10
525.64	638.97
525.81	596.84
525.98	638.97
526.16	706.84
526.33	655.35
526.50	678.76
526.67	636.63
526.84	664.71
527.01	631.94
527.18	615.56
527.36	699.82
527.53	566.41
527.70	688.12
527.87	690.46
528.04	711.52
528.21	664.71
528.38	641.31
528.55	748.97
528.72	657.69
528.89	650.67
529.07	667.05
529.24	610.88
529.41	678.76
529.58	655.35
529.75	669.39
529.92	634.29
530.09	727.91
530.26	690.46
530.43	620.24
530.60	589.82
530.77	615.56
530.94	657.69
531.11	711.52
531.28	636.63
531.46	624.92
531.63	699.82
531.80	643.65
531.97	634.29
532.14	648.33
532.31	678.76
532.48	589.82
532.65	713.86
532.82	653.01
532.99	664.71
533.16	685.78
533.33	706.84
533.50	688.12
533.67	765.36
533.84	730.25
534.01	739.61
534.18	603.86
534.35	720.88
534.52	695.14
534.69	620.24
534.86	669.39
535.03	690.46
535.20	697.48
535.37	648.33
535.54	664.71
535.71	634.29
535.88	671.73
536.05	650.67
536.22	678.76
536.38	681.10
536.55	758.33
536.72	650.67
536.89	678.76
537.06	678.76
537.23	704.50
537.40	711.52
537.57	720.88
537.74	807.48
537.91	802.80
538.08	800.46
538.25	753.65
538.42	669.39
538.59	788.76
538.75	814.51
538.92	770.04
539.09	835.57
539.26	739.61
539.43	786.42
539.60	812.17
539.77	851.96
539.94	812.17
540.11	912.81
540.28	952.60
540.44	990.05
540.61	959.62
540.78	1090.69
540.95	1116.44
541.12	1179.63
541.29	1111.75
541.46	1317.72
541.62	1308.36
541.79	1364.53
541.96	1261.55
542.13	1338.79
542.30	1303.68
542.47	1324.74
542.63	1294.32
542.80	1207.72
542.97	1263.89
543.14	1231.12
543.31	1235.80
543.48	1310.70
543.64	1287.29
543.81	1177.29
543.98	1259.21
544.15	1277.93
544.32	1256.87
544.48	1226.44
544.65	1224.10
544.82	1273.25
544.99	1224.10
545.16	1233.46
545.32	1273.25
545.49	1603.27
545.66	2001.16
545.83	2277.34
546.00	1942.64
546.16	1710.93
546.33	1504.96
546.50	1418.36
546.67	1277.93
546.83	1125.80
547.00	983.02
547.17	1064.94
547.34	1015.79
547.50	999.41
547.67	1027.50
547.84	933.87
548.00	950.26
548.17	917.49
548.34	931.53
548.51	971.32
548.67	915.15
548.84	924.51
549.01	964.30
549.18	880.04
549.34	844.93
549.51	877.70
549.68	828.55
549.84	840.25
550.01	760.67
550.18	903.45
550.34	828.55
550.51	821.53
550.68	868.34
550.84	807.48
551.01	753.65
551.18	800.46
551.34	840.25
551.51	816.85
551.68	720.88
551.84	802.80
552.01	767.70
552.18	779.40
552.34	732.59
552.51	697.48
552.68	833.23
552.84	765.36
553.01	727.91
553.18	716.20
553.34	725.57
553.51	758.33
553.67	758.33
553.84	830.89
554.01	699.82
554.17	723.23
554.34	746.63
554.51	676.41
554.67	685.78
554.84	704.50
555.00	727.91
555.17	706.84
555.33	678.76
555.50	688.12
555.67	737.27
555.83	678.76
556.00	643.65
556.16	692.80
556.33	671.73
556.50	615.56
556.66	674.07
556.83	653.01
556.99	657.69
557.16	683.44
557.32	676.41
557.49	624.92
557.65	657.69
557.82	681.10
557.98	730.25
558.15	664.71
558.32	690.46
558.48	587.47
558.65	669.39
558.81	704.50
558.98	732.59
559.14	643.65
559.31	711.52
559.47	709.18
559.64	699.82
559.80	678.76
559.97	660.03
560.13	695.14
560.30	667.05
560.46	606.20
560.63	692.80
560.79	580.45
560.96	648.33
561.12	669.39
561.29	704.50
561.45	634.29
561.61	580.45
561.78	718.54
561.94	615.56
562.11	655.35
562.27	688.12
562.44	613.22
562.60	610.88
562.77	734.93
562.93	669.39
563.10	568.75
563.26	699.82
563.42	662.37
563.59	610.88
563.75	653.01
563.92	669.39
564.08	660.03
564.24	601.52
564.41	676.41
564.57	615.56
564.74	660.03
564.90	641.31
565.07	678.76
565.23	685.78
565.39	662.37
565.56	676.41
565.72	585.13
565.88	711.52
566.05	653.01
566.21	636.63
566.38	650.67
566.54	641.31
566.70	531.30
566.87	599.18
567.03	641.31
567.19	662.37
567.36	620.24
567.52	678.76
567.68	592.16
567.85	678.76
568.01	571.09
568.17	641.31
568.34	643.65
568.50	681.10
568.66	603.86
568.83	723.23
568.99	692.80
569.15	660.03
569.32	704.50
569.48	669.39
569.64	578.11
569.81	622.58
569.97	674.07
570.13	620.24
570.30	617.90
570.46	643.65
570.62	653.01
570.78	660.03
570.95	634.29
571.11	662.37
571.27	660.03
571.43	634.29
571.60	664.71
571.76	648.33
571.92	627.26
572.09	657.69
572.25	566.41
572.41	641.31
572.57	690.46
572.74	699.82
572.90	674.07
573.06	697.48
573.22	716.20
573.38	657.69
573.55	620.24
573.71	718.54
573.87	713.86
574.03	674.07
574.20	669.39
574.36	690.46
574.52	678.76
574.68	709.18
574.84	709.18
575.01	568.75
575.17	638.97
575.33	681.10
575.49	692.80
575.65	662.37
575.82	638.97
575.98	657.69
576.14	678.76
576.30	688.12
576.46	840.25
576.62	884.72
576.79	936.21
576.95	901.11
577.11	767.70
577.27	737.27
577.43	748.97
577.59	706.84
577.75	734.93
577.92	725.57
578.08	664.71
578.24	667.05
578.40	758.33
578.56	840.25
578.72	830.89
578.88	985.37
579.04	891.74
579.21	800.46
579.37	819.19
579.53	805.14
579.69	805.14
579.85	779.40
580.01	802.80
580.17	718.54
580.33	760.67
580.49	702.16
580.65	730.25
580.82	753.65
580.98	725.57
581.14	692.80
581.30	772.38
581.46	765.36
581.62	777.06
581.78	746.63
581.94	795.78
582.10	748.97
582.26	774.72
582.42	763.01
582.58	821.53
582.74	779.40
582.90	781.74
583.06	763.01
583.22	779.40
583.38	830.89
583.54	716.20
583.70	812.17
583.86	688.12
584.02	809.83
584.18	807.48
584.34	713.86
584.50	809.83
584.66	828.55
584.82	779.40
584.98	849.61
585.14	774.72
585.30	786.42
585.46	777.06
585.62	779.40
585.78	774.72
585.94	763.01
586.10	723.23
586.26	732.59
586.42	800.46
586.58	788.76
586.74	908.13
586.90	884.72
587.06	894.08
587.22	971.32
587.38	866.00
587.54	891.74
587.70	912.81
587.86	856.64
588.02	791.10
588.18	791.10
588.34	767.70
588.49	821.53
588.65	767.70
588.81	734.93
588.97	765.36
589.13	737.27
589.29	779.40
589.45	674.07
589.61	690.46
589.77	753.65
589.93	734.93
590.08	779.40
590.24	718.54
590.40	711.52
590.56	774.72
590.72	821.53
590.88	718.54
591.04	781.74
591.20	678.76
591.35	720.88
591.51	770.04
591.67	767.70
591.83	767.70
591.99	758.33
592.15	800.46
592.31	788.76
592.46	812.17
592.62	819.19
592.78	863.66
592.94	755.99
593.10	816.85
593.26	868.34
593.41	791.10
593.57	795.78
593.73	772.38
593.89	784.08
594.05	751.31
594.20	753.65
594.36	718.54
594.52	723.23
594.68	683.44
594.84	716.20
594.99	706.84
595.15	718.54
595.31	711.52
595.47	737.27
595.62	671.73
595.78	648.33
595.94	667.05
596.10	734.93
596.25	667.05
596.41	730.25
596.57	683.44
596.73	674.07
596.88	655.35
597.04	676.41
597.20	660.03
597.36	662.37
597.51	716.20
597.67	716.20
597.83	730.25
597.99	704.50
598.14	725.57
598.30	734.93
598.46	744.29
598.61	763.01
598.77	751.31
598.93	718.54
599.09	685.78
599.24	699.82
599.40	802.80
599.56	739.61
599.71	786.42
599.87	730.25
600.03	739.61
600.18	727.91
600.34	730.25
600.50	734.93
600.65	716.20
600.81	723.23
600.97	765.36
601.12	704.50
601.28	706.84
601.44	744.29
601.59	713.86
601.75	671.73
601.91	655.35
602.06	734.93
602.22	765.36
602.37	704.50
602.53	688.12
602.69	636.63
602.84	692.80
603.00	674.07
603.16	613.22
603.31	758.33
603.47	657.69
603.62	638.97
603.78	718.54
603.94	702.16
604.09	669.39
604.25	730.25
604.40	711.52
604.56	676.41
604.71	697.48
604.87	620.24
605.03	692.80
605.18	669.39
605.34	655.35
605.49	706.84
605.65	660.03
605.80	725.57
605.96	657.69
606.12	725.57
606.27	753.65
606.43	676.41
606.58	688.12
606.74	667.05
606.89	662.37
607.05	805.14
607.20	744.29
607.36	732.59
607.51	730.25
607.67	748.97
607.82	765.36
607.98	725.57
608.13	737.27
608.29	746.63
608.44	786.42
608.60	697.48
608.75	842.59
608.91	805.14
609.06	833.23
609.22	823.87
609.37	891.74
609.53	866.00
609.68	1013.45
