SpectraSuite Data File
++++++++++++++++++++++++++++++++++++
Date: Thu Oct 24 13:21:20 EDT 2013
User: stostad
Dark Spectrum Present: No
Reference Spectrum Present: No
Number of Sampled Component Spectra: 1
Spectrometers: USB2+H05261
Integration Time (usec): 100000 (USB2+H05261)
Spectra Averaged: 1 (USB2+H05261)
Boxcar Smoothing: 0 (USB2+H05261)
Correct for Electrical Dark: No (USB2+H05261)
Strobe/Lamp Enabled: No (USB2+H05261)
Correct for Detector Non-linearity: No (USB2+H05261)
Correct for Stray Light: No (USB2+H05261)
Number of Pixels in Processed Spectrum: 2048
>>>>>Begin Processed Spectral Data<<<<<
365.73	564.07
365.92	564.07
366.12	564.07
366.32	512.58
366.52	484.49
366.72	550.03
366.91	430.66
367.11	437.68
367.31	454.06
367.51	545.34
367.70	528.96
367.90	463.43
368.10	442.36
368.30	477.47
368.49	430.66
368.69	493.85
368.89	442.36
369.09	538.32
369.28	547.69
369.48	451.72
369.68	440.02
369.87	498.53
370.07	521.94
370.27	503.22
370.47	638.97
370.66	830.89
370.86	873.02
371.06	833.23
371.25	905.79
371.45	873.02
371.65	933.87
371.84	903.45
372.04	994.73
372.24	947.92
372.44	898.77
372.63	919.83
372.83	997.07
373.03	875.36
373.22	964.30
373.42	922.17
373.62	973.66
373.81	1018.13
374.01	959.62
374.21	997.07
374.40	1053.24
374.60	994.73
374.79	954.94
374.99	936.21
375.19	961.96
375.38	1100.05
375.58	1048.56
375.78	1022.81
375.97	1071.97
376.17	1090.69
376.37	994.73
376.56	1027.50
376.76	1118.78
376.95	1086.01
377.15	1020.47
377.35	1004.09
377.54	1043.88
377.74	1104.73
377.93	1043.88
378.13	1062.60
378.33	1107.07
378.52	1090.69
378.72	1083.67
378.91	1062.60
379.11	1060.26
379.31	1137.50
379.50	1137.50
379.70	1076.65
379.89	1179.63
380.09	1160.91
380.28	1128.14
380.48	1095.37
380.68	1090.69
380.87	1125.80
381.07	1158.57
381.26	1144.52
381.46	1071.97
381.65	1158.57
381.85	1137.50
382.04	1107.07
382.24	1158.57
382.43	1158.57
382.63	1221.76
382.83	1301.34
383.02	1217.08
383.22	1193.67
383.41	1163.25
383.61	1238.14
383.80	1219.42
384.00	1128.14
384.19	1261.55
384.39	1261.55
384.58	1268.57
384.78	1284.95
384.97	1219.42
385.17	1210.06
385.36	1291.98
385.56	1343.47
385.75	1210.06
385.95	1259.21
386.14	1263.89
386.34	1249.85
386.53	1287.29
386.72	1291.98
386.92	1296.66
387.11	1217.08
387.31	1334.11
387.50	1322.40
387.70	1310.70
387.89	1364.53
388.09	1329.42
388.28	1409.00
388.48	1322.40
388.67	1423.05
388.86	1411.34
389.06	1418.36
389.25	1364.53
389.45	1324.74
389.64	1430.07
389.84	1434.75
390.03	1373.89
390.22	1420.71
390.42	1439.43
390.61	1423.05
390.81	1418.36
391.00	1420.71
391.19	1409.00
391.39	1497.94
391.58	1502.62
391.78	1469.86
391.97	1514.33
392.16	1551.78
392.36	1554.12
392.55	1572.84
392.75	1537.73
392.94	1441.77
393.13	1542.41
393.33	1577.52
393.52	1490.92
393.71	1483.90
393.91	1511.99
394.10	1521.35
394.29	1579.86
394.49	1530.71
394.68	1586.88
394.88	1537.73
395.07	1701.57
395.26	1603.27
395.46	1685.19
395.65	1633.69
395.84	1713.27
396.04	1713.27
396.23	1661.78
396.42	1603.27
396.62	1755.40
396.81	1542.41
397.00	1643.06
397.19	1652.42
397.39	1652.42
397.58	1795.19
397.77	1636.03
397.97	1785.83
398.16	1654.76
398.35	1806.89
398.55	1825.62
398.74	1827.96
398.93	1867.75
399.12	1825.62
399.32	1813.92
399.51	1860.73
399.70	1767.10
399.90	1778.81
400.09	1888.81
400.28	1961.37
400.47	1837.32
400.67	1935.62
400.86	1902.86
401.05	1891.15
401.24	1907.54
401.44	1909.88
401.63	2005.84
401.82	1994.14
402.01	2019.88
402.21	2003.50
402.40	1914.56
402.59	1966.05
402.78	1980.09
402.97	2019.88
403.17	2047.97
403.36	2001.16
403.55	2246.91
403.74	2092.44
403.93	2104.14
404.13	2134.57
404.32	2200.10
404.51	2284.36
404.70	2244.57
404.89	2139.25
405.09	2300.75
405.28	2253.94
405.47	2277.34
405.66	2321.81
405.85	2239.89
406.05	2333.51
406.24	2345.22
406.43	2314.79
406.62	2366.28
406.81	2300.75
407.00	2331.17
407.20	2443.52
407.39	2300.75
407.58	2326.49
407.77	2361.60
407.96	2427.14
408.15	2471.61
408.34	2401.39
408.54	2513.74
408.73	2417.77
408.92	2427.14
409.11	2565.23
409.30	2562.89
409.49	2555.86
409.68	2593.31
409.87	2698.64
410.07	2668.21
410.26	2780.56
410.45	2682.25
410.64	2715.02
410.83	2705.66
411.02	2731.41
411.21	2766.51
411.40	2724.38
411.59	2860.13
411.78	2789.92
411.98	2813.32
412.17	2820.35
412.36	2871.84
412.55	2916.31
412.74	3117.59
412.93	2925.67
413.12	2988.86
413.31	3091.85
413.50	2965.46
413.69	3094.19
413.88	3112.91
414.07	3103.55
414.26	3094.19
414.45	3222.92
414.64	3157.38
414.83	3251.00
415.02	3176.11
415.22	3286.11
415.41	3307.18
415.60	3349.31
415.79	3246.32
415.98	3356.33
416.17	3316.54
416.36	3330.58
416.55	3339.94
416.74	3510.80
416.93	3393.78
417.12	3485.06
417.31	3515.48
417.50	3524.85
417.69	3583.36
417.88	3569.32
418.07	3637.19
418.26	3611.45
418.45	3562.30
418.64	3651.24
418.83	3751.88
419.02	3812.73
419.21	3922.74
419.39	3801.03
419.58	3882.95
419.77	3719.11
419.96	3829.12
420.15	3801.03
420.34	3817.41
420.53	3868.91
420.72	3941.46
420.91	3922.74
421.10	3995.29
421.29	4009.34
421.48	3964.87
421.67	3988.27
421.86	4042.11
422.05	4037.42
422.24	4077.21
422.43	4079.55
422.61	4074.87
422.80	4145.09
422.99	4011.68
423.18	4095.94
423.37	4243.39
423.56	4145.09
423.75	3957.85
423.94	4044.45
424.13	3878.27
424.32	4049.13
424.50	4229.35
424.69	4053.81
424.88	4124.02
425.07	4166.15
425.26	4140.41
425.45	4021.04
425.64	4065.51
425.83	4203.60
426.01	4196.58
426.20	4194.24
426.39	4159.13
426.58	4109.98
426.77	4145.09
426.96	4318.29
427.15	4264.46
427.33	4287.86
427.52	4278.50
427.71	4341.69
427.90	4383.82
428.09	4217.65
428.28	4339.35
428.46	4322.97
428.65	4425.95
428.84	4463.40
429.03	4547.66
429.22	4390.84
429.40	4624.90
429.59	4456.38
429.78	4533.62
429.97	4388.50
430.16	4629.58
430.34	4641.28
430.53	4620.22
430.72	4737.24
430.91	4606.17
431.10	4755.97
431.28	4746.61
431.47	4716.18
431.66	4847.25
431.85	4887.04
432.03	4779.37
432.22	5053.22
432.41	4730.22
432.60	4746.61
432.79	4922.15
432.97	4865.97
433.16	4964.28
433.35	4964.28
433.54	4947.89
433.72	4882.36
433.91	4816.82
434.10	5043.85
434.28	4954.91
434.47	5018.11
434.66	5062.58
434.85	5205.35
435.03	5151.52
435.22	5226.42
435.41	5343.44
435.59	5411.32
435.78	5528.35
435.97	5378.55
436.16	5151.52
436.34	5383.23
436.53	5210.03
436.72	5366.85
436.90	5235.78
437.09	5334.08
437.28	5282.59
437.46	5289.61
437.65	5432.38
437.84	5439.40
438.02	5437.06
438.21	5600.90
438.40	5486.22
438.58	5605.58
438.77	5675.80
438.96	5479.19
439.14	5666.44
439.33	5811.55
439.52	5708.57
439.70	5750.70
439.89	5966.03
440.08	5977.73
440.26	5933.26
440.45	5753.04
440.63	5872.40
440.82	6094.76
441.01	6001.13
441.19	6050.28
441.38	6022.20
441.57	6106.46
441.75	6354.55
441.94	6462.22
442.12	6377.96
442.31	6464.56
442.50	6443.49
442.68	6272.64
442.87	6403.71
443.05	6305.40
443.24	6483.28
443.43	6637.76
443.61	6609.67
443.80	6764.15
443.98	6511.37
444.17	6251.57
444.35	6597.97
444.54	6523.07
444.73	6614.35
444.91	6654.14
445.10	6581.59
445.28	6684.57
445.47	6820.32
445.65	6768.83
445.84	6747.76
446.02	6862.45
446.21	6516.05
446.39	6717.34
446.58	6731.38
446.77	6623.72
446.95	6602.65
447.14	6647.12
447.32	6848.41
447.51	6719.68
447.69	6773.51
447.88	6661.16
448.06	6813.30
448.25	6930.33
448.43	6637.76
448.62	6724.36
448.80	6862.45
448.99	6789.89
449.17	6918.62
449.36	6787.55
449.54	7047.35
449.73	7059.06
449.91	7148.00
450.10	7028.63
450.28	7063.74
450.46	7215.87
450.65	7157.36
450.83	7269.70
451.02	7356.30
451.20	7358.64
451.39	7293.11
451.57	7229.91
451.76	7339.92
451.94	7115.23
452.13	7461.63
452.31	7272.04
452.49	7213.53
452.68	7456.95
452.86	7382.05
453.05	7351.62
453.23	7480.35
453.42	7232.26
453.60	7379.71
453.78	7424.18
453.97	7618.44
454.15	7461.63
454.34	7360.98
454.52	7595.04
454.70	7637.17
454.89	7545.89
455.07	7721.43
455.26	7536.52
455.44	7885.26
455.62	8006.97
455.81	7758.88
455.99	7761.22
456.17	7770.58
456.36	7885.26
456.54	8063.15
456.73	7918.03
456.91	8121.66
457.09	8135.70
457.28	8217.62
457.46	8201.24
457.64	8149.75
457.83	8173.15
458.01	8023.36
458.19	8320.60
458.38	8311.24
458.56	8299.54
458.74	8451.67
458.93	8404.86
459.11	8421.25
459.29	8540.61
459.48	8432.95
459.66	8395.50
459.84	8589.77
460.03	8589.77
460.21	8730.20
460.39	8533.59
460.57	8669.34
460.76	8650.62
460.94	8847.22
461.12	8898.72
461.31	8685.73
461.49	8739.56
461.67	8791.05
461.85	9004.04
462.04	8870.63
462.22	9284.91
462.40	9128.09
462.59	8844.88
462.77	9107.02
462.95	8954.89
463.13	9032.13
463.32	9043.83
463.50	9266.18
463.68	9013.40
463.86	9142.13
464.05	9046.17
464.23	9123.41
464.41	9151.49
464.59	9118.73
464.78	9327.03
464.96	9455.76
465.14	9357.46
465.32	9338.74
465.50	9273.20
465.69	9528.32
465.87	9408.95
466.05	9273.20
466.23	9380.87
466.41	9320.01
466.60	9411.29
466.78	9645.35
466.96	9425.34
467.14	9694.50
467.32	9596.20
467.51	9689.82
467.69	9511.94
467.87	9584.49
468.05	9650.03
468.23	9696.84
468.41	9525.98
468.60	9607.90
468.78	9806.84
468.96	9738.97
469.14	9837.27
469.32	10001.11
469.50	9701.52
469.69	9984.73
469.87	9916.85
470.05	10026.86
470.23	10157.92
470.41	10087.71
470.59	10150.90
470.77	10120.48
470.95	10216.44
471.14	10406.02
471.32	10127.50
471.50	10445.81
471.68	10193.03
471.86	10686.89
472.04	10569.86
472.22	10731.36
472.40	10656.46
472.58	10665.82
472.77	10864.77
472.95	10937.32
473.13	10902.22
473.31	10689.23
473.49	10895.19
473.67	11012.22
473.85	10986.47
474.03	11297.77
474.21	11197.12
474.39	11248.61
474.57	11115.20
474.75	11328.19
474.93	11461.60
475.12	11466.28
475.30	11845.45
475.48	11665.23
475.66	11644.17
475.84	11454.58
476.02	12058.44
476.20	11861.84
476.38	11960.14
476.56	12217.60
476.74	12123.98
476.92	12039.72
477.10	12079.50
477.28	12486.76
477.46	12418.88
477.64	12458.67
477.82	12444.63
478.00	13004.02
478.18	12809.75
478.36	13121.04
478.54	13083.59
478.72	12985.29
478.90	13186.58
479.08	13472.12
479.26	13401.91
479.44	13511.91
479.62	13610.22
479.80	13668.73
479.98	13853.63
480.16	14104.07
480.34	13912.14
480.52	14029.17
480.70	14279.61
480.88	14190.67
481.06	14384.93
481.24	14368.55
481.41	14593.24
481.59	14677.50
481.77	14904.53
481.95	14904.53
482.13	15061.35
482.31	15101.14
482.49	15279.02
482.67	15410.09
482.85	15573.92
483.03	15667.55
483.21	15740.10
483.39	16184.80
483.57	16100.55
483.74	16009.26
483.92	16255.02
484.10	15735.42
484.28	16477.37
484.46	16730.15
484.64	16751.21
484.82	16634.19
485.00	17137.40
485.18	17399.54
485.35	17511.89
485.53	17174.85
485.71	17317.62
485.89	17743.60
486.07	17261.45
486.25	17792.75
486.43	17888.71
486.61	17989.36
486.78	18298.31
486.96	18340.44
487.14	18721.95
487.32	18782.80
487.50	18881.10
487.68	18817.91
487.85	18953.66
488.03	19470.92
488.21	19325.80
488.39	19438.15
488.57	19573.90
488.75	19812.63
488.92	19934.34
489.10	20262.02
489.28	20484.37
489.46	20627.14
489.64	20395.43
489.81	20980.56
489.99	20638.84
490.17	21085.89
490.35	20947.79
490.53	21174.83
490.70	21476.76
490.88	21317.60
491.06	21539.95
491.24	21661.66
491.41	21813.79
491.59	21949.54
491.77	22148.49
491.95	22338.07
492.13	22284.24
492.30	22504.25
492.48	22782.77
492.66	22473.82
492.84	22895.12
493.01	22897.46
493.19	23040.23
493.37	23590.26
493.54	23215.77
493.72	23304.71
493.90	23461.53
494.08	23950.70
494.25	23906.23
494.43	24095.82
494.61	24238.59
494.79	24521.79
494.96	24098.16
495.14	24732.44
495.32	24964.15
495.49	24842.45
495.67	24805.00
495.85	25092.88
496.02	24865.85
496.20	25486.09
496.38	25825.47
496.55	25469.71
496.73	26061.87
496.91	26134.42
497.09	26082.93
497.26	26223.36
497.44	26319.32
497.62	26230.38
497.79	26567.42
497.97	26787.43
498.14	26757.00
498.32	26986.38
498.50	27269.58
498.67	27449.80
498.85	27271.92
499.03	27611.30
499.20	27438.10
499.38	27796.20
499.56	27587.89
499.73	27920.25
499.91	28257.29
500.08	27927.27
500.26	28046.64
500.44	28259.63
500.61	28252.61
500.79	28650.50
500.97	28540.49
501.14	29015.62
501.32	28919.66
501.49	28556.88
501.67	28746.46
501.84	29247.33
502.02	29113.92
502.20	29413.51
502.37	29369.04
502.55	29390.11
502.72	29589.05
502.90	29420.53
503.07	29521.18
503.25	29867.58
503.43	29507.13
503.60	29984.60
503.78	29764.59
503.95	29926.09
504.13	29989.28
504.30	30316.96
504.48	30593.14
504.65	30515.90
504.83	31007.42
505.01	30843.58
505.18	30881.03
505.36	31297.64
505.53	30780.39
505.71	30773.36
505.88	31187.64
506.06	31054.23
506.23	31709.58
506.41	31494.25
506.58	31702.56
506.76	31534.04
506.93	31491.91
507.11	31751.71
507.28	32025.55
507.46	32191.73
507.63	32554.51
507.81	32093.43
507.98	31742.35
508.16	32481.95
508.33	32493.66
508.50	32659.84
508.68	32917.29
508.85	33153.69
509.03	32645.79
509.20	32861.12
509.38	32975.81
509.55	32954.74
509.73	33607.75
509.90	33825.42
510.08	33837.12
510.25	33787.97
510.42	33883.94
510.60	34089.90
510.77	34087.56
510.95	33979.90
511.12	34094.58
511.30	34436.30
511.47	34600.14
511.64	34513.54
511.82	34590.78
511.99	34391.83
512.17	34642.27
512.34	35040.16
512.51	35065.91
512.69	34974.63
512.86	34831.85
513.04	34843.56
513.21	35290.60
513.38	35260.17
513.56	35138.46
513.73	35152.51
513.90	35662.74
514.08	35248.47
514.25	35807.86
514.43	35838.28
514.60	36126.17
514.77	35735.30
514.95	35559.76
515.12	36130.85
515.29	35543.38
515.47	36755.77
515.64	36484.27
515.81	36531.08
515.99	36275.96
516.16	36371.92
516.33	36524.06
516.51	36886.84
516.68	37038.98
516.85	36425.76
517.03	37256.65
517.20	37270.69
517.37	36772.16
517.54	37261.33
517.72	37132.60
517.89	37404.10
518.06	37333.89
518.24	37277.71
518.41	37422.83
518.58	37436.87
518.75	37759.86
518.93	37970.51
519.10	37563.26
519.27	38546.28
519.45	37689.65
519.62	38354.36
519.79	38382.45
519.96	38354.36
520.14	38518.20
520.31	38022.00
520.48	38424.57
520.65	38391.81
520.83	38925.45
521.00	38658.63
521.17	38857.57
521.34	38665.65
521.52	38998.01
521.69	38902.04
521.86	39363.13
522.03	38700.76
522.20	39292.91
522.38	39587.82
522.55	39615.91
522.72	39681.44
522.89	39346.75
523.07	39849.96
523.24	39641.65
523.41	40196.36
523.58	39864.00
523.75	40151.89
523.92	40435.10
524.10	40292.32
524.27	40311.05
524.44	40341.47
524.61	39976.35
524.78	40676.17
524.96	40517.01
525.13	40554.46
525.30	40840.01
525.47	40971.08
525.64	41137.26
525.81	41235.56
525.98	40814.26
526.16	40760.43
526.33	40828.30
526.50	41053.00
526.67	41017.89
526.84	41434.50
527.01	41724.73
527.18	41565.57
527.36	41457.91
527.53	41308.11
527.70	42162.41
527.87	41780.90
528.04	41469.61
528.21	42237.31
528.38	41837.08
528.55	42082.83
528.72	41794.95
528.89	41860.48
529.07	41734.09
529.24	41600.68
529.41	42471.36
529.58	42150.71
529.75	42216.24
529.92	42101.56
530.09	42490.09
530.26	42403.49
530.43	42225.60
530.60	42450.30
530.77	42691.37
530.94	42656.26
531.11	43222.67
531.28	42937.13
531.46	42953.51
531.63	42932.45
531.80	43047.13
531.97	43306.93
532.14	43260.12
532.31	42707.76
532.48	43175.86
532.65	43367.79
532.82	43196.93
532.99	43386.51
533.16	43409.92
533.33	43143.09
533.50	43761.00
533.67	43398.21
533.84	43571.41
534.01	43475.45
534.18	43913.13
534.35	44601.25
534.52	43910.79
534.69	43938.88
534.86	43777.38
535.03	43693.12
535.20	43938.88
535.37	43976.33
535.54	44521.67
535.71	44245.49
535.88	45022.54
536.05	44531.03
536.22	44603.59
536.38	44285.28
536.55	44849.35
536.72	44959.35
536.89	44781.47
537.06	44989.78
537.23	45256.60
537.40	44683.17
537.57	44772.11
537.74	45118.51
537.91	45633.42
538.08	44814.24
538.25	45078.72
538.42	45240.21
538.59	45504.70
538.75	45109.14
538.92	45488.31
539.09	45502.35
539.26	45357.24
539.43	44797.85
539.60	45553.85
539.77	45574.91
539.94	45996.21
540.11	45949.40
540.28	45647.47
540.44	46323.88
540.61	45904.93
540.78	46237.28
540.95	46279.41
541.12	46363.67
541.29	46232.60
541.46	46202.18
541.62	46752.20
541.79	46747.52
541.96	46349.63
542.13	46480.70
542.30	46593.04
542.47	46347.29
542.63	46672.62
542.80	46686.67
542.97	47241.37
543.14	47051.79
543.31	47501.17
543.48	47274.14
543.64	47587.77
543.81	47220.31
543.98	47489.47
544.15	47154.77
544.32	47122.01
544.48	47751.61
544.65	47627.56
544.82	47494.15
544.99	47306.91
545.16	47639.26
545.32	47580.75
545.49	48060.56
545.66	47927.15
545.83	48226.74
546.00	48542.71
546.16	48224.40
546.33	48193.97
546.50	47721.18
546.67	47653.31
546.83	47372.44
547.00	47826.51
547.17	47599.47
547.34	47767.99
547.50	48170.57
547.67	48596.54
547.84	48182.27
548.00	48626.97
548.17	48449.09
548.34	48076.94
548.51	47962.26
548.67	48760.38
548.84	48369.51
549.01	48137.80
549.18	48472.49
549.34	48582.50
549.51	48701.87
549.68	48617.61
549.84	48556.75
550.01	48519.31
550.18	48722.93
550.34	48318.02
550.51	48266.53
550.68	48425.68
550.84	48804.85
551.01	48809.53
551.18	48346.11
551.34	48823.58
551.51	48535.69
551.68	48690.16
551.84	48996.77
552.01	48964.01
552.18	48816.55
552.34	48912.52
552.51	49336.15
552.68	48879.75
552.84	49408.71
553.01	49567.87
553.18	49179.34
553.34	49478.92
553.51	48877.41
553.67	49394.67
553.84	49336.15
554.01	49659.15
554.17	49453.18
554.34	49694.25
554.51	49368.92
554.67	49722.34
554.84	49631.06
555.00	49144.23
555.17	48900.81
555.33	49488.29
555.50	49621.70
555.67	49736.38
555.83	49848.73
556.00	49614.68
556.16	50206.83
556.33	49900.22
556.50	49574.89
556.66	49909.58
556.83	49551.48
556.99	50122.57
557.16	49951.71
557.32	50337.90
557.49	49947.03
557.65	49949.37
557.82	50099.17
557.98	50153.00
558.15	50078.10
558.32	50099.17
558.48	49687.23
558.65	50092.15
558.81	50113.21
558.98	50042.99
559.14	50614.08
559.31	50225.56
559.47	50461.95
559.64	50445.57
559.80	50199.81
559.97	50567.27
560.13	49886.18
560.30	50410.46
560.46	50349.60
560.63	50789.62
560.79	50838.78
560.96	50932.40
561.12	50597.70
561.29	50520.46
561.45	50255.98
561.61	50497.06
561.78	50167.04
561.94	50932.40
562.11	50576.64
562.27	50946.44
562.44	50471.31
562.60	50646.85
562.77	50829.41
562.93	50370.67
563.10	50951.12
563.26	50525.14
563.42	51044.74
563.59	50651.53
563.75	50646.85
563.92	51222.62
564.08	50789.62
564.24	50656.21
564.41	50656.21
564.57	50808.35
564.74	50738.13
564.90	50780.26
565.07	51208.58
565.23	50930.06
565.39	51112.62
565.56	51356.03
565.72	50571.96
565.88	51353.69
566.05	51093.89
566.21	50728.77
566.38	50590.68
566.54	50916.01
566.70	51068.15
566.87	51274.12
567.03	51014.32
567.19	51688.39
567.36	51320.93
567.52	50913.67
567.68	51136.02
567.85	50923.04
568.01	51381.78
568.17	51103.26
568.34	51239.01
568.50	51201.56
568.66	51356.03
568.83	51217.94
568.99	51456.68
569.15	51002.61
569.32	50890.27
569.48	51246.03
569.64	51236.67
569.81	51250.71
569.97	51248.37
570.13	51372.42
570.30	51327.95
570.46	51203.90
570.62	51437.95
570.78	51402.85
570.95	51152.41
571.11	51798.40
571.27	51349.01
571.43	51248.37
571.60	51667.33
571.76	50969.85
571.92	51456.68
572.09	51716.48
572.25	51770.31
572.41	51870.95
572.57	51573.70
572.74	51669.67
572.90	51269.43
573.06	51625.20
573.22	51456.68
573.38	51716.48
573.55	51480.08
573.71	51739.88
573.87	51505.83
574.03	51657.96
574.20	51648.60
574.36	51611.15
574.52	51306.88
574.68	51590.09
574.84	51779.67
575.01	51971.60
575.17	51772.65
575.33	51725.84
575.49	51487.10
575.65	51725.84
575.82	51929.47
575.98	51782.01
576.14	51711.80
576.30	51845.21
576.46	51810.10
576.62	51688.39
576.79	51716.48
576.95	51564.34
577.11	51749.24
577.27	51889.68
577.43	51966.91
577.59	51854.57
577.75	51739.88
577.92	51611.15
578.08	51571.36
578.24	51955.21
578.40	52004.36
578.56	52074.58
578.72	51753.93
578.88	52112.03
579.04	52481.83
579.21	51952.87
579.37	52044.15
579.53	51875.63
579.69	51875.63
579.85	51868.61
580.01	51870.95
580.17	52006.70
580.33	51931.81
580.49	52009.04
580.65	51756.27
580.82	52102.67
580.98	51931.81
581.14	51952.87
581.30	52147.14
581.46	51913.08
581.62	51620.52
581.78	51756.27
581.94	51929.47
582.10	51789.03
582.26	52018.41
582.42	52046.49
582.58	51859.25
582.74	51669.67
582.90	52303.95
583.06	51997.34
583.22	51983.30
583.38	51744.56
583.54	51852.23
583.70	51470.72
583.86	51880.31
584.02	52013.73
584.18	52219.69
584.34	52189.27
584.50	52217.35
584.66	52140.11
584.82	51885.00
584.98	52112.03
585.14	52215.01
585.30	52200.97
585.46	51725.84
585.62	52067.56
585.78	52327.36
585.94	52112.03
586.10	52170.54
586.26	52011.38
586.42	52353.10
586.58	52437.36
586.74	51877.97
586.90	51863.93
587.06	52027.77
587.22	52100.32
587.38	52088.62
587.54	52638.65
587.70	52645.67
587.86	52317.99
588.02	52369.49
588.18	52130.75
588.34	52849.30
588.49	52292.25
588.65	52161.18
588.81	52210.33
588.97	52715.89
