SpectraSuite Data File
++++++++++++++++++++++++++++++++++++
Date: Thu Oct 24 13:21:15 EDT 2013
User: stostad
Dark Spectrum Present: No
Reference Spectrum Present: No
Number of Sampled Component Spectra: 1
Spectrometers: USB2+H05261
Integration Time (usec): 100000 (USB2+H05261)
Spectra Averaged: 1 (USB2+H05261)
Boxcar Smoothing: 0 (USB2+H05261)
Correct for Electrical Dark: No (USB2+H05261)
Strobe/Lamp Enabled: No (USB2+H05261)
Correct for Detector Non-linearity: No (USB2+H05261)
Correct for Stray Light: No (USB2+H05261)
Number of Pixels in Processed Spectrum: 2048
>>>>>Begin Processed Spectral Data<<<<<
365.73	535.98
365.92	535.98
366.12	535.98
366.32	484.49
366.52	463.43
366.72	493.85
366.91	479.81
367.11	444.70
367.31	440.02
367.51	447.04
367.70	451.72
367.90	482.15
368.10	479.81
368.30	444.70
368.49	362.78
368.69	475.13
368.89	477.47
369.09	468.11
369.28	524.28
369.48	533.64
369.68	496.19
369.87	528.96
370.07	397.89
370.27	550.03
370.47	592.16
370.66	770.04
370.86	807.48
371.06	802.80
371.25	791.10
371.45	809.83
371.65	788.76
371.84	777.06
372.04	830.89
372.24	767.70
372.44	709.18
372.63	837.91
372.83	844.93
373.03	884.72
373.22	795.78
373.42	903.45
373.62	884.72
373.81	858.98
374.01	875.36
374.21	905.79
374.40	877.70
374.60	931.53
374.79	870.68
374.99	947.92
375.19	868.34
375.38	987.71
375.58	882.38
375.78	936.21
375.97	940.90
376.17	926.85
376.37	985.37
376.56	990.05
376.76	873.02
376.95	959.62
377.15	889.40
377.35	884.72
377.54	985.37
377.74	936.21
377.93	905.79
378.13	931.53
378.33	887.06
378.52	924.51
378.72	912.81
378.91	926.85
379.11	976.00
379.31	903.45
379.50	994.73
379.70	898.77
379.89	1006.43
380.09	959.62
380.28	957.28
380.48	997.07
380.68	957.28
380.87	1001.75
381.07	1011.11
381.26	1050.90
381.46	1043.88
381.65	1053.24
381.85	931.53
382.04	994.73
382.24	1029.84
382.43	1053.24
382.63	1013.45
382.83	1027.50
383.02	1001.75
383.22	1111.75
383.41	940.90
383.61	1032.18
383.80	1170.27
384.00	1027.50
384.19	1022.81
384.39	1011.11
384.58	978.34
384.78	1046.22
384.97	1013.45
385.17	1011.11
385.36	1078.99
385.56	1043.88
385.75	1139.84
385.95	1022.81
386.14	1088.35
386.34	1081.33
386.53	1032.18
386.72	1090.69
386.92	1163.25
387.11	1095.37
387.31	1139.84
387.50	1081.33
387.70	1116.44
387.89	1130.48
388.09	1121.12
388.28	1121.12
388.48	1146.86
388.67	1172.61
388.86	1107.07
389.06	1107.07
389.25	1078.99
389.45	1165.59
389.64	1196.01
389.84	1184.31
390.03	1144.52
390.22	1160.91
390.42	1224.10
390.61	1200.69
390.81	1188.99
391.00	1137.50
391.19	1282.61
391.39	1203.04
391.58	1235.80
391.78	1144.52
391.97	1306.02
392.16	1158.57
392.36	1341.13
392.55	1294.32
392.75	1282.61
392.94	1238.14
393.13	1226.44
393.33	1301.34
393.52	1259.21
393.71	1357.51
393.91	1341.13
394.10	1313.04
394.29	1343.47
394.49	1186.65
394.68	1322.40
394.88	1350.49
395.07	1331.76
395.26	1411.34
395.46	1308.36
395.65	1448.79
395.84	1479.22
396.04	1371.55
396.23	1418.36
396.42	1390.28
396.62	1423.05
396.81	1437.09
397.00	1313.04
397.19	1425.39
397.39	1493.26
397.58	1369.21
397.77	1394.96
397.97	1526.03
398.16	1479.22
398.35	1413.68
398.55	1352.83
398.74	1472.20
398.93	1462.83
399.12	1448.79
399.32	1516.67
399.51	1439.43
399.70	1507.30
399.90	1533.05
400.09	1509.65
400.28	1537.73
400.47	1500.28
400.67	1610.29
400.86	1645.40
401.05	1586.88
401.24	1533.05
401.44	1584.54
401.63	1605.61
401.82	1614.97
402.01	1561.14
402.21	1547.09
402.40	1643.06
402.59	1554.12
402.78	1579.86
402.97	1671.14
403.17	1717.95
403.36	1638.38
403.55	1647.74
403.74	1764.76
403.93	1785.83
404.13	1813.92
404.32	1746.04
404.51	1790.51
404.70	1842.00
404.89	1729.66
405.09	1839.66
405.28	1834.98
405.47	1781.15
405.66	1811.57
405.85	1949.67
406.05	1949.67
406.24	1816.26
406.43	1760.08
406.62	1823.28
406.81	1874.77
407.00	1867.75
407.20	1781.15
407.39	1914.56
407.58	1895.83
407.77	1975.41
407.96	1947.33
408.15	1947.33
408.34	1956.69
408.54	2029.24
408.73	1944.99
408.92	1966.05
409.11	2073.71
409.30	2129.89
409.49	2012.86
409.68	2019.88
409.87	2146.27
410.07	2115.84
410.26	2120.53
410.45	2263.30
410.64	2036.27
410.83	2122.87
411.02	2097.12
411.21	2165.00
411.40	2172.02
411.59	2284.36
411.78	2218.83
411.98	2169.68
412.17	2195.42
412.36	2331.17
412.55	2406.07
412.74	2392.03
412.93	2314.79
413.12	2338.20
413.31	2408.41
413.50	2417.77
413.69	2314.79
413.88	2429.48
414.07	2422.45
414.26	2476.29
414.45	2516.08
414.64	2567.57
414.83	2469.27
415.02	2499.69
415.22	2661.19
415.41	2537.14
415.60	2651.83
415.79	2621.40
415.98	2719.70
416.17	2661.19
416.36	2750.13
416.55	2675.23
416.74	2675.23
416.93	2787.58
417.12	2771.19
417.31	2771.19
417.50	2813.32
417.69	2869.50
417.88	2782.90
418.07	2729.06
418.26	2822.69
418.45	2946.73
418.64	3094.19
418.83	2939.71
419.02	2820.35
419.21	3021.63
419.39	2925.67
419.58	2944.39
419.77	2906.95
419.96	3007.59
420.15	3002.91
420.34	2998.23
420.53	3045.04
420.72	3047.38
420.91	3073.12
421.10	3077.80
421.29	3091.85
421.48	3040.36
421.67	3087.17
421.86	3082.49
422.05	3229.94
422.24	3204.19
422.43	3159.72
422.61	3180.79
422.80	3080.14
422.99	3162.06
423.18	3101.21
423.37	3309.52
423.56	3119.93
423.75	3152.70
423.94	3080.14
424.13	2986.52
424.32	3089.51
424.50	3241.64
424.69	3194.83
424.88	3267.39
425.07	3281.43
425.26	3131.64
425.45	3152.70
425.64	3124.62
425.83	3194.83
426.01	3227.60
426.20	3300.16
426.39	3293.13
426.58	3274.41
426.77	3251.00
426.96	3288.45
427.15	3274.41
427.33	3267.39
427.52	3349.31
427.71	3339.94
427.90	3361.01
428.09	3396.12
428.28	3396.12
428.46	3342.28
428.65	3375.05
428.84	3569.32
429.03	3501.44
429.22	3463.99
429.40	3485.06
429.59	3531.87
429.78	3393.78
429.97	3349.31
430.16	3478.04
430.34	3545.91
430.53	3630.17
430.72	3588.04
430.91	3641.87
431.10	3522.51
431.28	3595.06
431.47	3637.19
431.66	3756.56
431.85	3765.92
432.03	3637.19
432.22	3859.54
432.41	3784.65
432.60	3772.94
432.79	3644.21
432.97	3840.82
433.16	3723.79
433.35	3840.82
433.54	3737.84
433.72	3831.46
433.91	3925.08
434.10	3918.06
434.28	3852.52
434.47	3904.01
434.66	3953.16
434.85	3964.87
435.03	4014.02
435.22	4145.09
435.41	4337.01
435.59	4215.30
435.78	4210.62
435.97	4028.06
436.16	4091.26
436.34	4049.13
436.53	4042.11
436.72	4170.83
436.90	3981.25
437.09	4142.75
437.28	4042.11
437.46	4072.53
437.65	4025.72
437.84	4276.16
438.02	4135.73
438.21	4168.49
438.40	4208.28
438.58	4367.44
438.77	4409.57
438.96	4224.67
439.14	4418.93
439.33	4454.04
439.52	4334.67
439.70	4465.74
439.89	4498.51
440.08	4547.66
440.26	4613.20
440.45	4489.15
440.63	4699.80
440.82	4821.50
441.01	4643.62
441.19	4524.26
441.38	4676.39
441.57	4587.45
441.75	4702.14
441.94	4844.91
442.12	4889.38
442.31	4915.12
442.50	4835.55
442.68	4833.21
442.87	4938.53
443.05	4910.44
443.24	5006.41
443.43	4898.74
443.61	5060.24
443.80	5090.67
443.98	4887.04
444.17	4805.12
444.35	5085.98
444.54	4933.85
444.73	4917.47
444.91	5034.49
445.10	4990.02
445.28	5025.13
445.47	4983.00
445.65	5074.28
445.84	5006.41
446.02	5210.03
446.21	5041.51
446.39	5205.35
446.58	5149.18
446.77	5188.97
446.95	5013.43
447.14	4978.32
447.32	5174.92
447.51	5149.18
447.69	4926.83
447.88	5074.28
448.06	5210.03
448.25	5102.37
448.43	5158.54
448.62	5118.75
448.80	4971.30
448.99	5186.63
449.17	5233.44
449.36	5076.62
449.54	5355.15
449.73	5217.05
449.91	5357.49
450.10	5376.21
450.28	5338.76
450.46	5467.49
450.65	5341.10
450.83	5493.24
451.02	5392.59
451.20	5547.07
451.39	5645.37
451.57	5500.26
451.76	5500.26
451.94	5603.24
452.13	5568.13
452.31	5596.22
452.49	5558.77
452.68	5617.29
452.86	5518.98
453.05	5535.37
453.23	5603.24
453.42	5551.75
453.60	5687.50
453.78	5767.08
453.97	5621.97
454.15	5699.20
454.34	5563.45
454.52	5846.66
454.70	5748.36
454.89	5764.74
455.07	5783.46
455.26	5729.63
455.44	5863.04
455.62	5825.59
455.81	5809.21
455.99	6108.80
456.17	5928.58
456.36	6069.01
456.54	6010.50
456.73	6099.44
456.91	6097.10
457.09	6115.82
457.28	6113.48
457.46	6113.48
457.64	6153.27
457.83	6258.59
458.01	6106.46
458.19	6249.23
458.38	6160.29
458.56	6108.80
458.74	6225.82
458.93	6218.80
459.11	6366.26
459.29	6361.58
459.48	6235.19
459.66	6366.26
459.84	6413.07
460.03	6476.26
460.21	6597.97
460.39	6319.45
460.57	6408.39
460.76	6483.28
460.94	6487.96
461.12	6511.37
461.31	6595.63
461.49	6722.02
461.67	6567.54
461.85	6712.66
462.04	6668.19
462.22	7115.23
462.40	6874.15
462.59	6810.96
462.77	6579.25
462.95	6834.36
463.13	6747.76
463.32	6829.68
463.50	6778.19
463.68	7019.27
463.86	6897.56
464.05	6920.96
464.23	6771.17
464.41	6904.58
464.59	6796.92
464.78	7028.63
464.96	6920.96
465.14	6794.58
465.32	6899.90
465.50	7169.06
465.69	7169.06
465.87	7066.08
466.05	6801.60
466.23	7073.10
466.41	7016.93
466.60	7178.42
466.78	7098.84
466.96	7115.23
467.14	7159.70
467.32	7169.06
467.51	7260.34
467.69	7126.93
467.87	7405.46
468.05	7396.09
468.23	7040.33
468.41	7091.82
468.60	7279.07
468.78	7321.20
468.96	7068.42
469.14	7506.10
469.32	7435.88
469.50	7260.34
469.69	7386.73
469.87	7550.57
470.05	7421.84
470.23	7581.00
470.41	7707.38
470.59	7688.66
470.77	7501.42
470.95	7480.35
471.14	7803.35
471.32	7744.83
471.50	7698.02
471.68	7817.39
471.86	7812.71
472.04	7880.58
472.22	8187.19
472.40	8051.44
472.58	8035.06
472.77	8088.89
472.95	8177.83
473.13	8400.18
473.31	7976.55
473.49	8177.83
473.67	8128.68
473.85	8259.75
474.03	8339.33
474.21	8297.20
474.39	8386.14
474.57	8388.48
474.75	8442.31
474.93	8585.08
475.12	8344.01
475.30	8566.36
475.48	8634.24
475.66	8645.94
475.84	8634.24
476.02	8872.97
476.20	8791.05
476.38	8842.54
476.56	8910.42
476.74	8917.44
476.92	8835.52
477.10	9015.74
477.28	9146.81
477.46	9200.65
477.64	9366.82
477.82	9329.38
478.00	9528.32
478.18	9270.86
478.36	9432.36
478.54	9610.24
478.72	9694.50
478.90	9846.63
479.08	9860.68
479.26	10005.79
479.44	9998.77
479.62	9996.43
479.80	9970.68
479.98	10237.50
480.16	10567.52
480.34	10186.01
480.52	10296.02
480.70	10569.86
480.88	10263.25
481.06	10520.71
481.24	10670.50
481.41	10789.87
481.59	10663.48
481.77	10984.13
481.95	11044.99
482.13	10920.94
482.31	11084.78
482.49	11482.67
482.67	11222.87
482.85	11559.91
483.03	11522.46
483.21	11543.52
483.39	11768.21
483.57	11492.03
483.74	11571.61
483.92	11843.11
484.10	11714.38
484.28	11957.80
484.46	12226.96
484.64	12346.33
484.82	12294.83
485.00	12489.10
485.18	12690.38
485.35	12645.91
485.53	12580.38
485.71	12753.58
485.89	13193.60
486.07	12875.29
486.25	13427.65
486.43	13298.92
486.61	13142.11
486.78	13692.13
486.96	13453.40
487.14	13813.84
487.32	13483.83
487.50	13668.73
487.68	13783.41
487.85	13848.95
488.03	13844.27
488.21	14129.81
488.39	14108.75
488.57	14532.39
488.75	14654.09
488.92	14530.05
489.10	14649.41
489.28	15019.22
489.46	14778.14
489.64	14918.57
489.81	15129.22
489.99	15197.10
490.17	15403.07
490.35	15442.85
490.53	15220.50
490.70	15587.97
490.88	15583.29
491.06	16013.95
491.24	15831.38
491.41	15950.75
491.59	16037.35
491.77	16093.52
491.95	16137.99
492.13	16311.19
492.30	16451.63
492.48	16503.12
492.66	16648.23
492.84	16758.24
493.01	17092.93
493.19	16872.92
493.37	16961.86
493.54	16858.88
493.72	17322.30
493.90	17282.52
494.08	17362.09
494.25	17465.08
494.43	17525.93
494.61	17392.52
494.79	17551.68
494.96	17727.22
495.14	17752.96
495.32	17954.25
495.49	18057.23
495.67	18363.84
495.85	18431.72
496.02	18499.59
496.20	18424.70
496.38	18427.04
496.55	18359.16
496.73	18932.59
496.91	18944.30
497.09	19068.34
497.26	19023.87
497.44	18995.79
497.62	19159.63
497.79	19309.42
497.97	19440.49
498.14	19660.50
498.32	19754.12
498.50	19688.59
498.67	19974.13
498.85	20006.90
499.03	19735.40
499.20	19957.75
499.38	19985.83
499.56	20278.40
499.73	20334.57
499.91	20304.15
500.08	20713.74
500.26	20458.62
500.44	20496.07
500.61	20858.85
500.79	20666.93
500.97	20732.47
501.14	20828.43
501.32	20872.90
501.49	20786.30
501.67	21305.90
501.84	21408.88
502.02	21291.85
502.20	21348.03
502.37	21509.52
502.55	21076.52
502.72	21329.30
502.90	21710.81
503.07	21532.93
503.25	21750.60
503.43	22005.72
503.60	21884.01
503.78	21474.42
503.95	21895.71
504.13	21703.79
504.30	21790.39
504.48	21837.20
504.65	22281.90
504.83	22281.90
505.01	22391.91
505.18	22398.93
505.36	22677.45
505.53	22670.43
505.71	22398.93
505.88	22635.32
506.06	22824.90
506.23	22845.97
506.41	22679.79
506.58	23136.20
506.76	22771.07
506.93	22993.42
507.11	23180.67
507.28	23419.40
507.46	23321.10
507.63	23353.87
507.81	23555.15
507.98	23388.97
508.16	23552.81
508.33	23786.86
508.50	23564.51
508.68	23786.86
508.85	23992.83
509.03	23847.72
509.20	24018.58
509.38	24025.60
509.55	24212.84
509.73	24453.92
509.90	24130.92
510.08	24360.30
510.25	24369.66
510.42	24514.77
510.60	24704.35
510.77	24587.33
510.95	24814.36
511.12	24772.23
511.30	24645.84
511.47	24762.87
511.64	24812.02
511.82	25226.29
511.99	24753.51
512.17	24730.10
512.34	25429.92
512.51	25708.44
512.69	25542.27
512.86	25212.25
513.04	25893.35
513.21	25387.79
513.38	25621.84
513.56	25504.82
513.73	25380.77
513.90	25989.31
514.08	26157.83
514.25	26120.38
514.43	26043.14
514.60	26010.37
514.77	25944.84
514.95	26560.40
515.12	25806.75
515.29	26335.71
515.47	26211.66
515.64	26726.58
515.81	26501.89
515.99	26396.56
516.16	26602.53
516.33	26899.78
516.51	26977.01
516.68	26705.51
516.85	26911.48
517.03	27187.66
517.20	26925.52
517.37	26941.91
517.54	26986.38
517.72	27119.79
517.89	27154.90
518.06	27335.12
518.24	27276.60
518.41	27417.04
518.58	27105.74
518.75	26857.65
518.93	27564.49
519.10	27501.29
519.27	27477.89
519.45	27410.01
519.62	27871.10
519.79	27536.40
519.96	27920.25
520.14	27992.81
520.31	27442.78
520.48	27669.81
520.65	27899.19
520.83	28332.18
521.00	28339.21
521.17	28032.60
521.34	28114.52
521.52	28222.18
521.69	28350.91
521.86	28500.70
522.03	28474.96
522.20	28451.55
522.38	28917.32
522.55	28840.08
522.72	28816.68
522.89	28905.62
523.07	28507.72
523.24	28828.38
523.41	29013.28
523.58	28938.38
523.75	28833.06
523.92	29345.64
524.10	29287.12
524.27	29268.40
524.44	29495.43
524.61	29228.61
524.78	29640.54
524.96	29244.99
525.13	29685.01
525.30	29937.79
525.47	30019.71
525.64	29453.30
525.81	29818.42
525.98	30113.33
526.16	29731.83
526.33	29502.45
526.50	30312.28
526.67	29827.79
526.84	29827.79
527.01	29900.34
527.18	30206.95
527.36	30639.95
527.53	30125.04
527.70	30738.26
527.87	30459.73
528.04	30483.14
528.21	30539.31
528.38	30483.14
528.55	30323.98
528.72	30284.19
528.89	30359.09
529.07	30499.52
529.24	30642.29
529.41	30595.48
529.58	30703.15
529.75	30810.81
529.92	30649.32
530.09	31122.10
530.26	30869.33
530.43	30792.09
530.60	30691.44
530.77	30810.81
530.94	30998.06
531.11	31438.08
531.28	30831.88
531.46	31456.80
531.63	31494.25
531.80	31150.19
531.97	31264.88
532.14	31505.95
532.31	31374.88
532.48	31550.42
532.65	31875.76
532.82	31702.56
532.99	31585.53
533.16	31695.53
533.33	31541.06
533.50	31875.76
533.67	31810.22
533.84	31826.60
534.01	31807.88
534.18	31417.01
534.35	32243.22
534.52	31854.69
534.69	31536.38
534.86	32299.39
535.03	31838.31
535.20	32048.96
535.37	32343.86
535.54	32437.48
535.71	31805.54
535.88	32201.09
536.05	32322.80
536.22	32666.86
536.38	32655.15
536.55	32840.06
536.72	32360.25
536.89	32666.86
537.06	32804.95
537.23	32685.58
537.40	33191.14
537.57	32804.95
537.74	32936.02
537.91	33010.92
538.08	33060.07
538.25	32781.54
538.42	32950.06
538.59	32835.38
538.75	32940.70
538.92	33109.22
539.09	33385.40
539.26	32959.42
539.43	33085.81
539.60	32699.62
539.77	33219.22
539.94	33890.96
540.11	33633.50
540.28	33921.38
540.44	33717.76
540.61	33490.73
540.78	33418.17
540.95	33479.02
541.12	33612.43
541.29	33780.95
541.46	33895.64
541.62	33832.44
541.79	34174.16
541.96	33919.04
542.13	34211.61
542.30	34361.40
542.47	34195.23
542.63	34286.51
542.80	34387.15
542.97	34660.99
543.14	34436.30
543.31	34607.16
543.48	34665.67
543.64	34911.43
543.81	35143.14
543.98	34911.43
544.15	35105.70
544.32	34719.51
544.48	35335.07
544.65	34763.98
544.82	35091.65
544.99	34873.98
545.16	35108.04
545.32	34768.66
545.49	35782.11
545.66	35861.69
545.83	35770.41
546.00	36287.67
546.16	35873.39
546.33	35314.00
546.50	35283.58
546.67	35204.00
546.83	35569.12
547.00	35058.88
547.17	34698.44
547.34	35175.91
547.50	35267.19
547.67	35674.45
547.84	35187.61
548.00	35892.12
548.17	36144.89
548.34	35454.44
548.51	35899.14
548.67	35821.90
548.84	35751.68
549.01	35688.49
549.18	35924.88
549.34	35835.94
549.51	35943.61
549.68	35952.97
549.84	35452.09
550.01	35950.63
550.18	35260.17
550.34	35793.81
550.51	35508.27
550.68	36088.72
550.84	35709.55
551.01	35929.56
551.18	35945.95
551.34	35517.63
551.51	35744.66
551.68	35859.35
551.84	36062.97
552.01	35552.74
552.18	36362.56
552.34	35959.99
552.51	36313.41
552.68	36460.87
552.84	36271.28
553.01	36226.81
553.18	36091.06
553.34	36170.64
553.51	36285.33
553.67	36025.53
553.84	36575.55
554.01	36814.29
554.17	36739.39
554.34	36715.98
554.51	36229.15
554.67	36987.49
554.84	36521.72
555.00	36264.26
555.17	36231.49
555.33	36613.00
555.50	36692.58
555.67	36793.22
555.83	36561.51
556.00	36854.08
556.16	36701.94
556.33	36814.29
556.50	36706.62
556.66	36872.80
556.83	36313.41
556.99	36964.08
557.16	36828.33
557.32	37151.32
557.49	36912.59
557.65	37158.34
557.82	36631.72
557.98	36905.57
558.15	36835.35
558.32	37270.69
558.48	36725.35
558.65	36893.86
558.81	37305.80
558.98	37268.35
559.14	37385.38
559.31	36535.76
559.47	37193.45
559.64	37305.80
559.80	36964.08
559.97	37237.92
560.13	37060.04
560.30	36701.94
560.46	37216.86
560.63	37127.92
560.79	37221.54
560.96	37645.18
561.12	37432.19
561.29	37188.77
561.45	37584.32
561.61	37361.97
561.78	37165.37
561.94	37713.05
562.11	37759.86
562.27	37797.31
562.44	37577.30
562.60	37858.17
562.77	37486.02
562.93	37207.50
563.10	37947.11
563.26	37411.12
563.42	38059.45
563.59	37813.70
563.75	37633.47
563.92	37762.20
564.08	37649.86
564.24	37713.05
564.41	37460.27
564.57	37261.33
564.74	37645.18
564.90	37816.04
565.07	38129.67
565.23	38120.31
565.39	37654.54
565.56	37827.74
565.72	37879.23
565.88	38003.28
566.05	37858.17
566.21	37516.45
566.38	37460.27
566.54	38129.67
566.70	37879.23
566.87	38455.00
567.03	38190.52
567.19	38672.67
567.36	38246.69
567.52	37851.14
567.68	38007.96
567.85	37727.10
568.01	38265.42
568.17	37921.36
568.34	38185.84
568.50	38169.46
568.66	38164.78
568.83	38206.90
568.99	37734.12
569.15	37986.89
569.32	38117.96
569.48	38181.16
569.64	38024.34
569.81	37921.36
569.97	37689.65
570.13	37839.44
570.30	38045.41
570.46	38384.79
570.62	38190.52
570.78	38024.34
570.95	38066.47
571.11	38202.22
571.27	38120.31
571.43	38000.94
571.60	38307.55
571.76	38447.98
571.92	38251.38
572.09	38455.00
572.25	38511.17
572.41	38504.15
572.57	38312.23
572.74	38813.10
572.90	38174.14
573.06	38356.70
573.22	38607.14
573.38	38438.62
573.55	38508.83
573.71	38410.53
573.87	38106.26
574.03	38541.60
574.20	38412.87
574.36	38438.62
574.52	37897.95
574.68	38234.99
574.84	38565.01
575.01	38293.50
575.17	38150.73
575.33	38127.33
575.49	38536.92
575.65	37865.19
575.82	38628.20
575.98	38597.77
576.14	38911.41
576.30	38759.27
576.46	38728.84
576.62	38417.55
576.79	38300.53
576.95	38382.45
577.11	38639.90
577.27	38885.66
577.43	38904.38
577.59	38710.12
577.75	38391.81
577.92	38274.78
578.08	38447.98
578.24	38621.18
578.40	38525.22
578.56	38770.97
578.72	39108.01
578.88	39131.42
579.04	39171.21
579.21	38911.41
579.37	39054.18
579.53	38890.34
579.69	38583.73
579.85	38745.23
580.01	39112.69
580.17	38796.72
580.33	38677.35
580.49	38754.59
580.65	38747.57
580.82	38527.56
580.98	38590.75
581.14	38904.38
581.30	38707.78
581.46	38651.61
581.62	38925.45
581.78	38438.62
581.94	38408.19
582.10	38703.10
582.26	38932.47
582.42	38445.64
582.58	38550.96
582.74	38754.59
582.90	38986.30
583.06	38965.24
583.22	38892.68
583.38	38937.15
583.54	38946.51
583.70	38340.32
583.86	38754.59
584.02	38782.68
584.18	39012.05
584.34	38895.02
584.50	39079.92
584.66	38916.09
584.82	38485.43
584.98	38675.01
585.14	38766.29
585.30	38742.89
585.46	39054.18
585.62	38588.41
585.78	39063.54
585.94	39115.03
586.10	38574.37
586.26	39178.23
586.42	38979.28
586.58	38920.77
586.74	38801.40
586.90	38836.51
587.06	38726.50
587.22	39393.56
587.38	38831.83
587.54	39562.08
587.70	39356.11
587.86	39351.43
588.02	39271.85
588.18	39466.11
588.34	39203.97
588.49	39014.39
588.65	39042.48
588.81	38895.02
588.97	39185.25
589.13	39323.34
589.29	39213.34
589.45	39040.14
589.61	39098.65
589.77	39306.96
