SpectraSuite Data File
++++++++++++++++++++++++++++++++++++
Date: Thu Oct 24 13:21:14 EDT 2013
User: stostad
Dark Spectrum Present: No
Reference Spectrum Present: No
Number of Sampled Component Spectra: 1
Spectrometers: USB2+H05261
Integration Time (usec): 100000 (USB2+H05261)
Spectra Averaged: 1 (USB2+H05261)
Boxcar Smoothing: 0 (USB2+H05261)
Correct for Electrical Dark: No (USB2+H05261)
Strobe/Lamp Enabled: No (USB2+H05261)
Correct for Detector Non-linearity: No (USB2+H05261)
Correct for Stray Light: No (USB2+H05261)
Number of Pixels in Processed Spectrum: 2048
>>>>>Begin Processed Spectral Data<<<<<
365.73	592.16
365.92	592.16
366.12	592.16
366.32	489.17
366.52	421.30
366.72	433.00
366.91	465.77
367.11	484.49
367.31	440.02
367.51	454.06
367.70	479.81
367.90	409.59
368.10	409.59
368.30	472.79
368.49	437.68
368.69	449.38
368.89	447.04
369.09	498.53
369.28	535.98
369.48	482.15
369.68	566.41
369.87	547.69
370.07	559.39
370.27	547.69
370.47	638.97
370.66	685.78
370.86	732.59
371.06	688.12
371.25	692.80
371.45	748.97
371.65	650.67
371.84	655.35
372.04	734.93
372.24	795.78
372.44	767.70
372.63	896.43
372.83	744.29
373.03	758.33
373.22	737.27
373.42	844.93
373.62	786.42
373.81	777.06
374.01	730.25
374.21	744.29
374.40	772.38
374.60	748.97
374.79	802.80
374.99	826.21
375.19	784.08
375.38	788.76
375.58	877.70
375.78	819.19
375.97	863.66
376.17	791.10
376.37	807.48
376.56	795.78
376.76	812.17
376.95	809.83
377.15	760.67
377.35	875.36
377.54	784.08
377.74	781.74
377.93	781.74
378.13	753.65
378.33	863.66
378.52	816.85
378.72	875.36
378.91	812.17
379.11	777.06
379.31	915.15
379.50	826.21
379.70	828.55
379.89	931.53
380.09	833.23
380.28	779.40
380.48	795.78
380.68	837.91
380.87	844.93
381.07	868.34
381.26	894.08
381.46	807.48
381.65	788.76
381.85	802.80
382.04	908.13
382.24	830.89
382.43	866.00
382.63	847.27
382.83	828.55
383.02	915.15
383.22	896.43
383.41	870.68
383.61	938.55
383.80	898.77
384.00	856.64
384.19	870.68
384.39	849.61
384.58	863.66
384.78	903.45
384.97	835.57
385.17	873.02
385.36	938.55
385.56	905.79
385.75	954.94
385.95	851.96
386.14	905.79
386.34	898.77
386.53	968.98
386.72	924.51
386.92	943.24
387.11	856.64
387.31	945.58
387.50	877.70
387.70	964.30
387.89	875.36
388.09	938.55
388.28	917.49
388.48	861.32
388.67	952.60
388.86	964.30
389.06	912.81
389.25	873.02
389.45	905.79
389.64	945.58
389.84	1020.47
390.03	990.05
390.22	976.00
390.42	1018.13
390.61	978.34
390.81	1050.90
391.00	931.53
391.19	966.64
391.39	947.92
391.58	1022.81
391.78	959.62
391.97	1015.79
392.16	994.73
392.36	1104.73
392.55	1004.09
392.75	1020.47
392.94	983.02
393.13	1025.15
393.33	971.32
393.52	1057.92
393.71	1069.62
393.91	1053.24
394.10	1081.33
394.29	1032.18
394.49	994.73
394.68	1123.46
394.88	1109.41
395.07	1053.24
395.26	1015.79
395.46	1062.60
395.65	1050.90
395.84	997.07
396.04	1039.20
396.23	1123.46
396.42	1123.46
396.62	1071.97
396.81	1074.31
397.00	1100.05
397.19	1034.52
397.39	1132.82
397.58	1032.18
397.77	1139.84
397.97	1144.52
398.16	1081.33
398.35	1102.39
398.55	1055.58
398.74	1137.50
398.93	1200.69
399.12	1191.33
399.32	1179.63
399.51	1125.80
399.70	1205.38
399.90	1095.37
400.09	1151.54
400.28	1200.69
400.47	1198.35
400.67	1217.08
400.86	1203.04
401.05	1284.95
401.24	1203.04
401.44	1235.80
401.63	1254.53
401.82	1261.55
402.01	1174.95
402.21	1238.14
402.40	1219.42
402.59	1249.85
402.78	1238.14
402.97	1217.08
403.17	1308.36
403.36	1270.91
403.55	1306.02
403.74	1270.91
403.93	1329.42
404.13	1373.89
404.32	1341.13
404.51	1437.09
404.70	1401.98
404.89	1401.98
405.09	1394.96
405.28	1376.24
405.47	1359.85
405.66	1203.04
405.85	1277.93
406.05	1345.81
406.24	1416.02
406.43	1364.53
406.62	1490.92
406.81	1437.09
407.00	1413.68
407.20	1380.92
407.39	1472.20
407.58	1511.99
407.77	1455.81
407.96	1467.52
408.15	1514.33
408.34	1514.33
408.54	1533.05
408.73	1469.86
408.92	1448.79
409.11	1572.84
409.30	1509.65
409.49	1404.32
409.68	1563.48
409.87	1502.62
410.07	1598.59
410.26	1612.63
410.45	1563.48
410.64	1633.69
410.83	1593.90
411.02	1537.73
411.21	1668.80
411.40	1509.65
411.59	1572.84
411.78	1666.46
411.98	1673.48
412.17	1626.67
412.36	1657.10
412.55	1795.19
412.74	1799.87
412.93	1923.92
413.12	1624.33
413.31	1706.25
413.50	1741.36
413.69	1736.68
413.88	1776.47
414.07	1715.61
414.26	1870.09
414.45	1816.26
414.64	1778.81
414.83	1739.02
415.02	1893.49
415.22	1853.70
415.41	1863.07
415.60	1905.20
415.79	1867.75
415.98	1905.20
416.17	1940.30
416.36	1863.07
416.55	1834.98
416.74	1987.11
416.93	1980.09
417.12	1916.90
417.31	1923.92
417.50	2005.84
417.69	1994.14
417.88	2052.65
418.07	2064.35
418.26	2076.06
418.45	1947.33
418.64	2057.33
418.83	2019.88
419.02	2047.97
419.21	2050.31
419.39	2160.31
419.58	2097.12
419.77	2099.46
419.96	2085.42
420.15	1970.73
420.34	2017.54
420.53	2200.10
420.72	2167.34
420.91	2136.91
421.10	2118.18
421.29	2143.93
421.48	2129.89
421.67	2209.47
421.86	2108.82
422.05	2050.31
422.24	2155.63
422.43	2326.49
422.61	2286.70
422.80	2298.41
422.99	2279.68
423.18	2186.06
423.37	2270.32
423.56	2120.53
423.75	2237.55
423.94	2223.51
424.13	2118.18
424.32	2204.78
424.50	2326.49
424.69	2314.79
424.88	2289.04
425.07	2258.62
425.26	2284.36
425.45	2237.55
425.64	2202.44
425.83	2183.72
426.01	2286.70
426.20	2321.81
426.39	2237.55
426.58	2265.64
426.77	2347.56
426.96	2251.60
427.15	2300.75
427.33	2338.20
427.52	2286.70
427.71	2385.01
427.90	2319.47
428.09	2361.60
428.28	2246.91
428.46	2375.64
428.65	2392.03
428.84	2422.45
429.03	2490.33
429.22	2298.41
429.40	2415.43
429.59	2473.95
429.78	2338.20
429.97	2363.94
430.16	2406.07
430.34	2530.12
430.53	2471.61
430.72	2485.65
430.91	2497.35
431.10	2459.90
431.28	2473.95
431.47	2546.50
431.66	2520.76
431.85	2438.84
432.03	2532.46
432.22	2623.74
432.41	2635.44
432.60	2558.21
432.79	2492.67
432.97	2541.82
433.16	2560.55
433.35	2574.59
433.54	2621.40
433.72	2628.42
433.91	2607.36
434.10	2527.78
434.28	2560.55
434.47	2672.89
434.66	2684.59
434.85	2766.51
435.03	2932.69
435.22	2963.12
435.41	3119.93
435.59	3145.68
435.78	2890.56
435.97	2958.44
436.16	2761.83
436.34	2775.88
436.53	2827.37
436.72	2827.37
436.90	2787.58
437.09	2712.68
437.28	2764.17
437.46	2726.72
437.65	2700.98
437.84	2782.90
438.02	2909.29
438.21	2813.32
438.40	2822.69
438.58	2888.22
438.77	2937.37
438.96	2832.05
439.14	2916.31
439.33	3066.10
439.52	3021.63
439.70	2974.82
439.89	3000.57
440.08	3119.93
440.26	3087.17
440.45	3075.46
440.63	2981.84
440.82	3138.66
441.01	3157.38
441.19	3126.96
441.38	3162.06
441.57	3138.66
441.75	3197.17
441.94	3234.62
442.12	3304.84
442.31	3258.03
442.50	3248.66
442.68	3307.18
442.87	3220.58
443.05	3269.73
443.24	3309.52
443.43	3335.26
443.61	3375.05
443.80	3358.67
443.98	3274.41
444.17	3311.86
444.35	3325.90
444.54	3400.80
444.73	3342.28
444.91	3365.69
445.10	3377.39
445.28	3307.18
445.47	3283.77
445.65	3449.95
445.84	3325.90
446.02	3382.07
446.21	3447.61
446.39	3353.99
446.58	3454.63
446.77	3431.23
446.95	3222.92
447.14	3290.79
447.32	3365.69
447.51	3391.44
447.69	3393.78
447.88	3365.69
448.06	3454.63
448.25	3412.50
448.43	3506.12
448.62	3419.52
448.80	3456.97
448.99	3428.88
449.17	3473.36
449.36	3480.38
449.54	3548.25
449.73	3599.74
449.91	3613.79
450.10	3534.21
450.28	3595.06
450.46	3616.13
450.65	3707.41
450.83	3749.54
451.02	3637.19
451.20	3597.40
451.39	3627.83
451.57	3599.74
451.76	3548.25
451.94	3655.92
452.13	3786.99
452.31	3688.68
452.49	3627.83
452.68	3620.81
452.86	3660.60
453.05	3730.81
453.23	3641.87
453.42	3660.60
453.60	3679.32
453.78	3765.92
453.97	3726.13
454.15	3700.39
454.34	3653.58
454.52	3632.51
454.70	3826.78
454.89	3772.94
455.07	3794.01
455.26	3847.84
455.44	3915.72
455.62	3850.18
455.81	3829.12
455.99	3782.31
456.17	3901.67
456.36	3878.27
456.54	3936.78
456.73	3999.98
456.91	3950.82
457.09	4056.15
457.28	4138.07
457.46	4046.79
457.64	4070.19
457.83	4088.92
458.01	3885.29
458.19	4056.15
458.38	4074.87
458.56	4182.54
458.74	4138.07
458.93	4135.73
459.11	4145.09
459.29	4287.86
459.48	4091.26
459.66	4126.36
459.84	4095.94
460.03	4241.05
460.21	4248.07
460.39	4112.32
460.57	4131.05
460.76	4194.24
460.94	4159.13
461.12	4283.18
461.31	4313.61
461.49	4219.99
461.67	4360.42
461.85	4339.35
462.04	4367.44
462.22	4704.48
462.40	4400.21
462.59	4404.89
462.77	4306.59
462.95	4510.21
463.13	4437.66
463.32	4409.57
463.50	4435.32
463.68	4379.14
463.86	4458.72
464.05	4285.52
464.23	4346.37
464.41	4564.04
464.59	4477.44
464.78	4601.49
464.96	4477.44
465.14	4381.48
465.32	4442.34
465.50	4664.69
465.69	4594.47
465.87	4631.92
466.05	4571.07
466.23	4650.64
466.41	4599.15
466.60	4645.96
466.78	4477.44
466.96	4585.11
467.14	4510.21
467.32	4667.03
467.51	4678.73
467.69	4575.75
467.87	4718.52
468.05	4779.37
468.23	4671.71
468.41	4472.76
468.60	4709.16
468.78	4716.18
468.96	4936.19
469.14	4746.61
469.32	4814.48
469.50	4748.95
469.69	4746.61
469.87	4858.95
470.05	4926.83
470.23	4992.36
470.41	4870.65
470.59	4894.06
470.77	4990.02
470.95	4992.36
471.14	4980.66
471.32	4849.59
471.50	5114.07
471.68	5125.77
471.86	4917.47
472.04	4947.89
472.22	5039.17
472.40	5057.90
472.58	5139.82
472.77	5153.86
472.95	5104.71
473.13	5352.81
473.31	5142.16
473.49	5296.63
473.67	5226.42
473.85	5224.08
474.03	5320.04
474.21	5383.23
474.39	5451.11
474.57	5444.09
474.75	5500.26
474.93	5387.91
475.12	5451.11
475.30	5453.45
475.48	5373.87
475.66	5533.03
475.84	5432.38
476.02	5638.35
476.20	5610.26
476.38	5703.89
476.56	5818.57
476.74	5750.70
476.92	5701.54
477.10	5687.50
477.28	5813.89
477.46	5902.83
477.64	5809.21
477.82	5996.45
478.00	6143.91
478.18	5973.05
478.36	6132.20
478.54	6113.48
478.72	6078.37
478.90	6188.38
479.08	6136.88
479.26	6370.94
479.44	6380.30
479.62	6392.00
479.80	6345.19
479.98	6544.14
480.16	6633.08
480.34	6506.69
480.52	6541.80
480.70	6853.09
480.88	6572.22
481.06	6679.89
481.24	6612.01
481.41	6665.85
481.59	6747.76
481.77	6799.26
481.95	6899.90
482.13	7103.53
482.31	6944.37
482.49	7180.76
482.67	7056.72
482.85	7119.91
483.03	7176.08
483.21	7241.62
483.39	7428.86
483.57	7393.75
483.74	7199.49
483.92	7555.25
484.10	7337.58
484.28	7620.78
484.46	7702.70
484.64	7810.37
484.82	7660.57
485.00	7758.88
485.18	7779.94
485.35	7978.89
485.53	7922.71
485.71	8056.12
485.89	8180.17
486.07	8074.85
486.25	8208.26
486.43	8095.91
486.61	8458.70
486.78	8423.59
486.96	8465.72
487.14	8386.14
487.32	8425.93
487.50	8514.87
487.68	8512.53
487.85	8704.45
488.03	8709.13
488.21	8973.61
488.39	8915.10
488.57	8968.93
488.75	8865.95
488.92	9198.31
489.10	9284.91
489.28	9298.95
489.46	9186.60
489.64	9071.92
489.81	9458.10
489.99	9348.10
490.17	9530.66
490.35	9310.65
490.53	9673.43
490.70	9621.94
490.88	9614.92
491.06	9650.03
491.24	9645.35
491.41	9951.96
491.59	9865.36
491.77	10057.28
491.95	10106.43
492.13	10040.90
492.30	10017.49
492.48	10139.20
492.66	10228.14
492.84	10078.35
493.01	10305.38
493.19	10321.76
493.37	10736.04
493.54	10511.35
493.72	10663.48
493.90	10410.70
494.08	10511.35
494.25	10855.40
494.43	10775.83
494.61	10965.41
494.79	10939.66
494.96	10565.18
495.14	10984.13
495.32	11028.60
495.49	11014.56
495.67	11358.62
495.85	11110.52
496.02	11166.70
496.20	11255.64
496.38	11566.93
496.55	11295.43
496.73	11522.46
496.91	11489.69
497.09	11609.06
497.26	11550.54
497.44	11658.21
497.62	11632.46
497.79	11793.96
497.97	11857.15
498.14	11964.82
498.32	11843.11
498.50	12065.46
498.67	12030.35
498.85	11925.03
499.03	12163.76
499.20	11999.93
499.38	12285.47
499.56	12278.45
499.73	12332.28
499.91	12416.54
500.08	12315.90
500.26	12196.53
500.44	12266.75
500.61	12521.87
500.79	12372.07
500.97	12608.47
501.14	12765.28
501.32	12606.13
501.49	12582.72
501.67	12697.41
501.84	12905.71
502.02	12952.52
502.20	12816.77
502.37	13156.15
502.55	12905.71
502.72	13041.46
502.90	13247.43
503.07	12975.93
503.25	12929.12
503.43	12938.48
503.60	12985.29
503.78	12856.56
503.95	13085.94
504.13	13128.06
504.30	13511.91
504.48	13413.61
504.65	13383.18
504.83	13563.40
505.01	13572.77
505.18	13378.50
505.36	13687.45
505.53	13603.19
505.71	13783.41
505.88	13731.92
506.06	13724.90
506.23	13760.01
506.41	13755.33
506.58	13802.14
506.76	13717.88
506.93	13991.72
507.11	13797.46
507.28	13870.01
507.46	14005.77
507.63	14139.18
507.81	14380.25
507.98	13996.40
508.16	14253.86
508.33	14214.07
508.50	14459.83
508.68	14427.06
508.85	14436.42
509.03	14263.22
509.20	14483.24
509.38	14782.82
509.55	14579.20
509.73	14824.95
509.90	14778.14
510.08	14607.28
510.25	14607.28
510.42	14696.22
510.60	14553.45
510.77	14878.79
510.95	14909.21
511.12	14581.54
511.30	14794.53
511.47	15248.59
511.64	14775.80
511.82	15183.06
511.99	15297.74
512.17	15068.37
512.34	15084.75
512.51	15016.88
512.69	15215.82
512.86	15316.47
513.04	15510.73
513.21	15386.68
513.38	15274.34
513.56	15494.35
513.73	15517.75
513.90	15480.30
514.08	15445.20
514.25	15990.54
514.43	15641.80
514.60	15690.95
514.77	15669.89
514.95	15590.31
515.12	15646.48
515.29	15611.37
515.47	15831.38
515.64	16023.31
515.81	15637.12
515.99	16070.12
516.16	16114.59
516.33	15969.48
516.51	15976.50
516.68	16018.63
516.85	15936.71
517.03	16135.65
517.20	16278.43
517.37	16072.46
517.54	16130.97
517.72	16215.23
517.89	16079.48
518.06	16390.77
518.24	16257.36
518.41	16681.00
518.58	16343.96
518.75	16163.74
518.93	16468.01
519.10	16301.83
519.27	16435.24
519.45	16540.57
519.62	16695.04
519.79	16514.82
519.96	16341.62
520.14	16535.88
520.31	16533.54
520.48	16463.33
520.65	16423.54
520.83	16875.26
521.00	17057.82
521.17	16599.08
521.34	17034.42
521.52	17069.53
521.69	17003.99
521.86	16702.06
522.03	16769.94
522.20	16985.27
522.38	17441.67
522.55	17392.52
522.72	17228.68
522.89	17099.95
523.07	17104.64
523.24	16980.59
523.41	17184.21
523.58	16954.84
523.75	17561.04
523.92	17261.45
524.10	17528.27
524.27	17628.92
524.44	17598.49
524.61	17427.63
524.78	17556.36
524.96	17425.29
525.13	17617.21
525.30	17900.42
525.47	17771.69
525.64	17738.92
525.81	17755.30
525.98	17687.43
526.16	17589.13
526.33	17977.65
526.50	17668.70
526.67	17799.77
526.84	17874.67
527.01	17951.91
527.18	18162.56
527.36	18101.70
527.53	17851.27
527.70	17855.95
527.87	17998.72
528.04	18129.79
528.21	18225.75
528.38	18066.60
528.55	18239.79
528.72	18181.28
528.89	18157.88
529.07	18045.53
529.24	17961.27
529.41	18183.62
529.58	18412.99
529.75	18211.71
529.92	18382.57
530.09	18391.93
530.26	18127.45
530.43	18204.69
530.60	18363.84
530.77	18359.16
530.94	18647.05
531.11	18424.70
531.28	18422.36
531.46	18405.97
531.63	18663.43
531.80	18670.45
531.97	18595.56
532.14	18586.19
532.31	18541.72
532.48	18745.35
532.65	19051.96
532.82	18656.41
532.99	18728.97
533.16	18661.09
533.33	18677.48
533.50	18871.74
533.67	18932.59
533.84	18848.33
534.01	18665.77
534.18	18822.59
534.35	18991.11
534.52	18913.87
534.69	18867.06
534.86	19145.58
535.03	19005.15
535.20	18960.68
535.37	19101.11
535.54	19417.08
535.71	19030.90
535.88	19213.46
536.05	19325.80
536.22	19384.32
536.38	19477.94
536.55	19173.67
536.72	19419.42
536.89	19545.81
537.06	19506.02
537.23	19552.84
537.40	19473.26
537.57	19122.18
537.74	19110.47
537.91	19569.22
538.08	19674.54
538.25	19234.52
538.42	19538.79
538.59	19527.09
538.75	19761.14
538.92	19730.72
539.09	19777.53
539.26	19688.59
539.43	19770.51
539.60	19814.98
539.77	20011.58
539.94	19803.27
540.11	20044.35
540.28	19943.70
540.44	19796.25
540.61	20081.80
540.78	20034.99
540.95	20287.76
541.12	20243.29
541.29	20273.72
541.46	20332.23
541.62	20341.60
541.79	20851.83
541.96	20133.29
542.13	20386.07
542.30	20582.67
542.47	20533.52
542.63	20339.26
542.80	20439.90
542.97	21025.03
543.14	20552.24
543.31	20648.21
543.48	20823.75
543.64	21163.12
543.81	20746.51
543.98	21062.48
544.15	20734.81
544.32	20788.64
544.48	20875.24
544.65	20964.18
544.82	20985.24
544.99	20978.22
545.16	20807.36
545.32	21172.49
545.49	21521.23
545.66	21439.31
545.83	21862.94
546.00	21834.86
546.16	21413.56
546.33	21289.51
546.50	21219.30
546.67	21235.68
546.83	20980.56
547.00	21022.69
547.17	20847.15
547.34	21123.33
547.50	20922.05
547.67	20713.74
547.84	21008.65
548.00	21193.55
548.17	21324.62
548.34	21139.72
548.51	21170.15
548.67	21032.05
548.84	21137.38
549.01	21081.21
549.18	21160.78
549.34	20919.71
549.51	21254.40
549.68	21245.04
549.84	21036.74
550.01	21252.06
550.18	20943.11
550.34	21198.23
550.51	21209.93
550.68	21050.78
550.84	20807.36
551.01	20996.95
551.18	21128.02
551.34	20903.32
551.51	21317.60
551.68	21195.89
551.84	21025.03
552.01	21156.10
552.18	21259.09
552.34	21301.22
552.51	21333.98
552.68	21366.75
552.84	21120.99
553.01	21235.68
553.18	21455.69
553.34	21095.25
553.51	20980.56
553.67	21369.09
553.84	21825.50
554.01	21668.68
554.17	21411.22
554.34	21490.80
554.51	21537.61
554.67	21458.03
554.84	21291.85
555.00	21329.30
555.17	21198.23
555.33	21174.83
555.50	21186.53
555.67	21532.93
555.83	21284.83
556.00	21326.96
556.16	21652.30
556.33	21579.74
556.50	21460.37
556.66	21179.51
556.83	21584.42
556.99	21537.61
557.16	21696.77
557.32	21820.81
557.49	21905.07
557.65	21731.87
557.82	21612.51
557.98	21565.70
558.15	21656.98
558.32	21750.60
558.48	21530.59
558.65	21986.99
558.81	21951.88
558.98	21879.33
559.14	22040.82
559.31	21717.83
559.47	21710.81
559.64	21731.87
559.80	21532.93
559.97	21762.30
560.13	21497.82
560.30	21682.72
560.46	21916.78
560.63	21982.31
560.79	21708.47
560.96	22033.80
561.12	21743.58
561.29	21795.07
561.45	22101.68
561.61	22164.87
561.78	21989.33
561.94	21778.68
562.11	22143.81
562.27	22113.38
562.44	21876.99
562.60	22075.93
562.77	21916.78
562.93	21804.43
563.10	21998.70
563.26	21647.61
563.42	22071.25
563.59	22050.19
563.75	21930.82
563.92	22153.17
564.08	21757.62
564.24	22438.72
564.41	22253.81
564.57	21895.71
564.74	22040.82
564.90	22015.08
565.07	22017.42
565.23	21785.71
565.39	22040.82
565.56	22178.92
565.72	21881.67
565.88	22153.17
566.05	21771.66
566.21	21965.93
566.38	21715.49
566.54	21900.39
566.70	22169.55
566.87	22148.49
567.03	22129.77
567.19	22380.20
567.36	22293.60
567.52	21788.05
567.68	22235.09
567.85	22031.46
568.01	22398.93
568.17	22162.53
568.34	22466.80
568.50	22157.85
568.66	22010.40
568.83	22436.38
568.99	21958.91
569.15	22462.12
569.32	22396.59
569.48	22071.25
569.64	22045.51
569.81	22005.72
569.97	21876.99
570.13	22272.54
570.30	21986.99
570.46	22487.87
570.62	22281.90
570.78	22335.73
570.95	21963.59
571.11	22132.11
571.27	22108.70
571.43	22221.05
571.60	22127.42
571.76	21872.31
571.92	22300.62
572.09	22548.72
572.25	22298.28
572.41	22246.79
572.57	22324.03
572.74	22508.93
572.90	22012.74
573.06	22562.76
573.22	22576.81
573.38	22471.48
573.55	22195.30
573.71	22251.47
573.87	22555.74
574.03	21928.48
574.20	22302.96
574.36	21989.33
574.52	22431.69
574.68	22511.27
574.84	22415.31
575.01	22530.00
575.17	22831.93
575.33	22609.58
575.49	22338.07
575.65	22335.73
575.82	22471.48
575.98	22370.84
576.14	22291.26
576.30	22441.06
576.46	22462.12
576.62	22590.85
576.79	22567.45
576.95	22251.47
577.11	22382.54
577.27	22567.45
577.43	22408.29
577.59	22415.31
577.75	22354.46
577.92	22066.57
578.08	22342.75
578.24	22637.66
578.40	22459.78
578.56	22944.27
578.72	22572.13
578.88	22459.78
579.04	22611.92
579.21	22738.30
579.37	22487.87
579.53	22607.23
579.69	22129.77
579.85	22750.01
580.01	22443.40
580.17	22459.78
580.33	22562.76
580.49	22450.42
580.65	22630.64
580.82	22403.61
580.98	22005.72
581.14	22251.47
581.30	22815.54
581.46	22274.88
581.62	22281.90
581.78	22001.04
581.94	22539.36
582.10	22349.78
582.26	22548.72
582.42	22377.86
582.58	22059.55
582.74	22469.14
582.90	22476.16
583.06	22672.77
583.22	22452.76
583.38	22525.32
583.54	22359.14
583.70	22146.15
583.86	22647.02
584.02	22466.80
584.18	22721.92
584.34	22527.66
584.50	22436.38
584.66	22265.52
584.82	22122.74
584.98	22691.49
585.14	22441.06
585.30	22438.72
585.46	22747.67
585.62	22394.25
585.78	22735.96
585.94	22537.02
586.10	22576.81
586.26	22574.47
586.42	22422.33
586.58	22813.20
586.74	22419.99
586.90	22525.32
587.06	22366.16
587.22	22841.29
587.38	22508.93
587.54	22618.94
587.70	22827.24
587.86	22485.53
588.02	22541.70
588.18	22494.89
588.34	22717.24
588.49	22665.75
588.65	22862.35
588.81	22113.38
588.97	22632.98
589.13	22593.19
589.29	22801.50
589.45	22775.75
589.61	22827.24
589.77	22813.20
589.93	22508.93
590.08	22647.02
590.24	22551.06
590.40	22665.75
590.56	22600.21
590.72	22623.62
590.88	22242.11
591.04	22530.00
