SpectraSuite Data File
++++++++++++++++++++++++++++++++++++
Date: Thu Oct 24 13:21:08 EDT 2013
User: stostad
Dark Spectrum Present: No
Reference Spectrum Present: No
Number of Sampled Component Spectra: 1
Spectrometers: USB2+H05261
Integration Time (usec): 100000 (USB2+H05261)
Spectra Averaged: 1 (USB2+H05261)
Boxcar Smoothing: 0 (USB2+H05261)
Correct for Electrical Dark: No (USB2+H05261)
Strobe/Lamp Enabled: No (USB2+H05261)
Correct for Detector Non-linearity: No (USB2+H05261)
Correct for Stray Light: No (USB2+H05261)
Number of Pixels in Processed Spectrum: 2048
>>>>>Begin Processed Spectral Data<<<<<
365.73	524.28
365.92	524.28
366.12	524.28
366.32	477.47
366.52	447.04
366.72	510.24
366.91	470.45
367.11	545.34
367.31	470.45
367.51	489.17
367.70	447.04
367.90	489.17
368.10	526.62
368.30	458.74
368.49	456.40
368.69	451.72
368.89	444.70
369.09	512.58
369.28	521.94
369.48	482.15
369.68	477.47
369.87	491.51
370.07	505.56
370.27	524.28
370.47	585.13
370.66	657.69
370.86	737.27
371.06	739.61
371.25	774.72
371.45	739.61
371.65	723.23
371.84	699.82
372.04	730.25
372.24	767.70
372.44	711.52
372.63	770.04
372.83	779.40
373.03	816.85
373.22	856.64
373.42	805.14
373.62	784.08
373.81	786.42
374.01	802.80
374.21	791.10
374.40	777.06
374.60	858.98
374.79	812.17
374.99	851.96
375.19	849.61
375.38	819.19
375.58	823.87
375.78	751.31
375.97	793.44
376.17	929.19
376.37	809.83
376.56	821.53
376.76	788.76
376.95	807.48
377.15	842.59
377.35	842.59
377.54	800.46
377.74	861.32
377.93	816.85
378.13	894.08
378.33	840.25
378.52	805.14
378.72	830.89
378.91	873.02
379.11	896.43
379.31	800.46
379.50	800.46
379.70	908.13
379.89	898.77
380.09	840.25
380.28	830.89
380.48	880.04
380.68	840.25
380.87	835.57
381.07	901.11
381.26	873.02
381.46	847.27
381.65	805.14
381.85	819.19
382.04	873.02
382.24	868.34
382.43	880.04
382.63	802.80
382.83	898.77
383.02	884.72
383.22	929.19
383.41	950.26
383.61	917.49
383.80	844.93
384.00	882.38
384.19	898.77
384.39	943.24
384.58	868.34
384.78	992.39
384.97	877.70
385.17	912.81
385.36	985.37
385.56	938.55
385.75	908.13
385.95	870.68
386.14	1025.15
386.34	915.15
386.53	947.92
386.72	858.98
386.92	891.74
387.11	908.13
387.31	952.60
387.50	861.32
387.70	905.79
387.89	929.19
388.09	936.21
388.28	847.27
388.48	912.81
388.67	922.17
388.86	966.64
389.06	966.64
389.25	1041.54
389.45	1006.43
389.64	931.53
389.84	997.07
390.03	933.87
390.22	1001.75
390.42	1034.52
390.61	992.39
390.81	1020.47
391.00	1055.58
391.19	1022.81
391.39	917.49
391.58	943.24
391.78	1053.24
391.97	1039.20
392.16	1060.26
392.36	1008.77
392.55	992.39
392.75	1004.09
392.94	961.96
393.13	1036.86
393.33	990.05
393.52	1034.52
393.71	1107.07
393.91	1053.24
394.10	1008.77
394.29	1062.60
394.49	1081.33
394.68	1188.99
394.88	1029.84
395.07	1156.22
395.26	1090.69
395.46	1076.65
395.65	1132.82
395.84	1109.41
396.04	1153.88
396.23	1118.78
396.42	1144.52
396.62	1029.84
396.81	1135.16
397.00	1060.26
397.19	1224.10
397.39	1177.29
397.58	1186.65
397.77	1135.16
397.97	1064.94
398.16	1137.50
398.35	1214.74
398.55	1149.20
398.74	1170.27
398.93	1214.74
399.12	1205.38
399.32	1226.44
399.51	1153.88
399.70	1153.88
399.90	1146.86
400.09	1156.22
400.28	1247.51
400.47	1198.35
400.67	1294.32
400.86	1252.19
401.05	1238.14
401.24	1210.06
401.44	1242.82
401.63	1273.25
401.82	1259.21
402.01	1301.34
402.21	1291.98
402.40	1217.08
402.59	1324.74
402.78	1327.08
402.97	1303.68
403.17	1301.34
403.36	1254.53
403.55	1397.30
403.74	1299.00
403.93	1380.92
404.13	1458.15
404.32	1348.15
404.51	1373.89
404.70	1348.15
404.89	1366.87
405.09	1446.45
405.28	1423.05
405.47	1350.49
405.66	1472.20
405.85	1519.01
406.05	1394.96
406.24	1397.30
406.43	1444.11
406.62	1427.73
406.81	1479.22
407.00	1430.07
407.20	1387.94
407.39	1476.88
407.58	1430.07
407.77	1493.26
407.96	1516.67
408.15	1493.26
408.34	1497.94
408.54	1533.05
408.73	1551.78
408.92	1523.69
409.11	1596.25
409.30	1561.14
409.49	1589.22
409.68	1636.03
409.87	1549.43
410.07	1699.23
410.26	1593.90
410.45	1675.82
410.64	1530.71
410.83	1624.33
411.02	1689.87
411.21	1750.72
411.40	1631.35
411.59	1755.40
411.78	1724.97
411.98	1703.91
412.17	1617.31
412.36	1657.10
412.55	1813.92
412.74	1671.14
412.93	1720.29
413.12	1708.59
413.31	1788.17
413.50	1746.04
413.69	1881.79
413.88	1884.13
414.07	1790.51
414.26	1874.77
414.45	1724.97
414.64	1811.57
414.83	1879.45
415.02	1856.04
415.22	1952.01
415.41	2001.16
415.60	1886.47
415.79	1884.13
415.98	1905.20
416.17	2033.93
416.36	1987.11
416.55	1956.69
416.74	2038.61
416.93	1849.02
417.12	1949.67
417.31	1919.24
417.50	2069.03
417.69	2090.10
417.88	2038.61
418.07	2097.12
418.26	2106.48
418.45	2057.33
418.64	2129.89
418.83	2078.40
419.02	2127.55
419.21	2073.71
419.39	2134.57
419.58	2153.29
419.77	2115.84
419.96	2143.93
420.15	2190.74
420.34	2127.55
420.53	2090.10
420.72	2228.19
420.91	2183.72
421.10	2186.06
421.29	2246.91
421.48	2244.57
421.67	2303.09
421.86	2279.68
422.05	2232.87
422.24	2239.89
422.43	2265.64
422.61	2331.17
422.80	2331.17
422.99	2366.28
423.18	2363.94
423.37	2291.38
423.56	2300.75
423.75	2303.09
423.94	2300.75
424.13	2160.31
424.32	2125.21
424.50	2349.90
424.69	2340.54
424.88	2450.54
425.07	2298.41
425.26	2380.32
425.45	2307.77
425.64	2340.54
425.83	2286.70
426.01	2256.28
426.20	2385.01
426.39	2338.20
426.58	2282.02
426.77	2221.17
426.96	2251.60
427.15	2370.96
427.33	2356.92
427.52	2389.69
427.71	2387.35
427.90	2422.45
428.09	2420.11
428.28	2370.96
428.46	2387.35
428.65	2532.46
428.84	2466.92
429.03	2523.10
429.22	2373.30
429.40	2457.56
429.59	2476.29
429.78	2495.01
429.97	2349.90
430.16	2443.52
430.34	2555.86
430.53	2595.65
430.72	2459.90
430.91	2588.63
431.10	2495.01
431.28	2495.01
431.47	2565.23
431.66	2586.29
431.85	2651.83
432.03	2736.09
432.22	2665.87
432.41	2698.64
432.60	2546.50
432.79	2602.68
432.97	2733.75
433.16	2661.19
433.35	2637.78
433.54	2703.32
433.72	2717.36
433.91	2808.64
434.10	2644.81
434.28	2743.11
434.47	2771.19
434.66	2796.94
434.85	2869.50
435.03	2951.42
435.22	3122.27
435.41	3220.58
435.59	3171.43
435.78	3133.98
435.97	3005.25
436.16	2822.69
436.34	2855.45
436.53	2888.22
436.72	2918.65
436.90	2892.90
437.09	2860.13
437.28	2815.66
437.46	2836.73
437.65	2911.63
437.84	2958.44
438.02	2829.71
438.21	2918.65
438.40	2745.45
438.58	2986.52
438.77	3023.97
438.96	2956.10
439.14	3063.76
439.33	3227.60
439.52	3143.34
439.70	3108.23
439.89	3080.14
440.08	3133.98
440.26	3180.79
440.45	3115.25
440.63	3148.02
440.82	3248.66
441.01	3155.04
441.19	3194.83
441.38	3091.85
441.57	3253.34
441.75	3389.10
441.94	3337.60
442.12	3351.65
442.31	3297.81
442.50	3375.05
442.68	3440.59
442.87	3426.54
443.05	3433.57
443.24	3368.03
443.43	3316.54
443.61	3417.18
443.80	3517.83
443.98	3325.90
444.17	3318.88
444.35	3342.28
444.54	3433.57
444.73	3417.18
444.91	3400.80
445.10	3552.93
445.28	3524.85
445.47	3421.86
445.65	3552.93
445.84	3471.01
446.02	3562.30
446.21	3428.88
446.39	3559.95
446.58	3541.23
446.77	3489.74
446.95	3480.38
447.14	3557.61
447.32	3522.51
447.51	3492.08
447.69	3365.69
447.88	3417.18
448.06	3562.30
448.25	3489.74
448.43	3449.95
448.62	3604.42
448.80	3688.68
448.99	3604.42
449.17	3620.81
449.36	3571.66
449.54	3581.02
449.73	3653.58
449.91	3775.28
450.10	3681.66
450.28	3765.92
450.46	3777.62
450.65	3716.77
450.83	3712.09
451.02	3721.45
451.20	3815.07
451.39	3815.07
451.57	3709.75
451.76	3812.73
451.94	3805.71
452.13	3969.55
452.31	3831.46
452.49	3831.46
452.68	3852.52
452.86	3864.22
453.05	3859.54
453.23	3885.29
453.42	3805.71
453.60	3779.97
453.78	3852.52
453.97	3815.07
454.15	3878.27
454.34	3861.88
454.52	3962.53
454.70	3995.29
454.89	3992.95
455.07	3915.72
455.26	3911.04
455.44	4112.32
455.62	4077.21
455.81	3864.22
455.99	4102.96
456.17	4072.53
456.36	4023.38
456.54	4065.51
456.73	4081.89
456.91	4243.39
457.09	4208.28
457.28	4297.22
457.46	4093.60
457.64	4259.78
457.83	4215.30
458.01	4175.52
458.19	4332.33
458.38	4297.22
458.56	4278.50
458.74	4337.01
458.93	4241.05
459.11	4276.16
459.29	4257.43
459.48	4456.38
459.66	4313.61
459.84	4283.18
460.03	4400.21
460.21	4301.90
460.39	4440.00
460.57	4418.93
460.76	4423.61
460.94	4407.23
461.12	4456.38
461.31	4517.23
461.49	4425.95
461.67	4613.20
461.85	4568.73
462.04	4456.38
462.22	4889.38
462.40	4526.60
462.59	4716.18
462.77	4585.11
462.95	4671.71
463.13	4732.56
463.32	4657.67
463.50	4746.61
463.68	4610.86
463.86	4631.92
464.05	4531.28
464.23	4777.03
464.41	4793.42
464.59	4634.26
464.78	4704.48
464.96	4582.77
465.14	4589.79
465.32	4802.78
465.50	4702.14
465.69	4737.24
465.87	4772.35
466.05	4781.71
466.23	4704.48
466.41	4802.78
466.60	4816.82
466.78	4746.61
466.96	4774.69
467.14	4847.25
467.32	4933.85
467.51	4945.55
467.69	4781.71
467.87	4880.02
468.05	4985.34
468.23	4919.81
468.41	4835.55
468.60	4992.36
468.78	5004.07
468.96	4959.60
469.14	4987.68
469.32	5076.62
469.50	4819.16
469.69	4997.04
469.87	5142.16
470.05	5156.20
470.23	5240.46
470.41	5111.73
470.59	5100.03
470.77	5018.11
470.95	5090.67
471.14	5198.33
471.32	5203.01
471.50	5282.59
471.68	5252.16
471.86	5331.74
472.04	5341.10
472.22	5203.01
472.40	5118.75
472.58	5263.86
472.77	5411.32
472.95	5313.02
473.13	5666.44
473.31	5406.64
473.49	5352.81
473.67	5369.19
473.85	5369.19
474.03	5544.73
474.21	5617.29
474.39	5619.63
474.57	5701.54
474.75	5509.62
474.93	5750.70
475.12	5579.84
475.30	5659.42
475.48	5727.29
475.66	5753.04
475.84	5619.63
476.02	5912.19
476.20	5935.60
476.38	5935.60
476.56	6040.92
476.74	6019.86
476.92	5949.64
477.10	5959.00
477.28	6225.82
477.46	5994.11
477.64	6202.42
477.82	6155.61
478.00	6333.49
478.18	6349.87
478.36	6340.51
478.54	6436.47
478.72	6497.33
478.90	6417.75
479.08	6558.18
479.26	6689.25
479.44	6789.89
479.62	6537.12
479.80	6698.61
479.98	6707.98
480.16	7002.88
480.34	6766.49
480.52	6883.52
480.70	7063.74
480.88	6960.75
481.06	7014.59
481.24	6897.56
481.41	7035.65
481.59	7105.87
481.77	7302.47
481.95	7222.89
482.13	7365.67
482.31	7283.75
482.49	7410.14
482.67	7241.62
482.85	7705.04
483.03	7623.12
483.21	7545.89
483.39	7896.97
483.57	7695.68
483.74	7859.52
483.92	7740.15
484.10	7779.94
484.28	7997.61
484.46	8131.02
484.64	8264.43
484.82	8025.70
485.00	8138.04
485.18	8353.37
485.35	8383.80
485.53	8526.57
485.71	8299.54
485.89	8517.21
486.07	8568.70
486.25	8573.38
486.43	8812.12
486.61	8744.24
486.78	8816.80
486.96	8809.78
487.14	8952.55
487.32	8872.97
487.50	9118.73
487.68	9214.69
487.85	9322.35
488.03	9233.41
488.21	9483.85
488.39	9294.27
488.57	9469.81
488.75	9544.70
488.92	9537.68
489.10	9533.00
489.28	9734.29
489.46	9841.95
489.64	9713.22
489.81	10019.83
489.99	10169.63
490.17	10022.17
490.35	10054.94
490.53	10211.76
490.70	10153.24
490.88	10052.60
491.06	10148.56
491.24	10225.80
491.41	10478.58
491.59	10562.84
491.77	10553.48
491.95	10684.55
492.13	10630.71
492.30	10817.96
492.48	10675.18
492.66	10824.98
492.84	10827.32
493.01	10817.96
493.19	10944.34
493.37	11140.95
493.54	11077.76
493.72	11140.95
493.90	11136.27
494.08	11475.65
494.25	11232.23
494.43	11129.25
494.61	11477.99
494.79	11393.73
494.96	11349.26
495.14	11344.58
495.32	11847.79
495.49	11873.54
495.67	11829.07
495.85	11765.87
496.02	12009.29
496.20	11950.78
496.38	11946.09
496.55	12039.72
496.73	12475.06
496.91	12278.45
497.09	12196.53
497.26	12294.83
497.44	12423.56
497.62	12367.39
497.79	12402.50
497.97	12472.71
498.14	12596.76
498.32	12564.00
498.50	12704.43
498.67	12830.82
498.85	12666.98
499.03	12989.97
499.20	12959.55
499.38	12814.43
499.56	13046.15
499.73	13132.75
499.91	12922.10
500.08	13334.03
500.26	13170.19
500.44	13179.56
500.61	13359.78
500.79	13240.41
500.97	13296.58
501.14	13268.50
501.32	13397.23
501.49	13640.64
501.67	13472.12
501.84	13645.32
502.02	13444.04
502.20	13743.63
502.37	13549.36
502.55	13600.85
502.72	13858.31
502.90	14038.53
503.07	13862.99
503.25	13738.94
503.43	13935.55
503.60	13949.59
503.78	13720.22
503.95	13884.06
504.13	14146.20
504.30	14115.77
504.48	14153.22
504.65	14038.53
504.83	14295.99
505.01	14508.98
505.18	14113.43
505.36	14614.30
505.53	14394.29
505.71	14291.31
505.88	14757.08
506.06	14462.17
506.23	14218.75
506.41	14623.67
506.58	14476.21
506.76	14684.52
506.93	14862.40
507.11	14925.60
507.28	15199.44
507.46	14764.10
507.63	14836.66
507.81	15272.00
507.98	14991.13
508.16	14640.05
508.33	14839.00
508.50	15063.69
508.68	15389.02
508.85	15126.88
509.03	15372.64
509.20	15482.64
509.38	15524.77
509.55	15578.61
509.73	15604.35
509.90	15431.15
510.08	15728.40
510.25	15337.53
510.42	15700.31
510.60	15763.51
510.77	15632.44
510.95	15719.04
511.12	15798.62
511.30	15976.50
511.47	15948.41
511.64	15917.98
511.82	15981.18
511.99	15903.94
512.17	16123.95
512.34	16154.38
512.51	16006.92
512.69	16315.87
512.86	16411.84
513.04	16435.24
513.21	16170.76
513.38	16266.72
513.56	16411.84
513.73	16379.07
513.90	16449.28
514.08	16496.10
514.25	16526.52
514.43	16706.74
514.60	16596.74
514.77	16439.92
514.95	16594.40
515.12	16414.18
515.29	16744.19
515.47	16786.32
515.64	16889.31
515.81	16556.95
515.99	16903.35
516.16	17132.72
516.33	16720.79
516.51	17011.01
516.68	17181.87
516.85	17350.39
517.03	17174.85
517.20	17099.95
517.37	16912.71
517.54	17202.94
517.72	17259.11
517.89	17373.80
518.06	17415.93
518.24	17385.50
518.41	16968.88
518.58	17640.62
518.75	17394.86
518.93	17509.55
519.10	17287.20
519.27	17628.92
519.45	17654.66
519.62	17612.53
519.79	17687.43
519.96	17645.30
520.14	17734.24
520.31	17792.75
520.48	17696.79
520.65	17675.73
520.83	17743.60
521.00	18059.57
521.17	17832.54
521.34	17919.14
521.52	17720.20
521.69	18115.75
521.86	18242.14
522.03	18024.47
522.20	18181.28
522.38	17867.65
522.55	18487.89
522.72	18228.09
522.89	18345.12
523.07	18377.89
523.24	18258.52
523.41	18567.47
523.58	18328.74
523.75	18251.50
523.92	18717.26
524.10	18913.87
524.27	18780.46
524.44	18796.84
524.61	18696.20
524.78	18593.22
524.96	18618.96
525.13	18464.49
525.30	18970.04
525.47	19250.91
525.64	19040.26
525.81	18970.04
525.98	18981.74
526.16	18527.68
526.33	19147.92
526.50	19152.60
526.67	19108.13
526.84	19192.39
527.01	19147.92
527.18	18960.68
527.36	19101.11
527.53	19276.65
527.70	19253.25
527.87	19466.24
528.04	19384.32
528.21	19227.50
528.38	19356.23
528.55	19555.18
528.72	19475.60
528.89	19309.42
529.07	19515.39
529.24	19463.90
529.41	19569.22
529.58	19536.45
529.75	19550.49
529.92	19618.37
530.09	19798.59
530.26	19726.04
530.43	19480.28
530.60	19812.63
530.77	19676.88
530.94	19988.18
531.11	19559.86
531.28	19754.12
531.46	20084.14
531.63	19850.08
531.80	20130.95
531.97	19962.43
532.14	20098.18
532.31	20215.21
532.48	20409.47
532.65	20107.54
532.82	20023.28
532.99	20112.22
533.16	19740.08
533.33	19873.49
533.50	20130.95
533.67	20563.95
533.84	20159.03
534.01	20332.23
534.18	20290.10
534.35	20472.67
534.52	20243.29
534.69	20257.34
534.86	20568.63
535.03	20332.23
535.20	20489.05
535.37	20404.79
535.54	20760.55
535.71	20489.05
535.88	20538.20
536.05	20688.00
536.22	20533.52
536.38	20643.52
536.55	20636.50
536.72	20524.16
536.89	20835.45
537.06	20709.06
537.23	20786.30
537.40	20889.28
537.57	20798.00
537.74	21095.25
537.91	20849.49
538.08	20891.62
538.25	20685.65
538.42	20833.11
538.59	21202.91
538.75	21039.08
538.92	20966.52
539.09	21231.00
539.26	20879.92
539.43	21160.78
539.60	20908.01
539.77	21350.37
539.94	21427.60
540.11	21624.21
540.28	21715.49
540.44	21067.16
540.61	21357.39
540.78	21287.17
540.95	21441.65
541.12	21729.53
541.29	21516.54
541.46	21848.90
541.62	21820.81
541.79	21909.75
541.96	21813.79
542.13	22010.40
542.30	21818.47
542.47	22012.74
542.63	22253.81
542.80	22050.19
542.97	22647.02
543.14	22852.99
543.31	22115.72
543.48	22595.53
543.64	22188.28
543.81	22476.16
543.98	22434.03
544.15	22230.41
544.32	22396.59
544.48	22569.79
544.65	22387.22
544.82	22265.52
544.99	22251.47
545.16	22497.23
545.32	22286.58
545.49	22888.10
545.66	23501.32
545.83	23419.40
546.00	23288.33
546.16	22888.10
546.33	22995.76
546.50	22813.20
546.67	22677.45
546.83	22370.84
547.00	22438.72
547.17	22492.55
547.34	22408.29
547.50	22576.81
547.67	22663.41
547.84	22628.30
548.00	22967.68
548.17	22728.94
548.34	22518.29
548.51	22946.61
548.67	23117.47
548.84	22738.30
549.01	22799.16
549.18	23028.53
549.34	22974.70
549.51	22937.25
549.68	22932.57
549.84	22733.62
550.01	22764.05
550.18	22501.91
550.34	22675.11
550.51	22740.64
550.68	23042.57
550.84	22387.22
551.01	22663.41
551.18	22684.47
551.34	22637.66
551.51	22916.19
551.68	22317.01
551.84	22750.01
552.01	22860.01
552.18	22684.47
552.34	22742.99
552.51	22768.73
552.68	22813.20
552.84	23302.37
553.01	22948.95
553.18	22909.16
553.34	23232.16
553.51	23325.78
553.67	23269.61
553.84	23250.88
554.01	23138.54
554.17	22899.80
554.34	23405.36
554.51	23065.98
554.67	23314.08
554.84	23117.47
555.00	22831.93
555.17	22986.40
555.33	23384.29
555.50	22958.31
555.67	23089.38
555.83	23253.22
556.00	23154.92
556.16	23358.55
556.33	23417.06
556.50	22998.10
556.66	23012.15
556.83	23391.31
556.99	23442.81
557.16	23590.26
557.32	23393.65
557.49	23438.12
557.65	23461.53
557.82	23178.33
557.98	23316.42
558.15	23569.19
558.32	23342.16
558.48	23288.33
558.65	23470.89
558.81	23501.32
558.98	23407.70
559.14	23482.59
559.31	23414.72
559.47	23335.14
559.64	23552.81
559.80	23566.85
559.97	23498.98
560.13	23536.43
560.30	23381.95
560.46	23520.04
560.63	23726.01
560.79	23363.23
560.96	23880.49
561.12	23686.22
561.29	23803.25
561.45	23503.66
561.61	23700.26
561.78	23583.24
561.94	23599.62
562.11	23782.18
562.27	24041.98
562.44	23653.45
562.60	23943.68
562.77	23821.97
562.93	23669.84
563.10	23868.78
563.26	23723.67
563.42	23988.15
563.59	23599.62
563.75	24037.30
563.92	24051.34
564.08	24065.39
564.24	23772.82
564.41	23871.12
564.57	24034.96
564.74	23580.90
564.90	24114.54
565.07	24009.22
565.23	23800.91
565.39	23871.12
565.56	23915.59
565.72	23793.89
565.88	23915.59
566.05	23676.86
566.21	23803.25
566.38	23763.46
566.54	24156.67
566.70	23908.57
566.87	24336.89
567.03	24063.05
567.19	24416.47
567.36	24044.32
567.52	24147.31
567.68	24222.20
567.85	23915.59
568.01	23917.93
568.17	23946.02
568.34	24044.32
568.50	24276.04
568.66	24299.44
568.83	24315.83
568.99	23924.96
569.15	24142.63
569.32	23861.76
569.48	24128.58
569.64	24142.63
569.81	24205.82
569.97	23784.52
570.13	24109.86
570.30	24348.59
570.46	23943.68
570.62	23927.30
570.78	23690.90
570.95	24032.62
571.11	24379.02
571.27	24341.57
571.43	23857.08
571.60	24273.70
571.76	24147.31
571.92	24313.48
572.09	24383.70
572.25	24364.98
572.41	24421.15
572.57	24463.28
572.74	24306.46
572.90	24308.80
573.06	24240.93
573.22	23828.99
573.38	24084.11
573.55	24219.86
573.71	24694.99
573.87	24308.80
574.03	23814.95
574.20	24290.08
574.36	24346.25
574.52	24126.24
574.68	24556.90
574.84	24077.09
575.01	24486.68
575.17	24320.51
575.33	24311.14
575.49	24397.74
575.65	24063.05
575.82	24194.12
575.98	24430.51
576.14	24418.81
576.30	24418.81
576.46	24156.67
576.62	24252.63
576.79	24645.84
576.95	24439.87
577.11	24133.26
577.27	24259.65
577.43	24240.93
577.59	24458.60
577.75	24266.67
577.92	24364.98
578.08	24053.69
578.24	24542.86
578.40	24299.44
578.56	24542.86
578.72	24608.39
578.88	24737.12
579.04	24566.26
579.21	24561.58
579.37	24652.86
579.53	24594.35
579.69	24559.24
579.85	24577.97
580.01	24547.54
580.17	24238.59
580.33	24245.61
580.49	24449.24
580.65	24678.61
580.82	24257.31
580.98	24587.33
581.14	24217.52
581.30	24765.21
581.46	24472.64
581.62	24383.70
581.78	24020.92
581.94	24563.92
582.10	24318.17
582.26	24458.60
582.42	24327.53
582.58	24133.26
582.74	24664.57
582.90	24713.72
583.06	24805.00
583.22	24570.94
583.38	24795.64
583.54	24278.38
583.70	24458.60
583.86	24690.31
584.02	24599.03
584.18	24435.19
584.34	24617.75
584.50	24730.10
584.66	24692.65
584.82	24102.84
584.98	24889.26
585.14	24315.83
585.30	24552.22
585.46	24727.76
585.62	24418.81
585.78	24816.70
585.94	24641.16
586.10	24613.07
586.26	24762.87
586.42	24187.10
586.58	24435.19
586.74	24500.73
586.90	24751.17
587.06	24479.66
587.22	24807.34
587.38	24570.94
587.54	24446.90
587.70	24556.90
587.86	24821.38
588.02	25048.41
588.18	24882.24
588.34	24727.76
588.49	24566.26
588.65	24702.01
588.81	24620.10
588.97	24554.56
589.13	24304.12
589.29	24563.92
589.45	24517.11
589.61	24648.18
589.77	24856.49
589.93	24779.25
590.08	25125.65
590.24	25078.84
590.40	24610.73
590.56	24758.19
590.72	24758.19
590.88	24456.26
