SpectraSuite Data File
++++++++++++++++++++++++++++++++++++
Date: Thu Oct 24 13:21:07 EDT 2013
User: stostad
Dark Spectrum Present: No
Reference Spectrum Present: No
Number of Sampled Component Spectra: 1
Spectrometers: USB2+H05261
Integration Time (usec): 100000 (USB2+H05261)
Spectra Averaged: 1 (USB2+H05261)
Boxcar Smoothing: 0 (USB2+H05261)
Correct for Electrical Dark: No (USB2+H05261)
Strobe/Lamp Enabled: No (USB2+H05261)
Correct for Detector Non-linearity: No (USB2+H05261)
Correct for Stray Light: No (USB2+H05261)
Number of Pixels in Processed Spectrum: 2048
>>>>>Begin Processed Spectral Data<<<<<
365.73	465.77
365.92	465.77
366.12	465.77
366.32	458.74
366.52	411.93
366.72	465.77
366.91	489.17
367.11	496.19
367.31	472.79
367.51	390.87
367.70	461.09
367.90	498.53
368.10	447.04
368.30	430.66
368.49	454.06
368.69	521.94
368.89	372.15
369.09	470.45
369.28	472.79
369.48	428.32
369.68	458.74
369.87	519.60
370.07	482.15
370.27	575.77
370.47	603.86
370.66	702.16
370.86	674.07
371.06	718.54
371.25	667.05
371.45	725.57
371.65	699.82
371.84	699.82
372.04	704.50
372.24	716.20
372.44	870.68
372.63	760.67
372.83	737.27
373.03	873.02
373.22	702.16
373.42	739.61
373.62	781.74
373.81	788.76
374.01	844.93
374.21	805.14
374.40	828.55
374.60	858.98
374.79	791.10
374.99	800.46
375.19	765.36
375.38	711.52
375.58	826.21
375.78	779.40
375.97	873.02
376.17	821.53
376.37	830.89
376.56	784.08
376.76	800.46
376.95	793.44
377.15	816.85
377.35	880.04
377.54	903.45
377.74	802.80
377.93	877.70
378.13	814.51
378.33	826.21
378.52	828.55
378.72	781.74
378.91	788.76
379.11	828.55
379.31	798.12
379.50	894.08
379.70	753.65
379.89	828.55
380.09	798.12
380.28	880.04
380.48	814.51
380.68	812.17
380.87	837.91
381.07	821.53
381.26	887.06
381.46	882.38
381.65	861.32
381.85	774.72
382.04	844.93
382.24	884.72
382.43	884.72
382.63	922.17
382.83	947.92
383.02	837.91
383.22	973.66
383.41	807.48
383.61	858.98
383.80	961.96
384.00	894.08
384.19	875.36
384.39	889.40
384.58	842.59
384.78	858.98
384.97	877.70
385.17	877.70
385.36	861.32
385.56	870.68
385.75	912.81
385.95	887.06
386.14	884.72
386.34	959.62
386.53	931.53
386.72	826.21
386.92	978.34
387.11	917.49
387.31	924.51
387.50	936.21
387.70	901.11
387.89	957.28
388.09	875.36
388.28	994.73
388.48	980.68
388.67	933.87
388.86	973.66
389.06	1001.75
389.25	1013.45
389.45	905.79
389.64	947.92
389.84	961.96
390.03	1022.81
390.22	1022.81
390.42	968.98
390.61	959.62
390.81	1001.75
391.00	1036.86
391.19	1025.15
391.39	1050.90
391.58	1006.43
391.78	1032.18
391.97	1062.60
392.16	1022.81
392.36	1041.54
392.55	1015.79
392.75	994.73
392.94	994.73
393.13	992.39
393.33	1029.84
393.52	983.02
393.71	1090.69
393.91	994.73
394.10	959.62
394.29	1135.16
394.49	1067.28
394.68	1130.48
394.88	1060.26
395.07	1116.44
395.26	1048.56
395.46	1062.60
395.65	1086.01
395.84	1053.24
396.04	1158.57
396.23	1179.63
396.42	1067.28
396.62	1128.14
396.81	1109.41
397.00	1163.25
397.19	1097.71
397.39	1081.33
397.58	1093.03
397.77	1093.03
397.97	1153.88
398.16	1137.50
398.35	1170.27
398.55	1125.80
398.74	1231.12
398.93	1256.87
399.12	1174.95
399.32	1191.33
399.51	1186.65
399.70	1086.01
399.90	1149.20
400.09	1163.25
400.28	1308.36
400.47	1233.46
400.67	1282.61
400.86	1186.65
401.05	1291.98
401.24	1289.64
401.44	1261.55
401.63	1224.10
401.82	1275.59
402.01	1224.10
402.21	1226.44
402.40	1296.66
402.59	1214.74
402.78	1284.95
402.97	1289.64
403.17	1282.61
403.36	1371.55
403.55	1348.15
403.74	1366.87
403.93	1352.83
404.13	1310.70
404.32	1345.81
404.51	1383.26
404.70	1362.19
404.89	1371.55
405.09	1366.87
405.28	1460.49
405.47	1399.64
405.66	1373.89
405.85	1420.71
406.05	1371.55
406.24	1430.07
406.43	1434.75
406.62	1547.09
406.81	1416.02
407.00	1554.12
407.20	1502.62
407.39	1469.86
407.58	1434.75
407.77	1451.13
407.96	1521.35
408.15	1565.82
408.34	1504.96
408.54	1493.26
408.73	1535.39
408.92	1474.54
409.11	1598.59
409.30	1537.73
409.49	1554.12
409.68	1596.25
409.87	1509.65
410.07	1542.41
410.26	1556.46
410.45	1617.31
410.64	1638.38
410.83	1530.71
411.02	1685.19
411.21	1696.89
411.40	1537.73
411.59	1633.69
411.78	1643.06
411.98	1659.44
412.17	1722.63
412.36	1610.29
412.55	1727.32
412.74	1797.53
412.93	1788.17
413.12	1678.16
413.31	1739.02
413.50	1792.85
413.69	1778.81
413.88	1839.66
414.07	1837.32
414.26	1858.39
414.45	1837.32
414.64	1877.11
414.83	1865.41
415.02	1767.10
415.22	1870.09
415.41	1888.81
415.60	1916.90
415.79	1968.39
415.98	1966.05
416.17	2010.52
416.36	2029.24
416.55	1933.28
416.74	1975.41
416.93	1982.43
417.12	1930.94
417.31	1991.80
417.50	2052.65
417.69	2050.31
417.88	2024.56
418.07	2017.54
418.26	2069.03
418.45	2033.93
418.64	2125.21
418.83	2120.53
419.02	2078.40
419.21	2104.14
419.39	2174.36
419.58	2092.44
419.77	2172.02
419.96	2143.93
420.15	2296.07
420.34	2260.96
420.53	2214.15
420.72	2186.06
420.91	2221.17
421.10	2223.51
421.29	2312.45
421.48	2204.78
421.67	2223.51
421.86	2186.06
422.05	2291.38
422.24	2300.75
422.43	2307.77
422.61	2260.96
422.80	2298.41
422.99	2284.36
423.18	2352.24
423.37	2429.48
423.56	2263.30
423.75	2282.02
423.94	2216.49
424.13	2176.70
424.32	2305.43
424.50	2356.92
424.69	2389.69
424.88	2361.60
425.07	2282.02
425.26	2209.47
425.45	2324.15
425.64	2307.77
425.83	2218.83
426.01	2300.75
426.20	2385.01
426.39	2452.88
426.58	2326.49
426.77	2331.17
426.96	2324.15
427.15	2338.20
427.33	2406.07
427.52	2331.17
427.71	2422.45
427.90	2375.64
428.09	2422.45
428.28	2422.45
428.46	2520.76
428.65	2410.75
428.84	2502.03
429.03	2502.03
429.22	2530.12
429.40	2497.35
429.59	2544.16
429.78	2415.43
429.97	2385.01
430.16	2485.65
430.34	2502.03
430.53	2532.46
430.72	2518.42
430.91	2590.97
431.10	2565.23
431.28	2605.02
431.47	2586.29
431.66	2661.19
431.85	2597.99
432.03	2600.34
432.22	2551.18
432.41	2621.40
432.60	2651.83
432.79	2658.85
432.97	2626.08
433.16	2731.41
433.35	2581.61
433.54	2738.43
433.72	2738.43
433.91	2668.21
434.10	2684.59
434.28	2736.09
434.47	2752.47
434.66	2698.64
434.85	2839.07
435.03	2867.16
435.22	3101.21
435.41	3169.09
435.59	3005.25
435.78	2995.89
435.97	2902.26
436.16	2822.69
436.34	2916.31
436.53	3014.61
436.72	2937.37
436.90	2913.97
437.09	2876.52
437.28	2799.28
437.46	2885.88
437.65	2850.77
437.84	2867.16
438.02	2895.24
438.21	2937.37
438.40	2925.67
438.58	3038.02
438.77	3082.49
438.96	2956.10
439.14	3059.08
439.33	3080.14
439.52	3075.46
439.70	3110.57
439.89	3145.68
440.08	3105.89
440.26	3080.14
440.45	3110.57
440.63	3192.49
440.82	3155.04
441.01	3201.85
441.19	3166.74
441.38	3152.70
441.57	3225.26
441.75	3192.49
441.94	3372.71
442.12	3389.10
442.31	3370.37
442.50	3403.14
442.68	3342.28
442.87	3417.18
443.05	3435.91
443.24	3517.83
443.43	3391.44
443.61	3482.72
443.80	3585.70
443.98	3421.86
444.17	3368.03
444.35	3323.56
444.54	3548.25
444.73	3611.45
444.91	3426.54
445.10	3452.29
445.28	3431.23
445.47	3438.25
445.65	3480.38
445.84	3508.46
446.02	3520.17
446.21	3648.90
446.39	3487.40
446.58	3588.04
446.77	3492.08
446.95	3407.82
447.14	3393.78
447.32	3566.98
447.51	3489.74
447.69	3489.74
447.88	3564.64
448.06	3602.08
448.25	3454.63
448.43	3623.15
448.62	3557.61
448.80	3541.23
448.99	3634.85
449.17	3595.06
449.36	3480.38
449.54	3754.22
449.73	3712.09
449.91	3700.39
450.10	3557.61
450.28	3693.37
450.46	3744.86
450.65	3810.39
450.83	3672.30
451.02	3772.94
451.20	3798.69
451.39	3730.81
451.57	3803.37
451.76	3768.26
451.94	3819.75
452.13	3892.31
452.31	3836.14
452.49	3826.78
452.68	3777.62
452.86	3948.48
453.05	3943.80
453.23	3730.81
453.42	3742.52
453.60	3744.86
453.78	3822.09
453.97	3822.09
454.15	3904.01
454.34	3969.55
454.52	3925.08
454.70	4016.36
454.89	3840.82
455.07	3939.12
455.26	4035.08
455.44	3990.61
455.62	3964.87
455.81	3934.44
455.99	3936.78
456.17	4079.55
456.36	4093.60
456.54	4154.45
456.73	4194.24
456.91	4177.86
457.09	4180.20
457.28	4102.96
457.46	4007.00
457.64	4241.05
457.83	4285.52
458.01	4114.66
458.19	4194.24
458.38	4159.13
458.56	4152.11
458.74	4379.14
458.93	4313.61
459.11	4224.67
459.29	4159.13
459.48	4252.75
459.66	4318.29
459.84	4327.65
460.03	4362.76
460.21	4409.57
460.39	4395.53
460.57	4250.41
460.76	4580.43
460.94	4458.72
461.12	4456.38
461.31	4538.30
461.49	4454.04
461.67	4524.26
461.85	4468.08
462.04	4353.40
462.22	4734.90
462.40	4521.92
462.59	4608.51
462.77	4404.89
462.95	4575.75
463.13	4547.66
463.32	4444.68
463.50	4491.49
463.68	4660.01
463.86	4704.48
464.05	4594.47
464.23	4652.98
464.41	4587.45
464.59	4519.57
464.78	4685.75
464.96	4540.64
465.14	4540.64
465.32	4716.18
465.50	4702.14
465.69	4688.09
465.87	4695.11
466.05	4889.38
466.23	4734.90
466.41	4861.29
466.60	4945.55
466.78	4791.08
466.96	4734.90
467.14	4638.94
467.32	4840.23
467.51	4758.31
467.69	4678.73
467.87	4863.63
468.05	5029.81
468.23	4823.84
468.41	4940.87
468.60	4877.68
468.78	4884.70
468.96	4887.04
469.14	4880.02
469.32	5125.77
469.50	4800.44
469.69	4985.34
469.87	5043.85
470.05	4957.25
470.23	5050.88
470.41	5128.11
470.59	5172.58
470.77	5109.39
470.95	5097.69
471.14	5289.61
471.32	5083.64
471.50	5228.76
471.68	5153.86
471.86	5221.74
472.04	5322.38
472.22	5383.23
472.40	5313.02
472.58	5273.23
472.77	5275.57
472.95	5394.93
473.13	5500.26
473.31	5348.12
473.49	5416.00
473.67	5357.49
473.85	5523.66
474.03	5495.58
474.21	5591.54
474.39	5481.53
474.57	5416.00
474.75	5582.18
474.93	5589.20
475.12	5675.80
475.30	5731.97
475.48	5643.03
475.66	5537.71
475.84	5671.12
476.02	5720.27
476.20	5809.21
476.38	5849.00
476.56	6017.52
476.74	5839.64
476.92	5933.26
477.10	6040.92
477.28	6003.47
477.46	6162.63
477.64	6150.93
477.82	6368.60
478.00	6279.66
478.18	6324.13
478.36	6272.64
478.54	6286.68
478.72	6300.72
478.90	6459.88
479.08	6635.42
479.26	6707.98
479.44	6647.12
479.62	6621.38
479.80	6623.72
479.98	6780.53
480.16	6707.98
480.34	6633.08
480.52	7040.33
480.70	6817.98
480.88	6885.86
481.06	6956.07
481.24	6925.65
481.41	7229.91
481.59	7166.72
481.77	7129.27
481.95	7246.30
482.13	7220.55
482.31	7419.50
482.49	7403.11
482.67	7536.52
482.85	7543.55
483.03	7506.10
483.21	7648.87
483.39	7571.63
483.57	7688.66
483.74	7595.04
483.92	7925.05
484.10	7747.17
484.28	7733.13
484.46	8002.29
484.64	8072.51
484.82	8013.99
485.00	8241.03
485.18	8126.34
485.35	8346.35
485.53	8180.17
485.71	8524.23
485.89	8652.96
486.07	8315.92
486.25	8503.17
486.43	8573.38
486.61	8622.53
486.78	8624.87
486.96	8922.12
487.14	8819.14
487.32	8877.65
487.50	8915.10
487.68	8997.02
487.85	9064.89
488.03	9312.99
488.21	9329.38
488.39	9378.53
488.57	9387.89
488.75	9254.48
488.92	9619.60
489.10	9439.38
489.28	9514.28
489.46	9781.10
489.64	9373.85
489.81	9699.18
489.99	9937.91
490.17	9764.72
490.35	9966.00
490.53	9970.68
490.70	10228.14
490.88	10293.68
491.06	10307.72
491.24	10223.46
491.41	10305.38
491.59	10328.78
491.77	10272.61
491.95	10541.77
492.13	10541.77
492.30	10672.84
492.48	10499.64
492.66	10726.68
492.84	10862.43
493.01	10658.80
493.19	10871.79
493.37	10932.64
493.54	10911.58
493.72	11192.44
493.90	10986.47
494.08	10953.71
494.25	11307.13
494.43	11311.81
494.61	11283.72
494.79	11220.53
494.96	11353.94
495.14	11356.28
495.32	11398.41
495.49	11639.48
495.67	11468.62
495.85	11702.68
496.02	11545.86
496.20	11709.70
496.38	12131.00
496.55	11920.35
496.73	12304.20
496.91	11927.37
497.09	12152.06
497.26	12224.62
497.44	11983.54
497.62	12313.56
497.79	12395.48
497.97	12152.06
498.14	12571.02
498.32	12475.06
498.50	12461.01
498.67	12606.13
498.85	12671.66
499.03	12858.90
499.20	12622.51
499.38	12910.40
499.56	13114.02
499.73	12865.92
499.91	13055.51
500.08	13090.62
500.26	13001.68
500.44	13008.70
500.61	13027.42
500.79	13226.37
500.97	13378.50
501.14	13289.56
501.32	13493.19
501.49	13345.73
501.67	13270.84
501.84	13617.24
502.02	13453.40
502.20	13720.22
502.37	13516.59
502.55	13579.79
502.72	13757.67
502.90	13593.83
503.07	13624.26
503.25	13776.39
503.43	14087.68
503.60	13909.80
503.78	13841.93
503.95	13940.23
504.13	13994.06
504.30	13872.36
504.48	13893.42
504.65	14120.45
504.83	14113.43
505.01	14448.13
505.18	14174.28
505.36	14623.67
505.53	14286.63
505.71	14471.53
505.88	14523.02
506.06	14307.69
506.23	14469.19
506.41	14476.21
506.58	14630.69
506.76	14272.59
506.93	14789.85
507.11	14703.25
507.28	14815.59
507.46	14661.12
507.63	14792.19
507.81	14764.10
507.98	14787.50
508.16	15044.96
508.33	15176.03
508.50	14977.09
508.68	14951.34
508.85	15321.15
509.03	15171.35
509.20	15365.62
509.38	15360.94
509.55	15300.08
509.73	15269.66
509.90	15370.30
510.08	15211.14
510.25	15150.29
510.42	15473.28
510.60	15627.76
510.77	15494.35
510.95	15676.91
511.12	15475.62
511.30	15910.96
511.47	15964.79
511.64	15690.95
511.82	15824.36
511.99	15833.72
512.17	16053.73
512.34	16166.08
512.51	15969.48
512.69	16020.97
512.86	15896.92
513.04	16180.12
513.21	16198.85
513.38	16201.19
513.56	16404.81
513.73	16259.70
513.90	16236.30
514.08	16486.73
514.25	16503.12
514.43	16439.92
514.60	16615.46
514.77	16528.86
514.95	16559.29
515.12	16411.84
515.29	16603.76
515.47	16793.34
515.64	16762.92
515.81	16699.72
515.99	17006.33
516.16	16779.30
516.33	16751.21
516.51	17104.64
516.68	17020.38
516.85	17151.45
517.03	17081.23
517.20	17214.64
517.37	17027.40
517.54	16858.88
517.72	17200.60
517.89	17160.81
518.06	17216.98
518.24	17348.05
518.41	17362.09
518.58	17359.75
518.75	17193.58
518.93	17502.53
519.10	17284.86
519.27	17472.10
519.45	17500.19
519.62	17577.42
519.79	17675.73
519.96	17472.10
520.14	17572.74
520.31	17603.17
520.48	17467.42
520.65	17617.21
520.83	17727.22
521.00	18017.44
521.17	17605.51
521.34	17802.11
521.52	17963.61
521.69	17944.89
521.86	17848.93
522.03	18078.30
522.20	17862.97
522.38	18356.82
522.55	18251.50
522.72	18242.14
522.89	17965.95
523.07	18387.25
523.24	18148.51
523.41	18513.64
523.58	18104.04
523.75	18295.97
523.92	18216.39
524.10	18284.26
524.27	18321.71
524.44	18551.09
524.61	18565.13
524.78	18867.06
524.96	18635.35
525.13	18850.67
525.30	18932.59
525.47	18857.70
525.64	18689.18
525.81	18686.84
525.98	18815.57
526.16	18537.04
526.33	18649.39
526.50	18948.98
526.67	18593.22
526.84	18869.40
527.01	18712.58
527.18	19112.81
527.36	18965.36
527.53	18668.11
527.70	19344.53
527.87	19119.84
528.04	19110.47
528.21	19442.83
528.38	19044.94
528.55	19222.82
528.72	19276.65
528.89	19386.66
529.07	19185.37
529.24	19105.79
529.41	19229.84
529.58	19372.61
529.75	19328.14
529.92	19346.87
530.09	19506.02
530.26	19571.56
530.43	19552.84
530.60	19414.74
530.77	19496.66
530.94	19822.00
531.11	19594.96
531.28	19798.59
531.46	19901.58
531.63	19751.78
531.80	19618.37
531.97	19655.82
532.14	19878.17
532.31	19637.09
532.48	19847.74
532.65	19941.36
532.82	19983.49
532.99	20065.41
533.16	20034.99
533.33	19796.25
533.50	20119.24
533.67	19896.89
533.84	20081.80
534.01	20250.32
534.18	19990.52
534.35	20360.32
534.52	20042.01
534.69	20229.25
534.86	20149.67
535.03	20023.28
535.20	20011.58
535.37	20144.99
535.54	20404.79
535.71	20334.57
535.88	20556.93
536.05	20154.35
536.22	20437.56
536.38	20650.55
536.55	21025.03
536.72	20269.04
536.89	20673.95
537.06	20800.34
537.23	20673.95
537.40	21198.23
537.57	20931.41
537.74	20500.75
537.91	20903.32
538.08	20945.45
538.25	20526.50
538.42	20840.13
538.59	20814.38
538.75	20884.60
538.92	20767.57
539.09	21088.23
539.26	20732.47
539.43	20964.18
539.60	21219.30
539.77	20851.83
539.94	21394.84
540.11	21135.04
540.28	21095.25
540.44	21231.00
540.61	21310.58
540.78	21231.00
540.95	21500.16
541.12	21542.29
541.29	21771.66
541.46	21844.22
541.62	21944.86
541.79	21701.45
541.96	21820.81
542.13	21713.15
542.30	21923.80
542.47	21891.03
542.63	21975.29
542.80	22181.26
542.97	22277.22
543.14	21989.33
543.31	21956.57
543.48	21853.58
543.64	22260.84
543.81	22253.81
543.98	22448.08
544.15	22183.60
544.32	22321.69
544.48	22321.69
544.65	22352.12
544.82	22370.84
544.99	22281.90
545.16	22223.39
545.32	22424.67
545.49	22806.18
545.66	23131.51
545.83	23119.81
546.00	23175.98
546.16	22841.29
546.33	22806.18
546.50	22977.04
546.67	22644.68
546.83	22340.41
547.00	22473.82
547.17	22183.60
547.34	22118.06
547.50	22689.15
547.67	22607.23
547.84	22246.79
548.00	22822.56
548.17	22843.63
548.34	22340.41
548.51	22384.88
548.67	22455.10
548.84	22551.06
549.01	22785.12
549.18	22635.32
549.34	22628.30
549.51	22515.95
549.68	22768.73
549.84	22497.23
550.01	22232.75
550.18	22553.40
550.34	22595.53
550.51	22614.26
550.68	22565.10
550.84	22558.08
551.01	22635.32
551.18	22625.96
551.34	22445.74
551.51	22600.21
551.68	22335.73
551.84	22607.23
552.01	22450.42
552.18	22630.64
552.34	22689.15
552.51	22864.69
552.68	23065.98
552.84	22780.43
553.01	22897.46
553.18	23101.09
553.34	22911.50
553.51	22775.75
553.67	22815.54
553.84	22890.44
554.01	23026.19
554.17	22862.35
554.34	22944.27
554.51	22960.66
554.67	23080.02
554.84	22604.89
555.00	22665.75
555.17	23133.86
555.33	23129.17
555.50	22857.67
555.67	23140.88
555.83	22785.12
556.00	22930.23
556.16	23077.68
556.33	23285.99
556.50	22939.59
556.66	22740.64
556.83	22948.95
556.99	23089.38
557.16	23398.34
557.32	23501.32
557.49	23126.83
557.65	23091.73
557.82	23129.17
557.98	23016.83
558.15	22794.48
558.32	23239.18
558.48	23161.94
558.65	23227.48
558.81	23051.94
558.98	23096.41
559.14	23428.76
559.31	23190.03
559.47	23264.92
559.64	23473.23
559.80	23213.43
559.97	23562.17
560.13	23201.73
560.30	23419.40
560.46	23314.08
560.63	23604.30
560.79	23470.89
560.96	23789.20
561.12	23393.65
561.29	23421.74
561.45	23339.82
561.61	23264.92
561.78	23426.42
561.94	23183.01
562.11	23754.10
562.27	23211.09
562.44	23613.66
562.60	23594.94
562.77	23482.59
562.93	23620.69
563.10	23604.30
563.26	23484.94
563.42	23812.61
563.59	23260.24
563.75	23632.39
563.92	23620.69
564.08	23592.60
564.24	23625.37
564.41	23882.83
564.57	23962.40
564.74	23517.70
564.90	23800.91
565.07	23648.77
565.23	23821.97
565.39	23398.34
565.56	23789.20
565.72	23658.14
565.88	24025.60
566.05	23709.63
566.21	24002.19
566.38	23506.00
566.54	23634.73
566.70	23693.24
566.87	23817.29
567.03	23943.68
567.19	24126.24
567.36	23915.59
567.52	23805.59
567.68	23903.89
567.85	24093.47
568.01	23850.06
568.17	23728.35
568.34	23733.03
568.50	23784.52
568.66	23887.51
568.83	23936.66
568.99	23943.68
569.15	23784.52
569.32	23718.99
569.48	23861.76
569.64	23552.81
569.81	23976.45
569.97	23693.24
570.13	23590.26
570.30	23831.33
570.46	23922.62
570.62	23630.05
570.78	24126.24
570.95	23878.15
571.11	23786.86
571.27	23826.65
571.43	23583.24
571.60	23695.58
571.76	23812.61
571.92	23683.88
572.09	23889.85
572.25	24301.78
572.41	24091.13
572.57	24229.23
572.74	24144.97
572.90	23960.06
573.06	24175.39
573.22	23784.52
573.38	24203.48
573.55	23779.84
573.71	24114.54
573.87	23999.85
574.03	23948.36
574.20	24013.90
574.36	23999.85
574.52	23843.04
574.68	24006.87
574.84	23899.21
575.01	24173.05
575.17	23763.46
575.33	24444.56
575.49	24416.47
575.65	24144.97
575.82	24093.47
575.98	24098.16
576.14	24187.10
576.30	24566.26
576.46	23906.23
576.62	24350.93
576.79	24025.60
576.95	23950.70
577.11	23967.09
577.27	24355.61
577.43	24217.52
577.59	24238.59
577.75	24308.80
577.92	23695.58
578.08	23974.11
578.24	24269.01
578.40	24182.42
578.56	24409.45
578.72	23992.83
578.88	24453.92
579.04	24308.80
579.21	24350.93
579.37	24159.01
579.53	24325.19
579.69	24205.82
579.85	24102.84
580.01	24514.77
580.17	24386.04
580.33	24320.51
580.49	24100.50
580.65	24126.24
580.82	24105.18
580.98	24182.42
581.14	23976.45
581.30	24372.00
581.46	23840.70
581.62	24217.52
581.78	24093.47
581.94	23985.81
582.10	24088.79
582.26	24432.85
582.42	23957.72
582.58	24402.43
582.74	24622.44
582.90	24559.24
583.06	24437.53
583.22	24290.08
583.38	24201.14
583.54	24341.57
583.70	24404.77
583.86	24428.17
584.02	24453.92
584.18	24575.62
584.34	24109.86
584.50	24533.50
584.66	24091.13
584.82	23868.78
584.98	24196.46
585.14	24240.93
585.30	24287.74
585.46	24400.08
585.62	24119.22
585.78	24273.70
585.94	24245.61
586.10	24133.26
586.26	24250.29
586.42	24484.34
586.58	24091.13
586.74	24198.80
586.90	24573.28
587.06	24512.43
587.22	24463.28
587.38	24334.55
587.54	24903.30
587.70	24442.21
587.86	24524.13
588.02	24566.26
588.18	24477.32
588.34	24184.76
588.49	24627.12
588.65	24460.94
588.81	24407.11
588.97	24404.77
589.13	24435.19
589.29	24517.11
589.45	24163.69
589.61	24180.07
589.77	24521.79
589.93	24814.36
590.08	24709.04
590.24	24512.43
590.40	24500.73
590.56	24421.15
590.72	24400.08
590.88	24339.23
