SpectraSuite Data File
++++++++++++++++++++++++++++++++++++
Date: Thu Oct 24 13:21:24 EDT 2013
User: stostad
Dark Spectrum Present: No
Reference Spectrum Present: No
Number of Sampled Component Spectra: 1
Spectrometers: USB2+H05261
Integration Time (usec): 100000 (USB2+H05261)
Spectra Averaged: 1 (USB2+H05261)
Boxcar Smoothing: 0 (USB2+H05261)
Correct for Electrical Dark: No (USB2+H05261)
Strobe/Lamp Enabled: No (USB2+H05261)
Correct for Detector Non-linearity: No (USB2+H05261)
Correct for Stray Light: No (USB2+H05261)
Number of Pixels in Processed Spectrum: 2048
>>>>>Begin Processed Spectral Data<<<<<
365.73	557.05
365.92	557.05
366.12	557.05
366.32	484.49
366.52	468.11
366.72	500.87
366.91	458.74
367.11	475.13
367.31	489.17
367.51	472.79
367.70	449.38
367.90	468.11
368.10	521.94
368.30	454.06
368.49	519.60
368.69	547.69
368.89	507.90
369.09	519.60
369.28	500.87
369.48	517.26
369.68	596.84
369.87	510.24
370.07	517.26
370.27	617.90
370.47	610.88
370.66	887.06
370.86	905.79
371.06	1062.60
371.25	952.60
371.45	887.06
371.65	924.51
371.84	987.71
372.04	961.96
372.24	961.96
372.44	987.71
372.63	1081.33
372.83	1097.71
373.03	1048.56
373.22	1071.97
373.42	1081.33
373.62	1076.65
373.81	1060.26
374.01	1001.75
374.21	1102.39
374.40	1128.14
374.60	1137.50
374.79	1050.90
374.99	1179.63
375.19	1172.61
375.38	1111.75
375.58	1088.35
375.78	1151.54
375.97	1224.10
376.17	1076.65
376.37	1170.27
376.56	1104.73
376.76	1151.54
376.95	1181.97
377.15	1174.95
377.35	1174.95
377.54	1142.18
377.74	1146.86
377.93	1156.22
378.13	1198.35
378.33	1205.38
378.52	1158.57
378.72	1242.82
378.91	1214.74
379.11	1336.45
379.31	1242.82
379.50	1261.55
379.70	1224.10
379.89	1231.12
380.09	1245.16
380.28	1233.46
380.48	1238.14
380.68	1163.25
380.87	1263.89
381.07	1217.08
381.26	1317.72
381.46	1336.45
381.65	1336.45
381.85	1308.36
382.04	1334.11
382.24	1263.89
382.43	1320.06
382.63	1294.32
382.83	1303.68
383.02	1341.13
383.22	1247.51
383.41	1380.92
383.61	1399.64
383.80	1465.18
384.00	1399.64
384.19	1380.92
384.39	1378.58
384.58	1369.21
384.78	1411.34
384.97	1472.20
385.17	1355.17
385.36	1385.60
385.56	1376.24
385.75	1493.26
385.95	1355.17
386.14	1465.18
386.34	1514.33
386.53	1380.92
386.72	1413.68
386.92	1469.86
387.11	1516.67
387.31	1451.13
387.50	1497.94
387.70	1561.14
387.89	1502.62
388.09	1488.58
388.28	1523.69
388.48	1610.29
388.67	1481.56
388.86	1645.40
389.06	1519.01
389.25	1607.95
389.45	1614.97
389.64	1589.22
389.84	1652.42
390.03	1722.63
390.22	1661.78
390.42	1561.14
390.61	1558.80
390.81	1521.35
391.00	1650.08
391.19	1678.16
391.39	1647.74
391.58	1666.46
391.78	1818.60
391.97	1633.69
392.16	1757.74
392.36	1703.91
392.55	1706.25
392.75	1736.68
392.94	1755.40
393.13	1795.19
393.33	1851.36
393.52	1823.28
393.71	1898.17
393.91	1863.07
394.10	1617.31
394.29	1813.92
394.49	1795.19
394.68	1792.85
394.88	1827.96
395.07	1816.26
395.26	1942.64
395.46	1818.60
395.65	1973.07
395.84	1830.30
396.04	2078.40
396.23	2026.90
396.42	1968.39
396.62	1865.41
396.81	2017.54
397.00	2005.84
397.19	2078.40
397.39	2005.84
397.58	2003.50
397.77	2005.84
397.97	2010.52
398.16	2038.61
398.35	2155.63
398.55	2047.97
398.74	2012.86
398.93	2031.58
399.12	2181.38
399.32	1996.48
399.51	2275.00
399.70	2162.66
399.90	2148.61
400.09	2197.76
400.28	2284.36
400.47	2303.09
400.67	2176.70
400.86	2223.51
401.05	2349.90
401.24	2267.98
401.44	2286.70
401.63	2312.45
401.82	2471.61
402.01	2289.04
402.21	2352.24
402.40	2347.56
402.59	2401.39
402.78	2431.82
402.97	2441.18
403.17	2466.92
403.36	2373.30
403.55	2441.18
403.74	2567.57
403.93	2483.31
404.13	2551.18
404.32	2520.76
404.51	2567.57
404.70	2626.08
404.89	2605.02
405.09	2619.06
405.28	2663.53
405.47	2597.99
405.66	2637.78
405.85	2633.10
406.05	2677.57
406.24	2684.59
406.43	2614.38
406.62	2708.00
406.81	2808.64
407.00	2642.46
407.20	2738.43
407.39	2909.29
407.58	2892.90
407.77	2869.50
407.96	2794.60
408.15	2899.92
408.34	2857.79
408.54	2895.24
408.73	2981.84
408.92	3005.25
409.11	2953.76
409.30	3021.63
409.49	3035.67
409.68	3122.27
409.87	3030.99
410.07	3040.36
410.26	3012.27
410.45	3066.10
410.64	3141.00
410.83	3232.28
411.02	3105.89
411.21	3283.77
411.40	3248.66
411.59	3267.39
411.78	3220.58
411.98	3234.62
412.17	3398.46
412.36	3421.86
412.55	3452.29
412.74	3524.85
412.93	3517.83
413.12	3471.01
413.31	3641.87
413.50	3564.64
413.69	3576.34
413.88	3613.79
414.07	3595.06
414.26	3723.79
414.45	3672.30
414.64	3620.81
414.83	3749.54
415.02	3843.16
415.22	3845.50
415.41	3850.18
415.60	3786.99
415.79	3896.99
415.98	4023.38
416.17	3875.93
416.36	3831.46
416.55	3953.16
416.74	4147.43
416.93	4070.19
417.12	4114.66
417.31	4189.56
417.50	4177.86
417.69	4114.66
417.88	4313.61
418.07	4196.58
418.26	4358.08
418.45	4266.80
418.64	4386.16
418.83	4348.72
419.02	4521.92
419.21	4437.66
419.39	4444.68
419.58	4554.68
419.77	4238.71
419.96	4521.92
420.15	4596.81
420.34	4493.83
420.53	4606.17
420.72	4638.94
420.91	4622.56
421.10	4713.84
421.29	4711.50
421.48	4683.41
421.67	4681.07
421.86	4734.90
422.05	4688.09
422.24	4695.11
422.43	4706.82
422.61	4868.31
422.80	4924.49
422.99	4748.95
423.18	4889.38
423.37	4929.17
423.56	4940.87
423.75	4828.53
423.94	4685.75
424.13	4624.90
424.32	4748.95
424.50	4973.64
424.69	5078.96
424.88	4891.72
425.07	4952.57
425.26	4765.33
425.45	4905.76
425.64	4868.31
425.83	4844.91
426.01	5004.07
426.20	4922.15
426.39	5085.98
426.58	4992.36
426.77	4908.10
426.96	5055.56
427.15	4997.04
427.33	5055.56
427.52	5060.24
427.71	5053.22
427.90	5076.62
428.09	5076.62
428.28	5256.84
428.46	5376.21
428.65	5163.22
428.84	5338.76
429.03	5413.66
429.22	5249.82
429.40	5357.49
429.59	5453.45
429.78	5207.69
429.97	5064.92
430.16	5406.64
430.34	5387.91
430.53	5664.10
430.72	5502.60
430.91	5416.00
431.10	5526.00
431.28	5584.52
431.47	5544.73
431.66	5586.86
431.85	5509.62
432.03	5624.31
432.22	5699.20
432.41	5708.57
432.60	5643.03
432.79	5809.21
432.97	5809.21
433.16	5841.98
433.35	5764.74
433.54	5928.58
433.72	5837.30
433.91	5996.45
434.10	5928.58
434.28	5827.93
434.47	6019.86
434.66	5891.13
434.85	6094.76
435.03	6244.55
435.22	6094.76
435.41	6410.73
435.59	6260.93
435.78	6473.92
435.97	6408.39
436.16	6204.76
436.34	6104.12
436.53	6111.14
436.72	6380.30
436.90	6274.98
437.09	6256.25
437.28	6424.77
437.46	6263.27
437.65	6146.25
437.84	6417.75
438.02	6509.03
438.21	6560.52
438.40	6394.34
438.58	6722.02
438.77	6715.00
438.96	6626.06
439.14	6700.95
439.33	6771.17
439.52	6871.81
439.70	6916.28
439.89	7035.65
440.08	7030.97
440.26	6869.47
440.45	6890.54
440.63	7150.34
440.82	7229.91
441.01	7236.94
441.19	7201.83
441.38	7265.02
441.57	7234.60
441.75	7295.45
441.94	7524.82
442.12	7435.88
442.31	7548.23
442.50	7480.35
442.68	7508.44
442.87	7595.04
443.05	7742.49
443.24	7805.69
443.43	7838.45
443.61	7676.96
443.80	7978.89
443.98	7808.03
444.17	7358.64
444.35	7784.62
444.54	7880.58
444.73	7859.52
444.91	7784.62
445.10	7950.80
445.28	7915.69
445.47	7857.18
445.65	7751.85
445.84	8112.30
446.02	7992.93
446.21	7962.50
446.39	7875.90
446.58	7969.52
446.77	8035.06
446.95	7815.05
447.14	7978.89
447.32	7997.61
447.51	8196.56
447.69	8105.28
447.88	8196.56
448.06	8212.94
448.25	8196.56
448.43	8065.49
448.62	8154.43
448.80	8072.51
448.99	7990.59
449.17	8484.44
449.36	7927.39
449.54	8184.85
449.73	8442.31
449.91	8580.40
450.10	8493.80
450.28	8580.40
450.46	8493.80
450.65	8477.42
450.83	8346.35
451.02	8688.07
451.20	8826.16
451.39	8418.91
451.57	8758.28
451.76	8582.74
451.94	8678.71
452.13	8690.41
452.31	8793.39
452.49	8643.60
452.68	8795.73
452.86	8905.74
453.05	8795.73
453.23	8887.01
453.42	8964.25
453.60	8805.10
453.78	8966.59
453.97	8847.22
454.15	8952.55
454.34	8961.91
454.52	9303.63
454.70	9200.65
454.89	9085.96
455.07	9294.27
455.26	9163.20
455.44	9235.75
455.62	9415.98
455.81	9359.80
455.99	9303.63
456.17	9465.13
456.36	9474.49
456.54	9446.40
456.73	9561.09
456.91	9645.35
457.09	9757.69
457.28	9809.19
457.46	9699.18
457.64	9848.97
457.83	9937.91
458.01	9638.33
458.19	10033.88
458.38	9893.44
458.56	10008.13
458.74	9886.42
458.93	10106.43
459.11	10033.88
459.29	10141.54
459.48	10106.43
459.66	10136.86
459.84	10391.98
460.03	10363.89
460.21	10265.59
460.39	10356.87
460.57	10279.63
460.76	10445.81
460.94	10382.62
461.12	10492.62
461.31	10424.75
461.49	10293.68
461.67	10539.43
461.85	10853.06
462.04	10520.71
462.22	11094.14
462.40	10951.37
462.59	10761.78
462.77	10647.10
462.95	10569.86
463.13	10878.81
463.32	10619.01
463.50	10949.03
463.68	10874.13
463.86	11131.59
464.05	10864.77
464.23	11016.90
464.41	11154.99
464.59	11070.73
464.78	11377.34
464.96	11007.54
465.14	10963.07
465.32	11157.33
465.50	11384.37
465.69	11288.40
465.87	11349.26
466.05	11162.01
466.23	11133.93
466.41	11321.17
466.60	11508.41
466.78	11250.96
466.96	11386.71
467.14	11412.45
467.32	11585.65
467.51	11641.82
467.69	11332.87
467.87	11620.76
468.05	11541.18
468.23	11653.53
468.41	11639.48
468.60	11805.66
468.78	11800.98
468.96	11578.63
469.14	12063.12
469.32	12046.74
469.50	11805.66
469.69	11978.86
469.87	12116.95
470.05	11918.01
470.23	12100.57
470.41	12156.74
470.59	12100.57
470.77	12215.26
470.95	12238.66
471.14	12695.07
471.32	12250.36
471.50	12528.89
471.68	12463.35
471.86	12475.06
472.04	12439.95
472.22	12758.26
472.40	12737.20
472.58	12959.55
472.77	13022.74
472.95	13022.74
473.13	13392.55
473.31	12917.42
473.49	13179.56
473.67	13261.48
473.85	13085.94
474.03	13607.87
474.21	13378.50
474.39	13816.18
474.57	13380.84
474.75	13659.37
474.93	14008.11
475.12	13720.22
475.30	13888.74
475.48	13774.05
475.66	14148.54
475.84	14024.49
476.02	13998.74
476.20	14171.94
476.38	14274.93
476.56	14609.62
476.74	14761.76
476.92	14551.11
477.10	14569.83
477.28	14953.68
477.46	15110.50
477.64	15367.96
477.82	15192.42
478.00	15761.17
478.18	15236.89
478.36	15550.52
478.54	16018.63
478.72	15791.59
478.90	16013.95
479.08	16049.05
479.26	16430.56
479.44	16257.36
479.62	16362.69
479.80	16531.20
479.98	16381.41
480.16	17018.04
480.34	16905.69
480.52	17125.70
480.70	17249.75
480.88	16849.52
481.06	17135.06
481.24	17081.23
481.41	17675.73
481.59	17736.58
481.77	17958.93
481.95	18143.83
482.13	18176.60
482.31	18150.85
482.49	18532.36
482.67	18508.96
482.85	18492.57
483.03	18827.27
483.21	19260.27
483.39	19314.10
483.57	19232.18
483.74	19000.47
483.92	19719.01
484.10	19592.62
484.28	19838.38
484.46	20596.71
484.64	20386.07
484.82	20065.41
485.00	20381.38
485.18	20863.54
485.35	21511.86
485.53	21289.51
485.71	21022.69
485.89	21413.56
486.07	21570.38
486.25	21343.35
486.43	21647.61
486.61	21741.24
486.78	22204.66
486.96	22389.56
487.14	22661.07
487.32	22501.91
487.50	22754.69
487.68	22953.63
487.85	22979.38
488.03	23440.47
488.21	23807.93
488.39	23503.66
488.57	23887.51
488.75	24095.82
488.92	23894.53
489.10	24140.29
489.28	24524.13
489.46	25179.48
489.64	24922.02
489.81	25436.94
489.99	25310.55
490.17	25371.41
490.35	25706.10
490.53	25907.39
490.70	26094.63
490.88	25568.01
491.06	26281.88
491.24	26583.80
491.41	26223.36
491.59	26820.20
491.77	26759.34
491.95	26979.36
492.13	27197.02
492.30	27445.12
492.48	27307.03
492.66	27330.44
492.84	27896.85
493.01	28142.60
493.19	28070.04
493.37	28442.19
493.54	28835.40
493.72	28636.45
493.90	28517.09
494.08	29078.82
494.25	28861.15
494.43	29369.04
494.61	29509.47
494.79	29441.60
494.96	29689.70
495.14	29727.14
495.32	30176.53
495.49	30197.59
495.67	30506.54
495.85	30539.31
496.02	30981.67
496.20	30693.79
496.38	31220.41
496.55	31222.75
496.73	31927.25
496.91	31519.99
497.09	31246.15
497.26	31742.35
497.44	31882.78
497.62	31999.80
497.79	32222.16
497.97	32505.36
498.14	32706.65
498.32	32767.50
498.50	32938.36
498.67	33167.73
498.85	33163.05
499.03	33209.86
499.20	33574.98
499.38	33497.75
499.56	34017.35
499.73	33799.68
499.91	33912.02
500.08	33940.11
500.26	34057.14
500.44	34291.19
500.61	34602.48
500.79	34572.05
500.97	35108.04
501.14	34941.86
501.32	35269.53
501.49	35461.46
501.67	35133.78
501.84	35508.27
502.02	35416.99
502.20	35676.79
502.37	35817.22
502.55	35456.78
502.72	35910.84
502.90	35868.71
503.07	36102.76
503.25	36170.64
503.43	35758.70
503.60	36105.10
503.78	36563.85
503.95	36465.55
504.13	36631.72
504.30	37057.70
504.48	36893.86
504.65	36877.48
504.83	37280.05
505.01	37813.70
505.18	37591.34
505.36	37228.56
505.53	37413.46
505.71	38391.81
505.88	38391.81
506.06	38014.98
506.23	38209.25
506.41	38120.31
506.58	38057.11
506.76	38010.30
506.93	38616.50
507.11	38714.80
507.28	38899.70
507.46	38742.89
507.63	39358.45
507.81	39122.05
507.98	38955.88
508.16	38637.56
508.33	39260.15
508.50	39791.45
508.68	39629.95
508.85	39828.90
509.03	39896.77
509.20	39714.21
509.38	40165.93
509.55	40732.34
509.73	40465.52
509.90	40456.16
510.08	40758.09
510.25	40781.49
510.42	40851.71
510.60	41003.85
510.77	40978.10
510.95	41469.61
511.12	40847.03
511.30	41001.50
511.47	41883.89
511.64	41322.16
511.82	41937.72
511.99	41586.64
512.17	41827.71
512.34	42171.77
512.51	42808.40
512.69	42206.88
512.86	42534.56
513.04	42930.11
513.21	42260.71
513.38	43178.20
513.56	42724.14
513.73	43075.22
513.90	42916.06
514.08	43180.54
514.25	43421.62
514.43	43363.11
514.60	43482.47
514.77	43250.76
514.95	43384.17
515.12	43498.86
515.29	44051.22
515.47	44257.19
515.64	44086.33
515.81	44088.67
515.99	44542.74
516.16	43976.33
516.33	44156.55
516.51	44493.58
516.68	44336.77
516.85	44575.50
517.03	44737.00
517.20	44966.37
517.37	44666.78
517.54	44870.41
517.72	44739.34
517.89	44968.71
518.06	45160.64
518.24	45427.46
518.41	45673.21
518.58	45242.56
518.75	45188.72
518.93	45387.67
519.10	45368.94
519.27	45872.16
519.45	45874.50
519.62	45970.46
519.79	46052.38
519.96	45675.55
520.14	46384.74
520.31	45951.74
520.48	46216.22
520.65	46256.01
520.83	46597.73
521.00	46756.88
521.17	46787.31
521.34	46930.08
521.52	47037.75
521.69	46784.97
521.86	47061.15
522.03	47023.70
522.20	47255.42
522.38	47599.47
522.55	47693.10
522.72	47566.71
522.89	47782.04
523.07	47690.76
523.24	47531.60
523.41	48336.74
523.58	47349.04
523.75	48271.21
523.92	48079.28
524.10	48425.68
524.27	48278.23
524.44	48151.84
524.61	48006.73
524.78	48271.21
524.96	48252.48
525.13	48933.58
525.30	49001.46
525.47	49228.49
525.64	48842.30
525.81	48556.75
525.98	49453.18
526.16	48870.39
526.33	48575.48
526.50	49308.07
526.67	48985.07
526.84	49404.03
527.01	49485.95
527.18	49605.31
527.36	49359.56
527.53	49474.24
527.70	50014.91
527.87	49790.22
528.04	50085.12
528.21	50089.80
528.38	49846.39
528.55	50082.78
528.72	49989.16
528.89	50045.33
529.07	49600.63
529.24	50216.19
529.41	50527.48
529.58	50534.51
529.75	50555.57
529.92	50468.97
530.09	50536.85
530.26	50415.14
530.43	50351.94
530.60	50574.30
530.77	50232.58
530.94	51217.94
531.11	50557.91
531.28	50777.92
531.46	51023.68
531.63	50693.66
531.80	51065.81
531.97	51103.26
532.14	51587.75
532.31	50808.35
532.48	51133.68
532.65	51683.71
532.82	51327.95
532.99	51339.65
533.16	51327.95
533.33	51767.97
533.50	51859.25
533.67	51985.64
533.84	51377.10
534.01	51199.22
534.18	51519.87
534.35	51889.68
534.52	51627.54
534.69	52170.54
534.86	52037.13
535.03	51730.52
535.20	52072.24
535.37	51913.08
535.54	52430.34
535.71	52388.21
535.88	52435.02
536.05	52273.52
536.22	52266.50
536.38	52355.44
536.55	52348.42
536.72	52603.54
536.89	52205.65
537.06	52694.82
537.23	52821.21
537.40	52722.91
537.57	52622.26
537.74	52725.25
537.91	53057.60
538.08	52774.40
538.25	52868.02
538.42	53237.83
538.59	53151.23
538.75	53345.49
538.92	53146.54
539.09	53029.52
539.26	53034.20
539.43	53109.10
539.60	53162.93
539.77	53413.37
539.94	53647.42
540.11	53549.12
540.28	53792.53
540.44	53717.64
540.61	53563.16
540.78	53546.78
540.95	53804.24
541.12	53521.03
541.29	53546.78
541.46	53659.12
541.62	53867.43
541.79	53921.26
541.96	53827.64
542.13	53818.28
542.30	53656.78
542.47	53942.33
542.63	53956.37
542.80	53942.33
542.97	54674.91
543.14	54571.93
543.31	54632.78
543.48	54190.42
543.64	54768.54
543.81	54637.47
543.98	54639.81
544.15	54497.03
544.32	54703.00
544.48	54887.90
544.65	54408.09
544.82	54752.15
544.99	54593.00
545.16	54815.35
545.32	54805.98
545.49	54897.27
545.66	55229.62
545.83	55341.97
546.00	55456.65
546.16	55262.39
546.33	55093.87
546.50	54866.84
546.67	54892.58
546.83	54466.61
547.00	54815.35
547.17	55061.10
547.34	54747.47
547.50	55288.13
547.67	55480.06
547.84	55283.45
548.00	55526.87
548.17	55716.45
548.34	55325.58
548.51	55337.29
548.67	55332.60
548.84	55302.18
549.01	55615.81
549.18	55494.10
549.34	55477.72
549.51	55728.16
549.68	55503.46
549.84	55744.54
550.01	55786.67
550.18	55356.01
550.34	55550.27
550.51	55641.56
550.68	55625.17
550.84	55763.26
551.01	55903.70
551.18	55700.07
551.34	55561.98
551.51	55540.91
551.68	55992.64
551.84	55751.56
552.01	55674.32
552.18	55714.11
552.34	56051.15
552.51	56273.50
552.68	56107.32
552.84	55798.37
553.01	56364.78
553.18	55987.95
553.34	56154.13
553.51	55945.83
553.67	56376.48
553.84	56533.30
554.01	56566.07
554.17	56275.84
554.34	56456.06
554.51	56334.35
554.67	56636.28
554.84	55983.27
555.00	56172.86
555.17	56210.31
555.33	56308.61
555.50	56554.36
555.67	56631.60
555.83	56493.51
556.00	56432.66
556.16	56767.35
556.33	56474.79
556.50	56481.81
556.66	56591.81
556.83	56334.35
556.99	56706.50
557.16	56750.97
557.32	56772.03
557.49	56846.93
557.65	56671.39
557.82	56837.57
557.98	56875.02
558.15	56793.10
558.32	56914.81
558.48	56765.01
558.65	56860.97
558.81	56825.87
558.98	57050.56
559.14	56985.02
559.31	56872.68
559.47	56846.93
559.64	57038.86
559.80	56985.02
559.97	57083.33
560.13	56816.50
560.30	57041.20
560.46	56970.98
560.63	57207.37
560.79	57148.86
560.96	57427.38
561.12	57324.40
561.29	56907.79
561.45	57134.82
561.61	57130.14
561.78	57258.87
561.94	57462.49
562.11	57371.21
562.27	57198.01
562.44	57457.81
562.60	57528.03
562.77	57504.62
562.93	57001.41
563.10	57464.83
563.26	57195.67
563.42	57513.98
563.59	57364.19
563.75	57565.48
563.92	57375.89
564.08	57581.86
564.24	57478.88
564.41	57343.12
564.57	57584.20
564.74	57277.59
564.90	57172.27
565.07	57764.42
565.23	57602.92
565.39	57792.51
565.56	57825.28
565.72	57726.97
565.88	57530.37
566.05	57518.67
566.21	57567.82
566.38	57499.94
566.54	57446.11
566.70	57750.38
566.87	57893.15
567.03	57855.70
567.19	58143.59
567.36	58026.56
567.52	57806.55
567.68	57792.51
567.85	57806.55
568.01	57738.68
568.17	57621.65
568.34	57710.59
568.50	57401.64
568.66	57785.49
568.83	57897.83
568.99	57748.04
569.15	57822.93
569.32	57616.97
569.48	57719.95
569.64	57797.19
569.81	57808.89
569.97	57867.40
570.13	57804.21
570.30	57762.08
570.46	57993.79
570.62	58019.54
570.78	58033.58
570.95	58014.86
571.11	57881.45
571.27	57708.25
571.43	57764.42
571.60	57879.11
571.76	57626.33
571.92	58066.35
572.09	58305.09
572.25	58239.55
572.41	58145.93
572.57	58291.04
572.74	58197.42
572.90	58038.26
573.06	57883.79
573.22	57996.13
573.38	57996.13
573.55	57907.19
573.71	58216.14
573.87	58192.74
574.03	57883.79
574.20	58129.54
574.36	58078.05
574.52	58174.02
574.68	58225.51
574.84	58312.11
575.01	58073.37
575.17	58335.51
575.33	58087.42
575.49	58094.44
575.65	58174.02
575.82	58248.91
575.98	58038.26
576.14	58108.48
576.30	58307.43
576.46	58129.54
576.62	57897.83
576.79	58150.61
576.95	57944.64
577.11	58260.62
577.27	58218.49
577.43	58326.15
577.59	58239.55
577.75	58239.55
577.92	58145.93
578.08	58326.15
578.24	57932.94
578.40	58202.10
578.56	58258.27
578.72	58286.36
578.88	58436.16
579.04	58461.90
579.21	58335.51
579.37	58337.85
579.53	58056.99
579.69	58230.19
579.85	58267.64
580.01	58197.42
580.17	58120.18
580.33	58295.72
580.49	58464.24
580.65	58316.79
580.82	58351.90
580.98	58045.29
581.14	58305.09
581.30	58342.53
581.46	58302.74
581.62	58328.49
581.78	58024.22
581.94	58305.09
582.10	58274.66
582.26	58326.15
582.42	58614.04
582.58	58284.02
582.74	58340.19
582.90	58522.76
583.06	58387.00
583.22	58396.37
583.38	58363.60
583.54	58351.90
583.70	58150.61
583.86	58403.39
584.02	58569.57
584.18	58508.71
584.34	58501.69
584.50	58501.69
584.66	58382.32
584.82	58321.47
584.98	58592.97
585.14	58342.53
585.30	58328.49
585.46	58466.58
585.62	58239.55
585.78	58534.46
585.94	58363.60
586.10	58555.52
586.26	58403.39
586.42	58665.53
586.58	58590.63
586.74	58646.80
586.90	58234.87
587.06	58539.14
587.22	58637.44
587.38	58738.08
587.54	58885.54
587.70	58805.96
587.86	58525.10
588.02	58812.98
588.18	58712.34
