SpectraSuite Data File
++++++++++++++++++++++++++++++++++++
Date: Thu Oct 24 13:21:42 EDT 2013
User: stostad
Dark Spectrum Present: No
Reference Spectrum Present: No
Number of Sampled Component Spectra: 1
Spectrometers: USB2+H05261
Integration Time (usec): 100000 (USB2+H05261)
Spectra Averaged: 1 (USB2+H05261)
Boxcar Smoothing: 0 (USB2+H05261)
Correct for Electrical Dark: No (USB2+H05261)
Strobe/Lamp Enabled: No (USB2+H05261)
Correct for Detector Non-linearity: No (USB2+H05261)
Correct for Stray Light: No (USB2+H05261)
Number of Pixels in Processed Spectrum: 2048
>>>>>Begin Processed Spectral Data<<<<<
365.73	608.54
365.92	608.54
366.12	608.54
366.32	514.92
366.52	568.75
366.72	496.19
366.91	442.36
367.11	458.74
367.31	444.70
367.51	484.49
367.70	472.79
367.90	421.30
368.10	500.87
368.30	514.92
368.49	507.90
368.69	484.49
368.89	489.17
369.09	517.26
369.28	528.96
369.48	540.66
369.68	472.79
369.87	545.34
370.07	589.82
370.27	526.62
370.47	800.46
370.66	1125.80
370.86	1266.23
371.06	1322.40
371.25	1306.02
371.45	1287.29
371.65	1460.49
371.84	1315.38
372.04	1322.40
372.24	1455.81
372.44	1434.75
372.63	1509.65
372.83	1507.30
373.03	1495.60
373.22	1504.96
373.42	1563.48
373.62	1535.39
373.81	1418.36
374.01	1561.14
374.21	1535.39
374.40	1476.88
374.60	1619.65
374.79	1523.69
374.99	1549.43
375.19	1575.18
375.38	1603.27
375.58	1605.61
375.78	1638.38
375.97	1572.84
376.17	1600.93
376.37	1617.31
376.56	1614.97
376.76	1640.72
376.95	1732.00
377.15	1654.76
377.35	1666.46
377.54	1629.01
377.74	1584.54
377.93	1717.95
378.13	1708.59
378.33	1746.04
378.52	1802.21
378.72	1809.23
378.91	1802.21
379.11	1699.23
379.31	1788.17
379.50	1809.23
379.70	1849.02
379.89	1818.60
380.09	1809.23
380.28	1818.60
380.48	1919.24
380.68	1834.98
380.87	1886.47
381.07	1930.94
381.26	1937.96
381.46	1923.92
381.65	1954.35
381.85	1956.69
382.04	1952.01
382.24	1975.41
382.43	2012.86
382.63	1966.05
382.83	2047.97
383.02	2097.12
383.22	2097.12
383.41	2071.37
383.61	2026.90
383.80	2111.16
384.00	2069.03
384.19	2064.35
384.39	2136.91
384.58	2162.66
384.78	2122.87
384.97	2155.63
385.17	2193.08
385.36	2132.23
385.56	2181.38
385.75	2101.80
385.95	2165.00
386.14	2303.09
386.34	2134.57
386.53	2190.74
386.72	2284.36
386.92	2270.32
387.11	2186.06
387.31	2249.25
387.50	2200.10
387.70	2298.41
387.89	2361.60
388.09	2321.81
388.28	2335.85
388.48	2352.24
388.67	2361.60
388.86	2499.69
389.06	2375.64
389.25	2537.14
389.45	2469.27
389.64	2462.24
389.84	2443.52
390.03	2621.40
390.22	2530.12
390.42	2593.31
390.61	2525.44
390.81	2513.74
391.00	2569.91
391.19	2572.25
391.39	2686.94
391.58	2633.10
391.78	2597.99
391.97	2640.12
392.16	2607.36
392.36	2747.79
392.55	2745.45
392.75	2810.98
392.94	2710.34
393.13	2600.34
393.33	2724.38
393.52	2785.24
393.71	2843.75
393.91	2878.86
394.10	2832.05
394.29	2841.41
394.49	2911.63
394.68	2864.82
394.88	2916.31
395.07	3000.57
395.26	2937.37
395.46	2972.48
395.65	2904.60
395.84	2958.44
396.04	3066.10
396.23	3080.14
396.42	3185.47
396.62	3260.37
396.81	3141.00
397.00	3143.34
397.19	3232.28
397.39	3236.96
397.58	3239.30
397.77	3159.72
397.97	3400.80
398.16	3215.90
398.35	3328.24
398.55	3297.81
398.74	3375.05
398.93	3379.73
399.12	3304.84
399.32	3201.85
399.51	3382.07
399.70	3613.79
399.90	3421.86
400.09	3454.63
400.28	3604.42
400.47	3508.46
400.67	3501.44
400.86	3625.49
401.05	3524.85
401.24	3634.85
401.44	3698.05
401.63	3756.56
401.82	3763.58
402.01	3728.47
402.21	3803.37
402.40	3775.28
402.59	3763.58
402.78	3871.25
402.97	3789.33
403.17	4042.11
403.36	3911.04
403.55	3892.31
403.74	4056.15
403.93	4182.54
404.13	4046.79
404.32	4124.02
404.51	4042.11
404.70	4138.07
404.89	4039.76
405.09	4208.28
405.28	4170.83
405.47	4304.25
405.66	4255.09
405.85	4201.26
406.05	4348.72
406.24	4404.89
406.43	4273.82
406.62	4320.63
406.81	4540.64
407.00	4269.14
407.20	4304.25
407.39	4538.30
407.58	4547.66
407.77	4594.47
407.96	4507.87
408.15	4648.30
408.34	4629.58
408.54	4575.75
408.73	4737.24
408.92	4500.85
409.11	4858.95
409.30	4805.12
409.49	4915.12
409.68	4753.63
409.87	4868.31
410.07	4929.17
410.26	4959.60
410.45	4985.34
410.64	5048.54
410.83	5076.62
411.02	5146.84
411.21	5242.80
411.40	5015.77
411.59	5310.68
411.78	5268.55
411.98	5284.93
412.17	5425.36
412.36	5401.96
412.55	5490.90
412.74	5507.28
412.93	5509.62
413.12	5451.11
413.31	5593.88
413.50	5636.01
413.69	5561.11
413.88	5755.38
414.07	5767.08
414.26	5898.15
414.45	5797.51
414.64	5944.96
414.83	6031.56
415.02	5982.41
415.22	6190.72
415.41	6160.29
415.60	6115.82
415.79	6113.48
415.98	6356.90
416.17	6363.92
416.36	6317.11
416.55	6305.40
416.74	6494.99
416.93	6452.86
417.12	6532.44
417.31	6642.44
417.50	6614.35
417.69	6775.85
417.88	6729.04
418.07	6705.63
418.26	6820.32
418.45	6932.67
418.64	7112.89
418.83	6925.65
419.02	7037.99
419.21	7171.40
419.39	7227.57
419.58	7136.29
419.77	7185.44
419.96	7197.15
420.15	7428.86
420.34	7363.33
420.53	7140.97
420.72	7349.28
420.91	7492.05
421.10	7482.69
421.29	7578.65
421.48	7323.54
421.67	7623.12
421.86	7602.06
422.05	7613.76
422.24	7761.22
422.43	7595.04
422.61	7508.44
422.80	7887.61
422.99	7740.15
423.18	7658.23
423.37	7716.75
423.56	7686.32
423.75	7798.66
423.94	7714.41
424.13	7098.84
424.32	7719.09
424.50	7866.54
424.69	8049.10
424.88	7976.55
425.07	7875.90
425.26	7791.64
425.45	7786.96
425.64	7712.07
425.83	7686.32
426.01	7992.93
426.20	7843.14
426.39	7861.86
426.58	8100.59
426.77	7885.26
426.96	8091.23
427.15	8131.02
427.33	8109.96
427.52	8119.32
427.71	8341.67
427.90	8156.77
428.09	8362.73
428.28	8341.67
428.46	8521.89
428.65	8219.96
428.84	8592.11
429.03	8571.04
429.22	8397.84
429.40	8678.71
429.59	8547.64
429.78	8245.71
429.97	8205.92
430.16	8655.30
430.34	8664.66
430.53	8863.61
430.72	8791.05
430.91	8884.67
431.10	8865.95
431.28	8931.48
431.47	9083.62
431.66	9011.06
431.85	9083.62
432.03	9210.01
432.22	9329.38
432.41	9053.19
432.60	9193.62
432.79	9291.93
432.97	9430.02
433.16	9523.64
433.35	9303.63
433.54	9502.58
433.72	9481.51
433.91	9788.12
434.10	9837.27
434.28	9528.32
434.47	9699.18
434.66	9778.76
434.85	9881.74
435.03	9940.26
435.22	9891.10
435.41	10281.97
435.59	10391.98
435.78	10258.57
435.97	10111.11
436.16	10118.14
436.34	10148.56
436.53	10188.35
436.72	10469.22
436.90	10132.18
437.09	10333.47
437.28	10249.21
437.46	10377.94
437.65	10586.24
437.84	10569.86
438.02	10513.69
438.21	10530.07
438.40	10509.01
438.58	10876.47
438.77	11007.54
438.96	10927.96
439.14	11005.20
439.33	11019.24
439.52	11288.40
439.70	11360.96
439.89	11349.26
440.08	11510.75
440.26	11391.39
440.45	11712.04
440.63	11789.28
440.82	12067.80
441.01	11499.05
441.19	12013.97
441.38	12081.85
441.57	12002.27
441.75	12346.33
441.94	12404.84
442.12	12414.20
442.31	12561.66
442.50	12578.04
442.68	12809.75
442.87	12484.42
443.05	12404.84
443.24	13013.38
443.43	12678.68
443.61	12812.09
443.80	13242.75
443.98	12812.09
444.17	12540.59
444.35	12858.90
444.54	13130.41
444.73	13036.78
444.91	12894.01
445.10	13011.04
445.28	13074.23
445.47	13104.66
445.65	13163.17
445.84	13422.97
446.02	13256.79
446.21	13165.51
446.39	13062.53
446.58	13294.24
446.77	13380.84
446.95	12968.91
447.14	13097.64
447.32	13504.89
447.51	13202.96
447.69	13579.79
447.88	13516.59
448.06	13202.96
448.25	13490.85
448.43	13607.87
448.62	13509.57
448.80	13146.79
448.99	13558.72
449.17	13757.67
449.36	13635.96
449.54	13844.27
449.73	14083.00
449.91	14057.26
450.10	14155.56
450.28	14436.42
450.46	14045.55
450.65	14141.52
450.83	14361.53
451.02	14221.10
451.20	14541.75
451.39	14604.94
451.57	14361.53
451.76	14366.21
451.94	14244.50
452.13	14583.88
452.31	14778.14
452.49	14726.65
452.68	14714.95
452.86	14628.35
453.05	14813.25
453.23	14920.92
453.42	14913.89
453.60	14820.27
453.78	15124.54
453.97	14843.68
454.15	14923.26
454.34	14834.32
454.52	15220.50
454.70	15417.11
454.89	15325.83
455.07	15419.45
455.26	15351.57
455.44	15632.44
455.62	15655.84
455.81	15803.30
455.99	15606.69
456.17	15782.23
456.36	15833.72
456.54	15690.95
456.73	16233.96
456.91	16578.01
457.09	16315.87
457.28	16622.48
457.46	16226.93
457.64	16620.14
457.83	16713.77
458.01	16592.06
458.19	17043.78
458.38	16697.38
458.56	16889.31
458.74	16678.66
458.93	17011.01
459.11	17289.54
459.29	17041.44
459.48	17104.64
459.66	17167.83
459.84	17165.49
460.03	17554.02
460.21	17664.02
460.39	17444.01
460.57	17657.00
460.76	17717.86
460.94	17872.33
461.12	18012.76
461.31	17582.10
461.49	17767.01
461.67	17860.63
461.85	18342.78
462.04	17982.34
462.22	18640.03
462.40	18548.75
462.59	18284.26
462.77	18258.52
462.95	18635.35
463.13	18293.63
463.32	18471.51
463.50	18684.50
463.68	18754.71
463.86	18761.73
464.05	18164.90
464.23	18579.17
464.41	18780.46
464.59	18515.98
464.78	19351.55
464.96	18981.74
465.14	18909.19
465.32	18838.97
465.50	19330.48
465.69	19590.28
465.87	19536.45
466.05	19115.16
466.23	19475.60
466.41	19494.32
466.60	20049.03
466.78	19543.47
466.96	19344.53
467.14	19421.77
467.32	19569.22
467.51	19756.46
467.69	19583.26
467.87	19578.58
468.05	20011.58
468.23	19810.29
468.41	19878.17
468.60	20084.14
468.78	20187.12
468.96	20030.30
469.14	20643.52
469.32	20751.19
469.50	20322.87
469.69	20688.00
469.87	20872.90
470.05	21158.44
470.23	20994.61
470.41	20978.22
470.59	21362.07
470.77	20861.19
470.95	21287.17
471.14	21900.39
471.32	21060.14
471.50	21689.74
471.68	21401.86
471.86	21930.82
472.04	21860.60
472.22	22471.48
472.40	21914.44
472.58	22309.99
472.77	22047.85
472.95	22298.28
473.13	23321.10
473.31	22092.32
473.49	22862.35
473.67	22663.41
473.85	22930.23
474.03	23466.21
474.21	23290.67
474.39	23786.86
474.57	23550.47
474.75	24049.00
474.93	23885.17
475.12	23817.29
475.30	24215.18
475.48	23990.49
475.66	24128.58
475.84	24294.76
476.02	24641.16
476.20	24451.58
476.38	25333.96
476.56	25811.43
476.74	25802.07
476.92	25638.23
477.10	25252.04
477.28	25848.88
477.46	25876.96
477.64	25919.09
477.82	26731.26
478.00	27110.43
478.18	27061.27
478.36	27456.82
478.54	27749.39
478.72	27438.10
478.90	27786.84
479.08	28254.95
479.26	28327.50
479.44	28566.24
479.62	28903.28
479.80	28800.29
479.98	29432.24
480.16	29977.58
480.34	29132.65
480.52	29745.87
480.70	29809.06
480.88	29902.68
481.06	30061.84
481.24	30242.06
481.41	30773.36
481.59	30874.01
481.77	31517.65
481.95	31445.10
482.13	32119.17
482.31	31573.83
482.49	32685.58
482.67	32596.64
482.85	32582.60
483.03	33195.82
483.21	33680.31
483.39	33717.76
483.57	33415.83
483.74	33790.31
483.92	34387.15
484.10	34316.93
484.28	34976.97
484.46	35683.81
484.64	36086.38
484.82	35110.38
485.00	36100.42
485.18	36158.94
485.35	37109.19
485.53	36814.29
485.71	37141.96
485.89	37493.04
486.07	37471.98
486.25	37930.72
486.43	37834.76
486.61	38553.30
486.78	38677.35
486.96	38780.34
487.14	39351.43
487.32	39608.89
487.50	40203.38
487.68	40179.98
487.85	40776.81
488.03	41045.97
488.21	41418.12
488.39	41715.37
488.57	41727.07
488.75	41825.37
488.92	42340.29
489.10	43295.23
489.28	42864.57
489.46	43597.16
489.64	43201.61
489.81	44140.16
489.99	44018.46
490.17	44414.01
490.35	45404.05
490.53	45544.48
490.70	45095.10
490.88	45331.50
491.06	45628.74
491.24	45867.48
491.41	46600.07
491.59	46810.71
491.77	46663.26
491.95	47161.79
492.13	47285.84
492.30	47154.77
492.48	47636.92
492.66	47941.19
492.84	48069.92
493.01	48711.23
493.19	48531.01
493.37	48713.57
493.54	48849.32
493.72	49139.55
493.90	49464.88
494.08	49979.80
494.25	50342.58
494.43	50375.35
494.61	50796.65
494.79	50571.96
494.96	50960.48
495.14	51201.56
495.32	51519.87
495.49	51452.00
495.67	51800.74
495.85	52119.05
496.02	52278.21
496.20	52622.26
496.38	52336.72
496.55	52662.05
496.73	53338.47
496.91	52996.75
497.09	53102.07
497.26	53354.85
497.44	53139.52
497.62	53476.56
497.79	54286.39
497.97	53811.26
498.14	54452.56
498.32	54321.49
498.50	54305.11
498.67	54824.71
498.85	54555.55
499.03	55063.44
499.20	54967.48
499.38	55168.77
499.56	55138.34
499.73	55295.16
499.91	55573.68
500.08	55545.59
500.26	55751.56
500.44	55774.97
500.61	56083.92
500.79	56023.06
500.97	56079.24
501.14	56423.29
501.32	56481.81
501.49	56416.27
501.67	56678.41
501.84	56662.03
502.02	57050.56
502.20	57092.69
502.37	57034.17
502.55	57186.31
502.72	57048.22
502.90	57429.72
503.07	57408.66
503.25	57518.67
503.43	57450.79
503.60	57799.53
503.78	57666.12
503.95	57642.71
504.13	57799.53
504.30	57846.34
504.48	58225.51
504.65	58316.79
504.83	58328.49
505.01	58712.34
505.18	58321.47
505.36	58646.80
505.53	58604.67
505.71	58969.80
505.88	58894.90
506.06	58681.91
506.23	59168.74
506.41	58845.75
506.58	59222.58
506.76	59058.74
506.93	59480.03
507.11	59477.69
507.28	59430.88
507.46	59451.95
507.63	59667.28
507.81	59784.30
507.98	59611.10
508.16	59826.43
508.33	59927.08
508.50	60144.75
508.68	60116.66
508.85	60514.55
509.03	60289.86
509.20	60172.83
509.38	60399.86
509.55	60638.60
509.73	60638.60
509.90	60846.91
510.08	60835.20
510.25	60825.84
510.42	60858.61
510.60	60882.02
510.77	61024.79
510.95	61254.16
511.12	61057.56
511.30	61134.79
511.47	61422.68
511.64	61338.42
511.82	61453.11
511.99	61293.95
512.17	61586.52
512.34	61684.82
512.51	61904.83
512.69	61836.95
512.86	61930.58
513.04	62054.62
513.21	61968.02
513.38	62218.46
513.56	62183.35
513.73	62190.37
513.90	62415.07
514.08	62131.86
514.25	62511.03
514.43	62562.52
514.60	62368.26
514.77	62447.83
514.95	62518.05
515.12	62522.73
515.29	62789.55
515.47	63110.20
515.64	62983.82
515.81	62831.68
515.99	63035.31
516.16	63028.29
516.33	63061.05
516.51	63323.19
516.68	63206.17
516.85	63391.07
517.03	63559.59
517.20	63440.22
517.37	63306.81
517.54	63557.25
517.72	63524.48
517.89	63503.42
518.06	63723.43
518.24	63786.62
518.41	63758.53
518.58	63660.23
518.75	63676.61
518.93	63746.83
519.10	63779.60
519.27	64076.85
519.45	64095.57
519.62	64324.94
519.79	64306.22
519.96	64254.73
520.14	64444.31
520.31	64231.32
520.48	64439.63
520.65	64278.13
520.83	64596.45
521.00	64713.47
521.17	64661.98
521.34	64800.07
521.52	64846.88
521.69	64654.96
521.86	65001.36
522.03	64877.31
522.20	65134.77
522.38	65165.20
522.55	65324.35
522.72	65261.16
522.89	65151.15
523.07	65392.23
523.24	65268.18
523.41	65471.81
523.58	65279.88
523.75	65535.00
523.92	65535.00
524.10	65502.23
524.27	65535.00
524.44	65535.00
524.61	65535.00
524.78	65535.00
524.96	65535.00
525.13	65535.00
525.30	65535.00
525.47	65535.00
525.64	65535.00
525.81	65535.00
525.98	65535.00
526.16	65535.00
526.33	65535.00
526.50	65535.00
526.67	65535.00
526.84	65535.00
527.01	65535.00
527.18	65535.00
527.36	65535.00
527.53	65535.00
527.70	65535.00
527.87	65535.00
528.04	65535.00
528.21	65535.00
528.38	65535.00
528.55	65535.00
528.72	65535.00
528.89	65535.00
529.07	65535.00
529.24	65535.00
529.41	65535.00
529.58	65535.00
529.75	65535.00
529.92	65535.00
530.09	65535.00
530.26	65535.00
530.43	65535.00
530.60	65535.00
530.77	65535.00
530.94	65535.00
531.11	65535.00
531.28	65535.00
531.46	65535.00
531.63	65535.00
531.80	65535.00
531.97	65535.00
532.14	65535.00
532.31	65535.00
532.48	65535.00
532.65	65535.00
532.82	65535.00
532.99	65535.00
533.16	65535.00
533.33	65535.00
533.50	65535.00
533.67	65535.00
533.84	65535.00
534.01	65535.00
534.18	65535.00
534.35	65535.00
534.52	65535.00
534.69	65535.00
534.86	65535.00
535.03	65535.00
535.20	65535.00
535.37	65535.00
535.54	65535.00
535.71	65535.00
535.88	65535.00
536.05	65535.00
536.22	65535.00
536.38	65535.00
536.55	65535.00
536.72	65535.00
536.89	65535.00
537.06	65535.00
537.23	65535.00
537.40	65535.00
537.57	65535.00
537.74	65535.00
537.91	65535.00
538.08	65535.00
538.25	65535.00
538.42	65535.00
538.59	65535.00
538.75	65535.00
538.92	65535.00
539.09	65535.00
539.26	65535.00
539.43	65535.00
539.60	65535.00
539.77	65535.00
539.94	65535.00
540.11	65535.00
540.28	65535.00
540.44	65535.00
540.61	65535.00
540.78	65535.00
540.95	65535.00
541.12	65535.00
541.29	65535.00
541.46	65535.00
541.62	65535.00
541.79	65535.00
541.96	65535.00
542.13	65535.00
542.30	65535.00
542.47	65535.00
542.63	65535.00
542.80	65535.00
542.97	65535.00
543.14	65535.00
543.31	65535.00
543.48	65535.00
543.64	65535.00
543.81	65535.00
543.98	65535.00
544.15	65535.00
544.32	65535.00
544.48	65535.00
544.65	65535.00
544.82	65535.00
544.99	65535.00
545.16	65535.00
545.32	65535.00
545.49	65535.00
545.66	65535.00
545.83	65535.00
546.00	65535.00
546.16	65535.00
546.33	65535.00
546.50	65535.00
546.67	65535.00
546.83	65535.00
547.00	65535.00
547.17	65535.00
547.34	65535.00
547.50	65535.00
547.67	65535.00
547.84	65535.00
548.00	65535.00
548.17	65535.00
548.34	65535.00
548.51	65535.00
548.67	65535.00
548.84	65535.00
549.01	65535.00
549.18	65535.00
549.34	65535.00
549.51	65535.00
549.68	65535.00
549.84	65535.00
550.01	65535.00
550.18	65535.00
550.34	65535.00
550.51	65535.00
550.68	65535.00
550.84	65535.00
551.01	65535.00
551.18	65535.00
551.34	65535.00
551.51	65535.00
551.68	65535.00
551.84	65535.00
552.01	65535.00
552.18	65535.00
552.34	65535.00
552.51	65535.00
552.68	65535.00
552.84	65535.00
553.01	65535.00
553.18	65535.00
553.34	65535.00
553.51	65535.00
553.67	65535.00
553.84	65535.00
554.01	65535.00
554.17	65535.00
554.34	65535.00
554.51	65535.00
554.67	65535.00
554.84	65535.00
555.00	65535.00
555.17	65535.00
555.33	65535.00
555.50	65535.00
555.67	65535.00
555.83	65535.00
556.00	65535.00
556.16	65535.00
556.33	65535.00
556.50	65535.00
556.66	65535.00
556.83	65535.00
556.99	65535.00
557.16	65535.00
557.32	65535.00
557.49	65535.00
557.65	65535.00
557.82	65535.00
557.98	65535.00
558.15	65535.00
558.32	65535.00
558.48	65535.00
558.65	65535.00
558.81	65535.00
558.98	65535.00
559.14	65535.00
559.31	65535.00
559.47	65535.00
559.64	65535.00
559.80	65535.00
559.97	65535.00
560.13	65535.00
560.30	65535.00
560.46	65535.00
560.63	65535.00
560.79	65535.00
560.96	65535.00
561.12	65535.00
561.29	65535.00
561.45	65535.00
561.61	65535.00
561.78	65535.00
561.94	65535.00
562.11	65535.00
562.27	65535.00
562.44	65535.00
562.60	65535.00
562.77	65535.00
562.93	65535.00
563.10	65535.00
563.26	65535.00
563.42	65535.00
563.59	65535.00
563.75	65535.00
563.92	65535.00
564.08	65535.00
564.24	65535.00
564.41	65535.00
564.57	65535.00
564.74	65535.00
564.90	65535.00
565.07	65535.00
565.23	65535.00
565.39	65535.00
565.56	65535.00
565.72	65535.00
565.88	65535.00
566.05	65535.00
566.21	65535.00
566.38	65535.00
566.54	65535.00
566.70	65535.00
566.87	65535.00
567.03	65535.00
567.19	65535.00
567.36	65535.00
567.52	65535.00
567.68	65535.00
567.85	65535.00
568.01	65535.00
568.17	65535.00
568.34	65535.00
568.50	65535.00
568.66	65535.00
568.83	65535.00
568.99	65535.00
569.15	65535.00
569.32	65535.00
569.48	65535.00
569.64	65535.00
569.81	65535.00
569.97	65535.00
570.13	65535.00
570.30	65535.00
570.46	65535.00
570.62	65535.00
570.78	65535.00
570.95	65535.00
571.11	65535.00
571.27	65535.00
571.43	65535.00
571.60	65535.00
571.76	65535.00
571.92	65535.00
572.09	65535.00
572.25	65535.00
572.41	65535.00
572.57	65535.00
572.74	65535.00
572.90	65535.00
573.06	65535.00
573.22	65535.00
573.38	65535.00
573.55	65535.00
573.71	65535.00
573.87	65535.00
574.03	65535.00
574.20	65535.00
574.36	65535.00
574.52	65535.00
574.68	65535.00
574.84	65535.00
575.01	65535.00
575.17	65535.00
575.33	65535.00
575.49	65535.00
575.65	65535.00
575.82	65535.00
575.98	65535.00
576.14	65535.00
576.30	65535.00
576.46	65535.00
576.62	65535.00
576.79	65535.00
576.95	65535.00
577.11	65535.00
577.27	65535.00
577.43	65535.00
577.59	65535.00
577.75	65535.00
577.92	65535.00
578.08	65535.00
578.24	65535.00
578.40	65535.00
578.56	65535.00
578.72	65535.00
578.88	65535.00
579.04	65535.00
579.21	65535.00
579.37	65535.00
579.53	65535.00
579.69	65535.00
579.85	65535.00
580.01	65535.00
580.17	65535.00
580.33	65535.00
580.49	65535.00
580.65	65535.00
580.82	65535.00
580.98	65535.00
581.14	65535.00
581.30	65535.00
581.46	65535.00
581.62	65535.00
581.78	65535.00
581.94	65535.00
582.10	65535.00
582.26	65535.00
582.42	65535.00
582.58	65535.00
582.74	65535.00
582.90	65535.00
583.06	65535.00
583.22	65535.00
583.38	65535.00
583.54	65535.00
583.70	65535.00
583.86	65535.00
584.02	65535.00
584.18	65535.00
584.34	65535.00
584.50	65535.00
584.66	65535.00
584.82	65535.00
584.98	65535.00
585.14	65535.00
585.30	65535.00
585.46	65535.00
585.62	65535.00
585.78	65535.00
585.94	65535.00
586.10	65535.00
586.26	65535.00
586.42	65535.00
586.58	65535.00
586.74	65535.00
586.90	65535.00
