SpectraSuite Data File
++++++++++++++++++++++++++++++++++++
Date: Thu Oct 24 13:21:25 EDT 2013
User: stostad
Dark Spectrum Present: No
Reference Spectrum Present: No
Number of Sampled Component Spectra: 1
Spectrometers: USB2+H05261
Integration Time (usec): 100000 (USB2+H05261)
Spectra Averaged: 1 (USB2+H05261)
Boxcar Smoothing: 0 (USB2+H05261)
Correct for Electrical Dark: No (USB2+H05261)
Strobe/Lamp Enabled: No (USB2+H05261)
Correct for Detector Non-linearity: No (USB2+H05261)
Correct for Stray Light: No (USB2+H05261)
Number of Pixels in Processed Spectrum: 2048
>>>>>Begin Processed Spectral Data<<<<<
365.73	566.41
365.92	566.41
366.12	566.41
366.32	498.53
366.52	461.09
366.72	430.66
366.91	409.59
367.11	428.32
367.31	437.68
367.51	489.17
367.70	463.43
367.90	430.66
368.10	458.74
368.30	423.64
368.49	449.38
368.69	493.85
368.89	451.72
369.09	465.77
369.28	526.62
369.48	498.53
369.68	491.51
369.87	505.56
370.07	538.32
370.27	543.00
370.47	606.20
370.66	868.34
370.86	931.53
371.06	943.24
371.25	985.37
371.45	926.85
371.65	940.90
371.84	922.17
372.04	1032.18
372.24	1008.77
372.44	1036.86
372.63	992.39
372.83	1011.11
373.03	997.07
373.22	1081.33
373.42	1041.54
373.62	1071.97
373.81	1048.56
374.01	1039.20
374.21	1118.78
374.40	1130.48
374.60	1130.48
374.79	1097.71
374.99	1097.71
375.19	1071.97
375.38	1093.03
375.58	1238.14
375.78	1125.80
375.97	1240.48
376.17	1174.95
376.37	1193.67
376.56	1064.94
376.76	1221.76
376.95	1160.91
377.15	1118.78
377.35	1121.12
377.54	1114.10
377.74	1235.80
377.93	1165.59
378.13	1240.48
378.33	1205.38
378.52	1235.80
378.72	1163.25
378.91	1231.12
379.11	1207.72
379.31	1205.38
379.50	1247.51
379.70	1273.25
379.89	1245.16
380.09	1196.01
380.28	1324.74
380.48	1301.34
380.68	1315.38
380.87	1254.53
381.07	1233.46
381.26	1282.61
381.46	1221.76
381.65	1289.64
381.85	1362.19
382.04	1277.93
382.24	1376.24
382.43	1418.36
382.63	1299.00
382.83	1343.47
383.02	1345.81
383.22	1385.60
383.41	1352.83
383.61	1352.83
383.80	1387.94
384.00	1394.96
384.19	1392.62
384.39	1385.60
384.58	1392.62
384.78	1448.79
384.97	1341.13
385.17	1378.58
385.36	1296.66
385.56	1432.41
385.75	1458.15
385.95	1437.09
386.14	1572.84
386.34	1448.79
386.53	1455.81
386.72	1467.52
386.92	1460.49
387.11	1469.86
387.31	1561.14
387.50	1511.99
387.70	1500.28
387.89	1575.18
388.09	1537.73
388.28	1551.78
388.48	1535.39
388.67	1535.39
388.86	1624.33
389.06	1486.24
389.25	1521.35
389.45	1650.08
389.64	1537.73
389.84	1626.67
390.03	1675.82
390.22	1717.95
390.42	1589.22
390.61	1647.74
390.81	1673.48
391.00	1626.67
391.19	1720.29
391.39	1701.57
391.58	1788.17
391.78	1612.63
391.97	1694.55
392.16	1720.29
392.36	1802.21
392.55	1741.36
392.75	1802.21
392.94	1760.08
393.13	1760.08
393.33	1774.13
393.52	1727.32
393.71	1834.98
393.91	1837.32
394.10	1776.47
394.29	1790.51
394.49	1856.04
394.68	1825.62
394.88	1872.43
395.07	1898.17
395.26	1870.09
395.46	1914.56
395.65	1940.30
395.84	1975.41
396.04	2036.27
396.23	1888.81
396.42	1982.43
396.62	2005.84
396.81	2033.93
397.00	1937.96
397.19	2101.80
397.39	2019.88
397.58	2085.42
397.77	2026.90
397.97	2129.89
398.16	2106.48
398.35	2111.16
398.55	2157.97
398.74	2176.70
398.93	2090.10
399.12	2202.44
399.32	2146.27
399.51	2101.80
399.70	2186.06
399.90	2223.51
400.09	2183.72
400.28	2326.49
400.47	2181.38
400.67	2218.83
400.86	2293.72
401.05	2223.51
401.24	2310.11
401.44	2305.43
401.63	2401.39
401.82	2356.92
402.01	2342.88
402.21	2408.41
402.40	2370.96
402.59	2366.28
402.78	2401.39
402.97	2485.65
403.17	2499.69
403.36	2490.33
403.55	2490.33
403.74	2583.95
403.93	2558.21
404.13	2626.08
404.32	2560.55
404.51	2506.71
404.70	2602.68
404.89	2560.55
405.09	2640.12
405.28	2761.83
405.47	2736.09
405.66	2602.68
405.85	2689.28
406.05	2651.83
406.24	2780.56
406.43	2829.71
406.62	2754.81
406.81	2864.82
407.00	2768.85
407.20	2778.22
407.39	2780.56
407.58	2778.22
407.77	2822.69
407.96	2965.46
408.15	3040.36
408.34	2867.16
408.54	3014.61
408.73	2925.67
408.92	2949.08
409.11	3019.29
409.30	3073.12
409.49	3204.19
409.68	2979.50
409.87	3038.02
410.07	3115.25
410.26	3129.30
410.45	3124.62
410.64	3218.24
410.83	3232.28
411.02	3286.11
411.21	3276.75
411.40	3243.98
411.59	3342.28
411.78	3295.47
411.98	3262.71
412.17	3461.65
412.36	3405.48
412.55	3520.17
412.74	3442.93
412.93	3620.81
413.12	3461.65
413.31	3590.38
413.50	3667.62
413.69	3620.81
413.88	3744.86
414.07	3557.61
414.26	3812.73
414.45	3747.20
414.64	3744.86
414.83	3798.69
415.02	3918.06
415.22	3896.99
415.41	3985.93
415.60	3978.91
415.79	4060.83
415.98	3997.64
416.17	3969.55
416.36	3992.95
416.55	4079.55
416.74	4187.22
416.93	4152.11
417.12	4159.13
417.31	4234.03
417.50	4250.41
417.69	4449.36
417.88	4390.84
418.07	4205.94
418.26	4222.33
418.45	4465.74
418.64	4332.33
418.83	4339.35
419.02	4376.80
419.21	4528.94
419.39	4660.01
419.58	4327.65
419.77	4517.23
419.96	4470.42
420.15	4456.38
420.34	4655.33
420.53	4697.46
420.72	4751.29
420.91	4664.69
421.10	4671.71
421.29	4765.33
421.48	4690.43
421.67	4681.07
421.86	4713.84
422.05	4786.40
422.24	4784.06
422.43	4863.63
422.61	4819.16
422.80	4910.44
422.99	4865.97
423.18	4877.68
423.37	4999.38
423.56	4915.12
423.75	4842.57
423.94	4880.02
424.13	4575.75
424.32	4699.80
424.50	4971.30
424.69	4901.08
424.88	4959.60
425.07	5093.01
425.26	4882.36
425.45	4954.91
425.64	4922.15
425.83	4924.49
426.01	4880.02
426.20	4840.23
426.39	4978.32
426.58	5142.16
426.77	4997.04
426.96	5181.95
427.15	4959.60
427.33	5046.20
427.52	5118.75
427.71	5156.20
427.90	5083.64
428.09	5231.10
428.28	5167.90
428.46	5245.14
428.65	5294.29
428.84	5364.51
429.03	5343.44
429.22	5305.99
429.40	5462.81
429.59	5582.18
429.78	5254.50
429.97	5203.01
430.16	5345.78
430.34	5577.50
430.53	5661.76
430.72	5568.13
430.91	5542.39
431.10	5418.34
431.28	5598.56
431.47	5720.27
431.66	5673.46
431.85	5617.29
432.03	5694.52
432.22	5902.83
432.41	5689.84
432.60	5724.95
432.79	5860.70
432.97	5963.68
433.16	5926.24
433.35	5863.04
433.54	5769.42
433.72	5926.24
433.91	6052.63
434.10	6148.59
434.28	5949.64
434.47	6083.05
434.66	6108.80
434.85	6258.59
435.03	6338.17
435.22	6349.87
435.41	6541.80
435.59	6490.31
435.78	6518.39
435.97	6445.84
436.16	6331.15
436.34	6230.51
436.53	6310.08
436.72	6282.00
436.90	6452.86
437.09	6516.05
437.28	6387.32
437.46	6279.66
437.65	6480.94
437.84	6534.78
438.02	6448.18
438.21	6586.27
438.40	6483.28
438.58	6853.09
438.77	6832.02
438.96	6628.40
439.14	6792.23
439.33	7049.69
439.52	7012.24
439.70	7028.63
439.89	7183.10
440.08	7089.48
440.26	7110.55
440.45	6977.14
440.63	7037.99
440.82	7447.58
441.01	7243.96
441.19	7258.00
441.38	7386.73
441.57	7496.74
441.75	7447.58
441.94	7681.64
442.12	7545.89
442.31	7709.72
442.50	7595.04
442.68	7597.38
442.87	7683.98
443.05	7763.56
443.24	7868.88
443.43	7756.54
443.61	7925.05
443.80	8046.76
443.98	7634.83
444.17	7618.44
444.35	7709.72
444.54	8100.59
444.73	7927.39
444.91	7892.29
445.10	7978.89
445.28	7969.52
445.47	8079.53
445.65	7957.82
445.84	8201.24
446.02	8138.04
446.21	8039.74
446.39	7955.48
446.58	8142.72
446.77	8028.04
446.95	8170.81
447.14	8018.68
447.32	8147.40
447.51	8149.75
447.69	8182.51
447.88	8222.30
448.06	8140.38
448.25	8128.68
448.43	8138.04
448.62	8234.00
448.80	7983.57
448.99	8362.73
449.17	8301.88
449.36	8182.51
449.54	8376.78
449.73	8542.96
449.91	8454.02
450.10	8465.72
450.28	8594.45
450.46	8711.47
450.65	8610.83
450.83	8695.09
451.02	8599.13
451.20	8755.94
451.39	8788.71
451.57	8837.86
451.76	8353.37
451.94	8912.76
452.13	8861.27
452.31	8826.16
452.49	8809.78
452.68	9020.42
452.86	9020.42
453.05	8933.82
453.23	9167.88
453.42	9004.04
453.60	9008.72
453.78	9027.45
453.97	9060.21
454.15	9041.49
454.34	9001.70
454.52	9128.09
454.70	9308.31
454.89	9483.85
455.07	9294.27
455.26	9334.06
455.44	9312.99
455.62	9460.45
455.81	9434.70
455.99	9415.98
456.17	9542.36
456.36	9628.96
456.54	9720.24
456.73	9762.37
456.91	9916.85
457.09	9837.27
457.28	9832.59
457.46	9619.60
457.64	9923.87
457.83	10064.30
458.01	9909.83
458.19	10050.26
458.38	10108.77
458.56	10167.29
458.74	10186.01
458.93	10045.58
459.11	10050.26
459.29	10193.03
459.48	10073.67
459.66	10064.30
459.84	10401.34
460.03	10586.24
460.21	10293.68
460.39	10169.63
460.57	10326.44
460.76	10616.67
460.94	10736.04
461.12	10527.73
461.31	10677.52
461.49	10614.33
461.67	10553.48
461.85	10668.16
462.04	10738.38
462.22	11098.82
462.40	10951.37
462.59	10913.92
462.77	10808.59
462.95	10881.15
463.13	10925.62
463.32	10963.07
463.50	11227.55
463.68	11105.84
463.86	11096.48
464.05	11000.52
464.23	11061.37
464.41	11325.85
464.59	11103.50
464.78	11485.01
464.96	11204.14
465.14	11044.99
465.32	10974.77
465.50	11290.74
465.69	11686.29
465.87	11475.65
466.05	11262.66
466.23	11485.01
466.41	11590.33
466.60	11735.45
466.78	11508.41
466.96	11494.37
467.14	11609.06
467.32	11646.51
467.51	11948.43
467.69	11480.33
467.87	11683.95
468.05	11941.41
468.23	11641.82
468.41	11653.53
468.60	11857.15
468.78	12004.61
468.96	11730.76
469.14	12138.02
469.32	12369.73
469.50	11932.05
469.69	12044.40
469.87	12166.10
470.05	12145.04
470.23	12369.73
470.41	12512.50
470.59	12645.91
470.77	12283.13
470.95	12395.48
471.14	12915.08
471.32	12067.80
471.50	12823.80
471.68	12608.47
471.86	12596.76
472.04	12870.61
472.22	13163.17
472.40	12788.69
472.58	12922.10
472.77	13142.11
472.95	13149.13
473.13	13694.47
473.31	13226.37
473.49	13174.88
473.67	13214.66
473.85	13359.78
474.03	13776.39
474.21	13682.77
474.39	13713.20
474.57	13633.62
474.75	13951.93
474.93	13954.27
475.12	13865.33
475.30	13722.56
475.48	14087.68
475.66	14099.39
475.84	14129.81
476.02	14663.46
476.20	14431.74
476.38	14445.79
476.56	14979.43
476.74	14757.08
476.92	15201.78
477.10	14661.12
477.28	14988.79
477.46	15117.52
477.64	15286.04
477.82	15290.72
478.00	16095.86
478.18	15569.24
478.36	15920.32
478.54	15868.83
478.72	16079.48
478.90	16168.42
479.08	16276.09
479.26	16739.51
479.44	16456.31
479.62	16475.03
479.80	16697.38
479.98	16807.39
480.16	17214.64
480.34	17008.67
480.52	17256.77
480.70	17317.62
480.88	17240.39
481.06	17778.71
481.24	17579.76
481.41	17577.42
481.59	18167.24
481.77	18274.90
481.95	18176.60
482.13	18588.53
482.31	18492.57
482.49	19000.47
482.67	18775.78
482.85	19056.64
483.03	18977.06
483.21	19302.40
483.39	19356.23
483.57	19449.85
483.74	19798.59
483.92	19814.98
484.10	19522.41
484.28	20283.08
484.46	20449.26
484.64	20594.37
484.82	20662.25
485.00	20690.34
485.18	21104.61
485.35	21624.21
485.53	21235.68
485.71	21383.13
485.89	21736.56
486.07	21631.23
486.25	21804.43
486.43	21972.95
486.61	22125.08
486.78	22637.66
486.96	22579.15
487.14	23110.45
487.32	22719.58
487.50	23257.90
487.68	23033.21
487.85	23660.48
488.03	23772.82
488.21	23962.40
488.39	23964.75
488.57	24140.29
488.75	24177.73
488.92	24856.49
489.10	24584.99
489.28	25184.16
489.46	25106.93
489.64	25425.24
489.81	25362.04
489.99	25802.07
490.17	25373.75
490.35	26071.23
490.53	26199.96
490.70	26441.03
490.88	26375.50
491.06	26974.67
491.24	26806.16
491.41	26813.18
491.59	27297.67
491.77	27192.34
491.95	27576.19
492.13	27335.12
492.30	27580.87
492.48	27555.13
492.66	27594.92
492.84	28210.48
493.01	28435.17
493.19	28313.46
493.37	28582.62
493.54	28926.68
493.72	29163.08
493.90	29043.71
494.08	29193.50
494.25	29397.13
494.43	29443.94
494.61	29839.49
494.79	29734.17
494.96	30508.88
495.14	30073.54
495.32	30448.03
495.49	30911.46
495.67	30874.01
495.85	31126.78
496.02	31246.15
496.20	31241.47
496.38	31274.24
496.55	31372.54
496.73	32264.28
496.91	31924.91
497.09	32411.74
497.26	32142.58
497.44	31873.42
497.62	32531.11
497.79	33074.11
497.97	32414.08
498.14	32858.78
498.32	33259.01
498.50	33317.53
498.67	33525.83
498.85	33631.16
499.03	33670.95
499.20	34120.33
499.38	34235.02
499.56	34251.40
499.73	34642.27
499.91	34349.70
500.08	34689.08
500.26	34209.27
500.44	34888.03
500.61	35030.80
500.79	34665.67
500.97	35330.39
501.14	35468.48
501.32	35447.41
501.49	35288.26
501.67	35311.66
501.84	35978.72
502.02	35962.33
502.20	36306.39
502.37	36165.96
502.55	36086.38
502.72	36442.14
502.90	36318.09
503.07	36360.22
503.25	36734.71
503.43	36486.61
503.60	36886.84
503.78	37212.18
503.95	37010.89
504.13	37373.67
504.30	37439.21
504.48	37380.70
504.65	37738.80
504.83	38164.78
505.01	38080.52
505.18	37874.55
505.36	38274.78
505.53	37839.44
505.71	38146.05
505.88	38256.06
506.06	38672.67
506.23	38880.98
506.41	38426.92
506.58	38888.00
506.76	38841.19
506.93	39262.49
507.11	39232.06
507.28	39180.57
507.46	39466.11
507.63	39651.02
507.81	39639.31
507.98	39522.29
508.16	39618.25
508.33	39679.10
508.50	39826.56
508.68	40552.12
508.85	40708.94
509.03	40519.35
509.20	40444.46
509.38	40781.49
509.55	40879.80
509.73	41170.02
509.90	40840.01
510.08	41345.56
510.25	41181.73
510.42	41542.17
510.60	41394.71
510.77	41551.53
510.95	41773.88
511.12	41478.97
511.30	41963.46
511.47	41979.85
511.64	42321.57
511.82	42066.45
511.99	42045.38
512.17	42822.44
512.34	42618.81
512.51	43093.94
512.69	43115.01
512.86	42923.08
513.04	43213.31
513.21	43299.91
513.38	43335.02
513.56	43054.15
513.73	42862.23
513.90	44009.09
514.08	43997.39
514.25	43978.67
514.43	43943.56
514.60	43782.06
514.77	43835.89
514.95	43840.57
515.12	44002.07
515.29	44355.49
515.47	44828.28
515.64	44610.61
515.81	44694.87
515.99	44678.49
516.16	44566.14
516.33	44814.24
516.51	45003.82
516.68	45059.99
516.85	45069.36
517.03	45228.51
517.20	45345.54
517.37	45235.53
517.54	45497.67
517.72	45083.40
517.89	45532.78
518.06	45471.93
518.24	45701.30
518.41	45869.82
518.58	45607.68
518.75	45546.82
518.93	45916.63
519.10	45907.27
519.27	46183.45
519.45	46621.13
519.62	46265.37
519.79	46494.74
519.96	46571.98
520.14	46597.73
520.31	46384.74
520.48	46707.73
520.65	46689.01
520.83	46993.28
521.00	47407.55
521.17	47402.87
521.34	47079.88
521.52	47643.94
521.69	47320.95
521.86	47674.37
522.03	47327.97
522.20	47817.14
522.38	47927.15
522.55	47920.13
522.72	48011.41
522.89	47845.23
523.07	48303.98
523.24	48165.88
523.41	48301.64
523.58	48116.73
523.75	48449.09
523.92	48629.31
524.10	48760.38
524.27	48736.98
524.44	48945.28
524.61	49076.35
524.78	48893.79
524.96	48893.79
525.13	49137.21
525.30	49366.58
525.47	49242.53
525.64	49504.67
525.81	49605.31
525.98	49291.68
526.16	49439.14
526.33	49570.21
526.50	49799.58
526.67	49862.77
526.84	49750.43
527.01	49701.28
527.18	50033.63
527.36	50288.75
527.53	49998.52
527.70	50356.63
527.87	50178.75
528.04	50145.98
528.21	50443.23
528.38	50424.50
528.55	50684.30
528.72	50312.16
528.89	50686.64
529.07	49935.33
529.24	50188.11
529.41	50761.54
529.58	50672.60
529.75	50681.96
529.92	51063.47
530.09	50710.05
530.26	50691.32
530.43	50684.30
530.60	50674.94
530.77	50869.20
530.94	51288.16
531.11	51477.74
531.28	51325.61
531.46	51655.62
531.63	51201.56
531.80	51370.08
531.97	51538.60
532.14	51433.27
532.31	51522.21
532.48	51751.59
532.65	51796.06
532.82	51686.05
532.99	51868.61
533.16	52081.60
533.33	51997.34
533.50	52402.25
533.67	52247.78
533.84	51910.74
534.01	52453.75
534.18	52313.31
534.35	52622.26
534.52	52051.17
534.69	52254.80
534.86	52334.38
535.03	52275.87
535.20	52392.89
535.37	52568.43
535.54	52722.91
535.71	52435.02
535.88	52666.73
536.05	52783.76
536.22	52734.61
536.38	52706.52
536.55	52816.53
536.72	52877.38
536.89	52823.55
537.06	53132.50
537.23	53209.74
537.40	53174.63
537.57	53258.89
537.74	53483.58
537.91	53179.31
538.08	52982.71
538.25	53240.17
538.42	53261.23
538.59	53659.12
538.75	52959.30
538.92	53380.60
539.09	53427.41
539.26	53422.73
539.43	53474.22
539.60	53677.85
539.77	53324.43
539.94	53954.03
540.11	53925.94
540.28	53897.86
540.44	53773.81
540.61	53675.51
540.78	53914.24
540.95	53853.39
541.12	53743.38
541.29	54148.29
541.46	54295.75
541.62	54281.70
541.79	54415.11
541.96	54197.44
542.13	53958.71
542.30	54134.25
542.47	54396.39
542.63	54337.88
542.80	54387.03
542.97	54740.45
543.14	55199.19
543.31	55168.77
543.48	54773.22
543.64	54805.98
543.81	54915.99
543.98	54621.08
544.15	54923.01
544.32	54838.75
544.48	55428.57
544.65	54937.05
544.82	55316.22
544.99	54885.56
545.16	55091.53
545.32	54951.10
545.49	55508.14
545.66	55573.68
545.83	55812.41
546.00	55716.45
546.16	55681.34
546.33	55777.31
546.50	55075.15
546.67	55550.27
546.83	54941.74
547.00	55283.45
547.17	55253.03
547.34	55187.49
547.50	55402.82
547.67	55880.29
547.84	55896.67
548.00	55971.57
548.17	56112.00
548.34	55774.97
548.51	55723.47
548.67	55936.46
548.84	55688.37
549.01	55611.13
549.18	55884.97
549.34	55955.19
549.51	56112.00
549.68	56186.90
549.84	55906.04
550.01	55976.25
550.18	55758.58
550.34	56051.15
550.51	55824.12
550.68	55781.99
550.84	55971.57
551.01	56273.50
551.18	56336.69
551.34	55899.01
551.51	56039.45
551.68	56226.69
551.84	56301.59
552.01	55945.83
552.18	56107.32
552.34	56350.74
552.51	56640.96
552.68	56392.87
552.84	56561.39
553.01	56596.49
553.18	56409.25
553.34	56523.94
553.51	56287.54
553.67	56554.36
553.84	56664.37
554.01	56753.31
554.17	56720.54
554.34	56793.10
554.51	56722.88
554.67	56809.48
554.84	56657.35
555.00	56552.02
555.17	56385.85
555.33	56605.86
555.50	56928.85
555.67	56795.44
555.83	57027.15
556.00	56856.29
556.16	57190.99
556.33	56697.14
556.50	56900.76
556.66	56832.89
556.83	56711.18
556.99	57167.58
557.16	57052.90
557.32	57097.37
557.49	57132.48
557.65	56865.66
557.82	56989.70
557.98	57118.43
558.15	57130.14
558.32	57148.86
558.48	56877.36
558.65	57268.23
558.81	57176.95
558.98	57200.35
559.14	57268.23
559.31	57382.91
559.47	57008.43
559.64	57469.51
559.80	57343.12
559.97	57354.83
560.13	57303.34
560.30	57130.14
560.46	57385.25
560.63	57504.62
560.79	57464.83
560.96	57663.78
561.12	57528.03
561.29	57553.77
561.45	57591.22
561.61	57631.01
561.78	57626.33
561.94	57675.48
562.11	57708.25
562.27	57780.81
562.44	57881.45
562.60	57579.52
562.77	57574.84
562.93	57549.09
563.10	57773.78
563.26	57343.12
563.42	57818.25
563.59	57743.36
563.75	57827.62
563.92	57984.43
564.08	57607.61
564.24	57909.53
564.41	57860.38
564.57	57799.53
564.74	57785.49
564.90	57951.66
565.07	57815.91
565.23	57883.79
565.39	57879.11
565.56	58143.59
565.72	58024.22
565.88	57921.24
566.05	57808.89
566.21	57738.68
566.38	57673.14
566.54	57771.44
566.70	58134.23
566.87	58120.18
567.03	57982.09
567.19	58300.40
567.36	58302.74
567.52	57935.28
567.68	58122.52
567.85	57904.85
568.01	58281.68
568.17	57907.19
568.34	58260.62
568.50	58211.46
568.66	58061.67
568.83	58382.32
568.99	58155.29
569.15	58117.84
569.32	58052.31
569.48	58279.34
569.64	58087.42
569.81	57965.71
569.97	58033.58
570.13	58309.77
570.30	58061.67
570.46	58410.41
570.62	58347.21
570.78	58340.19
570.95	58164.65
571.11	58372.96
571.27	58122.52
571.43	58136.57
571.60	58246.57
571.76	58017.20
571.92	58319.13
572.09	58227.85
572.25	58347.21
572.41	58403.39
572.57	58473.60
572.74	58375.30
572.90	58443.18
573.06	58209.12
573.22	58181.04
573.38	58417.43
573.55	58356.58
573.71	58461.90
573.87	58433.81
574.03	58295.72
574.20	58459.56
574.36	58403.39
574.52	58377.64
574.68	58183.38
574.84	58370.62
575.01	58607.01
575.17	58337.85
575.33	58412.75
575.49	58466.58
575.65	58454.88
575.82	58569.57
575.98	58529.78
576.14	58628.08
576.30	58546.16
576.46	58372.96
576.62	58314.45
576.79	58412.75
576.95	58351.90
577.11	58426.79
577.27	58541.48
577.43	58480.63
577.59	58604.67
577.75	58562.54
577.92	58518.07
578.08	58431.47
578.24	58419.77
578.40	58567.23
578.56	58597.65
578.72	58536.80
578.88	58962.78
579.04	58646.80
579.21	58766.17
579.37	58841.07
579.53	58681.91
579.69	58485.31
579.85	58749.79
580.01	58681.91
580.17	58532.12
580.33	58691.27
580.49	58705.32
580.65	58726.38
580.82	58665.53
580.98	58878.52
581.14	58548.50
581.30	58791.92
581.46	58487.65
581.62	58632.76
581.78	58412.75
581.94	58550.84
582.10	58726.38
582.26	58766.17
582.42	58684.25
582.58	58557.86
582.74	58820.00
582.90	58733.40
583.06	58876.18
583.22	58590.63
583.38	58688.93
583.54	58440.84
583.70	58571.91
583.86	58967.46
584.02	58454.88
584.18	58590.63
584.34	58770.85
584.50	58883.20
584.66	58541.48
584.82	58508.71
584.98	58714.68
585.14	58653.82
585.30	58539.14
585.46	58628.08
585.62	58567.23
585.78	59091.51
585.94	58817.66
586.10	58721.70
586.26	58665.53
586.42	58918.31
586.58	58817.66
586.74	58667.87
586.90	58817.66
587.06	58684.25
587.22	58869.15
587.38	58791.92
587.54	58810.64
587.70	59030.65
587.86	58922.99
588.02	59044.69
588.18	59011.93
