SpectraSuite Data File
++++++++++++++++++++++++++++++++++++
Date: Thu Oct 24 13:21:07 EDT 2013
User: stostad
Dark Spectrum Present: No
Reference Spectrum Present: No
Number of Sampled Component Spectra: 1
Spectrometers: USB2+H05261
Integration Time (usec): 100000 (USB2+H05261)
Spectra Averaged: 1 (USB2+H05261)
Boxcar Smoothing: 0 (USB2+H05261)
Correct for Electrical Dark: No (USB2+H05261)
Strobe/Lamp Enabled: No (USB2+H05261)
Correct for Detector Non-linearity: No (USB2+H05261)
Correct for Stray Light: No (USB2+H05261)
Number of Pixels in Processed Spectrum: 2048
>>>>>Begin Processed Spectral Data<<<<<
365.73	540.66
365.92	540.66
366.12	540.66
366.32	440.02
366.52	491.51
366.72	545.34
366.91	465.77
367.11	496.19
367.31	409.59
367.51	437.68
367.70	465.77
367.90	428.32
368.10	430.66
368.30	458.74
368.49	447.04
368.69	458.74
368.89	503.22
369.09	437.68
369.28	416.62
369.48	526.62
369.68	582.79
369.87	519.60
370.07	489.17
370.27	594.50
370.47	603.86
370.66	657.69
370.86	664.71
371.06	716.20
371.25	737.27
371.45	716.20
371.65	737.27
371.84	746.63
372.04	830.89
372.24	767.70
372.44	716.20
372.63	760.67
372.83	819.19
373.03	837.91
373.22	739.61
373.42	837.91
373.62	816.85
373.81	786.42
374.01	842.59
374.21	842.59
374.40	821.53
374.60	800.46
374.79	751.31
374.99	774.72
375.19	737.27
375.38	788.76
375.58	842.59
375.78	823.87
375.97	870.68
376.17	858.98
376.37	772.38
376.56	711.52
376.76	800.46
376.95	828.55
377.15	840.25
377.35	866.00
377.54	800.46
377.74	788.76
377.93	858.98
378.13	802.80
378.33	894.08
378.52	866.00
378.72	903.45
378.91	938.55
379.11	898.77
379.31	856.64
379.50	901.11
379.70	851.96
379.89	854.30
380.09	847.27
380.28	875.36
380.48	847.27
380.68	884.72
380.87	842.59
381.07	856.64
381.26	830.89
381.46	798.12
381.65	884.72
381.85	875.36
382.04	917.49
382.24	896.43
382.43	912.81
382.63	837.91
382.83	910.47
383.02	866.00
383.22	809.83
383.41	875.36
383.61	858.98
383.80	884.72
384.00	903.45
384.19	891.74
384.39	903.45
384.58	917.49
384.78	873.02
384.97	912.81
385.17	887.06
385.36	898.77
385.56	976.00
385.75	976.00
385.95	896.43
386.14	917.49
386.34	922.17
386.53	926.85
386.72	910.47
386.92	964.30
387.11	1013.45
387.31	992.39
387.50	873.02
387.70	896.43
387.89	898.77
388.09	901.11
388.28	933.87
388.48	933.87
388.67	990.05
388.86	980.68
389.06	966.64
389.25	947.92
389.45	987.71
389.64	1008.77
389.84	1043.88
390.03	978.34
390.22	1027.50
390.42	992.39
390.61	950.26
390.81	919.83
391.00	971.32
391.19	1064.94
391.39	1015.79
391.58	1020.47
391.78	950.26
391.97	1048.56
392.16	1048.56
392.36	1025.15
392.55	1006.43
392.75	1043.88
392.94	983.02
393.13	1095.37
393.33	976.00
393.52	1029.84
393.71	1053.24
393.91	1088.35
394.10	1093.03
394.29	1123.46
394.49	1104.73
394.68	1088.35
394.88	1048.56
395.07	1090.69
395.26	1179.63
395.46	1062.60
395.65	1076.65
395.84	1156.22
396.04	1114.10
396.23	1086.01
396.42	1172.61
396.62	1130.48
396.81	1163.25
397.00	1107.07
397.19	1144.52
397.39	1111.75
397.58	1107.07
397.77	1160.91
397.97	1142.18
398.16	1128.14
398.35	1224.10
398.55	1118.78
398.74	1177.29
398.93	1170.27
399.12	1188.99
399.32	1158.57
399.51	1109.41
399.70	1231.12
399.90	1238.14
400.09	1280.27
400.28	1256.87
400.47	1203.04
400.67	1313.04
400.86	1329.42
401.05	1184.31
401.24	1270.91
401.44	1277.93
401.63	1308.36
401.82	1289.64
402.01	1207.72
402.21	1263.89
402.40	1303.68
402.59	1252.19
402.78	1301.34
402.97	1355.17
403.17	1240.48
403.36	1348.15
403.55	1387.94
403.74	1420.71
403.93	1385.60
404.13	1420.71
404.32	1387.94
404.51	1394.96
404.70	1371.55
404.89	1369.21
405.09	1420.71
405.28	1416.02
405.47	1306.02
405.66	1310.70
405.85	1504.96
406.05	1420.71
406.24	1343.47
406.43	1434.75
406.62	1469.86
406.81	1521.35
407.00	1554.12
407.20	1455.81
407.39	1413.68
407.58	1526.03
407.77	1469.86
407.96	1451.13
408.15	1526.03
408.34	1486.24
408.54	1486.24
408.73	1504.96
408.92	1488.58
409.11	1572.84
409.30	1593.90
409.49	1528.37
409.68	1547.09
409.87	1579.86
410.07	1558.80
410.26	1631.35
410.45	1504.96
410.64	1617.31
410.83	1652.42
411.02	1682.85
411.21	1673.48
411.40	1633.69
411.59	1746.04
411.78	1626.67
411.98	1678.16
412.17	1671.14
412.36	1727.32
412.55	1771.79
412.74	1727.32
412.93	1734.34
413.12	1797.53
413.31	1830.30
413.50	1860.73
413.69	1799.87
413.88	1795.19
414.07	1825.62
414.26	1865.41
414.45	1764.76
414.64	1797.53
414.83	1865.41
415.02	1886.47
415.22	1870.09
415.41	1891.15
415.60	1942.64
415.79	1914.56
415.98	2036.27
416.17	1963.71
416.36	1907.54
416.55	1940.30
416.74	1940.30
416.93	2005.84
417.12	2015.20
417.31	2073.71
417.50	2111.16
417.69	2115.84
417.88	2015.20
418.07	1937.96
418.26	2050.31
418.45	2139.25
418.64	2209.47
418.83	2064.35
419.02	2052.65
419.21	2099.46
419.39	2148.61
419.58	2031.58
419.77	2150.95
419.96	2169.68
420.15	2005.84
420.34	2176.70
420.53	2090.10
420.72	2211.81
420.91	2246.91
421.10	2190.74
421.29	2150.95
421.48	2139.25
421.67	2148.61
421.86	2317.13
422.05	2284.36
422.24	2179.04
422.43	2263.30
422.61	2284.36
422.80	2239.89
422.99	2225.85
423.18	2260.96
423.37	2188.40
423.56	2363.94
423.75	2289.04
423.94	2232.87
424.13	2087.76
424.32	2204.78
424.50	2251.60
424.69	2354.58
424.88	2373.30
425.07	2387.35
425.26	2214.15
425.45	2267.98
425.64	2244.57
425.83	2251.60
426.01	2361.60
426.20	2354.58
426.39	2347.56
426.58	2303.09
426.77	2354.58
426.96	2394.37
427.15	2385.01
427.33	2417.77
427.52	2431.82
427.71	2377.98
427.90	2403.73
428.09	2452.88
428.28	2394.37
428.46	2335.85
428.65	2310.11
428.84	2567.57
429.03	2478.63
429.22	2354.58
429.40	2553.52
429.59	2394.37
429.78	2471.61
429.97	2459.90
430.16	2445.86
430.34	2551.18
430.53	2565.23
430.72	2523.10
430.91	2583.95
431.10	2415.43
431.28	2579.27
431.47	2537.14
431.66	2642.46
431.85	2492.67
432.03	2705.66
432.22	2654.17
432.41	2616.72
432.60	2712.68
432.79	2670.55
432.97	2759.49
433.16	2670.55
433.35	2635.44
433.54	2675.23
433.72	2658.85
433.91	2698.64
434.10	2628.42
434.28	2738.43
434.47	2731.41
434.66	2766.51
434.85	2836.73
435.03	2815.66
435.22	3077.80
435.41	3218.24
435.59	3075.46
435.78	3105.89
435.97	3030.99
436.16	2860.13
436.34	2796.94
436.53	2801.62
436.72	2848.43
436.90	2944.39
437.09	2860.13
437.28	2944.39
437.46	2913.97
437.65	2843.75
437.84	2939.71
438.02	2874.18
438.21	2949.08
438.40	2846.09
438.58	2953.76
438.77	3033.33
438.96	2946.73
439.14	3145.68
439.33	3063.76
439.52	3194.83
439.70	3028.65
439.89	3101.21
440.08	3110.57
440.26	3112.91
440.45	3152.70
440.63	3180.79
440.82	3269.73
441.01	3152.70
441.19	3302.50
441.38	3251.00
441.57	3260.37
441.75	3262.71
441.94	3307.18
442.12	3417.18
442.31	3421.86
442.50	3414.84
442.68	3272.07
442.87	3445.27
443.05	3309.52
443.24	3361.01
443.43	3433.57
443.61	3482.72
443.80	3492.08
443.98	3361.01
444.17	3220.58
444.35	3393.78
444.54	3522.51
444.73	3405.48
444.91	3548.25
445.10	3475.70
445.28	3485.06
445.47	3536.55
445.65	3520.17
445.84	3323.56
446.02	3522.51
446.21	3475.70
446.39	3562.30
446.58	3361.01
446.77	3431.23
446.95	3590.38
447.14	3557.61
447.32	3662.94
447.51	3592.72
447.69	3489.74
447.88	3597.40
448.06	3538.89
448.25	3527.19
448.43	3641.87
448.62	3646.55
448.80	3520.17
448.99	3684.00
449.17	3588.04
449.36	3541.23
449.54	3676.98
449.73	3482.72
449.91	3691.02
450.10	3691.02
450.28	3822.09
450.46	3822.09
450.65	3761.24
450.83	3639.53
451.02	3599.74
451.20	3808.05
451.39	3815.07
451.57	3796.35
451.76	3581.02
451.94	3756.56
452.13	3815.07
452.31	3784.65
452.49	3840.82
452.68	3784.65
452.86	3749.54
453.05	3819.75
453.23	3794.01
453.42	3768.26
453.60	3777.62
453.78	3882.95
453.97	3904.01
454.15	3864.22
454.34	3779.97
454.52	3871.25
454.70	4009.34
454.89	3908.69
455.07	3922.74
455.26	3861.88
455.44	3981.25
455.62	4016.36
455.81	4095.94
455.99	4035.08
456.17	4009.34
456.36	4077.21
456.54	4058.49
456.73	4035.08
456.91	4114.66
457.09	4262.12
457.28	4182.54
457.46	4109.98
457.64	4191.90
457.83	4180.20
458.01	4231.69
458.19	4341.69
458.38	4203.60
458.56	4374.46
458.74	4454.04
458.93	4161.47
459.11	4187.22
459.29	4194.24
459.48	4287.86
459.66	4353.40
459.84	4276.16
460.03	4400.21
460.21	4395.53
460.39	4432.97
460.57	4390.84
460.76	4517.23
460.94	4395.53
461.12	4547.66
461.31	4491.49
461.49	4395.53
461.67	4578.09
461.85	4533.62
462.04	4512.55
462.22	5011.09
462.40	4748.95
462.59	4629.58
462.77	4505.53
462.95	4648.30
463.13	4514.89
463.32	4664.69
463.50	4690.43
463.68	4606.17
463.86	4538.30
464.05	4589.79
464.23	4547.66
464.41	4678.73
464.59	4652.98
464.78	4674.05
464.96	4685.75
465.14	4685.75
465.32	4638.94
465.50	4765.33
465.69	4933.85
465.87	4760.65
466.05	4802.78
466.23	4671.71
466.41	4713.84
466.60	4812.14
466.78	4697.46
466.96	4844.91
467.14	4713.84
467.32	4711.50
467.51	4821.50
467.69	4681.07
467.87	4786.40
468.05	5027.47
468.23	4807.46
468.41	4898.74
468.60	4896.40
468.78	4954.91
468.96	4868.31
469.14	4884.70
469.32	5114.07
469.50	4992.36
469.69	4999.38
469.87	5053.22
470.05	4983.00
470.23	5132.79
470.41	5001.72
470.59	5090.67
470.77	5011.09
470.95	5104.71
471.14	5163.22
471.32	5004.07
471.50	5188.97
471.68	5352.81
471.86	5315.36
472.04	5275.57
472.22	5350.46
472.40	5252.16
472.58	5329.40
472.77	5420.68
472.95	5483.88
473.13	5514.30
473.31	5467.49
473.49	5350.46
473.67	5406.64
473.85	5411.32
474.03	5636.01
474.21	5397.28
474.39	5565.79
474.57	5614.95
474.75	5708.57
474.93	5748.36
475.12	5731.97
475.30	5633.67
475.48	5481.53
475.66	5818.57
475.84	5741.33
476.02	5778.78
476.20	5937.94
476.38	6040.92
476.56	5987.09
476.74	6029.22
476.92	5959.00
477.10	5914.53
477.28	5977.73
477.46	6038.58
477.64	6090.07
477.82	6134.54
478.00	6455.20
478.18	6380.30
478.36	6267.95
478.54	6368.60
478.72	6406.05
478.90	6562.86
479.08	6431.79
479.26	6506.69
479.44	6602.65
479.62	6785.21
479.80	6705.63
479.98	6670.53
480.16	6750.10
480.34	6782.87
480.52	7054.37
480.70	6874.15
480.88	6864.79
481.06	7087.14
481.24	7019.27
481.41	7033.31
481.59	7023.95
481.77	7234.60
481.95	7084.80
482.13	7344.60
482.31	7229.91
482.49	7548.23
482.67	7499.08
482.85	7468.65
483.03	7487.37
483.21	7566.95
483.39	7791.64
483.57	7581.00
483.74	7765.90
483.92	7906.33
484.10	7770.58
484.28	7974.21
484.46	8086.55
484.64	8102.93
484.82	7913.35
485.00	8105.28
485.18	8248.05
485.35	8126.34
485.53	8241.03
485.71	8327.63
485.89	8503.17
486.07	8416.57
486.25	8533.59
486.43	8737.22
486.61	8622.53
486.78	8877.65
486.96	8718.50
487.14	8905.74
487.32	8781.69
487.50	8769.99
487.68	9104.68
487.85	9132.77
488.03	9212.35
488.21	9413.63
488.39	9261.50
488.57	9284.91
488.75	9392.57
488.92	9469.81
489.10	9692.16
489.28	9685.14
489.46	9788.12
489.64	9893.44
489.81	9996.43
489.99	9907.49
490.17	9916.85
490.35	10019.83
490.53	10214.10
490.70	10272.61
490.88	9895.78
491.06	10239.84
491.24	10284.31
491.41	10232.82
491.59	10354.53
491.77	10450.49
491.95	10375.59
492.13	10642.42
492.30	10633.05
492.48	10768.80
492.66	10729.02
492.84	10649.44
493.01	10972.43
493.19	10740.72
493.37	11049.67
493.54	11162.01
493.72	11080.10
493.90	11133.93
494.08	10934.98
494.25	11185.42
494.43	11349.26
494.61	11342.24
494.79	11279.04
494.96	11492.03
495.14	11555.22
495.32	11665.23
495.49	11672.25
495.67	11754.17
495.85	11737.79
496.02	11836.09
496.20	11829.07
496.38	12037.38
496.55	11978.86
496.73	12252.70
496.91	12166.10
497.09	12196.53
497.26	12358.03
497.44	12428.24
497.62	12180.15
497.79	12332.28
497.97	12397.82
498.14	12552.29
498.32	12531.23
498.50	12753.58
498.67	12734.85
498.85	12325.26
499.03	12725.49
499.20	12830.82
499.38	12915.08
499.56	12662.30
499.73	12886.99
499.91	13071.89
500.08	12938.48
500.26	13132.75
500.44	13163.17
500.61	13488.51
500.79	13221.69
500.97	13118.70
501.14	13507.23
501.32	13481.49
501.49	13338.71
501.67	13509.57
501.84	13540.00
502.02	13488.51
502.20	13895.76
502.37	13642.98
502.55	13570.43
502.72	13509.57
502.90	13603.19
503.07	13764.69
503.25	13741.29
503.43	13792.78
503.60	13956.61
503.78	13855.97
503.95	14015.13
504.13	14033.85
504.30	13907.46
504.48	13837.25
504.65	14328.76
504.83	14436.42
505.01	14295.99
505.18	14111.09
505.36	14373.23
505.53	14347.48
505.71	14368.55
505.88	14464.51
506.06	14424.72
506.23	14499.62
506.41	14499.62
506.58	14345.14
506.76	14771.12
506.93	14661.12
507.11	14750.06
507.28	15037.94
507.46	14937.30
507.63	14906.87
507.81	15061.35
507.98	14611.96
508.16	14700.90
508.33	14911.55
508.50	15178.37
508.68	15152.63
508.85	15288.38
509.03	15122.20
509.20	15419.45
509.38	15201.78
509.55	15580.95
509.73	15311.78
509.90	15597.33
510.08	15538.82
510.25	15545.84
510.42	15761.17
510.60	15585.63
510.77	15770.53
510.95	15761.17
511.12	15648.82
511.30	15817.34
511.47	15644.14
511.64	15807.98
511.82	15899.26
511.99	15899.26
512.17	16098.20
512.34	16189.49
512.51	16184.80
512.69	16189.49
512.86	16217.57
513.04	16339.28
513.21	16145.02
513.38	16407.16
513.56	16301.83
513.73	16311.19
513.90	16416.52
514.08	16704.40
514.25	16430.56
514.43	16306.51
514.60	16484.39
514.77	16711.42
514.95	16585.04
515.12	16292.47
515.29	16702.06
515.47	16898.67
515.64	17078.89
515.81	16734.83
515.99	16917.39
516.16	16847.18
516.33	16779.30
516.51	17027.40
516.68	16945.48
516.85	17018.04
517.03	17081.23
517.20	17128.04
517.37	17310.60
517.54	17121.02
517.72	17324.65
517.89	17170.17
518.06	17008.67
518.24	17392.52
518.41	17294.22
518.58	17647.64
518.75	17198.26
518.93	17600.83
519.10	16837.81
519.27	17535.29
519.45	17460.40
519.62	17397.20
519.79	17528.27
519.96	17844.24
520.14	17649.98
520.31	17488.48
520.48	17502.53
520.65	17900.42
520.83	18085.32
521.00	17657.00
521.17	17867.65
521.34	17933.18
521.52	18174.26
521.69	18136.81
521.86	18146.17
522.03	18120.43
522.20	18059.57
522.38	18153.20
522.55	18200.01
522.72	18059.57
522.89	18134.47
523.07	18279.58
523.24	18293.63
523.41	18200.01
523.58	18328.74
523.75	18483.21
523.92	18464.49
524.10	18265.54
524.27	18689.18
524.44	18647.05
524.61	18583.85
524.78	18473.85
524.96	18506.62
525.13	18733.65
525.30	19098.77
525.47	18817.91
525.64	18815.57
525.81	19009.83
525.98	18757.05
526.16	18768.76
526.33	18956.00
526.50	19321.12
526.67	19033.24
526.84	18927.91
527.01	18654.07
527.18	18946.64
527.36	19002.81
527.53	19035.58
527.70	19070.68
527.87	19168.99
528.04	19250.91
528.21	19225.16
528.38	19236.86
528.55	19269.63
528.72	19222.82
528.89	19346.87
529.07	19386.66
529.24	19215.80
529.41	19475.60
529.58	19894.55
529.75	19754.12
529.92	19693.27
530.09	19536.45
530.26	19648.80
530.43	19440.49
530.60	19496.66
530.77	19749.44
530.94	20009.24
531.11	19850.08
531.28	19814.98
531.46	19967.11
531.63	19899.23
531.80	19651.14
531.97	19861.79
532.14	19814.98
532.31	19679.22
532.48	19770.51
532.65	19814.98
532.82	20107.54
532.99	20304.15
533.16	19962.43
533.33	19880.51
533.50	20180.10
533.67	20105.20
533.84	19709.65
534.01	19840.72
534.18	20205.84
534.35	20215.21
534.52	19885.19
534.69	20299.47
534.86	20755.87
535.03	19978.81
535.20	20121.59
535.37	20390.75
535.54	20442.24
535.71	20311.17
535.88	20720.76
536.05	20563.95
536.22	20650.55
536.38	20475.01
536.55	20695.02
536.72	20739.49
536.89	20790.98
537.06	20741.83
537.23	20465.64
537.40	20954.82
537.57	21132.70
537.74	20814.38
537.91	21240.36
538.08	20835.45
538.25	20615.44
538.42	20896.30
538.59	20950.14
538.75	20802.68
538.92	21156.10
539.09	20730.12
539.26	21132.70
539.43	21231.00
539.60	21018.01
539.77	21270.79
539.94	21128.02
540.11	21558.67
540.28	21511.86
540.44	21336.32
540.61	21380.79
540.78	21535.27
540.95	21481.44
541.12	21420.58
541.29	21757.62
541.46	21734.21
541.62	21909.75
541.79	21916.78
541.96	21556.33
542.13	21703.79
542.30	21914.44
542.47	21488.46
542.63	21839.54
542.80	22284.24
542.97	22309.99
543.14	22434.03
543.31	22171.89
543.48	22008.06
543.64	22448.08
543.81	22370.84
543.98	22089.98
544.15	22097.00
544.32	22455.10
544.48	22511.27
544.65	22064.23
544.82	22419.99
544.99	21994.01
545.16	22214.02
545.32	22628.30
545.49	22860.01
545.66	23229.82
545.83	23381.95
546.00	23513.02
546.16	23278.97
546.33	22883.42
546.50	22527.66
546.67	22530.00
546.83	22436.38
547.00	22295.94
547.17	22167.21
547.34	22546.38
547.50	22562.76
547.67	22462.12
547.84	22422.33
548.00	22635.32
548.17	22728.94
548.34	22349.78
548.51	23021.51
548.67	22436.38
548.84	22436.38
549.01	22902.14
549.18	22647.02
549.34	22672.77
549.51	22422.33
549.68	22609.58
549.84	22611.92
550.01	22384.88
550.18	22698.52
550.34	22487.87
550.51	22920.87
550.68	22668.09
550.84	22649.36
551.01	22714.90
551.18	22815.54
551.34	22780.43
551.51	22412.97
551.68	22974.70
551.84	22773.41
552.01	22902.14
552.18	22955.97
552.34	23068.32
552.51	22611.92
552.68	22918.53
552.84	22815.54
553.01	23051.94
553.18	22871.72
553.34	23225.14
553.51	22885.76
553.67	23234.50
553.84	23040.23
554.01	23332.80
554.17	22782.77
554.34	23168.96
554.51	22986.40
554.67	22874.06
554.84	23353.87
555.00	22904.48
555.17	22576.81
555.33	22864.69
555.50	23110.45
555.67	23089.38
555.83	23145.56
556.00	23201.73
556.16	23410.04
556.33	23435.78
556.50	23023.85
556.66	22963.00
556.83	23115.13
556.99	23321.10
557.16	23206.41
557.32	23452.17
557.49	23175.98
557.65	23077.68
557.82	23241.52
557.98	23000.44
558.15	23061.30
558.32	23192.37
558.48	23065.98
558.65	23576.22
558.81	23632.39
558.98	23529.41
559.14	23510.68
559.31	23199.39
559.47	23536.43
559.64	23400.68
559.80	23321.10
559.97	23285.99
560.13	23304.71
560.30	23384.29
560.46	23477.91
560.63	23374.93
560.79	23604.30
560.96	23737.71
561.12	23529.41
561.29	23316.42
561.45	23410.04
561.61	23697.92
561.78	23644.09
561.94	23597.28
562.11	23632.39
562.27	23805.59
562.44	24137.94
562.60	23480.25
562.77	23459.19
562.93	23620.69
563.10	23557.49
563.26	23433.44
563.42	23873.46
563.59	23791.55
563.75	23807.93
563.92	23946.02
564.08	23948.36
564.24	23901.55
564.41	23501.32
564.57	23747.08
564.74	23630.05
564.90	23981.13
565.07	23735.37
565.23	23669.84
565.39	23934.32
565.56	23896.87
565.72	23789.20
565.88	24032.62
566.05	23985.81
566.21	23971.77
566.38	23807.93
566.54	24020.92
566.70	23901.55
566.87	24224.54
567.03	23990.49
567.19	24318.17
567.36	23997.51
567.52	23653.45
567.68	24079.43
567.85	24049.00
568.01	24023.26
568.17	23798.57
568.34	23658.14
568.50	24049.00
568.66	23800.91
568.83	24130.92
568.99	24224.54
569.15	23812.61
569.32	23978.79
569.48	23936.66
569.64	23943.68
569.81	23917.93
569.97	23789.20
570.13	23777.50
570.30	23718.99
570.46	23562.17
570.62	23882.83
570.78	24140.29
570.95	23957.72
571.11	24058.37
571.27	24046.66
571.43	23583.24
571.60	23878.15
571.76	23948.36
571.92	24217.52
572.09	23927.30
572.25	24009.22
572.41	24261.99
572.57	24671.59
572.74	24470.30
572.90	24128.58
573.06	23630.05
573.22	24046.66
573.38	24135.60
573.55	24187.10
573.71	23847.72
573.87	24334.55
574.03	23901.55
574.20	24060.71
574.36	24147.31
574.52	23920.28
574.68	24006.87
574.84	24154.33
575.01	24098.16
575.17	24325.19
575.33	24261.99
575.49	24107.52
575.65	24306.46
575.82	24266.67
575.98	24491.37
576.14	24514.77
576.30	24301.78
576.46	24013.90
576.62	24299.44
576.79	24514.77
576.95	24329.87
577.11	24327.53
577.27	24229.23
577.43	24727.76
577.59	24334.55
577.75	24269.01
577.92	23924.96
578.08	24079.43
578.24	24245.61
578.40	24493.71
578.56	24608.39
578.72	24570.94
578.88	24741.80
579.04	24362.64
579.21	24479.66
579.37	24285.40
579.53	24489.03
579.69	24439.87
579.85	24320.51
580.01	24486.68
580.17	24460.94
580.33	23889.85
580.49	24259.65
580.65	24222.20
580.82	24498.39
580.98	24292.42
581.14	24271.36
581.30	24332.21
581.46	23941.34
581.62	24133.26
581.78	24217.52
581.94	24095.82
582.10	24285.40
582.26	24528.81
582.42	24465.62
582.58	24400.08
582.74	24449.24
582.90	24149.65
583.06	24233.91
583.22	24018.58
583.38	24353.27
583.54	24531.15
583.70	24456.26
583.86	24594.35
584.02	24034.96
584.18	24606.05
584.34	24634.14
584.50	24137.94
584.66	24046.66
584.82	24432.85
584.98	24325.19
585.14	24407.11
585.30	24439.87
585.46	24175.39
585.62	24261.99
585.78	24231.57
585.94	24809.68
586.10	24547.54
586.26	24095.82
586.42	24271.36
586.58	24355.61
586.74	24353.27
586.90	24746.48
587.06	24247.95
587.22	24830.74
587.38	24582.65
587.54	24884.58
587.70	25006.28
587.86	24898.62
588.02	24535.84
588.18	24786.27
588.34	24737.12
588.49	24533.50
588.65	24266.67
588.81	24486.68
588.97	24367.32
589.13	24500.73
589.29	24498.39
589.45	24638.82
589.61	24582.65
589.77	24732.44
589.93	24748.82
590.08	24486.68
590.24	24287.74
590.40	24727.76
590.56	24980.54
590.72	24341.57
590.88	24299.44
