SpectraSuite Data File
++++++++++++++++++++++++++++++++++++
Date: Thu Oct 24 13:21:26 EDT 2013
User: stostad
Dark Spectrum Present: No
Reference Spectrum Present: No
Number of Sampled Component Spectra: 1
Spectrometers: USB2+H05261
Integration Time (usec): 100000 (USB2+H05261)
Spectra Averaged: 1 (USB2+H05261)
Boxcar Smoothing: 0 (USB2+H05261)
Correct for Electrical Dark: No (USB2+H05261)
Strobe/Lamp Enabled: No (USB2+H05261)
Correct for Detector Non-linearity: No (USB2+H05261)
Correct for Stray Light: No (USB2+H05261)
Number of Pixels in Processed Spectrum: 2048
>>>>>Begin Processed Spectral Data<<<<<
365.73	599.18
365.92	599.18
366.12	599.18
366.32	514.92
366.52	470.45
366.72	482.15
366.91	414.27
367.11	479.81
367.31	430.66
367.51	449.38
367.70	465.77
367.90	407.25
368.10	533.64
368.30	428.32
368.49	458.74
368.69	500.87
368.89	477.47
369.09	456.40
369.28	496.19
369.48	514.92
369.68	566.41
369.87	547.69
370.07	547.69
370.27	592.16
370.47	713.86
370.66	856.64
370.86	1029.84
371.06	1046.22
371.25	990.05
371.45	1008.77
371.65	973.66
371.84	985.37
372.04	1069.62
372.24	1055.58
372.44	997.07
372.63	1093.03
372.83	1104.73
373.03	1057.92
373.22	1011.11
373.42	1025.15
373.62	1025.15
373.81	1151.54
374.01	1156.22
374.21	1107.07
374.40	1130.48
374.60	1116.44
374.79	1205.38
374.99	1167.93
375.19	1137.50
375.38	1184.31
375.58	1207.72
375.78	1186.65
375.97	1142.18
376.17	1207.72
376.37	1179.63
376.56	1184.31
376.76	1184.31
376.95	1324.74
377.15	1231.12
377.35	1170.27
377.54	1263.89
377.74	1256.87
377.93	1313.04
378.13	1306.02
378.33	1266.23
378.52	1242.82
378.72	1357.51
378.91	1345.81
379.11	1259.21
379.31	1254.53
379.50	1240.48
379.70	1331.76
379.89	1249.85
380.09	1301.34
380.28	1352.83
380.48	1409.00
380.68	1287.29
380.87	1324.74
381.07	1350.49
381.26	1324.74
381.46	1336.45
381.65	1425.39
381.85	1401.98
382.04	1394.96
382.24	1425.39
382.43	1409.00
382.63	1385.60
382.83	1371.55
383.02	1404.32
383.22	1453.47
383.41	1483.90
383.61	1418.36
383.80	1439.43
384.00	1458.15
384.19	1448.79
384.39	1481.56
384.58	1434.75
384.78	1446.45
384.97	1420.71
385.17	1547.09
385.36	1476.88
385.56	1561.14
385.75	1547.09
385.95	1493.26
386.14	1441.77
386.34	1483.90
386.53	1530.71
386.72	1533.05
386.92	1582.20
387.11	1521.35
387.31	1540.07
387.50	1547.09
387.70	1561.14
387.89	1551.78
388.09	1661.78
388.28	1605.61
388.48	1664.12
388.67	1671.14
388.86	1645.40
389.06	1645.40
389.25	1696.89
389.45	1713.27
389.64	1762.42
389.84	1799.87
390.03	1724.97
390.22	1776.47
390.42	1776.47
390.61	1612.63
390.81	1734.34
391.00	1739.02
391.19	1753.06
391.39	1732.00
391.58	1806.89
391.78	1778.81
391.97	1832.64
392.16	1827.96
392.36	1799.87
392.55	1799.87
392.75	1860.73
392.94	1802.21
393.13	1930.94
393.33	1842.00
393.52	1902.86
393.71	1863.07
393.91	1949.67
394.10	1930.94
394.29	1982.43
394.49	2036.27
394.68	2038.61
394.88	1856.04
395.07	1912.22
395.26	1982.43
395.46	2017.54
395.65	2010.52
395.84	2057.33
396.04	2141.59
396.23	2139.25
396.42	2043.29
396.62	2157.97
396.81	2059.67
397.00	2106.48
397.19	2115.84
397.39	2085.42
397.58	2181.38
397.77	2066.69
397.97	2153.29
398.16	2148.61
398.35	2232.87
398.55	2162.66
398.74	2239.89
398.93	2312.45
399.12	2251.60
399.32	2223.51
399.51	2232.87
399.70	2457.56
399.90	2394.37
400.09	2319.47
400.28	2424.80
400.47	2307.77
400.67	2464.58
400.86	2455.22
401.05	2415.43
401.24	2450.54
401.44	2340.54
401.63	2504.37
401.82	2551.18
402.01	2502.03
402.21	2469.27
402.40	2530.12
402.59	2518.42
402.78	2537.14
402.97	2677.57
403.17	2600.34
403.36	2502.03
403.55	2518.42
403.74	2607.36
403.93	2747.79
404.13	2696.30
404.32	2794.60
404.51	2729.06
404.70	2736.09
404.89	2799.28
405.09	2785.24
405.28	2757.15
405.47	2841.41
405.66	2738.43
405.85	2857.79
406.05	2855.45
406.24	2981.84
406.43	2832.05
406.62	2883.54
406.81	3063.76
407.00	2909.29
407.20	2871.84
407.39	3035.67
407.58	3035.67
407.77	3009.93
407.96	3038.02
408.15	3143.34
408.34	3033.33
408.54	3056.74
408.73	3115.25
408.92	3059.08
409.11	3171.43
409.30	3164.40
409.49	3246.32
409.68	3227.60
409.87	3176.11
410.07	3417.18
410.26	3316.54
410.45	3339.94
410.64	3377.39
410.83	3382.07
411.02	3370.37
411.21	3527.19
411.40	3286.11
411.59	3524.85
411.78	3541.23
411.98	3517.83
412.17	3515.48
412.36	3492.08
412.55	3658.26
412.74	3684.00
412.93	3716.77
413.12	3705.07
413.31	3808.05
413.50	3676.98
413.69	3810.39
413.88	3756.56
414.07	3733.15
414.26	3936.78
414.45	3927.42
414.64	3967.21
414.83	4098.28
415.02	4046.79
415.22	4098.28
415.41	4187.22
415.60	4203.60
415.79	4210.62
415.98	4227.01
416.17	4287.86
416.36	4156.79
416.55	4227.01
416.74	4285.52
416.93	4388.50
417.12	4397.87
417.31	4479.79
417.50	4386.16
417.69	4526.60
417.88	4493.83
418.07	4526.60
418.26	4671.71
418.45	4599.15
418.64	4779.37
418.83	4723.20
419.02	4753.63
419.21	4793.42
419.39	4744.27
419.58	4828.53
419.77	4734.90
419.96	4828.53
420.15	4908.10
420.34	4823.84
420.53	4800.44
420.72	5069.60
420.91	4952.57
421.10	5135.14
421.29	4971.30
421.48	5013.43
421.67	4968.96
421.86	4983.00
422.05	5071.94
422.24	5022.79
422.43	5151.52
422.61	5179.61
422.80	5263.86
422.99	5125.77
423.18	5064.92
423.37	5118.75
423.56	5057.90
423.75	5123.43
423.94	4952.57
424.13	4931.51
424.32	5001.72
424.50	5371.53
424.69	5263.86
424.88	5305.99
425.07	5170.24
425.26	5156.20
425.45	5303.65
425.64	5170.24
425.83	5226.42
426.01	5224.08
426.20	5214.71
426.39	5289.61
426.58	5259.18
426.77	5359.83
426.96	5212.37
427.15	5366.85
427.33	5369.19
427.52	5387.91
427.71	5486.22
427.90	5345.78
428.09	5542.39
428.28	5533.03
428.46	5544.73
428.65	5448.77
428.84	5687.50
429.03	5486.22
429.22	5577.50
429.40	5572.82
429.59	5746.02
429.78	5593.88
429.97	5481.53
430.16	5809.21
430.34	5757.72
430.53	5912.19
430.72	5778.78
430.91	5748.36
431.10	5797.51
431.28	5989.43
431.47	5951.98
431.66	6080.71
431.85	5930.92
432.03	6176.67
432.22	6162.63
432.41	6232.85
432.60	6204.76
432.79	6305.40
432.97	6286.68
433.16	6176.67
433.35	6296.04
433.54	6384.98
433.72	6282.00
433.91	6291.36
434.10	6399.02
434.28	6066.67
434.47	6469.24
434.66	6338.17
434.85	6502.01
435.03	6434.13
435.22	6626.06
435.41	6892.88
435.59	6766.49
435.78	6764.15
435.97	6752.45
436.16	6661.16
436.34	6647.12
436.53	6773.51
436.72	6885.86
436.90	6736.06
437.09	6738.40
437.28	6644.78
437.46	6658.82
437.65	6846.07
437.84	6932.67
438.02	6878.83
438.21	6817.98
438.40	6888.20
438.58	7042.67
438.77	7262.68
438.96	7028.63
439.14	7344.60
439.33	7206.51
439.52	7286.09
439.70	7337.58
439.89	7386.73
440.08	7637.17
440.26	7527.16
440.45	7384.39
440.63	7669.94
440.82	7866.54
441.01	7538.87
441.19	7737.81
441.38	7880.58
441.57	7784.62
441.75	7875.90
441.94	8088.89
442.12	8159.11
442.31	8196.56
442.50	8287.84
442.68	8063.15
442.87	8201.24
443.05	8234.00
443.24	8280.82
443.43	8346.35
443.61	8243.37
443.80	8404.86
443.98	8245.71
444.17	7974.21
444.35	8358.05
444.54	8671.68
444.73	8580.40
444.91	8442.31
445.10	8608.49
445.28	8442.31
445.47	8329.97
445.65	8512.53
445.84	8521.89
446.02	8662.32
446.21	8493.80
446.39	8533.59
446.58	8695.09
446.77	8486.78
446.95	8435.29
447.14	8484.44
447.32	8861.27
447.51	8636.58
447.69	8629.56
447.88	8786.37
448.06	8505.51
448.25	8748.92
448.43	8762.97
448.62	8840.20
448.80	8697.43
448.99	8585.08
449.17	8842.54
449.36	8737.22
449.54	8884.67
449.73	9144.47
449.91	9242.78
450.10	9027.45
450.28	9200.65
450.46	9184.26
450.65	9198.31
450.83	9179.58
451.02	9167.88
451.20	9312.99
451.39	9160.86
451.57	9324.69
451.76	9156.18
451.94	9310.65
452.13	9525.98
452.31	9448.74
452.49	9383.21
452.68	9579.81
452.86	9362.14
453.05	9570.45
453.23	9366.82
453.42	9528.32
453.60	9540.02
453.78	9731.95
453.97	9612.58
454.15	9673.43
454.34	9600.88
454.52	9720.24
454.70	9830.25
454.89	9884.08
455.07	9963.66
455.26	9914.51
455.44	10113.45
455.62	9863.02
455.81	10022.17
455.99	10270.27
456.17	9865.36
456.36	10113.45
456.54	10188.35
456.73	10310.06
456.91	10546.45
457.09	10658.80
457.28	10686.89
457.46	10583.90
457.64	10616.67
457.83	10705.61
458.01	10537.09
458.19	10970.09
458.38	10663.48
458.56	10761.78
458.74	10775.83
458.93	10736.04
459.11	10806.25
459.29	10946.69
459.48	10679.86
459.66	10932.64
459.84	10984.13
460.03	11176.06
460.21	10974.77
460.39	11061.37
460.57	10972.43
460.76	11211.17
460.94	11157.33
461.12	11229.89
461.31	11218.19
461.49	11199.46
461.67	11173.72
461.85	11360.96
462.04	11204.14
462.22	11719.06
462.40	11763.53
462.59	11571.61
462.77	11520.12
462.95	11763.53
463.13	11812.68
463.32	11655.87
463.50	11836.09
463.68	11665.23
463.86	11789.28
464.05	11604.38
464.23	11990.56
464.41	11903.96
464.59	11763.53
464.78	12032.69
464.96	12154.40
465.14	11899.28
465.32	12063.12
465.50	12184.83
465.69	12283.13
465.87	12123.98
466.05	12042.06
466.23	12402.50
466.41	12409.52
466.60	12461.01
466.78	11934.39
466.96	12456.33
467.14	12493.78
467.32	12397.82
467.51	12386.12
467.69	12386.12
467.87	12505.48
468.05	12798.05
468.23	12531.23
468.41	12311.22
468.60	12266.75
468.78	12706.77
468.96	12603.78
469.14	12601.44
469.32	12999.34
469.50	12737.20
469.69	13095.30
469.87	13027.42
470.05	12971.25
470.23	13249.77
470.41	13177.22
470.59	13259.13
470.77	13170.19
470.95	13198.28
471.14	13441.70
471.32	13069.55
471.50	13673.41
471.68	13500.21
471.86	13647.66
472.04	13664.05
472.22	13935.55
472.40	13748.31
472.58	13895.76
472.77	13884.06
472.95	14003.43
473.13	14331.10
473.31	14223.44
473.49	14204.71
473.67	14277.27
473.85	14303.01
474.03	14747.72
474.21	14600.26
474.39	14822.61
474.57	14434.08
474.75	14527.71
474.93	15159.65
475.12	14941.98
475.30	14995.81
475.48	14736.01
475.66	15070.71
475.84	15119.86
476.02	15262.63
476.20	15197.10
476.38	15620.74
476.56	15871.17
476.74	15826.70
476.92	15770.53
477.10	16126.29
477.28	16121.61
477.46	16023.31
477.64	16032.67
477.82	16177.78
478.00	16821.43
478.18	16746.53
478.36	16798.02
478.54	17050.80
478.72	17071.87
478.90	17142.08
479.08	17359.75
479.26	17652.32
479.44	17764.67
479.62	17710.83
479.80	17909.78
479.98	18078.30
480.16	18661.09
480.34	18218.73
480.52	18455.12
480.70	18583.85
480.88	18211.71
481.06	18581.51
481.24	18745.35
481.41	19300.06
481.59	19447.51
481.77	19288.35
481.95	19332.82
482.13	19796.25
482.31	19403.04
482.49	20257.34
482.67	19807.95
482.85	20058.39
483.03	20657.57
483.21	20704.38
483.39	20865.88
483.57	20713.74
483.74	20854.17
483.92	21277.81
484.10	21001.63
484.28	21502.50
484.46	21671.02
484.64	22059.55
484.82	21703.79
485.00	21916.78
485.18	22394.25
485.35	22955.97
485.53	22579.15
485.71	22778.09
485.89	23360.89
486.07	23005.13
486.25	23005.13
486.43	23421.74
486.61	23606.64
486.78	24039.64
486.96	24163.69
487.14	24416.47
487.32	24388.38
487.50	24762.87
487.68	24802.66
487.85	24905.64
488.03	25324.60
488.21	25507.16
488.39	25619.50
488.57	25652.27
488.75	25872.28
488.92	26174.21
489.10	26621.25
489.28	26160.17
489.46	26710.19
489.64	26862.33
489.81	27466.19
489.99	27227.45
490.17	27482.57
490.35	27894.50
490.53	28095.79
490.70	28304.10
490.88	28313.46
491.06	28727.74
491.24	28828.38
491.41	28489.00
491.59	28535.81
491.77	28971.15
491.95	29179.46
492.13	29233.29
492.30	29439.26
492.48	29886.30
492.66	30148.44
492.84	30033.75
493.01	30164.82
493.19	30328.66
493.37	30553.35
493.54	30298.23
493.72	31161.89
493.90	30890.39
494.08	31150.19
494.25	31681.49
494.43	31409.99
494.61	31810.22
494.79	32086.40
494.96	32210.45
495.14	32189.39
495.32	32811.97
495.49	32797.93
495.67	32931.34
495.85	32849.42
496.02	33500.09
496.20	33221.56
496.38	33532.86
496.55	33912.02
496.73	34305.23
496.91	33860.53
497.09	34494.82
497.26	34167.14
497.44	34302.89
497.62	34466.73
497.79	34967.60
497.97	35161.87
498.14	35412.31
498.32	35629.98
498.50	35831.26
498.67	35695.51
498.85	35400.60
499.03	35716.58
499.20	35847.64
499.38	36430.44
499.56	36369.58
499.73	36514.70
499.91	36715.98
500.08	36746.41
500.26	36559.17
500.44	37076.43
500.61	37111.53
500.79	37277.71
500.97	37258.99
501.14	37642.84
501.32	37715.39
501.49	37975.19
501.67	37596.03
501.84	38122.65
502.02	38279.46
502.20	38469.04
502.37	38696.08
502.55	38305.21
502.72	38803.74
502.90	39040.14
503.07	38686.71
503.25	38698.42
503.43	39129.08
503.60	39700.17
503.78	39592.50
503.95	39629.95
504.13	39367.81
504.30	39889.75
504.48	40084.01
504.65	40123.80
504.83	40566.16
505.01	40809.58
505.18	40535.74
505.36	41188.75
505.53	40507.65
505.71	40629.36
505.88	41134.92
506.06	41200.45
506.23	41242.58
506.41	41207.47
506.58	41455.57
506.76	41668.56
506.93	41603.02
507.11	41462.59
507.28	42192.84
507.46	42033.68
507.63	42110.92
507.81	42607.11
507.98	41904.95
508.16	41977.51
508.33	42485.40
508.50	42658.60
508.68	43021.39
508.85	42941.81
509.03	42735.84
509.20	42897.34
509.38	43650.99
509.55	43379.49
509.73	43241.40
509.90	44170.59
510.08	43833.55
510.25	43973.98
510.42	43985.69
510.60	44425.71
510.77	44121.44
510.95	44463.16
511.12	43948.24
511.30	44650.40
511.47	44722.96
511.64	45287.03
511.82	45195.74
511.99	44835.30
512.17	45102.12
512.34	45336.18
512.51	45881.52
512.69	45752.79
512.86	45769.18
513.04	45949.40
513.21	45574.91
513.38	45886.20
513.56	45427.46
513.73	45825.35
513.90	46335.59
514.08	46064.08
514.25	46534.53
514.43	46295.80
514.60	46410.48
514.77	46534.53
514.95	47206.26
515.12	46398.78
515.29	46953.49
515.47	47405.21
515.64	47810.12
515.81	47351.38
515.99	47384.15
516.16	47271.80
516.33	47636.92
516.51	47669.69
516.68	47426.28
516.85	47578.41
517.03	48088.65
517.20	47791.40
517.37	48065.24
517.54	47622.88
517.72	47835.87
517.89	48196.31
518.06	48353.13
518.24	48343.77
518.41	48631.65
518.58	48872.73
518.75	48371.85
518.93	48725.27
519.10	48823.58
519.27	48987.41
519.45	48889.11
519.62	48898.47
519.79	49563.18
519.96	49097.42
520.14	49312.75
520.31	49027.20
520.48	49443.82
520.65	49366.58
520.83	49628.72
521.00	50042.99
521.17	49872.14
521.34	49972.78
521.52	50014.91
521.69	49860.43
521.86	50000.86
522.03	50024.27
522.20	50391.73
522.38	50611.74
522.55	50443.23
522.72	50522.80
522.89	50707.71
523.07	50646.85
523.24	50321.52
523.41	50871.54
523.58	50901.97
523.75	50981.55
523.92	51180.49
524.10	51292.84
524.27	51182.84
524.44	51442.63
524.61	51150.07
524.78	51540.94
524.96	51489.45
525.13	51763.29
525.30	51501.15
525.47	51800.74
525.64	51929.47
525.81	51983.30
525.98	51819.46
526.16	51833.50
526.33	51796.06
526.50	52416.30
526.67	52011.38
526.84	52285.23
527.01	52341.40
527.18	52287.57
527.36	52552.05
527.53	52257.14
527.70	52706.52
527.87	52664.39
528.04	52610.56
528.21	53118.46
528.38	53193.36
528.55	52765.04
528.72	52678.44
528.89	53017.82
529.07	52692.48
529.24	52739.29
529.41	53303.36
529.58	52821.21
529.75	53294.00
529.92	53183.99
530.09	53141.86
530.26	53279.96
530.43	53003.77
530.60	52870.36
530.77	53352.51
530.94	53694.23
531.11	53745.72
531.28	53844.02
531.46	53624.01
531.63	53654.44
531.80	53546.78
531.97	53750.40
532.14	53574.86
532.31	53883.81
532.48	54010.20
532.65	54319.15
532.82	53963.39
532.99	54120.21
533.16	54059.35
533.33	54068.72
533.50	54141.27
533.67	54281.70
533.84	53979.78
534.01	54328.52
534.18	54525.12
534.35	54794.28
534.52	54497.03
534.69	54380.01
534.86	54578.95
535.03	54262.98
535.20	54663.21
535.37	54841.09
535.54	54897.27
535.71	54770.88
535.88	54672.57
536.05	54770.88
536.22	54955.78
536.38	55021.31
536.55	55077.49
536.72	55009.61
536.89	55025.99
537.06	55461.33
537.23	55384.10
537.40	55461.33
537.57	55189.83
537.74	55257.71
537.91	55608.79
538.08	55264.73
538.25	55182.81
538.42	55760.92
538.59	55557.30
538.75	55487.08
538.92	55494.10
539.09	55767.94
539.26	55482.40
539.43	55365.37
539.60	55742.20
539.77	55749.22
539.94	56053.49
540.11	55758.58
540.28	55997.32
540.44	56156.47
540.61	56002.00
540.78	55927.10
540.95	56369.46
541.12	56172.86
541.29	55880.29
541.46	55992.64
541.62	56271.16
541.79	56371.80
541.96	55997.32
542.13	56257.12
542.30	56498.19
542.47	56437.34
542.63	56376.48
542.80	56676.07
542.97	56896.08
543.14	56912.47
543.31	56835.23
543.48	56790.76
543.64	56956.94
543.81	57017.79
543.98	56846.93
544.15	56835.23
544.32	57069.28
544.48	57310.36
544.65	57092.69
544.82	57134.82
544.99	56973.32
545.16	57120.77
545.32	57069.28
545.49	57329.08
545.66	57490.58
545.83	57567.82
546.00	57537.39
546.16	57530.37
546.33	57506.96
546.50	57312.70
546.67	57705.91
546.83	56868.00
547.00	57275.25
547.17	57062.26
547.34	57354.83
547.50	57499.94
547.67	57780.81
547.84	57645.05
548.00	57991.45
548.17	57909.53
548.34	57521.01
548.51	57902.51
548.67	57689.52
548.84	57748.04
549.01	57729.31
549.18	57759.74
549.34	57867.40
549.51	57916.56
549.68	58012.52
549.84	58007.84
550.01	57970.39
550.18	57708.25
550.34	57935.28
550.51	57726.97
550.68	58010.18
550.84	57769.10
551.01	58284.02
551.18	57972.73
551.34	57968.05
551.51	58078.05
551.68	58101.46
551.84	58174.02
552.01	57961.03
552.18	58206.78
552.34	58064.01
552.51	58309.77
552.68	58480.63
552.84	58344.87
553.01	58576.59
553.18	58181.04
553.34	58401.05
553.51	58387.00
553.67	58281.68
553.84	58501.69
554.01	58679.57
554.17	58569.57
554.34	58955.75
554.51	58485.31
554.67	58595.31
554.84	58660.85
555.00	58412.75
555.17	58424.45
555.33	58534.46
555.50	58614.04
555.67	58546.16
555.83	58623.40
556.00	58866.81
556.16	58873.84
556.33	58850.43
556.50	58691.27
556.66	58658.51
556.83	58410.41
556.99	58932.35
557.16	58948.73
557.32	58922.99
557.49	59250.66
557.65	58939.37
557.82	58859.79
557.98	58979.16
558.15	58817.66
558.32	58899.58
558.48	58873.84
558.65	59054.06
558.81	59201.51
558.98	58997.88
559.14	59025.97
559.31	58922.99
559.47	59084.48
559.64	59386.41
559.80	59143.00
559.97	59224.92
560.13	59159.38
560.30	59014.27
560.46	59182.79
560.63	59400.46
560.79	59557.27
560.96	59456.63
561.12	59238.96
561.29	59213.21
561.45	59086.82
561.61	59168.74
561.78	59238.96
561.94	59529.19
562.11	59648.55
562.27	59599.40
562.44	59636.85
562.60	59395.77
562.77	59334.92
562.93	59601.74
563.10	59739.83
563.26	59311.52
563.42	59531.53
563.59	59566.63
563.75	59576.00
563.92	59559.61
564.08	59465.99
564.24	59674.30
564.41	59746.86
564.57	59688.34
564.74	59571.32
564.90	59707.07
565.07	59810.05
565.23	59856.86
565.39	59882.61
565.56	59931.76
565.72	59772.60
565.88	59667.28
566.05	59945.80
566.21	59599.40
566.38	59505.78
566.54	59788.98
566.70	59959.84
566.87	59765.58
567.03	59854.52
567.19	60271.14
567.36	59976.23
567.52	59847.50
567.68	59873.24
567.85	59913.03
568.01	59880.27
568.17	59880.27
568.34	59922.40
568.50	59842.82
568.66	59793.67
568.83	59868.56
568.99	59927.08
569.15	59950.48
569.32	60083.89
569.48	59758.56
569.64	59943.46
569.81	59756.22
569.97	59803.03
570.13	59840.48
570.30	59922.40
570.46	59920.05
570.62	59906.01
570.78	59915.37
570.95	59985.59
571.11	59849.84
571.27	60034.74
571.43	59938.78
571.60	59964.52
571.76	59976.23
571.92	60151.77
572.09	60191.56
572.25	60182.19
572.41	60013.68
572.57	60250.07
572.74	60495.83
572.90	60076.87
573.06	60069.85
573.22	60079.21
573.38	60067.51
573.55	60137.72
573.71	60207.94
573.87	60296.88
574.03	60140.07
574.20	60130.70
574.36	59957.50
574.52	60217.30
574.68	60032.40
574.84	60427.95
575.01	60273.48
575.17	60254.75
575.33	60303.90
575.49	60240.71
575.65	60374.12
575.82	60378.80
575.98	60336.67
576.14	60205.60
576.30	60397.52
576.46	60301.56
576.62	60313.26
576.79	60271.14
576.95	59873.24
577.11	60257.09
577.27	60404.55
577.43	60378.80
577.59	60219.64
577.75	60381.14
577.92	60114.32
578.08	60444.33
578.24	60121.34
578.40	60362.42
578.56	60140.07
578.72	60423.27
578.88	60500.51
579.04	60715.84
579.21	60491.15
579.37	60523.91
579.53	60720.52
579.69	60090.91
579.85	60566.04
580.01	60446.68
580.17	60317.95
580.33	60523.91
580.49	60519.23
580.65	60580.09
580.82	60463.06
580.98	60467.74
581.14	60533.28
581.30	60650.30
581.46	60324.97
581.62	60378.80
581.78	60303.90
581.94	60659.66
582.10	60315.61
582.26	60488.80
582.42	60528.59
582.58	60580.09
582.74	60470.08
582.90	60640.94
583.06	60456.04
583.22	60224.32
583.38	60568.38
583.54	60329.65
583.70	60371.78
583.86	60552.00
584.02	60570.72
584.18	60795.42
584.34	60671.37
584.50	60781.37
584.66	60697.11
584.82	60456.04
584.98	60790.73
585.14	60505.19
585.30	60327.31
585.46	60584.77
585.62	60409.23
585.78	60633.92
585.94	60615.19
586.10	60580.09
586.26	60671.37
586.42	60896.06
586.58	60708.82
586.74	60528.59
586.90	60542.64
587.06	60594.13
587.22	60788.39
587.38	60764.99
587.54	60823.50
587.70	60884.36
587.86	60919.46
588.02	60743.92
