SpectraSuite Data File
++++++++++++++++++++++++++++++++++++
Date: Thu Oct 24 13:21:15 EDT 2013
User: stostad
Dark Spectrum Present: No
Reference Spectrum Present: No
Number of Sampled Component Spectra: 1
Spectrometers: USB2+H05261
Integration Time (usec): 100000 (USB2+H05261)
Spectra Averaged: 1 (USB2+H05261)
Boxcar Smoothing: 0 (USB2+H05261)
Correct for Electrical Dark: No (USB2+H05261)
Strobe/Lamp Enabled: No (USB2+H05261)
Correct for Detector Non-linearity: No (USB2+H05261)
Correct for Stray Light: No (USB2+H05261)
Number of Pixels in Processed Spectrum: 2048
>>>>>Begin Processed Spectral Data<<<<<
365.73	643.65
365.92	643.65
366.12	643.65
366.32	645.99
366.52	400.23
366.72	447.04
366.91	437.68
367.11	454.06
367.31	428.32
367.51	407.25
367.70	428.32
367.90	491.51
368.10	442.36
368.30	461.09
368.49	475.13
368.69	477.47
368.89	475.13
369.09	472.79
369.28	465.77
369.48	470.45
369.68	491.51
369.87	552.37
370.07	528.96
370.27	540.66
370.47	610.88
370.66	784.08
370.86	739.61
371.06	770.04
371.25	842.59
371.45	805.14
371.65	800.46
371.84	777.06
372.04	819.19
372.24	844.93
372.44	802.80
372.63	828.55
372.83	880.04
373.03	823.87
373.22	755.99
373.42	922.17
373.62	849.61
373.81	856.64
374.01	863.66
374.21	851.96
374.40	894.08
374.60	947.92
374.79	936.21
374.99	877.70
375.19	901.11
375.38	854.30
375.58	940.90
375.78	873.02
375.97	901.11
376.17	936.21
376.37	912.81
376.56	901.11
376.76	912.81
376.95	856.64
377.15	961.96
377.35	990.05
377.54	961.96
377.74	901.11
377.93	952.60
378.13	1041.54
378.33	1067.28
378.52	968.98
378.72	1050.90
378.91	994.73
379.11	999.41
379.31	959.62
379.50	957.28
379.70	957.28
379.89	987.71
380.09	954.94
380.28	983.02
380.48	978.34
380.68	943.24
380.87	959.62
381.07	966.64
381.26	990.05
381.46	1032.18
381.65	978.34
381.85	1027.50
382.04	1004.09
382.24	983.02
382.43	1022.81
382.63	1015.79
382.83	966.64
383.02	997.07
383.22	1029.84
383.41	1036.86
383.61	1090.69
383.80	1043.88
384.00	973.66
384.19	1097.71
384.39	1083.67
384.58	978.34
384.78	1090.69
384.97	1060.26
385.17	1027.50
385.36	1034.52
385.56	1057.92
385.75	1071.97
385.95	1144.52
386.14	1095.37
386.34	1053.24
386.53	1102.39
386.72	1144.52
386.92	1076.65
387.11	1130.48
387.31	1107.07
387.50	1156.22
387.70	1097.71
387.89	1109.41
388.09	1158.57
388.28	1055.58
388.48	1128.14
388.67	1146.86
388.86	1146.86
389.06	1212.40
389.25	1128.14
389.45	1221.76
389.64	1191.33
389.84	1125.80
390.03	1179.63
390.22	1160.91
390.42	1093.03
390.61	1128.14
390.81	1184.31
391.00	1149.20
391.19	1184.31
391.39	1238.14
391.58	1151.54
391.78	1261.55
391.97	1280.27
392.16	1172.61
392.36	1338.79
392.55	1249.85
392.75	1263.89
392.94	1160.91
393.13	1263.89
393.33	1247.51
393.52	1179.63
393.71	1306.02
393.91	1301.34
394.10	1247.51
394.29	1355.17
394.49	1336.45
394.68	1247.51
394.88	1338.79
395.07	1327.08
395.26	1238.14
395.46	1315.38
395.65	1357.51
395.84	1336.45
396.04	1394.96
396.23	1369.21
396.42	1411.34
396.62	1392.62
396.81	1369.21
397.00	1352.83
397.19	1397.30
397.39	1371.55
397.58	1495.60
397.77	1434.75
397.97	1474.54
398.16	1486.24
398.35	1411.34
398.55	1420.71
398.74	1486.24
398.93	1465.18
399.12	1432.41
399.32	1444.11
399.51	1455.81
399.70	1460.49
399.90	1523.69
400.09	1511.99
400.28	1537.73
400.47	1558.80
400.67	1584.54
400.86	1607.95
401.05	1654.76
401.24	1659.44
401.44	1558.80
401.63	1549.43
401.82	1589.22
402.01	1638.38
402.21	1540.07
402.40	1577.52
402.59	1612.63
402.78	1591.56
402.97	1598.59
403.17	1659.44
403.36	1678.16
403.55	1621.99
403.74	1781.15
403.93	1818.60
404.13	1837.32
404.32	1823.28
404.51	1661.78
404.70	1638.38
404.89	1764.76
405.09	1802.21
405.28	1734.34
405.47	1750.72
405.66	1827.96
405.85	1788.17
406.05	1734.34
406.24	1912.22
406.43	1870.09
406.62	1940.30
406.81	1879.45
407.00	1874.77
407.20	1884.13
407.39	1842.00
407.58	1991.80
407.77	1923.92
407.96	1919.24
408.15	1928.60
408.34	1940.30
408.54	2012.86
408.73	2050.31
408.92	1930.94
409.11	2062.01
409.30	2057.33
409.49	2019.88
409.68	1919.24
409.87	2050.31
410.07	2094.78
410.26	2062.01
410.45	2092.44
410.64	2129.89
410.83	2106.48
411.02	2010.52
411.21	2195.42
411.40	2181.38
411.59	2232.87
411.78	2153.29
411.98	2214.15
412.17	2207.13
412.36	2342.88
412.55	2387.35
412.74	2277.34
412.93	2275.00
413.12	2204.78
413.31	2546.50
413.50	2385.01
413.69	2389.69
413.88	2506.71
414.07	2471.61
414.26	2520.76
414.45	2429.48
414.64	2429.48
414.83	2569.91
415.02	2548.84
415.22	2525.44
415.41	2593.31
415.60	2651.83
415.79	2686.94
415.98	2661.19
416.17	2682.25
416.36	2654.17
416.55	2640.12
416.74	2612.04
416.93	2661.19
417.12	2675.23
417.31	2712.68
417.50	2775.88
417.69	2764.17
417.88	2832.05
418.07	2846.09
418.26	2794.60
418.45	2902.26
418.64	2899.92
418.83	2928.01
419.02	3059.08
419.21	3169.09
419.39	2899.92
419.58	2806.30
419.77	2829.71
419.96	2925.67
420.15	2984.18
420.34	2953.76
420.53	2923.33
420.72	3038.02
420.91	3108.23
421.10	3049.72
421.29	2977.16
421.48	2981.84
421.67	2995.89
421.86	3091.85
422.05	3098.87
422.24	3007.59
422.43	3117.59
422.61	3089.51
422.80	3255.69
422.99	3332.92
423.18	3185.47
423.37	3246.32
423.56	3133.98
423.75	3119.93
423.94	3105.89
424.13	2932.69
424.32	3052.06
424.50	3211.22
424.69	3300.16
424.88	3215.90
425.07	3199.51
425.26	3173.77
425.45	3251.00
425.64	3176.11
425.83	3103.55
426.01	3274.41
426.20	3243.98
426.39	3251.00
426.58	3173.77
426.77	3258.03
426.96	3201.85
427.15	3407.82
427.33	3353.99
427.52	3267.39
427.71	3185.47
427.90	3330.58
428.09	3349.31
428.28	3325.90
428.46	3412.50
428.65	3442.93
428.84	3543.57
429.03	3417.18
429.22	3445.27
429.40	3398.46
429.59	3442.93
429.78	3442.93
429.97	3421.86
430.16	3536.55
430.34	3487.40
430.53	3583.36
430.72	3440.59
430.91	3578.68
431.10	3590.38
431.28	3496.76
431.47	3557.61
431.66	3719.11
431.85	3627.83
432.03	3688.68
432.22	3833.80
432.41	3723.79
432.60	3679.32
432.79	3735.50
432.97	3819.75
433.16	3758.90
433.35	3616.13
433.54	3857.20
433.72	3714.43
433.91	3859.54
434.10	3854.86
434.28	3871.25
434.47	3948.48
434.66	3887.63
434.85	3861.88
435.03	3896.99
435.22	4194.24
435.41	4362.76
435.59	4234.03
435.78	4131.05
435.97	4156.79
436.16	4100.62
436.34	4067.85
436.53	3997.64
436.72	4198.92
436.90	3950.82
437.09	4070.19
437.28	3936.78
437.46	4065.51
437.65	4095.94
437.84	3962.53
438.02	4184.88
438.21	4198.92
438.40	4152.11
438.58	4248.07
438.77	4243.39
438.96	4255.09
439.14	4465.74
439.33	4358.08
439.52	4346.37
439.70	4348.72
439.89	4496.17
440.08	4510.21
440.26	4503.19
440.45	4524.26
440.63	4449.36
440.82	4603.83
441.01	4568.73
441.19	4638.94
441.38	4699.80
441.57	4470.42
441.75	4690.43
441.94	4755.97
442.12	4706.82
442.31	4847.25
442.50	4720.86
442.68	4901.08
442.87	4903.42
443.05	4978.32
443.24	4952.57
443.43	4954.91
443.61	4950.23
443.80	5085.98
443.98	4880.02
444.17	4777.03
444.35	4861.29
444.54	4980.66
444.73	4966.62
444.91	4985.34
445.10	5020.45
445.28	5069.60
445.47	4971.30
445.65	5032.15
445.84	4947.89
446.02	5046.20
446.21	5018.11
446.39	5064.92
446.58	5004.07
446.77	5025.13
446.95	4980.66
447.14	4954.91
447.32	5254.50
447.51	5100.03
447.69	5123.43
447.88	5144.50
448.06	5146.84
448.25	5210.03
448.43	5123.43
448.62	5327.06
448.80	5151.52
448.99	5174.92
449.17	5188.97
449.36	5203.01
449.54	5277.91
449.73	5366.85
449.91	5310.68
450.10	5165.56
450.28	5460.47
450.46	5404.30
450.65	5296.63
450.83	5336.42
451.02	5359.83
451.20	5430.04
451.39	5310.68
451.57	5404.30
451.76	5399.62
451.94	5416.00
452.13	5579.84
452.31	5530.69
452.49	5425.36
452.68	5666.44
452.86	5516.64
453.05	5568.13
453.23	5598.56
453.42	5462.81
453.60	5462.81
453.78	5631.33
453.97	5570.48
454.15	5603.24
454.34	5650.05
454.52	5671.12
454.70	5764.74
454.89	5727.29
455.07	5664.10
455.26	5729.63
455.44	5722.61
455.62	5909.85
455.81	5788.14
455.99	5666.44
456.17	5731.97
456.36	5776.44
456.54	5928.58
456.73	5963.68
456.91	6083.05
457.09	6125.18
457.28	6190.72
457.46	6054.97
457.64	6197.74
457.83	5975.39
458.01	6155.61
458.19	6057.31
458.38	6258.59
458.56	6176.67
458.74	6452.86
458.93	6307.74
459.11	6197.74
459.29	6239.87
459.48	6335.83
459.66	6267.95
459.84	6160.29
460.03	6476.26
460.21	6490.31
460.39	6370.94
460.57	6349.87
460.76	6403.71
460.94	6417.75
461.12	6548.82
461.31	6656.48
461.49	6581.59
461.67	6436.47
461.85	6696.27
462.04	6602.65
462.22	6846.07
462.40	6766.49
462.59	6614.35
462.77	6785.21
462.95	6691.59
463.13	6677.55
463.32	6705.63
463.50	6658.82
463.68	6853.09
463.86	6757.13
464.05	6532.44
464.23	6829.68
464.41	6841.39
464.59	6754.79
464.78	6810.96
464.96	6853.09
465.14	6736.06
465.32	6956.07
465.50	6972.46
465.69	6867.13
465.87	6918.62
466.05	7073.10
466.23	7009.90
466.41	7087.14
466.60	7318.86
466.78	7049.69
466.96	7068.42
467.14	7096.50
467.32	7108.21
467.51	7162.04
467.69	6846.07
467.87	7080.12
468.05	7302.47
468.23	7178.42
468.41	7133.95
468.60	7197.15
468.78	7414.82
468.96	7349.28
469.14	7304.81
469.32	7363.33
469.50	7105.87
469.69	7400.77
469.87	7414.82
470.05	7279.07
470.23	7522.48
470.41	7534.18
470.59	7625.47
470.77	7660.57
470.95	7613.76
471.14	7733.13
471.32	7723.77
471.50	7573.97
471.68	7775.26
471.86	7798.66
472.04	7796.32
472.22	8065.49
472.40	7819.73
472.58	7981.23
472.77	7967.18
472.95	7962.50
473.13	8215.28
473.31	7978.89
473.49	8053.78
473.67	8086.55
473.85	7906.33
474.03	8226.98
474.21	8194.22
474.39	8299.54
474.57	8395.50
474.75	8503.17
474.93	8552.32
475.12	8489.12
475.30	8519.55
475.48	8418.91
475.66	8484.44
475.84	8578.06
476.02	8732.54
476.20	8613.17
476.38	8865.95
476.56	8926.80
476.74	9146.81
476.92	8868.29
477.10	8894.04
477.28	9156.18
477.46	9249.80
477.64	9191.28
477.82	9114.05
478.00	9268.52
478.18	9289.59
478.36	9507.26
478.54	9664.07
478.72	9570.45
478.90	9792.80
479.08	9820.89
479.26	9923.87
479.44	9893.44
479.62	9966.00
479.80	9848.97
479.98	10260.91
480.16	10272.61
480.34	10076.01
480.52	10218.78
480.70	10427.09
480.88	10178.99
481.06	10417.72
481.24	10410.70
481.41	10427.09
481.59	10729.02
481.77	10661.14
481.95	10860.09
482.13	10885.83
482.31	10780.51
482.49	11152.65
482.67	11234.57
482.85	11342.24
483.03	11419.47
483.21	11499.05
483.39	11674.59
483.57	11503.73
483.74	11915.67
483.92	11709.70
484.10	11583.31
484.28	11880.56
484.46	12084.19
484.64	12224.62
484.82	12271.43
485.00	12482.08
485.18	12578.04
485.35	12624.85
485.53	12428.24
485.71	12819.11
485.89	12926.78
486.07	12713.79
486.25	12975.93
486.43	12922.10
486.61	13249.77
486.78	13160.83
486.96	13448.72
487.14	13504.89
487.32	13413.61
487.50	13561.06
487.68	13481.49
487.85	14171.94
488.03	14200.03
488.21	14106.41
488.39	14052.58
488.57	14115.77
488.75	14511.32
488.92	14546.43
489.10	14611.96
489.28	14586.22
489.46	15002.83
489.64	14895.17
489.81	15073.05
489.99	15192.42
490.17	15389.02
490.35	15566.90
490.53	15407.75
490.70	15557.54
490.88	15386.68
491.06	15702.65
491.24	15775.21
491.41	15793.94
491.59	15962.45
491.77	15756.49
491.95	16180.12
492.13	16147.36
492.30	16233.96
492.48	16233.96
492.66	16556.95
492.84	16362.69
493.01	16540.57
493.19	16631.85
493.37	16716.11
493.54	16713.77
493.72	17245.07
493.90	17029.74
494.08	17256.77
494.25	17380.82
494.43	17401.88
494.61	17610.19
494.79	17476.78
494.96	17593.81
495.14	17652.32
495.32	18066.60
495.49	17996.38
495.67	17699.13
495.85	18267.88
496.02	18132.13
496.20	18092.34
496.38	18214.05
496.55	18518.32
496.73	18890.46
496.91	18808.54
497.09	18979.40
497.26	18780.46
497.44	18881.10
497.62	19014.51
497.79	19356.23
497.97	19264.95
498.14	19599.65
498.32	19522.41
498.50	19477.94
498.67	19719.01
498.85	19609.01
499.03	19541.13
499.20	20070.09
499.38	19941.36
499.56	19871.15
499.73	20011.58
499.91	19861.79
500.08	20259.68
500.26	20140.31
500.44	20613.10
500.61	20636.50
500.79	20290.10
500.97	20634.16
501.14	21146.74
501.32	20559.27
501.49	20819.07
501.67	20765.23
501.84	21032.05
502.02	21130.36
502.20	21179.51
502.37	20945.45
502.55	21261.43
502.72	21394.84
502.90	21509.52
503.07	21074.18
503.25	21453.35
503.43	21406.54
503.60	21668.68
503.78	22052.53
503.95	21525.91
504.13	21984.65
504.30	21626.55
504.48	21778.68
504.65	21907.41
504.83	22118.06
505.01	22214.02
505.18	22232.75
505.36	22317.01
505.53	22265.52
505.71	22235.09
505.88	22354.46
506.06	22345.09
506.23	22377.86
506.41	22735.96
506.58	22923.21
506.76	22583.83
506.93	22864.69
507.11	22691.49
507.28	23089.38
507.46	22857.67
507.63	23227.48
507.81	23314.08
507.98	23183.01
508.16	23147.90
508.33	23325.78
508.50	23424.08
508.68	23456.85
508.85	23655.79
509.03	23796.23
509.20	23880.49
509.38	23974.11
509.55	23990.49
509.73	24004.53
509.90	24327.53
510.08	24397.74
510.25	24313.48
510.42	24140.29
510.60	24283.06
510.77	24477.32
510.95	24173.05
511.12	24372.00
511.30	24458.60
511.47	24945.43
511.64	24400.08
511.82	24615.41
511.99	24758.19
512.17	24833.08
512.34	25043.73
512.51	25254.38
512.69	25123.31
512.86	25195.87
513.04	25631.21
513.21	25397.15
513.38	25364.39
513.56	25408.86
513.73	25355.02
513.90	25633.55
514.08	25568.01
514.25	25593.76
514.43	25848.88
514.60	25809.09
514.77	25926.11
514.95	26064.21
515.12	26029.10
515.29	25797.38
515.47	26125.06
515.64	26490.18
515.81	26073.57
515.99	26195.28
516.16	26417.63
516.33	26515.93
516.51	26242.09
516.68	26338.05
516.85	26373.16
517.03	27140.85
517.20	26955.95
517.37	26525.29
517.54	26836.58
517.72	26838.92
517.89	26672.74
518.06	26974.67
518.24	26885.73
518.41	26885.73
518.58	27019.14
518.75	26923.18
518.93	27145.53
519.10	27173.62
519.27	27410.01
519.45	27728.33
519.62	27686.20
519.79	27796.20
519.96	27438.10
520.14	27527.04
520.31	27356.18
520.48	27915.57
520.65	27772.80
520.83	27861.74
521.00	28151.96
521.17	27555.13
521.34	27873.44
521.52	27868.76
521.69	27906.21
521.86	27938.97
522.03	28381.34
522.20	28126.22
522.38	28854.12
522.55	28240.90
522.72	28444.53
522.89	28313.46
523.07	28615.39
523.24	28563.90
523.41	28622.41
523.58	28594.32
523.75	28858.81
523.92	29003.92
524.10	28861.15
524.27	28896.25
524.44	29010.94
524.61	29177.12
524.78	28982.85
524.96	28950.09
525.13	29041.37
525.30	29420.53
525.47	29350.32
525.64	29432.24
525.81	29312.87
525.98	29701.40
526.16	29357.34
526.33	29834.81
526.50	29818.42
526.67	29523.52
526.84	29827.79
527.01	29942.47
527.18	29776.30
527.36	29921.41
527.53	30040.78
527.70	30022.05
527.87	30148.44
528.04	30122.69
528.21	30263.13
528.38	30513.56
528.55	30096.95
528.72	30293.55
528.89	30567.40
529.07	29853.53
529.24	30216.32
529.41	30478.46
529.58	30602.50
529.75	30635.27
529.92	30579.10
530.09	30841.24
530.26	30817.83
530.43	30672.72
530.60	30342.70
530.77	30628.25
530.94	31005.08
531.11	31192.32
531.28	30841.24
531.46	31047.21
531.63	31337.43
531.80	31218.07
531.97	31136.15
532.14	31295.30
532.31	31051.89
532.48	31517.65
532.65	31274.24
532.82	31215.72
532.99	31299.98
533.16	30937.20
533.33	31613.62
533.50	31665.11
533.67	31674.47
533.84	31318.71
534.01	31625.32
534.18	31763.41
534.35	31833.63
534.52	31749.37
534.69	32294.71
534.86	31812.56
535.03	31545.74
535.20	31707.24
535.37	32137.90
535.54	32301.73
535.71	31952.99
535.88	31990.44
536.05	32219.81
536.22	32009.17
536.38	32254.92
536.55	32449.19
536.72	32788.56
536.89	32336.84
537.06	32474.93
537.23	32790.91
537.40	32535.79
537.57	32570.90
537.74	32252.58
537.91	32362.59
538.08	32493.66
538.25	32315.78
538.42	32648.13
538.59	33074.11
538.75	32896.23
538.92	32624.73
539.09	33013.26
539.26	32664.52
539.43	32842.40
539.60	33291.78
539.77	33031.98
539.94	33439.23
540.11	33280.08
540.28	33282.42
540.44	33441.57
540.61	33546.90
540.78	33401.79
540.95	33661.58
541.12	33479.02
541.29	33638.18
541.46	33511.79
541.62	34246.72
541.79	33652.22
541.96	33703.71
542.13	33926.07
542.30	33710.74
542.47	33851.17
542.63	33993.94
542.80	34579.07
542.97	34600.14
543.14	34277.15
543.31	34389.49
543.48	34326.30
543.64	34787.38
543.81	34693.76
543.98	34209.27
544.15	34745.25
544.32	34525.24
544.48	35108.04
544.65	34665.67
544.82	34553.33
544.99	34625.89
545.16	34572.05
545.32	34630.57
545.49	35012.07
545.66	35491.88
545.83	35496.56
546.00	35845.30
546.16	35138.46
546.33	34991.01
546.50	34670.36
546.67	35042.50
546.83	35070.59
547.00	35290.60
547.17	34787.38
547.34	34754.61
547.50	35072.93
547.67	35283.58
547.84	35438.05
548.00	35412.31
548.17	35414.65
548.34	35002.71
548.51	35370.18
548.67	35484.86
548.84	35531.67
549.01	35323.36
549.18	35658.06
549.34	35597.21
549.51	35140.80
549.68	35466.14
549.84	35534.01
550.01	35510.61
550.18	35433.37
550.34	35290.60
550.51	35424.01
550.68	35550.40
550.84	35372.52
551.01	35627.63
551.18	35454.44
551.34	35419.33
551.51	35779.77
551.68	35550.40
551.84	35407.62
552.01	35098.67
552.18	36114.47
552.34	35601.89
552.51	35620.61
552.68	35859.35
552.84	36144.89
553.01	36388.31
553.18	35964.67
553.34	36165.96
553.51	36116.81
553.67	36400.01
553.84	36388.31
554.01	36018.50
554.17	35835.94
554.34	35798.49
554.51	36364.90
554.67	36334.48
554.84	36156.60
555.00	35749.34
555.17	35922.54
555.33	36086.38
555.50	35941.27
555.67	35695.51
555.83	36261.92
556.00	36177.66
556.16	36432.78
556.33	36217.45
556.50	36065.31
556.66	36397.67
556.83	35866.37
556.99	37048.34
557.16	36610.66
557.32	36547.47
557.49	36720.66
557.65	36397.67
557.82	36737.05
557.98	36636.41
558.15	36191.70
558.32	36943.02
558.48	36643.43
558.65	36481.93
558.81	36451.50
558.98	37130.26
559.14	37083.45
559.31	36765.14
559.47	37102.17
559.64	36730.03
559.80	36704.28
559.97	37277.71
560.13	36701.94
560.30	37003.87
560.46	36723.01
560.63	37170.05
560.79	36971.10
560.96	37097.49
561.12	36772.16
561.29	37104.51
561.45	36966.42
561.61	37315.16
561.78	36882.16
561.94	37209.84
562.11	37298.78
562.27	37443.89
562.44	37457.93
562.60	37216.86
562.77	36947.70
562.93	36807.26
563.10	37258.99
563.26	37102.17
563.42	37429.85
563.59	36793.22
563.75	36935.99
563.92	37401.76
564.08	37490.70
564.24	37514.11
564.41	37649.86
564.57	37460.27
564.74	37607.73
564.90	37544.53
565.07	37488.36
565.23	37780.93
565.39	37354.95
565.56	37684.97
565.72	37776.25
565.88	38096.90
566.05	37003.87
566.21	37202.82
566.38	37361.97
566.54	37684.97
566.70	37633.47
566.87	37813.70
567.03	37778.59
567.19	37919.02
567.36	37820.72
567.52	37373.67
567.68	37610.07
567.85	37347.93
568.01	37670.92
568.17	37752.84
568.34	37619.43
568.50	37542.19
568.66	37895.61
568.83	38024.34
568.99	38136.69
569.15	37727.10
569.32	37750.50
569.48	37628.79
569.64	37551.56
569.81	37584.32
569.97	37287.07
570.13	37661.56
570.30	37654.54
570.46	38073.49
570.62	37677.94
570.78	37790.29
570.95	37411.12
571.11	38031.36
571.27	38101.58
571.43	37745.82
571.60	37755.18
571.76	37724.75
571.92	37951.79
572.09	38157.75
572.25	38270.10
572.41	38082.86
572.57	37996.26
572.74	38462.02
572.90	37579.64
573.06	37942.42
573.22	38132.01
573.38	37684.97
573.55	37916.68
573.71	37977.53
573.87	38113.28
574.03	37689.65
574.20	38356.70
574.36	38270.10
574.52	38106.26
574.68	38143.71
574.84	38368.40
575.01	38036.05
575.17	38340.32
575.33	37933.06
575.49	38073.49
575.65	38330.95
575.82	38160.09
575.98	38258.40
576.14	38731.18
576.30	38082.86
576.46	38370.74
576.62	38506.49
576.79	37975.19
576.95	38216.27
577.11	38127.33
577.27	38541.60
577.43	38635.22
577.59	38581.39
577.75	38052.43
577.92	37862.85
578.08	38302.87
578.24	38113.28
578.40	37757.52
578.56	38560.33
578.72	38476.07
578.88	38520.54
579.04	38270.10
579.21	38139.03
579.37	38120.31
579.53	38082.86
579.69	38337.98
579.85	38440.96
580.01	38485.43
580.17	38108.60
580.33	38103.92
580.49	38857.57
580.65	38817.78
580.82	38373.08
580.98	38129.67
581.14	38363.72
581.30	38639.90
581.46	38286.48
581.62	38457.34
581.78	38249.03
581.94	38181.16
582.10	37872.21
582.26	38300.53
582.42	38223.29
582.58	38471.39
582.74	38148.39
582.90	38485.43
583.06	38567.35
583.22	38616.50
583.38	38691.40
583.54	38352.02
583.70	38422.23
583.86	38490.11
584.02	38714.80
584.18	38780.34
584.34	38775.66
584.50	38761.61
584.66	38326.27
584.82	38494.79
584.98	38305.21
585.14	38611.82
585.30	38731.18
585.46	38494.79
585.62	38377.76
585.78	38756.93
585.94	38843.53
586.10	38583.73
586.26	38464.36
586.42	39124.40
586.58	38323.93
586.74	38410.53
586.90	38602.46
587.06	38663.31
587.22	38850.55
587.38	38888.00
587.54	38916.09
587.70	39009.71
587.86	38602.46
588.02	38822.47
588.18	38749.91
588.34	38630.54
588.49	38483.09
588.65	38506.49
588.81	38878.64
588.97	38820.13
589.13	38480.75
589.29	38986.30
589.45	39112.69
589.61	38745.23
589.77	38998.01
