SpectraSuite Data File
++++++++++++++++++++++++++++++++++++
Date: Thu Oct 24 13:21:29 EDT 2013
User: stostad
Dark Spectrum Present: No
Reference Spectrum Present: No
Number of Sampled Component Spectra: 1
Spectrometers: USB2+H05261
Integration Time (usec): 100000 (USB2+H05261)
Spectra Averaged: 1 (USB2+H05261)
Boxcar Smoothing: 0 (USB2+H05261)
Correct for Electrical Dark: No (USB2+H05261)
Strobe/Lamp Enabled: No (USB2+H05261)
Correct for Detector Non-linearity: No (USB2+H05261)
Correct for Stray Light: No (USB2+H05261)
Number of Pixels in Processed Spectrum: 2048
>>>>>Begin Processed Spectral Data<<<<<
365.73	603.86
365.92	603.86
366.12	603.86
366.32	526.62
366.52	521.94
366.72	493.85
366.91	465.77
367.11	451.72
367.31	503.22
367.51	514.92
367.70	526.62
367.90	463.43
368.10	447.04
368.30	444.70
368.49	430.66
368.69	489.17
368.89	475.13
369.09	470.45
369.28	454.06
369.48	559.39
369.68	531.30
369.87	550.03
370.07	517.26
370.27	603.86
370.47	643.65
370.66	947.92
370.86	1090.69
371.06	1144.52
371.25	1078.99
371.45	1144.52
371.65	1081.33
371.84	1090.69
372.04	1163.25
372.24	1107.07
372.44	1013.45
372.63	1167.93
372.83	1308.36
373.03	1165.59
373.22	1210.06
373.42	1217.08
373.62	1104.73
373.81	1193.67
374.01	1200.69
374.21	1259.21
374.40	1282.61
374.60	1266.23
374.79	1240.48
374.99	1245.16
375.19	1299.00
375.38	1284.95
375.58	1277.93
375.78	1327.08
375.97	1343.47
376.17	1359.85
376.37	1310.70
376.56	1345.81
376.76	1284.95
376.95	1350.49
377.15	1334.11
377.35	1373.89
377.54	1411.34
377.74	1430.07
377.93	1291.98
378.13	1409.00
378.33	1427.73
378.52	1432.41
378.72	1444.11
378.91	1406.66
379.11	1387.94
379.31	1455.81
379.50	1397.30
379.70	1474.54
379.89	1497.94
380.09	1371.55
380.28	1401.98
380.48	1390.28
380.68	1423.05
380.87	1577.52
381.07	1504.96
381.26	1493.26
381.46	1565.82
381.65	1551.78
381.85	1521.35
382.04	1528.37
382.24	1582.20
382.43	1558.80
382.63	1483.90
382.83	1577.52
383.02	1621.99
383.22	1643.06
383.41	1561.14
383.61	1654.76
383.80	1675.82
384.00	1652.42
384.19	1654.76
384.39	1680.50
384.58	1610.29
384.78	1647.74
384.97	1673.48
385.17	1652.42
385.36	1575.18
385.56	1675.82
385.75	1654.76
385.95	1668.80
386.14	1671.14
386.34	1713.27
386.53	1764.76
386.72	1703.91
386.92	1729.66
387.11	1706.25
387.31	1755.40
387.50	1795.19
387.70	1692.21
387.89	1834.98
388.09	1830.30
388.28	1870.09
388.48	1921.58
388.67	1937.96
388.86	1802.21
389.06	1923.92
389.25	1947.33
389.45	1928.60
389.64	1937.96
389.84	1902.86
390.03	1914.56
390.22	1907.54
390.42	1909.88
390.61	1921.58
390.81	1916.90
391.00	2047.97
391.19	2066.69
391.39	2017.54
391.58	2003.50
391.78	2005.84
391.97	2033.93
392.16	2026.90
392.36	1996.48
392.55	2050.31
392.75	2148.61
392.94	2099.46
393.13	2127.55
393.33	2069.03
393.52	2111.16
393.71	2207.13
393.91	2209.47
394.10	2157.97
394.29	2176.70
394.49	2214.15
394.68	2228.19
394.88	2195.42
395.07	2326.49
395.26	2172.02
395.46	2242.23
395.65	2359.26
395.84	2300.75
396.04	2289.04
396.23	2495.01
396.42	2375.64
396.62	2399.05
396.81	2380.32
397.00	2429.48
397.19	2373.30
397.39	2387.35
397.58	2504.37
397.77	2473.95
397.97	2445.86
398.16	2399.05
398.35	2438.84
398.55	2565.23
398.74	2520.76
398.93	2520.76
399.12	2612.04
399.32	2565.23
399.51	2644.81
399.70	2726.72
399.90	2619.06
400.09	2665.87
400.28	2733.75
400.47	2651.83
400.67	2696.30
400.86	2745.45
401.05	2710.34
401.24	2738.43
401.44	2761.83
401.63	2778.22
401.82	2836.73
402.01	2902.26
402.21	2869.50
402.40	2815.66
402.59	2916.31
402.78	2892.90
402.97	2909.29
403.17	2956.10
403.36	2930.35
403.55	3105.89
403.74	3007.59
403.93	3056.74
404.13	3094.19
404.32	3047.38
404.51	3080.14
404.70	3133.98
404.89	3201.85
405.09	3192.49
405.28	3227.60
405.47	3290.79
405.66	3148.02
405.85	3197.17
406.05	3276.75
406.24	3321.22
406.43	3349.31
406.62	3379.73
406.81	3363.35
407.00	3353.99
407.20	3311.86
407.39	3358.67
407.58	3524.85
407.77	3351.65
407.96	3501.44
408.15	3447.61
408.34	3562.30
408.54	3611.45
408.73	3543.57
408.92	3606.77
409.11	3599.74
409.30	3620.81
409.49	3730.81
409.68	3698.05
409.87	3604.42
410.07	3885.29
410.26	3939.12
410.45	3782.31
410.64	3824.44
410.83	3960.19
411.02	3801.03
411.21	4021.04
411.40	3887.63
411.59	4014.02
411.78	4009.34
411.98	4084.23
412.17	4114.66
412.36	4086.58
412.55	4196.58
412.74	4173.18
412.93	4168.49
413.12	4100.62
413.31	4360.42
413.50	4334.67
413.69	4257.43
413.88	4355.74
414.07	4475.10
414.26	4582.77
414.45	4645.96
414.64	4493.83
414.83	4732.56
415.02	4641.28
415.22	4643.62
415.41	4585.11
415.60	4947.89
415.79	4809.80
415.98	4908.10
416.17	4952.57
416.36	4983.00
416.55	4943.21
416.74	5057.90
416.93	5095.35
417.12	5025.13
417.31	5195.99
417.50	4929.17
417.69	5343.44
417.88	5144.50
418.07	5195.99
418.26	5277.91
418.45	5226.42
418.64	5336.42
418.83	5259.18
419.02	5359.83
419.21	5444.09
419.39	5453.45
419.58	5488.56
419.77	5355.15
419.96	5472.17
420.15	5617.29
420.34	5437.06
420.53	5507.28
420.72	5636.01
420.91	5654.73
421.10	5596.22
421.29	5687.50
421.48	5703.89
421.67	5816.23
421.86	5811.55
422.05	5830.27
422.24	5820.91
422.43	5832.62
422.61	5961.34
422.80	6001.13
422.99	5977.73
423.18	6012.84
423.37	5963.68
423.56	5984.75
423.75	5951.98
423.94	5790.49
424.13	5542.39
424.32	5643.03
424.50	5956.66
424.69	6047.94
424.88	6122.84
425.07	6029.22
425.26	5963.68
425.45	6097.10
425.64	6069.01
425.83	6029.22
426.01	5909.85
426.20	5954.32
426.39	6277.32
426.58	6195.40
426.77	5921.56
426.96	6125.18
427.15	6176.67
427.33	6101.78
427.52	6157.95
427.71	6469.24
427.90	6389.66
428.09	6087.73
428.28	6333.49
428.46	6368.60
428.65	6300.72
428.84	6494.99
429.03	6483.28
429.22	6253.91
429.40	6289.02
429.59	6668.19
429.78	6326.47
429.97	6230.51
430.16	6572.22
430.34	6787.55
430.53	6670.53
430.72	6715.00
430.91	6750.10
431.10	6832.02
431.28	6817.98
431.47	6717.34
431.66	6977.14
431.85	6752.45
432.03	7098.84
432.22	7133.95
432.41	7082.46
432.60	6876.49
432.79	7082.46
432.97	7056.72
433.16	7105.87
433.35	7035.65
433.54	7281.41
433.72	7391.41
433.91	7302.47
434.10	7265.02
434.28	7379.71
434.47	7293.11
434.66	7323.54
434.85	7513.12
435.03	7672.28
435.22	7667.60
435.41	7878.24
435.59	7740.15
435.78	7744.83
435.97	7634.83
436.16	7625.47
436.34	7892.29
436.53	7765.90
436.72	7901.65
436.90	7672.28
437.09	7908.67
437.28	7681.64
437.46	7700.36
437.65	7978.89
437.84	7971.86
438.02	7978.89
438.21	8196.56
438.40	7971.86
438.58	8262.09
438.77	8224.64
438.96	8285.50
439.14	8435.29
439.33	8636.58
439.52	8580.40
439.70	8489.12
439.89	8711.47
440.08	8777.01
440.26	8889.35
440.45	8746.58
440.63	8657.64
440.82	8954.89
441.01	9001.70
441.19	9050.85
441.38	9027.45
441.57	9107.02
441.75	9249.80
441.94	9320.01
442.12	9329.38
442.31	9591.52
442.50	9469.81
442.68	9451.08
442.87	9390.23
443.05	9685.14
443.24	9605.56
443.43	9453.42
443.61	9635.99
443.80	9909.83
443.98	9483.85
444.17	9170.22
444.35	9535.34
444.54	9710.88
444.73	9731.95
444.91	9568.11
445.10	10026.86
445.28	9916.85
445.47	9745.99
445.65	9991.75
445.84	9900.47
446.02	9996.43
446.21	9907.49
446.39	9830.25
446.58	9884.08
446.77	10005.79
446.95	9769.40
447.14	9970.68
447.32	10129.84
447.51	9954.30
447.69	9762.37
447.88	10139.20
448.06	10012.81
448.25	9944.94
448.43	9991.75
448.62	10331.12
448.80	10022.17
448.99	10244.52
449.17	10298.36
449.36	10120.48
449.54	10263.25
449.73	10401.34
449.91	10525.39
450.10	10637.73
450.28	10649.44
450.46	10560.50
450.65	10693.91
450.83	10593.26
451.02	10691.57
451.20	10829.66
451.39	10729.02
451.57	10764.12
451.76	10714.97
451.94	10785.19
452.13	10960.73
452.31	10860.09
452.49	10916.26
452.68	10899.87
452.86	10930.30
453.05	11101.16
453.23	11094.14
453.42	10988.82
453.60	10965.41
453.78	11115.20
453.97	11014.56
454.15	11091.80
454.34	11101.16
454.52	11260.32
454.70	11267.34
454.89	11265.00
455.07	11602.04
455.26	11337.56
455.44	11503.73
455.62	11597.35
455.81	11405.43
455.99	11595.01
456.17	11569.27
456.36	11770.55
456.54	11836.09
456.73	12105.25
456.91	12135.68
457.09	12229.30
457.28	12461.01
457.46	11875.88
457.64	12138.02
457.83	12489.10
458.01	12147.38
458.19	12465.69
458.38	12215.26
458.56	12390.80
458.74	12390.80
458.93	12549.95
459.11	12578.04
459.29	12596.76
459.48	12545.27
459.66	12765.28
459.84	12791.03
460.03	12929.12
460.21	12666.98
460.39	12879.97
460.57	12910.40
460.76	13209.98
460.94	12917.42
461.12	13172.54
461.31	13139.77
461.49	13107.00
461.67	13050.83
461.85	13404.25
462.04	13291.90
462.22	13664.05
462.40	13591.49
462.59	13514.25
462.77	13373.82
462.95	13509.57
463.13	13565.74
463.32	13816.18
463.50	13755.33
463.68	13589.15
463.86	13813.84
464.05	13453.40
464.23	13621.92
464.41	13900.44
464.59	13708.52
464.78	14043.21
464.96	13977.68
465.14	13495.53
465.32	14073.64
465.50	14153.22
465.69	14038.53
465.87	14230.46
466.05	13788.10
466.23	14214.07
466.41	14225.78
466.60	14497.28
466.78	14160.24
466.96	14375.57
467.14	14370.89
467.32	14476.21
467.51	14602.60
467.69	14008.11
467.87	14579.20
468.05	14846.02
468.23	14427.06
468.41	14321.74
468.60	14810.91
468.78	14773.46
468.96	14548.77
469.14	14911.55
469.32	15234.55
469.50	14799.21
469.69	15164.33
469.87	15077.73
470.05	15094.11
470.23	15257.95
470.41	15339.87
470.59	15372.64
470.77	15370.30
470.95	15164.33
471.14	15721.38
471.32	15234.55
471.50	15871.17
471.68	15770.53
471.86	15772.87
472.04	16126.29
472.22	16360.34
472.40	16046.71
472.58	15997.56
472.77	16365.03
472.95	16255.02
473.13	16816.75
473.31	16362.69
473.49	16397.79
473.67	16287.79
473.85	16711.42
474.03	16844.84
474.21	17186.55
474.39	17085.91
474.57	16954.84
474.75	17081.23
474.93	17444.01
475.12	17207.62
475.30	17362.09
475.48	17448.69
475.66	17759.98
475.84	17586.79
476.02	17933.18
476.20	17881.69
476.38	17991.70
476.56	18628.32
476.74	18464.49
476.92	18649.39
477.10	18286.61
477.28	18490.23
477.46	18780.46
477.64	18864.72
477.82	19185.37
478.00	19735.40
478.18	19323.46
478.36	19831.36
478.54	19903.92
478.72	19896.89
478.90	19948.39
479.08	20229.25
479.26	20624.80
479.44	20507.77
479.62	20805.02
479.80	20891.62
479.98	20779.28
480.16	21621.87
480.34	20996.95
480.52	21504.84
480.70	21661.66
480.88	21146.74
481.06	21781.03
481.24	21832.52
481.41	22356.80
481.59	22581.49
481.77	22829.59
481.95	22656.39
482.13	22724.26
482.31	22892.78
482.49	23571.54
482.67	23372.59
482.85	23646.43
483.03	23810.27
483.21	24208.16
483.39	24208.16
483.57	24030.28
483.74	24280.72
483.92	24556.90
484.10	24816.70
484.28	25123.31
484.46	25247.36
484.64	25940.16
484.82	25350.34
485.00	25652.27
485.18	26143.78
485.35	26438.69
485.53	26700.83
485.71	26850.63
485.89	27215.75
486.07	27124.47
486.25	26969.99
486.43	27105.74
486.61	27910.89
486.78	27957.70
486.96	28280.69
487.14	28238.56
487.32	28554.54
487.50	28788.59
487.68	28875.19
487.85	29411.17
488.03	29687.36
488.21	30141.42
488.39	29858.21
488.57	29675.65
488.75	30408.24
488.92	30448.03
489.10	31082.31
489.28	30958.27
489.46	31201.68
489.64	31065.93
489.81	31861.71
489.99	31737.66
490.17	32196.41
490.35	32568.55
490.53	32566.21
490.70	32774.52
490.88	32861.12
491.06	33369.02
491.24	33347.95
491.41	33469.66
491.59	33738.82
491.77	33839.47
491.95	34487.79
492.13	34225.65
492.30	34756.96
492.48	34693.76
492.66	34801.43
492.84	34838.87
493.01	35536.35
493.19	35534.01
493.37	35522.31
493.54	35714.23
493.72	36299.37
493.90	36203.41
494.08	36858.76
494.25	36938.33
494.43	36584.91
494.61	37432.19
494.79	36987.49
494.96	37179.41
495.14	37411.12
495.32	38497.13
495.49	38089.88
495.67	37989.24
495.85	38780.34
496.02	39047.16
496.20	39131.42
496.38	39131.42
496.55	38897.36
496.73	40247.85
496.91	39798.47
497.09	39934.22
497.26	40327.43
497.44	40231.47
497.62	40458.50
497.79	40751.07
497.97	40879.80
498.14	41404.08
498.32	41553.87
498.50	41588.98
498.67	42206.88
498.85	41125.55
499.03	42384.76
499.20	42085.17
499.38	42223.26
499.56	42630.52
499.73	42738.18
499.91	42632.86
500.08	43276.51
500.26	42951.17
500.44	43012.02
500.61	43753.97
500.79	43491.83
500.97	43746.95
501.14	43985.69
501.32	44065.27
501.49	43756.32
501.67	44285.28
501.84	44563.80
502.02	44708.91
502.20	44591.89
502.37	44561.46
502.55	44643.38
502.72	44669.12
502.90	45148.93
503.07	45001.48
503.25	45628.74
503.43	45113.83
503.60	45811.31
503.78	45691.94
503.95	45401.71
504.13	46188.13
504.30	46394.10
504.48	46206.86
504.65	46351.97
504.83	46897.31
505.01	46864.55
505.18	46894.97
505.36	47342.02
505.53	47285.84
505.71	47033.07
505.88	47306.91
506.06	47344.36
506.23	47447.34
506.41	48095.67
506.58	47756.29
506.76	48252.48
506.93	48027.79
507.11	47725.86
507.28	48458.45
507.46	48704.21
507.63	48278.23
507.81	48765.06
507.98	48463.13
508.16	48423.34
508.33	48947.62
508.50	48744.00
508.68	49282.32
508.85	49567.87
509.03	49340.83
509.20	49551.48
509.38	49581.91
509.55	50178.75
509.73	49921.29
509.90	50286.41
510.08	50373.01
510.25	50160.02
510.42	50188.11
510.60	50670.26
510.77	50623.45
510.95	50574.30
511.12	50408.12
511.30	50934.74
511.47	51199.22
511.64	51206.24
511.82	51669.67
511.99	50653.87
512.17	51463.70
512.34	51068.15
512.51	51873.29
512.69	51922.44
512.86	51538.60
513.04	51714.14
513.21	51943.51
513.38	52191.61
513.56	52236.08
513.73	52252.46
513.90	52491.19
514.08	52430.34
514.25	52596.52
514.43	52786.10
514.60	52645.67
514.77	52760.36
514.95	53235.48
515.12	52783.76
515.29	52804.83
515.47	53006.11
515.64	53354.85
515.81	53153.57
515.99	53525.71
516.16	53233.14
516.33	53270.59
516.51	53591.25
516.68	53542.10
516.85	53759.76
517.03	53883.81
517.20	53808.92
517.37	53904.88
517.54	53818.28
517.72	53787.85
517.89	53876.79
518.06	54122.55
518.24	54003.18
518.41	54288.73
518.58	54321.49
518.75	54092.12
518.93	54389.37
519.10	54298.09
519.27	54501.71
519.45	54333.20
519.62	55004.93
519.79	55154.72
519.96	54834.07
520.14	55061.10
520.31	54677.25
520.48	54958.12
520.65	54817.69
520.83	55395.80
521.00	55440.27
521.17	55339.63
521.34	55339.63
521.52	55517.51
521.69	55313.88
521.86	55386.44
522.03	55522.19
522.20	55980.93
522.38	56009.02
522.55	55852.20
522.72	55826.46
522.89	56030.08
523.07	55910.72
523.24	55973.91
523.41	56114.34
523.58	55847.52
523.75	56273.50
523.92	56336.69
524.10	56224.35
524.27	56308.61
524.44	56329.67
524.61	56559.05
524.78	56474.79
524.96	56624.58
525.13	56655.01
525.30	56762.67
525.47	56882.04
525.64	56830.55
525.81	57043.54
525.98	56865.66
526.16	56825.87
526.33	56856.29
526.50	57364.19
526.67	57008.43
526.84	57326.74
527.01	57045.88
527.18	57308.02
527.36	57078.64
527.53	57485.90
527.70	57542.07
527.87	57645.05
528.04	57427.38
528.21	57790.17
528.38	57663.78
528.55	57785.49
528.72	57834.64
528.89	57619.31
529.07	57811.23
529.24	57799.53
529.41	57923.58
529.58	58089.76
529.75	57911.88
529.92	57986.77
530.09	57986.77
530.26	58108.48
530.43	57914.22
530.60	57909.53
530.77	58033.58
530.94	58482.97
531.11	58424.45
531.28	58363.60
531.46	58349.56
531.63	58602.33
531.80	58195.08
531.97	58429.13
532.14	58384.66
532.31	58396.37
532.48	58597.65
532.65	58911.28
532.82	58471.26
532.99	58717.02
533.16	58782.55
533.33	58787.24
533.50	58859.79
533.67	58820.00
533.84	58749.79
534.01	58974.48
534.18	59004.91
534.35	59114.91
534.52	58930.01
534.69	59316.20
534.86	59047.04
535.03	58801.28
535.20	59320.88
535.37	59236.62
535.54	59360.67
535.71	59304.49
535.88	59622.81
536.05	59423.86
536.22	59365.35
536.38	59482.37
536.55	59297.47
536.72	59629.83
536.89	59697.70
537.06	59693.02
537.23	59854.52
537.40	59796.01
537.57	59568.97
537.74	59728.13
537.91	59870.90
538.08	59859.20
538.25	59863.88
538.42	59791.33
538.59	59971.55
538.75	59922.40
538.92	60168.15
539.09	60231.35
539.26	59980.91
539.43	59976.23
539.60	60018.36
539.77	59948.14
539.94	60493.49
540.11	60404.55
540.28	60285.18
540.44	60456.04
540.61	60434.97
540.78	60149.43
540.95	60397.52
541.12	60331.99
541.29	60423.27
541.46	60662.00
541.62	60722.86
541.79	60704.13
541.96	60374.12
542.13	60631.58
542.30	60774.35
542.47	60809.46
542.63	60802.44
542.80	60797.76
542.97	61013.08
543.14	61193.31
543.31	61155.86
543.48	60893.72
543.64	61270.54
543.81	61153.52
543.98	60926.49
544.15	61125.43
544.32	61277.57
544.48	61399.27
544.65	61176.92
544.82	61441.40
544.99	61219.05
545.16	61467.15
545.32	61525.66
545.49	61710.56
545.66	61647.37
545.83	61471.83
546.00	61745.67
546.16	61726.95
546.33	61497.58
546.50	61525.66
546.67	61577.15
546.83	61223.73
547.00	61418.00
547.17	61418.00
547.34	61577.15
547.50	61764.40
547.67	61961.00
547.84	61853.34
548.00	61937.60
548.17	62024.20
548.34	61867.38
548.51	61776.10
548.67	61874.40
548.84	61710.56
549.01	61956.32
549.18	61710.56
549.34	61993.77
549.51	62096.75
549.68	62101.43
549.84	62089.73
550.01	61939.94
550.18	61804.19
550.34	62176.33
550.51	62265.27
550.68	62204.42
550.84	61956.32
551.01	62454.86
551.18	62136.54
551.34	61989.09
551.51	62241.87
551.68	62326.13
551.84	62108.46
552.01	62358.89
552.18	62408.04
552.34	62321.44
552.51	62487.62
552.68	62375.28
552.84	62471.24
553.01	62688.91
553.18	62590.61
553.34	62614.01
553.51	62227.82
553.67	62588.27
553.84	62726.36
554.01	62892.54
554.17	62672.52
554.34	62794.23
554.51	62768.49
554.67	62674.87
554.84	62635.08
555.00	62520.39
555.17	62440.81
555.33	62728.70
555.50	62808.28
555.67	62819.98
555.83	62848.06
556.00	63131.27
556.16	62939.35
556.33	62906.58
556.50	63004.88
556.66	62946.37
556.83	62728.70
556.99	63061.05
557.16	63344.26
557.32	63086.80
557.49	63178.08
557.65	63030.63
557.82	63100.84
557.98	63044.67
558.15	63009.56
558.32	63210.85
558.48	62901.90
558.65	63124.25
558.81	63311.49
558.98	63377.03
559.14	63231.91
559.31	63398.09
559.47	63379.37
559.64	63501.07
559.80	63402.77
559.97	63430.86
560.13	63203.83
560.30	63360.64
560.46	63362.98
560.63	63475.33
560.79	63494.05
560.96	63620.44
561.12	63641.51
561.29	63533.84
561.45	63456.60
561.61	63505.76
561.78	63472.99
561.94	63678.96
562.11	63728.11
562.27	63622.78
562.44	63543.20
562.60	63597.04
562.77	63613.42
562.93	63458.94
563.10	63854.50
563.26	63571.29
563.42	63861.52
563.59	63772.58
563.75	63707.04
563.92	63774.92
564.08	63784.28
564.24	63608.74
564.41	63566.61
564.57	63915.35
564.74	63711.72
564.90	63875.56
565.07	63721.08
565.23	63882.58
565.39	63863.86
565.56	63957.48
565.72	63833.43
565.88	63765.56
566.05	63784.28
566.21	63969.18
566.38	63840.45
566.54	63793.64
566.70	63992.59
566.87	64289.84
567.03	63927.05
567.19	64399.84
567.36	64161.11
567.52	64074.51
567.68	64177.49
567.85	63910.67
568.01	64023.01
568.17	63915.35
568.34	64037.06
568.50	63896.62
568.66	63964.50
568.83	64135.36
568.99	64156.42
569.15	64076.85
569.32	64156.42
569.48	63910.67
569.64	64058.12
569.81	63903.65
569.97	63938.75
570.13	64102.59
570.30	64044.08
570.46	64104.93
570.62	64177.49
570.78	64048.76
570.95	64107.27
571.11	64184.51
571.27	64065.14
571.43	64053.44
571.60	64217.28
571.76	64137.70
571.92	64350.69
572.09	64182.17
572.25	64296.86
572.41	64285.15
572.57	64308.56
572.74	64488.78
572.90	64324.94
573.06	64310.90
573.22	64076.85
573.38	64439.63
573.55	64214.94
573.71	64636.23
573.87	64320.26
574.03	64240.68
574.20	64294.52
574.36	64406.86
574.52	64406.86
574.68	64350.69
574.84	64367.07
575.01	64327.28
575.17	64418.56
575.33	64292.18
575.49	64376.43
575.65	64397.50
575.82	64327.28
575.98	64397.50
576.14	64514.53
576.30	64402.18
576.46	64418.56
576.62	64217.28
576.79	64353.03
576.95	64238.34
577.11	64294.52
577.27	64481.76
577.43	64551.98
577.59	64514.53
577.75	64519.21
577.92	64151.74
578.08	64310.90
578.24	64535.59
578.40	64477.08
578.56	64474.74
578.72	64467.72
578.88	64771.99
579.04	64601.13
579.21	64420.90
579.37	64680.70
579.53	64624.53
579.69	64247.71
579.85	64624.53
580.01	64669.00
580.17	64584.74
580.33	64706.45
580.49	64767.30
580.65	64547.29
580.82	64750.92
580.98	64608.15
581.14	64767.30
581.30	64692.41
581.46	64507.50
581.62	64603.47
581.78	64486.44
581.94	64521.55
582.10	64411.54
582.26	64554.32
582.42	64645.60
582.58	64708.79
582.74	64605.81
582.90	64729.86
583.06	64736.88
583.22	64523.89
583.38	64568.36
583.54	64661.98
583.70	64547.29
583.86	64708.79
584.02	64554.32
584.18	64727.52
584.34	64561.34
584.50	64849.22
584.66	64603.47
584.82	64484.10
584.98	64706.45
585.14	64750.92
585.30	64493.46
585.46	64645.60
585.62	64598.79
585.78	64769.64
585.94	64640.92
586.10	64746.24
586.26	64842.20
586.42	64872.63
586.58	64896.03
586.74	64699.43
586.90	64470.06
587.06	64596.45
587.22	64959.23
587.38	64652.62
587.54	65057.53
