SpectraSuite Data File
++++++++++++++++++++++++++++++++++++
Date: Thu Oct 24 13:21:30 EDT 2013
User: stostad
Dark Spectrum Present: No
Reference Spectrum Present: No
Number of Sampled Component Spectra: 1
Spectrometers: USB2+H05261
Integration Time (usec): 100000 (USB2+H05261)
Spectra Averaged: 1 (USB2+H05261)
Boxcar Smoothing: 0 (USB2+H05261)
Correct for Electrical Dark: No (USB2+H05261)
Strobe/Lamp Enabled: No (USB2+H05261)
Correct for Detector Non-linearity: No (USB2+H05261)
Correct for Stray Light: No (USB2+H05261)
Number of Pixels in Processed Spectrum: 2048
>>>>>Begin Processed Spectral Data<<<<<
365.73	601.52
365.92	601.52
366.12	601.52
366.32	470.45
366.52	475.13
366.72	454.06
366.91	440.02
367.11	456.40
367.31	428.32
367.51	411.93
367.70	444.70
367.90	449.38
368.10	444.70
368.30	470.45
368.49	489.17
368.69	479.81
368.89	472.79
369.09	482.15
369.28	517.26
369.48	482.15
369.68	535.98
369.87	533.64
370.07	418.96
370.27	540.66
370.47	655.35
370.66	980.68
370.86	1046.22
371.06	1179.63
371.25	1095.37
371.45	1137.50
371.65	1163.25
371.84	1149.20
372.04	1102.39
372.24	1125.80
372.44	1090.69
372.63	1193.67
372.83	1203.04
373.03	1198.35
373.22	1252.19
373.42	1284.95
373.62	1217.08
373.81	1249.85
374.01	1294.32
374.21	1247.51
374.40	1210.06
374.60	1329.42
374.79	1263.89
374.99	1238.14
375.19	1387.94
375.38	1366.87
375.58	1348.15
375.78	1373.89
375.97	1301.34
376.17	1441.77
376.37	1338.79
376.56	1392.62
376.76	1390.28
376.95	1423.05
377.15	1418.36
377.35	1336.45
377.54	1406.66
377.74	1296.66
377.93	1345.81
378.13	1483.90
378.33	1345.81
378.52	1376.24
378.72	1409.00
378.91	1392.62
379.11	1446.45
379.31	1453.47
379.50	1448.79
379.70	1434.75
379.89	1507.30
380.09	1476.88
380.28	1479.22
380.48	1497.94
380.68	1561.14
380.87	1460.49
381.07	1556.46
381.26	1554.12
381.46	1626.67
381.65	1570.50
381.85	1547.09
382.04	1579.86
382.24	1703.91
382.43	1535.39
382.63	1603.27
382.83	1516.67
383.02	1600.93
383.22	1687.53
383.41	1654.76
383.61	1610.29
383.80	1675.82
384.00	1638.38
384.19	1598.59
384.39	1652.42
384.58	1694.55
384.78	1734.34
384.97	1652.42
385.17	1724.97
385.36	1652.42
385.56	1680.50
385.75	1675.82
385.95	1664.12
386.14	1699.23
386.34	1680.50
386.53	1804.55
386.72	1675.82
386.92	1741.36
387.11	1734.34
387.31	1802.21
387.50	1844.34
387.70	1727.32
387.89	1884.13
388.09	1914.56
388.28	1860.73
388.48	1823.28
388.67	1898.17
388.86	1961.37
389.06	1916.90
389.25	1907.54
389.45	1963.71
389.64	1942.64
389.84	2008.18
390.03	1933.28
390.22	2031.58
390.42	1937.96
390.61	2040.95
390.81	2062.01
391.00	2017.54
391.19	2036.27
391.39	2017.54
391.58	2129.89
391.78	2092.44
391.97	2293.72
392.16	2143.93
392.36	2167.34
392.55	2129.89
392.75	2169.68
392.94	2132.23
393.13	2200.10
393.33	2157.97
393.52	2150.95
393.71	2223.51
393.91	2202.44
394.10	2256.28
394.29	2183.72
394.49	2289.04
394.68	2326.49
394.88	2256.28
395.07	2389.69
395.26	2359.26
395.46	2328.83
395.65	2363.94
395.84	2431.82
396.04	2410.75
396.23	2415.43
396.42	2410.75
396.62	2574.59
396.81	2478.63
397.00	2459.90
397.19	2572.25
397.39	2466.92
397.58	2485.65
397.77	2534.80
397.97	2647.15
398.16	2595.65
398.35	2562.89
398.55	2541.82
398.74	2619.06
398.93	2736.09
399.12	2703.32
399.32	2647.15
399.51	2675.23
399.70	2796.94
399.90	2609.70
400.09	2703.32
400.28	2883.54
400.47	2787.58
400.67	2785.24
400.86	2843.75
401.05	2869.50
401.24	2902.26
401.44	2904.60
401.63	2892.90
401.82	2834.39
402.01	2853.11
402.21	2836.73
402.40	2960.78
402.59	3052.06
402.78	2904.60
402.97	2972.48
403.17	3108.23
403.36	3082.49
403.55	3178.45
403.74	3213.56
403.93	3141.00
404.13	3204.19
404.32	3279.09
404.51	3283.77
404.70	3248.66
404.89	3131.64
405.09	3258.03
405.28	3265.05
405.47	3302.50
405.66	3316.54
405.85	3330.58
406.05	3496.76
406.24	3449.95
406.43	3288.45
406.62	3487.40
406.81	3480.38
407.00	3440.59
407.20	3372.71
407.39	3449.95
407.58	3440.59
407.77	3571.66
407.96	3698.05
408.15	3559.95
408.34	3611.45
408.54	3777.62
408.73	3730.81
408.92	3735.50
409.11	3819.75
409.30	3812.73
409.49	3772.94
409.68	3779.97
409.87	3791.67
410.07	3911.04
410.26	3953.16
410.45	3854.86
410.64	4021.04
410.83	4056.15
411.02	4131.05
411.21	4121.68
411.40	4051.47
411.59	4128.70
411.78	4121.68
411.98	4093.60
412.17	4201.26
412.36	4238.71
412.55	4334.67
412.74	4409.57
412.93	4327.65
413.12	4332.33
413.31	4489.15
413.50	4550.00
413.69	4517.23
413.88	4468.08
414.07	4580.43
414.26	4737.24
414.45	4610.86
414.64	4596.81
414.83	4793.42
415.02	4877.68
415.22	4816.82
415.41	4901.08
415.60	4889.38
415.79	4931.51
415.98	5013.43
416.17	5097.69
416.36	5090.67
416.55	5203.01
416.74	5233.44
416.93	5139.82
417.12	5305.99
417.31	5249.82
417.50	5315.36
417.69	5406.64
417.88	5439.40
418.07	5439.40
418.26	5483.88
418.45	5467.49
418.64	5453.45
418.83	5406.64
419.02	5636.01
419.21	5776.44
419.39	5518.98
419.58	5582.18
419.77	5528.35
419.96	5746.02
420.15	5778.78
420.34	5872.40
420.53	5710.91
420.72	5851.34
420.91	5846.66
421.10	5837.30
421.29	5959.00
421.48	5727.29
421.67	5872.40
421.86	5944.96
422.05	5947.30
422.24	5975.39
422.43	6134.54
422.61	6026.88
422.80	6054.97
422.99	6108.80
423.18	6115.82
423.37	6139.23
423.56	6230.51
423.75	6111.14
423.94	6087.73
424.13	5849.00
424.32	5949.64
424.50	6169.65
424.69	6319.45
424.88	6345.19
425.07	6190.72
425.26	6160.29
425.45	6136.88
425.64	6160.29
425.83	6043.26
426.01	6354.55
426.20	6235.19
426.39	6277.32
426.58	6216.46
426.77	6293.70
426.96	6279.66
427.15	6326.47
427.33	6485.62
427.52	6347.53
427.71	6434.13
427.90	6399.02
428.09	6715.00
428.28	6647.12
428.46	6710.32
428.65	6602.65
428.84	6895.22
429.03	6846.07
429.22	6612.01
429.40	6700.95
429.59	6822.66
429.78	6527.75
429.97	6452.86
430.16	6729.04
430.34	6848.41
430.53	6986.50
430.72	6984.16
430.91	6986.50
431.10	6846.07
431.28	7119.91
431.47	7030.97
431.66	7148.00
431.85	7171.40
432.03	7255.66
432.22	7386.73
432.41	7213.53
432.60	7061.40
432.79	7323.54
432.97	7225.23
433.16	7365.67
433.35	7375.03
433.54	7307.15
433.72	7445.24
433.91	7660.57
434.10	7515.46
434.28	7571.63
434.47	7566.95
434.66	7517.80
434.85	7784.62
435.03	7791.64
435.22	7826.75
435.41	8173.15
435.59	8025.70
435.78	8016.33
435.97	8191.88
436.16	8053.78
436.34	7885.26
436.53	7974.21
436.72	8138.04
436.90	7971.86
437.09	8170.81
437.28	8030.38
437.46	8060.80
437.65	8095.91
437.84	8442.31
438.02	8194.22
438.21	8379.12
438.40	8313.58
438.58	8423.59
438.77	8606.15
438.96	8358.05
439.14	8856.59
439.33	8788.71
439.52	8702.11
439.70	8884.67
439.89	8903.40
440.08	9081.28
440.26	9043.83
440.45	8922.12
440.63	9083.62
440.82	9261.50
441.01	9128.09
441.19	9514.28
441.38	9448.74
441.57	9535.34
441.75	9598.54
441.94	9547.05
442.12	9717.90
442.31	9877.06
442.50	9811.53
442.68	9680.46
442.87	9783.44
443.05	9874.72
443.24	10022.17
443.43	9902.81
443.61	9958.98
443.80	10340.49
443.98	9762.37
444.17	9497.89
444.35	9970.68
444.54	10148.56
444.73	10202.40
444.91	10178.99
445.10	10169.63
445.28	10218.78
445.47	10251.55
445.65	10242.18
445.84	10305.38
446.02	10104.09
446.21	10237.50
446.39	10127.50
446.58	10153.24
446.77	10387.30
446.95	10008.13
447.14	10052.60
447.32	10434.11
447.51	10513.69
447.69	10382.62
447.88	10225.80
448.06	10399.00
448.25	10377.94
448.43	10370.91
448.62	10427.09
448.80	10501.98
448.99	10415.38
449.17	10740.72
449.36	10511.35
449.54	10525.39
449.73	10953.71
449.91	11007.54
450.10	10635.39
450.28	10724.33
450.46	10972.43
450.65	10930.30
450.83	10998.18
451.02	10820.30
451.20	11241.59
451.39	11218.19
451.57	11225.21
451.76	11229.89
451.94	11389.05
452.13	11353.94
452.31	11052.01
452.49	11255.64
452.68	11328.19
452.86	11389.05
453.05	11489.69
453.23	11389.05
453.42	11227.55
453.60	11332.87
453.78	11529.48
453.97	11321.17
454.15	11295.43
454.34	11414.79
454.52	11999.93
454.70	11749.49
454.89	11840.77
455.07	11803.32
455.26	11812.68
455.44	12004.61
455.62	12198.87
455.81	12084.19
455.99	11992.90
456.17	12093.55
456.36	12327.60
456.54	12203.55
456.73	12205.89
456.91	12643.57
457.09	12283.13
457.28	12596.76
457.46	12276.11
457.64	12767.62
457.83	12678.68
458.01	12674.00
458.19	12844.86
458.38	12718.47
458.56	13069.55
458.74	12833.16
458.93	12908.05
459.11	12945.50
459.29	13041.46
459.48	12767.62
459.66	12884.65
459.84	13097.64
460.03	13270.84
460.21	13369.14
460.39	13163.17
460.57	13245.09
460.76	13577.45
460.94	13591.49
461.12	13638.30
461.31	13500.21
461.49	13422.97
461.67	13605.53
461.85	13755.33
462.04	13741.29
462.22	14047.90
462.40	14211.73
462.59	14071.30
462.77	13940.23
462.95	14267.91
463.13	13895.76
463.32	13830.23
463.50	14216.41
463.68	14284.29
463.86	14188.33
464.05	13980.02
464.23	14129.81
464.41	14312.38
464.59	14141.52
464.78	14548.77
464.96	14384.93
465.14	14207.05
465.32	14541.75
465.50	14633.03
465.69	14604.94
465.87	14595.58
466.05	14633.03
466.23	14476.21
466.41	14904.53
466.60	15080.07
466.78	14733.67
466.96	14855.38
467.14	14890.49
467.32	15281.36
467.51	15063.69
467.69	14621.33
467.87	14956.02
468.05	15379.66
468.23	14897.51
468.41	14801.55
468.60	15239.23
468.78	15243.91
468.96	15459.24
469.14	15433.49
469.32	15501.37
469.50	15272.00
469.69	15639.46
469.87	15910.96
470.05	15477.96
470.23	16027.99
470.41	15751.81
470.59	15992.88
470.77	15913.30
470.95	16030.33
471.14	16489.07
471.32	15800.96
471.50	16374.39
471.68	16135.65
471.86	16229.27
472.04	16496.10
472.22	16865.90
472.40	16423.54
472.58	16606.10
472.77	16805.05
472.95	17090.59
473.13	17481.46
473.31	16994.63
473.49	16809.73
473.67	17156.13
473.85	17284.86
474.03	17685.09
474.21	17591.47
474.39	17783.39
474.57	17722.54
474.75	17937.87
474.93	18118.09
475.12	17778.71
475.30	18153.20
475.48	18118.09
475.66	18270.22
475.84	18352.14
476.02	18366.18
476.20	18553.43
476.38	18902.17
476.56	19157.28
476.74	18991.11
476.92	19035.58
477.10	19278.99
477.28	19538.79
477.46	19356.23
477.64	19396.02
477.82	19826.68
478.00	20475.01
478.18	20238.61
478.36	20507.77
478.54	20346.28
478.72	20774.60
478.90	20893.96
479.08	20886.94
479.26	21446.33
479.44	21106.95
479.62	21752.94
479.80	21783.37
479.98	21743.58
480.16	22448.08
480.34	21881.67
480.52	22464.46
480.70	22218.71
480.88	22333.39
481.06	22635.32
481.24	23075.34
481.41	22984.06
481.59	23021.51
481.77	23569.19
481.95	23730.69
482.13	24053.69
482.31	23702.61
482.49	24332.21
482.67	24542.86
482.85	24734.78
483.03	25020.33
483.21	24931.39
483.39	25401.83
483.57	25055.43
483.74	25436.94
483.92	25593.76
484.10	25565.67
484.28	26295.92
484.46	26312.30
484.64	27065.96
484.82	26574.44
485.00	26948.93
485.18	27065.96
485.35	27576.19
485.53	27625.34
485.71	27580.87
485.89	27728.33
486.07	28056.00
486.25	28166.01
486.43	28301.76
486.61	28472.62
486.78	29139.67
486.96	29202.86
487.14	29535.22
487.32	29642.88
487.50	29617.14
487.68	29865.24
487.85	30756.98
488.03	30703.15
488.21	31180.62
488.39	31051.89
488.57	31222.75
488.75	31529.36
488.92	31562.12
489.10	31880.44
489.28	31784.48
489.46	32800.27
489.64	32531.11
489.81	33008.58
489.99	33106.88
490.17	33514.13
490.35	33729.46
490.53	33567.96
490.70	33986.92
490.88	34050.11
491.06	34600.14
491.24	34176.50
491.41	34700.78
491.59	34799.08
491.77	35164.21
491.95	35629.98
492.13	35625.29
492.30	35709.55
492.48	35709.55
492.66	36231.49
492.84	36226.81
493.01	36383.63
493.19	36659.81
493.37	37053.02
493.54	37177.07
493.72	37439.21
493.90	37329.20
494.08	37951.79
494.25	37809.01
494.43	38260.74
494.61	38377.76
494.79	38939.49
494.96	38539.26
495.14	39040.14
495.32	39655.70
495.49	39377.17
495.67	39770.38
495.85	40018.48
496.02	39927.20
496.20	40727.66
496.38	40596.59
496.55	40825.96
496.73	41523.44
496.91	40987.46
497.09	41502.38
497.26	41483.66
497.44	41453.23
497.62	41776.22
497.79	42380.08
497.97	42113.26
498.14	43482.47
498.32	43330.34
498.50	43239.06
498.67	43159.48
498.85	42880.95
499.03	43559.71
499.20	43267.14
499.38	43723.55
499.56	43725.89
499.73	44271.23
499.91	44346.13
500.08	44451.45
500.26	44219.74
500.44	44332.09
500.61	45170.00
500.79	44879.77
500.97	45078.72
501.14	45455.54
501.32	45352.56
501.49	45680.24
501.67	45642.79
501.84	45865.14
502.02	45848.75
502.20	46239.62
502.37	46260.69
502.55	46494.74
502.72	46581.34
502.90	46382.40
503.07	46691.35
503.25	47290.52
503.43	46464.32
503.60	47122.01
503.78	47433.30
503.95	47063.49
504.13	47494.15
504.30	47709.48
504.48	47737.57
504.65	48250.14
504.83	48322.70
505.01	48044.18
505.18	48500.58
505.36	48500.58
505.53	48336.74
505.71	48697.19
505.88	48903.15
506.06	48685.48
506.23	49385.30
506.41	49031.88
506.58	49366.58
506.76	49265.94
506.93	49181.68
507.11	49532.76
507.28	49443.82
507.46	50005.55
507.63	49822.98
507.81	50382.37
507.98	49806.60
508.16	50068.74
508.33	50298.11
508.50	50415.14
508.68	50578.98
508.85	50768.56
509.03	50780.26
509.20	50632.81
509.38	50901.97
509.55	51236.67
509.73	51522.21
509.90	51463.70
510.08	51292.84
510.25	51557.32
510.42	51812.44
510.60	51924.78
510.77	51700.09
510.95	52172.88
511.12	51943.51
511.30	51840.53
511.47	52147.14
511.64	52463.11
511.82	52795.46
511.99	52545.03
512.17	52713.55
512.34	52502.90
512.51	53090.37
512.69	53165.27
512.86	52872.70
513.04	53345.49
513.21	53216.76
513.38	53270.59
513.56	53375.92
513.73	53322.08
513.90	53628.69
514.08	53448.47
514.25	53841.68
514.43	53851.05
514.60	53862.75
514.77	53792.53
514.95	54120.21
515.12	53792.53
515.29	54085.10
515.47	54436.18
515.64	54422.14
515.81	54436.18
515.99	54436.18
516.16	54478.31
516.33	54527.46
516.51	54698.32
516.68	54543.84
516.85	54958.12
517.03	55042.38
517.20	54906.63
517.37	55157.06
517.54	55089.19
517.72	55016.63
517.89	55339.63
518.06	55140.68
518.24	55360.69
518.41	55421.55
518.58	55543.25
518.75	55374.73
518.93	55330.26
519.10	55416.86
519.27	55536.23
519.45	55585.38
519.62	55994.98
519.79	56009.02
519.96	56203.28
520.14	56030.08
520.31	55735.18
520.48	56053.49
520.65	56086.26
520.83	56378.82
521.00	56453.72
521.17	56264.14
521.34	56477.13
521.52	56411.59
521.69	56505.21
521.86	56549.68
522.03	56542.66
522.20	56746.29
522.38	56912.47
522.55	57237.80
522.72	57024.81
522.89	56875.02
523.07	57104.39
523.24	57006.09
523.41	57258.87
523.58	57073.96
523.75	57106.73
523.92	57186.31
524.10	57408.66
524.27	57439.09
524.44	57462.49
524.61	57708.25
524.78	57691.86
524.96	57490.58
525.13	57890.81
525.30	57991.45
525.47	57986.77
525.64	57963.37
525.81	58075.71
525.98	58136.57
526.16	57780.81
526.33	58007.84
526.50	58258.27
526.67	58103.80
526.84	58085.07
527.01	58218.49
527.18	58440.84
527.36	58515.73
527.53	58492.33
527.70	58536.80
527.87	58438.50
528.04	58555.52
528.21	58756.81
528.38	58595.31
528.55	58677.23
528.72	58691.27
528.89	58857.45
529.07	58553.18
529.24	58794.26
529.41	58890.22
529.58	59145.34
529.75	58911.28
529.92	59117.25
530.09	58993.20
530.26	59040.01
530.43	59004.91
530.60	58983.84
530.77	59260.02
530.94	59283.43
531.11	59093.85
531.28	59222.58
531.46	59552.59
531.63	59377.05
531.80	59360.67
531.97	59505.78
532.14	59657.91
532.31	59365.35
532.48	59613.44
532.65	59810.05
532.82	59674.30
532.99	59730.47
533.16	59547.91
533.33	59683.66
533.50	59880.27
533.67	59779.62
533.84	59669.62
534.01	59826.43
534.18	60137.72
534.35	60055.81
534.52	60037.08
534.69	60207.94
534.86	59957.50
535.03	59845.16
535.20	60137.72
535.37	60364.76
535.54	60418.59
535.71	60200.92
535.88	60439.65
536.05	60341.35
536.22	60465.40
536.38	60432.63
536.55	60488.80
536.72	60425.61
536.89	60575.40
537.06	60659.66
537.23	60739.24
537.40	60701.79
537.57	60704.13
537.74	60509.87
537.91	60697.11
538.08	60608.17
538.25	60537.96
538.42	60896.06
538.59	60982.66
538.75	60872.65
538.92	61043.51
539.09	61034.15
539.26	60917.12
539.43	60999.04
539.60	61205.01
539.77	60999.04
539.94	61394.59
540.11	61195.65
540.28	61481.19
540.44	61345.44
540.61	61193.31
540.78	61212.03
540.95	61235.44
541.12	61277.57
541.29	61354.80
541.46	61504.60
541.62	61612.26
541.79	61633.33
541.96	61331.40
542.13	61394.59
542.30	61375.87
542.47	61839.29
542.63	61773.76
542.80	61806.53
542.97	61970.36
543.14	62248.89
543.31	61953.98
543.48	62232.50
543.64	62248.89
543.81	62005.47
543.98	62115.48
544.15	62246.55
544.32	62288.68
544.48	62475.92
544.65	62206.76
544.82	62459.54
544.99	62092.07
545.16	62389.32
545.32	62276.97
545.49	62351.87
545.66	62660.82
545.83	62485.28
546.00	62724.02
546.16	62639.76
546.33	62651.46
546.50	62340.17
546.67	62457.20
546.83	62129.52
547.00	62244.21
547.17	62382.30
547.34	62291.02
547.50	62784.87
547.67	62939.35
547.84	62721.68
548.00	62864.45
548.17	63068.08
548.34	62714.65
548.51	62941.69
548.67	62768.49
548.84	62796.57
549.01	62824.66
549.18	62618.69
549.34	62831.68
549.51	63014.24
549.68	63159.36
549.84	62951.05
550.01	62880.83
550.18	62742.74
550.34	63023.61
550.51	63093.82
550.68	63037.65
550.84	62946.37
551.01	63252.98
551.18	63007.22
551.34	63119.57
551.51	63056.37
551.68	63351.28
551.84	63135.95
552.01	63009.56
552.18	63238.93
552.34	63107.86
552.51	63463.63
552.68	63393.41
552.84	63262.34
553.01	63430.86
553.18	63437.88
553.34	63306.81
553.51	63325.53
553.67	63465.97
553.84	63667.25
554.01	63561.93
554.17	63650.87
554.34	63695.34
554.51	63667.25
554.67	63690.66
554.84	63622.78
555.00	63592.36
555.17	63683.64
555.33	63531.50
555.50	63681.30
555.67	63678.96
555.83	63819.39
556.00	63938.75
556.16	64027.70
556.33	63702.36
556.50	63781.94
556.66	63856.84
556.83	63800.66
556.99	63760.87
557.16	63957.48
557.32	64111.95
557.49	64193.87
557.65	63922.37
557.82	64037.06
557.98	63969.18
558.15	63835.77
558.32	64154.08
558.48	63873.22
558.65	64161.11
558.81	63985.57
558.98	64238.34
559.14	64165.79
559.31	64149.40
559.47	64240.68
559.64	64121.32
559.80	64083.87
559.97	64243.02
560.13	64072.17
560.30	64240.68
560.46	64231.32
560.63	64446.65
560.79	64303.88
560.96	64495.80
561.12	64477.08
561.29	64287.49
561.45	64214.94
561.61	64381.12
561.78	64416.22
561.94	64488.78
562.11	64683.04
562.27	64547.29
562.44	64568.36
562.60	64554.32
562.77	64556.66
562.93	64334.31
563.10	64671.34
563.26	64486.44
563.42	64587.08
563.59	64486.44
563.75	64467.72
563.92	64750.92
564.08	64470.06
564.24	64811.77
564.41	64568.36
564.57	64608.15
564.74	64568.36
564.90	64673.68
565.07	64647.94
565.23	64596.45
565.39	64762.62
565.56	65017.74
565.72	64739.22
565.88	64863.27
566.05	64645.60
566.21	64692.41
566.38	64551.98
566.54	64760.28
566.70	64776.67
566.87	64959.23
567.03	64886.67
567.19	65139.45
567.36	65038.81
567.52	64795.39
567.68	64905.40
567.85	64849.22
568.01	64992.00
568.17	64800.07
568.34	64891.35
568.50	64912.42
568.66	64977.95
568.83	65160.51
568.99	64889.01
569.15	64896.03
569.32	65010.72
569.48	64587.08
569.64	64835.18
569.81	64954.55
569.97	64881.99
570.13	65041.15
570.30	64968.59
570.46	65008.38
570.62	64954.55
570.78	64945.18
570.95	64879.65
571.11	65141.79
571.27	65062.21
571.43	64989.66
571.60	65240.09
571.76	65130.09
571.92	65214.35
572.09	65312.65
572.25	65275.20
572.41	65113.70
572.57	65474.15
572.74	65272.86
572.90	65144.13
573.06	65254.14
573.22	65048.17
573.38	65219.03
573.55	65300.95
573.71	65326.69
573.87	65254.14
574.03	65071.57
574.20	65497.55
574.36	65179.24
574.52	65080.94
574.68	65137.11
574.84	65263.50
575.01	65347.76
575.17	65265.84
575.33	65132.43
575.49	65127.75
575.65	65314.99
575.82	65251.80
575.98	65289.24
576.14	65424.99
576.30	65307.97
576.46	65352.44
576.62	65094.98
576.79	65277.54
576.95	65104.34
577.11	65443.72
577.27	65481.17
577.43	65518.62
577.59	65401.59
577.75	65471.81
577.92	65244.77
578.08	65329.03
578.24	65424.99
578.40	65310.31
578.56	65343.08
578.72	65371.16
578.88	65535.00
579.04	65509.25
579.21	65394.57
579.37	65535.00
579.53	65535.00
579.69	65237.75
579.85	65352.44
580.01	65525.64
580.17	65291.58
580.33	65331.37
580.49	65483.51
580.65	65385.21
580.82	65467.12
580.98	65361.80
581.14	65471.81
581.30	65535.00
581.46	65464.78
581.62	65389.89
581.78	65336.05
581.94	65523.30
582.10	65289.24
582.26	65535.00
582.42	65525.64
582.58	65474.15
582.74	65495.21
582.90	65535.00
583.06	65535.00
583.22	65535.00
583.38	65511.59
583.54	65535.00
583.70	65399.25
583.86	65462.44
584.02	65535.00
584.18	65535.00
584.34	65530.32
584.50	65535.00
584.66	65535.00
584.82	65469.46
584.98	65535.00
585.14	65535.00
585.30	65448.40
585.46	65535.00
585.62	65535.00
585.78	65535.00
585.94	65436.70
586.10	65535.00
586.26	65535.00
586.42	65535.00
586.58	65535.00
586.74	65368.82
586.90	65535.00
587.06	65422.65
587.22	65535.00
587.38	65535.00
