SpectraSuite Data File
++++++++++++++++++++++++++++++++++++
Date: Thu Oct 24 13:21:38 EDT 2013
User: stostad
Dark Spectrum Present: No
Reference Spectrum Present: No
Number of Sampled Component Spectra: 1
Spectrometers: USB2+H05261
Integration Time (usec): 100000 (USB2+H05261)
Spectra Averaged: 1 (USB2+H05261)
Boxcar Smoothing: 0 (USB2+H05261)
Correct for Electrical Dark: No (USB2+H05261)
Strobe/Lamp Enabled: No (USB2+H05261)
Correct for Detector Non-linearity: No (USB2+H05261)
Correct for Stray Light: No (USB2+H05261)
Number of Pixels in Processed Spectrum: 2048
>>>>>Begin Processed Spectral Data<<<<<
365.73	603.86
365.92	603.86
366.12	603.86
366.32	498.53
366.52	472.79
366.72	425.98
366.91	425.98
367.11	538.32
367.31	531.30
367.51	428.32
367.70	500.87
367.90	524.28
368.10	479.81
368.30	449.38
368.49	470.45
368.69	500.87
368.89	521.94
369.09	456.40
369.28	547.69
369.48	554.71
369.68	566.41
369.87	535.98
370.07	615.56
370.27	535.98
370.47	744.29
370.66	1158.57
370.86	1277.93
371.06	1313.04
371.25	1366.87
371.45	1371.55
371.65	1315.38
371.84	1287.29
372.04	1416.02
372.24	1373.89
372.44	1378.58
372.63	1420.71
372.83	1404.32
373.03	1394.96
373.22	1411.34
373.42	1476.88
373.62	1425.39
373.81	1497.94
374.01	1453.47
374.21	1605.61
374.40	1523.69
374.60	1575.18
374.79	1493.26
374.99	1570.50
375.19	1612.63
375.38	1540.07
375.58	1645.40
375.78	1568.16
375.97	1680.50
376.17	1565.82
376.37	1612.63
376.56	1629.01
376.76	1650.08
376.95	1643.06
377.15	1610.29
377.35	1685.19
377.54	1621.99
377.74	1659.44
377.93	1722.63
378.13	1748.38
378.33	1753.06
378.52	1687.53
378.72	1771.79
378.91	1762.42
379.11	1720.29
379.31	1722.63
379.50	1760.08
379.70	1827.96
379.89	1769.44
380.09	1790.51
380.28	1783.49
380.48	1820.94
380.68	1872.43
380.87	1870.09
381.07	1774.13
381.26	1895.83
381.46	1891.15
381.65	1879.45
381.85	1895.83
382.04	1947.33
382.24	1907.54
382.43	1935.62
382.63	2012.86
382.83	1984.77
383.02	2040.95
383.22	2017.54
383.41	1916.90
383.61	2024.56
383.80	2092.44
384.00	2078.40
384.19	2012.86
384.39	1989.46
384.58	2069.03
384.78	2090.10
384.97	2092.44
385.17	2132.23
385.36	2167.34
385.56	2129.89
385.75	2169.68
385.95	2232.87
386.14	2167.34
386.34	2104.14
386.53	2186.06
386.72	2211.81
386.92	2176.70
387.11	2291.38
387.31	2169.68
387.50	2221.17
387.70	2267.98
387.89	2291.38
388.09	2188.40
388.28	2307.77
388.48	2300.75
388.67	2448.20
388.86	2375.64
389.06	2345.22
389.25	2385.01
389.45	2445.86
389.64	2396.71
389.84	2361.60
390.03	2452.88
390.22	2401.39
390.42	2551.18
390.61	2492.67
390.81	2457.56
391.00	2537.14
391.19	2560.55
391.39	2574.59
391.58	2609.70
391.78	2579.27
391.97	2712.68
392.16	2635.44
392.36	2635.44
392.55	2605.02
392.75	2693.96
392.94	2649.49
393.13	2820.35
393.33	2787.58
393.52	2782.90
393.71	2771.19
393.91	2785.24
394.10	2871.84
394.29	2818.00
394.49	2820.35
394.68	2862.48
394.88	2864.82
395.07	2937.37
395.26	2972.48
395.46	2825.03
395.65	3009.93
395.84	2920.99
396.04	2963.12
396.23	3047.38
396.42	2998.23
396.62	3126.96
396.81	3225.26
397.00	3005.25
397.19	3166.74
397.39	3131.64
397.58	3155.04
397.77	3129.30
397.97	3138.66
398.16	3180.79
398.35	3300.16
398.55	3213.56
398.74	3328.24
398.93	3358.67
399.12	3267.39
399.32	3316.54
399.51	3302.50
399.70	3588.04
399.90	3414.84
400.09	3494.42
400.28	3524.85
400.47	3597.40
400.67	3623.15
400.86	3461.65
401.05	3492.08
401.24	3522.51
401.44	3744.86
401.63	3695.71
401.82	3712.09
402.01	3623.15
402.21	3550.59
402.40	3719.11
402.59	3852.52
402.78	3728.47
402.97	3801.03
403.17	3847.84
403.36	3861.88
403.55	3784.65
403.74	3906.35
403.93	3887.63
404.13	4002.32
404.32	4088.92
404.51	4084.23
404.70	4173.18
404.89	3967.21
405.09	4189.56
405.28	4215.30
405.47	4194.24
405.66	4177.86
405.85	4098.28
406.05	4191.90
406.24	4205.94
406.43	4252.75
406.62	4315.95
406.81	4355.74
407.00	4168.49
407.20	4257.43
407.39	4203.60
407.58	4416.59
407.77	4430.63
407.96	4533.62
408.15	4582.77
408.34	4521.92
408.54	4571.07
408.73	4652.98
408.92	4528.94
409.11	4770.01
409.30	4788.74
409.49	4746.61
409.68	4695.11
409.87	4784.06
410.07	4798.10
410.26	4901.08
410.45	4957.25
410.64	4952.57
410.83	4861.29
411.02	4978.32
411.21	5172.58
411.40	5076.62
411.59	5071.94
411.78	5020.45
411.98	5151.52
412.17	5116.41
412.36	5406.64
412.55	5406.64
412.74	5528.35
412.93	5348.12
413.12	5289.61
413.31	5636.01
413.50	5514.30
413.69	5542.39
413.88	5689.84
414.07	5792.83
414.26	5767.08
414.45	5701.54
414.64	5654.73
414.83	5872.40
415.02	5928.58
415.22	5942.62
415.41	6132.20
415.60	6036.24
415.79	6033.90
415.98	6244.55
416.17	6331.15
416.36	6188.38
416.55	6249.23
416.74	6410.73
416.93	6342.85
417.12	6361.58
417.31	6569.88
417.50	6600.31
417.69	6590.95
417.88	6698.61
418.07	6799.26
418.26	6794.58
418.45	6817.98
418.64	6998.20
418.83	6942.03
419.02	6871.81
419.21	7049.69
419.39	7040.33
419.58	7019.27
419.77	7026.29
419.96	7030.97
420.15	7124.59
420.34	7171.40
420.53	7068.42
420.72	7115.23
420.91	7318.86
421.10	7304.81
421.29	7410.14
421.48	7346.94
421.67	7431.20
421.86	7389.07
422.05	7503.76
422.24	7304.81
422.43	7281.41
422.61	7728.45
422.80	7639.51
422.99	7583.34
423.18	7674.62
423.37	7845.48
423.56	7606.74
423.75	7552.91
423.94	7543.55
424.13	7068.42
424.32	7290.77
424.50	7744.83
424.69	7847.82
424.88	7777.60
425.07	7679.30
425.26	7522.48
425.45	7763.56
425.64	7648.87
425.83	7861.86
426.01	7779.94
426.20	7789.30
426.39	7768.24
426.58	7801.01
426.77	7763.56
426.96	7791.64
427.15	7948.46
427.33	7929.74
427.52	7943.78
427.71	8028.04
427.90	7967.18
428.09	8009.31
428.28	8107.62
428.46	8250.39
428.65	8177.83
428.84	8395.50
429.03	8472.74
429.22	8243.37
429.40	8496.14
429.59	8383.80
429.78	8088.89
429.97	7908.67
430.16	8367.42
430.34	8758.28
430.53	8870.63
430.72	8844.88
430.91	8709.13
431.10	8692.75
431.28	8898.72
431.47	8781.69
431.66	9100.00
431.85	8816.80
432.03	8908.08
432.22	9184.26
432.41	8851.91
432.60	9029.79
432.79	9224.05
432.97	9160.86
433.16	9308.31
433.35	9324.69
433.54	9259.16
433.72	9404.27
433.91	9336.40
434.10	9425.34
434.28	9572.79
434.47	9343.42
434.66	9708.54
434.85	9776.42
435.03	9816.21
435.22	9851.31
435.41	10242.18
435.59	9958.98
435.78	10043.24
435.97	9970.68
436.16	9912.17
436.34	10001.11
436.53	9870.04
436.72	10127.50
436.90	9858.34
437.09	10106.43
437.28	10108.77
437.46	10223.46
437.65	10059.62
437.84	10317.08
438.02	10272.61
438.21	10178.99
438.40	10239.84
438.58	10422.41
438.77	10778.17
438.96	10670.50
439.14	10965.41
439.33	10871.79
439.52	11068.39
439.70	10986.47
439.89	11293.08
440.08	11229.89
440.26	11344.58
440.45	11323.51
440.63	11531.82
440.82	11611.40
441.01	11644.17
441.19	11817.36
441.38	11747.15
441.57	11707.36
441.75	11833.75
441.94	12020.99
442.12	12112.27
442.31	12208.23
442.50	12250.36
442.68	12318.24
442.87	12432.93
443.05	12451.65
443.24	12545.27
443.43	12561.66
443.61	12676.34
443.80	12664.64
443.98	12409.52
444.17	12079.50
444.35	12561.66
444.54	12915.08
444.73	12924.44
444.91	12578.04
445.10	12816.77
445.28	12959.55
445.47	12805.07
445.65	12809.75
445.84	13172.54
446.02	13228.71
446.21	13060.19
446.39	12786.35
446.58	13055.51
446.77	12954.87
446.95	12578.04
447.14	13172.54
447.32	12905.71
447.51	13025.08
447.69	12938.48
447.88	12849.54
448.06	13102.32
448.25	13069.55
448.43	13142.11
448.62	13036.78
448.80	13172.54
448.99	13296.58
449.17	13535.32
449.36	13240.41
449.54	13685.11
449.73	13888.74
449.91	13640.64
450.10	13893.42
450.28	13891.08
450.46	13949.59
450.65	13834.91
450.83	13937.89
451.02	14427.06
451.20	14183.65
451.39	14043.21
451.57	14413.02
451.76	13884.06
451.94	14181.31
452.13	14324.08
452.31	14190.67
452.49	14310.04
452.68	14375.57
452.86	14637.71
453.05	14352.16
453.23	14644.73
453.42	14436.42
453.60	14539.41
453.78	14647.07
453.97	14572.18
454.15	14455.15
454.34	14513.66
454.52	15084.75
454.70	14801.55
454.89	14902.19
455.07	14998.15
455.26	14977.09
455.44	15374.98
455.62	15117.52
455.81	15484.98
455.99	15279.02
456.17	15339.87
456.36	15396.04
456.54	15765.85
456.73	15721.38
456.91	16046.71
457.09	15852.45
457.28	16159.06
457.46	15892.24
457.64	16233.96
457.83	16458.65
458.01	15920.32
458.19	16397.79
458.38	16259.70
458.56	16528.86
458.74	16397.79
458.93	16329.92
459.11	16421.20
459.29	16688.02
459.48	16350.98
459.66	16596.74
459.84	16748.87
460.03	16896.33
460.21	17106.98
460.39	17167.83
460.57	17013.35
460.76	17582.10
460.94	17233.36
461.12	17308.26
461.31	17170.17
461.49	17366.78
461.67	16943.14
461.85	17472.10
462.04	17593.81
462.22	17942.55
462.40	17591.47
462.59	17874.67
462.77	17865.31
462.95	18087.66
463.13	17989.36
463.32	17905.10
463.50	18232.77
463.68	18134.47
463.86	18377.89
464.05	18167.24
464.23	17708.49
464.41	18555.77
464.59	18221.07
464.78	18787.48
464.96	18424.70
465.14	18300.65
465.32	18471.51
465.50	18541.72
465.69	18932.59
465.87	19330.48
466.05	18738.33
466.23	18845.99
466.41	18611.94
466.60	19143.24
466.78	18635.35
466.96	18813.23
467.14	19346.87
467.32	19054.30
467.51	19346.87
467.69	18841.31
467.87	19166.65
468.05	19618.37
468.23	19239.20
468.41	19328.14
468.60	19576.24
468.78	19592.62
468.96	19613.69
469.14	20084.14
469.32	20470.33
469.50	19630.07
469.69	19985.83
469.87	20191.80
470.05	20217.55
470.23	20479.69
470.41	20271.38
470.59	20519.48
470.77	20393.09
470.95	20386.07
471.14	20940.77
471.32	20163.72
471.50	20933.75
471.68	21167.80
471.86	20985.24
472.04	21523.57
472.22	21717.83
472.40	21333.98
472.58	21408.88
472.77	21546.97
472.95	21851.24
473.13	22377.86
473.31	21523.57
473.49	22068.91
473.67	21872.31
473.85	22225.73
474.03	22820.22
474.21	22677.45
474.39	23040.23
474.57	22803.84
474.75	23115.13
474.93	23707.29
475.12	23138.54
475.30	23452.17
475.48	22927.89
475.66	23555.15
475.84	23391.31
476.02	24095.82
476.20	23950.70
476.38	24409.45
476.56	24723.08
476.74	24669.25
476.92	24765.21
477.10	24734.78
477.28	25329.28
477.46	25193.53
477.64	25481.41
477.82	25329.28
478.00	26312.30
478.18	26249.11
478.36	26064.21
478.54	26536.99
478.72	26824.88
478.90	27112.77
479.08	27454.48
479.26	27608.96
479.44	27688.54
479.62	27819.61
479.80	28151.96
479.98	28065.36
480.16	28964.13
480.34	28409.42
480.52	28840.08
480.70	29095.20
480.88	28584.96
481.06	29165.42
481.24	29280.10
481.41	29479.05
481.59	29652.25
481.77	30377.81
481.95	30433.99
482.13	31023.80
482.31	30370.79
482.49	31641.70
482.67	31414.67
482.85	31812.56
483.03	32135.56
483.21	32320.46
483.39	32943.04
483.57	32336.84
483.74	33193.48
483.92	33015.60
484.10	33111.56
484.28	33888.62
484.46	34054.79
484.64	34499.50
484.82	34094.58
485.00	34958.24
485.18	35379.54
485.35	35805.52
485.53	35842.96
485.71	36030.21
485.89	36552.15
486.07	36278.30
486.25	36449.16
486.43	36449.16
486.61	36898.55
486.78	37387.72
486.96	38232.65
487.14	38150.73
487.32	38101.58
487.50	38663.31
487.68	38253.72
487.85	39290.57
488.03	39658.04
488.21	40147.21
488.39	40023.16
488.57	40634.04
488.75	40374.24
488.92	40947.67
489.10	40847.03
489.28	41811.33
489.46	42295.82
489.64	41617.07
489.81	41979.85
489.99	42405.83
490.17	42857.55
490.35	43014.37
490.53	43688.44
490.70	44222.08
490.88	43763.34
491.06	44201.02
491.24	44294.64
491.41	44619.97
491.59	45067.02
491.77	45312.77
491.95	45507.04
492.13	45977.48
492.30	45958.76
492.48	46354.31
492.66	46621.13
492.84	46293.46
493.01	47051.79
493.19	46948.81
493.37	47639.26
493.54	47746.93
493.72	47686.07
493.90	47838.21
494.08	48547.39
494.25	49013.16
494.43	48968.69
494.61	48921.88
494.79	49401.69
494.96	49319.77
495.14	49783.19
495.32	50164.70
495.49	50356.63
495.67	50443.23
495.85	50817.71
496.02	50901.97
496.20	51173.47
496.38	51056.45
496.55	51011.98
496.73	51945.85
496.91	51480.08
497.09	51749.24
497.26	51863.93
497.44	52404.59
497.62	52449.06
497.79	52451.41
497.97	52802.49
498.14	53478.90
498.32	53382.94
498.50	53305.70
498.67	53432.09
498.85	53345.49
499.03	53490.60
499.20	53738.70
499.38	53947.01
499.56	54124.89
499.73	54012.54
499.91	54398.73
500.08	54536.82
500.26	54527.46
500.44	54738.11
500.61	55058.76
500.79	54628.10
500.97	54948.76
501.14	55231.96
501.32	55253.03
501.49	55164.09
501.67	55576.02
501.84	55674.32
502.02	55833.48
502.20	56023.06
502.37	55884.97
502.55	56165.84
502.72	55838.16
502.90	56048.81
503.07	56285.20
503.25	56446.70
503.43	56200.94
503.60	56797.78
503.78	56570.75
503.95	56800.12
504.13	56830.55
504.30	56765.01
504.48	56886.72
504.65	57036.51
504.83	57317.38
505.01	57549.09
505.18	57329.08
505.36	57687.18
505.53	57312.70
505.71	57722.29
505.88	57979.75
506.06	57595.90
506.23	57811.23
506.41	58113.16
506.58	57860.38
506.76	57844.00
506.93	58316.79
507.11	58328.49
507.28	58450.20
507.46	58337.85
507.63	58295.72
507.81	58747.45
507.98	58511.05
508.16	58560.20
508.33	58714.68
508.50	58850.43
508.68	59334.92
508.85	59360.67
509.03	59363.01
509.20	59337.26
509.38	59475.35
509.55	59498.76
509.73	59669.62
509.90	59627.49
510.08	59667.28
510.25	59676.64
510.42	59774.94
510.60	59931.76
510.77	59992.61
510.95	60116.66
511.12	59973.89
511.30	60114.32
511.47	60266.45
511.64	60193.90
511.82	60207.94
511.99	60406.89
512.17	60381.14
512.34	60491.15
512.51	61087.98
512.69	61118.41
512.86	60912.44
513.04	61155.86
513.21	60992.02
513.38	60938.19
513.56	60992.02
513.73	61095.00
513.90	61193.31
514.08	61144.16
514.25	61286.93
514.43	61432.04
514.60	61366.51
514.77	61258.84
514.95	61780.78
515.12	61621.62
515.29	61614.60
515.47	61757.38
515.64	62075.69
515.81	61822.91
515.99	61762.06
516.16	61942.28
516.33	61776.10
516.51	62291.02
516.68	62003.13
516.85	62166.97
517.03	62382.30
517.20	62440.81
517.37	62330.81
517.54	62342.51
517.72	62291.02
517.89	62436.13
518.06	62611.67
518.24	62761.47
518.41	62843.38
518.58	62798.91
518.75	62630.40
518.93	62749.76
519.10	62892.54
519.27	63126.59
519.45	62974.45
519.62	63313.83
519.79	63159.36
519.96	63107.86
520.14	63117.23
520.31	63063.39
520.48	63337.24
520.65	63351.28
520.83	63653.21
521.00	63674.27
521.17	63606.40
521.34	63538.52
521.52	63821.73
521.69	63606.40
521.86	63711.72
522.03	63955.14
522.20	63990.25
522.38	64175.15
522.55	64191.53
522.72	64086.21
522.89	64006.63
523.07	64299.20
523.24	64079.19
523.41	64228.98
523.58	64161.11
523.75	64467.72
523.92	64378.78
524.10	64416.22
524.27	64587.08
524.44	64633.89
524.61	64732.20
524.78	64643.26
524.96	64701.77
525.13	64673.68
525.30	64896.03
525.47	65202.64
525.64	65064.55
525.81	64877.31
525.98	65008.38
526.16	65041.15
526.33	64980.29
526.50	65380.52
526.67	65345.42
526.84	65382.87
527.01	65036.47
527.18	65331.37
527.36	65410.95
527.53	65380.52
527.70	65439.04
527.87	65535.00
528.04	65392.23
528.21	65535.00
528.38	65535.00
528.55	65535.00
528.72	65478.83
528.89	65535.00
529.07	65535.00
529.24	65509.25
529.41	65535.00
529.58	65535.00
529.75	65535.00
529.92	65535.00
530.09	65535.00
530.26	65535.00
530.43	65535.00
530.60	65535.00
530.77	65535.00
530.94	65535.00
531.11	65535.00
531.28	65535.00
531.46	65535.00
531.63	65535.00
531.80	65535.00
531.97	65535.00
532.14	65535.00
532.31	65535.00
532.48	65535.00
532.65	65535.00
532.82	65535.00
532.99	65535.00
533.16	65535.00
533.33	65535.00
533.50	65535.00
533.67	65535.00
533.84	65535.00
534.01	65535.00
534.18	65535.00
534.35	65535.00
534.52	65535.00
534.69	65535.00
534.86	65535.00
535.03	65535.00
535.20	65535.00
535.37	65535.00
535.54	65535.00
535.71	65535.00
535.88	65535.00
536.05	65535.00
536.22	65535.00
536.38	65535.00
536.55	65535.00
536.72	65535.00
536.89	65535.00
537.06	65535.00
537.23	65535.00
537.40	65535.00
537.57	65535.00
537.74	65535.00
537.91	65535.00
538.08	65535.00
538.25	65535.00
538.42	65535.00
538.59	65535.00
538.75	65535.00
538.92	65535.00
539.09	65535.00
539.26	65535.00
539.43	65535.00
539.60	65535.00
539.77	65535.00
539.94	65535.00
540.11	65535.00
540.28	65535.00
540.44	65535.00
540.61	65535.00
540.78	65535.00
540.95	65535.00
541.12	65535.00
541.29	65535.00
541.46	65535.00
541.62	65535.00
541.79	65535.00
541.96	65535.00
542.13	65535.00
542.30	65535.00
542.47	65535.00
542.63	65535.00
542.80	65535.00
542.97	65535.00
543.14	65535.00
543.31	65535.00
543.48	65535.00
543.64	65535.00
543.81	65535.00
543.98	65535.00
544.15	65535.00
544.32	65535.00
544.48	65535.00
544.65	65535.00
544.82	65535.00
544.99	65535.00
545.16	65535.00
545.32	65535.00
545.49	65535.00
545.66	65535.00
545.83	65535.00
546.00	65535.00
546.16	65535.00
546.33	65535.00
546.50	65535.00
546.67	65535.00
546.83	65535.00
547.00	65535.00
547.17	65535.00
547.34	65535.00
547.50	65535.00
547.67	65535.00
547.84	65535.00
548.00	65535.00
548.17	65535.00
548.34	65535.00
548.51	65535.00
548.67	65535.00
548.84	65535.00
549.01	65535.00
549.18	65535.00
549.34	65535.00
549.51	65535.00
549.68	65535.00
549.84	65535.00
550.01	65535.00
550.18	65535.00
550.34	65535.00
550.51	65535.00
550.68	65535.00
550.84	65535.00
551.01	65535.00
551.18	65535.00
551.34	65535.00
551.51	65535.00
551.68	65535.00
551.84	65535.00
552.01	65535.00
552.18	65535.00
552.34	65535.00
552.51	65535.00
552.68	65535.00
552.84	65535.00
553.01	65535.00
553.18	65535.00
553.34	65535.00
553.51	65535.00
553.67	65535.00
553.84	65535.00
554.01	65535.00
554.17	65535.00
554.34	65535.00
554.51	65535.00
554.67	65535.00
554.84	65535.00
555.00	65535.00
555.17	65535.00
555.33	65535.00
555.50	65535.00
555.67	65535.00
555.83	65535.00
556.00	65535.00
556.16	65535.00
556.33	65535.00
556.50	65535.00
556.66	65535.00
556.83	65535.00
556.99	65535.00
557.16	65535.00
557.32	65535.00
557.49	65535.00
557.65	65535.00
557.82	65535.00
557.98	65535.00
558.15	65535.00
558.32	65535.00
558.48	65535.00
558.65	65535.00
558.81	65535.00
558.98	65535.00
559.14	65535.00
559.31	65535.00
559.47	65535.00
559.64	65535.00
559.80	65535.00
559.97	65535.00
560.13	65535.00
560.30	65535.00
560.46	65535.00
560.63	65535.00
560.79	65535.00
560.96	65535.00
561.12	65535.00
561.29	65535.00
561.45	65535.00
561.61	65535.00
561.78	65535.00
561.94	65535.00
562.11	65535.00
562.27	65535.00
562.44	65535.00
562.60	65535.00
562.77	65535.00
562.93	65535.00
563.10	65535.00
563.26	65535.00
563.42	65535.00
563.59	65535.00
563.75	65535.00
563.92	65535.00
564.08	65535.00
564.24	65535.00
564.41	65535.00
564.57	65535.00
564.74	65535.00
564.90	65535.00
565.07	65535.00
565.23	65535.00
565.39	65535.00
565.56	65535.00
565.72	65535.00
565.88	65535.00
566.05	65535.00
566.21	65535.00
566.38	65535.00
566.54	65535.00
566.70	65535.00
566.87	65535.00
567.03	65535.00
567.19	65535.00
567.36	65535.00
567.52	65535.00
567.68	65535.00
567.85	65535.00
568.01	65535.00
568.17	65535.00
568.34	65535.00
568.50	65535.00
568.66	65535.00
568.83	65535.00
568.99	65535.00
569.15	65535.00
569.32	65535.00
569.48	65535.00
569.64	65535.00
569.81	65535.00
569.97	65535.00
570.13	65535.00
570.30	65535.00
570.46	65535.00
570.62	65535.00
570.78	65535.00
570.95	65535.00
571.11	65535.00
571.27	65535.00
571.43	65535.00
571.60	65535.00
571.76	65535.00
571.92	65535.00
572.09	65535.00
572.25	65535.00
572.41	65535.00
572.57	65535.00
572.74	65535.00
572.90	65535.00
573.06	65535.00
573.22	65535.00
573.38	65535.00
573.55	65535.00
573.71	65535.00
573.87	65535.00
574.03	65535.00
574.20	65535.00
574.36	65535.00
574.52	65535.00
574.68	65535.00
574.84	65535.00
575.01	65535.00
575.17	65535.00
575.33	65535.00
575.49	65535.00
575.65	65535.00
575.82	65535.00
575.98	65535.00
576.14	65535.00
576.30	65535.00
576.46	65535.00
576.62	65535.00
576.79	65535.00
576.95	65535.00
577.11	65535.00
577.27	65535.00
577.43	65535.00
577.59	65535.00
577.75	65535.00
577.92	65535.00
578.08	65535.00
578.24	65535.00
578.40	65535.00
578.56	65535.00
578.72	65535.00
578.88	65535.00
579.04	65535.00
579.21	65535.00
579.37	65535.00
579.53	65535.00
579.69	65535.00
579.85	65535.00
580.01	65535.00
580.17	65535.00
580.33	65535.00
580.49	65535.00
580.65	65535.00
580.82	65535.00
580.98	65535.00
581.14	65535.00
581.30	65535.00
581.46	65535.00
581.62	65535.00
581.78	65535.00
581.94	65535.00
582.10	65535.00
582.26	65535.00
582.42	65535.00
582.58	65535.00
582.74	65535.00
582.90	65535.00
583.06	65535.00
583.22	65535.00
583.38	65535.00
583.54	65535.00
583.70	65535.00
583.86	65535.00
584.02	65535.00
584.18	65535.00
584.34	65535.00
584.50	65535.00
584.66	65535.00
584.82	65535.00
584.98	65535.00
585.14	65535.00
585.30	65535.00
585.46	65535.00
585.62	65535.00
585.78	65535.00
585.94	65535.00
586.10	65535.00
586.26	65535.00
586.42	65535.00
586.58	65535.00
586.74	65535.00
586.90	65535.00
