SpectraSuite Data File
++++++++++++++++++++++++++++++++++++
Date: Thu Oct 24 13:21:11 EDT 2013
User: stostad
Dark Spectrum Present: No
Reference Spectrum Present: No
Number of Sampled Component Spectra: 1
Spectrometers: USB2+H05261
Integration Time (usec): 100000 (USB2+H05261)
Spectra Averaged: 1 (USB2+H05261)
Boxcar Smoothing: 0 (USB2+H05261)
Correct for Electrical Dark: No (USB2+H05261)
Strobe/Lamp Enabled: No (USB2+H05261)
Correct for Detector Non-linearity: No (USB2+H05261)
Correct for Stray Light: No (USB2+H05261)
Number of Pixels in Processed Spectrum: 2048
>>>>>Begin Processed Spectral Data<<<<<
365.73	524.28
365.92	524.28
366.12	524.28
366.32	514.92
366.52	437.68
366.72	486.83
366.91	491.51
367.11	433.00
367.31	463.43
367.51	409.59
367.70	388.53
367.90	458.74
368.10	482.15
368.30	442.36
368.49	416.62
368.69	545.34
368.89	526.62
369.09	524.28
369.28	528.96
369.48	449.38
369.68	479.81
369.87	582.79
370.07	554.71
370.27	538.32
370.47	580.45
370.66	681.10
370.86	692.80
371.06	657.69
371.25	732.59
371.45	702.16
371.65	725.57
371.84	723.23
372.04	737.27
372.24	770.04
372.44	709.18
372.63	774.72
372.83	739.61
373.03	819.19
373.22	753.65
373.42	861.32
373.62	800.46
373.81	725.57
374.01	894.08
374.21	837.91
374.40	781.74
374.60	788.76
374.79	774.72
374.99	828.55
375.19	816.85
375.38	816.85
375.58	795.78
375.78	812.17
375.97	784.08
376.17	774.72
376.37	875.36
376.56	786.42
376.76	833.23
376.95	929.19
377.15	809.83
377.35	837.91
377.54	905.79
377.74	910.47
377.93	847.27
378.13	800.46
378.33	866.00
378.52	919.83
378.72	968.98
378.91	823.87
379.11	833.23
379.31	868.34
379.50	791.10
379.70	887.06
379.89	861.32
380.09	898.77
380.28	858.98
380.48	870.68
380.68	798.12
380.87	891.74
381.07	868.34
381.26	847.27
381.46	842.59
381.65	861.32
381.85	917.49
382.04	898.77
382.24	858.98
382.43	842.59
382.63	884.72
382.83	877.70
383.02	912.81
383.22	954.94
383.41	922.17
383.61	873.02
383.80	844.93
384.00	910.47
384.19	922.17
384.39	901.11
384.58	882.38
384.78	903.45
384.97	898.77
385.17	889.40
385.36	856.64
385.56	947.92
385.75	917.49
385.95	936.21
386.14	950.26
386.34	926.85
386.53	898.77
386.72	912.81
386.92	940.90
387.11	891.74
387.31	952.60
387.50	868.34
387.70	922.17
387.89	959.62
388.09	968.98
388.28	1067.28
388.48	940.90
388.67	931.53
388.86	990.05
389.06	938.55
389.25	891.74
389.45	973.66
389.64	947.92
389.84	1043.88
390.03	1029.84
390.22	1022.81
390.42	1020.47
390.61	980.68
390.81	947.92
391.00	1004.09
391.19	1050.90
391.39	983.02
391.58	1029.84
391.78	1034.52
391.97	1078.99
392.16	959.62
392.36	1067.28
392.55	1032.18
392.75	1057.92
392.94	1043.88
393.13	1076.65
393.33	1071.97
393.52	1083.67
393.71	1067.28
393.91	1022.81
394.10	999.41
394.29	1057.92
394.49	1163.25
394.68	1135.16
394.88	1111.75
395.07	1093.03
395.26	1046.22
395.46	1022.81
395.65	1111.75
395.84	1111.75
396.04	1081.33
396.23	1142.18
396.42	1132.82
396.62	1217.08
396.81	1125.80
397.00	1156.22
397.19	1125.80
397.39	1160.91
397.58	1146.86
397.77	1188.99
397.97	1177.29
398.16	1123.46
398.35	1144.52
398.55	1163.25
398.74	1219.42
398.93	1291.98
399.12	1214.74
399.32	1167.93
399.51	1114.10
399.70	1226.44
399.90	1228.78
400.09	1273.25
400.28	1249.85
400.47	1203.04
400.67	1238.14
400.86	1256.87
401.05	1191.33
401.24	1228.78
401.44	1320.06
401.63	1299.00
401.82	1362.19
402.01	1196.01
402.21	1277.93
402.40	1291.98
402.59	1331.76
402.78	1350.49
402.97	1348.15
403.17	1291.98
403.36	1320.06
403.55	1296.66
403.74	1411.34
403.93	1378.58
404.13	1427.73
404.32	1376.24
404.51	1474.54
404.70	1455.81
404.89	1416.02
405.09	1423.05
405.28	1469.86
405.47	1411.34
405.66	1423.05
405.85	1392.62
406.05	1462.83
406.24	1378.58
406.43	1497.94
406.62	1453.47
406.81	1500.28
407.00	1474.54
407.20	1544.75
407.39	1490.92
407.58	1479.22
407.77	1533.05
407.96	1586.88
408.15	1526.03
408.34	1549.43
408.54	1589.22
408.73	1636.03
408.92	1544.75
409.11	1605.61
409.30	1577.52
409.49	1521.35
409.68	1533.05
409.87	1671.14
410.07	1685.19
410.26	1631.35
410.45	1739.02
410.64	1605.61
410.83	1636.03
411.02	1699.23
411.21	1811.57
411.40	1778.81
411.59	1659.44
411.78	1799.87
411.98	1785.83
412.17	1820.94
412.36	1771.79
412.55	1820.94
412.74	1792.85
412.93	1827.96
413.12	1694.55
413.31	1879.45
413.50	1905.20
413.69	1811.57
413.88	1977.75
414.07	1980.09
414.26	1923.92
414.45	1973.07
414.64	1853.70
414.83	1888.81
415.02	1935.62
415.22	2076.06
415.41	1994.14
415.60	2033.93
415.79	1947.33
415.98	2071.37
416.17	2003.50
416.36	2047.97
416.55	2108.82
416.74	2174.36
416.93	2019.88
417.12	2139.25
417.31	2160.31
417.50	2132.23
417.69	2118.18
417.88	2134.57
418.07	2141.59
418.26	2176.70
418.45	2172.02
418.64	2239.89
418.83	2183.72
419.02	2256.28
419.21	2312.45
419.39	2293.72
419.58	2211.81
419.77	2134.57
419.96	2230.53
420.15	2291.38
420.34	2277.34
420.53	2303.09
420.72	2300.75
420.91	2342.88
421.10	2370.96
421.29	2253.94
421.48	2335.85
421.67	2349.90
421.86	2349.90
422.05	2382.67
422.24	2385.01
422.43	2368.62
422.61	2359.26
422.80	2305.43
422.99	2333.51
423.18	2408.41
423.37	2471.61
423.56	2403.73
423.75	2321.81
423.94	2284.36
424.13	2211.81
424.32	2352.24
424.50	2413.09
424.69	2490.33
424.88	2445.86
425.07	2422.45
425.26	2382.67
425.45	2370.96
425.64	2462.24
425.83	2356.92
426.01	2370.96
426.20	2385.01
426.39	2394.37
426.58	2417.77
426.77	2546.50
426.96	2373.30
427.15	2406.07
427.33	2469.27
427.52	2473.95
427.71	2462.24
427.90	2600.34
428.09	2527.78
428.28	2469.27
428.46	2523.10
428.65	2462.24
428.84	2616.72
429.03	2600.34
429.22	2630.76
429.40	2520.76
429.59	2586.29
429.78	2520.76
429.97	2464.58
430.16	2551.18
430.34	2656.51
430.53	2679.91
430.72	2583.95
430.91	2623.74
431.10	2703.32
431.28	2679.91
431.47	2644.81
431.66	2719.70
431.85	2693.96
432.03	2747.79
432.22	2719.70
432.41	2754.81
432.60	2754.81
432.79	2698.64
432.97	2846.09
433.16	2775.88
433.35	2827.37
433.54	2918.65
433.72	2946.73
433.91	2810.98
434.10	2841.41
434.28	2773.53
434.47	2883.54
434.66	2885.88
434.85	2888.22
435.03	3028.65
435.22	3117.59
435.41	3316.54
435.59	3262.71
435.78	3194.83
435.97	3150.36
436.16	3007.59
436.34	3012.27
436.53	3000.57
436.72	2977.16
436.90	2995.89
437.09	2958.44
437.28	2953.76
437.46	2974.82
437.65	2991.20
437.84	2967.80
438.02	3091.85
438.21	3131.64
438.40	3026.31
438.58	3112.91
438.77	3159.72
438.96	3218.24
439.14	3178.45
439.33	3192.49
439.52	3262.71
439.70	3173.77
439.89	3236.96
440.08	3262.71
440.26	3412.50
440.45	3166.74
440.63	3346.97
440.82	3445.27
441.01	3412.50
441.19	3316.54
441.38	3330.58
441.57	3456.97
441.75	3344.63
441.94	3506.12
442.12	3569.32
442.31	3501.44
442.50	3510.80
442.68	3585.70
442.87	3655.92
443.05	3536.55
443.24	3611.45
443.43	3609.11
443.61	3571.66
443.80	3693.37
443.98	3550.59
444.17	3445.27
444.35	3616.13
444.54	3702.73
444.73	3616.13
444.91	3646.55
445.10	3684.00
445.28	3660.60
445.47	3529.53
445.65	3653.58
445.84	3625.49
446.02	3611.45
446.21	3707.41
446.39	3653.58
446.58	3679.32
446.77	3824.44
446.95	3639.53
447.14	3597.40
447.32	3730.81
447.51	3604.42
447.69	3651.24
447.88	3791.67
448.06	3889.97
448.25	3653.58
448.43	3723.79
448.62	3702.73
448.80	3599.74
448.99	3693.37
449.17	3688.68
449.36	3672.30
449.54	3904.01
449.73	3943.80
449.91	3974.23
450.10	3843.16
450.28	3999.98
450.46	3995.29
450.65	3854.86
450.83	3857.20
451.02	3941.46
451.20	4018.70
451.39	3939.12
451.57	3964.87
451.76	3770.60
451.94	3978.91
452.13	4011.68
452.31	3981.25
452.49	3861.88
452.68	4037.42
452.86	3906.35
453.05	4018.70
453.23	4025.72
453.42	4205.94
453.60	4046.79
453.78	4051.47
453.97	4056.15
454.15	4058.49
454.34	4100.62
454.52	3997.64
454.70	4051.47
454.89	4079.55
455.07	4231.69
455.26	4037.42
455.44	4112.32
455.62	4091.26
455.81	4194.24
455.99	4248.07
456.17	4297.22
456.36	4196.58
456.54	4231.69
456.73	4355.74
456.91	4428.29
457.09	4381.48
457.28	4435.32
457.46	4365.10
457.64	4351.06
457.83	4393.19
458.01	4463.40
458.19	4395.53
458.38	4528.94
458.56	4351.06
458.74	4320.63
458.93	4337.01
459.11	4425.95
459.29	4517.23
459.48	4610.86
459.66	4631.92
459.84	4585.11
460.03	4664.69
460.21	4519.57
460.39	4610.86
460.57	4685.75
460.76	4760.65
460.94	4613.20
461.12	4580.43
461.31	4599.15
461.49	4685.75
461.67	4788.74
461.85	4730.22
462.04	4807.46
462.22	4945.55
462.40	4821.50
462.59	4800.44
462.77	4884.70
462.95	4716.18
463.13	4828.53
463.32	4812.14
463.50	4945.55
463.68	4992.36
463.86	4854.27
464.05	4798.10
464.23	4837.89
464.41	4903.42
464.59	4807.46
464.78	4933.85
464.96	4786.40
465.14	4772.35
465.32	4873.00
465.50	4990.02
465.69	4917.47
465.87	5041.51
466.05	5046.20
466.23	4873.00
466.41	5036.83
466.60	5057.90
466.78	4938.53
466.96	5027.47
467.14	5132.79
467.32	5022.79
467.51	5107.05
467.69	4952.57
467.87	5179.61
468.05	5130.45
468.23	5071.94
468.41	5071.94
468.60	5041.51
468.78	5366.85
468.96	4971.30
469.14	5153.86
469.32	5313.02
469.50	4985.34
469.69	5193.65
469.87	5305.99
470.05	5291.95
470.23	5535.37
470.41	5352.81
470.59	5404.30
470.77	5268.55
470.95	5416.00
471.14	5530.69
471.32	5411.32
471.50	5423.02
471.68	5327.06
471.86	5404.30
472.04	5654.73
472.22	5699.20
472.40	5399.62
472.58	5584.52
472.77	5638.35
472.95	5682.82
473.13	5774.10
473.31	5675.80
473.49	5722.61
473.67	5636.01
473.85	5605.58
474.03	5785.80
474.21	5687.50
474.39	5816.23
474.57	5722.61
474.75	5816.23
474.93	5998.79
475.12	5989.43
475.30	5998.79
475.48	6069.01
475.66	5949.64
475.84	6022.20
476.02	6108.80
476.20	5998.79
476.38	6190.72
476.56	6087.73
476.74	6188.38
476.92	6251.57
477.10	6338.17
477.28	6499.67
477.46	6403.71
477.64	6471.58
477.82	6626.06
478.00	6621.38
478.18	6392.00
478.36	6581.59
478.54	6731.38
478.72	6640.10
478.90	6707.98
479.08	6899.90
479.26	6913.94
479.44	6782.87
479.62	6815.64
479.80	6942.03
479.98	6956.07
480.16	7234.60
480.34	7108.21
480.52	7281.41
480.70	7377.37
480.88	7276.73
481.06	7236.94
481.24	7300.13
481.41	7494.40
481.59	7559.93
481.77	7400.77
481.95	7559.93
482.13	7581.00
482.31	7499.08
482.49	7793.98
482.67	7662.91
482.85	7906.33
483.03	7976.55
483.21	8180.17
483.39	8152.09
483.57	8016.33
483.74	8049.10
483.92	8259.75
484.10	8229.32
484.28	8273.79
484.46	8397.84
484.64	8491.46
484.82	8454.02
485.00	8428.27
485.18	8589.77
485.35	8905.74
485.53	8833.18
485.71	8844.88
485.89	8917.44
486.07	8891.70
486.25	8837.86
486.43	9107.02
486.61	9104.68
486.78	9179.58
486.96	9430.02
487.14	9268.52
487.32	9174.90
487.50	9317.67
487.68	9530.66
487.85	9530.66
488.03	9860.68
488.21	9750.67
488.39	9781.10
488.57	9832.59
488.75	9958.98
488.92	9834.93
489.10	10164.95
489.28	10118.14
489.46	10270.27
489.64	10225.80
489.81	10455.17
489.99	10459.85
490.17	10408.36
490.35	10621.35
490.53	10703.27
490.70	10611.99
490.88	10731.36
491.06	10766.46
491.24	10869.45
491.41	10850.72
491.59	10977.11
491.77	10836.68
491.95	11049.67
492.13	11077.76
492.30	11028.60
492.48	11206.48
492.66	11356.28
492.84	11080.10
493.01	11634.80
493.19	11517.78
493.37	11424.15
493.54	11648.85
493.72	11494.37
493.90	11705.02
494.08	11744.81
494.25	12093.55
494.43	11857.15
494.61	11822.05
494.79	12231.64
494.96	12018.65
495.14	12046.74
495.32	11999.93
495.49	12072.48
495.67	12407.18
495.85	12334.62
496.02	12273.77
496.20	12472.71
496.38	12402.50
496.55	12683.36
496.73	13109.34
496.91	12908.05
497.09	12819.11
497.26	12816.77
497.44	12924.44
497.62	12779.32
497.79	13074.23
497.97	13055.51
498.14	12912.74
498.32	13149.13
498.50	13191.26
498.67	13324.67
498.85	13364.46
499.03	13465.10
499.20	13378.50
499.38	13460.42
499.56	13664.05
499.73	13654.69
499.91	13511.91
500.08	13715.54
500.26	13607.87
500.44	13685.11
500.61	13818.52
500.79	13937.89
500.97	13998.74
501.14	14150.88
501.32	14345.14
501.49	14202.37
501.67	14146.20
501.84	14377.91
502.02	14204.71
502.20	14375.57
502.37	14300.67
502.55	14398.98
502.72	14483.24
502.90	14410.68
503.07	14223.44
503.25	14427.06
503.43	14368.55
503.60	14757.08
503.78	14649.41
503.95	14583.88
504.13	14396.64
504.30	14775.80
504.48	14717.29
504.65	15044.96
504.83	15012.20
505.01	15077.73
505.18	15035.60
505.36	15122.20
505.53	15129.22
505.71	15070.71
505.88	15234.55
506.06	15461.58
506.23	15541.16
506.41	15290.72
506.58	15492.01
506.76	15051.99
506.93	15169.01
507.11	15344.55
507.28	15456.90
507.46	15726.06
507.63	15515.41
507.81	15709.68
507.98	15405.41
508.16	15613.71
508.33	15749.46
508.50	15744.78
508.68	15700.31
508.85	16301.83
509.03	15913.30
509.20	16114.59
509.38	16168.42
509.55	16346.30
509.73	16053.73
509.90	16472.69
510.08	16182.46
510.25	16315.87
510.42	16383.75
510.60	16372.05
510.77	16521.84
510.95	16304.17
511.12	16400.13
511.30	16791.00
511.47	16325.24
511.64	16659.93
511.82	16945.48
511.99	16762.92
512.17	16940.80
512.34	16727.81
512.51	16893.99
512.69	17146.76
512.86	17118.68
513.04	17151.45
513.21	16922.07
513.38	16879.94
513.56	17088.25
513.73	17289.54
513.90	17266.13
514.08	16982.93
514.25	17549.34
514.43	17399.54
514.60	17245.07
514.77	17167.83
514.95	17654.66
515.12	17280.18
515.29	17621.89
515.47	17530.61
515.64	17795.09
515.81	17542.32
515.99	17598.49
516.16	18003.40
516.33	17701.47
516.51	17958.93
516.68	17860.63
516.85	17884.03
517.03	17858.29
517.20	18092.34
517.37	18197.67
517.54	18192.98
517.72	17937.87
517.89	18113.41
518.06	18090.00
518.24	18050.21
518.41	18300.65
518.58	18223.41
518.75	18141.49
518.93	18286.61
519.10	18127.45
519.27	18265.54
519.45	18310.01
519.62	18705.56
519.79	18764.07
519.96	18539.38
520.14	18368.52
520.31	18382.57
520.48	18679.82
520.65	18710.24
520.83	18761.73
521.00	18754.71
521.17	18721.95
521.34	18794.50
521.52	18682.16
521.69	18993.45
521.86	19183.03
522.03	18998.13
522.20	18824.93
522.38	19176.01
522.55	19424.11
522.72	19468.58
522.89	19058.98
523.07	19150.26
523.24	19290.70
523.41	19190.05
523.58	18956.00
523.75	19660.50
523.92	19391.34
524.10	19424.11
524.27	19538.79
524.44	19807.95
524.61	19452.19
524.78	19728.38
524.96	19590.28
525.13	19470.92
525.30	19522.41
525.47	19613.69
525.64	19756.46
525.81	19534.11
525.98	19618.37
526.16	19709.65
526.33	19707.31
526.50	19866.47
526.67	19632.41
526.84	20074.77
527.01	19744.76
527.18	20170.74
527.36	19967.11
527.53	19822.00
527.70	20170.74
527.87	20205.84
528.04	20168.40
528.21	20152.01
528.38	20107.54
528.55	20175.42
528.72	20278.40
528.89	20446.92
529.07	20170.74
529.24	20203.50
529.41	20730.12
529.58	20580.33
529.75	20283.08
529.92	20769.91
530.09	20505.43
530.26	20428.20
530.43	20362.66
530.60	20549.90
530.77	20613.10
530.94	20723.10
531.11	20786.30
531.28	20570.97
531.46	20870.56
531.63	20751.19
531.80	20669.27
531.97	20812.04
532.14	20788.64
532.31	21158.44
532.48	20823.75
532.65	20746.51
532.82	21259.09
532.99	20898.64
533.16	21043.76
533.33	21118.65
533.50	21160.78
533.67	21198.23
533.84	20760.55
534.01	21128.02
534.18	21326.96
534.35	21565.70
534.52	21202.91
534.69	21282.49
534.86	21420.58
535.03	21001.63
535.20	21172.49
535.37	21441.65
535.54	21635.91
535.71	21614.85
535.88	21579.74
536.05	21425.26
536.22	21530.59
536.38	21729.53
536.55	21713.15
536.72	21717.83
536.89	21905.07
537.06	21909.75
537.23	21790.39
537.40	21509.52
537.57	21900.39
537.74	21734.21
537.91	22012.74
538.08	21788.05
538.25	21949.54
538.42	22078.27
538.59	21905.07
538.75	21940.18
538.92	21998.70
539.09	21783.37
539.26	22270.20
539.43	22192.96
539.60	22057.21
539.77	22396.59
539.94	22197.64
540.11	22197.64
540.28	22141.47
540.44	22595.53
540.61	22551.06
540.78	22293.60
540.95	22644.68
541.12	22621.28
541.29	22513.61
541.46	22867.03
541.62	22789.80
541.79	23204.07
541.96	22689.15
542.13	22658.73
542.30	22850.65
542.47	22981.72
542.63	22951.29
542.80	22782.77
542.97	22913.84
543.14	23503.66
543.31	23304.71
543.48	22946.61
543.64	23274.29
543.81	23089.38
543.98	23337.48
544.15	23374.93
544.32	23620.69
544.48	23718.99
544.65	23440.47
544.82	23578.56
544.99	23051.94
545.16	23665.16
545.32	23473.23
545.49	23992.83
545.66	24224.54
545.83	24561.58
546.00	24446.90
546.16	23992.83
546.33	24208.16
546.50	23831.33
546.67	23927.30
546.83	23365.57
547.00	23484.94
547.17	23351.52
547.34	23346.84
547.50	23442.81
547.67	23915.59
547.84	23632.39
548.00	23999.85
548.17	23770.48
548.34	23709.63
548.51	23461.53
548.67	23807.93
548.84	23686.22
549.01	23417.06
549.18	23620.69
549.34	24233.91
549.51	24161.35
549.68	23754.10
549.84	23974.11
550.01	23473.23
550.18	23534.09
550.34	23735.37
550.51	23667.50
550.68	23718.99
550.84	23620.69
551.01	23323.44
551.18	23749.42
551.34	23438.12
551.51	23695.58
551.68	23948.36
551.84	23571.54
552.01	23744.73
552.18	24254.97
552.34	23740.05
552.51	23908.57
552.68	23578.56
552.84	23728.35
553.01	24306.46
553.18	24025.60
553.34	24168.37
553.51	24011.56
553.67	23931.98
553.84	24240.93
554.01	24194.12
554.17	24182.42
554.34	24278.38
554.51	23885.17
554.67	24187.10
554.84	24074.75
555.00	24025.60
555.17	23934.32
555.33	24105.18
555.50	23906.23
555.67	24030.28
555.83	24070.07
556.00	24030.28
556.16	24432.85
556.33	24063.05
556.50	23946.02
556.66	24123.90
556.83	24070.07
556.99	24592.01
557.16	24369.66
557.32	24699.67
557.49	24776.91
557.65	24203.48
557.82	24266.67
557.98	24397.74
558.15	24395.40
558.32	24870.53
558.48	24526.47
558.65	24119.22
558.81	24386.04
558.98	24629.46
559.14	24535.84
559.31	24484.34
559.47	24364.98
559.64	24500.73
559.80	24240.93
559.97	24372.00
560.13	24435.19
560.30	24357.96
560.46	24308.80
560.63	24650.52
560.79	25041.39
560.96	24809.68
561.12	24978.20
561.29	24465.62
561.45	24659.88
561.61	24922.02
561.78	24655.20
561.94	24854.15
562.11	24833.08
562.27	25029.69
562.44	24847.13
562.60	24748.82
562.77	24734.78
562.93	24769.89
563.10	24863.51
563.26	24472.64
563.42	24922.02
563.59	24690.31
563.75	24645.84
563.92	24924.36
564.08	24943.09
564.24	25022.67
564.41	24868.19
564.57	24938.41
564.74	24573.28
564.90	24959.47
565.07	24999.26
565.23	24896.28
565.39	24617.75
565.56	24755.85
565.72	24786.27
565.88	24861.17
566.05	24968.84
566.21	24704.35
566.38	24432.85
566.54	24680.95
566.70	25043.73
566.87	25174.80
567.03	25120.97
567.19	25195.87
567.36	25355.02
567.52	24975.86
567.68	25062.46
567.85	25095.22
568.01	25331.62
568.17	24730.10
568.34	24882.24
568.50	24872.87
568.66	25055.43
568.83	25266.08
568.99	25118.63
569.15	24900.96
569.32	24907.98
569.48	24893.94
569.64	25156.08
569.81	25106.93
569.97	24905.64
570.13	24814.36
570.30	24751.17
570.46	25156.08
570.62	24945.43
570.78	25149.06
570.95	25078.84
571.11	25165.44
571.27	25193.53
571.43	25490.77
571.60	25401.83
571.76	24947.77
571.92	24915.00
572.09	24999.26
572.25	25120.97
572.41	25453.33
572.57	25078.84
572.74	25343.32
572.90	24795.64
573.06	25434.60
573.22	25247.36
573.38	25310.55
573.55	24973.52
573.71	25401.83
573.87	25446.30
574.03	25315.23
574.20	25069.48
574.36	25324.60
574.52	25095.22
574.68	25530.56
574.84	25202.89
575.01	25521.20
575.17	25357.36
575.33	25336.30
575.49	25359.70
575.65	25317.57
575.82	25315.23
575.98	25467.37
576.14	25685.04
576.30	25516.52
576.46	25331.62
576.62	25163.10
576.79	25142.03
576.95	25294.17
577.11	25025.01
577.27	25055.43
577.43	25135.01
577.59	25312.89
577.75	25376.09
577.92	25207.57
578.08	25439.28
578.24	25233.32
578.40	25642.91
578.56	25282.47
578.72	25825.47
578.88	25673.34
579.04	25998.67
579.21	25085.86
579.37	25479.07
579.53	25443.96
579.69	25277.79
579.85	25589.08
580.01	25509.50
580.17	25359.70
580.33	25319.92
580.49	25593.76
580.65	25422.90
580.82	25504.82
580.98	25312.89
581.14	25312.89
581.30	25331.62
581.46	25345.66
581.62	25666.31
581.78	25219.27
581.94	25149.06
582.10	25476.73
582.26	25584.40
582.42	25642.91
582.58	25610.14
582.74	25275.45
582.90	25345.66
583.06	25118.63
583.22	25420.56
583.38	25418.22
583.54	25207.57
583.70	25673.34
583.86	25497.80
584.02	25476.73
584.18	25635.89
584.34	25575.03
584.50	25584.40
584.66	25474.39
584.82	24968.84
584.98	25315.23
585.14	25294.17
585.30	25376.09
585.46	25605.46
585.62	25340.98
585.78	25549.29
585.94	25228.63
586.10	25411.20
586.26	25378.43
586.42	25720.15
586.58	25596.10
586.74	25385.45
586.90	25270.76
587.06	25652.27
587.22	25916.75
587.38	25764.62
587.54	25458.01
587.70	25708.44
587.86	25977.61
588.02	25935.48
588.18	25900.37
588.34	25867.60
588.49	25743.55
588.65	25490.77
588.81	25521.20
588.97	25638.23
589.13	25240.34
589.29	25523.54
589.45	25888.67
589.61	25539.93
589.77	25830.15
589.93	25397.15
590.08	25535.24
590.24	25560.99
590.40	25792.70
590.56	25645.25
590.72	25645.25
