SpectraSuite Data File
++++++++++++++++++++++++++++++++++++
Date: Thu Oct 24 13:21:23 EDT 2013
User: stostad
Dark Spectrum Present: No
Reference Spectrum Present: No
Number of Sampled Component Spectra: 1
Spectrometers: USB2+H05261
Integration Time (usec): 100000 (USB2+H05261)
Spectra Averaged: 1 (USB2+H05261)
Boxcar Smoothing: 0 (USB2+H05261)
Correct for Electrical Dark: No (USB2+H05261)
Strobe/Lamp Enabled: No (USB2+H05261)
Correct for Detector Non-linearity: No (USB2+H05261)
Correct for Stray Light: No (USB2+H05261)
Number of Pixels in Processed Spectrum: 2048
>>>>>Begin Processed Spectral Data<<<<<
365.73	573.43
365.92	573.43
366.12	573.43
366.32	395.55
366.52	425.98
366.72	479.81
366.91	463.43
367.11	411.93
367.31	475.13
367.51	428.32
367.70	472.79
367.90	463.43
368.10	461.09
368.30	461.09
368.49	468.11
368.69	484.49
368.89	390.87
369.09	533.64
369.28	484.49
369.48	458.74
369.68	498.53
369.87	566.41
370.07	507.90
370.27	526.62
370.47	603.86
370.66	798.12
370.86	919.83
371.06	931.53
371.25	950.26
371.45	933.87
371.65	952.60
371.84	926.85
372.04	952.60
372.24	1015.79
372.44	961.96
372.63	1076.65
372.83	1062.60
373.03	1121.12
373.22	983.02
373.42	1060.26
373.62	1050.90
373.81	973.66
374.01	1071.97
374.21	1057.92
374.40	1090.69
374.60	1114.10
374.79	1013.45
374.99	1097.71
375.19	1039.20
375.38	1046.22
375.58	1001.75
375.78	1093.03
375.97	1191.33
376.17	1186.65
376.37	1090.69
376.56	1078.99
376.76	1055.58
376.95	1167.93
377.15	1181.97
377.35	1116.44
377.54	1109.41
377.74	1172.61
377.93	1179.63
378.13	1181.97
378.33	1165.59
378.52	1130.48
378.72	1177.29
378.91	1247.51
379.11	1198.35
379.31	1151.54
379.50	1149.20
379.70	1188.99
379.89	1242.82
380.09	1196.01
380.28	1203.04
380.48	1158.57
380.68	1167.93
380.87	1165.59
381.07	1256.87
381.26	1172.61
381.46	1224.10
381.65	1254.53
381.85	1235.80
382.04	1219.42
382.24	1301.34
382.43	1259.21
382.63	1252.19
382.83	1315.38
383.02	1378.58
383.22	1359.85
383.41	1242.82
383.61	1303.68
383.80	1345.81
384.00	1235.80
384.19	1296.66
384.39	1366.87
384.58	1343.47
384.78	1308.36
384.97	1268.57
385.17	1266.23
385.36	1259.21
385.56	1322.40
385.75	1348.15
385.95	1376.24
386.14	1380.92
386.34	1458.15
386.53	1425.39
386.72	1465.18
386.92	1427.73
387.11	1423.05
387.31	1493.26
387.50	1516.67
387.70	1437.09
387.89	1521.35
388.09	1488.58
388.28	1432.41
388.48	1521.35
388.67	1446.45
388.86	1528.37
389.06	1511.99
389.25	1537.73
389.45	1589.22
389.64	1586.88
389.84	1596.25
390.03	1570.50
390.22	1460.49
390.42	1519.01
390.61	1469.86
390.81	1488.58
391.00	1526.03
391.19	1551.78
391.39	1570.50
391.58	1568.16
391.78	1561.14
391.97	1589.22
392.16	1638.38
392.36	1643.06
392.55	1666.46
392.75	1666.46
392.94	1561.14
393.13	1804.55
393.33	1675.82
393.52	1633.69
393.71	1727.32
393.91	1732.00
394.10	1629.01
394.29	1732.00
394.49	1659.44
394.68	1715.61
394.88	1792.85
395.07	1781.15
395.26	1760.08
395.46	1818.60
395.65	1834.98
395.84	1872.43
396.04	1877.11
396.23	1806.89
396.42	1949.67
396.62	1879.45
396.81	1870.09
397.00	1926.26
397.19	1891.15
397.39	1923.92
397.58	1921.58
397.77	1872.43
397.97	1900.52
398.16	1952.01
398.35	1928.60
398.55	1952.01
398.74	1961.37
398.93	2136.91
399.12	2059.67
399.32	1930.94
399.51	1980.09
399.70	2111.16
399.90	2078.40
400.09	2167.34
400.28	2090.10
400.47	1994.14
400.67	2069.03
400.86	2090.10
401.05	2108.82
401.24	2076.06
401.44	2167.34
401.63	2289.04
401.82	2169.68
402.01	2157.97
402.21	2225.85
402.40	2356.92
402.59	2317.13
402.78	2223.51
402.97	2314.79
403.17	2296.07
403.36	2303.09
403.55	2347.56
403.74	2434.16
403.93	2413.09
404.13	2282.02
404.32	2485.65
404.51	2429.48
404.70	2445.86
404.89	2380.32
405.09	2497.35
405.28	2502.03
405.47	2700.98
405.66	2511.39
405.85	2527.78
406.05	2445.86
406.24	2562.89
406.43	2649.49
406.62	2651.83
406.81	2684.59
407.00	2588.63
407.20	2640.12
407.39	2532.46
407.58	2700.98
407.77	2740.77
407.96	2546.50
408.15	2780.56
408.34	2778.22
408.54	2820.35
408.73	2832.05
408.92	2820.35
409.11	2860.13
409.30	2785.24
409.49	2757.15
409.68	2897.58
409.87	2820.35
410.07	2939.71
410.26	2963.12
410.45	3012.27
410.64	3040.36
410.83	2951.42
411.02	3047.38
411.21	3115.25
411.40	3070.78
411.59	3136.32
411.78	3007.59
411.98	3063.76
412.17	3204.19
412.36	3251.00
412.55	3293.13
412.74	3201.85
412.93	3159.72
413.12	3307.18
413.31	3377.39
413.50	3361.01
413.69	3337.60
413.88	3454.63
414.07	3398.46
414.26	3442.93
414.45	3520.17
414.64	3545.91
414.83	3583.36
415.02	3592.72
415.22	3667.62
415.41	3737.84
415.60	3660.60
415.79	3733.15
415.98	3726.13
416.17	3719.11
416.36	3698.05
416.55	3901.67
416.74	3899.33
416.93	3850.18
417.12	3976.57
417.31	4079.55
417.50	3974.23
417.69	4023.38
417.88	4114.66
418.07	3997.64
418.26	3927.42
418.45	4046.79
418.64	4161.47
418.83	4002.32
419.02	4168.49
419.21	4236.37
419.39	4311.27
419.58	4056.15
419.77	4325.31
419.96	4358.08
420.15	4358.08
420.34	4283.18
420.53	4217.65
420.72	4461.06
420.91	4472.76
421.10	4498.51
421.29	4444.68
421.48	4456.38
421.67	4531.28
421.86	4554.68
422.05	4561.70
422.24	4458.72
422.43	4645.96
422.61	4557.02
422.80	4610.86
422.99	4681.07
423.18	4550.00
423.37	4674.05
423.56	4493.83
423.75	4657.67
423.94	4510.21
424.13	4257.43
424.32	4437.66
424.50	4709.16
424.69	4774.69
424.88	4559.36
425.07	4599.15
425.26	4564.04
425.45	4620.22
425.64	4608.51
425.83	4561.70
426.01	4704.48
426.20	4744.27
426.39	4681.07
426.58	4587.45
426.77	4746.61
426.96	4833.21
427.15	4760.65
427.33	4734.90
427.52	4791.08
427.71	4767.67
427.90	4688.09
428.09	4891.72
428.28	4947.89
428.46	5025.13
428.65	4884.70
428.84	5071.94
429.03	5111.73
429.22	4854.27
429.40	4985.34
429.59	4947.89
429.78	4861.29
429.97	4791.08
430.16	5097.69
430.34	5109.39
430.53	5111.73
430.72	5163.22
430.91	5200.67
431.10	5132.79
431.28	5235.78
431.47	5184.29
431.66	5291.95
431.85	5210.03
432.03	5385.57
432.22	5275.57
432.41	5277.91
432.60	5497.92
432.79	5387.91
432.97	5214.71
433.16	5472.17
433.35	5490.90
433.54	5481.53
433.72	5575.16
433.91	5626.65
434.10	5638.35
434.28	5490.90
434.47	5535.37
434.66	5731.97
434.85	5783.46
435.03	5818.57
435.22	5710.91
435.41	5933.26
435.59	6038.58
435.78	5921.56
435.97	6061.99
436.16	5991.77
436.34	5806.87
436.53	5879.43
436.72	6176.67
436.90	5755.38
437.09	6026.88
437.28	5839.64
437.46	6040.92
437.65	6153.27
437.84	6164.97
438.02	6118.16
438.21	6136.88
438.40	6090.07
438.58	6305.40
438.77	6246.89
438.96	6256.25
439.14	6274.98
439.33	6420.09
439.52	6544.14
439.70	6506.69
439.89	6525.41
440.08	6637.76
440.26	6712.66
440.45	6548.82
440.63	6452.86
440.82	6693.93
441.01	6677.55
441.19	6743.08
441.38	6827.34
441.57	6836.70
441.75	7007.56
441.94	7124.59
442.12	7009.90
442.31	7009.90
442.50	7126.93
442.68	7218.21
442.87	7176.08
443.05	7239.28
443.24	7489.71
443.43	7435.88
443.61	7304.81
443.80	7466.31
443.98	7213.53
444.17	6998.20
444.35	7236.94
444.54	7405.46
444.73	7433.54
444.91	7262.68
445.10	7323.54
445.28	7389.07
445.47	7332.90
445.65	7358.64
445.84	7440.56
446.02	7595.04
446.21	7440.56
446.39	7407.80
446.58	7508.44
446.77	7510.78
446.95	7466.31
447.14	7452.27
447.32	7581.00
447.51	7548.23
447.69	7407.80
447.88	7496.74
448.06	7550.57
448.25	7527.16
448.43	7541.21
448.62	7517.80
448.80	7719.09
448.99	7868.88
449.17	7707.38
449.36	7707.38
449.54	7852.50
449.73	7981.23
449.91	7955.48
450.10	7936.76
450.28	8016.33
450.46	8067.83
450.65	7997.61
450.83	8140.38
451.02	7925.05
451.20	7822.07
451.39	8124.00
451.57	8100.59
451.76	8147.40
451.94	8278.47
452.13	8262.09
452.31	8334.65
452.49	8051.44
452.68	8236.35
452.86	8290.18
453.05	8533.59
453.23	8538.27
453.42	8269.11
453.60	8154.43
453.78	8664.66
453.97	8531.25
454.15	8430.61
454.34	8184.85
454.52	8587.43
454.70	8596.79
454.89	8617.85
455.07	8517.21
455.26	8552.32
455.44	8669.34
455.62	8624.87
455.81	8617.85
455.99	8844.88
456.17	8863.61
456.36	8898.72
456.54	8821.48
456.73	8957.23
456.91	9268.52
457.09	9336.40
457.28	9111.71
457.46	9027.45
457.64	9273.20
457.83	9172.56
458.01	9036.81
458.19	9493.21
458.38	9158.52
458.56	9408.95
458.74	9376.19
458.93	9521.30
459.11	9525.98
459.29	9423.00
459.48	9413.63
459.66	9423.00
459.84	9507.26
460.03	9802.16
460.21	9898.13
460.39	9514.28
460.57	9734.29
460.76	9685.14
460.94	9729.61
461.12	9734.29
461.31	9834.93
461.49	9816.21
461.67	9832.59
461.85	9905.15
462.04	9713.22
462.22	10338.15
462.40	10251.55
462.59	10101.75
462.77	10061.96
462.95	10153.24
463.13	10066.64
463.32	10319.42
463.50	10195.37
463.68	10186.01
463.86	10277.29
464.05	10321.76
464.23	10256.23
464.41	10326.44
464.59	10305.38
464.78	10555.82
464.96	10384.96
465.14	10267.93
465.32	10356.87
465.50	10619.01
465.69	10817.96
465.87	10518.37
466.05	10586.24
466.23	10750.08
466.41	10745.40
466.60	10850.72
466.78	10640.08
466.96	10733.70
467.14	10923.28
467.32	10525.39
467.51	10972.43
467.69	10808.59
467.87	10810.93
468.05	11019.24
468.23	10480.92
468.41	10740.72
468.60	10878.81
468.78	10967.75
468.96	10714.97
469.14	11087.12
469.32	11140.95
469.50	11012.22
469.69	11501.39
469.87	11468.62
470.05	11201.80
470.23	11445.22
470.41	11548.20
470.59	11740.13
470.77	11496.71
470.95	11499.05
471.14	11550.54
471.32	11384.37
471.50	11770.55
471.68	11618.42
471.86	11878.22
472.04	11770.55
472.22	12009.29
472.40	11997.59
472.58	11817.36
472.77	12128.66
472.95	12231.64
473.13	12402.50
473.31	12112.27
473.49	12163.76
473.67	12212.92
473.85	12491.44
474.03	12465.69
474.21	12795.71
474.39	12615.49
474.57	12678.68
474.75	13015.72
474.93	12776.98
475.12	12816.77
475.30	13011.04
475.48	13109.34
475.66	13184.24
475.84	13156.15
476.02	13224.03
476.20	13352.76
476.38	13593.83
476.56	13645.32
476.74	13710.86
476.92	13600.85
477.10	13827.88
477.28	14017.47
477.46	13902.78
477.64	13872.36
477.82	14511.32
478.00	14406.00
478.18	14310.04
478.36	14513.66
478.54	14569.83
478.72	14855.38
478.90	15089.43
479.08	15169.01
479.26	15377.32
479.44	15147.95
479.62	15417.11
479.80	15620.74
479.98	15484.98
480.16	16020.97
480.34	15840.75
480.52	16088.84
480.70	15997.56
480.88	15885.22
481.06	15995.22
481.24	15917.98
481.41	16468.01
481.59	16594.40
481.77	17088.25
481.95	16716.11
482.13	17053.14
482.31	17097.61
482.49	17469.76
482.67	17259.11
482.85	17563.38
483.03	17523.59
483.21	17736.58
483.39	18214.05
483.57	18045.53
483.74	17954.25
483.92	18366.18
484.10	18111.07
484.28	18761.73
484.46	18792.16
484.64	19360.91
484.82	18974.72
485.00	19250.91
485.18	19391.34
485.35	19852.42
485.53	19541.13
485.71	19829.02
485.89	19836.04
486.07	20056.05
486.25	19981.15
486.43	20072.43
486.61	20475.01
486.78	20500.75
486.96	20807.36
487.14	20896.30
487.32	20947.79
487.50	20821.41
487.68	21352.71
487.85	21544.63
488.03	21874.65
488.21	22040.82
488.39	22047.85
488.57	22054.87
488.75	22630.64
488.92	22579.15
489.10	22881.08
489.28	22871.72
489.46	23178.33
489.64	22721.92
489.81	23658.14
489.99	23260.24
490.17	23824.31
490.35	23758.78
490.53	24009.22
490.70	24079.43
490.88	23910.91
491.06	24907.98
491.24	24517.11
491.41	24610.73
491.59	25109.27
491.77	24989.90
491.95	25095.22
492.13	25076.50
492.30	25659.29
492.48	25399.49
492.66	25879.30
492.84	25720.15
493.01	25912.07
493.19	26305.28
493.37	26300.60
493.54	26621.25
493.72	26850.63
493.90	26506.57
494.08	27119.79
494.25	27049.57
494.43	27229.79
494.61	27562.15
494.79	27524.70
494.96	27138.51
495.14	27711.94
495.32	27985.79
495.49	28074.73
495.67	28542.83
495.85	28362.61
496.02	29015.62
496.20	28936.04
496.38	28678.58
496.55	29198.18
496.73	29542.24
496.91	29158.39
497.09	29614.80
497.26	29886.30
497.44	29890.98
497.62	29851.19
497.79	30417.60
497.97	30045.46
498.14	30717.19
498.32	30883.37
498.50	30679.74
498.67	31000.40
498.85	30553.35
499.03	31087.00
499.20	31335.09
499.38	31211.04
499.56	31428.71
499.73	31346.79
499.91	32039.59
500.08	32098.11
500.26	31608.93
500.44	31941.29
500.61	32191.73
500.79	32151.94
500.97	32388.33
501.14	32521.74
501.32	32741.75
501.49	32521.74
501.67	32760.48
501.84	32914.95
502.02	33144.33
502.20	33521.15
502.37	33900.32
502.55	33184.12
502.72	33291.78
502.90	33755.21
503.07	33879.25
503.25	33565.62
503.43	33954.15
503.60	34066.50
503.78	34291.19
503.95	33893.30
504.13	34139.05
504.30	34504.18
504.48	34148.42
504.65	35042.50
504.83	34754.61
505.01	35016.75
505.18	35229.74
505.36	35063.57
505.53	35257.83
505.71	34955.90
505.88	35204.00
506.06	35250.81
506.23	35569.12
506.41	35835.94
506.58	35920.20
506.76	35576.14
506.93	35878.07
507.11	36189.36
507.28	36458.52
507.46	36634.06
507.63	36615.34
507.81	36720.66
507.98	36238.51
508.16	36673.85
508.33	36580.23
508.50	37177.07
508.68	36823.65
508.85	37537.51
509.03	37333.89
509.20	37277.71
509.38	37851.14
509.55	37762.20
509.73	37996.26
509.90	37965.83
510.08	38167.12
510.25	38050.09
510.42	38314.57
510.60	38352.02
510.77	38588.41
510.95	38831.83
511.12	38897.36
511.30	38724.16
511.47	38710.12
511.64	38738.21
511.82	38611.82
511.99	38518.20
512.17	39215.68
512.34	39538.67
512.51	39718.89
512.69	39894.43
512.86	39636.97
513.04	40058.27
513.21	39807.83
513.38	39611.23
513.56	40091.04
513.73	39707.19
513.90	40512.33
514.08	39819.53
514.25	40275.94
514.43	40446.80
514.60	40538.08
514.77	40542.76
514.95	40879.80
515.12	40435.10
515.29	40416.37
515.47	41078.74
515.64	41579.62
515.81	41406.42
515.99	41343.22
516.16	41670.90
516.33	41038.95
516.51	41715.37
516.68	41429.82
516.85	42021.98
517.03	41851.12
517.20	42059.43
517.37	41989.21
517.54	42220.92
517.72	42359.02
517.89	42646.90
518.06	42171.77
518.24	42611.79
518.41	41993.89
518.58	42375.40
518.75	42192.84
518.93	42679.67
519.10	42431.57
519.27	42590.73
519.45	42920.74
519.62	43213.31
519.79	42979.26
519.96	43536.30
520.14	43054.15
520.31	42848.19
520.48	43026.07
520.65	43660.35
520.83	44027.82
521.00	44130.80
521.17	44011.43
521.34	43838.23
521.52	44264.21
521.69	43849.94
521.86	44046.54
522.03	44107.40
522.20	44133.14
522.38	44212.72
522.55	44636.36
522.72	44645.72
522.89	44692.53
523.07	44739.34
523.24	45109.14
523.41	45141.91
523.58	44648.06
523.75	45603.00
523.92	45123.19
524.10	45382.99
524.27	45523.42
524.44	45675.55
524.61	45315.11
524.78	45525.76
524.96	45748.11
525.13	45666.19
525.30	46054.72
525.47	46167.07
525.64	45584.27
525.81	45879.18
525.98	46232.60
526.16	45815.99
526.33	45916.63
526.50	46529.85
526.67	46120.26
526.84	46663.26
527.01	46766.24
527.18	46527.51
527.36	46759.22
527.53	46476.02
527.70	46822.42
527.87	47124.35
528.04	46845.82
528.21	47269.46
528.38	47192.22
528.55	47086.90
528.72	47182.86
528.89	46932.42
529.07	47515.22
529.24	47274.14
529.41	47751.61
529.58	47421.59
529.75	47863.96
529.92	47929.49
530.09	47613.52
530.26	47449.68
530.43	47707.14
530.60	47592.45
530.77	47580.75
530.94	48055.88
531.11	47810.12
531.28	48243.12
531.46	48299.30
531.63	48100.35
531.80	48158.86
531.97	48168.22
532.14	48470.15
532.31	48495.90
532.48	48500.58
532.65	49013.16
532.82	48498.24
532.99	48755.70
533.16	48240.78
533.33	48765.06
533.50	49219.13
533.67	49095.08
533.84	48910.17
534.01	48734.63
534.18	49010.82
534.35	49560.84
534.52	49066.99
534.69	49378.28
534.86	49287.00
535.03	49457.86
535.20	48996.77
535.37	49633.40
535.54	49518.71
535.71	49549.14
535.88	49638.08
536.05	49731.70
536.22	49776.17
536.38	49806.60
536.55	50113.21
536.72	49762.13
536.89	49834.69
537.06	50038.31
537.23	50323.86
537.40	50553.23
537.57	49937.67
537.74	50131.93
537.91	50258.32
538.08	49944.69
538.25	50054.70
538.42	50335.56
538.59	50717.07
538.75	50223.22
538.92	50555.57
539.09	50712.39
539.26	50794.31
539.43	50916.01
539.60	50782.60
539.77	51011.98
539.94	51185.18
540.11	50948.78
540.28	51126.66
540.44	51072.83
540.61	51119.64
540.78	51077.51
540.95	51264.75
541.12	51002.61
541.29	51086.87
541.46	51489.45
541.62	51576.04
541.79	51931.81
541.96	51089.21
542.13	51091.55
542.30	51402.85
542.47	51583.07
542.63	51613.49
542.80	51643.92
542.97	52191.61
543.14	52229.05
543.31	51938.83
543.48	52044.15
543.64	51941.17
543.81	52322.68
543.98	52177.56
544.15	52137.77
544.32	52381.19
544.48	52687.80
544.65	52250.12
544.82	52535.66
544.99	52449.06
545.16	52449.06
545.32	52402.25
545.49	52680.78
545.66	52896.11
545.83	53130.16
546.00	53083.35
546.16	52811.85
546.33	52959.30
546.50	52919.51
546.67	52779.08
546.83	52481.83
547.00	52570.77
547.17	52734.61
547.34	52704.18
547.50	52919.51
547.67	53081.01
547.84	53073.99
548.00	53375.92
548.17	53476.56
548.34	52978.03
548.51	53148.88
548.67	53301.02
548.84	52999.09
549.01	53102.07
549.18	53272.93
549.34	53228.46
549.51	53347.83
549.68	53331.45
549.84	53352.51
550.01	53083.35
550.18	53057.60
550.34	53254.21
550.51	53373.58
550.68	53399.32
550.84	53364.21
551.01	53715.29
551.18	53776.15
551.34	53364.21
551.51	53523.37
551.68	53631.04
551.84	53415.71
552.01	53413.37
552.18	53549.12
552.34	53476.56
552.51	54080.42
552.68	53675.51
552.84	54143.61
553.01	54291.07
553.18	54019.56
553.34	53923.60
553.51	53647.42
553.67	53935.30
553.84	54185.74
554.01	54162.34
554.17	54232.55
554.34	54225.53
554.51	54150.63
554.67	54049.99
554.84	53900.20
555.00	54129.57
555.17	54106.16
555.33	54265.32
555.50	53715.29
555.67	54424.48
555.83	54326.17
556.00	54571.93
556.16	54508.74
556.33	54216.17
556.50	54185.74
556.66	54316.81
556.83	54387.03
556.99	54749.81
557.16	54490.01
557.32	54712.36
557.49	54784.92
557.65	54593.00
557.82	54417.46
557.98	54485.33
558.15	54384.69
558.32	54576.61
558.48	54789.60
558.65	54543.84
558.81	54820.03
558.98	54838.75
559.14	54932.37
559.31	54838.75
559.47	54834.07
559.64	54876.20
559.80	54845.77
559.97	54794.28
560.13	54684.28
560.30	54719.38
560.46	55154.72
560.63	55049.40
560.79	54983.86
560.96	55320.90
561.12	55054.08
561.29	54997.91
561.45	54972.16
561.61	55229.62
561.78	54894.92
561.94	55323.24
562.11	55337.29
562.27	55288.13
562.44	55302.18
562.60	54986.21
562.77	55327.92
562.93	55178.13
563.10	55271.75
563.26	54749.81
563.42	55386.44
563.59	55278.77
563.75	55260.05
563.92	55353.67
564.08	55416.86
564.24	55367.71
564.41	55517.51
564.57	55384.10
564.74	55318.56
564.90	55468.36
565.07	55515.17
565.23	55547.93
565.39	55587.72
565.56	55870.93
565.72	55423.89
565.88	55627.51
566.05	55477.72
566.21	55236.64
566.38	55341.97
566.54	55388.78
566.70	55576.02
566.87	55899.01
567.03	55789.01
567.19	56133.07
567.36	55629.85
567.52	55456.65
567.68	55571.34
567.85	55501.12
568.01	55531.55
568.17	55700.07
568.34	55681.34
568.50	55711.77
568.66	55580.70
568.83	55477.72
568.99	55627.51
569.15	55585.38
569.32	55664.96
569.48	55641.56
569.64	55707.09
569.81	55599.43
569.97	55629.85
570.13	55674.32
570.30	55458.99
570.46	55880.29
570.62	55873.27
570.78	55674.32
570.95	55566.66
571.11	55899.01
571.27	55482.40
571.43	55611.13
571.60	55966.89
571.76	55667.30
571.92	55894.33
572.09	55959.87
572.25	55791.35
572.41	55746.88
572.57	55906.04
572.74	56193.92
572.90	55917.74
573.06	56081.58
573.22	55952.85
573.38	56137.75
573.55	55870.93
573.71	56016.04
573.87	56053.49
574.03	55889.65
574.20	56046.47
574.36	55901.36
574.52	56109.66
574.68	56133.07
574.84	56130.73
575.01	56170.52
575.17	56214.99
575.33	56259.46
575.49	55894.33
575.65	56266.48
575.82	56320.31
575.98	55852.20
576.14	56236.05
576.30	55948.17
576.46	55852.20
576.62	55856.88
576.79	55760.92
576.95	55690.71
577.11	55908.38
577.27	56275.84
577.43	56196.26
577.59	56238.39
577.75	56175.20
577.92	56154.13
578.08	55924.76
578.24	55978.59
578.40	56133.07
578.56	56013.70
578.72	56310.95
578.88	56357.76
579.04	56603.52
579.21	56231.37
579.37	56198.60
579.53	56350.74
579.69	56046.47
579.85	56420.95
580.01	56416.27
580.17	56214.99
580.33	56374.14
580.49	56168.18
580.65	56226.69
580.82	56275.84
580.98	56196.26
581.14	56147.11
581.30	56278.18
581.46	56081.58
581.62	55978.59
581.78	56189.24
581.94	56236.05
582.10	56222.01
582.26	56500.53
582.42	56495.85
582.58	56472.45
582.74	56430.32
582.90	56477.13
583.06	56605.86
583.22	56463.08
583.38	56364.78
583.54	56196.26
583.70	56086.26
583.86	56404.57
584.02	56353.08
584.18	56203.28
584.34	56240.73
584.50	56519.26
584.66	56575.43
584.82	56350.74
584.98	56406.91
585.14	56388.19
585.30	56229.03
585.46	56156.47
585.62	56107.32
585.78	56315.63
585.94	56369.46
586.10	56545.00
586.26	56301.59
586.42	56615.22
586.58	56514.58
586.74	56580.11
586.90	56371.80
587.06	56488.83
587.22	56629.26
587.38	56605.86
587.54	56722.88
587.70	56924.17
587.86	56587.13
588.02	56587.13
588.18	56708.84
588.34	56666.71
