SpectraSuite Data File
++++++++++++++++++++++++++++++++++++
Date: Thu Oct 24 13:21:05 EDT 2013
User: stostad
Dark Spectrum Present: No
Reference Spectrum Present: No
Number of Sampled Component Spectra: 1
Spectrometers: USB2+H05261
Integration Time (usec): 100000 (USB2+H05261)
Spectra Averaged: 1 (USB2+H05261)
Boxcar Smoothing: 0 (USB2+H05261)
Correct for Electrical Dark: No (USB2+H05261)
Strobe/Lamp Enabled: No (USB2+H05261)
Correct for Detector Non-linearity: No (USB2+H05261)
Correct for Stray Light: No (USB2+H05261)
Number of Pixels in Processed Spectrum: 2048
>>>>>Begin Processed Spectral Data<<<<<
365.73	629.60
365.92	629.60
366.12	629.60
366.32	454.06
366.52	489.17
366.72	451.72
366.91	456.40
367.11	458.74
367.31	425.98
367.51	390.87
367.70	512.58
367.90	498.53
368.10	442.36
368.30	470.45
368.49	463.43
368.69	470.45
368.89	500.87
369.09	449.38
369.28	449.38
369.48	505.56
369.68	535.98
369.87	519.60
370.07	519.60
370.27	582.79
370.47	603.86
370.66	657.69
370.86	671.73
371.06	653.01
371.25	758.33
371.45	699.82
371.65	716.20
371.84	720.88
372.04	744.29
372.24	739.61
372.44	760.67
372.63	802.80
372.83	828.55
373.03	739.61
373.22	798.12
373.42	751.31
373.62	791.10
373.81	842.59
374.01	781.74
374.21	844.93
374.40	826.21
374.60	837.91
374.79	842.59
374.99	842.59
375.19	844.93
375.38	802.80
375.58	830.89
375.78	814.51
375.97	851.96
376.17	908.13
376.37	798.12
376.56	861.32
376.76	816.85
376.95	863.66
377.15	763.01
377.35	802.80
377.54	877.70
377.74	793.44
377.93	889.40
378.13	826.21
378.33	884.72
378.52	826.21
378.72	805.14
378.91	842.59
379.11	802.80
379.31	744.29
379.50	898.77
379.70	840.25
379.89	805.14
380.09	873.02
380.28	767.70
380.48	830.89
380.68	898.77
380.87	849.61
381.07	882.38
381.26	833.23
381.46	866.00
381.65	873.02
381.85	894.08
382.04	868.34
382.24	887.06
382.43	964.30
382.63	889.40
382.83	873.02
383.02	896.43
383.22	880.04
383.41	922.17
383.61	891.74
383.80	926.85
384.00	887.06
384.19	873.02
384.39	891.74
384.58	889.40
384.78	898.77
384.97	903.45
385.17	889.40
385.36	903.45
385.56	866.00
385.75	882.38
385.95	940.90
386.14	887.06
386.34	929.19
386.53	959.62
386.72	884.72
386.92	929.19
387.11	985.37
387.31	943.24
387.50	926.85
387.70	901.11
387.89	919.83
388.09	987.71
388.28	978.34
388.48	905.79
388.67	973.66
388.86	992.39
389.06	894.08
389.25	994.73
389.45	961.96
389.64	912.81
389.84	966.64
390.03	1055.58
390.22	987.71
390.42	894.08
390.61	985.37
390.81	959.62
391.00	978.34
391.19	957.28
391.39	1015.79
391.58	1015.79
391.78	1011.11
391.97	1055.58
392.16	992.39
392.36	1001.75
392.55	999.41
392.75	1006.43
392.94	971.32
393.13	1057.92
393.33	973.66
393.52	1057.92
393.71	1053.24
393.91	1062.60
394.10	964.30
394.29	1067.28
394.49	999.41
394.68	1036.86
394.88	1022.81
395.07	1139.84
395.26	1165.59
395.46	1064.94
395.65	1076.65
395.84	1142.18
396.04	1132.82
396.23	1135.16
396.42	1093.03
396.62	1156.22
396.81	1109.41
397.00	1062.60
397.19	1125.80
397.39	1053.24
397.58	1240.48
397.77	1142.18
397.97	1128.14
398.16	1064.94
398.35	1109.41
398.55	1116.44
398.74	1165.59
398.93	1235.80
399.12	1107.07
399.32	1146.86
399.51	1224.10
399.70	1170.27
399.90	1224.10
400.09	1219.42
400.28	1191.33
400.47	1179.63
400.67	1205.38
400.86	1158.57
401.05	1186.65
401.24	1203.04
401.44	1259.21
401.63	1193.67
401.82	1277.93
402.01	1254.53
402.21	1228.78
402.40	1224.10
402.59	1313.04
402.78	1313.04
402.97	1301.34
403.17	1338.79
403.36	1181.97
403.55	1221.76
403.74	1345.81
403.93	1287.29
404.13	1481.56
404.32	1441.77
404.51	1334.11
404.70	1383.26
404.89	1345.81
405.09	1392.62
405.28	1331.76
405.47	1383.26
405.66	1387.94
405.85	1348.15
406.05	1364.53
406.24	1401.98
406.43	1348.15
406.62	1472.20
406.81	1453.47
407.00	1401.98
407.20	1397.30
407.39	1465.18
407.58	1451.13
407.77	1483.90
407.96	1509.65
408.15	1558.80
408.34	1504.96
408.54	1493.26
408.73	1439.43
408.92	1558.80
409.11	1577.52
409.30	1472.20
409.49	1495.60
409.68	1565.82
409.87	1514.33
410.07	1547.09
410.26	1668.80
410.45	1556.46
410.64	1549.43
410.83	1582.20
411.02	1561.14
411.21	1643.06
411.40	1596.25
411.59	1593.90
411.78	1701.57
411.98	1661.78
412.17	1727.32
412.36	1673.48
412.55	1650.08
412.74	1722.63
412.93	1785.83
413.12	1781.15
413.31	1755.40
413.50	1713.27
413.69	1776.47
413.88	1806.89
414.07	1710.93
414.26	1790.51
414.45	1825.62
414.64	1795.19
414.83	1837.32
415.02	1893.49
415.22	1891.15
415.41	1909.88
415.60	1764.76
415.79	1902.86
415.98	2038.61
416.17	1996.48
416.36	1959.03
416.55	1877.11
416.74	2015.20
416.93	1874.77
417.12	1884.13
417.31	2001.16
417.50	2003.50
417.69	2115.84
417.88	2069.03
418.07	2113.50
418.26	1961.37
418.45	2043.29
418.64	2136.91
418.83	2064.35
419.02	2001.16
419.21	2113.50
419.39	2162.66
419.58	2085.42
419.77	2090.10
419.96	2258.62
420.15	2111.16
420.34	2097.12
420.53	2148.61
420.72	2122.87
420.91	2101.80
421.10	2193.08
421.29	2239.89
421.48	2099.46
421.67	2296.07
421.86	2167.34
422.05	2085.42
422.24	2183.72
422.43	2200.10
422.61	2209.47
422.80	2223.51
422.99	2221.17
423.18	2160.31
423.37	2258.62
423.56	2291.38
423.75	2253.94
423.94	2129.89
424.13	2169.68
424.32	2202.44
424.50	2331.17
424.69	2291.38
424.88	2363.94
425.07	2165.00
425.26	2244.57
425.45	2356.92
425.64	2179.04
425.83	2265.64
426.01	2279.68
426.20	2293.72
426.39	2094.78
426.58	2172.02
426.77	2258.62
426.96	2272.66
427.15	2289.04
427.33	2256.28
427.52	2436.50
427.71	2377.98
427.90	2218.83
428.09	2296.07
428.28	2370.96
428.46	2352.24
428.65	2345.22
428.84	2410.75
429.03	2359.26
429.22	2354.58
429.40	2476.29
429.59	2356.92
429.78	2361.60
429.97	2370.96
430.16	2387.35
430.34	2588.63
430.53	2534.80
430.72	2392.03
430.91	2401.39
431.10	2602.68
431.28	2530.12
431.47	2523.10
431.66	2572.25
431.85	2586.29
432.03	2560.55
432.22	2633.10
432.41	2548.84
432.60	2473.95
432.79	2558.21
432.97	2572.25
433.16	2572.25
433.35	2511.39
433.54	2551.18
433.72	2609.70
433.91	2640.12
434.10	2712.68
434.28	2693.96
434.47	2654.17
434.66	2693.96
434.85	2703.32
435.03	2832.05
435.22	2897.58
435.41	3293.13
435.59	3014.61
435.78	2986.52
435.97	2963.12
436.16	2892.90
436.34	2747.79
436.53	2733.75
436.72	2780.56
436.90	2771.19
437.09	2710.34
437.28	2787.58
437.46	2782.90
437.65	2815.66
437.84	2808.64
438.02	2902.26
438.21	2883.54
438.40	2949.08
438.58	2841.41
438.77	2986.52
438.96	2832.05
439.14	2939.71
439.33	2970.14
439.52	2949.08
439.70	2871.84
439.89	3014.61
440.08	3122.27
440.26	3084.83
440.45	2995.89
440.63	3211.22
440.82	3169.09
441.01	3162.06
441.19	3124.62
441.38	3082.49
441.57	3176.11
441.75	3131.64
441.94	3363.35
442.12	3199.51
442.31	3115.25
442.50	3318.88
442.68	3162.06
442.87	3232.28
443.05	3159.72
443.24	3255.69
443.43	3339.94
443.61	3246.32
443.80	3492.08
443.98	3199.51
444.17	3129.30
444.35	3316.54
444.54	3279.09
444.73	3433.57
444.91	3332.92
445.10	3403.14
445.28	3442.93
445.47	3304.84
445.65	3185.47
445.84	3480.38
446.02	3480.38
446.21	3398.46
446.39	3412.50
446.58	3424.20
446.77	3344.63
446.95	3368.03
447.14	3337.60
447.32	3471.01
447.51	3365.69
447.69	3349.31
447.88	3368.03
448.06	3424.20
448.25	3538.89
448.43	3368.03
448.62	3363.35
448.80	3471.01
448.99	3449.95
449.17	3449.95
449.36	3522.51
449.54	3564.64
449.73	3492.08
449.91	3433.57
450.10	3606.77
450.28	3623.15
450.46	3632.51
450.65	3655.92
450.83	3618.47
451.02	3487.40
451.20	3590.38
451.39	3662.94
451.57	3602.08
451.76	3618.47
451.94	3562.30
452.13	3721.45
452.31	3658.26
452.49	3616.13
452.68	3735.50
452.86	3705.07
453.05	3709.75
453.23	3667.62
453.42	3707.41
453.60	3648.90
453.78	3847.84
453.97	3637.19
454.15	3786.99
454.34	3721.45
454.52	3791.67
454.70	3789.33
454.89	3840.82
455.07	3698.05
455.26	3894.65
455.44	3918.06
455.62	3723.79
455.81	3901.67
455.99	3911.04
456.17	3817.41
456.36	3920.40
456.54	3911.04
456.73	3946.14
456.91	4032.74
457.09	4044.45
457.28	4056.15
457.46	3934.44
457.64	4102.96
457.83	4030.40
458.01	4119.34
458.19	4159.13
458.38	4081.89
458.56	4238.71
458.74	4170.83
458.93	4109.98
459.11	4166.15
459.29	4156.79
459.48	4168.49
459.66	4187.22
459.84	4198.92
460.03	4325.31
460.21	4119.34
460.39	4093.60
460.57	4280.84
460.76	4180.20
460.94	4241.05
461.12	4262.12
461.31	4180.20
461.49	4318.29
461.67	4196.58
461.85	4444.68
462.04	4117.00
462.22	4627.24
462.40	4498.51
462.59	4379.14
462.77	4313.61
462.95	4397.87
463.13	4339.35
463.32	4327.65
463.50	4332.33
463.68	4461.06
463.86	4432.97
464.05	4372.12
464.23	4393.19
464.41	4496.17
464.59	4491.49
464.78	4507.87
464.96	4456.38
465.14	4362.76
465.32	4505.53
465.50	4720.86
465.69	4587.45
465.87	4550.00
466.05	4526.60
466.23	4493.83
466.41	4596.81
466.60	4760.65
466.78	4571.07
466.96	4690.43
467.14	4720.86
467.32	4624.90
467.51	4624.90
467.69	4601.49
467.87	4748.95
468.05	4774.69
468.23	4603.83
468.41	4643.62
468.60	4723.20
468.78	4856.61
468.96	4688.09
469.14	4739.58
469.32	4830.87
469.50	4648.30
469.69	4807.46
469.87	4926.83
470.05	4964.28
470.23	4961.94
470.41	4816.82
470.59	4887.04
470.77	4851.93
470.95	4950.23
471.14	5008.75
471.32	4964.28
471.50	5060.24
471.68	5006.41
471.86	5062.58
472.04	5252.16
472.22	5076.62
472.40	5130.45
472.58	5018.11
472.77	5104.71
472.95	5179.61
473.13	5350.46
473.31	5085.98
473.49	5186.63
473.67	5273.23
473.85	5181.95
474.03	5231.10
474.21	5343.44
474.39	5387.91
474.57	5481.53
474.75	5596.22
474.93	5530.69
475.12	5540.05
475.30	5544.73
475.48	5453.45
475.66	5638.35
475.84	5488.56
476.02	5605.58
476.20	5586.86
476.38	5731.97
476.56	5823.25
476.74	5874.74
476.92	5809.21
477.10	5746.02
477.28	5881.77
477.46	5919.21
477.64	5738.99
477.82	5834.96
478.00	5998.79
478.18	6015.18
478.36	5975.39
478.54	6160.29
478.72	6169.65
478.90	6263.27
479.08	6256.25
479.26	6473.92
479.44	6333.49
479.62	6478.60
479.80	6473.92
479.98	6471.58
480.16	6527.75
480.34	6235.19
480.52	6443.49
480.70	6504.35
480.88	6612.01
481.06	6534.78
481.24	6785.21
481.41	6902.24
481.59	6904.58
481.77	6766.49
481.95	6829.68
482.13	7009.90
482.31	7040.33
482.49	7218.21
482.67	7014.59
482.85	7309.49
483.03	7197.15
483.21	7339.92
483.39	7377.37
483.57	7360.98
483.74	7407.80
483.92	7410.14
484.10	7613.76
484.28	7611.42
484.46	7644.19
484.64	7691.00
484.82	7637.17
485.00	7775.26
485.18	7929.74
485.35	8142.72
485.53	8203.58
485.71	8175.49
485.89	8114.64
486.07	8280.82
486.25	8074.85
486.43	8243.37
486.61	8524.23
486.78	8409.54
486.96	8432.95
487.14	8418.91
487.32	8580.40
487.50	8432.95
487.68	8617.85
487.85	8784.03
488.03	8910.42
488.21	8903.40
488.39	8966.59
488.57	8884.67
488.75	9146.81
488.92	8973.61
489.10	9231.07
489.28	9270.86
489.46	9432.36
489.64	9369.16
489.81	9621.94
489.99	9582.15
490.17	9682.80
490.35	9628.96
490.53	9680.46
490.70	9806.84
490.88	9703.86
491.06	9853.66
491.24	9942.60
491.41	9858.34
491.59	9834.93
491.77	10223.46
491.95	10059.62
492.13	10164.95
492.30	9984.73
492.48	10197.71
492.66	10399.00
492.84	10291.34
493.01	10387.30
493.19	10457.51
493.37	10607.31
493.54	10396.66
493.72	10642.42
493.90	10504.32
494.08	10710.29
494.25	10792.21
494.43	10794.55
494.61	10878.81
494.79	10892.85
494.96	11061.37
495.14	11194.78
495.32	11061.37
495.49	11143.29
495.67	11260.32
495.85	11211.17
496.02	11211.17
496.20	11260.32
496.38	11461.60
496.55	11353.94
496.73	11859.49
496.91	11463.94
497.09	11609.06
497.26	11789.28
497.44	11702.68
497.62	11789.28
497.79	11887.58
497.97	11852.47
498.14	11946.09
498.32	12149.72
498.50	12250.36
498.67	12301.86
498.85	12236.32
499.03	12351.01
499.20	12032.69
499.38	12526.55
499.56	12395.48
499.73	12320.58
499.91	12456.33
500.08	12255.04
500.26	12554.63
500.44	12547.61
500.61	12615.49
500.79	12599.10
500.97	12776.98
501.14	12856.56
501.32	13006.36
501.49	13060.19
501.67	12507.82
501.84	12959.55
502.02	12975.93
502.20	13097.64
502.37	12943.16
502.55	12954.87
502.72	12791.03
502.90	13144.45
503.07	12929.12
503.25	13132.75
503.43	13179.56
503.60	13411.27
503.78	13441.70
503.95	13130.41
504.13	13308.29
504.30	13532.98
504.48	13462.76
504.65	13563.40
504.83	13392.55
505.01	13701.50
505.18	13823.20
505.36	13717.88
505.53	13877.04
505.71	13776.39
505.88	13961.30
506.06	13975.34
506.23	13958.96
506.41	13958.96
506.58	13991.72
506.76	13865.33
506.93	13989.38
507.11	14017.47
507.28	14263.22
507.46	14078.32
507.63	14293.65
507.81	14340.46
507.98	14052.58
508.16	14235.14
508.33	14242.16
508.50	14508.98
508.68	14450.47
508.85	14754.74
509.03	14450.47
509.20	14572.18
509.38	14485.58
509.55	14537.07
509.73	14679.84
509.90	15096.46
510.08	14902.19
510.25	14736.01
510.42	14736.01
510.60	15000.49
510.77	14719.63
510.95	15180.71
511.12	15080.07
511.30	15178.37
511.47	15166.67
511.64	15206.46
511.82	15239.23
511.99	14967.73
512.17	15424.13
512.34	15059.01
512.51	15286.04
512.69	15356.25
512.86	15482.64
513.04	15445.20
513.21	15449.88
513.38	15527.11
513.56	15620.74
513.73	15515.41
513.90	15597.33
514.08	15833.72
514.25	15707.34
514.43	15616.05
514.60	15587.97
514.77	15815.00
514.95	16159.06
515.12	15981.18
515.29	16042.03
515.47	16081.82
515.64	16077.14
515.81	16248.00
515.99	15889.90
516.16	16264.38
516.33	16269.06
516.51	16505.46
516.68	16358.00
516.85	16451.63
517.03	16299.49
517.20	16404.81
517.37	16484.39
517.54	16423.54
517.72	16250.34
517.89	16313.53
518.06	16662.27
518.24	16400.13
518.41	16720.79
518.58	16444.60
518.75	16446.94
518.93	16678.66
519.10	16528.86
519.27	16613.12
519.45	16739.51
519.62	16802.71
519.79	16947.82
519.96	16788.66
520.14	16840.15
520.31	16627.17
520.48	17018.04
520.65	16994.63
520.83	17160.81
521.00	17003.99
521.17	17055.48
521.34	17177.19
521.52	17076.55
521.69	17048.46
521.86	16968.88
522.03	17188.89
522.20	17006.33
522.38	17479.12
522.55	17422.95
522.72	17472.10
522.89	17371.46
523.07	17446.35
523.24	17334.01
523.41	17797.43
523.58	17338.69
523.75	17539.97
523.92	17781.05
524.10	17755.30
524.27	17905.10
524.44	17713.17
524.61	17785.73
524.78	17755.30
524.96	17909.78
525.13	17963.61
525.30	17902.76
525.47	17989.36
525.64	18036.17
525.81	17972.97
525.98	17984.68
526.16	17942.55
526.33	17996.38
526.50	18356.82
526.67	17944.89
526.84	18078.30
527.01	18265.54
527.18	18305.33
527.36	18171.92
527.53	18265.54
527.70	18200.01
527.87	18237.45
528.04	18274.90
528.21	18471.51
528.38	18698.54
528.55	18443.42
528.72	18700.88
528.89	18525.34
529.07	18625.98
529.24	18354.48
529.41	18895.14
529.58	18452.78
529.75	18845.99
529.92	18600.24
530.09	18658.75
530.26	18656.41
530.43	18782.80
530.60	18600.24
530.77	18897.49
530.94	19140.90
531.11	18796.84
531.28	18705.56
531.46	18913.87
531.63	18743.01
531.80	18558.11
531.97	18719.60
532.14	19159.63
532.31	19112.81
532.48	18787.48
532.65	19316.44
532.82	18988.77
532.99	18956.00
533.16	19136.22
533.33	19248.57
533.50	19255.59
533.67	18820.25
533.84	19054.30
534.01	19438.15
534.18	18967.70
534.35	19700.29
534.52	19358.57
534.69	19363.25
534.86	19414.74
535.03	19150.26
535.20	19646.46
535.37	19438.15
535.54	19681.56
535.71	19438.15
535.88	19545.81
536.05	19850.08
536.22	19716.67
536.38	19758.80
536.55	19730.72
536.72	19758.80
536.89	19711.99
537.06	20025.62
537.23	19908.60
537.40	19960.09
537.57	19871.15
537.74	19700.29
537.91	19847.74
538.08	19969.45
538.25	19613.69
538.42	19679.22
538.59	20107.54
538.75	20135.63
538.92	19880.51
539.09	20072.43
539.26	20166.06
539.43	20102.86
539.60	20355.64
539.77	20093.50
539.94	20348.62
540.11	19908.60
540.28	20252.66
540.44	20442.24
540.61	20400.11
540.78	20414.15
540.95	20287.76
541.12	20580.33
541.29	20716.08
541.46	20734.81
541.62	20856.51
541.79	20964.18
541.96	20697.36
542.13	20449.26
542.30	20828.43
542.47	20702.04
542.63	21090.57
542.80	20863.54
542.97	21645.27
543.14	21394.84
543.31	21628.89
543.48	20994.61
543.64	21425.26
543.81	21195.89
543.98	21460.37
544.15	21561.02
544.32	21305.90
544.48	21263.77
544.65	21333.98
544.82	21481.44
544.99	20945.45
545.16	21561.02
545.32	21270.79
545.49	21790.39
545.66	22506.59
545.83	22405.95
546.00	22272.54
546.16	22169.55
546.33	21916.78
546.50	21467.39
546.67	21598.46
546.83	21275.47
547.00	21369.09
547.17	21364.41
547.34	21308.24
547.50	21308.24
547.67	21568.04
547.84	21675.70
548.00	21961.25
548.17	21687.40
548.34	21462.71
548.51	21834.86
548.67	21741.24
548.84	21832.52
549.01	21448.67
549.18	21682.72
549.34	21607.83
549.51	21542.29
549.68	21722.51
549.84	21631.23
550.01	21706.13
550.18	21558.67
550.34	21465.05
550.51	21654.64
550.68	21832.52
550.84	21296.53
551.01	21736.56
551.18	21546.97
551.34	21797.41
551.51	21696.77
551.68	21724.85
551.84	21371.43
552.01	21612.51
552.18	21902.73
552.34	21785.71
552.51	21947.20
552.68	21539.95
552.84	22059.55
553.01	21820.81
553.18	22045.51
553.34	21577.40
553.51	22005.72
553.67	21827.84
553.84	21942.52
554.01	22008.06
554.17	21951.88
554.34	21666.34
554.51	21832.52
554.67	21802.09
554.84	22073.59
555.00	21998.70
555.17	21879.33
555.33	21656.98
555.50	21790.39
555.67	21935.50
555.83	21888.69
556.00	21961.25
556.16	22546.38
556.33	22162.53
556.50	22061.89
556.66	22178.92
556.83	21984.65
556.99	22307.65
557.16	22139.13
557.32	22244.45
557.49	22263.18
557.65	22155.51
557.82	22047.85
557.98	22054.87
558.15	22260.84
558.32	22380.20
558.48	22408.29
558.65	22452.76
558.81	22469.14
558.98	22373.18
559.14	22410.63
559.31	22195.30
559.47	22050.19
559.64	22478.50
559.80	22721.92
559.97	22478.50
560.13	22515.95
560.30	22143.81
560.46	22331.05
560.63	22312.33
560.79	22492.55
560.96	22436.38
561.12	22302.96
561.29	22253.81
561.45	22462.12
561.61	22806.18
561.78	22560.42
561.94	22452.76
562.11	22668.09
562.27	22595.53
562.44	22562.76
562.60	22700.86
562.77	22511.27
562.93	22260.84
563.10	22792.14
563.26	22174.24
563.42	22647.02
563.59	22518.29
563.75	22349.78
563.92	22771.07
564.08	22555.74
564.24	22771.07
564.41	22539.36
564.57	22721.92
564.74	22642.34
564.90	22698.52
565.07	22621.28
565.23	22656.39
565.39	22242.11
565.56	23016.83
565.72	22888.10
565.88	22686.81
566.05	22724.26
566.21	22539.36
566.38	22675.11
566.54	22530.00
566.70	22897.46
566.87	23012.15
567.03	23068.32
567.19	22733.62
567.36	22771.07
567.52	22560.42
567.68	22864.69
567.85	22895.12
568.01	23019.17
568.17	22696.17
568.34	22810.86
568.50	23089.38
568.66	22794.48
568.83	22508.93
568.99	22607.23
569.15	22682.13
569.32	23236.84
569.48	22590.85
569.64	22874.06
569.81	22698.52
569.97	22600.21
570.13	22899.80
570.30	22766.39
570.46	23262.58
570.62	22712.56
570.78	22747.67
570.95	22705.54
571.11	23035.55
571.27	22792.14
571.43	22658.73
571.60	22644.68
571.76	22806.18
571.92	23246.20
572.09	22696.17
572.25	22871.72
572.41	23379.61
572.57	23154.92
572.74	23164.28
572.90	22948.95
573.06	23269.61
573.22	22742.99
573.38	22890.44
573.55	22600.21
573.71	22822.56
573.87	22813.20
574.03	22916.19
574.20	23180.67
574.36	23035.55
574.52	22974.70
574.68	23101.09
574.84	23089.38
575.01	23248.54
575.17	23517.70
575.33	23037.89
575.49	23012.15
575.65	23012.15
575.82	23124.49
575.98	23417.06
576.14	23073.00
576.30	23042.57
576.46	23262.58
576.62	23342.16
576.79	23037.89
576.95	22932.57
577.11	22761.71
577.27	22970.02
577.43	23201.73
577.59	22717.24
577.75	22963.00
577.92	22838.95
578.08	22998.10
578.24	22913.84
578.40	22906.82
578.56	23353.87
578.72	23044.91
578.88	23428.76
579.04	23601.96
579.21	22906.82
579.37	23410.04
579.53	23164.28
579.69	23461.53
579.85	23194.71
580.01	22977.04
580.17	23089.38
580.33	22845.97
580.49	23105.77
580.65	22665.75
580.82	23222.80
580.98	23138.54
581.14	22927.89
581.30	23323.44
581.46	23311.74
581.62	23019.17
581.78	22874.06
581.94	23065.98
582.10	23080.02
582.26	23175.98
582.42	23232.16
582.58	23131.51
582.74	23520.04
582.90	23367.91
583.06	23215.77
583.22	23433.44
583.38	23115.13
583.54	22904.48
583.70	23454.51
583.86	23456.85
584.02	23424.08
584.18	23601.96
584.34	23218.11
584.50	23098.75
584.66	23108.11
584.82	23143.22
584.98	23300.03
585.14	23428.76
585.30	23026.19
585.46	23187.69
585.62	23154.92
585.78	23166.62
585.94	23293.01
586.10	23611.32
586.26	23435.78
586.42	23260.24
586.58	23297.69
586.74	23349.18
586.90	23379.61
587.06	23571.54
587.22	23775.16
587.38	23143.22
587.54	23307.05
587.70	23592.60
587.86	23676.86
588.02	23576.22
588.18	23243.86
588.34	23421.74
588.49	23356.21
588.65	23566.85
588.81	23124.49
588.97	23426.42
589.13	23187.69
589.29	23433.44
589.45	23192.37
589.61	23538.77
589.77	23587.92
589.93	23461.53
590.08	23456.85
590.24	23288.33
590.40	23489.62
590.56	23484.94
590.72	23215.77
590.88	23140.88
591.04	23044.91
