SpectraSuite Data File
++++++++++++++++++++++++++++++++++++
Date: Thu Oct 24 13:20:58 EDT 2013
User: stostad
Dark Spectrum Present: No
Reference Spectrum Present: No
Number of Sampled Component Spectra: 1
Spectrometers: USB2+H05261
Integration Time (usec): 100000 (USB2+H05261)
Spectra Averaged: 1 (USB2+H05261)
Boxcar Smoothing: 0 (USB2+H05261)
Correct for Electrical Dark: No (USB2+H05261)
Strobe/Lamp Enabled: No (USB2+H05261)
Correct for Detector Non-linearity: No (USB2+H05261)
Correct for Stray Light: No (USB2+H05261)
Number of Pixels in Processed Spectrum: 2048
>>>>>Begin Processed Spectral Data<<<<<
365.73	535.98
365.92	535.98
366.12	535.98
366.32	444.70
366.52	540.66
366.72	526.62
366.91	468.11
367.11	418.96
367.31	428.32
367.51	416.62
367.70	496.19
367.90	491.51
368.10	454.06
368.30	479.81
368.49	435.34
368.69	528.96
368.89	528.96
369.09	498.53
369.28	503.22
369.48	430.66
369.68	512.58
369.87	512.58
370.07	533.64
370.27	535.98
370.47	533.64
370.66	526.62
370.86	559.39
371.06	573.43
371.25	575.77
371.45	573.43
371.65	622.58
371.84	629.60
372.04	594.50
372.24	566.41
372.44	641.31
372.63	620.24
372.83	601.52
373.03	606.20
373.22	573.43
373.42	624.92
373.62	627.26
373.81	650.67
374.01	629.60
374.21	624.92
374.40	624.92
374.60	585.13
374.79	624.92
374.99	587.47
375.19	683.44
375.38	615.56
375.58	655.35
375.78	678.76
375.97	582.79
376.17	568.75
376.37	645.99
376.56	650.67
376.76	638.97
376.95	645.99
377.15	655.35
377.35	585.13
377.54	624.92
377.74	669.39
377.93	564.07
378.13	683.44
378.33	564.07
378.52	617.90
378.72	660.03
378.91	699.82
379.11	655.35
379.31	634.29
379.50	671.73
379.70	650.67
379.89	650.67
380.09	638.97
380.28	578.11
380.48	575.77
380.68	566.41
380.87	552.37
381.07	557.05
381.26	606.20
381.46	613.22
381.65	622.58
381.85	655.35
382.04	585.13
382.24	681.10
382.43	653.01
382.63	585.13
382.83	617.90
383.02	594.50
383.22	657.69
383.41	627.26
383.61	629.60
383.80	622.58
384.00	678.76
384.19	585.13
384.39	550.03
384.58	587.47
384.78	617.90
384.97	702.16
385.17	606.20
385.36	578.11
385.56	662.37
385.75	594.50
385.95	638.97
386.14	608.54
386.34	636.63
386.53	592.16
386.72	587.47
386.92	660.03
387.11	638.97
387.31	645.99
387.50	580.45
387.70	592.16
387.89	608.54
388.09	585.13
388.28	566.41
388.48	554.71
388.67	629.60
388.86	624.92
389.06	648.33
389.25	617.90
389.45	617.90
389.64	592.16
389.84	620.24
390.03	624.92
390.22	580.45
390.42	669.39
390.61	592.16
390.81	561.73
391.00	578.11
391.19	592.16
391.39	594.50
391.58	603.86
391.78	669.39
391.97	587.47
392.16	596.84
392.36	662.37
392.55	622.58
392.75	634.29
392.94	699.82
393.13	601.52
393.33	566.41
393.52	688.12
393.71	657.69
393.91	566.41
394.10	564.07
394.29	585.13
394.49	641.31
394.68	599.18
394.88	631.94
395.07	533.64
395.26	636.63
395.46	547.69
395.65	617.90
395.84	622.58
396.04	655.35
396.23	653.01
396.42	655.35
396.62	636.63
396.81	615.56
397.00	648.33
397.19	624.92
397.39	601.52
397.58	627.26
397.77	655.35
397.97	627.26
398.16	575.77
398.35	603.86
398.55	627.26
398.74	521.94
398.93	575.77
399.12	589.82
399.32	601.52
399.51	557.05
399.70	587.47
399.90	704.50
400.09	594.50
400.28	660.03
400.47	645.99
400.67	606.20
400.86	631.94
401.05	596.84
401.24	634.29
401.44	678.76
401.63	636.63
401.82	627.26
402.01	662.37
402.21	589.82
402.40	631.94
402.59	587.47
402.78	638.97
402.97	596.84
403.17	674.07
403.36	692.80
403.55	676.41
403.74	653.01
403.93	634.29
404.13	678.76
404.32	669.39
404.51	641.31
404.70	690.46
404.89	660.03
405.09	713.86
405.28	573.43
405.47	610.88
405.66	699.82
405.85	608.54
406.05	613.22
406.24	601.52
406.43	573.43
406.62	676.41
406.81	718.54
407.00	660.03
407.20	601.52
407.39	599.18
407.58	629.60
407.77	615.56
407.96	648.33
408.15	601.52
408.34	599.18
408.54	674.07
408.73	613.22
408.92	627.26
409.11	627.26
409.30	638.97
409.49	608.54
409.68	657.69
409.87	634.29
410.07	596.84
410.26	599.18
410.45	606.20
410.64	575.77
410.83	601.52
411.02	615.56
411.21	638.97
411.40	596.84
411.59	594.50
411.78	589.82
411.98	557.05
412.17	599.18
412.36	587.47
412.55	629.60
412.74	631.94
412.93	617.90
413.12	606.20
413.31	587.47
413.50	648.33
413.69	592.16
413.88	655.35
414.07	629.60
414.26	631.94
414.45	676.41
414.64	627.26
414.83	660.03
415.02	634.29
415.22	613.22
415.41	568.75
415.60	622.58
415.79	648.33
415.98	727.91
416.17	631.94
416.36	653.01
416.55	617.90
416.74	648.33
416.93	720.88
417.12	718.54
417.31	608.54
417.50	631.94
417.69	582.79
417.88	636.63
418.07	643.65
418.26	624.92
418.45	669.39
418.64	592.16
418.83	648.33
419.02	634.29
419.21	550.03
419.39	671.73
419.58	641.31
419.77	641.31
419.96	585.13
420.15	657.69
420.34	582.79
420.53	615.56
420.72	624.92
420.91	564.07
421.10	575.77
421.29	624.92
421.48	599.18
421.67	624.92
421.86	603.86
422.05	641.31
422.24	624.92
422.43	645.99
422.61	587.47
422.80	589.82
422.99	643.65
423.18	657.69
423.37	638.97
423.56	645.99
423.75	631.94
423.94	603.86
424.13	627.26
424.32	620.24
424.50	709.18
424.69	697.48
424.88	622.58
425.07	631.94
425.26	592.16
425.45	603.86
425.64	599.18
425.83	622.58
426.01	650.67
426.20	645.99
426.39	613.22
426.58	704.50
426.77	566.41
426.96	702.16
427.15	671.73
427.33	624.92
427.52	596.84
427.71	631.94
427.90	669.39
428.09	650.67
428.28	601.52
428.46	587.47
428.65	631.94
428.84	641.31
429.03	615.56
429.22	643.65
429.40	587.47
429.59	634.29
429.78	662.37
429.97	589.82
430.16	615.56
430.34	676.41
430.53	664.71
430.72	638.97
430.91	634.29
431.10	629.60
431.28	648.33
431.47	575.77
431.66	638.97
431.85	561.73
432.03	631.94
432.22	662.37
432.41	629.60
432.60	692.80
432.79	650.67
432.97	669.39
433.16	653.01
433.35	631.94
433.54	669.39
433.72	692.80
433.91	608.54
434.10	587.47
434.28	683.44
434.47	636.63
434.66	662.37
434.85	641.31
435.03	781.74
435.22	964.30
435.41	1165.59
435.59	1057.92
435.78	933.87
435.97	854.30
436.16	772.38
436.34	720.88
436.53	624.92
436.72	699.82
436.90	634.29
437.09	641.31
437.28	603.86
437.46	599.18
437.65	653.01
437.84	669.39
438.02	653.01
438.21	648.33
438.40	648.33
438.58	655.35
438.77	624.92
438.96	564.07
439.14	636.63
439.33	582.79
439.52	568.75
439.70	624.92
439.89	727.91
440.08	606.20
440.26	648.33
440.45	629.60
440.63	688.12
440.82	552.37
441.01	641.31
441.19	617.90
441.38	674.07
441.57	664.71
441.75	660.03
441.94	706.84
442.12	596.84
442.31	641.31
442.50	662.37
442.68	692.80
442.87	704.50
443.05	685.78
443.24	688.12
443.43	599.18
443.61	657.69
443.80	657.69
443.98	650.67
444.17	688.12
444.35	655.35
444.54	650.67
444.73	580.45
444.91	655.35
445.10	664.71
445.28	678.76
445.47	592.16
445.65	676.41
445.84	592.16
446.02	695.14
446.21	653.01
446.39	627.26
446.58	613.22
446.77	650.67
446.95	636.63
447.14	624.92
447.32	592.16
447.51	561.73
447.69	718.54
447.88	585.13
448.06	641.31
448.25	582.79
448.43	676.41
448.62	643.65
448.80	641.31
448.99	620.24
449.17	585.13
449.36	589.82
449.54	634.29
449.73	589.82
449.91	629.60
450.10	571.09
450.28	603.86
450.46	664.71
450.65	645.99
450.83	645.99
451.02	617.90
451.20	648.33
451.39	681.10
451.57	650.67
451.76	608.54
451.94	613.22
452.13	631.94
452.31	655.35
452.49	681.10
452.68	650.67
452.86	559.39
453.05	627.26
453.23	636.63
453.42	561.73
453.60	660.03
453.78	638.97
453.97	596.84
454.15	624.92
454.34	613.22
454.52	669.39
454.70	702.16
454.89	664.71
455.07	641.31
455.26	650.67
455.44	641.31
455.62	709.18
455.81	650.67
455.99	631.94
456.17	648.33
456.36	643.65
456.54	638.97
456.73	664.71
456.91	690.46
457.09	641.31
457.28	657.69
457.46	580.45
457.64	648.33
457.83	674.07
458.01	718.54
458.19	624.92
458.38	664.71
458.56	669.39
458.74	613.22
458.93	683.44
459.11	589.82
459.29	587.47
459.48	653.01
459.66	730.25
459.84	699.82
460.03	662.37
460.21	601.52
460.39	624.92
460.57	667.05
460.76	622.58
460.94	641.31
461.12	627.26
461.31	629.60
461.49	662.37
461.67	648.33
461.85	648.33
462.04	657.69
462.22	961.96
462.40	748.97
462.59	603.86
462.77	674.07
462.95	676.41
463.13	582.79
463.32	629.60
463.50	629.60
463.68	653.01
463.86	678.76
464.05	674.07
464.23	667.05
464.41	643.65
464.59	643.65
464.78	641.31
464.96	629.60
465.14	685.78
465.32	676.41
465.50	671.73
465.69	631.94
465.87	580.45
466.05	720.88
466.23	589.82
466.41	610.88
466.60	578.11
466.78	704.50
466.96	690.46
467.14	631.94
467.32	674.07
467.51	678.76
467.69	601.52
467.87	643.65
468.05	638.97
468.23	641.31
468.41	706.84
468.60	557.05
468.78	664.71
468.96	638.97
469.14	636.63
469.32	552.37
469.50	610.88
469.69	638.97
469.87	645.99
470.05	711.52
470.23	610.88
470.41	564.07
470.59	622.58
470.77	683.44
470.95	667.05
471.14	662.37
471.32	622.58
471.50	636.63
471.68	643.65
471.86	655.35
472.04	641.31
472.22	643.65
472.40	645.99
472.58	608.54
472.77	674.07
472.95	627.26
473.13	695.14
473.31	585.13
473.49	671.73
473.67	720.88
473.85	636.63
474.03	746.63
474.21	599.18
474.39	582.79
474.57	737.27
474.75	641.31
474.93	716.20
475.12	678.76
475.30	636.63
475.48	629.60
475.66	634.29
475.84	592.16
476.02	617.90
476.20	631.94
476.38	678.76
476.56	634.29
476.74	641.31
476.92	690.46
477.10	669.39
477.28	685.78
477.46	631.94
477.64	683.44
477.82	643.65
478.00	594.50
478.18	634.29
478.36	653.01
478.54	678.76
478.72	624.92
478.90	603.86
479.08	613.22
479.26	695.14
479.44	676.41
479.62	657.69
479.80	653.01
479.98	615.56
480.16	671.73
480.34	678.76
480.52	655.35
480.70	629.60
480.88	554.71
481.06	699.82
481.24	615.56
481.41	674.07
481.59	653.01
481.77	650.67
481.95	664.71
482.13	641.31
482.31	662.37
482.49	697.48
482.67	580.45
482.85	711.52
483.03	711.52
483.21	681.10
483.39	676.41
483.57	650.67
483.74	648.33
483.92	669.39
484.10	671.73
484.28	765.36
484.46	732.59
484.64	664.71
484.82	786.42
485.00	739.61
485.18	613.22
485.35	678.76
485.53	692.80
485.71	699.82
485.89	716.20
486.07	702.16
486.25	695.14
486.43	711.52
486.61	683.44
486.78	713.86
486.96	737.27
487.14	711.52
487.32	709.18
487.50	720.88
487.68	741.95
487.85	763.01
488.03	704.50
488.21	765.36
488.39	706.84
488.57	795.78
488.75	624.92
488.92	746.63
489.10	709.18
489.28	678.76
489.46	653.01
489.64	746.63
489.81	681.10
489.99	603.86
490.17	704.50
490.35	772.38
490.53	657.69
490.70	662.37
490.88	660.03
491.06	702.16
491.24	617.90
491.41	739.61
491.59	720.88
491.77	718.54
491.95	669.39
492.13	706.84
492.30	716.20
492.48	660.03
492.66	624.92
492.84	723.23
493.01	753.65
493.19	641.31
493.37	751.31
493.54	678.76
493.72	648.33
493.90	685.78
494.08	697.48
494.25	713.86
494.43	706.84
494.61	638.97
494.79	636.63
494.96	653.01
495.14	737.27
495.32	653.01
495.49	674.07
495.67	720.88
495.85	671.73
496.02	643.65
496.20	690.46
496.38	716.20
496.55	704.50
496.73	664.71
496.91	681.10
497.09	678.76
497.26	695.14
497.44	706.84
497.62	641.31
497.79	657.69
497.97	608.54
498.14	695.14
498.32	660.03
498.50	636.63
498.67	613.22
498.85	669.39
499.03	613.22
499.20	681.10
499.38	713.86
499.56	653.01
499.73	594.50
499.91	664.71
500.08	704.50
500.26	720.88
500.44	695.14
500.61	655.35
500.79	601.52
500.97	650.67
501.14	706.84
501.32	709.18
501.49	664.71
501.67	638.97
501.84	699.82
502.02	674.07
502.20	685.78
502.37	638.97
502.55	634.29
502.72	732.59
502.90	678.76
503.07	631.94
503.25	657.69
503.43	667.05
503.60	692.80
503.78	631.94
503.95	676.41
504.13	655.35
504.30	692.80
504.48	627.26
504.65	650.67
504.83	695.14
505.01	683.44
505.18	634.29
505.36	622.58
505.53	587.47
505.71	599.18
505.88	706.84
506.06	601.52
506.23	660.03
506.41	706.84
506.58	683.44
506.76	657.69
506.93	669.39
507.11	638.97
507.28	599.18
507.46	631.94
507.63	697.48
507.81	648.33
507.98	634.29
508.16	674.07
508.33	634.29
508.50	748.97
508.68	713.86
508.85	671.73
509.03	636.63
509.20	608.54
509.38	660.03
509.55	713.86
509.73	638.97
509.90	711.52
510.08	653.01
510.25	655.35
510.42	683.44
510.60	622.58
510.77	711.52
510.95	711.52
511.12	683.44
511.30	718.54
511.47	634.29
511.64	685.78
511.82	655.35
511.99	627.26
512.17	702.16
512.34	601.52
512.51	660.03
512.69	622.58
512.86	674.07
513.04	648.33
513.21	669.39
513.38	596.84
513.56	589.82
513.73	622.58
513.90	695.14
514.08	667.05
514.25	631.94
514.43	655.35
514.60	638.97
514.77	650.67
514.95	671.73
515.12	690.46
515.29	669.39
515.47	615.56
515.64	653.01
515.81	641.31
515.99	641.31
516.16	603.86
516.33	709.18
516.51	671.73
516.68	627.26
516.85	645.99
517.03	629.60
517.20	608.54
517.37	674.07
517.54	610.88
517.72	615.56
517.89	648.33
518.06	674.07
518.24	744.29
518.41	622.58
518.58	596.84
518.75	669.39
518.93	671.73
519.10	624.92
519.27	636.63
519.45	667.05
519.62	650.67
519.79	669.39
519.96	692.80
520.14	692.80
520.31	624.92
520.48	641.31
520.65	667.05
520.83	697.48
521.00	650.67
521.17	622.58
521.34	725.57
521.52	688.12
521.69	601.52
521.86	650.67
522.03	603.86
522.20	657.69
522.38	688.12
522.55	645.99
522.72	688.12
522.89	629.60
523.07	627.26
523.24	667.05
523.41	730.25
523.58	669.39
523.75	587.47
523.92	664.71
524.10	653.01
524.27	662.37
524.44	676.41
524.61	617.90
524.78	662.37
524.96	657.69
525.13	695.14
525.30	699.82
525.47	629.60
525.64	599.18
525.81	678.76
525.98	676.41
526.16	653.01
526.33	697.48
526.50	655.35
526.67	692.80
526.84	636.63
527.01	678.76
527.18	681.10
527.36	671.73
527.53	692.80
527.70	697.48
527.87	617.90
528.04	706.84
528.21	660.03
528.38	648.33
528.55	688.12
528.72	706.84
528.89	634.29
529.07	643.65
529.24	676.41
529.41	636.63
529.58	671.73
529.75	603.86
529.92	641.31
530.09	669.39
530.26	627.26
530.43	641.31
530.60	676.41
530.77	667.05
530.94	657.69
531.11	608.54
531.28	653.01
531.46	641.31
531.63	648.33
531.80	737.27
531.97	678.76
532.14	615.56
532.31	648.33
532.48	709.18
532.65	638.97
532.82	617.90
532.99	669.39
533.16	704.50
533.33	683.44
533.50	711.52
533.67	671.73
533.84	685.78
534.01	676.41
534.18	739.61
534.35	716.20
534.52	732.59
534.69	755.99
534.86	709.18
535.03	662.37
535.20	664.71
535.37	648.33
535.54	662.37
535.71	741.95
535.88	732.59
536.05	641.31
536.22	737.27
536.38	650.67
536.55	688.12
536.72	711.52
536.89	662.37
537.06	688.12
537.23	706.84
537.40	744.29
537.57	730.25
537.74	793.44
537.91	798.12
538.08	798.12
538.25	716.20
538.42	730.25
538.59	774.72
538.75	819.19
538.92	730.25
539.09	772.38
539.26	821.53
539.43	809.83
539.60	795.78
539.77	875.36
539.94	840.25
540.11	896.43
540.28	964.30
540.44	980.68
540.61	978.34
540.78	1060.26
540.95	1097.71
541.12	1203.04
541.29	1284.95
541.46	1268.57
541.62	1310.70
541.79	1256.87
541.96	1256.87
542.13	1282.61
542.30	1224.10
542.47	1242.82
542.63	1235.80
542.80	1221.76
542.97	1329.42
543.14	1247.51
543.31	1268.57
543.48	1214.74
543.64	1193.67
543.81	1263.89
543.98	1217.08
544.15	1249.85
544.32	1188.99
544.48	1174.95
544.65	1198.35
544.82	1205.38
544.99	1179.63
545.16	1170.27
545.32	1317.72
545.49	1619.65
545.66	2031.58
545.83	2188.40
546.00	1944.99
546.16	1706.25
546.33	1526.03
546.50	1366.87
546.67	1275.59
546.83	1142.18
547.00	1025.15
547.17	964.30
547.34	978.34
547.50	917.49
547.67	968.98
547.84	896.43
548.00	947.92
548.17	896.43
548.34	877.70
548.51	985.37
548.67	940.90
548.84	866.00
549.01	978.34
549.18	889.40
549.34	894.08
549.51	861.32
549.68	903.45
549.84	821.53
550.01	786.42
550.18	837.91
550.34	854.30
550.51	833.23
550.68	840.25
550.84	814.51
551.01	751.31
551.18	847.27
551.34	786.42
551.51	823.87
551.68	763.01
551.84	772.38
552.01	793.44
552.18	727.91
552.34	706.84
552.51	763.01
552.68	781.74
552.84	777.06
553.01	655.35
553.18	800.46
553.34	751.31
553.51	755.99
553.67	674.07
553.84	765.36
554.01	737.27
554.17	709.18
554.34	753.65
554.51	685.78
554.67	690.46
554.84	718.54
555.00	702.16
555.17	690.46
555.33	702.16
555.50	622.58
555.67	727.91
555.83	725.57
556.00	678.76
556.16	786.42
556.33	765.36
556.50	683.44
556.66	660.03
556.83	674.07
556.99	676.41
557.16	622.58
557.32	713.86
557.49	648.33
557.65	617.90
557.82	692.80
557.98	664.71
558.15	674.07
558.32	624.92
558.48	606.20
558.65	638.97
558.81	620.24
558.98	657.69
559.14	699.82
559.31	741.95
559.47	688.12
559.64	648.33
559.80	662.37
559.97	674.07
560.13	631.94
560.30	601.52
560.46	575.77
560.63	657.69
560.79	711.52
560.96	653.01
561.12	683.44
561.29	688.12
561.45	716.20
561.61	624.92
561.78	683.44
561.94	601.52
562.11	610.88
562.27	699.82
562.44	741.95
562.60	718.54
562.77	725.57
562.93	727.91
563.10	706.84
563.26	718.54
563.42	667.05
563.59	615.56
563.75	725.57
563.92	734.93
564.08	610.88
564.24	678.76
564.41	671.73
564.57	578.11
564.74	671.73
564.90	631.94
565.07	601.52
565.23	664.71
565.39	667.05
565.56	716.20
565.72	683.44
565.88	657.69
566.05	610.88
566.21	634.29
566.38	636.63
566.54	690.46
566.70	631.94
566.87	653.01
567.03	589.82
567.19	674.07
567.36	648.33
567.52	653.01
567.68	674.07
567.85	606.20
568.01	676.41
568.17	603.86
568.34	592.16
568.50	655.35
568.66	678.76
568.83	725.57
568.99	610.88
569.15	599.18
569.32	716.20
569.48	702.16
569.64	634.29
569.81	601.52
569.97	636.63
570.13	662.37
570.30	596.84
570.46	631.94
570.62	695.14
570.78	669.39
570.95	678.76
571.11	695.14
571.27	645.99
571.43	681.10
571.60	732.59
571.76	695.14
571.92	671.73
572.09	641.31
572.25	617.90
572.41	653.01
572.57	741.95
572.74	720.88
572.90	706.84
573.06	699.82
573.22	685.78
573.38	730.25
573.55	660.03
573.71	662.37
573.87	554.71
574.03	730.25
574.20	589.82
574.36	676.41
574.52	643.65
574.68	617.90
574.84	671.73
575.01	587.47
575.17	695.14
575.33	608.54
575.49	664.71
575.65	676.41
575.82	657.69
575.98	704.50
576.14	653.01
576.30	763.01
576.46	767.70
576.62	950.26
576.79	936.21
576.95	896.43
577.11	858.98
577.27	851.96
577.43	800.46
577.59	798.12
577.75	737.27
577.92	660.03
578.08	730.25
578.24	643.65
578.40	725.57
578.56	774.72
578.72	947.92
578.88	854.30
579.04	880.04
579.21	821.53
579.37	741.95
579.53	744.29
579.69	826.21
579.85	777.06
580.01	795.78
580.17	753.65
580.33	737.27
580.49	807.48
580.65	763.01
580.82	765.36
580.98	685.78
581.14	695.14
581.30	741.95
581.46	739.61
581.62	713.86
581.78	774.72
581.94	795.78
582.10	678.76
582.26	788.76
582.42	793.44
582.58	791.10
582.74	798.12
582.90	805.14
583.06	802.80
583.22	753.65
583.38	833.23
583.54	739.61
583.70	882.38
583.86	828.55
584.02	758.33
584.18	784.08
584.34	774.72
584.50	767.70
584.66	725.57
584.82	737.27
584.98	788.76
585.14	777.06
585.30	713.86
585.46	816.85
585.62	767.70
585.78	793.44
585.94	823.87
586.10	713.86
586.26	763.01
586.42	748.97
586.58	779.40
586.74	868.34
586.90	931.53
587.06	952.60
587.22	957.28
587.38	919.83
587.54	894.08
587.70	828.55
587.86	758.33
588.02	753.65
588.18	800.46
588.34	758.33
588.49	741.95
588.65	737.27
588.81	732.59
588.97	748.97
589.13	727.91
589.29	748.97
589.45	784.08
589.61	748.97
589.77	784.08
589.93	685.78
590.08	777.06
590.24	763.01
590.40	770.04
590.56	833.23
590.72	695.14
590.88	669.39
591.04	741.95
591.20	711.52
591.35	830.89
591.51	690.46
591.67	718.54
591.83	702.16
591.99	770.04
592.15	781.74
592.31	809.83
592.46	830.89
592.62	807.48
592.78	734.93
592.94	812.17
593.10	826.21
593.26	828.55
593.41	800.46
593.57	837.91
593.73	781.74
593.89	699.82
594.05	779.40
594.20	662.37
594.36	772.38
594.52	697.48
594.68	709.18
594.84	791.10
594.99	709.18
595.15	713.86
595.31	716.20
595.47	725.57
595.62	741.95
595.78	688.12
595.94	751.31
596.10	741.95
596.25	706.84
596.41	667.05
596.57	678.76
596.73	760.67
596.88	723.23
597.04	723.23
597.20	683.44
597.36	716.20
597.51	662.37
597.67	748.97
597.83	718.54
597.99	720.88
598.14	751.31
598.30	741.95
598.46	716.20
598.61	695.14
598.77	737.27
598.93	692.80
599.09	716.20
599.24	770.04
599.40	809.83
599.56	746.63
599.71	758.33
599.87	716.20
600.03	814.51
600.18	702.16
600.34	697.48
600.50	664.71
600.65	678.76
600.81	779.40
600.97	653.01
601.12	709.18
601.28	772.38
601.44	741.95
601.59	676.41
601.75	660.03
601.91	709.18
602.06	695.14
602.22	763.01
602.37	697.48
602.53	671.73
602.69	753.65
602.84	664.71
603.00	711.52
603.16	650.67
603.31	709.18
603.47	636.63
603.62	727.91
603.78	641.31
603.94	636.63
604.09	690.46
604.25	699.82
604.40	667.05
604.56	692.80
604.71	699.82
604.87	706.84
605.03	704.50
605.18	739.61
605.34	725.57
605.49	667.05
605.65	702.16
605.80	751.31
605.96	744.29
606.12	699.82
606.27	706.84
606.43	695.14
606.58	695.14
606.74	683.44
606.89	699.82
607.05	667.05
607.20	667.05
607.36	758.33
607.51	784.08
607.67	718.54
607.82	730.25
607.98	784.08
608.13	674.07
608.29	718.54
608.44	830.89
608.60	744.29
608.75	891.74
608.91	772.38
609.06	856.64
609.22	875.36
609.37	875.36
609.53	870.68
609.68	863.66
609.84	889.40
