SpectraSuite Data File
++++++++++++++++++++++++++++++++++++
Date: Thu Oct 24 13:21:33 EDT 2013
User: stostad
Dark Spectrum Present: No
Reference Spectrum Present: No
Number of Sampled Component Spectra: 1
Spectrometers: USB2+H05261
Integration Time (usec): 100000 (USB2+H05261)
Spectra Averaged: 1 (USB2+H05261)
Boxcar Smoothing: 0 (USB2+H05261)
Correct for Electrical Dark: No (USB2+H05261)
Strobe/Lamp Enabled: No (USB2+H05261)
Correct for Detector Non-linearity: No (USB2+H05261)
Correct for Stray Light: No (USB2+H05261)
Number of Pixels in Processed Spectrum: 2048
>>>>>Begin Processed Spectral Data<<<<<
365.73	594.50
365.92	594.50
366.12	594.50
366.32	493.85
366.52	440.02
366.72	510.24
366.91	514.92
367.11	461.09
367.31	451.72
367.51	470.45
367.70	470.45
367.90	489.17
368.10	496.19
368.30	489.17
368.49	425.98
368.69	479.81
368.89	472.79
369.09	517.26
369.28	472.79
369.48	510.24
369.68	435.34
369.87	505.56
370.07	540.66
370.27	582.79
370.47	676.41
370.66	1212.40
370.86	1142.18
371.06	1139.84
371.25	1301.34
371.45	1186.65
371.65	1233.46
371.84	1181.97
372.04	1268.57
372.24	1324.74
372.44	1322.40
372.63	1296.66
372.83	1301.34
373.03	1313.04
373.22	1409.00
373.42	1366.87
373.62	1399.64
373.81	1383.26
374.01	1439.43
374.21	1331.76
374.40	1467.52
374.60	1430.07
374.79	1390.28
374.99	1392.62
375.19	1350.49
375.38	1371.55
375.58	1418.36
375.78	1535.39
375.97	1605.61
376.17	1500.28
376.37	1469.86
376.56	1406.66
376.76	1533.05
376.95	1561.14
377.15	1572.84
377.35	1654.76
377.54	1519.01
377.74	1586.88
377.93	1465.18
378.13	1575.18
378.33	1572.84
378.52	1542.41
378.72	1582.20
378.91	1631.35
379.11	1607.95
379.31	1657.10
379.50	1739.02
379.70	1682.85
379.89	1652.42
380.09	1659.44
380.28	1748.38
380.48	1760.08
380.68	1650.08
380.87	1673.48
381.07	1806.89
381.26	1804.55
381.46	1830.30
381.65	1776.47
381.85	1867.75
382.04	1769.44
382.24	1811.57
382.43	1851.36
382.63	1736.68
382.83	1811.57
383.02	1914.56
383.22	1916.90
383.41	1827.96
383.61	1884.13
383.80	1804.55
384.00	1844.34
384.19	1823.28
384.39	1994.14
384.58	1961.37
384.78	2005.84
384.97	2031.58
385.17	2012.86
385.36	2015.20
385.56	2001.16
385.75	1874.77
385.95	1930.94
386.14	2022.22
386.34	2031.58
386.53	2054.99
386.72	2003.50
386.92	2066.69
387.11	2113.50
387.31	2069.03
387.50	2134.57
387.70	2136.91
387.89	2083.08
388.09	2204.78
388.28	2225.85
388.48	2148.61
388.67	2106.48
388.86	2120.53
389.06	2211.81
389.25	2218.83
389.45	2258.62
389.64	2249.25
389.84	2324.15
390.03	2333.51
390.22	2293.72
390.42	2289.04
390.61	2244.57
390.81	2342.88
391.00	2314.79
391.19	2506.71
391.39	2347.56
391.58	2366.28
391.78	2382.67
391.97	2539.48
392.16	2441.18
392.36	2513.74
392.55	2396.71
392.75	2509.05
392.94	2586.29
393.13	2478.63
393.33	2661.19
393.52	2642.46
393.71	2630.76
393.91	2605.02
394.10	2565.23
394.29	2654.17
394.49	2565.23
394.68	2672.89
394.88	2693.96
395.07	2705.66
395.26	2743.11
395.46	2684.59
395.65	2745.45
395.84	2796.94
396.04	2892.90
396.23	2799.28
396.42	2867.16
396.62	2874.18
396.81	2857.79
397.00	2883.54
397.19	2960.78
397.39	2951.42
397.58	2974.82
397.77	3000.57
397.97	3080.14
398.16	2913.97
398.35	3047.38
398.55	2970.14
398.74	2801.62
398.93	3103.55
399.12	3138.66
399.32	3068.44
399.51	3089.51
399.70	3281.43
399.90	3208.87
400.09	3311.86
400.28	3300.16
400.47	3204.19
400.67	3297.81
400.86	3304.84
401.05	3403.14
401.24	3358.67
401.44	3410.16
401.63	3410.16
401.82	3541.23
402.01	3384.41
402.21	3440.59
402.40	3461.65
402.59	3480.38
402.78	3461.65
402.97	3375.05
403.17	3595.06
403.36	3538.89
403.55	3588.04
403.74	3646.55
403.93	3791.67
404.13	3625.49
404.32	3843.16
404.51	3798.69
404.70	3815.07
404.89	3749.54
405.09	3770.60
405.28	3831.46
405.47	3845.50
405.66	3866.56
405.85	3906.35
406.05	3976.57
406.24	3960.19
406.43	3967.21
406.62	4100.62
406.81	4135.73
407.00	4011.68
407.20	3967.21
407.39	4280.84
407.58	4219.99
407.77	4311.27
407.96	4196.58
408.15	4250.41
408.34	4119.34
408.54	4308.93
408.73	4360.42
408.92	4294.88
409.11	4404.89
409.30	4390.84
409.49	4542.98
409.68	4608.51
409.87	4610.86
410.07	4629.58
410.26	4753.63
410.45	4545.32
410.64	4781.71
410.83	4664.69
411.02	4767.67
411.21	4779.37
411.40	4793.42
411.59	4770.01
411.78	4772.35
411.98	4823.84
412.17	4915.12
412.36	5018.11
412.55	5137.48
412.74	5071.94
412.93	5137.48
413.12	4971.30
413.31	5465.15
413.50	5200.67
413.69	5245.14
413.88	5399.62
414.07	5331.74
414.26	5401.96
414.45	5533.03
414.64	5401.96
414.83	5631.33
415.02	5706.23
415.22	5650.05
415.41	5825.59
415.60	5750.70
415.79	5841.98
415.98	5888.79
416.17	5959.00
416.36	5839.64
416.55	5874.74
416.74	5940.28
416.93	5982.41
417.12	6094.76
417.31	6225.82
417.50	6148.59
417.69	6300.72
417.88	6296.04
418.07	6237.53
418.26	6403.71
418.45	6424.77
418.64	6438.81
418.83	6555.84
419.02	6406.05
419.21	6546.48
419.39	6693.93
419.58	6586.27
419.77	6384.98
419.96	6909.26
420.15	6813.30
420.34	6827.34
420.53	6747.76
420.72	6825.00
420.91	6904.58
421.10	7052.03
421.29	6932.67
421.48	6895.22
421.67	6937.35
421.86	6906.92
422.05	6960.75
422.24	6902.24
422.43	7187.79
422.61	7283.75
422.80	7173.74
422.99	7267.36
423.18	7108.21
423.37	7316.51
423.56	7241.62
423.75	7335.24
423.94	7220.55
424.13	6555.84
424.32	6803.94
424.50	7344.60
424.69	7456.95
424.88	7339.92
425.07	7272.04
425.26	7164.38
425.45	7258.00
425.64	7241.62
425.83	7108.21
426.01	7463.97
426.20	7442.90
426.39	7447.58
426.58	7286.09
426.77	7332.90
426.96	7337.58
427.15	7496.74
427.33	7548.23
427.52	7571.63
427.71	7716.75
427.90	7562.27
428.09	7688.66
428.28	7744.83
428.46	7695.68
428.65	7658.23
428.84	8013.99
429.03	8032.72
429.22	7726.11
429.40	7957.82
429.59	7988.25
429.78	7632.49
429.97	7496.74
430.16	8011.65
430.34	8028.04
430.53	8116.98
430.72	8093.57
430.91	8006.97
431.10	8156.77
431.28	8248.05
431.47	8154.43
431.66	8404.86
431.85	8308.90
432.03	8470.40
432.22	8428.27
432.41	8650.62
432.60	8315.92
432.79	8482.10
432.97	8641.26
433.16	8741.90
433.35	8702.11
433.54	9029.79
433.72	8882.33
433.91	8971.27
434.10	9022.77
434.28	8755.94
434.47	9174.90
434.66	8933.82
434.85	9142.13
435.03	9242.78
435.22	9172.56
435.41	9673.43
435.59	9493.21
435.78	9458.10
435.97	9561.09
436.16	9390.23
436.34	9345.76
436.53	9549.39
436.72	9486.19
436.90	9221.71
437.09	9462.79
437.28	9476.83
437.46	9544.70
437.65	9596.20
437.84	9549.39
438.02	9575.13
438.21	9757.69
438.40	9523.64
438.58	9954.30
438.77	10186.01
438.96	10012.81
439.14	10169.63
439.33	10686.89
439.52	10513.69
439.70	10391.98
439.89	10689.23
440.08	10750.08
440.26	10574.54
440.45	10803.91
440.63	10635.39
440.82	11033.29
441.01	11007.54
441.19	11044.99
441.38	10824.98
441.57	11286.06
441.75	11162.01
441.94	11527.14
442.12	11487.35
442.31	11765.87
442.50	11499.05
442.68	11501.39
442.87	11452.24
443.05	11527.14
443.24	11765.87
443.43	11894.60
443.61	11690.98
443.80	12238.66
443.98	11492.03
444.17	11307.13
444.35	11899.28
444.54	11887.58
444.73	11983.54
444.91	11894.60
445.10	12116.95
445.28	12107.59
445.47	11815.02
445.65	11906.31
445.84	12091.21
446.02	11946.09
446.21	12060.78
446.39	12030.35
446.58	12194.19
446.77	12346.33
446.95	12131.00
447.14	12145.04
447.32	12365.05
447.51	12306.54
447.69	11969.50
447.88	12138.02
448.06	12306.54
448.25	12205.89
448.43	12351.01
448.62	12507.82
448.80	12187.17
448.99	12554.63
449.17	12493.78
449.36	12077.16
449.54	12678.68
449.73	12788.69
449.91	12903.37
450.10	12877.63
450.28	13247.43
450.46	13284.88
450.65	12800.39
450.83	13275.52
451.02	13111.68
451.20	13350.42
451.39	13294.24
451.57	13165.51
451.76	12975.93
451.94	12989.97
452.13	13303.60
452.31	13163.17
452.49	13202.96
452.68	13399.57
452.86	13235.73
453.05	13642.98
453.23	13736.60
453.42	13418.29
453.60	13528.30
453.78	13678.09
453.97	13600.85
454.15	13867.67
454.34	13631.28
454.52	13991.72
454.70	13923.85
454.89	14010.45
455.07	14040.87
455.26	14132.15
455.44	14534.73
455.62	14064.28
455.81	14150.88
455.99	14361.53
456.17	14413.02
456.36	14501.96
456.54	14656.43
456.73	14733.67
456.91	14871.76
457.09	14963.04
457.28	15220.50
457.46	14963.04
457.64	14991.13
457.83	15037.94
458.01	14888.15
458.19	15627.76
458.38	15009.86
458.56	15410.09
458.74	15192.42
458.93	15527.11
459.11	15267.31
459.29	15243.91
459.48	15644.14
459.66	15466.26
459.84	15627.76
460.03	16121.61
460.21	15941.39
460.39	15850.11
460.57	15857.13
460.76	16065.44
460.94	16016.29
461.12	15967.13
461.31	15915.64
461.49	16353.32
461.67	16219.91
461.85	16615.46
462.04	16334.60
462.22	16683.34
462.40	16638.87
462.59	16505.46
462.77	16875.26
462.95	16552.27
463.13	16690.36
463.32	16540.57
463.50	16849.52
463.68	16996.97
463.86	17116.34
464.05	16734.83
464.23	16847.18
464.41	16994.63
464.59	16858.88
464.78	17738.92
464.96	17439.33
465.14	16994.63
465.32	17153.79
465.50	17050.80
465.69	17193.58
465.87	17687.43
466.05	17444.01
466.23	17371.46
466.41	17621.89
466.60	17837.22
466.78	17448.69
466.96	17401.88
467.14	17734.24
467.32	17834.88
467.51	18188.30
467.69	17701.47
467.87	18274.90
468.05	18054.89
468.23	17767.01
468.41	17881.69
468.60	18195.32
468.78	18490.23
468.96	18073.62
469.14	18312.35
469.32	18609.60
469.50	18204.69
469.69	18803.86
469.87	18794.50
470.05	18548.75
470.23	18958.34
470.41	18845.99
470.59	19068.34
470.77	18845.99
470.95	19159.63
471.14	19674.54
471.32	18909.19
471.50	19604.33
471.68	19290.70
471.86	19484.96
472.04	19627.73
472.22	20222.23
472.40	19784.55
472.58	19754.12
472.77	19943.70
472.95	20084.14
473.13	20671.61
473.31	20140.31
473.49	20374.36
473.67	20479.69
473.85	20542.88
474.03	21238.02
474.21	21015.67
474.39	20856.51
474.57	20959.50
474.75	21385.47
474.93	21486.12
475.12	21329.30
475.30	21879.33
475.48	21745.92
475.66	21757.62
475.84	21869.97
476.02	22118.06
476.20	21928.48
476.38	22506.59
476.56	22841.29
476.74	23314.08
476.92	22754.69
477.10	22857.67
477.28	23400.68
477.46	23480.25
477.64	23407.70
477.82	23845.38
478.00	24400.08
478.18	24269.01
478.36	24446.90
478.54	24573.28
478.72	24746.48
478.90	25214.59
479.08	25731.85
479.26	25076.50
479.44	25343.32
479.62	25710.78
479.80	25984.63
479.98	26190.59
480.16	26607.21
480.34	26356.77
480.52	26923.18
480.70	26654.02
480.88	26590.83
481.06	26749.98
481.24	27199.37
481.41	27417.04
481.59	27765.78
481.77	28180.05
481.95	28416.44
482.13	28758.16
482.31	28128.56
482.49	28966.47
482.67	29174.78
482.85	29071.79
483.03	29879.28
483.21	29790.34
483.39	30197.59
483.57	29750.55
483.74	30583.78
483.92	30562.72
484.10	30288.87
484.28	31346.79
484.46	31454.46
484.64	32046.62
484.82	31683.83
485.00	32198.75
485.18	32271.31
485.35	33099.86
485.53	33010.92
485.71	32872.82
485.89	33661.58
486.07	33544.56
486.25	33560.94
486.43	33600.73
486.61	34038.41
486.78	34871.64
486.96	35021.44
487.14	35419.33
487.32	35257.83
487.50	35386.56
487.68	35871.05
487.85	36407.03
488.03	36664.49
488.21	36886.84
488.39	37193.45
488.57	37380.70
488.75	37579.64
488.92	37294.10
489.10	38141.37
489.28	38277.12
489.46	39084.61
489.64	38787.36
489.81	39590.16
489.99	39508.24
490.17	39758.68
490.35	40339.13
490.53	40229.13
490.70	40287.64
490.88	40802.56
491.06	41193.43
491.24	40884.48
491.41	41291.73
491.59	42188.16
491.77	41701.32
491.95	41855.80
492.13	42164.75
492.30	42478.38
492.48	42841.17
492.66	43012.02
492.84	43335.02
493.01	43636.95
493.19	43636.95
493.37	44224.42
493.54	44247.83
493.72	44680.83
493.90	44404.64
494.08	45303.41
494.25	45382.99
494.43	45521.08
494.61	45661.51
494.79	45879.18
494.96	46122.60
495.14	46511.13
495.32	46358.99
495.49	46934.76
495.67	46972.21
495.85	47386.49
496.02	47114.98
496.20	47700.12
496.38	47419.25
496.55	48343.77
496.73	49003.80
496.91	48151.84
497.09	48839.96
497.26	48856.34
497.44	49233.17
497.62	49076.35
497.79	49940.01
497.97	49827.66
498.14	50248.96
498.32	50361.31
498.50	49757.45
498.67	50642.17
498.85	50160.02
499.03	50932.40
499.20	51084.53
499.38	50791.97
499.56	50986.23
499.73	51414.55
499.91	51629.88
500.08	51597.11
500.26	51234.33
500.44	51592.43
500.61	52116.71
500.79	51821.80
500.97	52165.86
501.14	52657.37
501.32	52491.19
501.49	52507.58
501.67	52865.68
501.84	53038.88
502.02	52959.30
502.20	53045.90
502.37	53148.88
502.55	52935.90
502.72	53382.94
502.90	53078.67
503.07	53413.37
503.25	53741.04
503.43	53375.92
503.60	54057.01
503.78	54061.69
503.95	54202.13
504.13	54148.29
504.30	54344.90
504.48	54145.95
504.65	54721.72
504.83	54972.16
505.01	54756.83
505.18	54789.60
505.36	54887.90
505.53	54667.89
505.71	55168.77
505.88	55311.54
506.06	54995.57
506.23	55714.11
506.41	55512.83
506.58	55573.68
506.76	55440.27
506.93	55877.95
507.11	56081.58
507.28	55973.91
507.46	56055.83
507.63	56104.98
507.81	56301.59
507.98	55838.16
508.16	56198.60
508.33	56390.53
508.50	56521.60
508.68	56465.42
508.85	56942.89
509.03	56657.35
509.20	56722.88
509.38	57052.90
509.55	57198.01
509.73	57193.33
509.90	57387.60
510.08	57315.04
510.25	57308.02
510.42	57476.54
510.60	57703.57
510.77	57607.61
510.95	57900.17
511.12	57668.46
511.30	57689.52
511.47	57874.43
511.64	58028.90
511.82	57963.37
511.99	57808.89
512.17	58085.07
512.34	58007.84
512.51	58504.03
512.69	58588.29
512.86	58461.90
513.04	58731.06
513.21	58618.72
513.38	58740.42
513.56	58527.44
513.73	58841.07
513.90	58965.12
514.08	59121.93
514.25	59032.99
514.43	59473.01
514.60	58995.54
514.77	59037.67
514.95	59267.05
515.12	59295.13
515.29	59206.19
515.47	59587.70
515.64	59625.15
515.81	59669.62
515.99	59629.83
516.16	59723.45
516.33	59758.56
516.51	59807.71
516.68	60062.83
516.85	60060.49
517.03	59917.71
517.20	60348.37
517.37	60046.44
517.54	60001.97
517.72	60142.41
517.89	60051.12
518.06	60526.25
518.24	60355.39
518.41	60488.80
518.58	60331.99
518.75	60402.21
518.93	60491.15
519.10	60561.36
519.27	60685.41
519.45	60631.58
519.62	61078.62
519.79	60856.27
519.96	60982.66
520.14	61031.81
520.31	60743.92
520.48	60867.97
520.65	61013.08
520.83	61415.66
521.00	61523.32
521.17	61181.60
521.34	61387.57
521.52	61513.96
521.69	61420.34
521.86	61275.22
522.03	61354.80
522.20	61712.91
522.38	61801.85
522.55	61822.91
522.72	61762.06
522.89	61832.27
523.07	61853.34
523.24	61846.32
523.41	61897.81
523.58	61888.45
523.75	62190.37
523.92	62192.72
524.10	62248.89
524.27	62248.89
524.44	62426.77
524.61	62253.57
524.78	62244.21
524.96	62560.18
525.13	62560.18
525.30	62569.54
525.47	62852.75
525.64	62429.11
525.81	62672.52
525.98	62700.61
526.16	62588.27
526.33	62780.19
526.50	63058.71
526.67	62911.26
526.84	63051.69
527.01	62904.24
527.18	63061.05
527.36	63075.10
527.53	63039.99
527.70	63236.59
527.87	63398.09
528.04	63140.63
528.21	63480.01
528.38	63423.84
528.55	63482.35
528.72	63365.32
528.89	63306.81
529.07	63348.94
529.24	63501.07
529.41	63620.44
529.58	63597.04
529.75	63753.85
529.92	63599.38
530.09	63636.83
530.26	63608.74
530.43	63882.58
530.60	63632.14
530.77	63746.83
530.94	63779.60
531.11	63973.86
531.28	64165.79
531.46	64083.87
531.63	63849.81
531.80	63901.31
531.97	64128.34
532.14	64168.13
532.31	64154.08
532.48	64308.56
532.65	64399.84
532.82	64320.26
532.99	64343.67
533.16	64280.47
533.33	64348.35
533.50	64474.74
533.67	64477.08
533.84	64404.52
534.01	64381.12
534.18	64402.18
534.35	64753.26
534.52	64657.30
534.69	64671.34
534.86	64807.09
535.03	64348.35
535.20	64685.39
535.37	64779.01
535.54	65003.70
535.71	64741.56
535.88	64982.63
536.05	64973.27
536.22	65083.28
536.38	65130.09
536.55	65050.51
536.72	64982.63
536.89	65104.34
537.06	65258.82
537.23	65413.29
537.40	65240.09
537.57	65270.52
537.74	65176.90
537.91	65403.93
538.08	65352.44
538.25	65331.37
538.42	65490.53
538.59	65535.00
538.75	65244.77
538.92	65441.38
539.09	65535.00
539.26	65535.00
539.43	65535.00
539.60	65535.00
539.77	65535.00
539.94	65535.00
540.11	65535.00
540.28	65535.00
540.44	65535.00
540.61	65535.00
540.78	65535.00
540.95	65535.00
541.12	65535.00
541.29	65535.00
541.46	65535.00
541.62	65535.00
541.79	65535.00
541.96	65535.00
542.13	65535.00
542.30	65535.00
542.47	65535.00
542.63	65535.00
542.80	65535.00
542.97	65535.00
543.14	65535.00
543.31	65535.00
543.48	65535.00
543.64	65535.00
543.81	65535.00
543.98	65535.00
544.15	65535.00
544.32	65535.00
544.48	65535.00
544.65	65535.00
544.82	65535.00
544.99	65535.00
545.16	65535.00
545.32	65535.00
545.49	65535.00
545.66	65535.00
545.83	65535.00
546.00	65535.00
546.16	65535.00
546.33	65535.00
546.50	65535.00
546.67	65535.00
546.83	65535.00
547.00	65535.00
547.17	65535.00
547.34	65535.00
547.50	65535.00
547.67	65535.00
547.84	65535.00
548.00	65535.00
548.17	65535.00
548.34	65535.00
548.51	65535.00
548.67	65535.00
548.84	65535.00
549.01	65535.00
549.18	65535.00
549.34	65535.00
549.51	65535.00
549.68	65535.00
549.84	65535.00
550.01	65535.00
550.18	65535.00
550.34	65535.00
550.51	65535.00
550.68	65535.00
550.84	65535.00
551.01	65535.00
551.18	65535.00
551.34	65535.00
551.51	65535.00
551.68	65535.00
551.84	65535.00
552.01	65535.00
552.18	65535.00
552.34	65535.00
552.51	65535.00
552.68	65535.00
552.84	65535.00
553.01	65535.00
553.18	65535.00
553.34	65535.00
553.51	65535.00
553.67	65535.00
553.84	65535.00
554.01	65535.00
554.17	65535.00
554.34	65535.00
554.51	65535.00
554.67	65535.00
554.84	65535.00
555.00	65535.00
555.17	65535.00
555.33	65535.00
555.50	65535.00
555.67	65535.00
555.83	65535.00
556.00	65535.00
556.16	65535.00
556.33	65535.00
556.50	65535.00
556.66	65535.00
556.83	65535.00
556.99	65535.00
557.16	65535.00
557.32	65535.00
557.49	65535.00
557.65	65535.00
557.82	65535.00
557.98	65535.00
558.15	65535.00
558.32	65535.00
558.48	65535.00
558.65	65535.00
558.81	65535.00
558.98	65535.00
559.14	65535.00
559.31	65535.00
559.47	65535.00
559.64	65535.00
559.80	65535.00
559.97	65535.00
560.13	65535.00
560.30	65535.00
560.46	65535.00
560.63	65535.00
560.79	65535.00
560.96	65535.00
561.12	65535.00
561.29	65535.00
561.45	65535.00
561.61	65535.00
561.78	65535.00
561.94	65535.00
562.11	65535.00
562.27	65535.00
562.44	65535.00
562.60	65535.00
562.77	65535.00
562.93	65535.00
563.10	65535.00
563.26	65535.00
563.42	65535.00
563.59	65535.00
563.75	65535.00
563.92	65535.00
564.08	65535.00
564.24	65535.00
564.41	65535.00
564.57	65535.00
564.74	65535.00
564.90	65535.00
565.07	65535.00
565.23	65535.00
565.39	65535.00
565.56	65535.00
565.72	65535.00
565.88	65535.00
566.05	65535.00
566.21	65535.00
566.38	65535.00
566.54	65535.00
566.70	65535.00
566.87	65535.00
567.03	65535.00
567.19	65535.00
567.36	65535.00
567.52	65535.00
567.68	65535.00
567.85	65535.00
568.01	65535.00
568.17	65535.00
568.34	65535.00
568.50	65535.00
568.66	65535.00
568.83	65535.00
568.99	65535.00
569.15	65535.00
569.32	65535.00
569.48	65535.00
569.64	65535.00
569.81	65535.00
569.97	65535.00
570.13	65535.00
570.30	65535.00
570.46	65535.00
570.62	65535.00
570.78	65535.00
570.95	65535.00
571.11	65535.00
571.27	65535.00
571.43	65535.00
571.60	65535.00
571.76	65535.00
571.92	65535.00
572.09	65535.00
572.25	65535.00
572.41	65535.00
572.57	65535.00
572.74	65535.00
572.90	65535.00
573.06	65535.00
573.22	65535.00
573.38	65535.00
573.55	65535.00
573.71	65535.00
573.87	65535.00
574.03	65535.00
574.20	65535.00
574.36	65535.00
574.52	65535.00
574.68	65535.00
574.84	65535.00
575.01	65535.00
575.17	65535.00
575.33	65535.00
575.49	65535.00
575.65	65535.00
575.82	65535.00
575.98	65535.00
576.14	65535.00
576.30	65535.00
576.46	65535.00
576.62	65535.00
576.79	65535.00
576.95	65535.00
577.11	65535.00
577.27	65535.00
577.43	65535.00
577.59	65535.00
577.75	65535.00
577.92	65535.00
578.08	65535.00
578.24	65535.00
578.40	65535.00
578.56	65535.00
578.72	65535.00
578.88	65535.00
579.04	65535.00
579.21	65535.00
579.37	65535.00
579.53	65535.00
579.69	65535.00
579.85	65535.00
580.01	65535.00
580.17	65535.00
580.33	65535.00
580.49	65535.00
580.65	65535.00
580.82	65535.00
580.98	65535.00
581.14	65535.00
581.30	65535.00
581.46	65535.00
581.62	65535.00
581.78	65535.00
581.94	65535.00
582.10	65535.00
582.26	65535.00
582.42	65535.00
582.58	65535.00
582.74	65535.00
582.90	65535.00
583.06	65535.00
583.22	65535.00
583.38	65535.00
583.54	65535.00
583.70	65535.00
583.86	65535.00
584.02	65535.00
584.18	65535.00
584.34	65535.00
584.50	65535.00
584.66	65535.00
584.82	65535.00
584.98	65535.00
585.14	65535.00
585.30	65535.00
585.46	65535.00
585.62	65535.00
585.78	65535.00
585.94	65535.00
586.10	65535.00
586.26	65535.00
586.42	65535.00
586.58	65535.00
586.74	65535.00
586.90	65535.00
587.06	65535.00
