SpectraSuite Data File
++++++++++++++++++++++++++++++++++++
Date: Thu Oct 24 13:21:13 EDT 2013
User: stostad
Dark Spectrum Present: No
Reference Spectrum Present: No
Number of Sampled Component Spectra: 1
Spectrometers: USB2+H05261
Integration Time (usec): 100000 (USB2+H05261)
Spectra Averaged: 1 (USB2+H05261)
Boxcar Smoothing: 0 (USB2+H05261)
Correct for Electrical Dark: No (USB2+H05261)
Strobe/Lamp Enabled: No (USB2+H05261)
Correct for Detector Non-linearity: No (USB2+H05261)
Correct for Stray Light: No (USB2+H05261)
Number of Pixels in Processed Spectrum: 2048
>>>>>Begin Processed Spectral Data<<<<<
365.73	512.58
365.92	512.58
366.12	512.58
366.32	491.51
366.52	425.98
366.72	397.89
366.91	421.30
367.11	456.40
367.31	470.45
367.51	404.91
367.70	421.30
367.90	479.81
368.10	449.38
368.30	428.32
368.49	479.81
368.69	395.55
368.89	465.77
369.09	491.51
369.28	491.51
369.48	383.85
369.68	547.69
369.87	543.00
370.07	524.28
370.27	561.73
370.47	615.56
370.66	601.52
370.86	641.31
371.06	755.99
371.25	655.35
371.45	645.99
371.65	655.35
371.84	739.61
372.04	753.65
372.24	739.61
372.44	725.57
372.63	730.25
372.83	744.29
373.03	760.67
373.22	725.57
373.42	800.46
373.62	807.48
373.81	779.40
374.01	753.65
374.21	755.99
374.40	765.36
374.60	774.72
374.79	760.67
374.99	786.42
375.19	777.06
375.38	798.12
375.58	795.78
375.78	866.00
375.97	849.61
376.17	866.00
376.37	755.99
376.56	755.99
376.76	760.67
376.95	779.40
377.15	784.08
377.35	723.23
377.54	770.04
377.74	800.46
377.93	781.74
378.13	781.74
378.33	798.12
378.52	798.12
378.72	823.87
378.91	741.95
379.11	821.53
379.31	840.25
379.50	795.78
379.70	847.27
379.89	821.53
380.09	826.21
380.28	798.12
380.48	784.08
380.68	793.44
380.87	884.72
381.07	814.51
381.26	812.17
381.46	807.48
381.65	816.85
381.85	795.78
382.04	837.91
382.24	784.08
382.43	765.36
382.63	889.40
382.83	889.40
383.02	901.11
383.22	763.01
383.41	901.11
383.61	828.55
383.80	861.32
384.00	901.11
384.19	795.78
384.39	819.19
384.58	816.85
384.78	924.51
384.97	851.96
385.17	823.87
385.36	884.72
385.56	936.21
385.75	896.43
385.95	858.98
386.14	870.68
386.34	856.64
386.53	842.59
386.72	828.55
386.92	894.08
387.11	922.17
387.31	952.60
387.50	854.30
387.70	851.96
387.89	922.17
388.09	938.55
388.28	821.53
388.48	842.59
388.67	912.81
388.86	950.26
389.06	931.53
389.25	915.15
389.45	945.58
389.64	917.49
389.84	933.87
390.03	889.40
390.22	950.26
390.42	929.19
390.61	915.15
390.81	947.92
391.00	866.00
391.19	894.08
391.39	987.71
391.58	940.90
391.78	924.51
391.97	980.68
392.16	954.94
392.36	964.30
392.55	997.07
392.75	938.55
392.94	1020.47
393.13	961.96
393.33	1013.45
393.52	912.81
393.71	959.62
393.91	966.64
394.10	964.30
394.29	973.66
394.49	1011.11
394.68	1018.13
394.88	1123.46
395.07	926.85
395.26	1036.86
395.46	1057.92
395.65	1034.52
395.84	978.34
396.04	1062.60
396.23	1013.45
396.42	957.28
396.62	1090.69
396.81	1036.86
397.00	1013.45
397.19	1029.84
397.39	961.96
397.58	1053.24
397.77	1062.60
397.97	1125.80
398.16	1081.33
398.35	1093.03
398.55	1109.41
398.74	1121.12
398.93	1095.37
399.12	1102.39
399.32	1118.78
399.51	990.05
399.70	1104.73
399.90	1170.27
400.09	1137.50
400.28	1188.99
400.47	1128.14
400.67	1181.97
400.86	1160.91
401.05	1163.25
401.24	1153.88
401.44	1102.39
401.63	1153.88
401.82	1146.86
402.01	1139.84
402.21	1226.44
402.40	1188.99
402.59	1186.65
402.78	1184.31
402.97	1226.44
403.17	1205.38
403.36	1247.51
403.55	1188.99
403.74	1280.27
403.93	1287.29
404.13	1329.42
404.32	1373.89
404.51	1287.29
404.70	1355.17
404.89	1371.55
405.09	1249.85
405.28	1228.78
405.47	1224.10
405.66	1357.51
405.85	1259.21
406.05	1242.82
406.24	1378.58
406.43	1385.60
406.62	1261.55
406.81	1357.51
407.00	1270.91
407.20	1378.58
407.39	1345.81
407.58	1324.74
407.77	1371.55
407.96	1474.54
408.15	1299.00
408.34	1439.43
408.54	1453.47
408.73	1366.87
408.92	1528.37
409.11	1444.11
409.30	1455.81
409.49	1497.94
409.68	1437.09
409.87	1514.33
410.07	1526.03
410.26	1502.62
410.45	1469.86
410.64	1558.80
410.83	1479.22
411.02	1584.54
411.21	1488.58
411.40	1537.73
411.59	1526.03
411.78	1493.26
411.98	1535.39
412.17	1547.09
412.36	1643.06
412.55	1575.18
412.74	1647.74
412.93	1680.50
413.12	1558.80
413.31	1626.67
413.50	1638.38
413.69	1701.57
413.88	1720.29
414.07	1746.04
414.26	1710.93
414.45	1584.54
414.64	1760.08
414.83	1708.59
415.02	1797.53
415.22	1804.55
415.41	1820.94
415.60	1701.57
415.79	1856.04
415.98	1804.55
416.17	1736.68
416.36	1893.49
416.55	1900.52
416.74	1930.94
416.93	1874.77
417.12	1783.49
417.31	1949.67
417.50	1870.09
417.69	1891.15
417.88	1926.26
418.07	1949.67
418.26	1893.49
418.45	1895.83
418.64	1968.39
418.83	2092.44
419.02	1966.05
419.21	1996.48
419.39	1984.77
419.58	1959.03
419.77	2019.88
419.96	2069.03
420.15	2054.99
420.34	2043.29
420.53	2022.22
420.72	2047.97
420.91	2059.67
421.10	2017.54
421.29	2040.95
421.48	1973.07
421.67	2031.58
421.86	2090.10
422.05	1998.82
422.24	1963.71
422.43	2059.67
422.61	2097.12
422.80	2078.40
422.99	2207.13
423.18	2083.08
423.37	1968.39
423.56	2052.65
423.75	2115.84
423.94	2029.24
424.13	1980.09
424.32	1996.48
424.50	2141.59
424.69	2167.34
424.88	2174.36
425.07	2036.27
425.26	2080.74
425.45	2101.80
425.64	2087.76
425.83	2153.29
426.01	2169.68
426.20	2141.59
426.39	2115.84
426.58	2202.44
426.77	2141.59
426.96	2125.21
427.15	2125.21
427.33	2181.38
427.52	2251.60
427.71	2211.81
427.90	2321.81
428.09	2246.91
428.28	2218.83
428.46	2392.03
428.65	2169.68
428.84	2305.43
429.03	2356.92
429.22	2429.48
429.40	2244.57
429.59	2258.62
429.78	2214.15
429.97	2099.46
430.16	2190.74
430.34	2277.34
430.53	2267.98
430.72	2244.57
430.91	2307.77
431.10	2385.01
431.28	2392.03
431.47	2347.56
431.66	2450.54
431.85	2331.17
432.03	2443.52
432.22	2476.29
432.41	2417.77
432.60	2326.49
432.79	2492.67
432.97	2485.65
433.16	2319.47
433.35	2415.43
433.54	2420.11
433.72	2574.59
433.91	2485.65
434.10	2513.74
434.28	2572.25
434.47	2532.46
434.66	2518.42
434.85	2642.46
435.03	2686.94
435.22	2829.71
435.41	2902.26
435.59	3038.02
435.78	2888.22
435.97	2773.53
436.16	2691.62
436.34	2700.98
436.53	2630.76
436.72	2633.10
436.90	2609.70
437.09	2658.85
437.28	2740.77
437.46	2621.40
437.65	2700.98
437.84	2637.78
438.02	2682.25
438.21	2712.68
438.40	2682.25
438.58	2633.10
438.77	2750.13
438.96	2906.95
439.14	2764.17
439.33	2836.73
439.52	2799.28
439.70	2782.90
439.89	2920.99
440.08	2853.11
440.26	2836.73
440.45	2911.63
440.63	2979.50
440.82	2937.37
441.01	2867.16
441.19	3042.70
441.38	2951.42
441.57	2916.31
441.75	3126.96
441.94	3049.72
442.12	3038.02
442.31	3009.93
442.50	3054.40
442.68	3005.25
442.87	3045.04
443.05	3115.25
443.24	3117.59
443.43	3222.92
443.61	3042.70
443.80	3155.04
443.98	3101.21
444.17	2916.31
444.35	3183.13
444.54	3213.56
444.73	3211.22
444.91	3197.17
445.10	3187.81
445.28	3194.83
445.47	3005.25
445.65	3145.68
445.84	3187.81
446.02	3124.62
446.21	3176.11
446.39	3262.71
446.58	3187.81
446.77	3197.17
446.95	3159.72
447.14	3157.38
447.32	3211.22
447.51	3155.04
447.69	3229.94
447.88	3276.75
448.06	3239.30
448.25	3225.26
448.43	3316.54
448.62	3110.57
448.80	3332.92
448.99	3152.70
449.17	3243.98
449.36	3262.71
449.54	3438.25
449.73	3288.45
449.91	3339.94
450.10	3321.22
450.28	3517.83
450.46	3412.50
450.65	3417.18
450.83	3342.28
451.02	3330.58
451.20	3431.23
451.39	3428.88
451.57	3384.41
451.76	3344.63
451.94	3370.37
452.13	3295.47
452.31	3442.93
452.49	3293.13
452.68	3403.14
452.86	3391.44
453.05	3494.42
453.23	3503.78
453.42	3494.42
453.60	3499.10
453.78	3487.40
453.97	3356.33
454.15	3499.10
454.34	3480.38
454.52	3588.04
454.70	3538.89
454.89	3613.79
455.07	3623.15
455.26	3527.19
455.44	3620.81
455.62	3358.67
455.81	3672.30
455.99	3616.13
456.17	3733.15
456.36	3686.34
456.54	3595.06
456.73	3662.94
456.91	3922.74
457.09	3815.07
457.28	3667.62
457.46	3763.58
457.64	3744.86
457.83	3899.33
458.01	3896.99
458.19	3896.99
458.38	3735.50
458.56	3838.48
458.74	3805.71
458.93	3929.76
459.11	3920.40
459.29	3726.13
459.48	3943.80
459.66	4042.11
459.84	3922.74
460.03	3957.85
460.21	3962.53
460.39	3957.85
460.57	3868.91
460.76	3943.80
460.94	4002.32
461.12	3950.82
461.31	3850.18
461.49	4025.72
461.67	4128.70
461.85	3946.14
462.04	4067.85
462.22	4416.59
462.40	4107.64
462.59	3939.12
462.77	4072.53
462.95	4140.41
463.13	4241.05
463.32	4056.15
463.50	4222.33
463.68	4205.94
463.86	4210.62
464.05	4149.77
464.23	4208.28
464.41	4231.69
464.59	4098.28
464.78	4166.15
464.96	4236.37
465.14	4147.43
465.32	4135.73
465.50	4198.92
465.69	4198.92
465.87	4353.40
466.05	4234.03
466.23	4175.52
466.41	4252.75
466.60	4236.37
466.78	4299.56
466.96	4351.06
467.14	4264.46
467.32	4243.39
467.51	4306.59
467.69	4138.07
467.87	4283.18
468.05	4224.67
468.23	4344.03
468.41	4318.29
468.60	4329.99
468.78	4257.43
468.96	4346.37
469.14	4421.27
469.32	4430.63
469.50	4280.84
469.69	4470.42
469.87	4561.70
470.05	4510.21
470.23	4526.60
470.41	4496.17
470.59	4587.45
470.77	4575.75
470.95	4685.75
471.14	4617.88
471.32	4421.27
471.50	4664.69
471.68	4592.13
471.86	4561.70
472.04	4695.11
472.22	4718.52
472.40	4636.60
472.58	4610.86
472.77	4755.97
472.95	4901.08
473.13	4936.19
473.31	4912.78
473.49	4779.37
473.67	4971.30
473.85	4865.97
474.03	4868.31
474.21	5004.07
474.39	5078.96
474.57	4938.53
474.75	5032.15
474.93	5085.98
475.12	5093.01
475.30	4964.28
475.48	5078.96
475.66	5027.47
475.84	4994.70
476.02	5104.71
476.20	5273.23
476.38	5282.59
476.56	5336.42
476.74	5418.34
476.92	5233.44
477.10	5411.32
477.28	5439.40
477.46	5406.64
477.64	5334.08
477.82	5423.02
478.00	5633.67
478.18	5544.73
478.36	5556.43
478.54	5589.20
478.72	5589.20
478.90	5832.62
479.08	5797.51
479.26	5954.32
479.44	5921.56
479.62	5675.80
479.80	5837.30
479.98	5865.38
480.16	6012.84
480.34	5898.15
480.52	6066.67
480.70	6209.44
480.88	6043.26
481.06	6183.70
481.24	6132.20
481.41	6171.99
481.59	6260.93
481.77	6410.73
481.95	6352.21
482.13	6480.94
482.31	6520.73
482.49	6558.18
482.67	6722.02
482.85	6602.65
483.03	6881.18
483.21	6658.82
483.39	6644.78
483.57	6757.13
483.74	6778.19
483.92	6881.18
484.10	6789.89
484.28	6946.71
484.46	7070.76
484.64	7150.34
484.82	7005.22
485.00	7265.02
485.18	7307.15
485.35	7372.69
485.53	7370.35
485.71	7557.59
485.89	7470.99
486.07	7566.95
486.25	7705.04
486.43	7592.70
486.61	7496.74
486.78	7552.91
486.96	7864.20
487.14	7824.41
487.32	7871.22
487.50	7908.67
487.68	7957.82
487.85	8198.90
488.03	8351.03
488.21	8369.76
488.39	8194.22
488.57	8255.07
488.75	8166.13
488.92	8374.44
489.10	8479.76
489.28	8362.73
489.46	8496.14
489.64	8320.60
489.81	8655.30
489.99	8702.11
490.17	8650.62
490.35	9100.00
490.53	8985.32
490.70	8772.33
490.88	8767.65
491.06	9214.69
491.24	8982.98
491.41	9011.06
491.59	9195.96
491.77	9083.62
491.95	9207.67
492.13	9114.05
492.30	9521.30
492.48	9277.88
492.66	9495.55
492.84	9432.36
493.01	9514.28
493.19	9591.52
493.37	9584.49
493.54	9701.52
493.72	9561.09
493.90	9600.88
494.08	9696.84
494.25	10066.64
494.43	9792.80
494.61	9923.87
494.79	9923.87
494.96	10113.45
495.14	10024.51
495.32	10228.14
495.49	10132.18
495.67	10286.65
495.85	10471.56
496.02	10413.04
496.20	10506.66
496.38	10347.51
496.55	10600.29
496.73	10864.77
496.91	10616.67
497.09	10743.06
497.26	10628.37
497.44	10665.82
497.62	10860.09
497.79	10817.96
497.97	10799.23
498.14	11176.06
498.32	11206.48
498.50	11052.01
498.67	10920.94
498.85	10967.75
499.03	11122.23
499.20	11353.94
499.38	11454.58
499.56	11269.68
499.73	11351.60
499.91	11449.90
500.08	11396.07
500.26	11314.15
500.44	11520.12
500.61	11396.07
500.79	11461.60
500.97	11587.99
501.14	11733.11
501.32	11845.45
501.49	11449.90
501.67	11730.76
501.84	11995.25
502.02	11906.31
502.20	11955.46
502.37	11871.20
502.55	12145.04
502.72	11992.90
502.90	12257.39
503.07	11852.47
503.25	11981.20
503.43	11550.54
503.60	12203.55
503.78	12170.79
503.95	12039.72
504.13	12053.76
504.30	12161.42
504.48	12142.70
504.65	12152.06
504.83	12339.30
505.01	12327.60
505.18	12273.77
505.36	12477.40
505.53	12287.81
505.71	12493.78
505.88	12561.66
506.06	12381.43
506.23	12669.32
506.41	12634.21
506.58	12744.22
506.76	12666.98
506.93	12695.07
507.11	12645.91
507.28	12971.25
507.46	12957.21
507.63	12823.80
507.81	12896.35
507.98	12886.99
508.16	12669.32
508.33	13142.11
508.50	13048.49
508.68	13404.25
508.85	13088.28
509.03	13476.80
509.20	13170.19
509.38	13238.07
509.55	13614.90
509.73	13415.95
509.90	13369.14
510.08	13666.39
510.25	13404.25
510.42	13432.33
510.60	13516.59
510.77	13523.62
510.95	13596.17
511.12	13352.76
511.30	13556.38
511.47	13575.11
511.64	13771.71
511.82	13668.73
511.99	13441.70
512.17	13778.73
512.34	13837.25
512.51	13841.93
512.69	13893.42
512.86	14111.09
513.04	13958.96
513.21	14094.71
513.38	13973.00
513.56	14050.24
513.73	14204.71
513.90	14317.06
514.08	14307.69
514.25	14274.93
514.43	14242.16
514.60	14384.93
514.77	14326.42
514.95	14621.33
515.12	14171.94
515.29	14230.46
515.47	14654.09
515.64	14789.85
515.81	14651.75
515.99	14630.69
516.16	14663.46
516.33	14654.09
516.51	14846.02
516.68	14965.39
516.85	14927.94
517.03	14663.46
517.20	14836.66
517.37	14757.08
517.54	14600.26
517.72	14555.79
517.89	14761.76
518.06	14626.01
518.24	15016.88
518.41	15091.77
518.58	15222.84
518.75	14717.29
518.93	14766.44
519.10	15194.76
519.27	14977.09
519.45	15187.74
519.62	14965.39
519.79	15180.71
519.96	14981.77
520.14	15309.44
520.31	15047.30
520.48	15346.89
520.65	15276.68
520.83	15241.57
521.00	15367.96
521.17	15321.15
521.34	15625.42
521.52	15323.49
521.69	15733.08
521.86	15407.75
522.03	15810.32
522.20	15571.58
522.38	15843.09
522.55	15901.60
522.72	15812.66
522.89	15730.74
523.07	16051.39
523.24	15646.48
523.41	15981.18
523.58	15784.57
523.75	15971.82
523.92	15976.50
524.10	16231.62
524.27	16116.93
524.44	15969.48
524.61	16248.00
524.78	15932.03
524.96	16142.67
525.13	16145.02
525.30	16102.89
525.47	16196.51
525.64	16173.10
525.81	16201.19
525.98	16414.18
526.16	16250.34
526.33	16332.26
526.50	16451.63
526.67	16325.24
526.84	16407.16
527.01	16404.81
527.18	16238.64
527.36	16638.87
527.53	16428.22
527.70	16393.11
527.87	16678.66
528.04	16592.06
528.21	16437.58
528.38	16671.64
528.55	16765.26
528.72	16627.17
528.89	16599.08
529.07	16568.65
529.24	16259.70
529.41	16599.08
529.58	16629.51
529.75	16437.58
529.92	17057.82
530.09	16753.55
530.26	16493.76
530.43	16683.34
530.60	16556.95
530.77	16769.94
530.94	16931.44
531.11	16891.65
531.28	17088.25
531.46	16835.47
531.63	17205.28
531.80	16809.73
531.97	16842.50
532.14	17268.47
532.31	16807.39
532.48	17137.40
532.65	17003.99
532.82	17254.43
532.99	17132.72
533.16	17200.60
533.33	17612.53
533.50	17057.82
533.67	17390.18
533.84	17064.85
534.01	17465.08
534.18	17341.03
534.35	17570.40
534.52	17422.95
534.69	17455.72
534.86	17338.69
535.03	17371.46
535.20	17198.26
535.37	17254.43
535.54	17441.67
535.71	17549.34
535.88	17912.12
536.05	17724.88
536.22	17748.28
536.38	17607.85
536.55	17453.37
536.72	17743.60
536.89	18092.34
537.06	17666.36
537.23	17947.23
537.40	17596.15
537.57	17792.75
537.74	17771.69
537.91	17811.48
538.08	17879.35
538.25	17926.16
538.42	17769.35
538.59	17818.50
538.75	17956.59
538.92	18038.51
539.09	18155.54
539.26	17844.24
539.43	17996.38
539.60	18307.67
539.77	18080.64
539.94	18232.77
540.11	18363.84
540.28	18307.67
540.44	18375.55
540.61	18190.64
540.78	18272.56
540.95	18368.52
541.12	18508.96
541.29	18618.96
541.46	18972.38
541.62	18750.03
541.79	18995.79
541.96	18799.18
542.13	18843.65
542.30	18771.10
542.47	18787.48
542.63	18450.44
542.80	19110.47
542.97	19044.94
543.14	18920.89
543.31	18754.71
543.48	18930.25
543.64	19033.24
543.81	19157.28
543.98	19150.26
544.15	18904.51
544.32	18939.62
544.48	19264.95
544.65	19201.76
544.82	19101.11
544.99	19021.53
545.16	19089.41
545.32	19215.80
545.49	19716.67
545.66	20051.37
545.83	20182.44
546.00	19964.77
546.16	19922.64
546.33	19697.95
546.50	19522.41
546.67	19499.00
546.83	19138.56
547.00	19082.39
547.17	19314.10
547.34	19044.94
547.50	19005.15
547.67	19496.66
547.84	19484.96
548.00	19543.47
548.17	19126.86
548.34	19063.66
548.51	19255.59
548.67	19370.27
548.84	19297.72
549.01	19314.10
549.18	19396.02
549.34	19124.52
549.51	19262.61
549.68	19215.80
549.84	19367.93
550.01	18939.62
550.18	19463.90
550.34	19318.78
550.51	19372.61
550.68	19421.77
550.84	18970.04
551.01	19463.90
551.18	19094.09
551.34	19126.86
551.51	19204.10
551.68	19555.18
551.84	19374.95
552.01	19201.76
552.18	19449.85
552.34	19304.74
552.51	19417.08
552.68	19545.81
552.84	19428.79
553.01	19316.44
553.18	19351.55
553.34	19613.69
553.51	19487.30
553.67	19508.37
553.84	19503.68
554.01	19728.38
554.17	19428.79
554.34	19473.26
554.51	19206.44
554.67	19344.53
554.84	19763.48
555.00	19449.85
555.17	19508.37
555.33	19571.56
555.50	19442.83
555.67	19227.50
555.83	19655.82
556.00	19557.52
556.16	20006.90
556.33	19543.47
556.50	19843.06
556.66	19721.35
556.83	19758.80
556.99	19557.52
557.16	19955.41
557.32	19690.93
557.49	20002.22
557.65	19620.71
557.82	19620.71
557.98	19531.77
558.15	19875.83
558.32	19899.23
558.48	19723.69
558.65	20044.35
558.81	19651.14
558.98	19887.53
559.14	20046.69
559.31	20039.67
559.47	19988.18
559.64	19573.90
559.80	19515.39
559.97	19887.53
560.13	19960.09
560.30	20063.07
560.46	19800.93
560.63	19845.40
560.79	19894.55
560.96	20030.30
561.12	20107.54
561.29	19484.96
561.45	20126.27
561.61	20170.74
561.78	19747.10
561.94	19934.34
562.11	20023.28
562.27	19995.20
562.44	19711.99
562.60	20072.43
562.77	19941.36
562.93	20224.57
563.10	19735.40
563.26	19939.02
563.42	20208.19
563.59	19988.18
563.75	20034.99
563.92	20470.33
564.08	20292.44
564.24	19939.02
564.41	19901.58
564.57	20098.18
564.74	19775.19
564.90	20404.79
565.07	20381.38
565.23	20350.96
565.39	20264.36
565.56	20247.97
565.72	19988.18
565.88	20098.18
566.05	20280.74
566.21	19983.49
566.38	20053.71
566.54	20173.08
566.70	20046.69
566.87	20327.55
567.03	20304.15
567.19	20517.14
567.36	20341.60
567.52	20070.09
567.68	20177.76
567.85	20180.10
568.01	20149.67
568.17	19871.15
568.34	20114.56
568.50	20294.79
568.66	20322.87
568.83	20350.96
568.99	20112.22
569.15	20423.51
569.32	20168.40
569.48	19920.30
569.64	20079.46
569.81	20056.05
569.97	20156.69
570.13	20428.20
570.30	20051.37
570.46	20463.30
570.62	20240.95
570.78	20074.77
570.95	20269.04
571.11	20325.21
571.27	20070.09
571.43	20095.84
571.60	19976.47
571.76	20252.66
571.92	20294.79
572.09	20388.41
572.25	20245.63
572.41	20142.65
572.57	20554.58
572.74	20353.30
572.90	20128.61
573.06	20395.43
573.22	20203.50
573.38	20201.16
573.55	20093.50
573.71	20535.86
573.87	20273.72
574.03	20187.12
574.20	20311.17
574.36	20154.35
574.52	20411.81
574.68	20011.58
574.84	20023.28
575.01	20367.34
575.17	20250.32
575.33	20297.13
575.49	20463.30
575.65	20460.96
575.82	20510.11
575.98	20498.41
576.14	20231.59
576.30	20397.77
576.46	20245.63
576.62	20463.30
576.79	20348.62
576.95	20589.69
577.11	20306.49
577.27	20290.10
577.43	20407.13
577.59	20540.54
577.75	20622.46
577.92	20531.18
578.08	20238.61
578.24	20517.14
578.40	20276.06
578.56	20664.59
578.72	20812.04
578.88	20608.42
579.04	20655.23
579.21	20423.51
579.37	20601.40
579.53	20575.65
579.69	20580.33
579.85	20659.91
580.01	20821.41
580.17	20453.94
580.33	20517.14
580.49	20765.23
580.65	20421.17
580.82	20587.35
580.98	20212.87
581.14	20208.19
581.30	20776.94
581.46	20376.70
581.62	20203.50
581.78	20189.46
581.94	20594.37
582.10	20357.98
582.26	20201.16
582.42	20273.72
582.58	20409.47
582.74	20444.58
582.90	20535.86
583.06	20357.98
583.22	20414.15
583.38	20535.86
583.54	20215.21
583.70	20353.30
583.86	20482.03
584.02	20812.04
584.18	20805.02
584.34	20510.11
584.50	20695.02
584.66	20528.84
584.82	20278.40
584.98	20634.16
585.14	20486.71
585.30	20269.04
585.46	20393.09
585.62	20547.56
585.78	20830.77
585.94	20554.58
586.10	20423.51
586.26	20486.71
586.42	20554.58
586.58	20608.42
586.74	20807.36
586.90	20496.07
587.06	20580.33
587.22	20819.07
587.38	20800.34
587.54	20783.96
587.70	20587.35
587.86	20641.18
588.02	20533.52
588.18	20446.92
588.34	20432.88
588.49	20769.91
588.65	20208.19
588.81	20517.14
588.97	20559.27
589.13	20360.32
589.29	20547.56
589.45	20535.86
589.61	20858.85
589.77	20657.57
589.93	20575.65
590.08	20357.98
590.24	20872.90
590.40	20507.77
590.56	20266.70
590.72	20638.84
590.88	20521.82
591.04	20299.47
591.20	20662.25
591.35	20659.91
