SpectraSuite Data File
++++++++++++++++++++++++++++++++++++
Date: Thu Oct 24 13:21:23 EDT 2013
User: stostad
Dark Spectrum Present: No
Reference Spectrum Present: No
Number of Sampled Component Spectra: 1
Spectrometers: USB2+H05261
Integration Time (usec): 100000 (USB2+H05261)
Spectra Averaged: 1 (USB2+H05261)
Boxcar Smoothing: 0 (USB2+H05261)
Correct for Electrical Dark: No (USB2+H05261)
Strobe/Lamp Enabled: No (USB2+H05261)
Correct for Detector Non-linearity: No (USB2+H05261)
Correct for Stray Light: No (USB2+H05261)
Number of Pixels in Processed Spectrum: 2048
>>>>>Begin Processed Spectral Data<<<<<
365.73	594.50
365.92	594.50
366.12	594.50
366.32	566.41
366.52	411.93
366.72	458.74
366.91	444.70
367.11	503.22
367.31	456.40
367.51	423.64
367.70	425.98
367.90	486.83
368.10	475.13
368.30	486.83
368.49	493.85
368.69	458.74
368.89	425.98
369.09	456.40
369.28	533.64
369.48	510.24
369.68	526.62
369.87	561.73
370.07	500.87
370.27	547.69
370.47	657.69
370.66	950.26
370.86	898.77
371.06	971.32
371.25	950.26
371.45	976.00
371.65	1006.43
371.84	931.53
372.04	1006.43
372.24	954.94
372.44	990.05
372.63	950.26
372.83	1001.75
373.03	1048.56
373.22	1008.77
373.42	1046.22
373.62	985.37
373.81	1032.18
374.01	1097.71
374.21	1076.65
374.40	1090.69
374.60	1121.12
374.79	1128.14
374.99	1095.37
375.19	1055.58
375.38	1121.12
375.58	1107.07
375.78	1078.99
375.97	1088.35
376.17	1123.46
376.37	1179.63
376.56	1123.46
376.76	1114.10
376.95	1160.91
377.15	1170.27
377.35	1128.14
377.54	1240.48
377.74	1102.39
377.93	1156.22
378.13	1158.57
378.33	1240.48
378.52	1139.84
378.72	1196.01
378.91	1170.27
379.11	1200.69
379.31	1174.95
379.50	1193.67
379.70	1188.99
379.89	1313.04
380.09	1196.01
380.28	1235.80
380.48	1240.48
380.68	1160.91
380.87	1287.29
381.07	1259.21
381.26	1261.55
381.46	1289.64
381.65	1205.38
381.85	1263.89
382.04	1277.93
382.24	1313.04
382.43	1320.06
382.63	1296.66
382.83	1231.12
383.02	1387.94
383.22	1324.74
383.41	1341.13
383.61	1373.89
383.80	1387.94
384.00	1334.11
384.19	1394.96
384.39	1306.02
384.58	1310.70
384.78	1268.57
384.97	1359.85
385.17	1448.79
385.36	1378.58
385.56	1416.02
385.75	1383.26
385.95	1350.49
386.14	1409.00
386.34	1364.53
386.53	1430.07
386.72	1437.09
386.92	1476.88
387.11	1371.55
387.31	1460.49
387.50	1488.58
387.70	1432.41
387.89	1495.60
388.09	1521.35
388.28	1486.24
388.48	1521.35
388.67	1558.80
388.86	1502.62
389.06	1509.65
389.25	1586.88
389.45	1420.71
389.64	1425.39
389.84	1502.62
390.03	1558.80
390.22	1530.71
390.42	1612.63
390.61	1713.27
390.81	1547.09
391.00	1558.80
391.19	1589.22
391.39	1607.95
391.58	1668.80
391.78	1657.10
391.97	1692.21
392.16	1610.29
392.36	1624.33
392.55	1820.94
392.75	1636.03
392.94	1701.57
393.13	1692.21
393.33	1626.67
393.52	1694.55
393.71	1722.63
393.91	1736.68
394.10	1739.02
394.29	1797.53
394.49	1682.85
394.68	1804.55
394.88	1842.00
395.07	1804.55
395.26	1851.36
395.46	1870.09
395.65	1788.17
395.84	1769.44
396.04	1916.90
396.23	1923.92
396.42	1898.17
396.62	1919.24
396.81	1933.28
397.00	1966.05
397.19	1914.56
397.39	1933.28
397.58	1870.09
397.77	1797.53
397.97	2012.86
398.16	2059.67
398.35	2066.69
398.55	1984.77
398.74	2101.80
398.93	2155.63
399.12	2104.14
399.32	2026.90
399.51	2001.16
399.70	2090.10
399.90	2097.12
400.09	2108.82
400.28	2160.31
400.47	2167.34
400.67	2228.19
400.86	2300.75
401.05	2174.36
401.24	2267.98
401.44	2190.74
401.63	2193.08
401.82	2270.32
402.01	2141.59
402.21	2260.96
402.40	2289.04
402.59	2249.25
402.78	2204.78
402.97	2363.94
403.17	2410.75
403.36	2324.15
403.55	2347.56
403.74	2487.99
403.93	2459.90
404.13	2485.65
404.32	2450.54
404.51	2597.99
404.70	2476.29
404.89	2424.80
405.09	2445.86
405.28	2520.76
405.47	2417.77
405.66	2473.95
405.85	2457.56
406.05	2605.02
406.24	2574.59
406.43	2555.86
406.62	2703.32
406.81	2684.59
407.00	2621.40
407.20	2616.72
407.39	2822.69
407.58	2684.59
407.77	2869.50
407.96	2813.32
408.15	2813.32
408.34	2703.32
408.54	2717.36
408.73	2778.22
408.92	2892.90
409.11	2874.18
409.30	2850.77
409.49	2998.23
409.68	3047.38
409.87	2946.73
410.07	2949.08
410.26	3030.99
410.45	2986.52
410.64	2935.03
410.83	3068.44
411.02	3096.53
411.21	3178.45
411.40	3009.93
411.59	3218.24
411.78	3131.64
411.98	3012.27
412.17	3157.38
412.36	3255.69
412.55	3251.00
412.74	3276.75
412.93	3372.71
413.12	3215.90
413.31	3492.08
413.50	3510.80
413.69	3496.76
413.88	3466.33
414.07	3471.01
414.26	3424.20
414.45	3644.21
414.64	3623.15
414.83	3688.68
415.02	3698.05
415.22	3667.62
415.41	3709.75
415.60	3658.26
415.79	3859.54
415.98	3822.09
416.17	3749.54
416.36	3819.75
416.55	3758.90
416.74	3999.98
416.93	3847.84
417.12	3899.33
417.31	3950.82
417.50	3955.51
417.69	4121.68
417.88	4002.32
418.07	4063.17
418.26	4114.66
418.45	4149.77
418.64	4224.67
418.83	4278.50
419.02	4208.28
419.21	4292.54
419.39	4362.76
419.58	4212.96
419.77	4215.30
419.96	4376.80
420.15	4367.44
420.34	4290.20
420.53	4255.09
420.72	4442.34
420.91	4351.06
421.10	4552.34
421.29	4554.68
421.48	4540.64
421.67	4388.50
421.86	4505.53
422.05	4561.70
422.24	4648.30
422.43	4437.66
422.61	4702.14
422.80	4767.67
422.99	4676.39
423.18	4636.60
423.37	4657.67
423.56	4599.15
423.75	4685.75
423.94	4559.36
424.13	4311.27
424.32	4561.70
424.50	4645.96
424.69	4770.01
424.88	4821.50
425.07	4669.37
425.26	4596.81
425.45	4599.15
425.64	4617.88
425.83	4613.20
426.01	4566.39
426.20	4634.26
426.39	4638.94
426.58	4648.30
426.77	4826.18
426.96	4851.93
427.15	4770.01
427.33	4870.65
427.52	4767.67
427.71	4882.36
427.90	4880.02
428.09	4957.25
428.28	4936.19
428.46	4912.78
428.65	4917.47
428.84	5053.22
429.03	5151.52
429.22	4910.44
429.40	4952.57
429.59	4978.32
429.78	5062.58
429.97	4947.89
430.16	5097.69
430.34	5146.84
430.53	5170.24
430.72	5212.37
430.91	5235.78
431.10	5188.97
431.28	5317.70
431.47	5291.95
431.66	5366.85
431.85	5404.30
432.03	5563.45
432.22	5664.10
432.41	5444.09
432.60	5186.63
432.79	5469.83
432.97	5521.32
433.16	5551.75
433.35	5486.22
433.54	5589.20
433.72	5811.55
433.91	5507.28
434.10	5699.20
434.28	5542.39
434.47	5783.46
434.66	5680.48
434.85	6008.16
435.03	5797.51
435.22	6010.50
435.41	6366.26
435.59	5975.39
435.78	6122.84
435.97	6029.22
436.16	5937.94
436.34	5959.00
436.53	6029.22
436.72	6223.48
436.90	5940.28
437.09	6118.16
437.28	5937.94
437.46	6036.24
437.65	6047.94
437.84	6094.76
438.02	6071.35
438.21	6253.91
438.40	6293.70
438.58	6413.07
438.77	6324.13
438.96	6328.81
439.14	6661.16
439.33	6534.78
439.52	6637.76
439.70	6487.96
439.89	6654.14
440.08	6712.66
440.26	6801.60
440.45	6700.95
440.63	6864.79
440.82	6909.26
441.01	6768.83
441.19	7040.33
441.38	7117.57
441.57	7082.46
441.75	7014.59
441.94	7162.04
442.12	7403.11
442.31	7368.01
442.50	7293.11
442.68	7222.89
442.87	7358.64
443.05	7470.99
443.24	7449.93
443.43	7410.14
443.61	7503.76
443.80	7620.78
443.98	7211.19
444.17	7037.99
444.35	7370.35
444.54	7674.62
444.73	7468.65
444.91	7452.27
445.10	7627.81
445.28	7265.02
445.47	7639.51
445.65	7639.51
445.84	7482.69
446.02	7723.77
446.21	7538.87
446.39	7627.81
446.58	7791.64
446.77	7686.32
446.95	7543.55
447.14	7641.85
447.32	7721.43
447.51	7714.41
447.69	7662.91
447.88	7590.36
448.06	7695.68
448.25	7768.24
448.43	7660.57
448.62	7754.19
448.80	7700.36
448.99	7754.19
449.17	7728.45
449.36	7768.24
449.54	8114.64
449.73	8105.28
449.91	8088.89
450.10	8140.38
450.28	8306.56
450.46	8081.87
450.65	8100.59
450.83	8219.96
451.02	8081.87
451.20	8290.18
451.39	8177.83
451.57	8311.24
451.76	8234.00
451.94	8276.13
452.13	8334.65
452.31	8269.11
452.49	8348.69
452.68	8446.99
452.86	8498.49
453.05	8472.74
453.23	8723.18
453.42	8638.92
453.60	8435.29
453.78	8491.46
453.97	8557.00
454.15	8573.38
454.34	8627.21
454.52	8716.16
454.70	8613.17
454.89	8879.99
455.07	8545.30
455.26	8699.77
455.44	8917.44
455.62	8833.18
455.81	8769.99
455.99	8999.36
456.17	8968.93
456.36	9263.84
456.54	9102.34
456.73	9167.88
456.91	9390.23
457.09	9198.31
457.28	9427.68
457.46	9184.26
457.64	9502.58
457.83	9390.23
458.01	9317.67
458.19	9378.53
458.38	9502.58
458.56	9565.77
458.74	9612.58
458.93	9462.79
459.11	9699.18
459.29	9696.84
459.48	9687.48
459.66	9542.36
459.84	9888.76
460.03	9645.35
460.21	9797.48
460.39	9650.03
460.57	9902.81
460.76	9792.80
460.94	9937.91
461.12	10106.43
461.31	10040.90
461.49	10099.41
461.67	10010.47
461.85	10230.48
462.04	10200.05
462.22	10450.49
462.40	10164.95
462.59	10284.31
462.77	10263.25
462.95	10356.87
463.13	10342.83
463.32	10347.51
463.50	10338.15
463.68	10626.03
463.86	10497.30
464.05	10244.52
464.23	10459.85
464.41	10483.26
464.59	10509.01
464.78	10672.84
464.96	10689.23
465.14	10644.76
465.32	10750.08
465.50	10878.81
465.69	10892.85
465.87	10789.87
466.05	10796.89
466.23	10757.10
466.41	11021.58
466.60	11166.70
466.78	10909.24
466.96	10729.02
467.14	10904.56
467.32	10949.03
467.51	11183.08
467.69	10979.45
467.87	11019.24
468.05	11028.60
468.23	11014.56
468.41	11124.57
468.60	11133.93
468.78	11438.20
468.96	11157.33
469.14	11463.94
469.32	11403.09
469.50	11023.92
469.69	11576.29
469.87	11735.45
470.05	11726.08
470.23	11442.88
470.41	11653.53
470.59	11744.81
470.77	11571.61
470.95	11721.40
471.14	12238.66
471.32	11728.42
471.50	11988.22
471.68	12098.23
471.86	11903.96
472.04	12025.67
472.22	12322.92
472.40	12231.64
472.58	12180.15
472.77	12306.54
472.95	12510.16
473.13	12842.52
473.31	12313.56
473.49	12437.61
473.67	12381.43
473.85	12489.10
474.03	12968.91
474.21	12908.05
474.39	12767.62
474.57	12973.59
474.75	13228.71
474.93	13191.26
475.12	12959.55
475.30	13170.19
475.48	13540.00
475.66	13200.62
475.84	13383.18
476.02	13495.53
476.20	13603.19
476.38	14099.39
476.56	13853.63
476.74	14005.77
476.92	14001.08
477.10	13905.12
477.28	14242.16
477.46	14141.52
477.64	14333.44
477.82	14429.40
478.00	15089.43
478.18	14712.61
478.36	14642.39
478.54	14867.08
478.72	15154.97
478.90	15166.67
479.08	15424.13
479.26	15428.81
479.44	15269.66
479.62	15597.33
479.80	15878.19
479.98	15929.69
480.16	16248.00
480.34	15889.90
480.52	16217.57
480.70	16362.69
480.88	16149.70
481.06	16308.85
481.24	16594.40
481.41	16666.95
481.59	16854.20
481.77	16786.32
481.95	17039.10
482.13	17488.48
482.31	17179.53
482.49	17813.82
482.67	17783.39
482.85	17869.99
483.03	17898.08
483.21	18326.39
483.39	18305.33
483.57	18195.32
483.74	18319.37
483.92	18560.45
484.10	18485.55
484.28	18787.48
484.46	19271.97
484.64	19349.21
484.82	19225.16
485.00	19346.87
485.18	19854.76
485.35	20102.86
485.53	20046.69
485.71	20458.62
485.89	20362.66
486.07	20388.41
486.25	20652.89
486.43	20514.80
486.61	20638.84
486.78	20716.08
486.96	21010.99
487.14	21373.77
487.32	21593.78
487.50	21781.03
487.68	21692.08
487.85	22209.34
488.03	22476.16
488.21	22670.43
488.39	22520.63
488.57	22651.70
488.75	22574.47
488.92	23197.05
489.10	23271.95
489.28	23358.55
489.46	23454.51
489.64	23377.27
489.81	24163.69
489.99	24044.32
490.17	23882.83
490.35	24407.11
490.53	24512.43
490.70	24718.40
490.88	24397.74
491.06	25364.39
491.24	25422.90
491.41	25125.65
491.59	25570.35
491.77	25404.17
491.95	25898.03
492.13	26026.76
492.30	26258.47
492.48	25853.56
492.66	26136.76
492.84	26527.63
493.01	26838.92
493.19	27051.91
493.37	26941.91
493.54	26831.90
493.72	27269.58
493.90	27197.02
494.08	27468.53
494.25	27838.33
494.43	28184.73
494.61	27913.23
494.79	27850.03
494.96	28203.46
495.14	28552.20
495.32	28313.46
495.49	28662.20
495.67	28971.15
495.85	28694.97
496.02	29174.78
496.20	28964.13
496.38	29331.59
496.55	29528.20
496.73	30370.79
496.91	29844.17
497.09	30103.97
497.26	30410.58
497.44	29919.07
497.62	30309.94
497.79	30810.81
497.97	30567.40
498.14	31578.51
498.32	31438.08
498.50	31674.47
498.67	31828.95
498.85	31173.60
499.03	32055.98
499.20	31695.53
499.38	32194.07
499.56	32170.66
499.73	32367.27
499.91	32559.19
500.08	32552.17
500.26	32678.56
500.44	32601.32
500.61	32751.12
500.79	32978.15
500.97	33027.30
501.14	32931.34
501.32	33064.75
501.49	33589.03
501.67	33404.13
501.84	33816.06
502.02	33572.64
502.20	33968.19
502.37	34066.50
502.55	33586.69
502.72	34059.48
502.90	34099.26
503.07	34169.48
503.25	34471.41
503.43	34558.01
503.60	34930.16
503.78	34574.39
503.95	34663.33
504.13	34735.89
504.30	35192.30
504.48	35108.04
504.65	35608.91
504.83	35826.58
505.01	35990.42
505.18	35849.99
505.36	36268.94
505.53	35880.41
505.71	35913.18
505.88	35873.39
506.06	36376.61
506.23	36201.07
506.41	36301.71
506.58	36416.40
506.76	36538.10
506.93	36678.54
507.11	36715.98
507.28	36978.12
507.46	37092.81
507.63	37106.85
507.81	37027.28
507.98	37081.11
508.16	37223.88
508.33	37418.14
508.50	37614.75
508.68	38391.81
508.85	37748.16
509.03	37563.26
509.20	38171.80
509.38	38366.06
509.55	38403.51
509.73	38401.17
509.90	38651.61
510.08	38506.49
510.25	38522.88
510.42	39016.73
510.60	38780.34
510.77	39089.29
510.95	39498.88
511.12	39653.36
511.30	39477.82
511.47	40006.78
511.64	39522.29
511.82	39674.42
511.99	39665.06
512.17	39917.84
512.34	40325.09
512.51	40580.21
512.69	40460.84
512.86	40289.98
513.04	40891.50
513.21	40402.33
513.38	40074.65
513.56	40526.38
513.73	40666.81
513.90	40910.22
514.08	40926.61
514.25	41163.00
514.43	41750.48
514.60	41586.64
514.77	41170.02
514.95	41198.11
515.12	41275.35
515.29	41502.38
515.47	41855.80
515.64	42162.41
515.81	42536.90
515.99	41890.91
516.16	42284.12
516.33	42157.73
516.51	42440.93
516.68	42663.28
516.85	42614.13
517.03	42562.64
517.20	42698.39
517.37	42529.87
517.54	42855.21
517.72	43227.35
517.89	42808.40
518.06	43292.89
518.24	43459.07
518.41	43524.60
518.58	43409.92
518.75	43180.54
518.93	43540.99
519.10	43304.59
519.27	43608.86
519.45	43796.10
519.62	44020.80
519.79	43847.60
519.96	43885.04
520.14	43938.88
520.31	44444.43
520.48	44554.44
520.65	44009.09
520.83	44706.57
521.00	44788.49
521.17	44355.49
521.34	44559.12
521.52	44645.72
521.69	44629.34
521.86	45338.52
522.03	44945.31
522.20	45186.38
522.38	45654.49
522.55	45289.37
522.72	45074.04
522.89	45301.07
523.07	45844.07
523.24	45425.12
523.41	45972.80
523.58	45525.76
523.75	45638.11
523.92	45860.46
524.10	46401.12
524.27	46223.24
524.44	46574.32
524.61	45947.06
524.78	46546.23
524.96	46122.60
525.13	46511.13
525.30	46864.55
525.47	46761.56
525.64	46808.37
525.81	47276.48
525.98	46937.10
526.16	46761.56
526.33	46878.59
526.50	47447.34
526.67	46848.16
526.84	47707.14
527.01	47405.21
527.18	47150.09
527.36	47405.21
527.53	47028.38
527.70	47917.79
527.87	48037.16
528.04	47505.85
528.21	48090.99
528.38	48032.47
528.55	48200.99
528.72	47805.44
528.89	47784.38
529.07	47716.50
529.24	47683.73
529.41	48301.64
529.58	48261.85
529.75	48245.46
529.92	48882.09
530.09	48376.53
530.26	48224.40
530.43	48409.30
530.60	48172.91
530.77	48781.45
530.94	49132.53
531.11	49132.53
531.28	49074.01
531.46	49125.50
531.63	48842.30
531.80	48975.71
531.97	48811.87
532.14	49146.57
532.31	49008.48
532.48	49523.40
532.65	49511.69
532.82	49504.67
532.99	49675.53
533.16	49682.55
533.33	49385.30
533.50	50000.86
533.67	49654.47
533.84	49305.73
534.01	49743.41
534.18	49785.54
534.35	50340.24
534.52	49872.14
534.69	49923.63
534.86	50000.86
535.03	49865.11
535.20	50174.06
535.37	50424.50
535.54	50284.07
535.71	50145.98
535.88	50412.80
536.05	50351.94
536.22	50365.99
536.38	50590.68
536.55	50703.03
536.72	50475.99
536.89	50424.50
537.06	50679.62
537.23	51323.27
537.40	51121.98
537.57	50911.33
537.74	50866.86
537.91	51114.96
538.08	50773.24
538.25	50820.05
538.42	50780.26
538.59	51578.39
538.75	51086.87
538.92	51295.18
539.09	51304.54
539.26	51391.14
539.43	51136.02
539.60	51444.98
539.77	51098.58
539.94	51625.20
540.11	51852.23
540.28	51901.38
540.44	51690.73
540.61	51903.72
540.78	51835.84
540.95	51826.48
541.12	51931.81
541.29	52119.05
541.46	52357.78
541.62	52222.03
541.79	52083.94
541.96	52191.61
542.13	52182.24
542.30	52250.12
542.47	52023.09
542.63	52500.56
542.80	52161.18
542.97	52961.64
543.14	52884.40
543.31	52715.89
543.48	52650.35
543.64	53167.61
543.81	52903.13
543.98	52931.22
544.15	52748.65
544.32	53219.10
544.48	53556.14
544.65	53104.41
544.82	53249.53
544.99	53015.47
545.16	53202.72
545.32	53027.18
545.49	53268.25
545.66	53745.72
545.83	53939.99
546.00	53986.80
546.16	53986.80
546.33	53256.55
546.50	53237.83
546.67	53579.54
546.83	53045.90
547.00	53467.20
547.17	52758.02
547.34	53352.51
547.50	53518.69
547.67	53675.51
547.84	53989.14
548.00	54087.44
548.17	53970.41
548.34	53804.24
548.51	53694.23
548.67	53766.79
548.84	53647.42
549.01	53724.66
549.18	54150.63
549.34	53844.02
549.51	54152.97
549.68	54167.02
549.84	53918.92
550.01	53965.73
550.18	53914.24
550.34	53727.00
550.51	53825.30
550.68	53869.77
550.84	54103.82
551.01	54335.54
551.18	53968.07
551.34	54148.29
551.51	54162.34
551.68	54368.30
551.84	54176.38
552.01	53773.81
552.18	54199.79
552.34	54267.66
552.51	54684.28
552.68	54466.61
552.84	54590.66
553.01	54719.38
553.18	54651.51
553.34	54478.31
553.51	54410.43
553.67	54679.60
553.84	54782.58
554.01	54794.28
554.17	54958.12
554.34	54838.75
554.51	54876.20
554.67	54784.92
554.84	54752.15
555.00	54604.70
555.17	54525.12
555.33	54518.10
555.50	54923.01
555.67	54705.34
555.83	55007.27
556.00	55227.28
556.16	55384.10
556.33	55278.77
556.50	54930.03
556.66	55033.02
556.83	54831.73
556.99	55236.64
557.16	55192.17
557.32	55330.26
557.49	55112.59
557.65	55058.76
557.82	55196.85
557.98	55173.45
558.15	55098.55
558.32	55128.98
558.48	55332.60
558.65	55320.90
558.81	55388.78
558.98	55679.00
559.14	55531.55
559.31	55529.21
559.47	55302.18
559.64	55547.93
559.80	55426.23
559.97	55573.68
560.13	55388.78
560.30	55447.29
560.46	55608.79
560.63	55576.02
560.79	55688.37
560.96	55646.24
561.12	55636.87
561.29	55393.46
561.45	55512.83
561.61	55941.14
561.78	55634.53
561.94	55608.79
562.11	55969.23
562.27	55781.99
562.44	55917.74
562.60	55744.54
562.77	55812.41
562.93	55707.09
563.10	55903.70
563.26	55753.90
563.42	55948.17
563.59	56016.04
563.75	56041.79
563.92	55868.59
564.08	55927.10
564.24	55735.18
564.41	55999.66
564.57	55866.25
564.74	55938.80
564.90	55936.46
565.07	56200.94
565.23	56030.08
565.39	55950.51
565.56	56390.53
565.72	56163.50
565.88	56184.56
566.05	56093.28
566.21	55899.01
566.38	55695.39
566.54	55973.91
566.70	56193.92
566.87	56467.76
567.03	55929.44
567.19	56676.07
567.36	56261.80
567.52	56074.55
567.68	56214.99
567.85	56133.07
568.01	56161.15
568.17	56261.80
568.34	56399.89
568.50	56397.55
568.66	56156.47
568.83	56287.54
568.99	56320.31
569.15	56245.41
569.32	56203.28
569.48	56350.74
569.64	56123.71
569.81	56280.52
569.97	56231.37
570.13	56271.16
570.30	56182.22
570.46	56442.02
570.62	56470.11
570.78	56580.11
570.95	56364.78
571.11	56774.37
571.27	56271.16
571.43	56240.73
571.60	56168.18
571.76	56376.48
571.92	56502.87
572.09	56486.49
572.25	56580.11
572.41	56711.18
572.57	56626.92
572.74	56631.60
572.90	56371.80
573.06	56530.96
573.22	56303.93
573.38	56423.29
573.55	56416.27
573.71	56652.67
573.87	56545.00
574.03	56362.44
574.20	56320.31
574.36	56659.69
574.52	56556.70
574.68	56254.78
574.84	56594.15
575.01	56851.61
575.17	56788.42
575.33	56507.55
575.49	56704.16
575.65	56898.42
575.82	56914.81
575.98	56872.68
576.14	56816.50
576.30	56893.74
576.46	56765.01
576.62	56713.52
576.79	56774.37
576.95	56526.28
577.11	56596.49
577.27	56713.52
577.43	56722.88
577.59	56622.24
577.75	56769.69
577.92	56327.33
578.08	56390.53
578.24	56617.56
578.40	56631.60
578.56	56830.55
578.72	56886.72
578.88	57015.45
579.04	56858.63
579.21	56783.74
579.37	56949.92
579.53	56919.49
579.69	56727.56
579.85	56882.04
580.01	56863.32
580.17	56720.54
580.33	56842.25
580.49	56973.32
580.65	57017.79
580.82	56842.25
580.98	56821.19
581.14	57029.49
581.30	56882.04
581.46	56736.93
581.62	56743.95
581.78	56828.21
581.94	56914.81
582.10	56830.55
582.26	56858.63
582.42	56879.70
582.58	56793.10
582.74	56762.67
582.90	56903.10
583.06	57148.86
583.22	56795.44
583.38	56755.65
583.54	56849.27
583.70	56837.57
583.86	56970.98
584.02	56982.68
584.18	57254.18
584.34	56884.38
584.50	57078.64
584.66	56734.59
584.82	56842.25
584.98	57139.50
585.14	57315.04
585.30	56767.35
585.46	57073.96
585.62	56856.29
585.78	57317.38
585.94	56893.74
586.10	57141.84
586.26	56999.07
586.42	57155.88
586.58	57062.26
586.74	56982.68
586.90	56989.70
587.06	56970.98
587.22	57181.63
587.38	57090.35
587.54	57291.63
587.70	57244.82
587.86	57064.60
588.02	57298.65
588.18	57228.44
588.34	57265.89
