SpectraSuite Data File
++++++++++++++++++++++++++++++++++++
Date: Thu Oct 24 13:20:58 EDT 2013
User: stostad
Dark Spectrum Present: No
Reference Spectrum Present: No
Number of Sampled Component Spectra: 1
Spectrometers: USB2+H05261
Integration Time (usec): 100000 (USB2+H05261)
Spectra Averaged: 1 (USB2+H05261)
Boxcar Smoothing: 0 (USB2+H05261)
Correct for Electrical Dark: No (USB2+H05261)
Strobe/Lamp Enabled: No (USB2+H05261)
Correct for Detector Non-linearity: No (USB2+H05261)
Correct for Stray Light: No (USB2+H05261)
Number of Pixels in Processed Spectrum: 2048
>>>>>Begin Processed Spectral Data<<<<<
365.73	510.24
365.92	510.24
366.12	510.24
366.32	482.15
366.52	411.93
366.72	463.43
366.91	465.77
367.11	489.17
367.31	486.83
367.51	414.27
367.70	409.59
367.90	458.74
368.10	435.34
368.30	416.62
368.49	390.87
368.69	397.89
368.89	517.26
369.09	475.13
369.28	507.90
369.48	425.98
369.68	514.92
369.87	505.56
370.07	545.34
370.27	547.69
370.47	568.75
370.66	540.66
370.86	615.56
371.06	561.73
371.25	550.03
371.45	587.47
371.65	629.60
371.84	580.45
372.04	573.43
372.24	589.82
372.44	543.00
372.63	636.63
372.83	664.71
373.03	599.18
373.22	660.03
373.42	624.92
373.62	603.86
373.81	674.07
374.01	636.63
374.21	704.50
374.40	580.45
374.60	655.35
374.79	580.45
374.99	660.03
375.19	594.50
375.38	660.03
375.58	578.11
375.78	660.03
375.97	683.44
376.17	613.22
376.37	711.52
376.56	690.46
376.76	627.26
376.95	617.90
377.15	613.22
377.35	620.24
377.54	573.43
377.74	627.26
377.93	716.20
378.13	624.92
378.33	657.69
378.52	669.39
378.72	552.37
378.91	585.13
379.11	554.71
379.31	608.54
379.50	601.52
379.70	683.44
379.89	606.20
380.09	617.90
380.28	578.11
380.48	615.56
380.68	571.09
380.87	608.54
381.07	608.54
381.26	667.05
381.46	622.58
381.65	683.44
381.85	692.80
382.04	599.18
382.24	603.86
382.43	613.22
382.63	664.71
382.83	589.82
383.02	587.47
383.22	683.44
383.41	641.31
383.61	641.31
383.80	648.33
384.00	585.13
384.19	535.98
384.39	622.58
384.58	608.54
384.78	592.16
384.97	610.88
385.17	599.18
385.36	589.82
385.56	615.56
385.75	620.24
385.95	606.20
386.14	699.82
386.34	533.64
386.53	610.88
386.72	606.20
386.92	653.01
387.11	669.39
387.31	725.57
387.50	660.03
387.70	571.09
387.89	685.78
388.09	627.26
388.28	648.33
388.48	631.94
388.67	620.24
388.86	667.05
389.06	587.47
389.25	594.50
389.45	608.54
389.64	669.39
389.84	573.43
390.03	676.41
390.22	568.75
390.42	615.56
390.61	580.45
390.81	622.58
391.00	645.99
391.19	629.60
391.39	568.75
391.58	561.73
391.78	641.31
391.97	617.90
392.16	638.97
392.36	643.65
392.55	648.33
392.75	655.35
392.94	517.26
393.13	660.03
393.33	683.44
393.52	655.35
393.71	692.80
393.91	596.84
394.10	629.60
394.29	648.33
394.49	603.86
394.68	631.94
394.88	615.56
395.07	624.92
395.26	636.63
395.46	552.37
395.65	596.84
395.84	676.41
396.04	638.97
396.23	662.37
396.42	592.16
396.62	627.26
396.81	657.69
397.00	676.41
397.19	589.82
397.39	613.22
397.58	608.54
397.77	587.47
397.97	669.39
398.16	610.88
398.35	596.84
398.55	596.84
398.74	566.41
398.93	631.94
399.12	613.22
399.32	645.99
399.51	667.05
399.70	660.03
399.90	578.11
400.09	578.11
400.28	664.71
400.47	636.63
400.67	582.79
400.86	653.01
401.05	636.63
401.24	636.63
401.44	606.20
401.63	620.24
401.82	648.33
402.01	594.50
402.21	678.76
402.40	589.82
402.59	533.64
402.78	596.84
402.97	557.05
403.17	688.12
403.36	631.94
403.55	592.16
403.74	674.07
403.93	685.78
404.13	645.99
404.32	727.91
404.51	617.90
404.70	713.86
404.89	613.22
405.09	671.73
405.28	582.79
405.47	606.20
405.66	582.79
405.85	636.63
406.05	648.33
406.24	589.82
406.43	631.94
406.62	624.92
406.81	699.82
407.00	678.76
407.20	664.71
407.39	594.50
407.58	697.48
407.77	634.29
407.96	622.58
408.15	739.61
408.34	648.33
408.54	596.84
408.73	617.90
408.92	716.20
409.11	685.78
409.30	653.01
409.49	718.54
409.68	603.86
409.87	641.31
410.07	657.69
410.26	585.13
410.45	634.29
410.64	606.20
410.83	620.24
411.02	610.88
411.21	624.92
411.40	613.22
411.59	676.41
411.78	657.69
411.98	706.84
412.17	610.88
412.36	662.37
412.55	662.37
412.74	648.33
412.93	683.44
413.12	561.73
413.31	730.25
413.50	580.45
413.69	575.77
413.88	650.67
414.07	634.29
414.26	594.50
414.45	702.16
414.64	674.07
414.83	683.44
415.02	580.45
415.22	610.88
415.41	645.99
415.60	653.01
415.79	631.94
415.98	627.26
416.17	592.16
416.36	699.82
416.55	688.12
416.74	580.45
416.93	620.24
417.12	601.52
417.31	627.26
417.50	615.56
417.69	638.97
417.88	688.12
418.07	566.41
418.26	543.00
418.45	638.97
418.64	645.99
418.83	585.13
419.02	603.86
419.21	578.11
419.39	688.12
419.58	592.16
419.77	641.31
419.96	667.05
420.15	713.86
420.34	641.31
420.53	662.37
420.72	692.80
420.91	627.26
421.10	610.88
421.29	641.31
421.48	535.98
421.67	685.78
421.86	610.88
422.05	704.50
422.24	657.69
422.43	615.56
422.61	678.76
422.80	608.54
422.99	664.71
423.18	653.01
423.37	634.29
423.56	671.73
423.75	678.76
423.94	561.73
424.13	596.84
424.32	676.41
424.50	585.13
424.69	610.88
424.88	723.23
425.07	603.86
425.26	568.75
425.45	596.84
425.64	650.67
425.83	671.73
426.01	671.73
426.20	645.99
426.39	606.20
426.58	617.90
426.77	674.07
426.96	645.99
427.15	678.76
427.33	617.90
427.52	664.71
427.71	608.54
427.90	601.52
428.09	655.35
428.28	617.90
428.46	657.69
428.65	678.76
428.84	615.56
429.03	613.22
429.22	648.33
429.40	596.84
429.59	547.69
429.78	631.94
429.97	552.37
430.16	660.03
430.34	599.18
430.53	634.29
430.72	613.22
430.91	594.50
431.10	587.47
431.28	643.65
431.47	617.90
431.66	662.37
431.85	606.20
432.03	685.78
432.22	723.23
432.41	725.57
432.60	622.58
432.79	613.22
432.97	636.63
433.16	662.37
433.35	634.29
433.54	676.41
433.72	617.90
433.91	636.63
434.10	620.24
434.28	683.44
434.47	660.03
434.66	725.57
434.85	688.12
435.03	765.36
435.22	980.68
435.41	1130.48
435.59	1086.01
435.78	1011.11
435.97	877.70
436.16	814.51
436.34	683.44
436.53	664.71
436.72	678.76
436.90	667.05
437.09	585.13
437.28	655.35
437.46	690.46
437.65	660.03
437.84	664.71
438.02	629.60
438.21	657.69
438.40	678.76
438.58	627.26
438.77	610.88
438.96	631.94
439.14	648.33
439.33	631.94
439.52	681.10
439.70	634.29
439.89	678.76
440.08	744.29
440.26	697.48
440.45	596.84
440.63	634.29
440.82	711.52
441.01	641.31
441.19	582.79
441.38	622.58
441.57	622.58
441.75	601.52
441.94	671.73
442.12	681.10
442.31	685.78
442.50	594.50
442.68	638.97
442.87	669.39
443.05	653.01
443.24	676.41
443.43	709.18
443.61	624.92
443.80	634.29
443.98	704.50
444.17	627.26
444.35	662.37
444.54	657.69
444.73	594.50
444.91	678.76
445.10	596.84
445.28	585.13
445.47	685.78
445.65	624.92
445.84	653.01
446.02	648.33
446.21	667.05
446.39	613.22
446.58	566.41
446.77	634.29
446.95	592.16
447.14	681.10
447.32	685.78
447.51	716.20
447.69	697.48
447.88	674.07
448.06	706.84
448.25	592.16
448.43	627.26
448.62	627.26
448.80	711.52
448.99	645.99
449.17	601.52
449.36	678.76
449.54	617.90
449.73	629.60
449.91	758.33
450.10	655.35
450.28	655.35
450.46	650.67
450.65	683.44
450.83	685.78
451.02	589.82
451.20	636.63
451.39	725.57
451.57	615.56
451.76	624.92
451.94	678.76
452.13	674.07
452.31	615.56
452.49	662.37
452.68	622.58
452.86	627.26
453.05	650.67
453.23	622.58
453.42	589.82
453.60	641.31
453.78	690.46
453.97	667.05
454.15	589.82
454.34	681.10
454.52	657.69
454.70	636.63
454.89	664.71
455.07	559.39
455.26	589.82
455.44	629.60
455.62	587.47
455.81	643.65
455.99	638.97
456.17	681.10
456.36	683.44
456.54	631.94
456.73	676.41
456.91	610.88
457.09	615.56
457.28	671.73
457.46	641.31
457.64	599.18
457.83	571.09
458.01	631.94
458.19	685.78
458.38	643.65
458.56	631.94
458.74	610.88
458.93	709.18
459.11	617.90
459.29	629.60
459.48	678.76
459.66	643.65
459.84	631.94
460.03	657.69
460.21	634.29
460.39	688.12
460.57	660.03
460.76	636.63
460.94	653.01
461.12	704.50
461.31	615.56
461.49	599.18
461.67	669.39
461.85	592.16
462.04	674.07
462.22	971.32
462.40	578.11
462.59	699.82
462.77	678.76
462.95	613.22
463.13	631.94
463.32	671.73
463.50	641.31
463.68	653.01
463.86	631.94
464.05	645.99
464.23	653.01
464.41	599.18
464.59	629.60
464.78	676.41
464.96	622.58
465.14	638.97
465.32	613.22
465.50	613.22
465.69	688.12
465.87	554.71
466.05	571.09
466.23	620.24
466.41	641.31
466.60	671.73
466.78	582.79
466.96	702.16
467.14	634.29
467.32	596.84
467.51	620.24
467.69	688.12
467.87	685.78
468.05	704.50
468.23	669.39
468.41	667.05
468.60	681.10
468.78	650.67
468.96	678.76
469.14	627.26
469.32	699.82
469.50	655.35
469.69	655.35
469.87	610.88
470.05	674.07
470.23	599.18
470.41	592.16
470.59	615.56
470.77	653.01
470.95	636.63
471.14	690.46
471.32	725.57
471.50	676.41
471.68	615.56
471.86	667.05
472.04	627.26
472.22	645.99
472.40	622.58
472.58	617.90
472.77	606.20
472.95	636.63
473.13	702.16
473.31	681.10
473.49	561.73
473.67	669.39
473.85	660.03
474.03	681.10
474.21	683.44
474.39	613.22
474.57	648.33
474.75	648.33
474.93	608.54
475.12	664.71
475.30	631.94
475.48	613.22
475.66	688.12
475.84	624.92
476.02	641.31
476.20	697.48
476.38	648.33
476.56	669.39
476.74	660.03
476.92	638.97
477.10	662.37
477.28	692.80
477.46	683.44
477.64	664.71
477.82	664.71
478.00	641.31
478.18	627.26
478.36	704.50
478.54	603.86
478.72	669.39
478.90	653.01
479.08	671.73
479.26	622.58
479.44	543.00
479.62	578.11
479.80	744.29
479.98	599.18
480.16	655.35
480.34	601.52
480.52	627.26
480.70	615.56
480.88	587.47
481.06	681.10
481.24	697.48
481.41	685.78
481.59	685.78
481.77	650.67
481.95	596.84
482.13	617.90
482.31	610.88
482.49	674.07
482.67	655.35
482.85	692.80
483.03	606.20
483.21	676.41
483.39	732.59
483.57	606.20
483.74	692.80
483.92	695.14
484.10	692.80
484.28	695.14
484.46	730.25
484.64	685.78
484.82	688.12
485.00	688.12
485.18	678.76
485.35	660.03
485.53	760.67
485.71	793.44
485.89	657.69
486.07	760.67
486.25	786.42
486.43	720.88
486.61	770.04
486.78	732.59
486.96	662.37
487.14	767.70
487.32	699.82
487.50	760.67
487.68	737.27
487.85	739.61
488.03	744.29
488.21	784.08
488.39	732.59
488.57	674.07
488.75	634.29
488.92	746.63
489.10	763.01
489.28	770.04
489.46	732.59
489.64	697.48
489.81	697.48
489.99	765.36
490.17	650.67
490.35	725.57
490.53	692.80
490.70	699.82
490.88	772.38
491.06	692.80
491.24	744.29
491.41	716.20
491.59	711.52
491.77	699.82
491.95	702.16
492.13	739.61
492.30	645.99
492.48	704.50
492.66	751.31
492.84	650.67
493.01	688.12
493.19	748.97
493.37	748.97
493.54	716.20
493.72	655.35
493.90	674.07
494.08	671.73
494.25	819.19
494.43	699.82
494.61	645.99
494.79	636.63
494.96	720.88
495.14	739.61
495.32	718.54
495.49	704.50
495.67	664.71
495.85	695.14
496.02	660.03
496.20	699.82
496.38	650.67
496.55	627.26
496.73	645.99
496.91	624.92
497.09	704.50
497.26	730.25
497.44	688.12
497.62	662.37
497.79	702.16
497.97	713.86
498.14	697.48
498.32	739.61
498.50	669.39
498.67	688.12
498.85	622.58
499.03	720.88
499.20	723.23
499.38	596.84
499.56	643.65
499.73	727.91
499.91	704.50
500.08	664.71
500.26	648.33
500.44	671.73
500.61	706.84
500.79	678.76
500.97	622.58
501.14	627.26
501.32	678.76
501.49	667.05
501.67	617.90
501.84	725.57
502.02	709.18
502.20	660.03
502.37	678.76
502.55	713.86
502.72	692.80
502.90	681.10
503.07	695.14
503.25	610.88
503.43	681.10
503.60	688.12
503.78	631.94
503.95	716.20
504.13	657.69
504.30	695.14
504.48	751.31
504.65	690.46
504.83	692.80
505.01	655.35
505.18	653.01
505.36	664.71
505.53	667.05
505.71	671.73
505.88	650.67
506.06	688.12
506.23	674.07
506.41	653.01
506.58	634.29
506.76	704.50
506.93	620.24
507.11	617.90
507.28	657.69
507.46	622.58
507.63	634.29
507.81	704.50
507.98	608.54
508.16	624.92
508.33	634.29
508.50	709.18
508.68	645.99
508.85	699.82
509.03	636.63
509.20	653.01
509.38	660.03
509.55	678.76
509.73	671.73
509.90	681.10
510.08	711.52
510.25	622.58
510.42	620.24
510.60	676.41
510.77	629.60
510.95	737.27
511.12	636.63
511.30	716.20
511.47	690.46
511.64	718.54
511.82	655.35
511.99	676.41
512.17	650.67
512.34	571.09
512.51	660.03
512.69	603.86
512.86	690.46
513.04	674.07
513.21	653.01
513.38	610.88
513.56	627.26
513.73	615.56
513.90	575.77
514.08	559.39
514.25	643.65
514.43	685.78
514.60	648.33
514.77	641.31
514.95	615.56
515.12	594.50
515.29	655.35
515.47	627.26
515.64	585.13
515.81	631.94
515.99	692.80
516.16	702.16
516.33	681.10
516.51	653.01
516.68	603.86
516.85	669.39
517.03	664.71
517.20	660.03
517.37	636.63
517.54	631.94
517.72	648.33
517.89	645.99
518.06	631.94
518.24	650.67
518.41	690.46
518.58	695.14
518.75	678.76
518.93	599.18
519.10	638.97
519.27	606.20
519.45	603.86
519.62	655.35
519.79	643.65
519.96	657.69
520.14	631.94
520.31	662.37
520.48	638.97
520.65	603.86
520.83	681.10
521.00	645.99
521.17	690.46
521.34	695.14
521.52	671.73
521.69	655.35
521.86	645.99
522.03	615.56
522.20	692.80
522.38	706.84
522.55	697.48
522.72	617.90
522.89	674.07
523.07	587.47
523.24	660.03
523.41	669.39
523.58	622.58
523.75	594.50
523.92	648.33
524.10	624.92
524.27	636.63
524.44	641.31
524.61	685.78
524.78	613.22
524.96	622.58
525.13	648.33
525.30	690.46
525.47	688.12
525.64	685.78
525.81	674.07
525.98	629.60
526.16	674.07
526.33	622.58
526.50	685.78
526.67	674.07
526.84	641.31
527.01	571.09
527.18	655.35
527.36	716.20
527.53	671.73
527.70	676.41
527.87	653.01
528.04	697.48
528.21	627.26
528.38	648.33
528.55	615.56
528.72	648.33
528.89	669.39
529.07	650.67
529.24	575.77
529.41	634.29
529.58	587.47
529.75	645.99
529.92	638.97
530.09	643.65
530.26	596.84
530.43	697.48
530.60	683.44
530.77	669.39
530.94	702.16
531.11	657.69
531.28	676.41
531.46	688.12
531.63	650.67
531.80	638.97
531.97	645.99
532.14	634.29
532.31	676.41
532.48	650.67
532.65	631.94
532.82	645.99
532.99	695.14
533.16	725.57
533.33	734.93
533.50	685.78
533.67	730.25
533.84	648.33
534.01	657.69
534.18	653.01
534.35	681.10
534.52	734.93
534.69	704.50
534.86	636.63
535.03	676.41
535.20	601.52
535.37	688.12
535.54	671.73
535.71	594.50
535.88	610.88
536.05	678.76
536.22	624.92
536.38	648.33
536.55	669.39
536.72	681.10
536.89	711.52
537.06	641.31
537.23	650.67
537.40	723.23
537.57	727.91
537.74	753.65
537.91	683.44
538.08	753.65
538.25	751.31
538.42	737.27
538.59	809.83
538.75	856.64
538.92	753.65
539.09	777.06
539.26	748.97
539.43	849.61
539.60	894.08
539.77	889.40
539.94	877.70
540.11	835.57
540.28	952.60
540.44	971.32
540.61	961.96
540.78	1025.15
540.95	1093.03
541.12	1235.80
541.29	1221.76
541.46	1310.70
541.62	1273.25
541.79	1303.68
541.96	1331.76
542.13	1238.14
542.30	1188.99
542.47	1277.93
542.63	1188.99
542.80	1231.12
542.97	1212.40
543.14	1165.59
543.31	1238.14
543.48	1256.87
543.64	1207.72
543.81	1203.04
543.98	1233.46
544.15	1205.38
544.32	1214.74
544.48	1275.59
544.65	1184.31
544.82	1142.18
544.99	1142.18
545.16	1224.10
545.32	1268.57
545.49	1542.41
545.66	1954.35
545.83	2172.02
546.00	1909.88
546.16	1727.32
546.33	1448.79
546.50	1409.00
546.67	1275.59
546.83	1118.78
547.00	997.07
547.17	957.28
547.34	924.51
547.50	882.38
547.67	924.51
547.84	947.92
548.00	940.90
548.17	994.73
548.34	908.13
548.51	1001.75
548.67	922.17
548.84	964.30
549.01	866.00
549.18	901.11
549.34	880.04
549.51	880.04
549.68	861.32
549.84	814.51
550.01	858.98
550.18	800.46
550.34	798.12
550.51	767.70
550.68	781.74
550.84	739.61
551.01	807.48
551.18	758.33
551.34	760.67
551.51	807.48
551.68	748.97
551.84	800.46
552.01	718.54
552.18	802.80
552.34	763.01
552.51	755.99
552.68	809.83
552.84	678.76
553.01	772.38
553.18	814.51
553.34	671.73
553.51	706.84
553.67	744.29
553.84	718.54
554.01	772.38
554.17	709.18
554.34	669.39
554.51	697.48
554.67	629.60
554.84	737.27
555.00	657.69
555.17	720.88
555.33	720.88
555.50	706.84
555.67	744.29
555.83	655.35
556.00	711.52
556.16	697.48
556.33	697.48
556.50	671.73
556.66	674.07
556.83	669.39
556.99	662.37
557.16	727.91
557.32	638.97
557.49	608.54
557.65	608.54
557.82	664.71
557.98	692.80
558.15	653.01
558.32	732.59
558.48	711.52
558.65	688.12
558.81	622.58
558.98	620.24
559.14	643.65
559.31	718.54
559.47	732.59
559.64	634.29
559.80	599.18
559.97	624.92
560.13	634.29
560.30	697.48
560.46	706.84
560.63	681.10
560.79	690.46
560.96	685.78
561.12	643.65
561.29	709.18
561.45	681.10
561.61	662.37
561.78	723.23
561.94	662.37
562.11	627.26
562.27	690.46
562.44	615.56
562.60	645.99
562.77	702.16
562.93	683.44
563.10	695.14
563.26	610.88
563.42	671.73
563.59	716.20
563.75	678.76
563.92	645.99
564.08	704.50
564.24	653.01
564.41	767.70
564.57	634.29
564.74	671.73
564.90	568.75
565.07	667.05
565.23	688.12
565.39	653.01
565.56	610.88
565.72	634.29
565.88	627.26
566.05	690.46
566.21	653.01
566.38	718.54
566.54	601.52
566.70	657.69
566.87	681.10
567.03	660.03
567.19	681.10
567.36	706.84
567.52	681.10
567.68	697.48
567.85	648.33
568.01	725.57
568.17	683.44
568.34	636.63
568.50	620.24
568.66	702.16
568.83	603.86
568.99	645.99
569.15	676.41
569.32	671.73
569.48	653.01
569.64	690.46
569.81	671.73
569.97	683.44
570.13	653.01
570.30	657.69
570.46	681.10
570.62	627.26
570.78	638.97
570.95	667.05
571.11	702.16
571.27	695.14
571.43	648.33
571.60	655.35
571.76	624.92
571.92	655.35
572.09	657.69
572.25	648.33
572.41	683.44
572.57	655.35
572.74	655.35
572.90	657.69
573.06	643.65
573.22	662.37
573.38	695.14
573.55	634.29
573.71	655.35
573.87	692.80
574.03	620.24
574.20	653.01
574.36	723.23
574.52	592.16
574.68	660.03
574.84	641.31
575.01	634.29
575.17	725.57
575.33	592.16
575.49	653.01
575.65	695.14
575.82	671.73
575.98	671.73
576.14	669.39
576.30	690.46
576.46	812.17
576.62	840.25
576.79	887.06
576.95	971.32
577.11	844.93
577.27	753.65
577.43	748.97
577.59	732.59
577.75	779.40
577.92	720.88
578.08	669.39
578.24	655.35
578.40	720.88
578.56	851.96
578.72	905.79
578.88	884.72
579.04	861.32
579.21	798.12
579.37	816.85
579.53	791.10
579.69	849.61
579.85	737.27
580.01	819.19
580.17	734.93
580.33	784.08
580.49	741.95
580.65	755.99
580.82	791.10
580.98	791.10
581.14	704.50
581.30	746.63
581.46	795.78
581.62	727.91
581.78	767.70
581.94	821.53
582.10	706.84
582.26	732.59
582.42	791.10
582.58	807.48
582.74	734.93
582.90	814.51
583.06	861.32
583.22	830.89
583.38	814.51
583.54	868.34
583.70	842.59
583.86	802.80
584.02	770.04
584.18	823.87
584.34	816.85
584.50	744.29
584.66	791.10
584.82	723.23
584.98	837.91
585.14	748.97
585.30	748.97
585.46	748.97
585.62	805.14
585.78	835.57
585.94	856.64
586.10	739.61
586.26	833.23
586.42	763.01
586.58	849.61
586.74	847.27
586.90	828.55
587.06	950.26
587.22	896.43
587.38	828.55
587.54	763.01
587.70	884.72
587.86	800.46
588.02	844.93
588.18	823.87
588.34	727.91
588.49	716.20
588.65	739.61
588.81	667.05
588.97	730.25
589.13	727.91
589.29	777.06
589.45	788.76
589.61	697.48
589.77	774.72
589.93	725.57
590.08	723.23
590.24	711.52
590.40	709.18
590.56	798.12
590.72	720.88
590.88	730.25
591.04	725.57
591.20	795.78
591.35	718.54
591.51	788.76
591.67	791.10
591.83	784.08
591.99	760.67
592.15	807.48
592.31	805.14
592.46	718.54
592.62	844.93
592.78	870.68
592.94	814.51
593.10	751.31
593.26	774.72
593.41	795.78
593.57	889.40
593.73	807.48
593.89	793.44
594.05	725.57
594.20	758.33
594.36	695.14
594.52	706.84
594.68	695.14
594.84	676.41
594.99	713.86
595.15	760.67
595.31	594.50
595.47	741.95
595.62	713.86
595.78	683.44
595.94	739.61
596.10	723.23
596.25	753.65
596.41	725.57
596.57	744.29
596.73	709.18
596.88	697.48
597.04	706.84
597.20	739.61
597.36	723.23
597.51	671.73
597.67	674.07
597.83	697.48
597.99	781.74
598.14	653.01
598.30	709.18
598.46	685.78
598.61	788.76
598.77	802.80
598.93	699.82
599.09	765.36
599.24	725.57
599.40	767.70
599.56	709.18
599.71	821.53
599.87	697.48
600.03	674.07
600.18	699.82
600.34	702.16
600.50	706.84
600.65	645.99
600.81	713.86
600.97	697.48
601.12	678.76
601.28	669.39
601.44	671.73
601.59	653.01
601.75	643.65
601.91	727.91
602.06	777.06
602.22	711.52
602.37	678.76
602.53	676.41
602.69	751.31
602.84	695.14
603.00	671.73
603.16	685.78
603.31	660.03
603.47	727.91
603.62	772.38
603.78	669.39
603.94	678.76
604.09	671.73
604.25	683.44
604.40	725.57
604.56	674.07
604.71	718.54
604.87	765.36
605.03	725.57
605.18	688.12
605.34	744.29
605.49	697.48
605.65	681.10
605.80	716.20
605.96	744.29
606.12	711.52
606.27	711.52
606.43	685.78
606.58	751.31
606.74	699.82
606.89	690.46
607.05	781.74
607.20	643.65
607.36	681.10
607.51	751.31
607.67	746.63
607.82	713.86
607.98	800.46
608.13	730.25
608.29	786.42
608.44	692.80
608.60	730.25
608.75	779.40
608.91	917.49
609.06	809.83
609.22	873.02
609.37	809.83
609.53	842.59
609.68	856.64
609.84	891.74
