SpectraSuite Data File
++++++++++++++++++++++++++++++++++++
Date: Thu Oct 24 13:21:45 EDT 2013
User: stostad
Dark Spectrum Present: No
Reference Spectrum Present: No
Number of Sampled Component Spectra: 1
Spectrometers: USB2+H05261
Integration Time (usec): 100000 (USB2+H05261)
Spectra Averaged: 1 (USB2+H05261)
Boxcar Smoothing: 0 (USB2+H05261)
Correct for Electrical Dark: No (USB2+H05261)
Strobe/Lamp Enabled: No (USB2+H05261)
Correct for Detector Non-linearity: No (USB2+H05261)
Correct for Stray Light: No (USB2+H05261)
Number of Pixels in Processed Spectrum: 2048
>>>>>Begin Processed Spectral Data<<<<<
365.73	662.37
365.92	662.37
366.12	662.37
366.32	599.18
366.52	589.82
366.72	608.54
366.91	582.79
367.11	575.77
367.31	550.03
367.51	486.83
367.70	603.86
367.90	543.00
368.10	526.62
368.30	557.05
368.49	599.18
368.69	564.07
368.89	564.07
369.09	582.79
369.28	557.05
369.48	624.92
369.68	617.90
369.87	653.01
370.07	608.54
370.27	660.03
370.47	1025.15
370.66	1783.49
370.86	1942.64
371.06	2047.97
371.25	1888.81
371.45	1961.37
371.65	2073.71
371.84	2010.52
372.04	2085.42
372.24	2038.61
372.44	2069.03
372.63	2153.29
372.83	2139.25
373.03	2157.97
373.22	2267.98
373.42	2221.17
373.62	2279.68
373.81	2246.91
374.01	2291.38
374.21	2377.98
374.40	2406.07
374.60	2399.05
374.79	2377.98
374.99	2422.45
375.19	2377.98
375.38	2413.09
375.58	2436.50
375.78	2448.20
375.97	2480.97
376.17	2473.95
376.37	2462.24
376.56	2614.38
376.76	2544.16
376.95	2534.80
377.15	2485.65
377.35	2593.31
377.54	2565.23
377.74	2586.29
377.93	2675.23
378.13	2560.55
378.33	2754.81
378.52	2693.96
378.72	2670.55
378.91	2822.69
379.11	2761.83
379.31	2717.36
379.50	2780.56
379.70	2869.50
379.89	2839.07
380.09	2822.69
380.28	2796.94
380.48	2909.29
380.68	2876.52
380.87	2949.08
381.07	2998.23
381.26	2995.89
381.46	3038.02
381.65	2972.48
381.85	3105.89
382.04	3080.14
382.24	2986.52
382.43	3035.67
382.63	3215.90
382.83	3096.53
383.02	3159.72
383.22	3309.52
383.41	3227.60
383.61	3262.71
383.80	3361.01
384.00	3293.13
384.19	3255.69
384.39	3368.03
384.58	3370.37
384.78	3400.80
384.97	3496.76
385.17	3346.97
385.36	3407.82
385.56	3353.99
385.75	3375.05
385.95	3468.67
386.14	3426.54
386.34	3417.18
386.53	3576.34
386.72	3665.28
386.92	3693.37
387.11	3676.98
387.31	3669.96
387.50	3632.51
387.70	3871.25
387.89	3672.30
388.09	3735.50
388.28	3737.84
388.48	3707.41
388.67	3873.59
388.86	3901.67
389.06	3969.55
389.25	3946.14
389.45	4056.15
389.64	3957.85
389.84	4212.96
390.03	4147.43
390.22	4070.19
390.42	4053.81
390.61	4119.34
390.81	4271.48
391.00	4152.11
391.19	4135.73
391.39	4259.78
391.58	4315.95
391.78	4278.50
391.97	4311.27
392.16	4528.94
392.36	4507.87
392.55	4594.47
392.75	4505.53
392.94	4498.51
393.13	4437.66
393.33	4596.81
393.52	4655.33
393.71	4697.46
393.91	4741.93
394.10	4613.20
394.29	4676.39
394.49	4671.71
394.68	4744.27
394.88	4894.06
395.07	4917.47
395.26	4826.18
395.46	5071.94
395.65	5085.98
395.84	5078.96
396.04	5039.17
396.23	5137.48
396.42	5144.50
396.62	5266.21
396.81	5224.08
397.00	5123.43
397.19	5238.12
397.39	5256.84
397.58	5252.16
397.77	5275.57
397.97	5277.91
398.16	5394.93
398.35	5437.06
398.55	5479.19
398.74	5385.57
398.93	5781.12
399.12	5659.42
399.32	5423.02
399.51	5755.38
399.70	5746.02
399.90	5905.17
400.09	5928.58
400.28	5989.43
400.47	6019.86
400.67	6036.24
400.86	6141.57
401.05	6047.94
401.24	5858.36
401.44	6190.72
401.63	6328.81
401.82	6251.57
402.01	6223.48
402.21	6207.10
402.40	6267.95
402.59	6239.87
402.78	6413.07
402.97	6382.64
403.17	6427.11
403.36	6408.39
403.55	6647.12
403.74	6796.92
403.93	6775.85
404.13	6733.72
404.32	6759.47
404.51	6857.77
404.70	6691.59
404.89	6719.68
405.09	7045.01
405.28	7176.08
405.47	6920.96
405.66	7108.21
405.85	7087.14
406.05	6930.33
406.24	7389.07
406.43	7353.96
406.62	7309.49
406.81	7351.62
407.00	7293.11
407.20	7307.15
407.39	7243.96
407.58	7606.74
407.77	7595.04
407.96	7772.92
408.15	7613.76
408.34	7660.57
408.54	7985.91
408.73	7761.22
408.92	7857.18
409.11	7908.67
409.30	8095.91
409.49	8276.13
409.68	8238.69
409.87	8112.30
410.07	8329.97
410.26	8470.40
410.45	8140.38
410.64	8299.54
410.83	8650.62
411.02	8709.13
411.21	8709.13
411.40	8538.27
411.59	8814.46
411.78	8865.95
411.98	8669.34
412.17	8840.20
412.36	8982.98
412.55	9114.05
412.74	9383.21
412.93	9114.05
413.12	9184.26
413.31	9682.80
413.50	9633.64
413.69	9537.68
413.88	9717.90
414.07	9444.06
414.26	9818.55
414.45	9958.98
414.64	9987.07
414.83	10073.67
415.02	9998.77
415.22	10139.20
415.41	10324.10
415.60	10420.06
415.79	10509.01
415.98	10637.73
416.17	10523.05
416.36	10459.85
416.55	10649.44
416.74	10850.72
416.93	10721.99
417.12	11037.97
417.31	10960.73
417.50	11246.27
417.69	11494.37
417.88	11496.71
418.07	11342.24
418.26	11595.01
418.45	11569.27
418.64	11808.00
418.83	11946.09
419.02	11864.18
419.21	11854.81
419.39	11910.99
419.58	11999.93
419.77	11962.48
419.96	12231.64
420.15	12320.58
420.34	12147.38
420.53	12264.41
420.72	12484.42
420.91	12465.69
421.10	12769.96
421.29	12580.38
421.48	12533.57
421.67	12737.20
421.86	12769.96
422.05	12786.35
422.24	12744.22
422.43	13029.76
422.61	12917.42
422.80	13214.66
422.99	12996.99
423.18	13123.38
423.37	13284.88
423.56	13025.08
423.75	13064.87
423.94	12809.75
424.13	12374.41
424.32	12765.28
424.50	13181.90
424.69	13327.01
424.88	13207.64
425.07	12987.63
425.26	13076.57
425.45	13217.01
425.64	13149.13
425.83	13078.91
426.01	13518.93
426.20	13469.78
426.39	13659.37
426.58	13432.33
426.77	13294.24
426.96	13483.83
427.15	13535.32
427.33	13748.31
427.52	13586.81
427.71	13818.52
427.90	14045.55
428.09	14026.83
428.28	14267.91
428.46	14235.14
428.65	14157.90
428.84	14661.12
429.03	14427.06
429.22	14066.62
429.40	14398.98
429.59	14595.58
429.78	14061.94
429.97	13888.74
430.16	14806.23
430.34	15051.99
430.53	14991.13
430.72	14829.63
430.91	15035.60
431.10	15070.71
431.28	15332.85
431.47	14888.15
431.66	15606.69
431.85	15351.57
432.03	15712.02
432.22	15999.90
432.41	15983.52
432.60	15707.34
432.79	15922.66
432.97	15807.98
433.16	15915.64
433.35	15707.34
433.54	16016.29
433.72	16177.78
433.91	16137.99
434.10	16182.46
434.28	16128.63
434.47	16589.72
434.66	16613.12
434.85	16781.64
435.03	16865.90
435.22	16999.31
435.41	17263.79
435.59	17390.18
435.78	17348.05
435.97	17207.62
436.16	17216.98
436.34	17221.66
436.53	17116.34
436.72	17408.90
436.90	17263.79
437.09	17699.13
437.28	17144.42
437.46	17748.28
437.65	17905.10
437.84	18342.78
438.02	18099.36
438.21	17813.82
438.40	17954.25
438.58	18377.89
438.77	18838.97
438.96	18347.46
439.14	19129.20
439.33	19248.57
439.52	19260.27
439.70	19440.49
439.89	19613.69
440.08	19697.95
440.26	19719.01
440.45	19506.02
440.63	20053.71
440.82	20430.54
441.01	19800.93
441.19	20510.11
441.38	20648.21
441.57	20751.19
441.75	21097.59
441.94	21261.43
442.12	21427.60
442.31	21525.91
442.50	21612.51
442.68	21441.65
442.87	21376.11
443.05	21926.14
443.24	21881.67
443.43	21972.95
443.61	22190.62
443.80	22759.37
443.98	21703.79
444.17	21350.37
444.35	22050.19
444.54	22321.69
444.73	22169.55
444.91	22382.54
445.10	22300.62
445.28	22572.13
445.47	22183.60
445.65	22546.38
445.84	22621.28
446.02	22750.01
446.21	22654.05
446.39	22661.07
446.58	22698.52
446.77	22747.67
446.95	22228.07
447.14	22979.38
447.32	23178.33
447.51	22948.95
447.69	22785.12
447.88	23304.71
448.06	23028.53
448.25	23126.83
448.43	23363.23
448.62	23721.33
448.80	22991.08
448.99	23225.14
449.17	23878.15
449.36	23648.77
449.54	23756.44
449.73	24325.19
449.91	24379.02
450.10	24257.31
450.28	24652.86
450.46	24732.44
450.65	24243.27
450.83	24720.74
451.02	24517.11
451.20	25074.16
451.39	24608.39
451.57	25184.16
451.76	24739.46
451.94	24680.95
452.13	25097.56
452.31	25111.61
452.49	25008.62
452.68	25802.07
452.86	25151.40
453.05	25654.61
453.23	25738.87
453.42	25413.54
453.60	25759.94
453.78	25837.17
453.97	25436.94
454.15	25914.41
454.34	25916.75
454.52	26525.29
454.70	26501.89
454.89	26506.57
455.07	26499.55
455.26	26637.64
455.44	26951.27
455.62	26778.07
455.81	27431.08
455.99	27489.59
456.17	27190.00
456.36	27206.39
456.54	27611.30
456.73	27988.13
456.91	28678.58
457.09	28219.84
457.28	28889.23
457.46	28428.15
457.64	28435.17
457.83	28718.37
458.01	28367.29
458.19	29303.51
458.38	29083.50
458.56	29214.57
458.74	29432.24
458.93	29713.10
459.11	29280.10
459.29	29605.44
459.48	29773.95
459.66	29453.30
459.84	29717.78
460.03	30218.66
460.21	30085.25
460.39	29788.00
460.57	30202.27
460.76	30607.19
460.94	30387.18
461.12	30916.14
461.31	30490.16
461.49	30513.56
461.67	30696.13
461.85	31000.40
462.04	31037.84
462.22	31669.79
462.40	31850.01
462.59	30948.90
462.77	31786.82
462.95	31805.54
463.13	31721.28
463.32	32098.11
463.50	32084.06
463.68	32402.38
463.86	32631.75
464.05	31985.76
464.23	31917.89
464.41	32430.46
464.59	32023.21
464.78	33406.47
464.96	33127.94
465.14	32320.46
465.32	32804.95
465.50	33113.90
465.69	33687.33
465.87	33434.55
466.05	33172.41
466.23	33614.77
466.41	33888.62
466.60	34125.01
466.78	33516.47
466.96	33322.21
467.14	33706.05
467.32	33858.19
467.51	34478.43
467.69	33390.08
467.87	34148.42
468.05	34581.42
468.23	34235.02
468.41	34115.65
468.60	34895.05
468.78	34899.73
468.96	34810.79
469.14	35086.97
469.32	35424.01
469.50	34483.11
469.69	35693.17
469.87	35824.24
470.05	35936.59
470.23	36128.51
470.41	36664.49
470.59	36720.66
470.77	36364.90
470.95	36388.31
471.14	37415.80
471.32	36062.97
471.50	37373.67
471.68	37460.27
471.86	37514.11
472.04	37495.38
472.22	38796.72
472.40	38185.84
472.58	38218.61
472.77	38679.69
472.95	38565.01
473.13	39786.77
473.31	38457.34
473.49	39133.76
473.67	38567.35
473.85	39016.73
474.03	40236.15
474.21	40299.34
474.39	40547.44
474.57	40505.31
474.75	41045.97
474.93	41319.82
475.12	40973.42
475.30	41521.10
475.48	41607.70
475.66	42101.56
475.84	41811.33
476.02	42075.81
476.20	42146.03
476.38	43241.40
476.56	44081.65
476.74	44060.58
476.92	43529.28
477.10	43562.05
477.28	44292.30
477.46	44547.42
477.64	44259.53
477.82	45083.40
478.00	46373.03
478.18	45937.69
478.36	46344.95
478.54	46866.89
478.72	47021.36
478.90	47447.34
479.08	47426.28
479.26	48116.73
479.44	48327.38
479.62	48449.09
479.80	48800.17
479.98	49099.76
480.16	50059.38
480.34	49247.21
480.52	50014.91
480.70	50141.30
480.88	50045.33
481.06	50113.21
481.24	50436.20
481.41	51136.02
481.59	51334.97
481.77	52095.64
481.95	52074.58
482.13	52317.99
482.31	52037.13
482.49	53050.58
482.67	52992.07
482.85	53324.43
483.03	53654.44
483.21	54089.78
483.39	54333.20
483.57	54143.61
483.74	54288.73
483.92	54738.11
484.10	54735.77
484.28	55192.17
484.46	55746.88
484.64	56411.59
484.82	55728.16
485.00	56168.18
485.18	56580.11
485.35	56973.32
485.53	56851.61
485.71	57263.55
485.89	57631.01
486.07	57570.16
486.25	57347.81
486.43	57745.70
486.61	57904.85
486.78	58459.56
486.96	58560.20
487.14	58986.18
487.32	58808.30
487.50	59245.98
487.68	59491.74
487.85	59676.64
488.03	59992.61
488.21	60404.55
488.39	60116.66
488.57	60231.35
488.75	60285.18
488.92	60666.69
489.10	61006.06
489.28	61116.07
489.46	61565.45
489.64	61427.36
489.81	61834.61
489.99	61776.10
490.17	62068.67
490.35	62450.17
490.53	62293.36
490.70	62789.55
490.88	62431.45
491.06	62827.00
491.24	62955.73
491.41	63025.95
491.59	63402.77
491.77	63440.22
491.95	63693.00
492.13	63882.58
492.30	63987.91
492.48	64027.70
492.66	64074.51
492.84	64196.21
493.01	64568.36
493.19	64446.65
493.37	64577.72
493.54	64596.45
493.72	65080.94
493.90	64982.63
494.08	65300.95
494.25	65429.68
494.43	65401.59
494.61	65535.00
494.79	65535.00
494.96	65535.00
495.14	65535.00
495.32	65535.00
495.49	65535.00
495.67	65535.00
495.85	65535.00
496.02	65535.00
496.20	65535.00
496.38	65535.00
496.55	65535.00
496.73	65535.00
496.91	65535.00
497.09	65535.00
497.26	65535.00
497.44	65535.00
497.62	65535.00
497.79	65535.00
497.97	65535.00
498.14	65535.00
498.32	65535.00
498.50	65535.00
498.67	65535.00
498.85	65535.00
499.03	65535.00
499.20	65535.00
499.38	65535.00
499.56	65535.00
499.73	65535.00
499.91	65535.00
500.08	65535.00
500.26	65535.00
500.44	65535.00
500.61	65535.00
500.79	65535.00
500.97	65535.00
501.14	65535.00
501.32	65535.00
501.49	65535.00
501.67	65535.00
501.84	65535.00
502.02	65535.00
502.20	65535.00
502.37	65535.00
502.55	65535.00
502.72	65535.00
502.90	65535.00
503.07	65535.00
503.25	65535.00
503.43	65535.00
503.60	65535.00
503.78	65535.00
503.95	65535.00
504.13	65535.00
504.30	65535.00
504.48	65535.00
504.65	65535.00
504.83	65535.00
505.01	65535.00
505.18	65535.00
505.36	65535.00
505.53	65535.00
505.71	65535.00
505.88	65535.00
506.06	65535.00
506.23	65535.00
506.41	65535.00
506.58	65535.00
506.76	65535.00
506.93	65535.00
507.11	65535.00
507.28	65535.00
507.46	65535.00
507.63	65535.00
507.81	65535.00
507.98	65535.00
508.16	65535.00
508.33	65535.00
508.50	65535.00
508.68	65535.00
508.85	65535.00
509.03	65535.00
509.20	65535.00
509.38	65535.00
509.55	65535.00
509.73	65535.00
509.90	65535.00
510.08	65535.00
510.25	65535.00
510.42	65535.00
510.60	65535.00
510.77	65535.00
510.95	65535.00
511.12	65535.00
511.30	65535.00
511.47	65535.00
511.64	65535.00
511.82	65535.00
511.99	65535.00
512.17	65535.00
512.34	65535.00
512.51	65535.00
512.69	65535.00
512.86	65535.00
513.04	65535.00
513.21	65535.00
513.38	65535.00
513.56	65535.00
513.73	65535.00
513.90	65535.00
514.08	65535.00
514.25	65535.00
514.43	65535.00
514.60	65535.00
514.77	65535.00
514.95	65535.00
515.12	65535.00
515.29	65535.00
515.47	65535.00
515.64	65535.00
515.81	65535.00
515.99	65535.00
516.16	65535.00
516.33	65535.00
516.51	65535.00
516.68	65535.00
516.85	65535.00
517.03	65535.00
517.20	65535.00
517.37	65535.00
517.54	65535.00
517.72	65535.00
517.89	65535.00
518.06	65535.00
518.24	65535.00
518.41	65535.00
518.58	65535.00
518.75	65535.00
518.93	65535.00
519.10	65535.00
519.27	65535.00
519.45	65535.00
519.62	65535.00
519.79	65535.00
519.96	65535.00
520.14	65535.00
520.31	65535.00
520.48	65535.00
520.65	65535.00
520.83	65535.00
521.00	65535.00
521.17	65535.00
521.34	65535.00
521.52	65535.00
521.69	65535.00
521.86	65535.00
522.03	65535.00
522.20	65535.00
522.38	65535.00
522.55	65535.00
522.72	65535.00
522.89	65535.00
523.07	65535.00
523.24	65535.00
523.41	65535.00
523.58	65535.00
523.75	65535.00
523.92	65535.00
524.10	65535.00
524.27	65535.00
524.44	65535.00
524.61	65535.00
524.78	65535.00
524.96	65535.00
525.13	65535.00
525.30	65535.00
525.47	65535.00
525.64	65535.00
525.81	65535.00
525.98	65535.00
526.16	65535.00
526.33	65535.00
526.50	65535.00
526.67	65535.00
526.84	65535.00
527.01	65535.00
527.18	65535.00
527.36	65535.00
527.53	65535.00
527.70	65535.00
527.87	65535.00
528.04	65535.00
528.21	65535.00
528.38	65535.00
528.55	65535.00
528.72	65535.00
528.89	65535.00
529.07	65535.00
529.24	65535.00
529.41	65535.00
529.58	65535.00
529.75	65535.00
529.92	65535.00
530.09	65535.00
530.26	65535.00
530.43	65535.00
530.60	65535.00
530.77	65535.00
530.94	65535.00
531.11	65535.00
531.28	65535.00
531.46	65535.00
531.63	65535.00
531.80	65535.00
531.97	65535.00
532.14	65535.00
532.31	65535.00
532.48	65535.00
532.65	65535.00
532.82	65535.00
532.99	65535.00
533.16	65535.00
533.33	65535.00
533.50	65535.00
533.67	65535.00
533.84	65535.00
534.01	65535.00
534.18	65535.00
534.35	65535.00
534.52	65535.00
534.69	65535.00
534.86	65535.00
535.03	65535.00
535.20	65535.00
535.37	65535.00
535.54	65535.00
535.71	65535.00
535.88	65535.00
536.05	65535.00
536.22	65535.00
536.38	65535.00
536.55	65535.00
536.72	65535.00
536.89	65535.00
537.06	65535.00
537.23	65535.00
537.40	65535.00
537.57	65535.00
537.74	65535.00
537.91	65535.00
538.08	65535.00
538.25	65535.00
538.42	65535.00
538.59	65535.00
538.75	65535.00
538.92	65535.00
539.09	65535.00
539.26	65535.00
539.43	65535.00
539.60	65535.00
539.77	65535.00
539.94	65535.00
540.11	65535.00
540.28	65535.00
540.44	65535.00
540.61	65535.00
540.78	65535.00
540.95	65535.00
541.12	65535.00
541.29	65535.00
541.46	65535.00
541.62	65535.00
541.79	65535.00
541.96	65535.00
542.13	65535.00
542.30	65535.00
542.47	65535.00
542.63	65535.00
542.80	65535.00
542.97	65535.00
543.14	65535.00
543.31	65535.00
543.48	65535.00
543.64	65535.00
543.81	65535.00
543.98	65535.00
544.15	65535.00
544.32	65535.00
544.48	65535.00
544.65	65535.00
544.82	65535.00
544.99	65535.00
545.16	65535.00
545.32	65535.00
545.49	65535.00
545.66	65535.00
545.83	65535.00
546.00	65535.00
546.16	65535.00
546.33	65535.00
546.50	65535.00
546.67	65535.00
546.83	65535.00
547.00	65535.00
547.17	65535.00
547.34	65535.00
547.50	65535.00
547.67	65535.00
547.84	65535.00
548.00	65535.00
548.17	65535.00
548.34	65535.00
548.51	65535.00
548.67	65535.00
548.84	65535.00
549.01	65535.00
549.18	65535.00
549.34	65535.00
549.51	65535.00
549.68	65535.00
549.84	65535.00
550.01	65535.00
550.18	65535.00
550.34	65535.00
550.51	65535.00
550.68	65535.00
550.84	65535.00
551.01	65535.00
551.18	65535.00
551.34	65535.00
551.51	65535.00
551.68	65535.00
551.84	65535.00
552.01	65535.00
552.18	65535.00
552.34	65535.00
552.51	65535.00
552.68	65535.00
552.84	65535.00
553.01	65535.00
553.18	65535.00
553.34	65535.00
553.51	65535.00
553.67	65535.00
553.84	65535.00
554.01	65535.00
554.17	65535.00
554.34	65535.00
554.51	65535.00
554.67	65535.00
554.84	65535.00
555.00	65535.00
555.17	65535.00
555.33	65535.00
555.50	65535.00
555.67	65535.00
555.83	65535.00
556.00	65535.00
556.16	65535.00
556.33	65535.00
556.50	65535.00
556.66	65535.00
556.83	65535.00
556.99	65535.00
557.16	65535.00
557.32	65535.00
557.49	65535.00
557.65	65535.00
557.82	65535.00
557.98	65535.00
558.15	65535.00
558.32	65535.00
558.48	65535.00
558.65	65535.00
558.81	65535.00
558.98	65535.00
559.14	65535.00
559.31	65535.00
559.47	65535.00
559.64	65535.00
559.80	65535.00
559.97	65535.00
560.13	65535.00
560.30	65535.00
560.46	65535.00
560.63	65535.00
560.79	65535.00
560.96	65535.00
561.12	65535.00
561.29	65535.00
561.45	65535.00
561.61	65535.00
561.78	65535.00
561.94	65535.00
562.11	65535.00
562.27	65535.00
562.44	65535.00
562.60	65535.00
562.77	65535.00
562.93	65535.00
563.10	65535.00
563.26	65535.00
563.42	65535.00
563.59	65535.00
563.75	65535.00
563.92	65535.00
564.08	65535.00
564.24	65535.00
564.41	65535.00
564.57	65535.00
564.74	65535.00
564.90	65535.00
565.07	65535.00
565.23	65535.00
565.39	65535.00
565.56	65535.00
565.72	65535.00
565.88	65535.00
566.05	65535.00
566.21	65535.00
566.38	65535.00
566.54	65535.00
566.70	65535.00
566.87	65535.00
567.03	65535.00
567.19	65535.00
567.36	65535.00
567.52	65535.00
567.68	65535.00
567.85	65535.00
568.01	65535.00
568.17	65535.00
568.34	65535.00
568.50	65535.00
568.66	65535.00
568.83	65535.00
568.99	65535.00
569.15	65535.00
569.32	65535.00
569.48	65535.00
569.64	65535.00
569.81	65535.00
569.97	65535.00
570.13	65535.00
570.30	65535.00
570.46	65535.00
570.62	65535.00
570.78	65535.00
570.95	65535.00
571.11	65535.00
571.27	65535.00
571.43	65535.00
571.60	65535.00
571.76	65535.00
571.92	65535.00
572.09	65535.00
572.25	65535.00
572.41	65535.00
572.57	65535.00
572.74	65535.00
572.90	65535.00
573.06	65535.00
573.22	65535.00
573.38	65535.00
573.55	65535.00
573.71	65535.00
573.87	65535.00
574.03	65535.00
574.20	65535.00
574.36	65535.00
574.52	65535.00
574.68	65535.00
574.84	65535.00
575.01	65535.00
575.17	65535.00
575.33	65535.00
575.49	65535.00
575.65	65535.00
575.82	65535.00
575.98	65535.00
576.14	65535.00
576.30	65535.00
576.46	65535.00
576.62	65535.00
576.79	65535.00
576.95	65535.00
577.11	65535.00
577.27	65535.00
577.43	65535.00
577.59	65535.00
577.75	65535.00
577.92	65535.00
578.08	65535.00
578.24	65535.00
578.40	65535.00
578.56	65535.00
578.72	65535.00
578.88	65535.00
579.04	65535.00
579.21	65535.00
579.37	65535.00
579.53	65535.00
579.69	65535.00
579.85	65535.00
580.01	65535.00
580.17	65535.00
580.33	65535.00
580.49	65535.00
580.65	65535.00
580.82	65535.00
580.98	65535.00
581.14	65535.00
581.30	65535.00
581.46	65535.00
581.62	65535.00
581.78	65535.00
581.94	65535.00
582.10	65535.00
582.26	65535.00
582.42	65535.00
582.58	65535.00
582.74	65535.00
582.90	65535.00
583.06	65535.00
583.22	65535.00
583.38	65535.00
583.54	65535.00
583.70	65535.00
583.86	65535.00
584.02	65535.00
584.18	65535.00
584.34	65535.00
584.50	65535.00
584.66	65535.00
584.82	65535.00
584.98	65535.00
585.14	65535.00
585.30	65535.00
585.46	65535.00
585.62	65535.00
585.78	65535.00
