SpectraSuite Data File
++++++++++++++++++++++++++++++++++++
Date: Thu Oct 24 13:21:10 EDT 2013
User: stostad
Dark Spectrum Present: No
Reference Spectrum Present: No
Number of Sampled Component Spectra: 1
Spectrometers: USB2+H05261
Integration Time (usec): 100000 (USB2+H05261)
Spectra Averaged: 1 (USB2+H05261)
Boxcar Smoothing: 0 (USB2+H05261)
Correct for Electrical Dark: No (USB2+H05261)
Strobe/Lamp Enabled: No (USB2+H05261)
Correct for Detector Non-linearity: No (USB2+H05261)
Correct for Stray Light: No (USB2+H05261)
Number of Pixels in Processed Spectrum: 2048
>>>>>Begin Processed Spectral Data<<<<<
365.73	601.52
365.92	601.52
366.12	601.52
366.32	472.79
366.52	482.15
366.72	440.02
366.91	430.66
367.11	442.36
367.31	470.45
367.51	397.89
367.70	428.32
367.90	470.45
368.10	498.53
368.30	496.19
368.49	498.53
368.69	454.06
368.89	484.49
369.09	465.77
369.28	479.81
369.48	470.45
369.68	458.74
369.87	472.79
370.07	491.51
370.27	505.56
370.47	617.90
370.66	699.82
370.86	711.52
371.06	704.50
371.25	711.52
371.45	786.42
371.65	753.65
371.84	744.29
372.04	807.48
372.24	784.08
372.44	697.48
372.63	814.51
372.83	842.59
373.03	826.21
373.22	772.38
373.42	770.04
373.62	800.46
373.81	823.87
374.01	812.17
374.21	840.25
374.40	835.57
374.60	875.36
374.79	833.23
374.99	856.64
375.19	821.53
375.38	786.42
375.58	844.93
375.78	830.89
375.97	798.12
376.17	826.21
376.37	858.98
376.56	873.02
376.76	786.42
376.95	833.23
377.15	915.15
377.35	819.19
377.54	901.11
377.74	896.43
377.93	856.64
378.13	858.98
378.33	767.70
378.52	791.10
378.72	858.98
378.91	866.00
379.11	849.61
379.31	898.77
379.50	880.04
379.70	898.77
379.89	903.45
380.09	891.74
380.28	849.61
380.48	863.66
380.68	901.11
380.87	858.98
381.07	884.72
381.26	938.55
381.46	917.49
381.65	840.25
381.85	908.13
382.04	936.21
382.24	929.19
382.43	877.70
382.63	887.06
382.83	844.93
383.02	924.51
383.22	997.07
383.41	840.25
383.61	901.11
383.80	931.53
384.00	938.55
384.19	866.00
384.39	873.02
384.58	870.68
384.78	912.81
384.97	961.96
385.17	940.90
385.36	952.60
385.56	976.00
385.75	957.28
385.95	947.92
386.14	903.45
386.34	931.53
386.53	999.41
386.72	1008.77
386.92	971.32
387.11	908.13
387.31	1006.43
387.50	959.62
387.70	945.58
387.89	1006.43
388.09	1011.11
388.28	961.96
388.48	1022.81
388.67	1025.15
388.86	1015.79
389.06	1093.03
389.25	997.07
389.45	954.94
389.64	990.05
389.84	1013.45
390.03	1043.88
390.22	968.98
390.42	994.73
390.61	1067.28
390.81	1067.28
391.00	994.73
391.19	1015.79
391.39	1041.54
391.58	1086.01
391.78	1050.90
391.97	1102.39
392.16	1027.50
392.36	999.41
392.55	1130.48
392.75	1132.82
392.94	1090.69
393.13	1125.80
393.33	1093.03
393.52	1050.90
393.71	1151.54
393.91	1097.71
394.10	1029.84
394.29	1100.05
394.49	1139.84
394.68	1097.71
394.88	1097.71
395.07	1191.33
395.26	1158.57
395.46	1158.57
395.65	1188.99
395.84	1172.61
396.04	1196.01
396.23	1158.57
396.42	1123.46
396.62	1181.97
396.81	1170.27
397.00	1228.78
397.19	1170.27
397.39	1135.16
397.58	1116.44
397.77	1207.72
397.97	1207.72
398.16	1210.06
398.35	1170.27
398.55	1238.14
398.74	1259.21
398.93	1226.44
399.12	1186.65
399.32	1287.29
399.51	1221.76
399.70	1301.34
399.90	1315.38
400.09	1317.72
400.28	1221.76
400.47	1266.23
400.67	1324.74
400.86	1273.25
401.05	1317.72
401.24	1259.21
401.44	1310.70
401.63	1338.79
401.82	1404.32
402.01	1362.19
402.21	1343.47
402.40	1289.64
402.59	1345.81
402.78	1448.79
402.97	1387.94
403.17	1394.96
403.36	1343.47
403.55	1416.02
403.74	1418.36
403.93	1497.94
404.13	1425.39
404.32	1511.99
404.51	1589.22
404.70	1486.24
404.89	1514.33
405.09	1575.18
405.28	1530.71
405.47	1439.43
405.66	1533.05
405.85	1584.54
406.05	1425.39
406.24	1558.80
406.43	1465.18
406.62	1476.88
406.81	1533.05
407.00	1551.78
407.20	1561.14
407.39	1610.29
407.58	1603.27
407.77	1741.36
407.96	1619.65
408.15	1659.44
408.34	1514.33
408.54	1694.55
408.73	1661.78
408.92	1657.10
409.11	1657.10
409.30	1645.40
409.49	1636.03
409.68	1631.35
409.87	1720.29
410.07	1703.91
410.26	1703.91
410.45	1715.61
410.64	1762.42
410.83	1727.32
411.02	1767.10
411.21	1781.15
411.40	1820.94
411.59	1842.00
411.78	1760.08
411.98	1792.85
412.17	1771.79
412.36	1746.04
412.55	1799.87
412.74	1884.13
412.93	1863.07
413.12	1739.02
413.31	2015.20
413.50	1991.80
413.69	1966.05
413.88	1961.37
414.07	1935.62
414.26	2054.99
414.45	1942.64
414.64	1891.15
414.83	1905.20
415.02	1933.28
415.22	2097.12
415.41	2008.18
415.60	2078.40
415.79	2038.61
415.98	2069.03
416.17	2047.97
416.36	2090.10
416.55	2045.63
416.74	2069.03
416.93	2162.66
417.12	2193.08
417.31	2172.02
417.50	2087.76
417.69	2239.89
417.88	2146.27
418.07	2242.23
418.26	2244.57
418.45	2282.02
418.64	2422.45
418.83	2289.04
419.02	2319.47
419.21	2246.91
419.39	2377.98
419.58	2300.75
419.77	2394.37
419.96	2352.24
420.15	2375.64
420.34	2317.13
420.53	2363.94
420.72	2363.94
420.91	2429.48
421.10	2438.84
421.29	2464.58
421.48	2431.82
421.67	2417.77
421.86	2422.45
422.05	2375.64
422.24	2567.57
422.43	2403.73
422.61	2448.20
422.80	2417.77
422.99	2436.50
423.18	2443.52
423.37	2485.65
423.56	2462.24
423.75	2483.31
423.94	2340.54
424.13	2422.45
424.32	2401.39
424.50	2597.99
424.69	2614.38
424.88	2530.12
425.07	2572.25
425.26	2537.14
425.45	2464.58
425.64	2450.54
425.83	2427.14
426.01	2548.84
426.20	2579.27
426.39	2516.08
426.58	2448.20
426.77	2583.95
426.96	2581.61
427.15	2499.69
427.33	2541.82
427.52	2499.69
427.71	2647.15
427.90	2541.82
428.09	2609.70
428.28	2588.63
428.46	2703.32
428.65	2548.84
428.84	2698.64
429.03	2644.81
429.22	2586.29
429.40	2595.65
429.59	2532.46
429.78	2675.23
429.97	2642.46
430.16	2829.71
430.34	2782.90
430.53	2698.64
430.72	2766.51
430.91	2766.51
431.10	2853.11
431.28	2867.16
431.47	2857.79
431.66	2785.24
431.85	2829.71
432.03	2991.20
432.22	2848.43
432.41	2923.33
432.60	2782.90
432.79	2853.11
432.97	2988.86
433.16	2825.03
433.35	2892.90
433.54	2883.54
433.72	2958.44
433.91	2949.08
434.10	2895.24
434.28	3019.29
434.47	3026.31
434.66	3070.78
434.85	3126.96
435.03	3122.27
435.22	3300.16
435.41	3611.45
435.59	3342.28
435.78	3302.50
435.97	3330.58
436.16	3206.53
436.34	3220.58
436.53	3162.06
436.72	3288.45
436.90	3089.51
437.09	3023.97
437.28	3075.46
437.46	3028.65
437.65	3192.49
437.84	3213.56
438.02	3241.64
438.21	3166.74
438.40	3208.87
438.58	3236.96
438.77	3236.96
438.96	3222.92
439.14	3304.84
439.33	3309.52
439.52	3393.78
439.70	3344.63
439.89	3426.54
440.08	3508.46
440.26	3421.86
440.45	3412.50
440.63	3407.82
440.82	3520.17
441.01	3456.97
441.19	3597.40
441.38	3583.36
441.57	3611.45
441.75	3543.57
441.94	3503.78
442.12	3632.51
442.31	3709.75
442.50	3791.67
442.68	3618.47
442.87	3627.83
443.05	3684.00
443.24	3880.61
443.43	3705.07
443.61	3641.87
443.80	3875.93
443.98	3726.13
444.17	3581.02
444.35	3681.66
444.54	3850.18
444.73	3908.69
444.91	3768.26
445.10	3817.41
445.28	3805.71
445.47	3796.35
445.65	3824.44
445.84	3868.91
446.02	3918.06
446.21	3894.65
446.39	3801.03
446.58	3866.56
446.77	3922.74
446.95	3669.96
447.14	3911.04
447.32	3999.98
447.51	3719.11
447.69	3684.00
447.88	3723.79
448.06	3906.35
448.25	3779.97
448.43	4016.36
448.62	3817.41
448.80	3824.44
448.99	3932.10
449.17	3845.50
449.36	3866.56
449.54	3922.74
449.73	4018.70
449.91	4060.83
450.10	4142.75
450.28	4187.22
450.46	4161.47
450.65	4072.53
450.83	4159.13
451.02	4079.55
451.20	4189.56
451.39	4215.30
451.57	4105.30
451.76	4053.81
451.94	4145.09
452.13	4140.41
452.31	4112.32
452.49	4124.02
452.68	4348.72
452.86	4273.82
453.05	4332.33
453.23	4416.59
453.42	4227.01
453.60	3995.29
453.78	4294.88
453.97	4255.09
454.15	4217.65
454.34	4205.94
454.52	4322.97
454.70	4245.73
454.89	4248.07
455.07	4395.53
455.26	4400.21
455.44	4468.08
455.62	4252.75
455.81	4358.08
455.99	4430.63
456.17	4519.57
456.36	4418.93
456.54	4580.43
456.73	4468.08
456.91	4734.90
457.09	4674.05
457.28	4868.31
457.46	4732.56
457.64	4545.32
457.83	4655.33
458.01	4770.01
458.19	4648.30
458.38	4674.05
458.56	4702.14
458.74	4617.88
458.93	4765.33
459.11	4652.98
459.29	4610.86
459.48	4643.62
459.66	4744.27
459.84	4798.10
460.03	4779.37
460.21	4781.71
460.39	4755.97
460.57	4884.70
460.76	4875.34
460.94	4800.44
461.12	5001.72
461.31	4943.21
461.49	4919.81
461.67	4809.80
461.85	4882.36
462.04	4980.66
462.22	5193.65
462.40	5022.79
462.59	5104.71
462.77	5083.64
462.95	5121.09
463.13	4980.66
463.32	4971.30
463.50	5034.49
463.68	5060.24
463.86	5008.75
464.05	5149.18
464.23	5121.09
464.41	5020.45
464.59	5128.11
464.78	5282.59
464.96	5128.11
465.14	5015.77
465.32	5240.46
465.50	5095.35
465.69	5352.81
465.87	5104.71
466.05	5266.21
466.23	5214.71
466.41	5313.02
466.60	5366.85
466.78	5331.74
466.96	5240.46
467.14	5287.27
467.32	5343.44
467.51	5399.62
467.69	5247.48
467.87	5486.22
468.05	5479.19
468.23	5336.42
468.41	5296.63
468.60	5308.34
468.78	5399.62
468.96	5465.15
469.14	5497.92
469.32	5628.99
469.50	5376.21
469.69	5479.19
469.87	5626.65
470.05	5575.16
470.23	5722.61
470.41	5570.48
470.59	5636.01
470.77	5528.35
470.95	5710.91
471.14	5802.19
471.32	5626.65
471.50	5816.23
471.68	5633.67
471.86	5795.17
472.04	5916.87
472.22	5879.43
472.40	5769.42
472.58	5727.29
472.77	5905.17
472.95	5853.68
473.13	6043.26
473.31	6008.16
473.49	5949.64
473.67	5968.37
473.85	6033.90
474.03	6050.28
474.21	6272.64
474.39	6146.25
474.57	6120.50
474.75	6134.54
474.93	6480.94
475.12	6235.19
475.30	6258.59
475.48	6434.13
475.66	6373.28
475.84	6307.74
476.02	6483.28
476.20	6445.84
476.38	6658.82
476.56	6595.63
476.74	6651.80
476.92	6600.31
477.10	6612.01
477.28	6808.62
477.46	6810.96
477.64	6750.10
477.82	6766.49
478.00	7016.93
478.18	7016.93
478.36	7021.61
478.54	7077.78
478.72	7042.67
478.90	7187.79
479.08	7253.32
479.26	7321.20
479.44	7321.20
479.62	7391.41
479.80	7419.50
479.98	7346.94
480.16	7499.08
480.34	7618.44
480.52	7538.87
480.70	7707.38
480.88	7681.64
481.06	7557.59
481.24	7660.57
481.41	7634.83
481.59	7976.55
481.77	7866.54
481.95	8191.88
482.13	8056.12
482.31	8065.49
482.49	8180.17
482.67	8325.29
482.85	8334.65
483.03	8664.66
483.21	8430.61
483.39	8360.39
483.57	8421.25
483.74	8475.08
483.92	8634.24
484.10	8557.00
484.28	8800.41
484.46	8990.00
484.64	8908.08
484.82	9078.94
485.00	8924.46
485.18	9205.33
485.35	9294.27
485.53	9359.80
485.71	9617.26
485.89	9577.47
486.07	9366.82
486.25	9507.26
486.43	9647.69
486.61	9673.43
486.78	9802.16
486.96	9654.71
487.14	9888.76
487.32	9895.78
487.50	10090.05
487.68	9998.77
487.85	10228.14
488.03	10331.12
488.21	10429.43
488.39	10368.57
488.57	10401.34
488.75	10523.05
488.92	10548.79
489.10	10656.46
489.28	10534.75
489.46	10820.30
489.64	10623.69
489.81	11157.33
489.99	10876.47
490.17	11044.99
490.35	11222.87
490.53	11250.96
490.70	11370.32
490.88	11126.91
491.06	11566.93
491.24	11447.56
491.41	11866.52
491.59	11683.95
491.77	11910.99
491.95	11819.71
492.13	11815.02
492.30	11733.11
492.48	11852.47
492.66	11847.79
492.84	12049.08
493.01	12175.47
493.19	11756.51
493.37	12257.39
493.54	12444.63
493.72	12386.12
493.90	12404.84
494.08	12556.97
494.25	12528.89
494.43	12484.42
494.61	12737.20
494.79	12629.53
494.96	12442.29
495.14	12781.67
495.32	12938.48
495.49	13011.04
495.67	12849.54
495.85	13254.45
496.02	13130.41
496.20	13331.69
496.38	13135.09
496.55	13369.14
496.73	13724.90
496.91	13572.77
497.09	13472.12
497.26	13671.07
497.44	13596.17
497.62	13926.19
497.79	14085.34
497.97	13776.39
498.14	13984.70
498.32	14115.77
498.50	13973.00
498.67	13935.55
498.85	14169.60
499.03	14169.60
499.20	14354.51
499.38	14368.55
499.56	14476.21
499.73	14450.47
499.91	14586.22
500.08	14558.13
500.26	14485.58
500.44	14312.38
500.61	14635.37
500.79	14815.59
500.97	14750.06
501.14	14878.79
501.32	14885.81
501.49	14857.72
501.67	15073.05
501.84	15068.37
502.02	15068.37
502.20	15365.62
502.37	15260.29
502.55	15232.21
502.72	14988.79
502.90	15480.30
503.07	15274.34
503.25	15445.20
503.43	15543.50
503.60	15545.84
503.78	15590.31
503.95	15573.92
504.13	15627.76
504.30	15616.05
504.48	15733.08
504.65	15831.38
504.83	15815.00
505.01	15960.11
505.18	15927.35
505.36	16159.06
505.53	16081.82
505.71	16130.97
505.88	16332.26
506.06	16156.72
506.23	16233.96
506.41	16453.97
506.58	16407.16
506.76	16226.93
506.93	16367.37
507.11	16730.15
507.28	16805.05
507.46	16592.06
507.63	16971.22
507.81	16755.90
507.98	16414.18
508.16	16933.78
508.33	17128.04
508.50	16755.90
508.68	16945.48
508.85	17099.95
509.03	17062.51
509.20	17331.67
509.38	17268.47
509.55	17301.24
509.73	17415.93
509.90	17357.41
510.08	17383.16
510.25	17392.52
510.42	17392.52
510.60	17408.90
510.77	17631.26
510.95	17483.80
511.12	17614.87
511.30	17692.11
511.47	17989.36
511.64	17750.62
511.82	17994.04
511.99	17685.09
512.17	18113.41
512.34	17919.14
512.51	18356.82
512.69	18099.36
512.86	17734.24
513.04	18253.84
513.21	18068.94
513.38	18593.22
513.56	18125.11
513.73	18628.32
513.90	18691.52
514.08	18347.46
514.25	18335.76
514.43	18401.29
514.60	18359.16
514.77	18197.67
514.95	18665.77
515.12	18707.90
515.29	18647.05
515.47	18625.98
515.64	18857.70
515.81	18888.12
515.99	19009.83
516.16	19187.71
516.33	18611.94
516.51	19063.66
516.68	18916.21
516.85	19066.00
517.03	19271.97
517.20	19110.47
517.37	19089.41
517.54	19136.22
517.72	19131.54
517.89	19274.31
518.06	19372.61
518.24	19545.81
518.41	19339.85
518.58	19613.69
518.75	19393.68
518.93	19211.12
519.10	19468.58
519.27	19623.05
519.45	19686.25
519.62	19587.94
519.79	19824.34
519.96	19559.86
520.14	19683.91
520.31	19983.49
520.48	19859.45
520.65	20084.14
520.83	19962.43
521.00	20617.78
521.17	19812.63
521.34	20191.80
521.52	19988.18
521.69	19976.47
521.86	20271.38
522.03	20034.99
522.20	20180.10
522.38	20460.96
522.55	20407.13
522.72	20273.72
522.89	20423.51
523.07	20421.17
523.24	20283.08
523.41	20783.96
523.58	20568.63
523.75	20524.16
523.92	20833.11
524.10	20947.79
524.27	21165.46
524.44	20741.83
524.61	21015.67
524.78	20994.61
524.96	21018.01
525.13	20884.60
525.30	21198.23
525.47	21078.86
525.64	21116.31
525.81	20992.26
525.98	21329.30
526.16	21104.61
526.33	20931.41
526.50	21294.19
526.67	21167.80
526.84	21104.61
527.01	21429.94
527.18	21294.19
527.36	21378.45
527.53	21268.45
527.70	21317.60
527.87	21387.82
528.04	21296.53
528.21	21425.26
528.38	21635.91
528.55	21738.90
528.72	21448.67
528.89	21582.08
529.07	21696.77
529.24	21575.06
529.41	22148.49
529.58	21954.22
529.75	21710.81
529.92	21914.44
530.09	21928.48
530.26	22099.34
530.43	22015.08
530.60	22008.06
530.77	21834.86
530.94	22277.22
531.11	22211.68
531.28	22464.46
531.46	21986.99
531.63	22396.59
531.80	22178.92
531.97	22317.01
532.14	22300.62
532.31	22204.66
532.48	22483.19
532.65	22698.52
532.82	22534.68
532.99	22537.02
533.16	22279.56
533.33	22607.23
533.50	22761.71
533.67	22726.60
533.84	22738.30
534.01	22960.66
534.18	22740.64
534.35	22977.04
534.52	22670.43
534.69	22731.28
534.86	22647.02
535.03	22511.27
535.20	22845.97
535.37	22740.64
535.54	23419.40
535.71	22726.60
535.88	23150.24
536.05	23061.30
536.22	22796.82
536.38	23103.43
536.55	23379.61
536.72	23117.47
536.89	23016.83
537.06	23400.68
537.23	23101.09
537.40	23428.76
537.57	23119.81
537.74	23138.54
537.91	23421.74
538.08	23297.69
538.25	23318.76
538.42	23442.81
538.59	23510.68
538.75	23426.42
538.92	23632.39
539.09	23424.08
539.26	23718.99
539.43	23578.56
539.60	23667.50
539.77	23651.11
539.94	23920.28
540.11	24203.48
540.28	24154.33
540.44	23814.95
540.61	24088.79
540.78	24058.37
540.95	24032.62
541.12	24514.77
541.29	24147.31
541.46	24659.88
541.62	24788.61
541.79	24285.40
541.96	24498.39
542.13	24388.38
542.30	24273.70
542.47	24386.04
542.63	24774.57
542.80	24835.42
542.97	24790.95
543.14	24889.26
543.31	24826.06
543.48	24954.79
543.64	24968.84
543.81	24680.95
543.98	25193.53
544.15	24903.30
544.32	25123.31
544.48	25291.83
544.65	24891.60
544.82	25195.87
544.99	25090.54
545.16	24884.58
545.32	24905.64
545.49	25450.99
545.66	25933.14
545.83	25930.80
546.00	26087.61
546.16	25844.20
546.33	25420.56
546.50	24975.86
546.67	25219.27
546.83	24966.49
547.00	25118.63
547.17	25003.94
547.34	24886.92
547.50	25099.90
547.67	25308.21
547.84	25261.40
548.00	25387.79
548.17	25350.34
548.34	25441.62
548.51	25560.99
548.67	25242.68
548.84	25350.34
549.01	25397.15
549.18	25415.88
549.34	25556.31
549.51	25404.17
549.68	25553.97
549.84	25319.92
550.01	25083.52
550.18	25340.98
550.34	25242.68
550.51	25383.11
550.68	25256.72
550.84	25376.09
551.01	25371.41
551.18	25071.82
551.34	25270.76
551.51	25230.98
551.68	25263.74
551.84	25228.63
552.01	25343.32
552.18	25394.81
552.34	25348.00
552.51	25701.42
552.68	25830.15
552.84	25472.05
553.01	25886.32
553.18	26068.89
553.34	25537.59
553.51	25366.73
553.67	25942.50
553.84	25827.81
554.01	25876.96
554.17	26026.76
554.34	25799.73
554.51	25652.27
554.67	26036.12
554.84	26132.08
555.00	25764.62
555.17	25385.45
555.33	26033.78
555.50	25947.18
555.67	25717.81
555.83	25937.82
556.00	25832.49
556.16	26073.57
556.33	26197.62
556.50	26029.10
556.66	26190.59
556.83	25923.77
556.99	25839.51
557.16	26415.29
557.32	26473.80
557.49	26366.13
557.65	25984.63
557.82	26089.95
557.98	26050.16
558.15	26214.00
558.32	25977.61
558.48	25881.64
558.65	26286.56
558.81	26068.89
558.98	26281.88
559.14	26251.45
559.31	26118.04
559.47	26363.79
559.64	26239.75
559.80	26176.55
559.97	26396.56
560.13	26277.19
560.30	26316.98
560.46	26089.95
560.63	26188.25
560.79	26209.32
560.96	26572.10
561.12	26775.73
561.29	26286.56
561.45	26307.62
561.61	26281.88
561.78	26316.98
561.94	26508.91
562.11	26675.09
562.27	26768.71
562.44	26405.92
562.60	26265.49
562.77	26689.13
562.93	26471.46
563.10	26396.56
563.26	26494.86
563.42	26824.88
563.59	26787.43
563.75	26539.33
563.92	26314.64
564.08	26883.39
564.24	26558.06
564.41	26611.89
564.57	26618.91
564.74	26382.52
564.90	26291.24
565.07	26455.08
565.23	26513.59
565.39	26904.46
565.56	26707.85
565.72	26654.02
565.88	26686.79
566.05	26600.19
566.21	26651.68
566.38	26576.78
566.54	26766.37
566.70	26544.02
566.87	26923.18
567.03	26932.54
567.19	27119.79
567.36	27021.48
567.52	26768.71
567.68	26635.30
567.85	26536.99
568.01	26977.01
568.17	26576.78
568.34	27005.10
568.50	26871.69
568.66	26738.28
568.83	26843.60
568.99	26609.55
569.15	26714.87
569.32	26675.09
569.48	26349.75
569.64	26969.99
569.81	26789.77
569.97	26757.00
570.13	26724.24
570.30	27009.78
570.46	26960.63
570.62	26665.72
570.78	27019.14
570.95	26998.08
571.11	27016.80
571.27	26749.98
571.43	26583.80
571.60	27147.87
571.76	26937.23
571.92	26691.47
572.09	27145.53
572.25	26852.97
572.41	26843.60
572.57	27379.59
572.74	27154.90
572.90	26911.48
573.06	26881.05
573.22	27206.39
573.38	26969.99
573.55	27019.14
573.71	27316.39
573.87	27332.78
574.03	26998.08
574.20	27122.13
574.36	27211.07
574.52	27070.64
574.68	27115.11
574.84	27370.22
575.01	27274.26
575.17	27241.50
575.33	26974.67
575.49	27094.04
575.65	27225.11
575.82	27140.85
575.98	27150.21
576.14	27070.64
576.30	27311.71
576.46	27236.81
576.62	27180.64
576.79	27431.08
576.95	27026.17
577.11	27358.52
577.27	27412.35
577.43	27480.23
577.59	27267.24
577.75	27014.46
577.92	26799.13
578.08	27077.66
578.24	26969.99
578.40	27386.61
578.56	27674.49
578.72	27765.78
578.88	27527.04
579.04	27325.75
579.21	27445.12
579.37	27124.47
579.53	27288.31
579.69	27440.44
579.85	27182.98
580.01	27061.27
580.17	27065.96
580.33	27082.34
580.49	27269.58
580.65	27199.37
580.82	27438.10
580.98	27480.23
581.14	27300.01
581.30	27325.75
581.46	27094.04
581.62	27075.32
581.78	27187.66
581.94	27367.88
582.10	27126.81
582.26	27070.64
582.42	27070.64
582.58	27475.55
582.74	27199.37
582.90	27283.62
583.06	27393.63
583.22	27239.15
583.38	27484.91
583.54	27332.78
583.70	27365.54
583.86	27346.82
584.02	27140.85
584.18	27487.25
584.34	27220.43
584.50	27576.19
584.66	27213.41
584.82	27470.87
584.98	27117.45
585.14	27325.75
585.30	27388.95
585.46	27428.74
585.62	27140.85
585.78	27524.70
585.94	27325.75
586.10	27400.65
586.26	27304.69
586.42	27435.76
586.58	27384.27
586.74	27550.45
586.90	27711.94
587.06	27564.49
587.22	27543.42
587.38	27665.13
587.54	27524.70
587.70	27672.15
587.86	27644.07
588.02	27534.06
588.18	27618.32
588.34	27585.55
588.49	27583.21
588.65	27342.14
588.81	27115.11
588.97	27494.27
589.13	27742.37
589.29	27538.74
589.45	27548.11
589.61	27503.64
589.77	27913.23
589.93	27786.84
590.08	27454.48
590.24	27538.74
590.40	27569.17
590.56	27765.78
