SpectraSuite Data File
++++++++++++++++++++++++++++++++++++
Date: Thu Oct 24 13:21:23 EDT 2013
User: stostad
Dark Spectrum Present: No
Reference Spectrum Present: No
Number of Sampled Component Spectra: 1
Spectrometers: USB2+H05261
Integration Time (usec): 100000 (USB2+H05261)
Spectra Averaged: 1 (USB2+H05261)
Boxcar Smoothing: 0 (USB2+H05261)
Correct for Electrical Dark: No (USB2+H05261)
Strobe/Lamp Enabled: No (USB2+H05261)
Correct for Detector Non-linearity: No (USB2+H05261)
Correct for Stray Light: No (USB2+H05261)
Number of Pixels in Processed Spectrum: 2048
>>>>>Begin Processed Spectral Data<<<<<
365.73	543.00
365.92	543.00
366.12	543.00
366.32	477.47
366.52	430.66
366.72	479.81
366.91	477.47
367.11	510.24
367.31	456.40
367.51	486.83
367.70	442.36
367.90	461.09
368.10	402.57
368.30	428.32
368.49	456.40
368.69	479.81
368.89	575.77
369.09	444.70
369.28	503.22
369.48	505.56
369.68	519.60
369.87	500.87
370.07	538.32
370.27	636.63
370.47	631.94
370.66	837.91
370.86	880.04
371.06	854.30
371.25	985.37
371.45	861.32
371.65	990.05
371.84	957.28
372.04	915.15
372.24	922.17
372.44	1039.20
372.63	980.68
372.83	1039.20
373.03	924.51
373.22	870.68
373.42	1029.84
373.62	924.51
373.81	1039.20
374.01	1055.58
374.21	1102.39
374.40	1039.20
374.60	1018.13
374.79	1081.33
374.99	1062.60
375.19	1067.28
375.38	1034.52
375.58	1034.52
375.78	1076.65
375.97	1022.81
376.17	1132.82
376.37	1043.88
376.56	1050.90
376.76	1097.71
376.95	1020.47
377.15	1160.91
377.35	1104.73
377.54	1097.71
377.74	1086.01
377.93	1130.48
378.13	1100.05
378.33	1139.84
378.52	1153.88
378.72	1107.07
378.91	1151.54
379.11	1100.05
379.31	1111.75
379.50	1165.59
379.70	1093.03
379.89	1193.67
380.09	1188.99
380.28	1186.65
380.48	1177.29
380.68	1214.74
380.87	1069.62
381.07	1196.01
381.26	1146.86
381.46	1231.12
381.65	1266.23
381.85	1252.19
382.04	1291.98
382.24	1212.40
382.43	1247.51
382.63	1198.35
382.83	1214.74
383.02	1245.16
383.22	1329.42
383.41	1313.04
383.61	1291.98
383.80	1235.80
384.00	1196.01
384.19	1273.25
384.39	1263.89
384.58	1193.67
384.78	1324.74
384.97	1338.79
385.17	1270.91
385.36	1341.13
385.56	1301.34
385.75	1409.00
385.95	1287.29
386.14	1338.79
386.34	1369.21
386.53	1355.17
386.72	1245.16
386.92	1350.49
387.11	1284.95
387.31	1329.42
387.50	1420.71
387.70	1345.81
387.89	1254.53
388.09	1343.47
388.28	1448.79
388.48	1476.88
388.67	1465.18
388.86	1420.71
389.06	1448.79
389.25	1493.26
389.45	1467.52
389.64	1467.52
389.84	1474.54
390.03	1502.62
390.22	1558.80
390.42	1528.37
390.61	1427.73
390.81	1474.54
391.00	1434.75
391.19	1619.65
391.39	1645.40
391.58	1558.80
391.78	1605.61
391.97	1563.48
392.16	1617.31
392.36	1558.80
392.55	1584.54
392.75	1694.55
392.94	1675.82
393.13	1699.23
393.33	1701.57
393.52	1666.46
393.71	1629.01
393.91	1678.16
394.10	1673.48
394.29	1696.89
394.49	1727.32
394.68	1673.48
394.88	1654.76
395.07	1675.82
395.26	1694.55
395.46	1713.27
395.65	1717.95
395.84	1837.32
396.04	1795.19
396.23	1886.47
396.42	1832.64
396.62	1771.79
396.81	1797.53
397.00	1727.32
397.19	1818.60
397.39	1823.28
397.58	1795.19
397.77	1790.51
397.97	1816.26
398.16	1792.85
398.35	1837.32
398.55	1907.54
398.74	1853.70
398.93	1977.75
399.12	1935.62
399.32	1879.45
399.51	1844.34
399.70	1893.49
399.90	1987.11
400.09	1980.09
400.28	2022.22
400.47	1998.82
400.67	2118.18
400.86	2045.63
401.05	2054.99
401.24	2120.53
401.44	2101.80
401.63	2106.48
401.82	2120.53
402.01	2026.90
402.21	2139.25
402.40	2155.63
402.59	2113.50
402.78	2122.87
402.97	2069.03
403.17	2153.29
403.36	2169.68
403.55	2284.36
403.74	2328.83
403.93	2359.26
404.13	2359.26
404.32	2345.22
404.51	2289.04
404.70	2319.47
404.89	2282.02
405.09	2408.41
405.28	2347.56
405.47	2310.11
405.66	2476.29
405.85	2527.78
406.05	2399.05
406.24	2396.71
406.43	2469.27
406.62	2513.74
406.81	2565.23
407.00	2462.24
407.20	2415.43
407.39	2555.86
407.58	2588.63
407.77	2696.30
407.96	2530.12
408.15	2623.74
408.34	2637.78
408.54	2647.15
408.73	2661.19
408.92	2607.36
409.11	2724.38
409.30	2649.49
409.49	2630.76
409.68	2775.88
409.87	2771.19
410.07	2881.20
410.26	2839.07
410.45	2860.13
410.64	2874.18
410.83	2892.90
411.02	2876.52
411.21	2881.20
411.40	2944.39
411.59	3012.27
411.78	2937.37
411.98	3082.49
412.17	2991.20
412.36	2986.52
412.55	3145.68
412.74	3321.22
412.93	3201.85
413.12	3115.25
413.31	3243.98
413.50	3365.69
413.69	3169.09
413.88	3180.79
414.07	3332.92
414.26	3215.90
414.45	3218.24
414.64	3421.86
414.83	3414.84
415.02	3435.91
415.22	3480.38
415.41	3494.42
415.60	3267.39
415.79	3632.51
415.98	3571.66
416.17	3517.83
416.36	3548.25
416.55	3653.58
416.74	3632.51
416.93	3730.81
417.12	3653.58
417.31	3728.47
417.50	3714.43
417.69	3735.50
417.88	3918.06
418.07	3859.54
418.26	3805.71
418.45	3887.63
418.64	4009.34
418.83	3908.69
419.02	3941.46
419.21	4060.83
419.39	4095.94
419.58	4042.11
419.77	4004.66
419.96	4095.94
420.15	4145.09
420.34	4100.62
420.53	4023.38
420.72	4065.51
420.91	4091.26
421.10	4142.75
421.29	4154.45
421.48	4222.33
421.67	4098.28
421.86	4159.13
422.05	4238.71
422.24	4173.18
422.43	4264.46
422.61	4428.29
422.80	4273.82
422.99	4358.08
423.18	4376.80
423.37	4402.55
423.56	4301.90
423.75	4346.37
423.94	4194.24
424.13	4065.51
424.32	4163.81
424.50	4325.31
424.69	4596.81
424.88	4421.27
425.07	4430.63
425.26	4292.54
425.45	4374.46
425.64	4283.18
425.83	4297.22
426.01	4479.79
426.20	4421.27
426.39	4440.00
426.58	4486.81
426.77	4444.68
426.96	4416.59
427.15	4493.83
427.33	4491.49
427.52	4594.47
427.71	4470.42
427.90	4475.10
428.09	4606.17
428.28	4732.56
428.46	4727.88
428.65	4624.90
428.84	4924.49
429.03	4741.93
429.22	4613.20
429.40	4657.67
429.59	4706.82
429.78	4800.44
429.97	4542.98
430.16	4760.65
430.34	4812.14
430.53	4905.76
430.72	5050.88
430.91	4957.25
431.10	4830.87
431.28	4987.68
431.47	5027.47
431.66	5013.43
431.85	5013.43
432.03	5090.67
432.22	5214.71
432.41	5020.45
432.60	5111.73
432.79	5039.17
432.97	5224.08
433.16	5193.65
433.35	5219.39
433.54	5156.20
433.72	5266.21
433.91	5359.83
434.10	5294.29
434.28	5303.65
434.47	5240.46
434.66	5467.49
434.85	5483.88
435.03	5643.03
435.22	5600.90
435.41	5650.05
435.59	5701.54
435.78	5729.63
435.97	5612.60
436.16	5624.31
436.34	5598.56
436.53	5736.65
436.72	5741.33
436.90	5392.59
437.09	5715.59
437.28	5696.86
437.46	5636.01
437.65	5743.67
437.84	5757.72
438.02	5837.30
438.21	5811.55
438.40	5743.67
438.58	5984.75
438.77	5909.85
438.96	5907.51
439.14	6069.01
439.33	6036.24
439.52	6132.20
439.70	6022.20
439.89	6190.72
440.08	6246.89
440.26	6202.42
440.45	6176.67
440.63	6277.32
440.82	6509.03
441.01	6438.81
441.19	6546.48
441.38	6452.86
441.57	6661.16
441.75	6527.75
441.94	6986.50
442.12	6715.00
442.31	6642.44
442.50	6839.05
442.68	6801.60
442.87	6607.33
443.05	6825.00
443.24	6951.39
443.43	6855.43
443.61	7056.72
443.80	7110.55
443.98	6862.45
444.17	6574.56
444.35	6977.14
444.54	7080.12
444.73	6920.96
444.91	7080.12
445.10	7061.40
445.28	7002.88
445.47	7150.34
445.65	6979.48
445.84	7236.94
446.02	7040.33
446.21	7152.68
446.39	6967.77
446.58	7019.27
446.77	7112.89
446.95	7054.37
447.14	7122.25
447.32	7384.39
447.51	7250.98
447.69	7171.40
447.88	7269.70
448.06	7112.89
448.25	7152.68
448.43	7265.02
448.62	7241.62
448.80	7218.21
448.99	7241.62
449.17	7396.09
449.36	7470.99
449.54	7506.10
449.73	7442.90
449.91	7541.21
450.10	7613.76
450.28	7625.47
450.46	7623.12
450.65	7726.11
450.83	7414.82
451.02	7616.10
451.20	7679.30
451.39	7669.94
451.57	7719.09
451.76	7597.38
451.94	7604.40
452.13	7885.26
452.31	7810.37
452.49	7791.64
452.68	7833.77
452.86	7943.78
453.05	7925.05
453.23	8028.04
453.42	7740.15
453.60	7936.76
453.78	8086.55
453.97	7927.39
454.15	7878.24
454.34	7934.42
454.52	8072.51
454.70	8009.31
454.89	8334.65
455.07	8203.58
455.26	8145.06
455.44	8290.18
455.62	8161.45
455.81	8271.45
455.99	8383.80
456.17	8435.29
456.36	8365.07
456.54	8500.83
456.73	8566.36
456.91	8528.91
457.09	8573.38
457.28	8912.76
457.46	8547.64
457.64	8741.90
457.83	8800.41
458.01	8613.17
458.19	8891.70
458.38	8844.88
458.56	8830.84
458.74	8945.53
458.93	8809.78
459.11	8978.30
459.29	8844.88
459.48	8919.78
459.66	8891.70
459.84	9067.24
460.03	9334.06
460.21	9078.94
460.39	9284.91
460.57	9128.09
460.76	8959.57
460.94	9481.51
461.12	9439.38
461.31	9221.71
461.49	9177.24
461.67	9369.16
461.85	9465.13
462.04	9430.02
462.22	9774.08
462.40	9727.27
462.59	9554.07
462.77	9518.96
462.95	9554.07
463.13	9710.88
463.32	9668.75
463.50	9762.37
463.68	9727.27
463.86	9757.69
464.05	9767.06
464.23	9776.42
464.41	10001.11
464.59	9717.90
464.78	10024.51
464.96	9731.95
465.14	9893.44
465.32	9853.66
465.50	9923.87
465.69	9891.10
465.87	10235.16
466.05	9921.53
466.23	9970.68
466.41	10190.69
466.60	10183.67
466.78	10080.69
466.96	10143.88
467.14	9909.83
467.32	10097.07
467.51	10148.56
467.69	9893.44
467.87	10267.93
468.05	10399.00
468.23	10202.40
468.41	10258.57
468.60	10448.15
468.78	10511.35
468.96	10389.64
469.14	10483.26
469.32	10642.42
469.50	10445.81
469.69	10670.50
469.87	10738.38
470.05	10808.59
470.23	10846.04
470.41	10824.98
470.59	10729.02
470.77	10820.30
470.95	11131.59
471.14	10972.43
471.32	10705.61
471.50	11164.36
471.68	11080.10
471.86	11154.99
472.04	11314.15
472.22	11463.94
472.40	11311.81
472.58	11248.61
472.77	11445.22
472.95	11501.39
473.13	12023.33
473.31	11583.31
473.49	11686.29
473.67	11562.25
473.85	11749.49
474.03	12025.67
474.21	11903.96
474.39	12051.42
474.57	11777.58
474.75	12088.87
474.93	12224.62
475.12	12145.04
475.30	12500.80
475.48	12299.52
475.66	12435.27
475.84	12432.93
476.02	12578.04
476.20	12479.74
476.38	12823.80
476.56	13116.36
476.74	12847.20
476.92	12886.99
477.10	12973.59
477.28	13107.00
477.46	13195.94
477.64	13209.98
477.82	13207.64
478.00	13586.81
478.18	13710.86
478.36	13785.76
478.54	13825.54
478.72	13708.52
478.90	14022.15
479.08	14263.22
479.26	14471.53
479.44	14551.11
479.62	14441.11
479.80	14728.99
479.98	14525.36
480.16	15122.20
480.34	14920.92
480.52	14927.94
480.70	14913.89
480.88	15110.50
481.06	15131.56
481.24	15480.30
481.41	15475.62
481.59	15625.42
481.77	15756.49
481.95	15763.51
482.13	15948.41
482.31	16100.55
482.49	16322.90
482.67	16367.37
482.85	16517.16
483.03	16685.68
483.21	16819.09
483.39	16933.78
483.57	16877.60
483.74	17015.69
483.92	17266.13
484.10	17174.85
484.28	17359.75
484.46	17696.79
484.64	18195.32
484.82	17657.00
485.00	18115.75
485.18	18307.67
485.35	18621.30
485.53	18696.20
485.71	18876.42
485.89	18892.80
486.07	18815.57
486.25	19014.51
486.43	18881.10
486.61	19122.18
486.78	19515.39
486.96	19468.58
487.14	20011.58
487.32	19976.47
487.50	20065.41
487.68	20201.16
487.85	20556.93
488.03	20671.61
488.21	20783.96
488.39	21041.42
488.57	20760.55
488.75	21111.63
488.92	21043.76
489.10	21350.37
489.28	21530.59
489.46	21865.28
489.64	21605.49
489.81	22307.65
489.99	21961.25
490.17	22075.93
490.35	22532.34
490.53	22941.93
490.70	23173.64
490.88	22892.78
491.06	23012.15
491.24	23215.77
491.41	23573.88
491.59	23894.53
491.77	23681.54
491.95	24154.33
492.13	24065.39
492.30	24219.86
492.48	24056.03
492.66	24357.96
492.84	24154.33
493.01	24678.61
493.19	25017.99
493.37	24812.02
493.54	25067.14
493.72	25418.22
493.90	25118.63
494.08	25586.74
494.25	25827.81
494.43	25628.87
494.61	26089.95
494.79	26026.76
494.96	26071.23
495.14	26373.16
495.32	26527.63
495.49	26696.15
495.67	26855.31
495.85	26923.18
496.02	26897.44
496.20	27283.62
496.38	27307.03
496.55	27243.84
496.73	28210.48
496.91	27494.27
497.09	27831.31
497.26	28126.22
497.44	27934.29
497.62	27915.57
497.79	28257.29
497.97	28671.56
498.14	28961.79
498.32	29090.52
498.50	28753.48
498.67	29345.64
498.85	28739.44
499.03	29376.06
499.20	28996.90
499.38	29364.36
499.56	29589.05
499.73	29923.75
499.91	29813.74
500.08	30155.46
500.26	29525.86
500.44	30164.82
500.61	30129.72
500.79	30171.85
500.97	30661.02
501.14	31159.55
501.32	30630.59
501.49	30731.23
501.67	30771.02
501.84	31033.16
502.02	31070.61
502.20	31395.95
502.37	31372.54
502.55	31407.65
502.72	31468.50
502.90	31967.04
503.07	31772.77
503.25	31868.73
503.43	31644.04
503.60	31960.02
503.78	31999.80
503.95	31906.18
504.13	32343.86
504.30	32411.74
504.48	32868.14
504.65	33464.98
504.83	33193.48
505.01	33280.08
505.18	32826.01
505.36	33523.49
505.53	33277.74
505.71	33425.19
505.88	33560.94
506.06	33542.22
506.23	33439.23
506.41	33535.20
506.58	33684.99
506.76	33902.66
506.93	34286.51
507.11	33905.00
507.28	34132.03
507.46	34478.43
507.63	34677.38
507.81	34520.56
507.98	34202.25
508.16	34424.60
508.33	34763.98
508.50	34820.15
508.68	35065.91
508.85	34906.75
509.03	34920.79
509.20	34918.45
509.38	35040.16
509.55	35480.18
509.73	35683.81
509.90	36114.47
510.08	35847.64
510.25	35585.50
510.42	35938.93
510.60	36247.88
510.77	36376.61
510.95	36196.38
511.12	36500.65
511.30	36713.64
511.47	36842.37
511.64	36762.79
511.82	36886.84
511.99	36528.74
512.17	36814.29
512.34	37083.45
512.51	37359.63
512.69	36863.44
512.86	37397.08
513.04	37392.40
513.21	37486.02
513.38	37546.87
513.56	37691.99
513.73	37567.94
513.90	38040.73
514.08	37823.06
514.25	38047.75
514.43	38478.41
514.60	38426.92
514.77	38689.06
514.95	38632.88
515.12	38293.50
515.29	38527.56
515.47	38513.52
515.64	39431.01
515.81	39042.48
515.99	38848.21
516.16	38939.49
516.33	38665.65
516.51	39051.84
516.68	39082.27
516.85	39821.87
517.03	39840.60
517.20	39292.91
517.37	39374.83
517.54	39419.30
517.72	39545.69
517.89	40161.25
518.06	40226.79
518.24	39924.86
518.41	39871.03
518.58	40133.17
518.75	40149.55
518.93	40133.17
519.10	40240.83
519.27	40575.53
519.45	40425.73
519.62	40914.90
519.79	40694.89
519.96	40891.50
520.14	40493.61
520.31	40561.48
520.48	40856.39
520.65	41200.45
520.83	41282.37
521.00	41324.50
521.17	41670.90
521.34	41235.56
521.52	41598.34
521.69	41226.20
521.86	42225.60
522.03	41963.46
522.20	42171.77
522.38	42480.72
522.55	42494.77
522.72	42234.97
522.89	42518.17
523.07	42658.60
523.24	42157.73
523.41	42583.71
523.58	42525.19
523.75	42855.21
523.92	42719.46
524.10	42845.85
524.27	43262.46
524.44	42899.68
524.61	43068.20
524.78	43175.86
524.96	43505.88
525.13	43180.54
525.30	43423.96
525.47	43643.97
525.64	43531.62
525.81	43871.00
525.98	43686.10
526.16	44013.77
526.33	44079.31
526.50	43831.21
526.67	43819.51
526.84	44051.22
527.01	44442.09
527.18	44287.62
527.36	44371.88
527.53	44285.28
527.70	44474.86
527.87	44481.88
528.04	44538.05
528.21	44884.45
528.38	44797.85
528.55	45181.70
528.72	44521.67
528.89	44582.52
529.07	44268.89
529.24	44285.28
529.41	45399.37
529.58	44992.12
529.75	44989.78
529.92	45347.88
530.09	45492.99
530.26	45226.17
530.43	45731.73
530.60	45254.26
530.77	44858.71
530.94	45787.90
531.11	45907.27
531.28	45422.78
531.46	45874.50
531.63	45691.94
531.80	45535.12
531.97	45617.04
532.14	46012.59
532.31	45762.15
532.48	45689.60
532.65	45991.53
532.82	46499.42
532.99	46087.49
533.16	45979.82
533.33	46403.46
533.50	46691.35
533.67	46408.14
533.84	46286.43
534.01	46726.46
534.18	46567.30
534.35	46887.95
534.52	46735.82
534.69	47054.13
534.86	47133.71
535.03	46450.27
535.20	46827.10
535.37	47182.86
535.54	47367.76
535.71	47021.36
535.88	47381.80
536.05	47117.32
536.22	47437.98
536.38	47206.26
536.55	47295.21
536.72	47707.14
536.89	47669.69
537.06	47466.06
537.23	48189.29
537.40	47775.02
537.57	47393.51
537.74	47976.30
537.91	48002.05
538.08	48023.11
538.25	47267.12
538.42	48168.22
538.59	48088.65
538.75	48144.82
538.92	48435.05
539.09	48299.30
539.26	47590.11
539.43	48193.97
539.60	48327.38
539.77	48605.91
539.94	48910.17
540.11	48809.53
540.28	48645.69
540.44	48886.77
540.61	48800.17
540.78	48648.03
540.95	48917.20
541.12	48540.37
541.29	49057.63
541.46	49069.33
541.62	48898.47
541.79	49169.97
541.96	48877.41
542.13	48839.96
542.30	49265.94
542.47	49020.18
542.63	49151.25
542.80	49296.36
542.97	49961.08
543.14	49893.20
543.31	50216.19
543.48	49645.10
543.64	49972.78
543.81	49755.11
543.98	49886.18
544.15	49731.70
544.32	50267.69
544.48	50499.40
544.65	49993.84
544.82	50099.17
544.99	49762.13
545.16	50309.82
545.32	50223.22
545.49	50330.88
545.66	50953.46
545.83	50803.67
546.00	51290.50
546.16	51056.45
546.33	50824.73
546.50	50522.80
546.67	50752.18
546.83	50033.63
547.00	50260.66
547.17	50106.19
547.34	50731.11
547.50	50684.30
547.67	51222.62
547.84	50986.23
548.00	51164.11
548.17	51339.65
548.34	50871.54
548.51	51257.73
548.67	51231.99
548.84	51215.60
549.01	51119.64
549.18	51058.79
549.34	51021.34
549.51	51187.52
549.68	51391.14
549.84	51175.81
550.01	51152.41
550.18	50787.28
550.34	50986.23
550.51	51416.89
550.68	51173.47
550.84	51140.71
551.01	51332.63
551.18	51650.94
551.34	51325.61
551.51	51449.66
551.68	51501.15
551.84	51374.76
552.01	51213.26
552.18	51597.11
552.34	51882.66
552.51	51915.42
552.68	51889.68
552.84	51650.94
553.01	52072.24
553.18	51760.95
553.34	51950.53
553.51	51901.38
553.67	51650.94
553.84	52023.09
554.01	52285.23
554.17	52184.58
554.34	52027.77
554.51	51910.74
554.67	52231.40
554.84	51849.89
555.00	51927.13
555.17	51910.74
555.33	51999.68
555.50	51854.57
555.67	52453.75
555.83	52353.10
556.00	52210.33
556.16	52622.26
556.33	52444.38
556.50	52128.41
556.66	52360.12
556.83	52210.33
556.99	52655.03
557.16	52561.41
557.32	52500.56
557.49	52727.59
557.65	52376.51
557.82	52612.90
557.98	52650.35
558.15	52481.83
558.32	52509.92
558.48	52346.08
558.65	52921.85
558.81	52648.01
558.98	52598.86
559.14	52779.08
559.31	52605.88
559.47	52727.59
559.64	52989.73
559.80	52680.78
559.97	52711.20
560.13	52790.78
560.30	52748.65
560.46	52945.26
560.63	53359.53
560.79	53200.38
560.96	53043.56
561.12	52914.83
561.29	53041.22
561.45	53020.16
561.61	53155.91
561.78	53155.91
561.94	53144.20
562.11	53373.58
562.27	53279.96
562.44	53031.86
562.60	53193.36
562.77	52966.32
562.93	53235.48
563.10	53439.11
563.26	53036.54
563.42	53404.00
563.59	53216.76
563.75	53244.85
563.92	53595.93
564.08	53553.80
564.24	53755.08
564.41	53584.22
564.57	52971.00
564.74	53085.69
564.90	53598.27
565.07	53509.33
565.23	53530.39
565.39	53895.52
565.56	53741.04
565.72	53595.93
565.88	53680.19
566.05	53815.94
566.21	53394.64
566.38	53284.64
566.54	53249.53
566.70	53616.99
566.87	53972.75
567.03	53565.50
567.19	54234.89
567.36	53862.75
567.52	53457.84
567.68	53638.06
567.85	53485.92
568.01	53790.19
568.17	53553.80
568.34	53680.19
568.50	53614.65
568.66	53874.45
568.83	53794.87
568.99	53815.94
569.15	53787.85
569.32	53750.40
569.48	53249.53
569.64	53860.41
569.81	53605.29
569.97	53441.45
570.13	53904.88
570.30	53570.18
570.46	53879.13
570.62	53902.54
570.78	53778.49
570.95	53553.80
571.11	54052.33
571.27	53294.00
571.43	53511.67
571.60	53670.82
571.76	54134.25
571.92	53710.61
572.09	53944.67
572.25	53986.80
572.41	54120.21
572.57	53876.79
572.74	53846.36
572.90	53918.92
573.06	54071.06
573.22	53696.57
573.38	54085.10
573.55	54150.63
573.71	54134.25
573.87	53937.65
574.03	54148.29
574.20	54227.87
574.36	53942.33
574.52	53900.20
574.68	53886.15
574.84	54195.10
575.01	54262.98
575.17	54192.76
575.33	54358.94
575.49	54019.56
575.65	54216.17
575.82	54108.50
575.98	53748.06
576.14	54628.10
576.30	54396.39
576.46	54066.38
576.62	54134.25
576.79	54148.29
576.95	54089.78
577.11	54148.29
577.27	54262.98
577.43	54380.01
577.59	54291.07
577.75	54206.81
577.92	54174.04
578.08	54057.01
578.24	54127.23
578.40	54389.37
578.56	54167.02
578.72	54284.04
578.88	54686.62
579.04	54651.51
579.21	54363.62
579.37	54363.62
579.53	54192.76
579.69	54174.04
579.85	54288.73
580.01	54382.35
580.17	54632.78
580.33	54319.15
580.49	54468.95
580.65	54508.74
580.82	54298.09
580.98	54354.26
581.14	54218.51
581.30	54052.33
581.46	54328.52
581.62	54230.21
581.78	54230.21
581.94	54293.41
582.10	54438.52
582.26	54461.93
582.42	54686.62
582.58	54412.77
582.74	54522.78
582.90	54714.70
583.06	54382.35
583.22	54211.49
583.38	54384.69
583.54	54071.06
583.70	54693.64
583.86	54487.67
584.02	54150.63
584.18	54436.18
584.34	54466.61
584.50	54759.17
584.66	54241.92
584.82	54312.13
584.98	54520.44
585.14	54522.78
585.30	54202.13
585.46	54614.06
585.62	54216.17
585.78	54293.41
585.94	54174.04
586.10	54482.99
586.26	54244.26
586.42	54710.02
586.58	54351.92
586.74	54747.47
586.90	54335.54
587.06	54553.21
587.22	54642.15
587.38	54424.48
587.54	54801.30
587.70	54983.86
587.86	54621.08
588.02	54515.76
588.18	54571.93
588.34	54738.11
588.49	54838.75
588.65	54478.31
