SpectraSuite Data File
++++++++++++++++++++++++++++++++++++
Date: Thu Oct 24 13:21:29 EDT 2013
User: stostad
Dark Spectrum Present: No
Reference Spectrum Present: No
Number of Sampled Component Spectra: 1
Spectrometers: USB2+H05261
Integration Time (usec): 100000 (USB2+H05261)
Spectra Averaged: 1 (USB2+H05261)
Boxcar Smoothing: 0 (USB2+H05261)
Correct for Electrical Dark: No (USB2+H05261)
Strobe/Lamp Enabled: No (USB2+H05261)
Correct for Detector Non-linearity: No (USB2+H05261)
Correct for Stray Light: No (USB2+H05261)
Number of Pixels in Processed Spectrum: 2048
>>>>>Begin Processed Spectral Data<<<<<
365.73	550.03
365.92	550.03
366.12	550.03
366.32	519.60
366.52	531.30
366.72	479.81
366.91	498.53
367.11	425.98
367.31	477.47
367.51	440.02
367.70	472.79
367.90	465.77
368.10	517.26
368.30	510.24
368.49	442.36
368.69	435.34
368.89	454.06
369.09	505.56
369.28	505.56
369.48	543.00
369.68	554.71
369.87	451.72
370.07	561.73
370.27	554.71
370.47	725.57
370.66	1025.15
370.86	1041.54
371.06	1071.97
371.25	1139.84
371.45	1062.60
371.65	1111.75
371.84	1186.65
372.04	1116.44
372.24	1158.57
372.44	1170.27
372.63	1153.88
372.83	1163.25
373.03	1181.97
373.22	1130.48
373.42	1242.82
373.62	1207.72
373.81	1299.00
374.01	1268.57
374.21	1287.29
374.40	1142.18
374.60	1308.36
374.79	1254.53
374.99	1245.16
375.19	1224.10
375.38	1249.85
375.58	1301.34
375.78	1324.74
375.97	1341.13
376.17	1348.15
376.37	1390.28
376.56	1355.17
376.76	1343.47
376.95	1371.55
377.15	1327.08
377.35	1376.24
377.54	1404.32
377.74	1394.96
377.93	1385.60
378.13	1341.13
378.33	1420.71
378.52	1348.15
378.72	1399.64
378.91	1439.43
379.11	1453.47
379.31	1483.90
379.50	1434.75
379.70	1460.49
379.89	1469.86
380.09	1497.94
380.28	1416.02
380.48	1523.69
380.68	1401.98
380.87	1526.03
381.07	1554.12
381.26	1537.73
381.46	1500.28
381.65	1547.09
381.85	1551.78
382.04	1533.05
382.24	1533.05
382.43	1575.18
382.63	1563.48
382.83	1551.78
383.02	1626.67
383.22	1720.29
383.41	1659.44
383.61	1575.18
383.80	1715.61
384.00	1727.32
384.19	1643.06
384.39	1638.38
384.58	1703.91
384.78	1753.06
384.97	1605.61
385.17	1633.69
385.36	1746.04
385.56	1769.44
385.75	1762.42
385.95	1748.38
386.14	1619.65
386.34	1788.17
386.53	1769.44
386.72	1715.61
386.92	1905.20
387.11	1767.10
387.31	1825.62
387.50	1696.89
387.70	1818.60
387.89	1842.00
388.09	1858.39
388.28	1827.96
388.48	1928.60
388.67	1865.41
388.86	1881.79
389.06	1956.69
389.25	1907.54
389.45	1928.60
389.64	1956.69
389.84	1994.14
390.03	1933.28
390.22	1952.01
390.42	1839.66
390.61	1933.28
390.81	2003.50
391.00	1994.14
391.19	2054.99
391.39	1959.03
391.58	2108.82
391.78	1998.82
391.97	2033.93
392.16	2136.91
392.36	2120.53
392.55	2099.46
392.75	2097.12
392.94	2111.16
393.13	2141.59
393.33	2179.04
393.52	2172.02
393.71	2307.77
393.91	2190.74
394.10	2200.10
394.29	2345.22
394.49	2181.38
394.68	2249.25
394.88	2340.54
395.07	2225.85
395.26	2293.72
395.46	2429.48
395.65	2298.41
395.84	2406.07
396.04	2544.16
396.23	2342.88
396.42	2394.37
396.62	2354.58
396.81	2471.61
397.00	2504.37
397.19	2480.97
397.39	2602.68
397.58	2504.37
397.77	2485.65
397.97	2590.97
398.16	2478.63
398.35	2548.84
398.55	2672.89
398.74	2530.12
398.93	2729.06
399.12	2708.00
399.32	2682.25
399.51	2757.15
399.70	2717.36
399.90	2607.36
400.09	2710.34
400.28	2710.34
400.47	2801.62
400.67	2719.70
400.86	2867.16
401.05	2822.69
401.24	2733.75
401.44	2892.90
401.63	2883.54
401.82	3047.38
402.01	2902.26
402.21	2871.84
402.40	2984.18
402.59	2843.75
402.78	3035.67
402.97	3061.42
403.17	2993.55
403.36	3038.02
403.55	3110.57
403.74	3129.30
403.93	3110.57
404.13	3075.46
404.32	3148.02
404.51	3243.98
404.70	3183.13
404.89	3185.47
405.09	3192.49
405.28	3234.62
405.47	3316.54
405.66	3384.41
405.85	3279.09
406.05	3433.57
406.24	3337.60
406.43	3461.65
406.62	3515.48
406.81	3522.51
407.00	3384.41
407.20	3386.76
407.39	3351.65
407.58	3564.64
407.77	3520.17
407.96	3592.72
408.15	3648.90
408.34	3618.47
408.54	3721.45
408.73	3758.90
408.92	3751.88
409.11	3634.85
409.30	3627.83
409.49	3803.37
409.68	3777.62
409.87	3768.26
410.07	3854.86
410.26	3775.28
410.45	3831.46
410.64	3892.31
410.83	3927.42
411.02	3962.53
411.21	4161.47
411.40	4142.75
411.59	4133.39
411.78	4208.28
411.98	4156.79
412.17	4156.79
412.36	4320.63
412.55	4320.63
412.74	4311.27
412.93	4322.97
413.12	4287.86
413.31	4393.19
413.50	4327.65
413.69	4353.40
413.88	4468.08
414.07	4655.33
414.26	4643.62
414.45	4798.10
414.64	4634.26
414.83	4800.44
415.02	4784.06
415.22	4994.70
415.41	4840.23
415.60	4999.38
415.79	4847.25
415.98	5004.07
416.17	5160.88
416.36	4894.06
416.55	5069.60
416.74	5111.73
416.93	5184.29
417.12	5149.18
417.31	5275.57
417.50	5181.95
417.69	5455.79
417.88	5509.62
418.07	5210.03
418.26	5378.55
418.45	5376.21
418.64	5579.84
418.83	5544.73
419.02	5511.96
419.21	5636.01
419.39	5593.88
419.58	5657.07
419.77	5685.16
419.96	5591.54
420.15	5511.96
420.34	5593.88
420.53	5790.49
420.72	5905.17
420.91	5893.47
421.10	5959.00
421.29	5865.38
421.48	6022.20
421.67	5813.89
421.86	5933.26
422.05	5820.91
422.24	5984.75
422.43	6019.86
422.61	6150.93
422.80	6188.38
422.99	6111.14
423.18	6031.56
423.37	6118.16
423.56	6118.16
423.75	5987.09
423.94	6031.56
424.13	5774.10
424.32	5921.56
424.50	5998.79
424.69	6253.91
424.88	6300.72
425.07	6188.38
425.26	6104.12
425.45	6167.31
425.64	6132.20
425.83	6076.03
426.01	6218.80
426.20	6188.38
426.39	6197.74
426.58	6143.91
426.77	6293.70
426.96	6361.58
427.15	6370.94
427.33	6462.22
427.52	6204.76
427.71	6546.48
427.90	6441.15
428.09	6541.80
428.28	6731.38
428.46	6682.23
428.65	6516.05
428.84	6808.62
429.03	6705.63
429.22	6836.70
429.40	6792.23
429.59	6703.29
429.78	6457.54
429.97	6565.20
430.16	6686.91
430.34	6977.14
430.53	6958.41
430.72	6974.80
430.91	6766.49
431.10	6977.14
431.28	7077.78
431.47	7049.69
431.66	7091.82
431.85	7080.12
432.03	7206.51
432.22	7258.00
432.41	7260.34
432.60	7176.08
432.79	7370.35
432.97	7318.86
433.16	7321.20
433.35	7068.42
433.54	7480.35
433.72	7566.95
433.91	7606.74
434.10	7592.70
434.28	7445.24
434.47	7510.78
434.66	7641.85
434.85	7583.34
435.03	7868.88
435.22	7882.92
435.41	8077.19
435.59	8060.80
435.78	8013.99
435.97	7864.20
436.16	7971.86
436.34	8018.68
436.53	7885.26
436.72	8058.46
436.90	7976.55
437.09	8009.31
437.28	7957.82
437.46	8088.89
437.65	8170.81
437.84	8201.24
438.02	8131.02
438.21	8238.69
438.40	7971.86
438.58	8344.01
438.77	8397.84
438.96	8491.46
439.14	8645.94
439.33	8697.43
439.52	8784.03
439.70	8596.79
439.89	8854.25
440.08	8933.82
440.26	9001.70
440.45	8980.64
440.63	9006.38
440.82	9224.05
441.01	8994.68
441.19	9188.94
441.38	9397.25
441.57	9214.69
441.75	9338.74
441.94	9614.92
442.12	9657.05
442.31	9757.69
442.50	9612.58
442.68	9596.20
442.87	9834.93
443.05	9720.24
443.24	10038.56
443.43	9902.81
443.61	10122.82
443.80	10113.45
443.98	9877.06
444.17	9413.63
444.35	9874.72
444.54	9951.96
444.73	10120.48
444.91	10064.30
445.10	10122.82
445.28	10064.30
445.47	10047.92
445.65	10038.56
445.84	10328.78
446.02	10162.61
446.21	10312.40
446.39	10083.03
446.58	10361.55
446.77	10115.80
446.95	9895.78
447.14	10155.58
447.32	10380.28
447.51	10415.38
447.69	10087.71
447.88	10244.52
448.06	10354.53
448.25	10354.53
448.43	10331.12
448.62	10237.50
448.80	10253.89
448.99	10326.44
449.17	10516.03
449.36	10457.51
449.54	10565.18
449.73	10684.55
449.91	10974.77
450.10	10909.24
450.28	10871.79
450.46	10876.47
450.65	10796.89
450.83	10869.45
451.02	10920.94
451.20	11021.58
451.39	11197.12
451.57	11056.69
451.76	10944.34
451.94	11241.59
452.13	11438.20
452.31	11021.58
452.49	11232.23
452.68	11152.65
452.86	11382.03
453.05	11552.88
453.23	11335.21
453.42	11239.25
453.60	11180.74
453.78	11449.90
453.97	11309.47
454.15	11508.41
454.34	11325.85
454.52	11686.29
454.70	11475.65
454.89	11751.83
455.07	11796.30
455.26	11796.30
455.44	11927.37
455.62	12051.42
455.81	11805.66
455.99	12140.36
456.17	11941.41
456.36	12088.87
456.54	12334.62
456.73	12313.56
456.91	12706.77
457.09	12236.32
457.28	12524.21
457.46	12166.10
457.64	12582.72
457.83	12414.20
458.01	12519.53
458.19	12837.84
458.38	12727.83
458.56	12786.35
458.74	13083.59
458.93	12896.35
459.11	12886.99
459.29	12795.71
459.48	13153.81
459.66	12903.37
459.84	13064.87
460.03	13301.26
460.21	13151.47
460.39	13221.69
460.57	12959.55
460.76	13219.35
460.94	13481.49
461.12	13343.39
461.31	13343.39
461.49	13362.12
461.67	13703.84
461.85	13610.22
462.04	13549.36
462.22	13940.23
462.40	13839.59
462.59	13923.85
462.77	13877.04
462.95	14026.83
463.13	13776.39
463.32	14033.85
463.50	14225.78
463.68	14080.66
463.86	14401.32
464.05	14003.43
464.23	14106.41
464.41	14256.20
464.59	13764.69
464.78	14544.09
464.96	14466.85
465.14	14160.24
465.32	14394.29
465.50	14544.09
465.69	14736.01
465.87	14719.63
466.05	14551.11
466.23	14752.40
466.41	14747.72
466.60	14974.75
466.78	14361.53
466.96	14581.54
467.14	14780.48
467.32	14965.39
467.51	15183.06
467.69	14867.08
467.87	14923.26
468.05	15084.75
468.23	15016.88
468.41	15194.76
468.60	15051.99
468.78	15328.17
468.96	15183.06
469.14	15597.33
469.32	15630.10
469.50	15105.82
469.69	15379.66
469.87	15510.73
470.05	15646.48
470.23	15836.06
470.41	15749.46
470.59	15756.49
470.77	15704.99
470.95	15793.94
471.14	16219.91
471.32	15646.48
471.50	16486.73
471.68	16182.46
471.86	16496.10
472.04	16465.67
472.22	16954.84
472.40	16531.20
472.58	16538.23
472.77	16863.56
472.95	16922.07
473.13	17568.06
473.31	16442.26
473.49	17088.25
473.67	16800.37
473.85	17310.60
474.03	17626.57
474.21	17294.22
474.39	17804.46
474.57	17551.68
474.75	17729.56
474.93	18052.55
475.12	18054.89
475.30	17867.65
475.48	17731.90
475.66	18104.04
475.84	18251.50
476.02	18515.98
476.20	18581.51
476.38	18682.16
476.56	19213.46
476.74	18892.80
476.92	18937.27
477.10	19295.38
477.28	19466.24
477.46	19555.18
477.64	19456.87
477.82	19957.75
478.00	20231.59
478.18	19950.73
478.36	20191.80
478.54	20273.72
478.72	20650.55
478.90	20697.36
479.08	20896.30
479.26	21195.89
479.44	20826.09
479.62	21434.63
479.80	21638.25
479.98	21764.64
480.16	22380.20
480.34	21741.24
480.52	22656.39
480.70	22370.84
480.88	22326.37
481.06	22342.75
481.24	22501.91
481.41	22750.01
481.59	23150.24
481.77	23140.88
481.95	23232.16
482.13	23740.05
482.31	23506.00
482.49	23936.66
482.67	24166.03
482.85	24240.93
483.03	24641.16
483.21	24580.31
483.39	25319.92
483.57	25064.80
483.74	25027.35
483.92	25359.70
484.10	25493.12
484.28	26333.37
484.46	26389.54
484.64	26504.23
484.82	26401.24
485.00	26808.50
485.18	27407.67
485.35	27428.74
485.53	27445.12
485.71	27843.01
485.89	28287.71
486.07	27810.25
486.25	28030.26
486.43	28027.92
486.61	28453.89
486.78	28699.65
486.96	28882.21
487.14	29453.30
487.32	29310.53
487.50	29083.50
487.68	29975.24
487.85	30405.90
488.03	30609.53
488.21	31019.12
488.39	30574.42
488.57	31328.07
488.75	31131.47
488.92	31105.72
489.10	31840.65
489.28	32098.11
489.46	32411.74
489.64	31789.16
489.81	32390.67
489.99	32643.45
490.17	33137.30
490.35	33130.28
490.53	33584.35
490.70	34012.66
490.88	33830.10
491.06	34190.55
491.24	34323.96
491.41	34494.82
491.59	35204.00
491.77	34983.99
491.95	35168.89
492.13	35267.19
492.30	35611.25
492.48	35700.19
492.66	35892.12
492.84	35952.97
493.01	36720.66
493.19	36514.70
493.37	36814.29
493.54	36837.69
493.72	37130.26
493.90	37528.15
494.08	37308.14
494.25	38480.75
494.43	38005.62
494.61	38319.25
494.79	38323.93
494.96	38122.65
495.14	38593.09
495.32	38927.79
495.49	39306.96
495.67	39526.97
495.85	39648.68
496.02	40289.98
496.20	40247.85
496.38	40187.00
496.55	40250.19
496.73	41076.40
496.91	40671.49
497.09	40973.42
497.26	41488.34
497.44	41385.35
497.62	41787.92
497.79	41916.65
497.97	41565.57
498.14	42813.08
498.32	42574.34
498.50	42756.91
498.67	43302.25
498.85	42801.38
499.03	43346.72
499.20	43496.52
499.38	43320.98
499.56	43782.06
499.73	43522.26
499.91	44381.24
500.08	44547.42
500.26	44179.95
500.44	44460.82
500.61	44753.38
500.79	44811.90
500.97	44622.31
501.14	45354.90
501.32	44961.69
501.49	45088.08
501.67	45233.19
501.84	45811.31
502.02	46211.54
502.20	45855.78
502.37	46499.42
502.55	45724.71
502.72	45961.10
502.90	45979.82
503.07	46160.05
503.25	46616.45
503.43	46181.11
503.60	46894.97
503.78	47124.35
503.95	46799.01
504.13	47122.01
504.30	47662.67
504.48	47508.19
504.65	47885.02
504.83	48102.69
505.01	48247.80
505.18	47985.66
505.36	48280.57
505.53	48076.94
505.71	48575.48
505.88	48306.32
506.06	48736.98
506.23	49099.76
506.41	48549.73
506.58	48781.45
506.76	49221.47
506.93	49631.06
507.11	49247.21
507.28	49670.85
507.46	49546.80
507.63	49904.90
507.81	50071.08
507.98	49488.29
508.16	49565.52
508.33	50099.17
508.50	50394.07
508.68	50536.85
508.85	50773.24
509.03	50614.08
509.20	50728.77
509.38	50756.86
509.55	51105.60
509.73	51339.65
509.90	51320.93
510.08	51349.01
510.25	51505.83
510.42	51587.75
510.60	51721.16
510.77	51772.65
510.95	51990.32
511.12	51807.76
511.30	51742.22
511.47	52275.87
511.64	52184.58
511.82	52233.74
511.99	51784.35
512.17	52526.30
512.34	52416.30
512.51	52823.55
512.69	52933.56
512.86	52816.53
513.04	53064.63
513.21	52872.70
513.38	53062.29
513.56	52971.00
513.73	53104.41
513.90	53563.16
514.08	53207.40
514.25	53677.85
514.43	53652.10
514.60	53591.25
514.77	53769.13
514.95	53673.16
515.12	53647.42
515.29	54131.91
515.47	54262.98
515.64	54450.22
515.81	54181.06
515.99	54199.79
516.16	54344.90
516.33	54164.68
516.51	54557.89
516.68	54686.62
516.85	54787.26
517.03	54698.32
517.20	54611.72
517.37	54761.51
517.54	54688.96
517.72	54724.07
517.89	54972.16
518.06	55096.21
518.24	55325.58
518.41	55175.79
518.58	55421.55
518.75	54836.41
518.93	55128.98
519.10	55402.82
519.27	55536.23
519.45	55374.73
519.62	55533.89
519.79	55531.55
519.96	55784.33
520.14	55863.91
520.31	55737.52
520.48	55725.81
520.65	55716.45
520.83	56154.13
521.00	56287.54
521.17	56315.63
521.34	56364.78
521.52	56332.01
521.69	56282.86
521.86	56355.42
522.03	56406.91
522.20	56353.08
522.38	56781.40
522.55	56891.40
522.72	56603.52
522.89	56633.94
523.07	56910.13
523.24	56802.46
523.41	56938.21
523.58	56891.40
523.75	57165.24
523.92	57198.01
524.10	57214.40
524.27	57286.95
524.44	57411.00
524.61	57284.61
524.78	57336.10
524.96	57254.18
525.13	57251.84
525.30	57663.78
525.47	57888.47
525.64	57834.64
525.81	57923.58
525.98	57659.10
526.16	57745.70
526.33	57719.95
526.50	58326.15
526.67	58026.56
526.84	58293.38
527.01	57935.28
527.18	58082.73
527.36	58099.12
527.53	58012.52
527.70	58506.37
527.87	58174.02
528.04	58482.97
528.21	58485.31
528.38	58525.10
528.55	58553.18
528.72	58534.46
528.89	58452.54
529.07	58384.66
529.24	58548.50
529.41	58836.39
529.58	58930.01
529.75	58798.94
529.92	58707.66
530.09	58880.86
530.26	58667.87
530.43	58894.90
530.60	58841.07
530.77	58787.24
530.94	59229.60
531.11	59082.14
531.28	59128.95
531.46	59206.19
531.63	59267.05
531.80	59494.08
531.97	59159.38
532.14	59501.10
532.31	59234.28
532.48	59402.80
532.65	59386.41
532.82	59388.75
532.99	59377.05
533.16	59437.90
533.33	59657.91
533.50	59702.38
533.67	59742.17
533.84	59444.93
534.01	59517.48
534.18	59760.90
534.35	60133.04
534.52	59814.73
534.69	59992.61
534.86	59859.20
535.03	59838.14
535.20	60006.65
535.37	60207.94
535.54	60580.09
535.71	59959.84
535.88	60238.37
536.05	60240.71
536.22	60252.41
536.38	60182.19
536.55	60168.15
536.72	60434.97
536.89	60315.61
537.06	60456.04
537.23	60647.96
537.40	60495.83
537.57	60638.60
537.74	60561.36
537.91	60615.19
538.08	60341.35
538.25	60477.10
538.42	60603.49
538.59	60900.74
538.75	60617.53
538.92	60711.16
539.09	61001.38
539.26	60530.93
539.43	60673.71
539.60	60926.49
539.77	60776.69
539.94	61134.79
540.11	60874.99
540.28	61113.73
540.44	61141.81
540.61	61080.96
540.78	60996.70
540.95	61312.67
541.12	61139.47
541.29	61258.84
541.46	61167.56
541.62	61446.08
541.79	61556.09
541.96	61289.27
542.13	61233.10
542.30	61591.20
542.47	61556.09
542.63	61553.75
542.80	61600.56
542.97	61673.12
543.14	62108.46
543.31	61855.68
543.48	61879.08
543.64	61904.83
543.81	61958.66
543.98	61911.85
544.15	61900.15
544.32	62019.52
544.48	62145.90
544.65	62159.95
544.82	62199.74
544.99	62012.49
545.16	62279.31
545.32	62085.05
545.49	62468.90
545.66	62309.74
545.83	62375.28
546.00	62527.41
546.16	62447.83
546.33	62525.07
546.50	62253.57
546.67	62361.23
546.83	61996.11
547.00	62365.91
547.17	62216.12
547.34	62323.78
547.50	62396.34
547.67	62663.16
547.84	62557.84
548.00	62651.46
548.17	62976.79
548.34	62567.20
548.51	62642.10
548.67	62543.80
548.84	62667.84
549.01	62436.13
549.18	62663.16
549.34	62761.47
549.51	62812.96
549.68	62822.32
549.84	62827.00
550.01	62599.97
550.18	62518.05
550.34	62934.66
550.51	62791.89
550.68	62951.05
550.84	62621.03
551.01	63100.84
551.18	62752.10
551.34	62742.74
551.51	62988.50
551.68	63140.63
551.84	62986.16
552.01	62937.01
552.18	63110.20
552.34	62929.98
552.51	63210.85
552.68	63110.20
552.84	63288.09
553.01	63395.75
553.18	63126.59
553.34	63365.32
553.51	63061.05
553.67	63229.57
553.84	63627.46
554.01	63564.27
554.17	63412.13
554.34	63543.20
554.51	63489.37
554.67	63671.93
554.84	63557.25
555.00	63297.45
555.17	63414.47
555.33	63636.83
555.50	63508.10
555.67	63494.05
555.83	63374.69
556.00	63650.87
556.16	63763.21
556.33	63700.02
556.50	63608.74
556.66	63557.25
556.83	63604.06
556.99	63681.30
557.16	63922.37
557.32	63983.22
557.49	64067.48
557.65	63784.28
557.82	63842.79
557.98	63934.07
558.15	63800.66
558.32	64018.33
558.48	63753.85
558.65	63966.84
558.81	64090.89
558.98	63964.50
559.14	64025.35
559.31	64006.63
559.47	63983.22
559.64	64039.40
559.80	64140.04
559.97	64067.48
560.13	63852.15
560.30	64081.53
560.46	64226.64
560.63	64184.51
560.79	64207.92
560.96	64250.05
561.12	64140.04
561.29	64196.21
561.45	64032.38
561.61	64123.66
561.78	64273.45
561.94	64423.25
562.11	64369.41
562.27	64474.74
562.44	64224.30
562.60	64423.25
562.77	64418.56
562.93	64282.81
563.10	64446.65
563.26	64207.92
563.42	64484.10
563.59	64367.07
563.75	64521.55
563.92	64631.55
564.08	64472.40
564.24	64626.87
564.41	64264.09
564.57	64432.61
564.74	64273.45
564.90	64535.59
565.07	64587.08
565.23	64776.67
565.39	64584.74
565.56	64725.17
565.72	64622.19
565.88	64594.10
566.05	64458.35
566.21	64500.48
566.38	64498.14
566.54	64498.14
566.70	64746.24
566.87	64884.33
567.03	64790.71
567.19	64910.08
567.36	64863.27
567.52	64629.21
567.68	64701.77
567.85	64643.26
568.01	64654.96
568.17	64699.43
568.34	64633.89
568.50	64725.17
568.66	64657.30
568.83	64963.91
568.99	64896.03
569.15	64846.88
569.32	64771.99
569.48	64416.22
569.64	64914.76
569.81	64764.96
569.97	64718.15
570.13	64795.39
570.30	64807.09
570.46	64893.69
570.62	64877.31
570.78	64774.33
570.95	64680.70
571.11	65181.58
571.27	64650.28
571.43	64666.66
571.60	64999.02
571.76	64699.43
571.92	65029.44
572.09	65013.06
572.25	65151.15
572.41	64992.00
572.57	64935.82
572.74	64984.97
572.90	65094.98
573.06	64942.84
573.22	64884.33
573.38	65186.26
573.55	65003.70
573.71	65251.80
573.87	65153.49
574.03	64977.95
574.20	65139.45
574.36	64994.34
574.52	65010.72
574.68	64989.66
574.84	65169.88
575.01	65216.69
575.17	65289.24
575.33	64949.87
575.49	65148.81
575.65	65158.17
575.82	65183.92
575.98	65027.10
576.14	65396.91
576.30	65158.17
576.46	65083.28
576.62	65001.36
576.79	65127.75
576.95	64984.97
577.11	65240.09
577.27	65254.14
577.43	65162.85
577.59	65240.09
577.75	65277.54
577.92	65013.06
578.08	65034.13
578.24	65109.02
578.40	65240.09
578.56	65406.27
578.72	65347.76
578.88	65310.31
579.04	65518.62
579.21	65223.71
579.37	65338.40
579.53	65373.50
579.69	65017.74
579.85	65188.60
580.01	65249.45
580.17	65148.81
580.33	65130.09
580.49	65179.24
580.65	65188.60
580.82	65378.18
580.98	65382.87
581.14	65375.84
581.30	65310.31
581.46	65202.64
581.62	65233.07
581.78	65153.49
581.94	65535.00
582.10	65336.05
582.26	65347.76
582.42	65371.16
582.58	65392.23
582.74	65535.00
582.90	65455.42
583.06	65322.01
583.22	65214.35
583.38	65197.96
583.54	65345.42
583.70	65167.54
583.86	65127.75
584.02	65378.18
584.18	65535.00
584.34	65319.67
584.50	65401.59
584.66	65509.25
584.82	65392.23
584.98	65481.17
585.14	65359.46
585.30	65329.03
585.46	65364.14
585.62	65366.48
585.78	65432.02
585.94	65535.00
586.10	65368.82
586.26	65286.90
586.42	65535.00
586.58	65525.64
586.74	65403.93
586.90	65314.99
587.06	65406.27
587.22	65535.00
587.38	65434.36
