SpectraSuite Data File
++++++++++++++++++++++++++++++++++++
Date: Thu Oct 24 13:21:00 EDT 2013
User: stostad
Dark Spectrum Present: No
Reference Spectrum Present: No
Number of Sampled Component Spectra: 1
Spectrometers: USB2+H05261
Integration Time (usec): 100000 (USB2+H05261)
Spectra Averaged: 1 (USB2+H05261)
Boxcar Smoothing: 0 (USB2+H05261)
Correct for Electrical Dark: No (USB2+H05261)
Strobe/Lamp Enabled: No (USB2+H05261)
Correct for Detector Non-linearity: No (USB2+H05261)
Correct for Stray Light: No (USB2+H05261)
Number of Pixels in Processed Spectrum: 2048
>>>>>Begin Processed Spectral Data<<<<<
365.73	533.64
365.92	533.64
366.12	533.64
366.32	484.49
366.52	482.15
366.72	458.74
366.91	468.11
367.11	456.40
367.31	442.36
367.51	461.09
367.70	475.13
367.90	458.74
368.10	458.74
368.30	372.15
368.49	395.55
368.69	498.53
368.89	493.85
369.09	451.72
369.28	533.64
369.48	454.06
369.68	500.87
369.87	489.17
370.07	482.15
370.27	559.39
370.47	559.39
370.66	582.79
370.86	631.94
371.06	587.47
371.25	573.43
371.45	589.82
371.65	610.88
371.84	578.11
372.04	550.03
372.24	550.03
372.44	620.24
372.63	718.54
372.83	589.82
373.03	699.82
373.22	615.56
373.42	699.82
373.62	620.24
373.81	674.07
374.01	634.29
374.21	638.97
374.40	606.20
374.60	610.88
374.79	667.05
374.99	624.92
375.19	599.18
375.38	613.22
375.58	571.09
375.78	678.76
375.97	706.84
376.17	688.12
376.37	655.35
376.56	585.13
376.76	676.41
376.95	613.22
377.15	638.97
377.35	585.13
377.54	594.50
377.74	629.60
377.93	662.37
378.13	641.31
378.33	688.12
378.52	648.33
378.72	634.29
378.91	620.24
379.11	575.77
379.31	589.82
379.50	641.31
379.70	685.78
379.89	603.86
380.09	664.71
380.28	660.03
380.48	615.56
380.68	601.52
380.87	615.56
381.07	613.22
381.26	671.73
381.46	613.22
381.65	631.94
381.85	547.69
382.04	615.56
382.24	622.58
382.43	613.22
382.63	634.29
382.83	629.60
383.02	634.29
383.22	648.33
383.41	599.18
383.61	624.92
383.80	615.56
384.00	568.75
384.19	664.71
384.39	627.26
384.58	641.31
384.78	676.41
384.97	641.31
385.17	685.78
385.36	638.97
385.56	634.29
385.75	613.22
385.95	575.77
386.14	573.43
386.34	599.18
386.53	636.63
386.72	608.54
386.92	631.94
387.11	631.94
387.31	641.31
387.50	627.26
387.70	664.71
387.89	662.37
388.09	692.80
388.28	575.77
388.48	669.39
388.67	636.63
388.86	641.31
389.06	613.22
389.25	653.01
389.45	655.35
389.64	592.16
389.84	622.58
390.03	667.05
390.22	566.41
390.42	617.90
390.61	662.37
390.81	634.29
391.00	638.97
391.19	610.88
391.39	519.60
391.58	587.47
391.78	641.31
391.97	669.39
392.16	622.58
392.36	634.29
392.55	674.07
392.75	573.43
392.94	589.82
393.13	587.47
393.33	587.47
393.52	601.52
393.71	645.99
393.91	587.47
394.10	627.26
394.29	613.22
394.49	641.31
394.68	608.54
394.88	704.50
395.07	589.82
395.26	653.01
395.46	564.07
395.65	582.79
395.84	638.97
396.04	671.73
396.23	697.48
396.42	582.79
396.62	653.01
396.81	636.63
397.00	545.34
397.19	554.71
397.39	557.05
397.58	676.41
397.77	608.54
397.97	704.50
398.16	634.29
398.35	662.37
398.55	641.31
398.74	599.18
398.93	683.44
399.12	643.65
399.32	587.47
399.51	620.24
399.70	662.37
399.90	650.67
400.09	608.54
400.28	704.50
400.47	617.90
400.67	648.33
400.86	566.41
401.05	636.63
401.24	641.31
401.44	627.26
401.63	617.90
401.82	634.29
402.01	599.18
402.21	571.09
402.40	636.63
402.59	617.90
402.78	650.67
402.97	624.92
403.17	634.29
403.36	631.94
403.55	610.88
403.74	660.03
403.93	676.41
404.13	732.59
404.32	669.39
404.51	641.31
404.70	641.31
404.89	662.37
405.09	674.07
405.28	627.26
405.47	606.20
405.66	552.37
405.85	603.86
406.05	643.65
406.24	559.39
406.43	650.67
406.62	596.84
406.81	667.05
407.00	627.26
407.20	617.90
407.39	648.33
407.58	631.94
407.77	657.69
407.96	615.56
408.15	594.50
408.34	615.56
408.54	608.54
408.73	653.01
408.92	624.92
409.11	678.76
409.30	636.63
409.49	575.77
409.68	629.60
409.87	620.24
410.07	655.35
410.26	613.22
410.45	587.47
410.64	748.97
410.83	641.31
411.02	610.88
411.21	676.41
411.40	606.20
411.59	669.39
411.78	582.79
411.98	606.20
412.17	596.84
412.36	624.92
412.55	608.54
412.74	620.24
412.93	669.39
413.12	634.29
413.31	634.29
413.50	615.56
413.69	638.97
413.88	594.50
414.07	667.05
414.26	594.50
414.45	667.05
414.64	695.14
414.83	585.13
415.02	629.60
415.22	655.35
415.41	634.29
415.60	592.16
415.79	610.88
415.98	645.99
416.17	524.28
416.36	638.97
416.55	564.07
416.74	554.71
416.93	596.84
417.12	613.22
417.31	655.35
417.50	617.90
417.69	629.60
417.88	603.86
418.07	645.99
418.26	631.94
418.45	622.58
418.64	669.39
418.83	622.58
419.02	603.86
419.21	660.03
419.39	608.54
419.58	599.18
419.77	627.26
419.96	622.58
420.15	638.97
420.34	671.73
420.53	613.22
420.72	667.05
420.91	575.77
421.10	657.69
421.29	671.73
421.48	601.52
421.67	601.52
421.86	596.84
422.05	552.37
422.24	622.58
422.43	613.22
422.61	648.33
422.80	622.58
422.99	624.92
423.18	631.94
423.37	580.45
423.56	671.73
423.75	655.35
423.94	631.94
424.13	599.18
424.32	601.52
424.50	617.90
424.69	648.33
424.88	674.07
425.07	580.45
425.26	566.41
425.45	580.45
425.64	512.58
425.83	608.54
426.01	645.99
426.20	711.52
426.39	725.57
426.58	638.97
426.77	617.90
426.96	587.47
427.15	601.52
427.33	627.26
427.52	636.63
427.71	617.90
427.90	657.69
428.09	725.57
428.28	660.03
428.46	631.94
428.65	653.01
428.84	667.05
429.03	603.86
429.22	638.97
429.40	622.58
429.59	636.63
429.78	606.20
429.97	617.90
430.16	685.78
430.34	648.33
430.53	683.44
430.72	571.09
430.91	648.33
431.10	613.22
431.28	601.52
431.47	657.69
431.66	653.01
431.85	587.47
432.03	592.16
432.22	692.80
432.41	587.47
432.60	587.47
432.79	664.71
432.97	678.76
433.16	702.16
433.35	645.99
433.54	559.39
433.72	755.99
433.91	620.24
434.10	657.69
434.28	603.86
434.47	627.26
434.66	650.67
434.85	678.76
435.03	704.50
435.22	1090.69
435.41	1139.84
435.59	1071.97
435.78	997.07
435.97	891.74
436.16	870.68
436.34	704.50
436.53	653.01
436.72	641.31
436.90	669.39
437.09	615.56
437.28	655.35
437.46	653.01
437.65	702.16
437.84	655.35
438.02	716.20
438.21	638.97
438.40	664.71
438.58	631.94
438.77	732.59
438.96	685.78
439.14	641.31
439.33	631.94
439.52	667.05
439.70	641.31
439.89	690.46
440.08	734.93
440.26	587.47
440.45	655.35
440.63	697.48
440.82	636.63
441.01	678.76
441.19	667.05
441.38	634.29
441.57	561.73
441.75	608.54
441.94	606.20
442.12	610.88
442.31	608.54
442.50	662.37
442.68	617.90
442.87	669.39
443.05	561.73
443.24	683.44
443.43	660.03
443.61	636.63
443.80	617.90
443.98	674.07
444.17	662.37
444.35	669.39
444.54	634.29
444.73	608.54
444.91	601.52
445.10	641.31
445.28	650.67
445.47	622.58
445.65	622.58
445.84	655.35
446.02	676.41
446.21	653.01
446.39	601.52
446.58	688.12
446.77	592.16
446.95	641.31
447.14	657.69
447.32	624.92
447.51	662.37
447.69	667.05
447.88	631.94
448.06	615.56
448.25	699.82
448.43	634.29
448.62	566.41
448.80	571.09
448.99	653.01
449.17	589.82
449.36	610.88
449.54	688.12
449.73	657.69
449.91	622.58
450.10	606.20
450.28	648.33
450.46	655.35
450.65	683.44
450.83	608.54
451.02	620.24
451.20	669.39
451.39	697.48
451.57	657.69
451.76	667.05
451.94	643.65
452.13	582.79
452.31	653.01
452.49	657.69
452.68	725.57
452.86	690.46
453.05	688.12
453.23	716.20
453.42	606.20
453.60	660.03
453.78	702.16
453.97	634.29
454.15	660.03
454.34	643.65
454.52	645.99
454.70	669.39
454.89	608.54
455.07	636.63
455.26	636.63
455.44	681.10
455.62	685.78
455.81	636.63
455.99	613.22
456.17	603.86
456.36	678.76
456.54	765.36
456.73	695.14
456.91	645.99
457.09	662.37
457.28	683.44
457.46	629.60
457.64	653.01
457.83	669.39
458.01	603.86
458.19	648.33
458.38	615.56
458.56	671.73
458.74	636.63
458.93	643.65
459.11	697.48
459.29	592.16
459.48	599.18
459.66	664.71
459.84	664.71
460.03	669.39
460.21	587.47
460.39	606.20
460.57	594.50
460.76	704.50
460.94	601.52
461.12	683.44
461.31	613.22
461.49	660.03
461.67	669.39
461.85	648.33
462.04	627.26
462.22	936.21
462.40	653.01
462.59	683.44
462.77	568.75
462.95	613.22
463.13	669.39
463.32	655.35
463.50	606.20
463.68	636.63
463.86	676.41
464.05	685.78
464.23	681.10
464.41	690.46
464.59	695.14
464.78	622.58
464.96	627.26
465.14	606.20
465.32	613.22
465.50	664.71
465.69	645.99
465.87	617.90
466.05	702.16
466.23	655.35
466.41	702.16
466.60	601.52
466.78	603.86
466.96	683.44
467.14	634.29
467.32	594.50
467.51	699.82
467.69	690.46
467.87	748.97
468.05	596.84
468.23	674.07
468.41	662.37
468.60	594.50
468.78	629.60
468.96	645.99
469.14	674.07
469.32	594.50
469.50	683.44
469.69	610.88
469.87	636.63
470.05	575.77
470.23	643.65
470.41	606.20
470.59	678.76
470.77	674.07
470.95	674.07
471.14	620.24
471.32	624.92
471.50	662.37
471.68	615.56
471.86	669.39
472.04	660.03
472.22	669.39
472.40	685.78
472.58	653.01
472.77	636.63
472.95	748.97
473.13	634.29
473.31	692.80
473.49	627.26
473.67	615.56
473.85	552.37
474.03	624.92
474.21	603.86
474.39	650.67
474.57	634.29
474.75	676.41
474.93	603.86
475.12	587.47
475.30	648.33
475.48	671.73
475.66	662.37
475.84	676.41
476.02	620.24
476.20	688.12
476.38	650.67
476.56	671.73
476.74	582.79
476.92	653.01
477.10	582.79
477.28	636.63
477.46	655.35
477.64	695.14
477.82	641.31
478.00	627.26
478.18	641.31
478.36	629.60
478.54	596.84
478.72	671.73
478.90	617.90
479.08	561.73
479.26	617.90
479.44	596.84
479.62	587.47
479.80	648.33
479.98	627.26
480.16	681.10
480.34	685.78
480.52	622.58
480.70	580.45
480.88	671.73
481.06	664.71
481.24	653.01
481.41	608.54
481.59	664.71
481.77	685.78
481.95	674.07
482.13	730.25
482.31	676.41
482.49	662.37
482.67	695.14
482.85	683.44
483.03	620.24
483.21	699.82
483.39	711.52
483.57	627.26
483.74	664.71
483.92	645.99
484.10	676.41
484.28	681.10
484.46	671.73
484.64	730.25
484.82	685.78
485.00	770.04
485.18	688.12
485.35	660.03
485.53	692.80
485.71	758.33
485.89	667.05
486.07	746.63
486.25	758.33
486.43	725.57
486.61	709.18
486.78	723.23
486.96	702.16
487.14	683.44
487.32	685.78
487.50	739.61
487.68	699.82
487.85	688.12
488.03	704.50
488.21	720.88
488.39	681.10
488.57	751.31
488.75	755.99
488.92	748.97
489.10	704.50
489.28	734.93
489.46	688.12
489.64	674.07
489.81	690.46
489.99	643.65
490.17	678.76
490.35	758.33
490.53	690.46
490.70	631.94
490.88	739.61
491.06	688.12
491.24	774.72
491.41	704.50
491.59	681.10
491.77	674.07
491.95	760.67
492.13	725.57
492.30	699.82
492.48	681.10
492.66	748.97
492.84	725.57
493.01	741.95
493.19	706.84
493.37	645.99
493.54	741.95
493.72	657.69
493.90	720.88
494.08	622.58
494.25	706.84
494.43	662.37
494.61	660.03
494.79	629.60
494.96	692.80
495.14	685.78
495.32	681.10
495.49	716.20
495.67	748.97
495.85	699.82
496.02	685.78
496.20	732.59
496.38	634.29
496.55	643.65
496.73	678.76
496.91	720.88
497.09	681.10
497.26	699.82
497.44	711.52
497.62	638.97
497.79	624.92
497.97	662.37
498.14	744.29
498.32	692.80
498.50	657.69
498.67	695.14
498.85	641.31
499.03	690.46
499.20	709.18
499.38	653.01
499.56	648.33
499.73	725.57
499.91	685.78
500.08	631.94
500.26	657.69
500.44	624.92
500.61	645.99
500.79	645.99
500.97	641.31
501.14	657.69
501.32	702.16
501.49	720.88
501.67	627.26
501.84	617.90
502.02	725.57
502.20	681.10
502.37	648.33
502.55	690.46
502.72	699.82
502.90	627.26
503.07	641.31
503.25	620.24
503.43	711.52
503.60	648.33
503.78	699.82
503.95	608.54
504.13	638.97
504.30	629.60
504.48	660.03
504.65	711.52
504.83	634.29
505.01	678.76
505.18	676.41
505.36	606.20
505.53	564.07
505.71	564.07
505.88	709.18
506.06	702.16
506.23	676.41
506.41	655.35
506.58	613.22
506.76	692.80
506.93	653.01
507.11	617.90
507.28	596.84
507.46	655.35
507.63	629.60
507.81	713.86
507.98	648.33
508.16	634.29
508.33	634.29
508.50	638.97
508.68	676.41
508.85	617.90
509.03	692.80
509.20	671.73
509.38	599.18
509.55	660.03
509.73	676.41
509.90	636.63
510.08	655.35
510.25	690.46
510.42	645.99
510.60	624.92
510.77	676.41
510.95	643.65
511.12	599.18
511.30	629.60
511.47	636.63
511.64	629.60
511.82	627.26
511.99	627.26
512.17	627.26
512.34	662.37
512.51	713.86
512.69	667.05
512.86	674.07
513.04	678.76
513.21	695.14
513.38	676.41
513.56	653.01
513.73	660.03
513.90	589.82
514.08	624.92
514.25	648.33
514.43	685.78
514.60	629.60
514.77	622.58
514.95	655.35
515.12	610.88
515.29	662.37
515.47	585.13
515.64	620.24
515.81	615.56
515.99	741.95
516.16	662.37
516.33	683.44
516.51	648.33
516.68	627.26
516.85	606.20
517.03	629.60
517.20	655.35
517.37	720.88
517.54	720.88
517.72	697.48
517.89	653.01
518.06	631.94
518.24	720.88
518.41	727.91
518.58	587.47
518.75	676.41
518.93	641.31
519.10	603.86
519.27	622.58
519.45	610.88
519.62	690.46
519.79	678.76
519.96	587.47
520.14	676.41
520.31	645.99
520.48	610.88
520.65	645.99
520.83	606.20
521.00	697.48
521.17	734.93
521.34	671.73
521.52	692.80
521.69	664.71
521.86	580.45
522.03	622.58
522.20	683.44
522.38	667.05
522.55	650.67
522.72	589.82
522.89	615.56
523.07	631.94
523.24	643.65
523.41	617.90
523.58	648.33
523.75	669.39
523.92	683.44
524.10	674.07
524.27	575.77
524.44	634.29
524.61	655.35
524.78	641.31
524.96	671.73
525.13	627.26
525.30	671.73
525.47	650.67
525.64	655.35
525.81	578.11
525.98	655.35
526.16	657.69
526.33	692.80
526.50	641.31
526.67	657.69
526.84	671.73
527.01	704.50
527.18	568.75
527.36	648.33
527.53	645.99
527.70	697.48
527.87	669.39
528.04	732.59
528.21	631.94
528.38	678.76
528.55	702.16
528.72	674.07
528.89	674.07
529.07	636.63
529.24	669.39
529.41	664.71
529.58	634.29
529.75	676.41
529.92	674.07
530.09	620.24
530.26	692.80
530.43	688.12
530.60	699.82
530.77	622.58
530.94	645.99
531.11	720.88
531.28	615.56
531.46	627.26
531.63	671.73
531.80	676.41
531.97	667.05
532.14	629.60
532.31	695.14
532.48	704.50
532.65	641.31
532.82	657.69
532.99	638.97
533.16	727.91
533.33	725.57
533.50	648.33
533.67	716.20
533.84	702.16
534.01	702.16
534.18	655.35
534.35	634.29
534.52	678.76
534.69	617.90
534.86	662.37
535.03	704.50
535.20	720.88
535.37	795.78
535.54	681.10
535.71	690.46
535.88	688.12
536.05	744.29
536.22	671.73
536.38	723.23
536.55	702.16
536.72	720.88
536.89	725.57
537.06	697.48
537.23	662.37
537.40	755.99
537.57	760.67
537.74	788.76
537.91	718.54
538.08	828.55
538.25	751.31
538.42	758.33
538.59	744.29
538.75	770.04
538.92	833.23
539.09	856.64
539.26	814.51
539.43	894.08
539.60	868.34
539.77	901.11
539.94	896.43
540.11	931.53
540.28	950.26
540.44	1039.20
540.61	987.71
540.78	1029.84
540.95	1048.56
541.12	1151.54
541.29	1268.57
541.46	1355.17
541.62	1308.36
541.79	1277.93
541.96	1277.93
542.13	1329.42
542.30	1287.29
542.47	1249.85
542.63	1263.89
542.80	1249.85
542.97	1247.51
543.14	1226.44
543.31	1158.57
543.48	1299.00
543.64	1163.25
543.81	1181.97
543.98	1233.46
544.15	1266.23
544.32	1273.25
544.48	1146.86
544.65	1226.44
544.82	1153.88
544.99	1228.78
545.16	1198.35
545.32	1291.98
545.49	1722.63
545.66	1994.14
545.83	2214.15
546.00	1998.82
546.16	1739.02
546.33	1446.45
546.50	1350.49
546.67	1263.89
546.83	1186.65
547.00	1074.31
547.17	1015.79
547.34	929.19
547.50	1015.79
547.67	950.26
547.84	924.51
548.00	987.71
548.17	912.81
548.34	994.73
548.51	990.05
548.67	917.49
548.84	931.53
549.01	922.17
549.18	889.40
549.34	968.98
549.51	931.53
549.68	947.92
549.84	901.11
550.01	830.89
550.18	828.55
550.34	870.68
550.51	849.61
550.68	826.21
550.84	821.53
551.01	795.78
551.18	821.53
551.34	802.80
551.51	791.10
551.68	791.10
551.84	819.19
552.01	786.42
552.18	748.97
552.34	734.93
552.51	755.99
552.68	746.63
552.84	624.92
553.01	692.80
553.18	755.99
553.34	777.06
553.51	748.97
553.67	753.65
553.84	746.63
554.01	697.48
554.17	716.20
554.34	688.12
554.51	702.16
554.67	653.01
554.84	697.48
555.00	704.50
555.17	706.84
555.33	763.01
555.50	688.12
555.67	709.18
555.83	641.31
556.00	774.72
556.16	772.38
556.33	718.54
556.50	657.69
556.66	622.58
556.83	653.01
556.99	748.97
557.16	587.47
557.32	690.46
557.49	653.01
557.65	638.97
557.82	681.10
557.98	660.03
558.15	695.14
558.32	676.41
558.48	603.86
558.65	629.60
558.81	655.35
558.98	629.60
559.14	760.67
559.31	720.88
559.47	655.35
559.64	674.07
559.80	683.44
559.97	664.71
560.13	631.94
560.30	653.01
560.46	669.39
560.63	676.41
560.79	667.05
560.96	683.44
561.12	662.37
561.29	601.52
561.45	669.39
561.61	695.14
561.78	678.76
561.94	634.29
562.11	671.73
562.27	692.80
562.44	655.35
562.60	711.52
562.77	683.44
562.93	690.46
563.10	622.58
563.26	655.35
563.42	657.69
563.59	685.78
563.75	683.44
563.92	725.57
564.08	706.84
564.24	697.48
564.41	643.65
564.57	641.31
564.74	657.69
564.90	662.37
565.07	641.31
565.23	671.73
565.39	641.31
565.56	629.60
565.72	662.37
565.88	610.88
566.05	629.60
566.21	641.31
566.38	697.48
566.54	648.33
566.70	643.65
566.87	660.03
567.03	613.22
567.19	650.67
567.36	758.33
567.52	634.29
567.68	645.99
567.85	608.54
568.01	568.75
568.17	681.10
568.34	723.23
568.50	662.37
568.66	660.03
568.83	727.91
568.99	674.07
569.15	676.41
569.32	622.58
569.48	629.60
569.64	711.52
569.81	730.25
569.97	641.31
570.13	608.54
570.30	681.10
570.46	695.14
570.62	678.76
570.78	638.97
570.95	723.23
571.11	641.31
571.27	603.86
571.43	690.46
571.60	688.12
571.76	603.86
571.92	653.01
572.09	702.16
572.25	596.84
572.41	692.80
572.57	723.23
572.74	732.59
572.90	617.90
573.06	660.03
573.22	711.52
573.38	643.65
573.55	678.76
573.71	629.60
573.87	692.80
574.03	599.18
574.20	664.71
574.36	620.24
574.52	669.39
574.68	709.18
574.84	631.94
575.01	660.03
575.17	671.73
575.33	653.01
575.49	685.78
575.65	592.16
575.82	582.79
575.98	692.80
576.14	758.33
576.30	777.06
576.46	774.72
576.62	861.32
576.79	931.53
576.95	891.74
577.11	786.42
577.27	784.08
577.43	718.54
577.59	744.29
577.75	802.80
577.92	660.03
578.08	674.07
578.24	664.71
578.40	744.29
578.56	791.10
578.72	917.49
578.88	891.74
579.04	863.66
579.21	821.53
579.37	821.53
579.53	777.06
579.69	840.25
579.85	725.57
580.01	774.72
580.17	755.99
580.33	786.42
580.49	720.88
580.65	781.74
580.82	723.23
580.98	770.04
581.14	713.86
581.30	713.86
581.46	727.91
581.62	734.93
581.78	718.54
581.94	814.51
582.10	732.59
582.26	770.04
582.42	770.04
582.58	763.01
582.74	734.93
582.90	755.99
583.06	732.59
583.22	732.59
583.38	770.04
583.54	814.51
583.70	856.64
583.86	863.66
584.02	851.96
584.18	765.36
584.34	798.12
584.50	732.59
584.66	734.93
584.82	718.54
584.98	730.25
585.14	692.80
585.30	798.12
585.46	795.78
585.62	753.65
585.78	755.99
585.94	744.29
586.10	734.93
586.26	732.59
586.42	821.53
586.58	837.91
586.74	828.55
586.90	821.53
587.06	922.17
587.22	858.98
587.38	851.96
587.54	821.53
587.70	889.40
587.86	882.38
588.02	842.59
588.18	828.55
588.34	767.70
588.49	709.18
588.65	816.85
588.81	669.39
588.97	772.38
589.13	730.25
589.29	737.27
589.45	746.63
589.61	781.74
589.77	781.74
589.93	688.12
590.08	767.70
590.24	699.82
590.40	692.80
590.56	725.57
590.72	720.88
590.88	755.99
591.04	765.36
591.20	744.29
591.35	711.52
591.51	727.91
591.67	751.31
591.83	697.48
591.99	786.42
592.15	753.65
592.31	805.14
592.46	793.44
592.62	779.40
592.78	828.55
592.94	884.72
593.10	823.87
593.26	772.38
593.41	798.12
593.57	786.42
593.73	774.72
593.89	734.93
594.05	720.88
594.20	786.42
594.36	690.46
594.52	748.97
594.68	697.48
594.84	758.33
594.99	669.39
595.15	737.27
595.31	713.86
595.47	711.52
595.62	709.18
595.78	713.86
595.94	615.56
596.10	725.57
596.25	767.70
596.41	751.31
596.57	767.70
596.73	725.57
596.88	716.20
597.04	648.33
597.20	688.12
597.36	571.09
597.51	697.48
597.67	697.48
597.83	720.88
597.99	739.61
598.14	767.70
598.30	746.63
598.46	767.70
598.61	690.46
598.77	798.12
598.93	723.23
599.09	765.36
599.24	732.59
599.40	753.65
599.56	702.16
599.71	734.93
599.87	800.46
600.03	732.59
600.18	753.65
600.34	753.65
600.50	746.63
600.65	746.63
600.81	702.16
600.97	702.16
601.12	606.20
601.28	774.72
601.44	734.93
601.59	643.65
601.75	683.44
601.91	667.05
602.06	688.12
602.22	709.18
602.37	648.33
602.53	685.78
602.69	702.16
602.84	706.84
603.00	657.69
603.16	748.97
603.31	713.86
603.47	699.82
603.62	681.10
603.78	622.58
603.94	692.80
604.09	669.39
604.25	683.44
604.40	716.20
604.56	657.69
604.71	608.54
604.87	650.67
605.03	678.76
605.18	641.31
605.34	716.20
605.49	706.84
605.65	711.52
605.80	664.71
605.96	641.31
606.12	690.46
606.27	681.10
606.43	692.80
606.58	753.65
606.74	678.76
606.89	744.29
607.05	716.20
607.20	725.57
607.36	718.54
607.51	779.40
607.67	770.04
607.82	713.86
607.98	744.29
608.13	770.04
608.29	744.29
608.44	777.06
608.60	779.40
608.75	805.14
608.91	793.44
609.06	898.77
609.22	882.38
609.37	851.96
609.53	870.68
609.68	875.36
