SpectraSuite Data File
++++++++++++++++++++++++++++++++++++
Date: Thu Oct 24 13:21:14 EDT 2013
User: stostad
Dark Spectrum Present: No
Reference Spectrum Present: No
Number of Sampled Component Spectra: 1
Spectrometers: USB2+H05261
Integration Time (usec): 100000 (USB2+H05261)
Spectra Averaged: 1 (USB2+H05261)
Boxcar Smoothing: 0 (USB2+H05261)
Correct for Electrical Dark: No (USB2+H05261)
Strobe/Lamp Enabled: No (USB2+H05261)
Correct for Detector Non-linearity: No (USB2+H05261)
Correct for Stray Light: No (USB2+H05261)
Number of Pixels in Processed Spectrum: 2048
>>>>>Begin Processed Spectral Data<<<<<
365.73	559.39
365.92	559.39
366.12	559.39
366.32	486.83
366.52	458.74
366.72	493.85
366.91	416.62
367.11	486.83
367.31	449.38
367.51	505.56
367.70	514.92
367.90	491.51
368.10	461.09
368.30	521.94
368.49	465.77
368.69	575.77
368.89	538.32
369.09	482.15
369.28	503.22
369.48	479.81
369.68	475.13
369.87	498.53
370.07	526.62
370.27	538.32
370.47	582.79
370.66	688.12
370.86	690.46
371.06	805.14
371.25	734.93
371.45	823.87
371.65	898.77
371.84	732.59
372.04	849.61
372.24	828.55
372.44	863.66
372.63	868.34
372.83	847.27
373.03	936.21
373.22	915.15
373.42	905.79
373.62	734.93
373.81	851.96
374.01	861.32
374.21	889.40
374.40	917.49
374.60	912.81
374.79	863.66
374.99	880.04
375.19	894.08
375.38	891.74
375.58	931.53
375.78	922.17
375.97	924.51
376.17	1029.84
376.37	976.00
376.56	861.32
376.76	968.98
376.95	891.74
377.15	873.02
377.35	847.27
377.54	903.45
377.74	936.21
377.93	882.38
378.13	964.30
378.33	954.94
378.52	875.36
378.72	964.30
378.91	954.94
379.11	922.17
379.31	968.98
379.50	940.90
379.70	1004.09
379.89	903.45
380.09	933.87
380.28	954.94
380.48	1032.18
380.68	968.98
380.87	1043.88
381.07	997.07
381.26	1004.09
381.46	1022.81
381.65	1022.81
381.85	1013.45
382.04	1036.86
382.24	1043.88
382.43	1034.52
382.63	999.41
382.83	964.30
383.02	1004.09
383.22	990.05
383.41	947.92
383.61	1022.81
383.80	1093.03
384.00	933.87
384.19	1025.15
384.39	987.71
384.58	994.73
384.78	1109.41
384.97	1064.94
385.17	1102.39
385.36	952.60
385.56	1034.52
385.75	994.73
385.95	1027.50
386.14	1036.86
386.34	1081.33
386.53	978.34
386.72	1135.16
386.92	1104.73
387.11	1097.71
387.31	1078.99
387.50	1078.99
387.70	1071.97
387.89	1060.26
388.09	1088.35
388.28	1069.62
388.48	1193.67
388.67	1095.37
388.86	1184.31
389.06	1118.78
389.25	1121.12
389.45	1128.14
389.64	1153.88
389.84	1130.48
390.03	1121.12
390.22	1100.05
390.42	1128.14
390.61	1146.86
390.81	1203.04
391.00	1186.65
391.19	1212.40
391.39	1177.29
391.58	1233.46
391.78	1235.80
391.97	1247.51
392.16	1149.20
392.36	1219.42
392.55	1252.19
392.75	1221.76
392.94	1200.69
393.13	1221.76
393.33	1207.72
393.52	1233.46
393.71	1301.34
393.91	1240.48
394.10	1224.10
394.29	1310.70
394.49	1275.59
394.68	1266.23
394.88	1249.85
395.07	1341.13
395.26	1371.55
395.46	1249.85
395.65	1378.58
395.84	1245.16
396.04	1406.66
396.23	1362.19
396.42	1392.62
396.62	1341.13
396.81	1430.07
397.00	1406.66
397.19	1399.64
397.39	1399.64
397.58	1423.05
397.77	1373.89
397.97	1458.15
398.16	1467.52
398.35	1420.71
398.55	1479.22
398.74	1458.15
398.93	1500.28
399.12	1390.28
399.32	1409.00
399.51	1465.18
399.70	1474.54
399.90	1376.24
400.09	1455.81
400.28	1493.26
400.47	1526.03
400.67	1441.77
400.86	1572.84
401.05	1523.69
401.24	1565.82
401.44	1596.25
401.63	1570.50
401.82	1568.16
402.01	1643.06
402.21	1589.22
402.40	1561.14
402.59	1582.20
402.78	1561.14
402.97	1544.75
403.17	1526.03
403.36	1617.31
403.55	1638.38
403.74	1664.12
403.93	1657.10
404.13	1727.32
404.32	1710.93
404.51	1720.29
404.70	1647.74
404.89	1720.29
405.09	1795.19
405.28	1657.10
405.47	1771.79
405.66	1767.10
405.85	1806.89
406.05	1811.57
406.24	1825.62
406.43	1825.62
406.62	1760.08
406.81	1764.76
407.00	1928.60
407.20	1795.19
407.39	1970.73
407.58	1916.90
407.77	1891.15
407.96	1912.22
408.15	1952.01
408.34	1877.11
408.54	1970.73
408.73	2008.18
408.92	1900.52
409.11	1902.86
409.30	2024.56
409.49	1998.82
409.68	1968.39
409.87	2099.46
410.07	1982.43
410.26	2090.10
410.45	2094.78
410.64	2069.03
410.83	2214.15
411.02	2076.06
411.21	2062.01
411.40	2069.03
411.59	2200.10
411.78	2188.40
411.98	2172.02
412.17	2223.51
412.36	2183.72
412.55	2207.13
412.74	2298.41
412.93	2258.62
413.12	2326.49
413.31	2347.56
413.50	2296.07
413.69	2385.01
413.88	2373.30
414.07	2314.79
414.26	2373.30
414.45	2452.88
414.64	2366.28
414.83	2413.09
415.02	2487.99
415.22	2429.48
415.41	2495.01
415.60	2450.54
415.79	2495.01
415.98	2509.05
416.17	2593.31
416.36	2637.78
416.55	2593.31
416.74	2661.19
416.93	2579.27
417.12	2787.58
417.31	2715.02
417.50	2754.81
417.69	2761.83
417.88	2696.30
418.07	2750.13
418.26	2771.19
418.45	2736.09
418.64	2836.73
418.83	2899.92
419.02	2853.11
419.21	2782.90
419.39	2883.54
419.58	2820.35
419.77	2764.17
419.96	3009.93
420.15	2878.86
420.34	2942.05
420.53	2963.12
420.72	3014.61
420.91	2850.77
421.10	3075.46
421.29	3019.29
421.48	2928.01
421.67	2937.37
421.86	2963.12
422.05	2965.46
422.24	2925.67
422.43	2979.50
422.61	3117.59
422.80	3094.19
422.99	3040.36
423.18	3061.42
423.37	3150.36
423.56	3066.10
423.75	2998.23
423.94	3049.72
424.13	2878.86
424.32	2942.05
424.50	3012.27
424.69	3155.04
424.88	3185.47
425.07	3082.49
425.26	3098.87
425.45	3122.27
425.64	2970.14
425.83	3077.80
426.01	3145.68
426.20	3300.16
426.39	3187.81
426.58	3204.19
426.77	3176.11
426.96	3187.81
427.15	3206.53
427.33	3309.52
427.52	3204.19
427.71	3297.81
427.90	3274.41
428.09	3204.19
428.28	3396.12
428.46	3386.76
428.65	3243.98
428.84	3421.86
429.03	3361.01
429.22	3314.20
429.40	3309.52
429.59	3269.73
429.78	3286.11
429.97	3262.71
430.16	3419.52
430.34	3384.41
430.53	3370.37
430.72	3421.86
430.91	3372.71
431.10	3463.99
431.28	3520.17
431.47	3599.74
431.66	3613.79
431.85	3548.25
432.03	3550.59
432.22	3611.45
432.41	3595.06
432.60	3658.26
432.79	3501.44
432.97	3681.66
433.16	3658.26
433.35	3646.55
433.54	3616.13
433.72	3623.15
433.91	3681.66
434.10	3667.62
434.28	3754.22
434.47	3651.24
434.66	3737.84
434.85	3873.59
435.03	4072.53
435.22	4117.00
435.41	4163.81
435.59	4114.66
435.78	4121.68
435.97	4004.66
436.16	3971.89
436.34	3908.69
436.53	3929.76
436.72	4004.66
436.90	3847.84
437.09	3957.85
437.28	3925.08
437.46	4063.17
437.65	3964.87
437.84	4128.70
438.02	3983.59
438.21	4084.23
438.40	4105.30
438.58	4072.53
438.77	4266.80
438.96	4028.06
439.14	4147.43
439.33	4355.74
439.52	4308.93
439.70	4250.41
439.89	4299.56
440.08	4215.30
440.26	4423.61
440.45	4348.72
440.63	4447.02
440.82	4531.28
441.01	4393.19
441.19	4486.81
441.38	4512.55
441.57	4355.74
441.75	4620.22
441.94	4634.26
442.12	4727.88
442.31	4741.93
442.50	4723.20
442.68	4538.30
442.87	4720.86
443.05	4610.86
443.24	4718.52
443.43	4739.58
443.61	4795.76
443.80	4695.11
443.98	4706.82
444.17	4601.49
444.35	4779.37
444.54	4908.10
444.73	4802.78
444.91	4823.84
445.10	4924.49
445.28	5041.51
445.47	4793.42
445.65	4812.14
445.84	4898.74
446.02	5032.15
446.21	4671.71
446.39	4910.44
446.58	4931.51
446.77	4943.21
446.95	4802.78
447.14	4945.55
447.32	5011.09
447.51	4873.00
447.69	4849.59
447.88	4889.38
448.06	4983.00
448.25	5046.20
448.43	4943.21
448.62	5043.85
448.80	4933.85
448.99	4950.23
449.17	4971.30
449.36	4957.25
449.54	5043.85
449.73	5055.56
449.91	5291.95
450.10	5186.63
450.28	5142.16
450.46	5203.01
450.65	5095.35
450.83	5233.44
451.02	5247.48
451.20	5315.36
451.39	5296.63
451.57	5329.40
451.76	5322.38
451.94	5364.51
452.13	5364.51
452.31	5406.64
452.49	5228.76
452.68	5315.36
452.86	5408.98
453.05	5432.38
453.23	5481.53
453.42	5282.59
453.60	5446.43
453.78	5401.96
453.97	5476.85
454.15	5399.62
454.34	5338.76
454.52	5514.30
454.70	5500.26
454.89	5631.33
455.07	5317.70
455.26	5607.92
455.44	5504.94
455.62	5673.46
455.81	5624.31
455.99	5570.48
456.17	5664.10
456.36	5671.12
456.54	5769.42
456.73	5902.83
456.91	5818.57
457.09	5956.66
457.28	5966.03
457.46	5797.51
457.64	5935.60
457.83	6017.52
458.01	5863.04
458.19	6136.88
458.38	5867.72
458.56	6017.52
458.74	5966.03
458.93	5984.75
459.11	6108.80
459.29	5977.73
459.48	6001.13
459.66	6160.29
459.84	6139.23
460.03	6284.34
460.21	6080.71
460.39	6246.89
460.57	6202.42
460.76	6314.77
460.94	6286.68
461.12	6342.85
461.31	6396.68
461.49	6434.13
461.67	6209.44
461.85	6445.84
462.04	6363.92
462.22	6656.48
462.40	6544.14
462.59	6509.03
462.77	6380.30
462.95	6497.33
463.13	6691.59
463.32	6548.82
463.50	6466.90
463.68	6719.68
463.86	6621.38
464.05	6492.65
464.23	6539.46
464.41	6647.12
464.59	6593.29
464.78	6775.85
464.96	6771.17
465.14	6626.06
465.32	6918.62
465.50	6775.85
465.69	6799.26
465.87	6696.27
466.05	6803.94
466.23	6822.66
466.41	6696.27
466.60	6836.70
466.78	6686.91
466.96	6759.47
467.14	6956.07
467.32	6867.13
467.51	6930.33
467.69	6740.74
467.87	7005.22
468.05	6759.47
468.23	6799.26
468.41	6902.24
468.60	7019.27
468.78	7213.53
468.96	7007.56
469.14	7166.72
469.32	7211.19
469.50	7197.15
469.69	7037.99
469.87	7239.28
470.05	7180.76
470.23	7276.73
470.41	7239.28
470.59	7377.37
470.77	7143.32
470.95	7101.19
471.14	7550.57
471.32	7414.82
471.50	7466.31
471.68	7372.69
471.86	7604.40
472.04	7400.77
472.22	7911.01
472.40	7613.76
472.58	7651.21
472.77	7651.21
472.95	7808.03
473.13	7927.39
473.31	7723.77
473.49	7962.50
473.67	7726.11
473.85	7798.66
474.03	7911.01
474.21	7906.33
474.39	8142.72
474.57	8124.00
474.75	8060.80
474.93	8315.92
475.12	8135.70
475.30	8280.82
475.48	8070.17
475.66	8313.58
475.84	8056.12
476.02	8278.47
476.20	8479.76
476.38	8568.70
476.56	8753.60
476.74	8542.96
476.92	8608.49
477.10	8624.87
477.28	8702.11
477.46	8809.78
477.64	8954.89
477.82	8971.27
478.00	9132.77
478.18	9289.59
478.36	9289.59
478.54	9263.84
478.72	9125.75
478.90	9397.25
479.08	9563.43
479.26	9476.83
479.44	9540.02
479.62	9619.60
479.80	9640.67
479.98	9788.12
480.16	10169.63
480.34	9816.21
480.52	9956.64
480.70	9951.96
480.88	9741.31
481.06	10186.01
481.24	10394.32
481.41	10083.03
481.59	10310.06
481.77	10602.63
481.95	10565.18
482.13	10523.05
482.31	10635.39
482.49	10913.92
482.67	10775.83
482.85	10761.78
483.03	11040.31
483.21	10951.37
483.39	11328.19
483.57	11063.71
483.74	11279.04
483.92	11349.26
484.10	11339.90
484.28	11482.67
484.46	11735.45
484.64	12049.08
484.82	11850.13
485.00	11906.31
485.18	11817.36
485.35	12030.35
485.53	12121.63
485.71	12259.73
485.89	12365.05
486.07	12311.22
486.25	12606.13
486.43	12524.21
486.61	12681.02
486.78	12779.32
486.96	12886.99
487.14	13153.81
487.32	12898.69
487.50	13057.85
487.68	13252.11
487.85	13420.63
488.03	13467.44
488.21	13654.69
488.39	13610.22
488.57	13806.82
488.75	13783.41
488.92	13921.51
489.10	13907.46
489.28	14003.43
489.46	14239.82
489.64	14368.55
489.81	14169.60
489.99	14530.05
490.17	14689.20
490.35	14703.25
490.53	14717.29
490.70	15002.83
490.88	14883.47
491.06	15204.12
491.24	15143.27
491.41	15220.50
491.59	15571.58
491.77	15279.02
491.95	15475.62
492.13	15524.77
492.30	15740.10
492.48	15789.25
492.66	15737.76
492.84	15868.83
493.01	16198.85
493.19	15971.82
493.37	16084.16
493.54	16037.35
493.72	16336.94
493.90	16442.26
494.08	16496.10
494.25	16814.41
494.43	16809.73
494.61	16673.98
494.79	16842.50
494.96	16975.91
495.14	17151.45
495.32	17062.51
495.49	17270.81
495.67	17406.56
495.85	17514.23
496.02	17687.43
496.20	17422.95
496.38	17626.57
496.55	18094.68
496.73	18338.10
496.91	18143.83
497.09	18249.16
497.26	18274.90
497.44	18225.75
497.62	18291.29
497.79	18712.58
497.97	18530.02
498.14	18806.20
498.32	18888.12
498.50	18995.79
498.67	19204.10
498.85	18993.45
499.03	18902.17
499.20	19176.01
499.38	19098.77
499.56	19063.66
499.73	19358.57
499.91	19435.81
500.08	19651.14
500.26	19426.45
500.44	19274.31
500.61	19459.21
500.79	19829.02
500.97	19817.32
501.14	20163.72
501.32	20074.77
501.49	20421.17
501.67	19922.64
501.84	20166.06
502.02	20685.65
502.20	20369.68
502.37	20147.33
502.55	20362.66
502.72	20505.43
502.90	20828.43
503.07	20517.14
503.25	20706.72
503.43	20575.65
503.60	20498.41
503.78	21010.99
503.95	20837.79
504.13	20858.85
504.30	20849.49
504.48	20975.88
504.65	20849.49
504.83	21582.08
505.01	21532.93
505.18	21156.10
505.36	21642.93
505.53	21687.40
505.71	21752.94
505.88	21556.33
506.06	21675.70
506.23	21621.87
506.41	21731.87
506.58	21902.73
506.76	21958.91
506.93	21846.56
507.11	22101.68
507.28	22452.76
507.46	22057.21
507.63	22293.60
507.81	22319.35
507.98	22171.89
508.16	22302.96
508.33	22588.51
508.50	22492.55
508.68	22532.34
508.85	23281.31
509.03	22611.92
509.20	22693.83
509.38	22941.93
509.55	22993.42
509.73	23255.56
509.90	23639.41
510.08	23522.38
510.25	23463.87
510.42	23384.29
510.60	23484.94
510.77	23342.16
510.95	23723.67
511.12	23721.33
511.30	23707.29
511.47	23803.25
511.64	23772.82
511.82	23768.14
511.99	23833.68
512.17	23880.49
512.34	24166.03
512.51	24559.24
512.69	24250.29
512.86	23847.72
513.04	24517.11
513.21	24386.04
513.38	24285.40
513.56	24676.27
513.73	24357.96
513.90	24545.20
514.08	24517.11
514.25	24856.49
514.43	24805.00
514.60	24734.78
514.77	24781.59
514.95	24870.53
515.12	24709.04
515.29	25153.74
515.47	25158.42
515.64	25392.47
515.81	25336.30
515.99	25259.06
516.16	25303.53
516.33	25317.57
516.51	25703.76
516.68	25713.13
516.85	25479.07
517.03	25827.81
517.20	25956.54
517.37	25919.09
517.54	26003.35
517.72	25853.56
517.89	26052.50
518.06	25979.95
518.24	25930.80
518.41	26218.68
518.58	26082.93
518.75	25731.85
518.93	25986.97
519.10	26132.08
519.27	26331.03
519.45	26410.60
519.62	26827.22
519.79	26663.38
519.96	26436.35
520.14	26434.01
520.31	26511.25
520.48	26366.13
520.65	26410.60
520.83	27044.89
521.00	27136.17
521.17	26635.30
521.34	26885.73
521.52	26941.91
521.69	26972.33
521.86	27154.90
522.03	27337.46
522.20	27374.91
522.38	27782.16
522.55	27489.59
522.72	27360.86
522.89	27337.46
523.07	27861.74
523.24	27468.53
523.41	27625.34
523.58	27992.81
523.75	27520.02
523.92	27679.18
524.10	28016.21
524.27	28151.96
524.44	28411.76
524.61	27967.06
524.78	27887.48
524.96	27962.38
525.13	27920.25
525.30	28622.41
525.47	28449.21
525.64	28393.04
525.81	28175.37
525.98	28570.92
526.16	28346.23
526.33	28491.34
526.50	28512.41
526.67	28425.81
526.84	28629.43
527.01	28926.68
527.18	29118.60
527.36	29186.48
527.53	28496.02
527.70	29113.92
527.87	28816.68
528.04	28622.41
528.21	28940.72
528.38	29261.38
528.55	29006.26
528.72	29324.57
528.89	29099.88
529.07	29151.37
529.24	28938.38
529.41	29476.71
529.58	29362.02
529.75	29275.42
529.92	29752.89
530.09	29441.60
530.26	29111.58
530.43	29659.27
530.60	29692.04
530.77	29991.62
530.94	29806.72
531.11	29619.48
531.28	29940.13
531.46	29930.77
531.63	29956.52
531.80	29996.31
531.97	29649.91
532.14	30244.40
532.31	29572.67
532.48	30038.44
532.65	30412.92
532.82	29888.64
532.99	30419.94
533.16	30181.21
533.33	30244.40
533.50	30464.41
533.67	30052.48
533.84	29993.97
534.01	30614.21
534.18	30494.84
534.35	30822.51
534.52	30508.88
534.69	30965.29
534.86	30696.13
535.03	30384.83
535.20	30764.00
535.37	30436.33
535.54	31026.14
535.71	30944.22
535.88	31206.36
536.05	30813.15
536.22	30941.88
536.38	30888.05
536.55	30946.56
536.72	30623.57
536.89	31197.00
537.06	31358.50
537.23	31662.77
537.40	31447.44
537.57	31491.91
537.74	31332.75
537.91	31531.70
538.08	31140.83
538.25	31257.85
538.42	31854.69
538.59	31517.65
538.75	31304.67
538.92	31601.91
539.09	31384.24
539.26	31754.05
539.43	31665.11
539.60	32187.05
539.77	31906.18
539.94	32196.41
540.11	32196.41
540.28	32100.45
540.44	32189.39
540.61	31894.48
540.78	32060.66
540.95	32493.66
541.12	32526.42
541.29	32294.71
541.46	32184.71
541.62	32828.35
541.79	33139.65
541.96	32945.38
542.13	32570.90
542.30	32205.77
542.47	32226.84
542.63	32744.09
542.80	32847.08
542.97	32999.21
543.14	33436.89
543.31	33130.28
543.48	33240.29
543.64	33771.59
543.81	33160.71
543.98	33298.80
544.15	33425.19
544.32	33589.03
544.48	33462.64
544.65	33764.57
544.82	33750.52
544.99	32961.76
545.16	33539.88
545.32	33523.49
545.49	34242.04
545.66	34293.53
545.83	34529.92
546.00	34576.73
546.16	34253.74
546.33	34038.41
546.50	33687.33
546.67	33802.02
546.83	33055.39
547.00	33308.16
547.17	33427.53
547.34	33656.90
547.50	33827.76
547.67	33862.87
547.84	33783.29
548.00	34087.56
548.17	34183.52
548.34	33806.70
548.51	34136.71
548.67	34398.85
548.84	34003.30
549.01	33818.40
549.18	34281.83
549.34	33820.74
549.51	34136.71
549.68	34099.26
549.84	34623.54
550.01	34333.32
550.18	33916.70
550.34	33895.64
550.51	34401.19
550.68	34169.48
550.84	33963.51
551.01	34426.94
551.18	34265.44
551.34	34171.82
551.51	34106.29
551.68	34059.48
551.84	34075.86
552.01	34188.21
552.18	34366.09
552.34	34459.71
552.51	35136.12
552.68	34415.24
552.84	34515.88
553.01	34649.29
553.18	34478.43
553.34	34747.59
553.51	34497.16
553.67	34639.93
553.84	34796.74
554.01	34888.03
554.17	34904.41
554.34	35199.32
554.51	34696.10
554.67	34904.41
554.84	35098.67
555.00	34637.59
555.17	34452.69
555.33	34888.03
555.50	34487.79
555.67	34810.79
555.83	34885.68
556.00	35126.76
556.16	35498.91
556.33	34995.69
556.50	35206.34
556.66	34972.28
556.83	34866.96
556.99	35206.34
557.16	35606.57
557.32	35800.83
557.49	35686.15
557.65	35178.25
557.82	35246.13
557.98	35367.84
558.15	35342.09
558.32	35510.61
558.48	34951.22
558.65	35812.54
558.81	35065.91
558.98	35456.78
559.14	35452.09
559.31	35311.66
559.47	35545.72
559.64	35276.55
559.80	35187.61
559.97	35800.83
560.13	35264.85
560.30	34934.84
560.46	35288.26
560.63	35791.47
560.79	35629.98
560.96	35243.79
561.12	35775.09
561.29	35604.23
561.45	35622.95
561.61	36175.32
561.78	35732.96
561.94	36137.87
562.11	35690.83
562.27	35981.06
562.44	35782.11
562.60	35807.86
562.77	36053.61
562.93	35744.66
563.10	35906.16
563.26	35388.90
563.42	36360.22
563.59	36020.84
563.75	35910.84
563.92	36081.70
564.08	35901.48
564.24	35611.25
564.41	36006.80
564.57	36027.87
564.74	35770.41
564.90	35999.78
565.07	36187.02
565.23	36322.77
565.39	35718.92
565.56	36676.19
565.72	36121.49
565.88	36217.45
566.05	35967.01
566.21	35927.22
566.38	36165.96
566.54	36025.53
566.70	36297.03
566.87	36123.83
567.03	36540.44
567.19	36664.49
567.36	36533.42
567.52	36172.98
567.68	35873.39
567.85	36446.82
568.01	36463.21
568.17	36292.35
568.34	36421.08
568.50	36615.34
568.66	36570.87
568.83	36376.61
568.99	36400.01
569.15	36355.54
569.32	36306.39
569.48	36198.73
569.64	36421.08
569.81	36215.11
569.97	36362.56
570.13	36507.68
570.30	36416.40
570.46	36491.29
570.62	36730.03
570.78	36126.17
570.95	36493.63
571.11	36641.09
571.27	36243.20
571.43	36201.07
571.60	36547.47
571.76	36652.79
571.92	36685.56
572.09	36727.69
572.25	36905.57
572.41	36683.22
572.57	37013.23
572.74	36678.54
572.90	36526.40
573.06	36858.76
573.22	36802.58
573.38	36935.99
573.55	36591.94
573.71	36753.43
573.87	36912.59
574.03	36481.93
574.20	36678.54
574.36	36563.85
574.52	36463.21
574.68	36821.31
574.84	36849.39
575.01	37153.66
575.17	36746.41
575.33	36292.35
575.49	36753.43
575.65	37216.86
575.82	36905.57
575.98	37067.06
576.14	37415.80
576.30	37003.87
576.46	36755.77
576.62	36727.69
576.79	36790.88
576.95	36650.45
577.11	36751.09
577.27	36996.85
577.43	36531.08
577.59	36828.33
577.75	36776.84
577.92	36465.55
578.08	36694.92
578.24	36561.51
578.40	37390.06
578.56	36994.51
578.72	37144.30
578.88	37432.19
579.04	37188.77
579.21	37050.68
579.37	36842.37
579.53	36992.17
579.69	37081.11
579.85	37092.81
580.01	36933.65
580.17	36898.55
580.33	37088.13
580.49	37132.60
580.65	37127.92
580.82	37078.77
580.98	36999.19
581.14	36601.30
581.30	36964.08
581.46	36549.81
581.62	36863.44
581.78	36931.31
581.94	37244.94
582.10	36306.39
582.26	37242.60
582.42	36854.08
582.58	36966.42
582.74	37347.93
582.90	36858.76
583.06	36959.40
583.22	37336.23
583.38	37048.34
583.54	36861.10
583.70	36779.18
583.86	36779.18
584.02	37195.79
584.18	37181.75
584.34	37315.16
584.50	37076.43
584.66	36842.37
584.82	37226.22
584.98	37312.82
585.14	36807.26
585.30	36879.82
585.46	37083.45
585.62	36921.95
585.78	38204.56
585.94	36924.29
586.10	37340.91
586.26	37172.39
586.42	37305.80
586.58	37223.88
586.74	37205.16
586.90	37022.59
587.06	37249.63
587.22	37663.90
587.38	37235.58
587.54	37432.19
587.70	37701.35
587.86	37373.67
588.02	37156.00
588.18	37453.25
588.34	37160.69
588.49	37406.44
588.65	37322.18
588.81	36987.49
588.97	37666.24
589.13	37427.51
589.29	36952.38
589.45	37539.85
589.61	37380.70
589.77	37177.07
589.93	37488.36
