SpectraSuite Data File
++++++++++++++++++++++++++++++++++++
Date: Thu Oct 24 13:21:04 EDT 2013
User: stostad
Dark Spectrum Present: No
Reference Spectrum Present: No
Number of Sampled Component Spectra: 1
Spectrometers: USB2+H05261
Integration Time (usec): 100000 (USB2+H05261)
Spectra Averaged: 1 (USB2+H05261)
Boxcar Smoothing: 0 (USB2+H05261)
Correct for Electrical Dark: No (USB2+H05261)
Strobe/Lamp Enabled: No (USB2+H05261)
Correct for Detector Non-linearity: No (USB2+H05261)
Correct for Stray Light: No (USB2+H05261)
Number of Pixels in Processed Spectrum: 2048
>>>>>Begin Processed Spectral Data<<<<<
365.73	519.60
365.92	519.60
366.12	519.60
366.32	484.49
366.52	456.40
366.72	472.79
366.91	463.43
367.11	407.25
367.31	486.83
367.51	498.53
367.70	440.02
367.90	477.47
368.10	491.51
368.30	416.62
368.49	409.59
368.69	505.56
368.89	512.58
369.09	402.57
369.28	491.51
369.48	585.13
369.68	521.94
369.87	528.96
370.07	496.19
370.27	580.45
370.47	603.86
370.66	676.41
370.86	678.76
371.06	751.31
371.25	704.50
371.45	755.99
371.65	802.80
371.84	765.36
372.04	713.86
372.24	730.25
372.44	748.97
372.63	723.23
372.83	723.23
373.03	713.86
373.22	779.40
373.42	737.27
373.62	716.20
373.81	748.97
374.01	830.89
374.21	772.38
374.40	739.61
374.60	891.74
374.79	758.33
374.99	795.78
375.19	774.72
375.38	781.74
375.58	807.48
375.78	802.80
375.97	812.17
376.17	802.80
376.37	802.80
376.56	833.23
376.76	763.01
376.95	770.04
377.15	777.06
377.35	814.51
377.54	833.23
377.74	770.04
377.93	741.95
378.13	812.17
378.33	833.23
378.52	791.10
378.72	868.34
378.91	767.70
379.11	826.21
379.31	713.86
379.50	889.40
379.70	875.36
379.89	870.68
380.09	891.74
380.28	828.55
380.48	870.68
380.68	791.10
380.87	858.98
381.07	873.02
381.26	823.87
381.46	837.91
381.65	800.46
381.85	877.70
382.04	847.27
382.24	868.34
382.43	877.70
382.63	873.02
382.83	903.45
383.02	880.04
383.22	823.87
383.41	891.74
383.61	814.51
383.80	873.02
384.00	861.32
384.19	873.02
384.39	840.25
384.58	866.00
384.78	938.55
384.97	877.70
385.17	861.32
385.36	819.19
385.56	903.45
385.75	933.87
385.95	896.43
386.14	847.27
386.34	856.64
386.53	889.40
386.72	823.87
386.92	896.43
387.11	870.68
387.31	915.15
387.50	901.11
387.70	938.55
387.89	849.61
388.09	926.85
388.28	943.24
388.48	884.72
388.67	910.47
388.86	863.66
389.06	880.04
389.25	868.34
389.45	889.40
389.64	866.00
389.84	940.90
390.03	873.02
390.22	968.98
390.42	966.64
390.61	971.32
390.81	898.77
391.00	980.68
391.19	992.39
391.39	940.90
391.58	926.85
391.78	1006.43
391.97	994.73
392.16	947.92
392.36	978.34
392.55	1018.13
392.75	1015.79
392.94	983.02
393.13	961.96
393.33	985.37
393.52	992.39
393.71	999.41
393.91	950.26
394.10	1022.81
394.29	947.92
394.49	1011.11
394.68	1069.62
394.88	1043.88
395.07	1156.22
395.26	1020.47
395.46	1039.20
395.65	1083.67
395.84	1090.69
396.04	1055.58
396.23	1020.47
396.42	1039.20
396.62	1039.20
396.81	999.41
397.00	1025.15
397.19	1050.90
397.39	1118.78
397.58	1153.88
397.77	1071.97
397.97	1107.07
398.16	1015.79
398.35	1100.05
398.55	1020.47
398.74	1062.60
398.93	1125.80
399.12	1074.31
399.32	1041.54
399.51	1116.44
399.70	1123.46
399.90	1109.41
400.09	1121.12
400.28	1048.56
400.47	1102.39
400.67	1184.31
400.86	1046.22
401.05	1174.95
401.24	1191.33
401.44	1186.65
401.63	1242.82
401.82	1142.18
402.01	1074.31
402.21	1121.12
402.40	1191.33
402.59	1191.33
402.78	1196.01
402.97	1200.69
403.17	1291.98
403.36	1146.86
403.55	1200.69
403.74	1315.38
403.93	1299.00
404.13	1359.85
404.32	1287.29
404.51	1303.68
404.70	1210.06
404.89	1233.46
405.09	1308.36
405.28	1294.32
405.47	1224.10
405.66	1282.61
405.85	1212.40
406.05	1245.16
406.24	1317.72
406.43	1301.34
406.62	1338.79
406.81	1390.28
407.00	1390.28
407.20	1348.15
407.39	1392.62
407.58	1320.06
407.77	1371.55
407.96	1394.96
408.15	1413.68
408.34	1306.02
408.54	1359.85
408.73	1406.66
408.92	1444.11
409.11	1486.24
409.30	1446.45
409.49	1565.82
409.68	1413.68
409.87	1441.77
410.07	1502.62
410.26	1394.96
410.45	1481.56
410.64	1535.39
410.83	1460.49
411.02	1469.86
411.21	1465.18
411.40	1474.54
411.59	1462.83
411.78	1563.48
411.98	1568.16
412.17	1577.52
412.36	1607.95
412.55	1516.67
412.74	1659.44
412.93	1568.16
413.12	1645.40
413.31	1490.92
413.50	1643.06
413.69	1701.57
413.88	1664.12
414.07	1624.33
414.26	1626.67
414.45	1668.80
414.64	1732.00
414.83	1666.46
415.02	1687.53
415.22	1708.59
415.41	1734.34
415.60	1645.40
415.79	1729.66
415.98	1774.13
416.17	1743.70
416.36	1767.10
416.55	1778.81
416.74	1717.95
416.93	1860.73
417.12	1820.94
417.31	1785.83
417.50	1867.75
417.69	1914.56
417.88	1884.13
418.07	1820.94
418.26	1739.02
418.45	1839.66
418.64	1879.45
418.83	1916.90
419.02	1961.37
419.21	1963.71
419.39	1947.33
419.58	1954.35
419.77	1926.26
419.96	2022.22
420.15	1947.33
420.34	1916.90
420.53	1902.86
420.72	1980.09
420.91	2012.86
421.10	1989.46
421.29	2024.56
421.48	2003.50
421.67	1996.48
421.86	2012.86
422.05	2029.24
422.24	2036.27
422.43	2045.63
422.61	2115.84
422.80	2050.31
422.99	1975.41
423.18	2054.99
423.37	2200.10
423.56	2069.03
423.75	2019.88
423.94	2047.97
424.13	2040.95
424.32	2001.16
424.50	2024.56
424.69	2118.18
424.88	2087.76
425.07	2136.91
425.26	2050.31
425.45	2066.69
425.64	2094.78
425.83	1975.41
426.01	2080.74
426.20	2129.89
426.39	2087.76
426.58	2099.46
426.77	2085.42
426.96	2183.72
427.15	2101.80
427.33	2153.29
427.52	2134.57
427.71	2160.31
427.90	2183.72
428.09	2036.27
428.28	2190.74
428.46	2209.47
428.65	2249.25
428.84	2181.38
429.03	2136.91
429.22	2172.02
429.40	2094.78
429.59	2286.70
429.78	2195.42
429.97	2181.38
430.16	2303.09
430.34	2263.30
430.53	2349.90
430.72	2314.79
430.91	2275.00
431.10	2363.94
431.28	2232.87
431.47	2286.70
431.66	2338.20
431.85	2345.22
432.03	2314.79
432.22	2359.26
432.41	2352.24
432.60	2368.62
432.79	2382.67
432.97	2368.62
433.16	2324.15
433.35	2434.16
433.54	2347.56
433.72	2434.16
433.91	2422.45
434.10	2340.54
434.28	2417.77
434.47	2406.07
434.66	2427.14
434.85	2457.56
435.03	2586.29
435.22	2878.86
435.41	2878.86
435.59	2740.77
435.78	2759.49
435.97	2698.64
436.16	2605.02
436.34	2576.93
436.53	2569.91
436.72	2551.18
436.90	2663.53
437.09	2600.34
437.28	2583.95
437.46	2525.44
437.65	2490.33
437.84	2574.59
438.02	2605.02
438.21	2642.46
438.40	2548.84
438.58	2682.25
438.77	2661.19
438.96	2724.38
439.14	2628.42
439.33	2647.15
439.52	2668.21
439.70	2747.79
439.89	2818.00
440.08	2710.34
440.26	2712.68
440.45	2794.60
440.63	2846.09
440.82	2935.03
441.01	2761.83
441.19	2803.96
441.38	2846.09
441.57	2787.58
441.75	2944.39
441.94	2993.55
442.12	2911.63
442.31	2937.37
442.50	2977.16
442.68	2979.50
442.87	2979.50
443.05	2963.12
443.24	2888.22
443.43	3002.91
443.61	2953.76
443.80	3141.00
443.98	2993.55
444.17	2930.35
444.35	2881.20
444.54	3110.57
444.73	3014.61
444.91	3096.53
445.10	3028.65
445.28	3103.55
445.47	2986.52
445.65	3052.06
445.84	3045.04
446.02	3054.40
446.21	3206.53
446.39	3103.55
446.58	3038.02
446.77	3183.13
446.95	2958.44
447.14	2970.14
447.32	3148.02
447.51	3159.72
447.69	3173.77
447.88	3014.61
448.06	3101.21
448.25	3126.96
448.43	3220.58
448.62	3183.13
448.80	3215.90
448.99	3108.23
449.17	3232.28
449.36	3208.87
449.54	3183.13
449.73	3192.49
449.91	3398.46
450.10	3197.17
450.28	3204.19
450.46	3309.52
450.65	3201.85
450.83	3222.92
451.02	3232.28
451.20	3431.23
451.39	3382.07
451.57	3342.28
451.76	3276.75
451.94	3314.20
452.13	3393.78
452.31	3412.50
452.49	3300.16
452.68	3330.58
452.86	3339.94
453.05	3353.99
453.23	3428.88
453.42	3412.50
453.60	3379.73
453.78	3468.67
453.97	3288.45
454.15	3417.18
454.34	3300.16
454.52	3478.04
454.70	3639.53
454.89	3487.40
455.07	3513.14
455.26	3548.25
455.44	3449.95
455.62	3581.02
455.81	3592.72
455.99	3531.87
456.17	3566.98
456.36	3534.21
456.54	3541.23
456.73	3548.25
456.91	3676.98
457.09	3702.73
457.28	3691.02
457.46	3660.60
457.64	3574.00
457.83	3719.11
458.01	3637.19
458.19	3681.66
458.38	3674.64
458.56	3662.94
458.74	3754.22
458.93	3716.77
459.11	3740.18
459.29	3765.92
459.48	3728.47
459.66	3826.78
459.84	3686.34
460.03	3826.78
460.21	3782.31
460.39	3908.69
460.57	3801.03
460.76	3875.93
460.94	3859.54
461.12	3983.59
461.31	3904.01
461.49	3894.65
461.67	3892.31
461.85	3901.67
462.04	3892.31
462.22	4184.88
462.40	3995.29
462.59	3960.19
462.77	4002.32
462.95	3817.41
463.13	4126.36
463.32	4037.42
463.50	4044.45
463.68	4053.81
463.86	4121.68
464.05	4070.19
464.23	3978.91
464.41	4128.70
464.59	4154.45
464.78	4091.26
464.96	4030.40
465.14	4086.58
465.32	4128.70
465.50	4025.72
465.69	4140.41
465.87	4079.55
466.05	4081.89
466.23	4135.73
466.41	4238.71
466.60	4133.39
466.78	4227.01
466.96	4205.94
467.14	4135.73
467.32	4234.03
467.51	4266.80
467.69	4070.19
467.87	4217.65
468.05	4325.31
468.23	4217.65
468.41	4156.79
468.60	4203.60
468.78	4252.75
468.96	4278.50
469.14	4313.61
469.32	4355.74
469.50	4299.56
469.69	4358.08
469.87	4465.74
470.05	4367.44
470.23	4500.85
470.41	4458.72
470.59	4332.33
470.77	4283.18
470.95	4365.10
471.14	4594.47
471.32	4503.19
471.50	4472.76
471.68	4547.66
471.86	4545.32
472.04	4599.15
472.22	4657.67
472.40	4648.30
472.58	4669.37
472.77	4652.98
472.95	4603.83
473.13	4809.80
473.31	4674.05
473.49	4755.97
473.67	4699.80
473.85	4748.95
474.03	4753.63
474.21	4968.96
474.39	4938.53
474.57	4882.36
474.75	4908.10
474.93	4858.95
475.12	4868.31
475.30	4931.51
475.48	5057.90
475.66	5029.81
475.84	4992.36
476.02	5071.94
476.20	4957.25
476.38	5144.50
476.56	5406.64
476.74	5268.55
476.92	5188.97
477.10	5291.95
477.28	5165.56
477.46	5235.78
477.64	5348.12
477.82	5523.66
478.00	5577.50
478.18	5530.69
478.36	5542.39
478.54	5469.83
478.72	5582.18
478.90	5729.63
479.08	5612.60
479.26	5657.07
479.44	5547.07
479.62	5685.16
479.80	5743.67
479.98	5703.89
480.16	5895.81
480.34	5888.79
480.52	5949.64
480.70	6019.86
480.88	5930.92
481.06	5907.51
481.24	5996.45
481.41	6090.07
481.59	6347.53
481.77	6202.42
481.95	6244.55
482.13	6197.74
482.31	6415.41
482.49	6417.75
482.67	6324.13
482.85	6331.15
483.03	6443.49
483.21	6602.65
483.39	6684.57
483.57	6473.92
483.74	6619.04
483.92	6750.10
484.10	6656.48
484.28	6782.87
484.46	7009.90
484.64	6881.18
484.82	6981.82
485.00	6953.73
485.18	7108.21
485.35	7126.93
485.53	7124.59
485.71	7117.57
485.89	7330.56
486.07	7234.60
486.25	7199.49
486.43	7365.67
486.61	7489.71
486.78	7595.04
486.96	7700.36
487.14	7702.70
487.32	7660.57
487.50	7772.92
487.68	7744.83
487.85	7789.30
488.03	7847.82
488.21	8006.97
488.39	8011.65
488.57	8042.08
488.75	8131.02
488.92	8322.94
489.10	8210.60
489.28	8250.39
489.46	8346.35
489.64	8128.68
489.81	8484.44
489.99	8461.04
490.17	8718.50
490.35	8580.40
490.53	8622.53
490.70	8791.05
490.88	8470.40
491.06	8877.65
491.24	8865.95
491.41	8844.88
491.59	8879.99
491.77	8720.84
491.95	9193.62
492.13	8915.10
492.30	8980.64
492.48	9170.22
492.66	9226.39
492.84	9200.65
493.01	9327.03
493.19	9172.56
493.37	9268.52
493.54	9413.63
493.72	9355.12
493.90	9362.14
494.08	9696.84
494.25	9703.86
494.43	9790.46
494.61	9610.24
494.79	9785.78
494.96	9816.21
495.14	9767.06
495.32	9912.17
495.49	9827.91
495.67	9951.96
495.85	10200.05
496.02	10010.47
496.20	10143.88
496.38	10207.08
496.55	10340.49
496.73	10305.38
496.91	10525.39
497.09	10279.63
497.26	10576.88
497.44	10422.41
497.62	10541.77
497.79	10663.48
497.97	10614.33
498.14	10750.08
498.32	10661.14
498.50	10661.14
498.67	10810.93
498.85	10860.09
499.03	10925.62
499.20	10895.19
499.38	10925.62
499.56	11073.07
499.73	11183.08
499.91	11066.05
500.08	11136.27
500.26	11143.29
500.44	11302.45
500.61	11157.33
500.79	11166.70
500.97	11379.68
501.14	11613.74
501.32	11501.39
501.49	11578.63
501.67	11475.65
501.84	11438.20
502.02	11520.12
502.20	11346.92
502.37	11829.07
502.55	11564.59
502.72	11564.59
502.90	11772.89
503.07	11695.66
503.25	11815.02
503.43	11826.73
503.60	11714.38
503.78	11847.79
503.95	11735.45
504.13	11920.35
504.30	11969.50
504.48	12025.67
504.65	12037.38
504.83	12154.40
505.01	12271.43
505.18	12074.82
505.36	12276.11
505.53	12166.10
505.71	12222.28
505.88	12503.14
506.06	12077.16
506.23	12262.07
506.41	12210.57
506.58	12435.27
506.76	12191.85
506.93	12533.57
507.11	12585.06
507.28	12643.57
507.46	12489.10
507.63	12650.60
507.81	12727.83
507.98	12634.21
508.16	12713.79
508.33	12461.01
508.50	12901.03
508.68	12835.50
508.85	12844.86
509.03	13032.10
509.20	12816.77
509.38	12889.33
509.55	13046.15
509.73	13191.26
509.90	13359.78
510.08	13062.53
510.25	13380.84
510.42	13385.52
510.60	13252.11
510.77	13177.22
510.95	13568.09
511.12	13090.62
511.30	13472.12
511.47	13685.11
511.64	13551.70
511.82	13537.66
511.99	13497.87
512.17	13621.92
512.34	13518.93
512.51	13872.36
512.69	13790.44
512.86	13694.47
513.04	13980.02
513.21	13729.58
513.38	13825.54
513.56	13846.61
513.73	13680.43
513.90	14052.58
514.08	14008.11
514.25	13841.93
514.43	14146.20
514.60	14136.84
514.77	14125.13
514.95	13907.46
515.12	13970.66
515.29	14143.86
515.47	14216.41
515.64	14246.84
515.81	14012.79
515.99	14340.46
516.16	14401.32
516.33	14265.57
516.51	14504.30
516.68	14558.13
516.85	14602.60
517.03	14579.20
517.20	14689.20
517.37	14675.16
517.54	14668.14
517.72	14548.77
517.89	14726.65
518.06	14623.67
518.24	14644.73
518.41	14633.03
518.58	14555.79
518.75	14452.81
518.93	14918.57
519.10	14621.33
519.27	14768.78
519.45	14979.43
519.62	14705.59
519.79	15002.83
519.96	14974.75
520.14	14693.88
520.31	14855.38
520.48	14967.73
520.65	15059.01
520.83	15208.80
521.00	15051.99
521.17	15051.99
521.34	15370.30
521.52	15161.99
521.69	15068.37
521.86	15220.50
522.03	15154.97
522.20	15309.44
522.38	15398.38
522.55	15374.98
522.72	15597.33
522.89	15360.94
523.07	15435.83
523.24	15496.69
523.41	15096.46
523.58	15658.18
523.75	15634.78
523.92	15536.48
524.10	15646.48
524.27	15648.82
524.44	15719.04
524.61	15552.86
524.78	15810.32
524.96	15524.77
525.13	15922.66
525.30	15903.94
525.47	15962.45
525.64	15915.64
525.81	15887.56
525.98	15744.78
526.16	15833.72
526.33	15981.18
526.50	16397.79
526.67	15941.39
526.84	16196.51
527.01	15873.51
527.18	16053.73
527.36	15948.41
527.53	15936.71
527.70	16418.86
527.87	16322.90
528.04	16416.52
528.21	16582.70
528.38	16290.13
528.55	16053.73
528.72	16145.02
528.89	16304.17
529.07	16170.76
529.24	16358.00
529.41	16475.03
529.58	16505.46
529.75	16365.03
529.92	16695.04
530.09	16573.33
530.26	16734.83
530.43	16545.25
530.60	16404.81
530.77	16603.76
530.94	16973.56
531.11	16751.21
531.28	16727.81
531.46	16681.00
531.63	16526.52
531.80	16641.21
531.97	16858.88
532.14	16807.39
532.31	16751.21
532.48	17135.06
532.65	16643.55
532.82	16489.07
532.99	16971.22
533.16	16994.63
533.33	16926.75
533.50	16910.37
533.67	17128.04
533.84	16849.52
534.01	17142.08
534.18	16662.27
534.35	17191.23
534.52	17247.41
534.69	17216.98
534.86	17165.49
535.03	16968.88
535.20	17123.36
535.37	17153.79
535.54	17193.58
535.71	17090.59
535.88	17343.37
536.05	17298.90
536.22	17284.86
536.38	17259.11
536.55	17413.59
536.72	17174.85
536.89	17717.86
537.06	17530.61
537.23	17633.60
537.40	17706.15
537.57	17528.27
537.74	17607.85
537.91	17710.83
538.08	17715.51
538.25	17570.40
538.42	17404.22
538.59	17659.34
538.75	17439.33
538.92	17488.48
539.09	17640.62
539.26	17940.21
539.43	17956.59
539.60	17879.35
539.77	18071.28
539.94	17771.69
540.11	18043.19
540.28	18200.01
540.44	17987.02
540.61	17862.97
540.78	17881.69
540.95	18176.60
541.12	18221.07
541.29	18349.80
541.46	18239.79
541.62	18555.77
541.79	18195.32
541.96	18384.91
542.13	18532.36
542.30	18621.30
542.47	18551.09
542.63	18466.83
542.80	18501.93
542.97	18796.84
543.14	18932.59
543.31	18937.27
543.48	18752.37
543.64	18843.65
543.81	18679.82
543.98	18799.18
544.15	18672.79
544.32	18768.76
544.48	18808.54
544.65	18944.30
544.82	18600.24
544.99	18534.70
545.16	18803.86
545.32	18707.90
545.49	19159.63
545.66	19646.46
545.83	19571.56
546.00	19735.40
546.16	19503.68
546.33	19508.37
546.50	19161.97
546.67	18916.21
546.83	18948.98
547.00	19044.94
547.17	18668.11
547.34	18628.32
547.50	18965.36
547.67	19136.22
547.84	18934.93
548.00	19049.62
548.17	19002.81
548.34	18892.80
548.51	19129.20
548.67	18986.43
548.84	19283.67
549.01	18885.78
549.18	19073.03
549.34	19042.60
549.51	19433.47
549.68	19208.78
549.84	19117.50
550.01	19066.00
550.18	19049.62
550.34	18956.00
550.51	18986.43
550.68	19377.30
550.84	19000.47
551.01	19269.63
551.18	19129.20
551.34	18911.53
551.51	19239.20
551.68	18895.14
551.84	18855.36
552.01	18782.80
552.18	19133.88
552.34	19197.07
552.51	19344.53
552.68	19262.61
552.84	19349.21
553.01	19328.14
553.18	19262.61
553.34	19267.29
553.51	19143.24
553.67	19370.27
553.84	19475.60
554.01	19311.76
554.17	19316.44
554.34	19442.83
554.51	19176.01
554.67	19461.55
554.84	19384.32
555.00	19253.25
555.17	19234.52
555.33	19466.24
555.50	19278.99
555.67	19213.46
555.83	19473.26
556.00	19377.30
556.16	19688.59
556.33	19377.30
556.50	19782.21
556.66	19592.62
556.83	19260.27
556.99	19515.39
557.16	19524.75
557.32	19784.55
557.49	19634.75
557.65	19700.29
557.82	19655.82
557.98	19351.55
558.15	19508.37
558.32	19433.47
558.48	19726.04
558.65	19962.43
558.81	19695.61
558.98	19646.46
559.14	19988.18
559.31	19412.40
559.47	19644.12
559.64	19695.61
559.80	19674.54
559.97	20020.94
560.13	19681.56
560.30	19768.16
560.46	19550.49
560.63	19777.53
560.79	19737.74
560.96	19946.05
561.12	19971.79
561.29	19829.02
561.45	19697.95
561.61	19880.51
561.78	19894.55
561.94	19882.85
562.11	19754.12
562.27	20046.69
562.44	19777.53
562.60	19702.63
562.77	19784.55
562.93	19791.57
563.10	20084.14
563.26	20058.39
563.42	19943.70
563.59	20203.50
563.75	20046.69
563.92	20032.65
564.08	20107.54
564.24	19831.36
564.41	19892.21
564.57	19805.61
564.74	19667.52
564.90	19873.49
565.07	20011.58
565.23	20072.43
565.39	19840.72
565.56	20102.86
565.72	20144.99
565.88	20135.63
566.05	20231.59
566.21	19887.53
566.38	20034.99
566.54	20011.58
566.70	20252.66
566.87	20271.38
567.03	20175.42
567.19	20177.76
567.36	20023.28
567.52	20009.24
567.68	20428.20
567.85	19700.29
568.01	20269.04
568.17	20093.50
568.34	20290.10
568.50	19922.64
568.66	20184.78
568.83	20084.14
568.99	19967.11
569.15	20121.59
569.32	19915.62
569.48	19939.02
569.64	19978.81
569.81	20023.28
569.97	20044.35
570.13	20208.19
570.30	19948.39
570.46	20140.31
570.62	19826.68
570.78	20006.90
570.95	19873.49
571.11	20264.36
571.27	20123.93
571.43	19833.70
571.60	20126.27
571.76	20238.61
571.92	20166.06
572.09	20184.78
572.25	20311.17
572.41	20592.03
572.57	20233.93
572.74	20573.31
572.90	19939.02
573.06	20205.84
573.22	20180.10
573.38	20240.95
573.55	20201.16
573.71	20290.10
573.87	20465.64
574.03	19850.08
574.20	20514.80
574.36	20182.44
574.52	20463.30
574.68	20404.79
574.84	20252.66
575.01	20107.54
575.17	20365.00
575.33	20016.26
575.49	20470.33
575.65	20058.39
575.82	20346.28
575.98	20437.56
576.14	20381.38
576.30	20512.46
576.46	20659.91
576.62	20608.42
576.79	20180.10
576.95	20060.73
577.11	20154.35
577.27	20538.20
577.43	20346.28
577.59	20250.32
577.75	20194.14
577.92	20306.49
578.08	20280.74
578.24	20156.69
578.40	20570.97
578.56	20535.86
578.72	20577.99
578.88	20781.62
579.04	20463.30
579.21	20219.89
579.37	20374.36
579.53	20613.10
579.69	19906.26
579.85	20393.09
580.01	20297.13
580.17	20446.92
580.33	20336.91
580.49	20353.30
580.65	20648.21
580.82	20418.83
580.98	20154.35
581.14	20425.86
581.30	20086.48
581.46	20304.15
581.62	20329.89
581.78	20297.13
581.94	20493.73
582.10	20140.31
582.26	20404.79
582.42	20404.79
582.58	20561.61
582.74	20306.49
582.90	20500.75
583.06	20531.18
583.22	20376.70
583.38	20346.28
583.54	20159.03
583.70	20575.65
583.86	20374.36
584.02	20280.74
584.18	20369.68
584.34	20559.27
584.50	20428.20
584.66	20130.95
584.82	20390.75
584.98	20720.76
585.14	20219.89
585.30	20240.95
585.46	20517.14
585.62	20135.63
585.78	20924.39
585.94	20498.41
586.10	20875.24
586.26	20622.46
586.42	20690.34
586.58	20430.54
586.74	20379.04
586.90	20294.79
587.06	20552.24
587.22	20393.09
587.38	20629.48
587.54	20498.41
587.70	20739.49
587.86	20615.44
588.02	20479.69
588.18	20690.34
588.34	20519.48
588.49	20388.41
588.65	20627.14
588.81	20449.26
588.97	20643.52
589.13	20741.83
589.29	20617.78
589.45	20851.83
589.61	20673.95
589.77	20482.03
589.93	20889.28
590.08	20453.94
590.24	20891.62
590.40	20533.52
590.56	20533.52
590.72	20655.23
590.88	20587.35
591.04	20727.78
591.20	20716.08
591.35	20608.42
