SpectraSuite Data File
++++++++++++++++++++++++++++++++++++
Date: Thu Oct 24 13:21:17 EDT 2013
User: stostad
Dark Spectrum Present: No
Reference Spectrum Present: No
Number of Sampled Component Spectra: 1
Spectrometers: USB2+H05261
Integration Time (usec): 100000 (USB2+H05261)
Spectra Averaged: 1 (USB2+H05261)
Boxcar Smoothing: 0 (USB2+H05261)
Correct for Electrical Dark: No (USB2+H05261)
Strobe/Lamp Enabled: No (USB2+H05261)
Correct for Detector Non-linearity: No (USB2+H05261)
Correct for Stray Light: No (USB2+H05261)
Number of Pixels in Processed Spectrum: 2048
>>>>>Begin Processed Spectral Data<<<<<
365.73	531.30
365.92	531.30
366.12	531.30
366.32	519.60
366.52	477.47
366.72	489.17
366.91	430.66
367.11	444.70
367.31	498.53
367.51	456.40
367.70	442.36
367.90	545.34
368.10	454.06
368.30	503.22
368.49	479.81
368.69	456.40
368.89	437.68
369.09	472.79
369.28	465.77
369.48	437.68
369.68	503.22
369.87	559.39
370.07	561.73
370.27	578.11
370.47	599.18
370.66	737.27
370.86	781.74
371.06	863.66
371.25	891.74
371.45	861.32
371.65	894.08
371.84	767.70
372.04	821.53
372.24	847.27
372.44	770.04
372.63	802.80
372.83	896.43
373.03	823.87
373.22	912.81
373.42	795.78
373.62	877.70
373.81	863.66
374.01	901.11
374.21	898.77
374.40	994.73
374.60	966.64
374.79	1004.09
374.99	887.06
375.19	922.17
375.38	875.36
375.58	915.15
375.78	938.55
375.97	994.73
376.17	938.55
376.37	873.02
376.56	990.05
376.76	943.24
376.95	966.64
377.15	954.94
377.35	950.26
377.54	922.17
377.74	894.08
377.93	901.11
378.13	966.64
378.33	966.64
378.52	980.68
378.72	1001.75
378.91	1004.09
379.11	964.30
379.31	950.26
379.50	938.55
379.70	1008.77
379.89	1139.84
380.09	915.15
380.28	959.62
380.48	999.41
380.68	978.34
380.87	990.05
381.07	1013.45
381.26	971.32
381.46	1008.77
381.65	1020.47
381.85	978.34
382.04	1029.84
382.24	999.41
382.43	966.64
382.63	957.28
382.83	1043.88
383.02	1027.50
383.22	1116.44
383.41	1018.13
383.61	1086.01
383.80	1086.01
384.00	1109.41
384.19	1048.56
384.39	1069.62
384.58	1029.84
384.78	1064.94
384.97	1055.58
385.17	1095.37
385.36	1081.33
385.56	1025.15
385.75	1071.97
385.95	1149.20
386.14	1165.59
386.34	1118.78
386.53	1135.16
386.72	1118.78
386.92	1130.48
387.11	1158.57
387.31	1137.50
387.50	1163.25
387.70	1184.31
387.89	1132.82
388.09	1142.18
388.28	1198.35
388.48	1118.78
388.67	1149.20
388.86	1184.31
389.06	1118.78
389.25	1158.57
389.45	1245.16
389.64	1210.06
389.84	1184.31
390.03	1158.57
390.22	1170.27
390.42	1238.14
390.61	1193.67
390.81	1170.27
391.00	1252.19
391.19	1231.12
391.39	1228.78
391.58	1273.25
391.78	1313.04
391.97	1266.23
392.16	1268.57
392.36	1249.85
392.55	1277.93
392.75	1252.19
392.94	1289.64
393.13	1275.59
393.33	1303.68
393.52	1273.25
393.71	1416.02
393.91	1324.74
394.10	1352.83
394.29	1233.46
394.49	1338.79
394.68	1336.45
394.88	1308.36
395.07	1432.41
395.26	1380.92
395.46	1343.47
395.65	1380.92
395.84	1348.15
396.04	1404.32
396.23	1432.41
396.42	1394.96
396.62	1488.58
396.81	1425.39
397.00	1355.17
397.19	1490.92
397.39	1350.49
397.58	1373.89
397.77	1441.77
397.97	1458.15
398.16	1479.22
398.35	1504.96
398.55	1448.79
398.74	1427.73
398.93	1526.03
399.12	1488.58
399.32	1521.35
399.51	1549.43
399.70	1629.01
399.90	1523.69
400.09	1584.54
400.28	1554.12
400.47	1504.96
400.67	1563.48
400.86	1645.40
401.05	1570.50
401.24	1591.56
401.44	1488.58
401.63	1645.40
401.82	1661.78
402.01	1643.06
402.21	1685.19
402.40	1589.22
402.59	1654.76
402.78	1689.87
402.97	1607.95
403.17	1708.59
403.36	1750.72
403.55	1715.61
403.74	1769.44
403.93	1809.23
404.13	1867.75
404.32	1809.23
404.51	1788.17
404.70	1811.57
404.89	1785.83
405.09	1832.64
405.28	1902.86
405.47	1790.51
405.66	1874.77
405.85	1879.45
406.05	1893.49
406.24	1888.81
406.43	1898.17
406.62	1895.83
406.81	1902.86
407.00	1849.02
407.20	1909.88
407.39	1893.49
407.58	1959.03
407.77	1919.24
407.96	2029.24
408.15	2033.93
408.34	1989.46
408.54	2160.31
408.73	2038.61
408.92	2155.63
409.11	2092.44
409.30	2038.61
409.49	2120.53
409.68	2066.69
409.87	2153.29
410.07	2129.89
410.26	2136.91
410.45	2197.76
410.64	2179.04
410.83	2143.93
411.02	2317.13
411.21	2324.15
411.40	2265.64
411.59	2321.81
411.78	2225.85
411.98	2230.53
412.17	2389.69
412.36	2291.38
412.55	2459.90
412.74	2438.84
412.93	2448.20
413.12	2377.98
413.31	2485.65
413.50	2385.01
413.69	2410.75
413.88	2590.97
414.07	2530.12
414.26	2541.82
414.45	2586.29
414.64	2506.71
414.83	2654.17
415.02	2579.27
415.22	2640.12
415.41	2663.53
415.60	2738.43
415.79	2679.91
415.98	2705.66
416.17	2637.78
416.36	2630.76
416.55	2757.15
416.74	2754.81
416.93	2710.34
417.12	2768.85
417.31	2906.95
417.50	2803.96
417.69	2885.88
417.88	2771.19
418.07	2874.18
418.26	2977.16
418.45	2832.05
418.64	2925.67
418.83	2977.16
419.02	3087.17
419.21	2979.50
419.39	2946.73
419.58	3030.99
419.77	2956.10
419.96	3082.49
420.15	3042.70
420.34	3040.36
420.53	3084.83
420.72	3169.09
420.91	3089.51
421.10	2932.69
421.29	3213.56
421.48	3103.55
421.67	3141.00
421.86	3098.87
422.05	3225.26
422.24	3126.96
422.43	3194.83
422.61	3272.07
422.80	3229.94
422.99	3283.77
423.18	3255.69
423.37	3288.45
423.56	3337.60
423.75	3293.13
423.94	3234.62
424.13	3019.29
424.32	3075.46
424.50	3353.99
424.69	3393.78
424.88	3337.60
425.07	3300.16
425.26	3311.86
425.45	3300.16
425.64	3204.19
425.83	3187.81
426.01	3353.99
426.20	3246.32
426.39	3356.33
426.58	3384.41
426.77	3269.73
426.96	3417.18
427.15	3389.10
427.33	3403.14
427.52	3403.14
427.71	3438.25
427.90	3550.59
428.09	3466.33
428.28	3424.20
428.46	3421.86
428.65	3459.31
428.84	3496.76
429.03	3534.21
429.22	3468.67
429.40	3768.26
429.59	3574.00
429.78	3414.84
429.97	3463.99
430.16	3545.91
430.34	3597.40
430.53	3602.08
430.72	3508.46
430.91	3618.47
431.10	3609.11
431.28	3709.75
431.47	3571.66
431.66	3836.14
431.85	3574.00
432.03	3751.88
432.22	3915.72
432.41	3854.86
432.60	3831.46
432.79	3962.53
432.97	3824.44
433.16	3831.46
433.35	3861.88
433.54	3878.27
433.72	3922.74
433.91	3908.69
434.10	4002.32
434.28	3833.80
434.47	3981.25
434.66	3992.95
434.85	4133.39
435.03	4250.41
435.22	4212.96
435.41	4418.93
435.59	4339.35
435.78	4294.88
435.97	4337.01
436.16	4142.75
436.34	4079.55
436.53	4124.02
436.72	4262.12
436.90	4133.39
437.09	4149.77
437.28	4124.02
437.46	4152.11
437.65	4149.77
437.84	4217.65
438.02	4243.39
438.21	4229.35
438.40	4245.73
438.58	4341.69
438.77	4411.91
438.96	4395.53
439.14	4456.38
439.33	4500.85
439.52	4500.85
439.70	4676.39
439.89	4507.87
440.08	4723.20
440.26	4748.95
440.45	4674.05
440.63	4638.94
440.82	4856.61
441.01	4655.33
441.19	4697.46
441.38	4812.14
441.57	4840.23
441.75	4873.00
441.94	4992.36
442.12	4887.04
442.31	4961.94
442.50	4788.74
442.68	4849.59
442.87	4882.36
443.05	4985.34
443.24	4964.28
443.43	5039.17
443.61	5064.92
443.80	5261.52
443.98	4961.94
444.17	4744.27
444.35	5135.14
444.54	5184.29
444.73	4889.38
444.91	4968.96
445.10	5184.29
445.28	5125.77
445.47	5231.10
445.65	4957.25
445.84	5270.89
446.02	5268.55
446.21	5247.48
446.39	5053.22
446.58	5181.95
446.77	5118.75
446.95	5123.43
447.14	5254.50
447.32	5348.12
447.51	5444.09
447.69	5142.16
447.88	5074.28
448.06	5315.36
448.25	5289.61
448.43	5282.59
448.62	5371.53
448.80	5275.57
448.99	5308.34
449.17	5345.78
449.36	5188.97
449.54	5352.81
449.73	5626.65
449.91	5558.77
450.10	5416.00
450.28	5577.50
450.46	5568.13
450.65	5437.06
450.83	5542.39
451.02	5699.20
451.20	5502.60
451.39	5526.00
451.57	5652.39
451.76	5593.88
451.94	5626.65
452.13	5713.25
452.31	5682.82
452.49	5472.17
452.68	5722.61
452.86	5621.97
453.05	5729.63
453.23	5694.52
453.42	5762.40
453.60	5619.63
453.78	5746.02
453.97	5619.63
454.15	5736.65
454.34	5743.67
454.52	5849.00
454.70	5785.80
454.89	5825.59
455.07	5879.43
455.26	5933.26
455.44	6092.41
455.62	6211.78
455.81	6132.20
455.99	6017.52
456.17	6061.99
456.36	6129.86
456.54	6155.61
456.73	6195.40
456.91	6277.32
457.09	6190.72
457.28	6183.70
457.46	6296.04
457.64	6408.39
457.83	6345.19
458.01	6342.85
458.19	6476.26
458.38	6246.89
458.56	6455.20
458.74	6305.40
458.93	6396.68
459.11	6642.44
459.29	6420.09
459.48	6590.95
459.66	6485.62
459.84	6448.18
460.03	6710.32
460.21	6619.04
460.39	6640.10
460.57	6733.72
460.76	6595.63
460.94	6682.23
461.12	6890.54
461.31	6853.09
461.49	6691.59
461.67	6668.19
461.85	6658.82
462.04	6759.47
462.22	7070.76
462.40	6958.41
462.59	6937.35
462.77	6850.75
462.95	6965.43
463.13	6834.36
463.32	7007.56
463.50	6820.32
463.68	7129.27
463.86	6871.81
464.05	6862.45
464.23	6848.41
464.41	7122.25
464.59	6916.28
464.78	7164.38
464.96	7119.91
465.14	6911.60
465.32	7145.66
465.50	7059.06
465.69	7164.38
465.87	7019.27
466.05	7166.72
466.23	7204.17
466.41	7265.02
466.60	7480.35
466.78	7122.25
466.96	7190.13
467.14	7307.15
467.32	7316.51
467.51	7349.28
467.69	7232.26
467.87	7419.50
468.05	7510.78
468.23	7414.82
468.41	7265.02
468.60	7349.28
468.78	7318.86
468.96	7564.61
469.14	7548.23
469.32	7644.19
469.50	7276.73
469.69	7639.51
469.87	7695.68
470.05	7761.22
470.23	7616.10
470.41	7805.69
470.59	7737.81
470.77	7681.64
470.95	7765.90
471.14	7866.54
471.32	7726.11
471.50	8063.15
471.68	8006.97
471.86	8039.74
472.04	8009.31
472.22	8374.44
472.40	8262.09
472.58	8112.30
472.77	8215.28
472.95	8273.79
473.13	8552.32
473.31	8166.13
473.49	8318.26
473.67	8077.19
473.85	8362.73
474.03	8636.58
474.21	8554.66
474.39	8568.70
474.57	8510.19
474.75	8795.73
474.93	8645.94
475.12	8573.38
475.30	8926.80
475.48	8720.84
475.66	8702.11
475.84	8702.11
476.02	8786.37
476.20	8875.31
476.38	8898.72
476.56	9303.63
476.74	9425.34
476.92	9261.50
477.10	9322.35
477.28	9535.34
477.46	9413.63
477.64	9303.63
477.82	9554.07
478.00	9820.89
478.18	9682.80
478.36	9729.61
478.54	9839.61
478.72	10050.26
478.90	9949.62
479.08	10083.03
479.26	10291.34
479.44	10087.71
479.62	10211.76
479.80	10340.49
479.98	10427.09
480.16	10719.65
480.34	10370.91
480.52	10750.08
480.70	10661.14
480.88	10478.58
481.06	10710.29
481.24	10876.47
481.41	10820.30
481.59	11073.07
481.77	11080.10
481.95	11075.42
482.13	11370.32
482.31	11311.81
482.49	11676.93
482.67	11456.92
482.85	11477.99
483.03	11882.90
483.21	11824.39
483.39	11943.75
483.57	11777.58
483.74	12084.19
483.92	12322.92
484.10	12273.77
484.28	12580.38
484.46	12374.41
484.64	12732.51
484.82	12418.88
485.00	12533.57
485.18	12755.92
485.35	12940.82
485.53	12966.57
485.71	13334.03
485.89	13254.45
486.07	13046.15
486.25	13163.17
486.43	13401.91
486.61	13542.34
486.78	13540.00
486.96	13898.10
487.14	13947.25
487.32	14022.15
487.50	14185.99
487.68	13982.36
487.85	14197.69
488.03	14452.81
488.21	14920.92
488.39	14492.60
488.57	14714.95
488.75	14677.50
488.92	15033.26
489.10	14972.41
489.28	15108.16
489.46	15192.42
489.64	15529.45
489.81	15632.44
489.99	15255.61
490.17	15714.36
490.35	15866.49
490.53	15896.92
490.70	15903.94
490.88	15915.64
491.06	16498.44
491.24	16025.65
491.41	16313.53
491.59	16203.53
491.77	16779.30
491.95	16585.04
492.13	16594.40
492.30	16814.41
492.48	16975.91
492.66	16812.07
492.84	16716.11
493.01	17076.55
493.19	16978.25
493.37	17156.13
493.54	17366.78
493.72	17579.76
493.90	17603.17
494.08	17736.58
494.25	18113.41
494.43	18068.94
494.61	18373.21
494.79	18427.04
494.96	18150.85
495.14	18583.85
495.32	18537.04
495.49	18572.15
495.67	18504.28
495.85	18581.51
496.02	18658.75
496.20	18778.12
496.38	19274.31
496.55	18970.04
496.73	19491.98
496.91	19304.74
497.09	19599.65
497.26	19548.15
497.44	19419.42
497.62	19424.11
497.79	19742.42
497.97	19976.47
498.14	20144.99
498.32	20453.94
498.50	19969.45
498.67	20135.63
498.85	20156.69
499.03	20325.21
499.20	20418.83
499.38	20526.50
499.56	20652.89
499.73	20683.31
499.91	20833.11
500.08	20781.62
500.26	20917.37
500.44	20765.23
500.61	21149.08
500.79	21057.80
500.97	21291.85
501.14	21326.96
501.32	21717.83
501.49	21413.56
501.67	21408.88
501.84	21729.53
502.02	21715.49
502.20	21839.54
502.37	21926.14
502.55	22097.00
502.72	21788.05
502.90	21984.65
503.07	22326.37
503.25	22071.25
503.43	22462.12
503.60	22253.81
503.78	22391.91
503.95	22300.62
504.13	22274.88
504.30	22581.49
504.48	22628.30
504.65	22513.61
504.83	22761.71
505.01	22888.10
505.18	22920.87
505.36	23307.05
505.53	23358.55
505.71	23035.55
505.88	23047.26
506.06	22963.00
506.23	23178.33
506.41	23487.28
506.58	23208.75
506.76	23475.57
506.93	23325.78
507.11	23524.72
507.28	23618.35
507.46	23721.33
507.63	24121.56
507.81	24060.71
507.98	23878.15
508.16	23824.31
508.33	24077.09
508.50	23999.85
508.68	24521.79
508.85	24444.56
509.03	24329.87
509.20	24484.34
509.38	24751.17
509.55	24744.14
509.73	24830.74
509.90	24741.80
510.08	25001.60
510.25	25338.64
510.42	25184.16
510.60	25200.55
510.77	25191.19
510.95	25549.29
511.12	25036.71
511.30	25340.98
511.47	25500.14
511.64	25411.20
511.82	25483.75
511.99	25268.42
512.17	25635.89
512.34	26001.01
512.51	25965.90
512.69	25788.02
512.86	25930.80
513.04	26218.68
513.21	26115.70
513.38	26113.36
513.56	25961.22
513.73	25944.84
513.90	26373.16
514.08	26321.66
514.25	26684.45
514.43	26745.30
514.60	26698.49
514.77	26684.45
514.95	26792.11
515.12	26668.06
515.29	27150.21
515.47	27098.72
515.64	27424.06
515.81	26951.27
515.99	27246.18
516.16	27566.83
516.33	27077.66
516.51	27218.09
516.68	27391.29
516.85	27335.12
517.03	27639.39
517.20	27517.68
517.37	27620.66
517.54	27812.59
517.72	27882.80
517.89	27641.73
518.06	27555.13
518.24	27978.76
518.41	28112.17
518.58	27807.90
518.75	27704.92
518.93	27761.09
519.10	27821.95
519.27	28100.47
519.45	28084.09
519.62	28606.03
519.79	28526.45
519.96	28048.98
520.14	28395.38
520.31	28322.82
520.48	28566.24
520.65	28456.23
520.83	29184.14
521.00	29137.33
521.17	29085.84
521.34	28957.11
521.52	28374.31
521.69	28779.23
521.86	29144.35
522.03	29214.57
522.20	29046.05
522.38	29514.16
522.55	29305.85
522.72	29408.83
522.89	29338.62
523.07	29563.31
523.24	29680.33
523.41	29254.36
523.58	29347.98
523.75	29741.19
523.92	29766.93
524.10	30085.25
524.27	30000.99
524.44	29841.83
524.61	30136.74
524.78	29895.66
524.96	30113.33
525.13	30221.00
525.30	29949.50
525.47	30508.88
525.64	30279.51
525.81	30611.87
525.98	29923.75
526.16	30345.05
526.33	30497.18
526.50	30773.36
526.67	30546.33
526.84	30438.67
527.01	30836.56
527.18	30785.07
527.36	30778.04
527.53	30808.47
527.70	31555.10
527.87	30801.45
528.04	30796.77
528.21	31061.25
528.38	31208.70
528.55	31377.22
528.72	31042.53
528.89	31250.83
529.07	31412.33
529.24	30960.61
529.41	31307.01
529.58	31304.67
529.75	31599.57
529.92	31721.28
530.09	31161.89
530.26	31297.64
530.43	31545.74
530.60	31732.98
530.77	31601.91
530.94	31887.46
531.11	31927.25
531.28	31941.29
531.46	31807.88
531.63	32287.69
531.80	31899.16
531.97	32500.68
532.14	31857.03
532.31	32390.67
532.48	32283.01
532.65	32404.72
532.82	32149.60
532.99	32236.20
533.16	32472.59
533.33	32444.51
533.50	32456.21
533.67	32308.76
533.84	32170.66
534.01	32376.63
534.18	32065.34
534.35	33282.42
534.52	32631.75
534.69	32643.45
534.86	32451.53
535.03	32849.42
535.20	32790.91
535.37	33443.91
535.54	32961.76
535.71	33090.49
535.88	33153.69
536.05	33209.86
536.22	33223.90
536.38	33247.31
536.55	33450.94
536.72	33675.63
536.89	33654.56
537.06	33670.95
537.23	33937.77
537.40	33738.82
537.57	33448.60
537.74	33703.71
537.91	33486.04
538.08	33308.16
538.25	33523.49
538.42	33591.37
538.59	33869.89
538.75	33647.54
538.92	33574.98
539.09	34057.14
539.26	33897.98
539.43	33638.18
539.60	34089.90
539.77	33951.81
539.94	34478.43
540.11	34169.48
540.28	34426.94
540.44	34015.01
540.61	34494.82
540.78	34059.48
540.95	34356.72
541.12	34579.07
541.29	34728.87
541.46	34593.12
541.62	34731.21
541.79	34747.59
541.96	34473.75
542.13	34897.39
542.30	34850.58
542.47	35257.83
542.63	34871.64
542.80	35299.96
542.97	35424.01
543.14	35576.14
543.31	35323.36
543.48	35620.61
543.64	35629.98
543.81	35505.93
543.98	35917.86
544.15	35606.57
544.32	35309.32
544.48	36051.27
544.65	35714.23
544.82	35967.01
544.99	35651.04
545.16	35922.54
545.32	35777.43
545.49	36128.51
545.66	36697.26
545.83	36989.83
546.00	36802.58
546.16	36697.26
546.33	35999.78
546.50	35702.53
546.67	36067.66
546.83	35534.01
547.00	35849.99
547.17	35648.70
547.34	35824.24
547.50	36364.90
547.67	36896.20
547.84	36561.51
548.00	36495.97
548.17	36708.96
548.34	36542.78
548.51	36250.22
548.67	36400.01
548.84	36233.83
549.01	36538.10
549.18	36694.92
549.34	36903.23
549.51	36809.61
549.68	36636.41
549.84	36577.89
550.01	36538.10
550.18	36208.09
550.34	36395.33
550.51	36786.20
550.68	37099.83
550.84	36491.29
551.01	36488.95
551.18	36327.45
551.34	36589.59
551.51	36865.78
551.68	36968.76
551.84	36577.89
552.01	36554.49
552.18	36540.44
552.34	36638.75
552.51	37015.57
552.68	36994.51
552.84	37354.95
553.01	37193.45
553.18	37151.32
553.34	37455.59
553.51	37127.92
553.67	37284.73
553.84	37146.64
554.01	37251.97
554.17	37223.88
554.34	37406.44
554.51	37542.19
554.67	37495.38
554.84	37226.22
555.00	37172.39
555.17	36926.63
555.33	37200.47
555.50	36999.19
555.67	37631.13
555.83	37474.32
556.00	37549.21
556.16	38124.99
556.33	37221.54
556.50	37336.23
556.66	37479.00
556.83	37427.51
556.99	37699.01
557.16	37921.36
557.32	37816.04
557.49	38244.35
557.65	37530.49
557.82	37921.36
557.98	38141.37
558.15	37610.07
558.32	37961.15
558.48	37724.75
558.65	38047.75
558.81	37993.92
558.98	37869.87
559.14	37942.42
559.31	37715.39
559.47	37860.51
559.64	38281.80
559.80	38284.14
559.97	38155.41
560.13	37790.29
560.30	38286.48
560.46	37970.51
560.63	37904.98
560.79	38307.55
560.96	38422.23
561.12	38132.01
561.29	37912.00
561.45	37785.61
561.61	38195.20
561.78	38326.27
561.94	38494.79
562.11	38607.14
562.27	38565.01
562.44	38457.34
562.60	38405.85
562.77	38181.16
562.93	38614.16
563.10	38609.48
563.26	37982.21
563.42	38504.15
563.59	38581.39
563.75	38513.52
563.92	38927.79
564.08	38672.67
564.24	39054.18
564.41	38841.19
564.57	38951.20
564.74	38553.30
564.90	38785.02
565.07	38948.85
565.23	38749.91
565.39	38707.78
565.56	39199.29
565.72	38466.70
565.88	38698.42
566.05	38841.19
566.21	38667.99
566.38	38455.00
566.54	38323.93
566.70	39030.77
566.87	38953.54
567.03	39199.29
567.19	39489.52
567.36	39391.22
567.52	38693.74
567.68	38658.63
567.85	38691.40
568.01	39133.76
568.17	38609.48
568.34	39093.97
568.50	39257.81
568.66	38742.89
568.83	39569.10
568.99	38918.43
569.15	38565.01
569.32	39412.28
569.48	38780.34
569.64	38941.83
569.81	38494.79
569.97	38808.42
570.13	38974.60
570.30	38590.75
570.46	38768.63
570.62	38998.01
570.78	38953.54
570.95	38700.76
571.11	39173.55
571.27	39171.21
571.43	38885.66
571.60	38827.15
571.76	38834.17
571.92	38960.56
572.09	38899.70
572.25	39344.41
572.41	39159.50
572.57	39548.03
572.74	39356.11
572.90	39316.32
573.06	39323.34
573.22	39173.55
573.38	39505.90
573.55	39290.57
573.71	39468.45
573.87	39311.64
574.03	39019.07
574.20	39257.81
574.36	39026.09
574.52	39239.08
574.68	39325.68
574.84	39395.90
575.01	39356.11
575.17	39971.67
575.33	38955.88
575.49	39056.52
575.65	39447.39
575.82	39847.62
575.98	39915.50
576.14	39770.38
576.30	39370.15
576.46	39456.75
576.62	39386.54
576.79	40002.10
576.95	39325.68
577.11	39456.75
577.27	39421.64
577.43	39641.65
577.59	39283.55
577.75	39206.31
577.92	39388.88
578.08	39234.40
578.24	39456.75
578.40	40084.01
578.56	39559.73
578.72	39414.62
578.88	39564.42
579.04	39625.27
579.21	39131.42
579.37	39910.82
579.53	39798.47
579.69	39374.83
579.85	39693.15
580.01	39800.81
580.17	39636.97
580.33	39215.68
580.49	39627.61
580.65	39660.38
580.82	39222.70
580.98	39269.51
581.14	39187.59
581.30	39819.53
581.46	39765.70
581.62	39058.86
581.78	39227.38
581.94	39653.36
582.10	39325.68
582.26	39569.10
582.42	39498.88
582.58	39643.99
582.74	39463.77
582.90	39945.92
583.06	39655.70
583.22	39487.18
583.38	39456.75
583.54	39407.60
583.70	39494.20
583.86	39522.29
584.02	39358.45
584.18	40149.55
584.34	39971.67
584.50	39791.45
584.66	39295.25
584.82	39313.98
584.98	39988.05
585.14	39856.98
585.30	39555.05
585.46	39868.69
585.62	39508.24
585.78	39906.13
585.94	39615.91
586.10	40069.97
586.26	40266.58
586.42	40320.41
586.58	39955.29
586.74	39543.35
586.90	39662.72
587.06	40208.06
587.22	40451.48
587.38	39491.86
587.54	40041.88
587.70	40222.11
587.86	39543.35
588.02	39957.63
588.18	40079.33
588.34	39959.97
588.49	39878.05
588.65	39828.90
588.81	39721.23
588.97	39997.41
589.13	39639.31
589.29	40325.09
589.45	40306.37
589.61	40238.49
589.77	40374.24
