SpectraSuite Data File
++++++++++++++++++++++++++++++++++++
Date: Thu Oct 24 13:21:08 EDT 2013
User: stostad
Dark Spectrum Present: No
Reference Spectrum Present: No
Number of Sampled Component Spectra: 1
Spectrometers: USB2+H05261
Integration Time (usec): 100000 (USB2+H05261)
Spectra Averaged: 1 (USB2+H05261)
Boxcar Smoothing: 0 (USB2+H05261)
Correct for Electrical Dark: No (USB2+H05261)
Strobe/Lamp Enabled: No (USB2+H05261)
Correct for Detector Non-linearity: No (USB2+H05261)
Correct for Stray Light: No (USB2+H05261)
Number of Pixels in Processed Spectrum: 2048
>>>>>Begin Processed Spectral Data<<<<<
365.73	589.82
365.92	589.82
366.12	589.82
366.32	465.77
366.52	465.77
366.72	505.56
366.91	418.96
367.11	435.34
367.31	409.59
367.51	454.06
367.70	470.45
367.90	423.64
368.10	440.02
368.30	425.98
368.49	496.19
368.69	524.28
368.89	484.49
369.09	498.53
369.28	498.53
369.48	425.98
369.68	428.32
369.87	496.19
370.07	510.24
370.27	528.96
370.47	573.43
370.66	688.12
370.86	725.57
371.06	739.61
371.25	779.40
371.45	690.46
371.65	770.04
371.84	751.31
372.04	713.86
372.24	802.80
372.44	786.42
372.63	751.31
372.83	723.23
373.03	730.25
373.22	706.84
373.42	774.72
373.62	800.46
373.81	807.48
374.01	826.21
374.21	748.97
374.40	751.31
374.60	807.48
374.79	821.53
374.99	765.36
375.19	784.08
375.38	816.85
375.58	753.65
375.78	823.87
375.97	837.91
376.17	807.48
376.37	816.85
376.56	814.51
376.76	795.78
376.95	772.38
377.15	805.14
377.35	802.80
377.54	830.89
377.74	814.51
377.93	842.59
378.13	837.91
378.33	828.55
378.52	788.76
378.72	821.53
378.91	809.83
379.11	837.91
379.31	833.23
379.50	791.10
379.70	905.79
379.89	835.57
380.09	772.38
380.28	854.30
380.48	844.93
380.68	882.38
380.87	849.61
381.07	863.66
381.26	835.57
381.46	812.17
381.65	858.98
381.85	833.23
382.04	851.96
382.24	889.40
382.43	873.02
382.63	903.45
382.83	812.17
383.02	851.96
383.22	961.96
383.41	795.78
383.61	903.45
383.80	858.98
384.00	905.79
384.19	959.62
384.39	866.00
384.58	866.00
384.78	903.45
384.97	889.40
385.17	884.72
385.36	924.51
385.56	898.77
385.75	887.06
385.95	938.55
386.14	894.08
386.34	945.58
386.53	931.53
386.72	851.96
386.92	898.77
387.11	873.02
387.31	917.49
387.50	919.83
387.70	910.47
387.89	961.96
388.09	954.94
388.28	994.73
388.48	957.28
388.67	1011.11
388.86	954.94
389.06	943.24
389.25	894.08
389.45	997.07
389.64	971.32
389.84	999.41
390.03	1011.11
390.22	1078.99
390.42	1036.86
390.61	985.37
390.81	964.30
391.00	1048.56
391.19	1032.18
391.39	961.96
391.58	964.30
391.78	1008.77
391.97	1090.69
392.16	1029.84
392.36	976.00
392.55	1048.56
392.75	1062.60
392.94	1025.15
393.13	985.37
393.33	966.64
393.52	978.34
393.71	1025.15
393.91	1050.90
394.10	1020.47
394.29	1011.11
394.49	1029.84
394.68	1081.33
394.88	1041.54
395.07	1043.88
395.26	1095.37
395.46	1135.16
395.65	1137.50
395.84	1137.50
396.04	1041.54
396.23	1062.60
396.42	1116.44
396.62	1125.80
396.81	1139.84
397.00	1165.59
397.19	1100.05
397.39	1196.01
397.58	1282.61
397.77	1198.35
397.97	1146.86
398.16	1196.01
398.35	1109.41
398.55	1149.20
398.74	1179.63
398.93	1219.42
399.12	1256.87
399.32	1228.78
399.51	1158.57
399.70	1224.10
399.90	1151.54
400.09	1149.20
400.28	1196.01
400.47	1226.44
400.67	1203.04
400.86	1158.57
401.05	1291.98
401.24	1245.16
401.44	1256.87
401.63	1282.61
401.82	1273.25
402.01	1277.93
402.21	1284.95
402.40	1245.16
402.59	1240.48
402.78	1362.19
402.97	1291.98
403.17	1308.36
403.36	1345.81
403.55	1306.02
403.74	1432.41
403.93	1418.36
404.13	1430.07
404.32	1334.11
404.51	1380.92
404.70	1376.24
404.89	1341.13
405.09	1329.42
405.28	1385.60
405.47	1387.94
405.66	1334.11
405.85	1446.45
406.05	1378.58
406.24	1357.51
406.43	1472.20
406.62	1481.56
406.81	1409.00
407.00	1479.22
407.20	1540.07
407.39	1542.41
407.58	1497.94
407.77	1416.02
407.96	1476.88
408.15	1516.67
408.34	1418.36
408.54	1523.69
408.73	1549.43
408.92	1521.35
409.11	1542.41
409.30	1533.05
409.49	1586.88
409.68	1647.74
409.87	1591.56
410.07	1551.78
410.26	1633.69
410.45	1640.72
410.64	1689.87
410.83	1633.69
411.02	1614.97
411.21	1589.22
411.40	1650.08
411.59	1748.38
411.78	1760.08
411.98	1593.90
412.17	1727.32
412.36	1654.76
412.55	1659.44
412.74	1874.77
412.93	1736.68
413.12	1762.42
413.31	1877.11
413.50	1755.40
413.69	1781.15
413.88	1818.60
414.07	1788.17
414.26	1792.85
414.45	1846.68
414.64	1870.09
414.83	1844.34
415.02	1928.60
415.22	1888.81
415.41	1858.39
415.60	1905.20
415.79	1959.03
415.98	1877.11
416.17	1930.94
416.36	1916.90
416.55	1856.04
416.74	1795.19
416.93	1928.60
417.12	2054.99
417.31	1930.94
417.50	1998.82
417.69	2045.63
417.88	2059.67
418.07	2165.00
418.26	2064.35
418.45	2111.16
418.64	2239.89
418.83	2125.21
419.02	2104.14
419.21	2160.31
419.39	2169.68
419.58	2169.68
419.77	2005.84
419.96	2181.38
420.15	2141.59
420.34	2253.94
420.53	2092.44
420.72	2204.78
420.91	2232.87
421.10	2277.34
421.29	2162.66
421.48	2218.83
421.67	2188.40
421.86	2211.81
422.05	2267.98
422.24	2200.10
422.43	2225.85
422.61	2223.51
422.80	2204.78
422.99	2321.81
423.18	2260.96
423.37	2321.81
423.56	2218.83
423.75	2321.81
423.94	2172.02
424.13	2143.93
424.32	2214.15
424.50	2296.07
424.69	2349.90
424.88	2366.28
425.07	2223.51
425.26	2370.96
425.45	2221.17
425.64	2218.83
425.83	2286.70
426.01	2279.68
426.20	2293.72
426.39	2296.07
426.58	2368.62
426.77	2319.47
426.96	2406.07
427.15	2289.04
427.33	2441.18
427.52	2328.83
427.71	2375.64
427.90	2253.94
428.09	2366.28
428.28	2387.35
428.46	2513.74
428.65	2377.98
428.84	2429.48
429.03	2471.61
429.22	2459.90
429.40	2471.61
429.59	2487.99
429.78	2354.58
429.97	2345.22
430.16	2469.27
430.34	2553.52
430.53	2471.61
430.72	2476.29
430.91	2558.21
431.10	2558.21
431.28	2466.92
431.47	2553.52
431.66	2572.25
431.85	2553.52
432.03	2544.16
432.22	2572.25
432.41	2644.81
432.60	2581.61
432.79	2686.94
432.97	2696.30
433.16	2593.31
433.35	2537.14
433.54	2708.00
433.72	2710.34
433.91	2752.47
434.10	2726.72
434.28	2661.19
434.47	2780.56
434.66	2679.91
434.85	2736.09
435.03	2871.84
435.22	3108.23
435.41	3325.90
435.59	3169.09
435.78	3129.30
435.97	3035.67
436.16	3061.42
436.34	2888.22
436.53	2925.67
436.72	2857.79
436.90	2759.49
437.09	2906.95
437.28	2813.32
437.46	2843.75
437.65	2885.88
437.84	3012.27
438.02	2972.48
438.21	2906.95
438.40	2862.48
438.58	2939.71
438.77	3138.66
438.96	2958.44
439.14	3129.30
439.33	3066.10
439.52	3070.78
439.70	3241.64
439.89	3115.25
440.08	3103.55
440.26	3152.70
440.45	3115.25
440.63	3155.04
440.82	3293.13
441.01	3204.19
441.19	3276.75
441.38	3286.11
441.57	3185.47
441.75	3276.75
441.94	3389.10
442.12	3407.82
442.31	3356.33
442.50	3353.99
442.68	3309.52
442.87	3403.14
443.05	3417.18
443.24	3501.44
443.43	3421.86
443.61	3440.59
443.80	3630.17
443.98	3262.71
444.17	3332.92
444.35	3452.29
444.54	3454.63
444.73	3428.88
444.91	3375.05
445.10	3435.91
445.28	3440.59
445.47	3332.92
445.65	3400.80
445.84	3471.01
446.02	3449.95
446.21	3545.91
446.39	3414.84
446.58	3672.30
446.77	3475.70
446.95	3396.12
447.14	3574.00
447.32	3723.79
447.51	3534.21
447.69	3499.10
447.88	3606.77
448.06	3627.83
448.25	3428.88
448.43	3550.59
448.62	3524.85
448.80	3485.06
448.99	3468.67
449.17	3606.77
449.36	3569.32
449.54	3602.08
449.73	3702.73
449.91	3777.62
450.10	3691.02
450.28	3857.20
450.46	3669.96
450.65	3662.94
450.83	3667.62
451.02	3726.13
451.20	3775.28
451.39	3906.35
451.57	3861.88
451.76	3672.30
451.94	3705.07
452.13	3712.09
452.31	3861.88
452.49	3845.50
452.68	3772.94
452.86	3899.33
453.05	3953.16
453.23	3768.26
453.42	3733.15
453.60	3845.50
453.78	3894.65
453.97	3861.88
454.15	3859.54
454.34	3889.97
454.52	3840.82
454.70	3829.12
454.89	3889.97
455.07	3894.65
455.26	3999.98
455.44	4039.76
455.62	3981.25
455.81	4002.32
455.99	3978.91
456.17	3997.64
456.36	4093.60
456.54	4079.55
456.73	4222.33
456.91	4339.35
457.09	4060.83
457.28	4227.01
457.46	3997.64
457.64	4234.03
457.83	4367.44
458.01	4117.00
458.19	4273.82
458.38	4205.94
458.56	4147.43
458.74	4093.60
458.93	4219.99
459.11	4259.78
459.29	4205.94
459.48	4276.16
459.66	4425.95
459.84	4222.33
460.03	4479.79
460.21	4404.89
460.39	4337.01
460.57	4344.03
460.76	4390.84
460.94	4470.42
461.12	4465.74
461.31	4297.22
461.49	4400.21
461.67	4407.23
461.85	4418.93
462.04	4524.26
462.22	4798.10
462.40	4662.35
462.59	4379.14
462.77	4599.15
462.95	4498.51
463.13	4662.35
463.32	4599.15
463.50	4692.77
463.68	4547.66
463.86	4592.13
464.05	4676.39
464.23	4550.00
464.41	4671.71
464.59	4557.02
464.78	4781.71
464.96	4779.37
465.14	4500.85
465.32	4755.97
465.50	4835.55
465.69	4856.61
465.87	4674.05
466.05	4795.76
466.23	4702.14
466.41	4730.22
466.60	4882.36
466.78	4758.31
466.96	4884.70
467.14	4884.70
467.32	4975.98
467.51	4873.00
467.69	4795.76
467.87	4833.21
468.05	4814.48
468.23	4922.15
468.41	4875.34
468.60	4924.49
468.78	4863.63
468.96	4880.02
469.14	4849.59
469.32	5146.84
469.50	4945.55
469.69	5020.45
469.87	5057.90
470.05	5004.07
470.23	5083.64
470.41	5153.86
470.59	5158.54
470.77	5128.11
470.95	5027.47
471.14	5224.08
471.32	5097.69
471.50	5217.05
471.68	5163.22
471.86	5109.39
472.04	5102.37
472.22	5282.59
472.40	5198.33
472.58	5282.59
472.77	5420.68
472.95	5500.26
473.13	5455.79
473.31	5324.72
473.49	5467.49
473.67	5331.74
473.85	5624.31
474.03	5568.13
474.21	5636.01
474.39	5502.60
474.57	5437.06
474.75	5731.97
474.93	5717.93
475.12	5767.08
475.30	5715.59
475.48	5636.01
475.66	5799.85
475.84	5671.12
476.02	5753.04
476.20	5678.14
476.38	6040.92
476.56	5994.11
476.74	6003.47
476.92	5982.41
477.10	5973.05
477.28	6125.18
477.46	6106.46
477.64	6136.88
477.82	6204.76
478.00	6389.66
478.18	6328.81
478.36	6274.98
478.54	6555.84
478.72	6399.02
478.90	6396.68
479.08	6612.01
479.26	6675.21
479.44	6530.09
479.62	6560.52
479.80	6726.70
479.98	6771.17
480.16	6773.51
480.34	6738.40
480.52	6984.16
480.70	6981.82
480.88	6773.51
481.06	7023.95
481.24	6810.96
481.41	6960.75
481.59	7056.72
481.77	7239.28
481.95	7101.19
482.13	7169.06
482.31	7187.79
482.49	7541.21
482.67	7442.90
482.85	7304.81
483.03	7377.37
483.21	7543.55
483.39	7613.76
483.57	7712.07
483.74	7733.13
483.92	7758.88
484.10	7683.98
484.28	8030.38
484.46	7831.43
484.64	8072.51
484.82	8037.40
485.00	8112.30
485.18	8290.18
485.35	8231.66
485.53	8358.05
485.71	8491.46
485.89	8430.61
486.07	8402.52
486.25	8720.84
486.43	8716.16
486.61	8702.11
486.78	8716.16
486.96	8842.54
487.14	8929.14
487.32	8793.39
487.50	8851.91
487.68	9004.04
487.85	9069.58
488.03	9240.44
488.21	9298.95
488.39	9137.45
488.57	9479.17
488.75	9298.95
488.92	9455.76
489.10	9563.43
489.28	9598.54
489.46	9834.93
489.64	9668.75
489.81	9703.86
489.99	9865.36
490.17	9956.64
490.35	10087.71
490.53	9846.63
490.70	10391.98
490.88	10050.26
491.06	10349.85
491.24	10216.44
491.41	10286.65
491.59	10485.60
491.77	10415.38
491.95	10504.32
492.13	10448.15
492.30	10609.65
492.48	10630.71
492.66	10523.05
492.84	10593.26
493.01	10789.87
493.19	10672.84
493.37	10771.15
493.54	10934.98
493.72	11052.01
493.90	11190.10
494.08	11236.91
494.25	11272.02
494.43	11227.55
494.61	11325.85
494.79	11541.18
494.96	11255.64
495.14	11344.58
495.32	11665.23
495.49	11770.55
495.67	11815.02
495.85	11648.85
496.02	11840.77
496.20	11901.62
496.38	11995.25
496.55	11878.22
496.73	12465.69
496.91	12079.50
497.09	12156.74
497.26	12201.21
497.44	12229.30
497.62	12133.34
497.79	12500.80
497.97	12374.41
498.14	12615.49
498.32	12510.16
498.50	12730.17
498.67	12734.85
498.85	12681.02
499.03	12879.97
499.20	12793.37
499.38	12795.71
499.56	12732.51
499.73	12751.24
499.91	13036.78
500.08	13259.13
500.26	12915.08
500.44	13118.70
500.61	13174.88
500.79	13158.49
500.97	13149.13
501.14	13383.18
501.32	13432.33
501.49	13336.37
501.67	13343.39
501.84	13518.93
502.02	13650.00
502.20	13404.25
502.37	13790.44
502.55	13694.47
502.72	13750.65
502.90	13795.12
503.07	13830.23
503.25	13823.20
503.43	13680.43
503.60	13802.14
503.78	13741.29
503.95	13755.33
504.13	14167.26
504.30	13956.61
504.48	14106.41
504.65	14176.62
504.83	14347.48
505.01	14513.66
505.18	14260.88
505.36	14534.73
505.53	14459.83
505.71	14342.80
505.88	14511.32
506.06	14525.36
506.23	14626.01
506.41	14490.26
506.58	14387.27
506.76	14487.92
506.93	14693.88
507.11	14909.21
507.28	15033.26
507.46	14684.52
507.63	15084.75
507.81	14651.75
507.98	14747.72
508.16	15030.92
508.33	15005.17
508.50	15051.99
508.68	15124.54
508.85	15000.49
509.03	15176.03
509.20	15337.53
509.38	15183.06
509.55	15517.75
509.73	15506.05
509.90	15480.30
510.08	15545.84
510.25	15543.50
510.42	15349.23
510.60	15438.17
510.77	15496.69
510.95	15854.79
511.12	15653.50
511.30	15782.23
511.47	15960.11
511.64	15892.24
511.82	15885.22
511.99	15775.21
512.17	15831.38
512.34	16123.95
512.51	16156.72
512.69	16123.95
512.86	16243.32
513.04	16002.24
513.21	16245.66
513.38	16116.93
513.56	16381.41
513.73	16341.62
513.90	16423.54
514.08	16397.79
514.25	16652.91
514.43	16395.45
514.60	16681.00
514.77	16306.51
514.95	16599.08
515.12	16386.09
515.29	16624.83
515.47	16582.70
515.64	17078.89
515.81	16898.67
515.99	16912.71
516.16	17060.16
516.33	17172.51
516.51	17057.82
516.68	17025.06
516.85	17198.26
517.03	17240.39
517.20	17132.72
517.37	17041.44
517.54	17029.74
517.72	17186.55
517.89	17011.01
518.06	17355.07
518.24	17282.52
518.41	17118.68
518.58	17254.43
518.75	17326.99
518.93	17554.02
519.10	17380.82
519.27	17446.35
519.45	17305.92
519.62	17415.93
519.79	17867.65
519.96	17542.32
520.14	17504.87
520.31	17764.67
520.48	17547.00
520.65	17575.08
520.83	18012.76
521.00	17921.48
521.17	17769.35
521.34	17926.16
521.52	17776.37
521.69	17930.84
521.86	17923.82
522.03	18286.61
522.20	17804.46
522.38	18155.54
522.55	18054.89
522.72	18080.64
522.89	17893.40
523.07	18277.24
523.24	18541.72
523.41	18209.37
523.58	18361.50
523.75	18192.98
523.92	18263.20
524.10	18345.12
524.27	18808.54
524.44	18647.05
524.61	18317.03
524.78	18363.84
524.96	18593.22
525.13	18813.23
525.30	18654.07
525.47	18883.44
525.64	18565.13
525.81	18799.18
525.98	18836.63
526.16	18717.26
526.33	18415.34
526.50	18993.45
526.67	19042.60
526.84	18925.57
527.01	18813.23
527.18	18960.68
527.36	19229.84
527.53	19073.03
527.70	19302.40
527.87	19164.31
528.04	19307.08
528.21	19168.99
528.38	19173.67
528.55	19145.58
528.72	19161.97
528.89	19386.66
529.07	19541.13
529.24	19044.94
529.41	19178.35
529.58	19470.92
529.75	19562.20
529.92	19506.02
530.09	19117.50
530.26	19246.23
530.43	19587.94
530.60	19419.42
530.77	19403.04
530.94	19660.50
531.11	19644.12
531.28	19726.04
531.46	19990.52
531.63	19990.52
531.80	19641.78
531.97	19768.16
532.14	19693.27
532.31	19480.28
532.48	19845.40
532.65	19749.44
532.82	19800.93
532.99	19784.55
533.16	20203.50
533.33	19838.38
533.50	20044.35
533.67	20144.99
533.84	19580.92
534.01	19901.58
534.18	20264.36
534.35	20585.01
534.52	20119.24
534.69	20346.28
534.86	20205.84
535.03	20077.12
535.20	20229.25
535.37	20404.79
535.54	20610.76
535.71	20161.37
535.88	20472.67
536.05	20664.59
536.22	20631.82
536.38	20350.96
536.55	20671.61
536.72	20774.60
536.89	20666.93
537.06	20709.06
537.23	20781.62
537.40	20500.75
537.57	20655.23
537.74	20727.78
537.91	20718.42
538.08	20968.86
538.25	20676.29
538.42	20844.81
538.59	20711.40
538.75	20908.01
538.92	20858.85
539.09	21022.69
539.26	20716.08
539.43	20758.21
539.60	21043.76
539.77	21069.50
539.94	21205.25
540.11	21200.57
540.28	21458.03
540.44	21326.96
540.61	20982.90
540.78	21287.17
540.95	21352.71
541.12	21647.61
541.29	21502.50
541.46	22061.89
541.62	21715.49
541.79	22106.36
541.96	21652.30
542.13	21755.28
542.30	22146.15
542.47	21984.65
542.63	21879.33
542.80	21764.64
542.97	22183.60
543.14	22218.71
543.31	22061.89
543.48	21996.35
543.64	22267.86
543.81	22066.57
543.98	22572.13
544.15	21893.37
544.32	22239.77
544.48	22300.62
544.65	22298.28
544.82	22022.10
544.99	21972.95
545.16	22251.47
545.32	22349.78
545.49	22831.93
545.66	23166.62
545.83	23311.74
546.00	23337.48
546.16	22742.99
546.33	22611.92
546.50	22307.65
546.67	22333.39
546.83	22377.86
547.00	22174.24
547.17	22197.64
547.34	22389.56
547.50	22377.86
547.67	22195.30
547.84	22415.31
548.00	22787.46
548.17	22717.24
548.34	21991.67
548.51	22450.42
548.67	22649.36
548.84	22583.83
549.01	22338.07
549.18	22764.05
549.34	22445.74
549.51	22714.90
549.68	22604.89
549.84	22436.38
550.01	22263.18
550.18	22349.78
550.34	22436.38
550.51	22597.87
550.68	22787.46
550.84	22473.82
551.01	22986.40
551.18	22434.03
551.34	22511.27
551.51	22808.52
551.68	22656.39
551.84	22614.26
552.01	22438.72
552.18	22796.82
552.34	22731.28
552.51	22895.12
552.68	22597.87
552.84	22717.24
553.01	22860.01
553.18	22939.59
553.34	22988.74
553.51	22738.30
553.67	22789.80
553.84	23330.46
554.01	23068.32
554.17	22998.10
554.34	22993.42
554.51	22981.72
554.67	23000.44
554.84	23012.15
555.00	22768.73
555.17	23007.47
555.33	23035.55
555.50	22970.02
555.67	22869.37
555.83	22527.66
556.00	23159.60
556.16	23384.29
556.33	23119.81
556.50	23201.73
556.66	23208.75
556.83	22644.68
556.99	23363.23
557.16	23094.07
557.32	23358.55
557.49	23325.78
557.65	23140.88
557.82	23161.94
557.98	23367.91
558.15	23091.73
558.32	23365.57
558.48	23358.55
558.65	23335.14
558.81	23388.97
558.98	23035.55
559.14	23122.15
559.31	23026.19
559.47	23037.89
559.64	23456.85
559.80	23300.03
559.97	23173.64
560.13	22836.61
560.30	23047.26
560.46	23475.57
560.63	23494.30
560.79	23325.78
560.96	23400.68
561.12	23501.32
561.29	23508.34
561.45	23550.47
561.61	23681.54
561.78	23529.41
561.94	23634.73
562.11	23756.44
562.27	23555.15
562.44	23686.22
562.60	23697.92
562.77	23374.93
562.93	23388.97
563.10	23454.51
563.26	23175.98
563.42	23573.88
563.59	23796.23
563.75	23396.00
563.92	23957.72
564.08	23751.76
564.24	24147.31
564.41	23564.51
564.57	23480.25
564.74	23894.53
564.90	24079.43
565.07	24023.26
565.23	23632.39
565.39	23571.54
565.56	23786.86
565.72	23562.17
565.88	23791.55
566.05	23913.25
566.21	23538.77
566.38	23445.15
566.54	23793.89
566.70	23704.95
566.87	24081.77
567.03	23587.92
567.19	24009.22
567.36	24027.94
567.52	23564.51
567.68	23772.82
567.85	23641.75
568.01	23910.91
568.17	23700.26
568.34	24109.86
568.50	23917.93
568.66	23646.43
568.83	23985.81
568.99	23894.53
569.15	24133.26
569.32	23852.40
569.48	23580.90
569.64	24079.43
569.81	23805.59
569.97	24168.37
570.13	23814.95
570.30	23690.90
570.46	24058.37
570.62	23948.36
570.78	23480.25
570.95	23697.92
571.11	23901.55
571.27	23772.82
571.43	23611.32
571.60	23541.11
571.76	23857.08
571.92	23651.11
572.09	23936.66
572.25	24063.05
572.41	24016.24
572.57	24140.29
572.74	24259.65
572.90	24002.19
573.06	23798.57
573.22	23962.40
573.38	23866.44
573.55	23583.24
573.71	24051.34
573.87	23866.44
574.03	23882.83
574.20	24058.37
574.36	23974.11
574.52	23917.93
574.68	24020.92
574.84	24161.35
575.01	24100.50
575.17	24315.83
575.33	23985.81
575.49	23964.75
575.65	24032.62
575.82	24327.53
575.98	23997.51
576.14	24500.73
576.30	24304.12
576.46	24105.18
576.62	24056.03
576.79	24304.12
576.95	23969.43
577.11	24056.03
577.27	24226.89
577.43	24432.85
577.59	24453.92
577.75	24140.29
577.92	24116.88
578.08	24159.01
578.24	23931.98
578.40	24074.75
578.56	24322.85
578.72	24372.00
578.88	24423.49
579.04	24297.10
579.21	24191.78
579.37	24210.50
579.53	24182.42
579.69	24147.31
579.85	24119.22
580.01	24266.67
580.17	24123.90
580.33	24379.02
580.49	24327.53
580.65	24287.74
580.82	24259.65
580.98	24163.69
581.14	24009.22
581.30	24133.26
581.46	23723.67
581.62	24290.08
581.78	24163.69
581.94	24177.73
582.10	24360.30
582.26	24203.48
582.42	24304.12
582.58	24350.93
582.74	24285.40
582.90	24437.53
583.06	24463.28
583.22	23847.72
583.38	24601.37
583.54	24552.22
583.70	24163.69
583.86	24575.62
584.02	24098.16
584.18	24507.75
584.34	24575.62
584.50	24584.99
584.66	24231.57
584.82	24535.84
584.98	24315.83
585.14	24350.93
585.30	24517.11
585.46	24465.62
585.62	24051.34
585.78	24290.08
585.94	24467.96
586.10	24049.00
586.26	24451.58
586.42	24486.68
586.58	24304.12
586.74	24381.36
586.90	24355.61
587.06	24526.47
587.22	24477.32
587.38	24261.99
587.54	24474.98
587.70	24807.34
587.86	24596.69
588.02	24294.76
588.18	24322.85
588.34	24624.78
588.49	24393.06
588.65	24343.91
588.81	24369.66
588.97	24669.25
589.13	24397.74
589.29	24334.55
589.45	24547.54
589.61	24547.54
589.77	24781.59
589.93	24540.52
590.08	24421.15
590.24	24376.68
590.40	24287.74
590.56	24503.07
590.72	24659.88
590.88	24105.18
