SpectraSuite Data File
++++++++++++++++++++++++++++++++++++
Date: Thu Oct 24 13:21:18 EDT 2013
User: stostad
Dark Spectrum Present: No
Reference Spectrum Present: No
Number of Sampled Component Spectra: 1
Spectrometers: USB2+H05261
Integration Time (usec): 100000 (USB2+H05261)
Spectra Averaged: 1 (USB2+H05261)
Boxcar Smoothing: 0 (USB2+H05261)
Correct for Electrical Dark: No (USB2+H05261)
Strobe/Lamp Enabled: No (USB2+H05261)
Correct for Detector Non-linearity: No (USB2+H05261)
Correct for Stray Light: No (USB2+H05261)
Number of Pixels in Processed Spectrum: 2048
>>>>>Begin Processed Spectral Data<<<<<
365.73	552.37
365.92	552.37
366.12	552.37
366.32	538.32
366.52	496.19
366.72	510.24
366.91	468.11
367.11	402.57
367.31	468.11
367.51	425.98
367.70	423.64
367.90	477.47
368.10	430.66
368.30	580.45
368.49	465.77
368.69	440.02
368.89	456.40
369.09	500.87
369.28	423.64
369.48	521.94
369.68	493.85
369.87	524.28
370.07	465.77
370.27	571.09
370.47	606.20
370.66	798.12
370.86	802.80
371.06	795.78
371.25	837.91
371.45	744.29
371.65	917.49
371.84	873.02
372.04	854.30
372.24	882.38
372.44	816.85
372.63	858.98
372.83	889.40
373.03	933.87
373.22	830.89
373.42	868.34
373.62	924.51
373.81	851.96
374.01	889.40
374.21	940.90
374.40	978.34
374.60	887.06
374.79	903.45
374.99	1001.75
375.19	898.77
375.38	978.34
375.58	851.96
375.78	954.94
375.97	966.64
376.17	1025.15
376.37	992.39
376.56	966.64
376.76	978.34
376.95	959.62
377.15	959.62
377.35	968.98
377.54	959.62
377.74	1020.47
377.93	954.94
378.13	973.66
378.33	1022.81
378.52	1001.75
378.72	922.17
378.91	966.64
379.11	992.39
379.31	994.73
379.50	915.15
379.70	1088.35
379.89	992.39
380.09	1036.86
380.28	1020.47
380.48	1046.22
380.68	987.71
380.87	1053.24
381.07	1036.86
381.26	973.66
381.46	1071.97
381.65	1032.18
381.85	1050.90
382.04	1111.75
382.24	1034.52
382.43	985.37
382.63	1086.01
382.83	1083.67
383.02	1111.75
383.22	1125.80
383.41	1111.75
383.61	1135.16
383.80	1118.78
384.00	1144.52
384.19	1153.88
384.39	1097.71
384.58	1163.25
384.78	1128.14
384.97	1125.80
385.17	1088.35
385.36	1057.92
385.56	1064.94
385.75	1172.61
385.95	1093.03
386.14	1144.52
386.34	1130.48
386.53	1174.95
386.72	1165.59
386.92	1193.67
387.11	1139.84
387.31	1170.27
387.50	1160.91
387.70	1158.57
387.89	1193.67
388.09	1233.46
388.28	1198.35
388.48	1184.31
388.67	1254.53
388.86	1174.95
389.06	1294.32
389.25	1214.74
389.45	1245.16
389.64	1261.55
389.84	1266.23
390.03	1238.14
390.22	1231.12
390.42	1306.02
390.61	1270.91
390.81	1320.06
391.00	1240.48
391.19	1296.66
391.39	1275.59
391.58	1245.16
391.78	1317.72
391.97	1287.29
392.16	1254.53
392.36	1320.06
392.55	1308.36
392.75	1338.79
392.94	1334.11
393.13	1310.70
393.33	1350.49
393.52	1331.76
393.71	1418.36
393.91	1453.47
394.10	1338.79
394.29	1423.05
394.49	1376.24
394.68	1373.89
394.88	1462.83
395.07	1486.24
395.26	1401.98
395.46	1472.20
395.65	1533.05
395.84	1416.02
396.04	1570.50
396.23	1451.13
396.42	1434.75
396.62	1528.37
396.81	1474.54
397.00	1465.18
397.19	1488.58
397.39	1500.28
397.58	1509.65
397.77	1533.05
397.97	1526.03
398.16	1586.88
398.35	1507.30
398.55	1565.82
398.74	1586.88
398.93	1687.53
399.12	1708.59
399.32	1591.56
399.51	1528.37
399.70	1631.35
399.90	1610.29
400.09	1687.53
400.28	1774.13
400.47	1673.48
400.67	1722.63
400.86	1710.93
401.05	1694.55
401.24	1699.23
401.44	1638.38
401.63	1741.36
401.82	1624.33
402.01	1701.57
402.21	1739.02
402.40	1792.85
402.59	1762.42
402.78	1664.12
402.97	1694.55
403.17	1811.57
403.36	1863.07
403.55	1802.21
403.74	1818.60
403.93	1858.39
404.13	1933.28
404.32	1926.26
404.51	1893.49
404.70	1907.54
404.89	1921.58
405.09	1966.05
405.28	1963.71
405.47	1930.94
405.66	1937.96
405.85	1928.60
406.05	1926.26
406.24	2050.31
406.43	1991.80
406.62	2024.56
406.81	2071.37
407.00	2003.50
407.20	2120.53
407.39	1942.64
407.58	2146.27
407.77	2127.55
407.96	2122.87
408.15	2129.89
408.34	2122.87
408.54	2141.59
408.73	2064.35
408.92	2221.17
409.11	2155.63
409.30	2242.23
409.49	2153.29
409.68	2218.83
409.87	2207.13
410.07	2267.98
410.26	2258.62
410.45	2260.96
410.64	2291.38
410.83	2289.04
411.02	2422.45
411.21	2480.97
411.40	2392.03
411.59	2431.82
411.78	2382.67
411.98	2401.39
412.17	2436.50
412.36	2525.44
412.55	2534.80
412.74	2576.93
412.93	2602.68
413.12	2502.03
413.31	2602.68
413.50	2619.06
413.69	2647.15
413.88	2579.27
414.07	2623.74
414.26	2696.30
414.45	2677.57
414.64	2630.76
414.83	2607.36
415.02	2768.85
415.22	2785.24
415.41	2820.35
415.60	2911.63
415.79	2822.69
415.98	2759.49
416.17	2960.78
416.36	2965.46
416.55	2984.18
416.74	2995.89
416.93	2998.23
417.12	2928.01
417.31	3145.68
417.50	3038.02
417.69	3028.65
417.88	3176.11
418.07	3122.27
418.26	3087.17
418.45	3073.12
418.64	3262.71
418.83	3157.38
419.02	3096.53
419.21	3251.00
419.39	3419.52
419.58	3204.19
419.77	3180.79
419.96	3187.81
420.15	3304.84
420.34	3307.18
420.53	3213.56
420.72	3297.81
420.91	3323.56
421.10	3379.73
421.29	3368.03
421.48	3227.60
421.67	3363.35
421.86	3368.03
422.05	3442.93
422.24	3417.18
422.43	3447.61
422.61	3405.48
422.80	3442.93
422.99	3440.59
423.18	3552.93
423.37	3564.64
423.56	3487.40
423.75	3403.14
423.94	3344.63
424.13	3201.85
424.32	3342.28
424.50	3468.67
424.69	3583.36
424.88	3541.23
425.07	3597.40
425.26	3524.85
425.45	3363.35
425.64	3545.91
425.83	3421.86
426.01	3489.74
426.20	3529.53
426.39	3606.77
426.58	3566.98
426.77	3606.77
426.96	3618.47
427.15	3606.77
427.33	3595.06
427.52	3679.32
427.71	3737.84
427.90	3700.39
428.09	3632.51
428.28	3719.11
428.46	3709.75
428.65	3700.39
428.84	3789.33
429.03	3803.37
429.22	3794.01
429.40	3810.39
429.59	3737.84
429.78	3756.56
429.97	3585.70
430.16	3822.09
430.34	3932.10
430.53	3843.16
430.72	3955.51
430.91	3955.51
431.10	3775.28
431.28	4049.13
431.47	3953.16
431.66	4011.68
431.85	3782.31
432.03	4121.68
432.22	4133.39
432.41	4112.32
432.60	4170.83
432.79	4044.45
432.97	4212.96
433.16	4166.15
433.35	3997.64
433.54	4278.50
433.72	4212.96
433.91	4170.83
434.10	4072.53
434.28	4173.18
434.47	4147.43
434.66	4210.62
434.85	4236.37
435.03	4454.04
435.22	4514.89
435.41	4821.50
435.59	4566.39
435.78	4552.34
435.97	4489.15
436.16	4440.00
436.34	4493.83
436.53	4421.27
436.72	4477.44
436.90	4493.83
437.09	4468.08
437.28	4461.06
437.46	4411.91
437.65	4606.17
437.84	4554.68
438.02	4613.20
438.21	4531.28
438.40	4526.60
438.58	4657.67
438.77	4760.65
438.96	4777.03
439.14	4826.18
439.33	4791.08
439.52	4905.76
439.70	4887.04
439.89	4884.70
440.08	4926.83
440.26	4950.23
440.45	4924.49
440.63	4983.00
440.82	5097.69
441.01	4931.51
441.19	5191.31
441.38	5198.33
441.57	5165.56
441.75	5242.80
441.94	5245.14
442.12	5282.59
442.31	5261.52
442.50	5254.50
442.68	5294.29
442.87	5242.80
443.05	5451.11
443.24	5582.18
443.43	5460.47
443.61	5460.47
443.80	5675.80
443.98	5357.49
444.17	5357.49
444.35	5523.66
444.54	5537.71
444.73	5511.96
444.91	5425.36
445.10	5612.60
445.28	5671.12
445.47	5479.19
445.65	5579.84
445.84	5720.27
446.02	5533.03
446.21	5516.64
446.39	5359.83
446.58	5722.61
446.77	5643.03
446.95	5600.90
447.14	5589.20
447.32	5743.67
447.51	5659.42
447.69	5673.46
447.88	5636.01
448.06	5729.63
448.25	5577.50
448.43	5687.50
448.62	5628.99
448.80	5753.04
448.99	5760.06
449.17	5748.36
449.36	5778.78
449.54	5802.19
449.73	5937.94
449.91	5839.64
450.10	5682.82
450.28	5907.51
450.46	6029.22
450.65	6064.33
450.83	5944.96
451.02	5893.47
451.20	6092.41
451.39	6012.84
451.57	6043.26
451.76	6104.12
451.94	6038.58
452.13	6101.78
452.31	6155.61
452.49	5959.00
452.68	6064.33
452.86	6033.90
453.05	6190.72
453.23	6200.08
453.42	6209.44
453.60	6101.78
453.78	6305.40
453.97	6143.91
454.15	6132.20
454.34	6157.95
454.52	6504.35
454.70	6331.15
454.89	6347.53
455.07	6267.95
455.26	6422.43
455.44	6537.12
455.62	6567.54
455.81	6408.39
455.99	6588.61
456.17	6686.91
456.36	6609.67
456.54	6640.10
456.73	6787.55
456.91	6707.98
457.09	6918.62
457.28	6918.62
457.46	6661.16
457.64	6689.25
457.83	6946.71
458.01	6658.82
458.19	7138.63
458.38	6850.75
458.56	7012.24
458.74	6949.05
458.93	6925.65
459.11	6890.54
459.29	6923.30
459.48	6935.01
459.66	6993.52
459.84	7066.08
460.03	7349.28
460.21	7098.84
460.39	7176.08
460.57	7274.38
460.76	7272.04
460.94	7197.15
461.12	7241.62
461.31	7218.21
461.49	7353.96
461.67	7307.15
461.85	7431.20
462.04	7274.38
462.22	7550.57
462.40	7538.87
462.59	7433.54
462.77	7651.21
462.95	7314.17
463.13	7419.50
463.32	7581.00
463.50	7527.16
463.68	7421.84
463.86	7588.02
464.05	7372.69
464.23	7393.75
464.41	7693.34
464.59	7611.42
464.78	7672.28
464.96	7798.66
465.14	7632.49
465.32	7613.76
465.50	7861.86
465.69	7932.08
465.87	7894.63
466.05	7798.66
466.23	7805.69
466.41	8032.72
466.60	8051.44
466.78	7786.96
466.96	7866.54
467.14	7805.69
467.32	7946.12
467.51	8016.33
467.69	7793.98
467.87	7957.82
468.05	8065.49
468.23	8028.04
468.41	7929.74
468.60	8084.21
468.78	8241.03
468.96	8077.19
469.14	8224.64
469.32	8297.20
469.50	8191.88
469.69	8231.66
469.87	8475.08
470.05	8325.29
470.23	8308.90
470.41	8336.99
470.59	8369.76
470.77	8533.59
470.95	8400.18
471.14	8566.36
471.32	8386.14
471.50	8603.81
471.68	8657.64
471.86	8554.66
472.04	8505.51
472.22	8926.80
472.40	8671.68
472.58	8622.53
472.77	8898.72
472.95	9039.15
473.13	9200.65
473.31	8879.99
473.49	8919.78
473.67	9018.08
473.85	9123.41
474.03	9088.30
474.21	9193.62
474.39	9394.91
474.57	9413.63
474.75	9458.10
474.93	9500.23
475.12	9493.21
475.30	9481.51
475.48	9490.87
475.66	9680.46
475.84	9544.70
476.02	9813.87
476.20	9542.36
476.38	9738.97
476.56	10223.46
476.74	10001.11
476.92	9839.61
477.10	9987.07
477.28	10033.88
477.46	10169.63
477.64	10195.37
477.82	10333.47
478.00	10497.30
478.18	10410.70
478.36	10850.72
478.54	10576.88
478.72	10794.55
478.90	10860.09
479.08	10857.75
479.26	11059.03
479.44	11239.25
479.62	11330.53
479.80	11222.87
479.98	11393.73
480.16	11503.73
480.34	11396.07
480.52	11564.59
480.70	11510.75
480.88	11480.33
481.06	11552.88
481.24	11925.03
481.41	12018.65
481.59	12063.12
481.77	12135.68
481.95	12177.81
482.13	12168.45
482.31	12074.82
482.49	12517.18
482.67	12119.29
482.85	12695.07
483.03	12395.48
483.21	12753.58
483.39	13062.53
483.57	12924.44
483.74	13149.13
483.92	13219.35
484.10	13083.59
484.28	13420.63
484.46	13657.03
484.64	13841.93
484.82	13572.77
485.00	13799.80
485.18	14019.81
485.35	14211.73
485.53	14338.12
485.71	14090.02
485.89	14434.08
486.07	14394.29
486.25	14501.96
486.43	14642.39
486.61	14743.03
486.78	14775.80
486.96	15075.39
487.14	15040.28
487.32	15180.71
487.50	15314.13
487.68	15405.41
487.85	15562.22
488.03	15819.68
488.21	15836.06
488.39	16070.12
488.57	16294.81
488.75	16257.36
488.92	16269.06
489.10	16521.84
489.28	16355.66
489.46	16753.55
489.64	16453.97
489.81	16809.73
489.99	17034.42
490.17	16999.31
490.35	17256.77
490.53	17226.34
490.70	17605.51
490.88	17500.19
491.06	17682.75
491.24	17640.62
491.41	17858.29
491.59	18026.81
491.77	17968.29
491.95	18279.58
492.13	18071.28
492.30	18394.27
492.48	18331.08
492.66	18398.95
492.84	18534.70
493.01	18824.93
493.19	18857.70
493.37	18927.91
493.54	19082.39
493.72	19150.26
493.90	19234.52
494.08	19480.28
494.25	19550.49
494.43	19545.81
494.61	19707.31
494.79	19627.73
494.96	19807.95
495.14	19857.10
495.32	20196.48
495.49	20362.66
495.67	20285.42
495.85	20245.63
496.02	20475.01
496.20	20795.66
496.38	20664.59
496.55	20781.62
496.73	21479.10
496.91	20954.82
497.09	21352.71
497.26	21202.91
497.44	21329.30
497.62	21116.31
497.79	21640.59
497.97	21589.10
498.14	21954.22
498.32	22104.02
498.50	22033.80
498.67	22174.24
498.85	21919.12
499.03	22356.80
499.20	22427.01
499.38	22373.18
499.56	22621.28
499.73	22534.68
499.91	22728.94
500.08	22813.20
500.26	22682.13
500.44	22710.22
500.61	23080.02
500.79	23054.28
500.97	23433.44
501.14	23302.37
501.32	23573.88
501.49	23318.76
501.67	23248.54
501.84	23700.26
502.02	23915.59
502.20	23964.75
502.37	23803.25
502.55	23946.02
502.72	23786.86
502.90	23754.10
503.07	23978.79
503.25	24065.39
503.43	24163.69
503.60	24229.23
503.78	24388.38
503.95	24322.85
504.13	24372.00
504.30	24687.97
504.48	24957.13
504.65	24966.49
504.83	25462.69
505.01	25135.01
505.18	25099.90
505.36	25207.57
505.53	25252.04
505.71	25179.48
505.88	25427.58
506.06	25282.47
506.23	25647.59
506.41	25624.18
506.58	25563.33
506.76	25476.73
506.93	25799.73
507.11	25530.56
507.28	25741.21
507.46	25975.27
507.63	26263.15
507.81	26066.55
507.98	26036.12
508.16	26040.80
508.33	26103.99
508.50	26373.16
508.68	26700.83
508.85	26551.04
509.03	26960.63
509.20	26771.05
509.38	26878.71
509.55	26995.74
509.73	27138.51
509.90	27379.59
510.08	27178.30
510.25	27402.99
510.42	27482.57
510.60	27529.38
510.77	27707.26
510.95	27730.67
511.12	27740.03
511.30	27915.57
511.47	27878.12
511.64	27957.70
511.82	28299.42
511.99	28006.85
512.17	28034.94
512.34	28002.17
512.51	28793.27
512.69	28247.93
512.86	28084.09
513.04	28545.17
513.21	28992.22
513.38	28533.47
513.56	28444.53
513.73	28718.37
513.90	28849.44
514.08	28807.31
514.25	28849.44
514.43	29170.10
514.60	28954.77
514.77	29024.98
514.95	29153.71
515.12	29163.08
515.29	29216.91
515.47	29701.40
515.64	29797.36
515.81	29420.53
515.99	29305.85
516.16	29457.98
516.33	29495.43
516.51	30096.95
516.68	29890.98
516.85	29933.11
517.03	30288.87
517.20	30003.33
517.37	29921.41
517.54	30164.82
517.72	30417.60
517.89	29947.15
518.06	30281.85
518.24	30176.53
518.41	30132.06
518.58	30766.34
518.75	30232.70
518.93	30513.56
519.10	30532.29
519.27	30663.36
519.45	30862.30
519.62	31232.11
519.79	31248.49
519.96	30969.97
520.14	30766.34
520.31	31068.27
520.48	31182.96
520.65	31215.72
520.83	31164.23
521.00	31651.06
521.17	31536.38
521.34	31791.50
521.52	31365.52
521.69	31353.82
521.86	31740.00
522.03	31761.07
522.20	32219.81
522.38	32479.61
522.55	31817.24
522.72	32449.19
522.89	32353.23
523.07	32149.60
523.24	32065.34
523.41	32479.61
523.58	32486.64
523.75	32685.58
523.92	32512.38
524.10	32844.74
524.27	33233.27
524.44	32556.85
524.61	32748.78
524.78	32704.31
524.96	32716.01
525.13	32924.32
525.30	33469.66
525.47	33301.14
525.64	33315.19
525.81	33326.89
525.98	33247.31
526.16	33046.02
526.33	33081.13
526.50	33408.81
526.67	33319.87
526.84	33729.46
527.01	33626.48
527.18	33469.66
527.36	33741.16
527.53	34115.65
527.70	33893.30
527.87	34190.55
528.04	33984.58
528.21	34354.38
528.38	34183.52
528.55	34293.53
528.72	33996.28
528.89	33956.49
529.07	34239.70
529.24	34043.09
529.41	34424.60
529.58	34508.86
529.75	34235.02
529.92	34749.93
530.09	34340.34
530.26	34476.09
530.43	34632.91
530.60	34506.52
530.77	34649.29
530.94	34733.55
531.11	34710.14
531.28	34457.37
531.46	34962.92
531.63	35131.44
531.80	34967.60
531.97	34707.80
532.14	35250.81
532.31	35269.53
532.48	35042.50
532.65	35498.91
532.82	35023.78
532.99	35161.87
533.16	34873.98
533.33	35377.20
533.50	35674.45
533.67	35199.32
533.84	35227.40
534.01	35290.60
534.18	35091.65
534.35	35906.16
534.52	35583.16
534.69	35611.25
534.86	35709.55
535.03	35653.38
535.20	36072.34
535.37	35871.05
535.54	36271.28
535.71	36100.42
535.88	36088.72
536.05	35959.99
536.22	36177.66
536.38	36503.00
536.55	36723.01
536.72	36631.72
536.89	36404.69
537.06	36844.71
537.23	37081.11
537.40	36760.45
537.57	36830.67
537.74	36570.87
537.91	37048.34
538.08	36650.45
538.25	36622.36
538.42	36730.03
538.59	37266.01
538.75	36732.37
538.92	36889.18
539.09	37233.24
539.26	36912.59
539.43	37378.36
539.60	37312.82
539.77	37764.54
539.94	37921.36
540.11	37755.18
540.28	37376.01
540.44	37806.67
540.61	37542.19
540.78	37577.30
540.95	37647.52
541.12	37706.03
541.29	37993.92
541.46	38431.60
541.62	37977.53
541.79	38401.17
541.96	38103.92
542.13	38272.44
542.30	37963.49
542.47	38134.35
542.63	38321.59
542.80	38216.27
542.97	39103.33
543.14	39220.36
543.31	38763.95
543.48	38698.42
543.64	38918.43
543.81	39208.65
543.98	38579.05
544.15	38859.91
544.32	39103.33
544.48	39267.17
544.65	38960.56
544.82	39194.61
544.99	39358.45
545.16	39068.22
545.32	38801.40
545.49	39704.85
545.66	39936.56
545.83	39772.72
546.00	40041.88
546.16	39639.31
546.33	39962.31
546.50	39297.59
546.67	39463.77
546.83	39239.08
547.00	39201.63
547.17	38948.85
547.34	39604.20
547.50	39763.36
547.67	40013.80
547.84	39707.19
548.00	39952.94
548.17	40018.48
548.34	39550.37
548.51	39555.05
548.67	39739.96
548.84	39632.29
549.01	39847.62
549.18	39856.98
549.34	39852.30
549.51	40142.53
549.68	40304.02
549.84	39988.05
550.01	39845.28
550.18	39625.27
550.34	39569.10
550.51	39477.82
550.68	40390.62
550.84	40098.06
551.01	40266.58
551.18	40133.17
551.34	40069.97
551.51	40425.73
551.68	40095.72
551.84	39859.32
552.01	40088.70
552.18	40287.64
552.34	40357.86
552.51	40882.14
552.68	40620.00
552.84	40584.89
553.01	40622.34
553.18	40610.64
553.34	40407.01
553.51	40147.21
553.67	40598.93
553.84	41123.21
554.01	40821.28
554.17	40793.20
554.34	41067.04
554.51	40465.52
554.67	40973.42
554.84	40914.90
555.00	40746.39
555.17	40748.73
555.33	40650.42
555.50	40336.79
555.67	40685.53
555.83	41160.66
556.00	40842.35
556.16	41390.03
556.33	41069.38
556.50	40814.26
556.66	41060.02
556.83	40884.48
556.99	41521.10
557.16	41088.10
557.32	41394.71
557.49	41731.75
557.65	41469.61
557.82	40919.59
557.98	40910.22
558.15	41181.73
558.32	41628.77
558.48	41141.94
558.65	41584.30
558.81	41574.94
558.98	41406.42
559.14	41743.45
559.31	41090.44
559.47	41542.17
559.64	41364.29
559.80	41745.80
559.97	41635.79
560.13	41319.82
560.30	41261.30
560.46	41305.77
560.63	41542.17
560.79	42113.26
560.96	42108.58
561.12	41778.56
561.29	41766.86
561.45	41680.26
561.61	41680.26
561.78	41528.13
561.94	41584.30
562.11	42117.94
562.27	42356.67
562.44	42117.94
562.60	42447.96
562.77	41904.95
562.93	41834.74
563.10	42260.71
563.26	41813.67
563.42	42777.97
563.59	42129.64
563.75	42642.22
563.92	42567.32
564.08	42059.43
564.24	42000.91
564.41	41928.36
564.57	42230.29
564.74	41883.89
564.90	42586.05
565.07	42738.18
565.23	41996.23
565.39	42436.25
565.56	42698.39
565.72	42520.51
565.88	42726.48
566.05	42373.06
566.21	41867.50
566.38	42454.98
566.54	41902.61
566.70	42644.56
566.87	42504.13
567.03	42410.51
567.19	42993.30
567.36	42993.30
567.52	42635.20
567.68	42897.34
567.85	42445.62
568.01	42948.83
568.17	42012.62
568.34	42061.77
568.50	42672.65
568.66	42492.43
568.83	42410.51
568.99	42672.65
569.15	42562.64
569.32	42859.89
569.48	42522.85
569.64	42457.32
569.81	42204.54
569.97	42529.87
570.13	42728.82
570.30	42895.00
570.46	42747.54
570.62	42232.63
570.78	42382.42
570.95	42101.56
571.11	43435.66
571.27	42852.87
571.43	42808.40
571.60	42583.71
571.76	42667.97
571.92	42586.05
572.09	42808.40
572.25	43194.59
572.41	42871.59
572.57	42960.53
572.74	42696.05
572.90	43028.41
573.06	42447.96
573.22	42981.60
573.38	43070.54
573.55	42693.71
573.71	42997.98
573.87	42714.78
574.03	43100.97
574.20	42483.06
574.36	43124.37
574.52	42679.67
574.68	42937.13
574.84	43119.69
575.01	42808.40
575.17	43070.54
575.33	42916.06
575.49	43068.20
575.65	42939.47
575.82	43557.37
575.98	42878.61
576.14	43225.01
576.30	43370.13
576.46	42892.66
576.62	42677.33
576.79	43107.99
576.95	42962.87
577.11	43040.11
577.27	43452.05
577.43	43206.29
577.59	43423.96
577.75	43540.99
577.92	42845.85
578.08	43049.47
578.24	43061.18
578.40	43512.90
578.56	43234.38
578.72	43122.03
578.88	43325.66
579.04	43700.14
579.21	43395.87
579.37	43337.36
579.53	43803.13
579.69	42740.52
579.85	43133.73
580.01	43201.61
580.17	42927.77
580.33	43356.08
580.49	43133.73
580.65	43475.45
580.82	43622.90
580.98	43555.03
581.14	43412.26
581.30	43400.55
581.46	43248.42
581.62	43227.35
581.78	43103.31
581.94	43452.05
582.10	43395.87
582.26	43185.22
582.42	43276.51
582.58	43203.95
582.74	43285.87
582.90	43199.27
583.06	42948.83
583.22	43264.80
583.38	43026.07
583.54	42677.33
583.70	43126.71
583.86	43594.82
584.02	43342.04
584.18	43449.70
584.34	43370.13
584.50	43639.29
584.66	43473.11
584.82	43035.43
584.98	43536.30
585.14	43318.64
585.30	43564.39
585.46	43463.75
585.62	43180.54
585.78	43962.28
585.94	43524.60
586.10	43482.47
586.26	43629.93
586.42	43629.93
586.58	43718.87
586.74	43686.10
586.90	43641.63
587.06	43241.40
587.22	43468.43
587.38	43533.96
587.54	43592.48
587.70	44343.79
587.86	43632.27
588.02	43739.93
588.18	43709.50
588.34	43950.58
588.49	43732.91
588.65	43648.65
588.81	44039.52
588.97	43861.64
589.13	43100.97
589.29	43943.56
589.45	43973.98
589.61	43723.55
