SpectraSuite Data File
++++++++++++++++++++++++++++++++++++
Date: Thu Oct 24 13:21:14 EDT 2013
User: stostad
Dark Spectrum Present: No
Reference Spectrum Present: No
Number of Sampled Component Spectra: 1
Spectrometers: USB2+H05261
Integration Time (usec): 100000 (USB2+H05261)
Spectra Averaged: 1 (USB2+H05261)
Boxcar Smoothing: 0 (USB2+H05261)
Correct for Electrical Dark: No (USB2+H05261)
Strobe/Lamp Enabled: No (USB2+H05261)
Correct for Detector Non-linearity: No (USB2+H05261)
Correct for Stray Light: No (USB2+H05261)
Number of Pixels in Processed Spectrum: 2048
>>>>>Begin Processed Spectral Data<<<<<
365.73	601.52
365.92	601.52
366.12	601.52
366.32	482.15
366.52	472.79
366.72	407.25
366.91	456.40
367.11	486.83
367.31	496.19
367.51	451.72
367.70	440.02
367.90	472.79
368.10	465.77
368.30	437.68
368.49	458.74
368.69	484.49
368.89	482.15
369.09	454.06
369.28	498.53
369.48	484.49
369.68	550.03
369.87	479.81
370.07	552.37
370.27	519.60
370.47	660.03
370.66	718.54
370.86	744.29
371.06	732.59
371.25	784.08
371.45	636.63
371.65	854.30
371.84	723.23
372.04	732.59
372.24	725.57
372.44	767.70
372.63	777.06
372.83	814.51
373.03	741.95
373.22	784.08
373.42	798.12
373.62	819.19
373.81	847.27
374.01	819.19
374.21	835.57
374.40	805.14
374.60	819.19
374.79	863.66
374.99	805.14
375.19	833.23
375.38	809.83
375.58	763.01
375.78	833.23
375.97	748.97
376.17	863.66
376.37	856.64
376.56	807.48
376.76	798.12
376.95	807.48
377.15	828.55
377.35	770.04
377.54	877.70
377.74	781.74
377.93	866.00
378.13	774.72
378.33	898.77
378.52	821.53
378.72	926.85
378.91	849.61
379.11	748.97
379.31	863.66
379.50	807.48
379.70	894.08
379.89	917.49
380.09	894.08
380.28	854.30
380.48	891.74
380.68	922.17
380.87	882.38
381.07	873.02
381.26	861.32
381.46	802.80
381.65	901.11
381.85	819.19
382.04	840.25
382.24	943.24
382.43	861.32
382.63	814.51
382.83	983.02
383.02	947.92
383.22	968.98
383.41	788.76
383.61	877.70
383.80	814.51
384.00	926.85
384.19	957.28
384.39	891.74
384.58	887.06
384.78	968.98
384.97	870.68
385.17	830.89
385.36	877.70
385.56	933.87
385.75	889.40
385.95	891.74
386.14	966.64
386.34	940.90
386.53	866.00
386.72	976.00
386.92	964.30
387.11	945.58
387.31	931.53
387.50	882.38
387.70	992.39
387.89	957.28
388.09	945.58
388.28	1006.43
388.48	978.34
388.67	997.07
388.86	1022.81
389.06	987.71
389.25	973.66
389.45	936.21
389.64	908.13
389.84	999.41
390.03	985.37
390.22	957.28
390.42	950.26
390.61	1022.81
390.81	922.17
391.00	1011.11
391.19	1074.31
391.39	1029.84
391.58	1022.81
391.78	1041.54
391.97	1132.82
392.16	1039.20
392.36	1081.33
392.55	1090.69
392.75	1074.31
392.94	954.94
393.13	1043.88
393.33	954.94
393.52	1086.01
393.71	1076.65
393.91	1074.31
394.10	1062.60
394.29	1074.31
394.49	1015.79
394.68	1074.31
394.88	1235.80
395.07	1095.37
395.26	1123.46
395.46	1088.35
395.65	1034.52
395.84	1093.03
396.04	1135.16
396.23	1188.99
396.42	1137.50
396.62	1102.39
396.81	1177.29
397.00	1107.07
397.19	1132.82
397.39	1081.33
397.58	1170.27
397.77	1221.76
397.97	1191.33
398.16	1200.69
398.35	1203.04
398.55	1142.18
398.74	1172.61
398.93	1249.85
399.12	1219.42
399.32	1301.34
399.51	1116.44
399.70	1287.29
399.90	1256.87
400.09	1210.06
400.28	1324.74
400.47	1212.40
400.67	1249.85
400.86	1181.97
401.05	1238.14
401.24	1275.59
401.44	1341.13
401.63	1259.21
401.82	1266.23
402.01	1327.08
402.21	1320.06
402.40	1371.55
402.59	1341.13
402.78	1324.74
402.97	1416.02
403.17	1322.40
403.36	1406.66
403.55	1322.40
403.74	1320.06
403.93	1387.94
404.13	1420.71
404.32	1399.64
404.51	1378.58
404.70	1343.47
404.89	1397.30
405.09	1416.02
405.28	1455.81
405.47	1401.98
405.66	1399.64
405.85	1434.75
406.05	1430.07
406.24	1401.98
406.43	1488.58
406.62	1540.07
406.81	1533.05
407.00	1430.07
407.20	1434.75
407.39	1430.07
407.58	1488.58
407.77	1603.27
407.96	1607.95
408.15	1509.65
408.34	1568.16
408.54	1521.35
408.73	1533.05
408.92	1570.50
409.11	1540.07
409.30	1643.06
409.49	1650.08
409.68	1610.29
409.87	1612.63
410.07	1633.69
410.26	1507.30
410.45	1603.27
410.64	1687.53
410.83	1652.42
411.02	1739.02
411.21	1701.57
411.40	1806.89
411.59	1764.76
411.78	1724.97
411.98	1668.80
412.17	1631.35
412.36	1713.27
412.55	1764.76
412.74	1767.10
412.93	1771.79
413.12	1839.66
413.31	1827.96
413.50	1799.87
413.69	1928.60
413.88	1877.11
414.07	1879.45
414.26	1874.77
414.45	1935.62
414.64	1952.01
414.83	1975.41
415.02	1863.07
415.22	1900.52
415.41	1963.71
415.60	1933.28
415.79	2057.33
415.98	2026.90
416.17	2040.95
416.36	1982.43
416.55	2104.14
416.74	2062.01
416.93	2003.50
417.12	2092.44
417.31	2153.29
417.50	2120.53
417.69	2242.23
417.88	2113.50
418.07	2162.66
418.26	2111.16
418.45	2155.63
418.64	2256.28
418.83	2169.68
419.02	2200.10
419.21	2314.79
419.39	2237.55
419.58	2207.13
419.77	2179.04
419.96	2246.91
420.15	2312.45
420.34	2300.75
420.53	2186.06
420.72	2251.60
420.91	2258.62
421.10	2361.60
421.29	2319.47
421.48	2296.07
421.67	2275.00
421.86	2289.04
422.05	2298.41
422.24	2272.66
422.43	2263.30
422.61	2282.02
422.80	2291.38
422.99	2342.88
423.18	2312.45
423.37	2429.48
423.56	2296.07
423.75	2469.27
423.94	2284.36
424.13	2275.00
424.32	2328.83
424.50	2476.29
424.69	2455.22
424.88	2298.41
425.07	2342.88
425.26	2359.26
425.45	2396.71
425.64	2370.96
425.83	2413.09
426.01	2504.37
426.20	2403.73
426.39	2282.02
426.58	2361.60
426.77	2471.61
426.96	2420.11
427.15	2396.71
427.33	2403.73
427.52	2408.41
427.71	2560.55
427.90	2530.12
428.09	2422.45
428.28	2562.89
428.46	2574.59
428.65	2581.61
428.84	2553.52
429.03	2534.80
429.22	2567.57
429.40	2539.48
429.59	2541.82
429.78	2492.67
429.97	2513.74
430.16	2637.78
430.34	2562.89
430.53	2656.51
430.72	2775.88
430.91	2703.32
431.10	2555.86
431.28	2628.42
431.47	2586.29
431.66	2703.32
431.85	2656.51
432.03	2789.92
432.22	2708.00
432.41	2679.91
432.60	2832.05
432.79	2768.85
432.97	2782.90
433.16	2740.77
433.35	2658.85
433.54	2789.92
433.72	2841.41
433.91	2782.90
434.10	2818.00
434.28	2752.47
434.47	2888.22
434.66	2787.58
434.85	2960.78
435.03	2963.12
435.22	3152.70
435.41	3428.88
435.59	3180.79
435.78	3295.47
435.97	3119.93
436.16	3075.46
436.34	2916.31
436.53	2911.63
436.72	2951.42
436.90	2958.44
437.09	2963.12
437.28	2855.45
437.46	3033.33
437.65	3016.95
437.84	3023.97
438.02	3026.31
438.21	2949.08
438.40	3052.06
438.58	3094.19
438.77	3148.02
438.96	3040.36
439.14	3269.73
439.33	3155.04
439.52	3243.98
439.70	3185.47
439.89	3201.85
440.08	3211.22
440.26	3218.24
440.45	3258.03
440.63	3288.45
440.82	3454.63
441.01	3323.56
441.19	3419.52
441.38	3297.81
441.57	3353.99
441.75	3527.19
441.94	3389.10
442.12	3435.91
442.31	3290.79
442.50	3595.06
442.68	3531.87
442.87	3438.25
443.05	3538.89
443.24	3552.93
443.43	3602.08
443.61	3545.91
443.80	3686.34
443.98	3508.46
444.17	3449.95
444.35	3585.70
444.54	3662.94
444.73	3595.06
444.91	3660.60
445.10	3716.77
445.28	3653.58
445.47	3581.02
445.65	3716.77
445.84	3630.17
446.02	3655.92
446.21	3606.77
446.39	3604.42
446.58	3653.58
446.77	3674.64
446.95	3662.94
447.14	3599.74
447.32	3684.00
447.51	3599.74
447.69	3592.72
447.88	3627.83
448.06	3639.53
448.25	3648.90
448.43	3758.90
448.62	3756.56
448.80	3705.07
448.99	3737.84
449.17	3674.64
449.36	3665.28
449.54	3728.47
449.73	3772.94
449.91	3836.14
450.10	3887.63
450.28	3803.37
450.46	3932.10
450.65	3918.06
450.83	3749.54
451.02	3915.72
451.20	3885.29
451.39	3801.03
451.57	3969.55
451.76	3864.22
451.94	3939.12
452.13	3962.53
452.31	4002.32
452.49	3826.78
452.68	4002.32
452.86	3999.98
453.05	3967.21
453.23	3824.44
453.42	3971.89
453.60	3941.46
453.78	3964.87
453.97	3911.04
454.15	4098.28
454.34	3906.35
454.52	4063.17
454.70	4016.36
454.89	4056.15
455.07	4264.46
455.26	4138.07
455.44	4131.05
455.62	4227.01
455.81	4074.87
455.99	4351.06
456.17	4154.45
456.36	4376.80
456.54	4337.01
456.73	4318.29
456.91	4353.40
457.09	4379.14
457.28	4341.69
457.46	4320.63
457.64	4318.29
457.83	4458.72
458.01	4372.12
458.19	4348.72
458.38	4362.76
458.56	4643.62
458.74	4395.53
458.93	4404.89
459.11	4496.17
459.29	4414.25
459.48	4510.21
459.66	4526.60
459.84	4540.64
460.03	4727.88
460.21	4470.42
460.39	4486.81
460.57	4748.95
460.76	4564.04
460.94	4552.34
461.12	4599.15
461.31	4578.09
461.49	4535.96
461.67	4662.35
461.85	4564.04
462.04	4795.76
462.22	4905.76
462.40	4767.67
462.59	4842.57
462.77	4716.18
462.95	4739.58
463.13	4947.89
463.32	4880.02
463.50	4835.55
463.68	4755.97
463.86	4772.35
464.05	4786.40
464.23	4737.24
464.41	4873.00
464.59	4758.31
464.78	4945.55
464.96	4919.81
465.14	4748.95
465.32	4788.74
465.50	4889.38
465.69	4877.68
465.87	4898.74
466.05	4880.02
466.23	5039.17
466.41	5018.11
466.60	5125.77
466.78	5018.11
466.96	4851.93
467.14	5020.45
467.32	4938.53
467.51	5074.28
467.69	4924.49
467.87	5048.54
468.05	5095.35
468.23	4990.02
468.41	5011.09
468.60	5125.77
468.78	5095.35
468.96	5097.69
469.14	5179.61
469.32	5214.71
469.50	5060.24
469.69	5259.18
469.87	5181.95
470.05	5139.82
470.23	5305.99
470.41	5261.52
470.59	5261.52
470.77	5226.42
470.95	5195.99
471.14	5488.56
471.32	5345.78
471.50	5453.45
471.68	5425.36
471.86	5607.92
472.04	5596.22
472.22	5535.37
472.40	5416.00
472.58	5547.07
472.77	5586.86
472.95	5624.31
473.13	5907.51
473.31	5572.82
473.49	5633.67
473.67	5650.05
473.85	5675.80
474.03	5947.30
474.21	5888.79
474.39	5830.27
474.57	6003.47
474.75	5867.72
474.93	5919.21
475.12	6045.60
475.30	5994.11
475.48	6064.33
475.66	6113.48
475.84	5926.24
476.02	6040.92
476.20	6097.10
476.38	5970.71
476.56	6244.55
476.74	6235.19
476.92	6183.70
477.10	6136.88
477.28	6380.30
477.46	6382.64
477.64	6228.17
477.82	6511.37
478.00	6700.95
478.18	6628.40
478.36	6597.97
478.54	6499.67
478.72	6677.55
478.90	6768.83
479.08	6913.94
479.26	6691.59
479.44	6836.70
479.62	6895.22
479.80	6942.03
479.98	6897.56
480.16	7208.85
480.34	7187.79
480.52	7176.08
480.70	7126.93
480.88	7176.08
481.06	7222.89
481.24	7232.26
481.41	7382.05
481.59	7531.84
481.77	7499.08
481.95	7557.59
482.13	7442.90
482.31	7400.77
482.49	7733.13
482.67	7749.51
482.85	7875.90
483.03	7948.46
483.21	7964.84
483.39	7899.31
483.57	7964.84
483.74	7943.78
483.92	8241.03
484.10	7892.29
484.28	8301.88
484.46	8430.61
484.64	8456.36
484.82	8133.36
485.00	8472.74
485.18	8589.77
485.35	8559.34
485.53	8720.84
485.71	8802.75
485.89	8964.25
486.07	8938.51
486.25	8933.82
486.43	8896.38
486.61	8959.57
486.78	9231.07
486.96	9263.84
487.14	9280.22
487.32	9076.60
487.50	9434.70
487.68	9509.60
487.85	9397.25
488.03	9551.73
488.21	9689.82
488.39	9797.48
488.57	9748.33
488.75	9720.24
488.92	9912.17
489.10	10038.56
489.28	9895.78
489.46	10202.40
489.64	10068.98
489.81	10200.05
489.99	10389.64
490.17	10377.94
490.35	10469.22
490.53	10377.94
490.70	10593.26
490.88	10490.28
491.06	10651.78
491.24	10651.78
491.41	10766.46
491.59	10768.80
491.77	11007.54
491.95	10832.00
492.13	11075.42
492.30	10995.84
492.48	10993.50
492.66	11232.23
492.84	11225.21
493.01	11501.39
493.19	11433.52
493.37	11536.50
493.54	11215.85
493.72	11611.40
493.90	11576.29
494.08	11393.73
494.25	11819.71
494.43	11915.67
494.61	11840.77
494.79	12065.46
494.96	11637.14
495.14	11978.86
495.32	12018.65
495.49	12123.98
495.67	12271.43
495.85	12152.06
496.02	12224.62
496.20	12435.27
496.38	12388.46
496.55	12465.69
496.73	12589.74
496.91	12617.83
497.09	12608.47
497.26	12620.17
497.44	12737.20
497.62	12791.03
497.79	12936.14
497.97	13092.96
498.14	12896.35
498.32	13287.22
498.50	13158.49
498.67	13151.47
498.85	12891.67
499.03	13149.13
499.20	13298.92
499.38	13149.13
499.56	13413.61
499.73	13530.64
499.91	13439.36
500.08	13783.41
500.26	13439.36
500.44	13399.57
500.61	13701.50
500.79	13809.16
500.97	13853.63
501.14	13907.46
501.32	13834.91
501.49	14073.64
501.67	14038.53
501.84	13935.55
502.02	14204.71
502.20	14157.90
502.37	14115.77
502.55	14342.80
502.72	14001.08
502.90	14267.91
503.07	14319.40
503.25	14307.69
503.43	14207.05
503.60	14310.04
503.78	14286.63
503.95	14401.32
504.13	14548.77
504.30	14911.55
504.48	14492.60
504.65	14672.82
504.83	14658.78
505.01	14789.85
505.18	14958.36
505.36	14820.27
505.53	14977.09
505.71	15047.30
505.88	15108.16
506.06	14965.39
506.23	15152.63
506.41	15061.35
506.58	15297.74
506.76	15124.54
506.93	15412.43
507.11	15227.53
507.28	15529.45
507.46	15407.75
507.63	15293.06
507.81	15538.82
507.98	15410.09
508.16	15630.10
508.33	15765.85
508.50	15587.97
508.68	15768.19
508.85	16013.95
509.03	15735.42
509.20	15824.36
509.38	16095.86
509.55	15985.86
509.73	15852.45
509.90	16402.47
510.08	16180.12
510.25	16116.93
510.42	15934.37
510.60	16020.97
510.77	16163.74
510.95	16180.12
511.12	16580.36
511.30	16238.64
511.47	16105.23
511.64	16568.65
511.82	16683.34
511.99	16341.62
512.17	16477.37
512.34	16535.88
512.51	16863.56
512.69	16711.42
512.86	16758.24
513.04	16952.50
513.21	16587.38
513.38	16854.20
513.56	16802.71
513.73	16947.82
513.90	17090.59
514.08	17074.21
514.25	16989.95
514.43	17350.39
514.60	17294.22
514.77	17135.06
514.95	17303.58
515.12	17025.06
515.29	17046.12
515.47	17486.14
515.64	17701.47
515.81	17429.97
515.99	17486.14
516.16	17448.69
516.33	17441.67
516.51	17865.31
516.68	17767.01
516.85	17830.20
517.03	17795.09
517.20	17724.88
517.37	17649.98
517.54	17855.95
517.72	17977.65
517.89	17652.32
518.06	17956.59
518.24	18200.01
518.41	18019.78
518.58	17867.65
518.75	17759.98
518.93	17944.89
519.10	18209.37
519.27	17975.31
519.45	18380.23
519.62	18497.25
519.79	18286.61
519.96	18305.33
520.14	18324.05
520.31	18204.69
520.48	18565.13
520.65	18249.16
520.83	18537.04
521.00	18436.40
521.17	18707.90
521.34	18530.02
521.52	18466.83
521.69	18789.82
521.86	18520.66
522.03	18876.42
522.20	18902.17
522.38	18792.16
522.55	18965.36
522.72	18487.89
522.89	18773.44
523.07	19271.97
523.24	18909.19
523.41	19138.56
523.58	19021.53
523.75	19428.79
523.92	19321.12
524.10	19337.51
524.27	19253.25
524.44	19215.80
524.61	19171.33
524.78	19389.00
524.96	19332.82
525.13	19225.16
525.30	19517.73
525.47	19515.39
525.64	19433.47
525.81	19583.26
525.98	19723.69
526.16	19534.11
526.33	19393.68
526.50	19805.61
526.67	19585.60
526.84	19585.60
527.01	19351.55
527.18	19634.75
527.36	19934.34
527.53	19662.84
527.70	19861.79
527.87	19756.46
528.04	19679.22
528.21	20229.25
528.38	20053.71
528.55	19908.60
528.72	19672.20
528.89	20189.46
529.07	20067.75
529.24	19714.33
529.41	20231.59
529.58	20077.12
529.75	20336.91
529.92	20269.04
530.09	19885.19
530.26	20027.96
530.43	20126.27
530.60	20201.16
530.77	20262.02
530.94	20367.34
531.11	20395.43
531.28	20613.10
531.46	20346.28
531.63	20409.47
531.80	20606.08
531.97	20568.63
532.14	20840.13
532.31	20702.04
532.48	21025.03
532.65	20716.08
532.82	20500.75
532.99	20816.72
533.16	20648.21
533.33	20755.87
533.50	20711.40
533.67	20966.52
533.84	20849.49
534.01	20842.47
534.18	21090.57
534.35	21081.21
534.52	20727.78
534.69	21006.31
534.86	20922.05
535.03	20772.25
535.20	20886.94
535.37	21053.12
535.54	21448.67
535.71	21350.37
535.88	21369.09
536.05	20915.03
536.22	21172.49
536.38	21333.98
536.55	21319.94
536.72	21301.22
536.89	21537.61
537.06	21745.92
537.23	21759.96
537.40	21474.42
537.57	21706.13
537.74	21539.95
537.91	21465.05
538.08	21378.45
538.25	21642.93
538.42	21469.73
538.59	21727.19
538.75	21462.71
538.92	21462.71
539.09	21727.19
539.26	21848.90
539.43	21764.64
539.60	21937.84
539.77	21481.44
539.94	21961.25
540.11	22087.64
540.28	22218.71
540.44	22001.04
540.61	22085.30
540.78	21600.80
540.95	22469.14
541.12	22345.09
541.29	22342.75
541.46	22434.03
541.62	22520.63
541.79	22724.26
541.96	22658.73
542.13	22412.97
542.30	22614.26
542.47	22345.09
542.63	22553.40
542.80	22780.43
542.97	22909.16
543.14	23136.20
543.31	23044.91
543.48	22759.37
543.64	23016.83
543.81	22796.82
543.98	22827.24
544.15	23126.83
544.32	22946.61
544.48	22918.53
544.65	22984.06
544.82	23101.09
544.99	23051.94
545.16	23218.11
545.32	22742.99
545.49	23524.72
545.66	24318.17
545.83	24254.97
546.00	23733.03
546.16	23744.73
546.33	23470.89
546.50	23150.24
546.67	23466.21
546.83	22993.42
547.00	23115.13
547.17	22871.72
547.34	23091.73
547.50	23030.87
547.67	23484.94
547.84	23168.96
548.00	23016.83
548.17	23587.92
548.34	23112.79
548.51	22934.91
548.67	23489.62
548.84	23215.77
549.01	23414.72
549.18	23381.95
549.34	23307.05
549.51	23578.56
549.68	23243.86
549.84	23316.42
550.01	23459.19
550.18	23185.35
550.34	23269.61
550.51	23431.10
550.68	23697.92
550.84	23033.21
551.01	23438.12
551.18	23211.09
551.34	22888.10
551.51	23398.34
551.68	23101.09
551.84	23264.92
552.01	22970.02
552.18	23466.21
552.34	23318.76
552.51	23702.61
552.68	23503.66
552.84	23253.22
553.01	23751.76
553.18	23737.71
553.34	23452.17
553.51	23590.26
553.67	23861.76
553.84	23929.64
554.01	23793.89
554.17	23658.14
554.34	23824.31
554.51	23534.09
554.67	23810.27
554.84	23557.49
555.00	23377.27
555.17	23487.28
555.33	23604.30
555.50	23513.02
555.67	23676.86
555.83	23756.44
556.00	23903.89
556.16	23681.54
556.33	23992.83
556.50	23770.48
556.66	23880.49
556.83	23491.96
556.99	24077.09
557.16	23971.77
557.32	24226.89
557.49	24135.60
557.65	24135.60
557.82	23885.17
557.98	23910.91
558.15	23697.92
558.32	24091.13
558.48	23838.36
558.65	24151.99
558.81	24046.66
558.98	24112.20
559.14	23934.32
559.31	24489.03
559.47	24144.97
559.64	23939.00
559.80	24041.98
559.97	24273.70
560.13	24100.50
560.30	23960.06
560.46	24077.09
560.63	24322.85
560.79	24531.15
560.96	24077.09
561.12	24446.90
561.29	24568.60
561.45	24458.60
561.61	24491.37
561.78	24292.42
561.94	24531.15
562.11	24577.97
562.27	24418.81
562.44	24191.78
562.60	24027.94
562.77	24191.78
562.93	24025.60
563.10	24360.30
563.26	24060.71
563.42	24238.59
563.59	24620.10
563.75	24379.02
563.92	24037.30
564.08	24105.18
564.24	24196.46
564.41	24386.04
564.57	24187.10
564.74	24561.58
564.90	24212.84
565.07	24334.55
565.23	24301.78
565.39	24414.13
565.56	24566.26
565.72	24271.36
565.88	24636.48
566.05	24360.30
566.21	24531.15
566.38	24414.13
566.54	24519.45
566.70	24514.77
566.87	24840.11
567.03	24533.50
567.19	24940.75
567.36	24615.41
567.52	24383.70
567.68	24346.25
567.85	24730.10
568.01	24491.37
568.17	24629.46
568.34	24734.78
568.50	24683.29
568.66	24746.48
568.83	24758.19
568.99	24517.11
569.15	24379.02
569.32	24631.80
569.48	24545.20
569.64	24767.55
569.81	24840.11
569.97	24624.78
570.13	24797.98
570.30	24247.95
570.46	24772.23
570.62	24758.19
570.78	24582.65
570.95	24360.30
571.11	24886.92
571.27	24322.85
571.43	24746.48
571.60	24823.72
571.76	24573.28
571.92	24713.72
572.09	24610.73
572.25	24760.53
572.41	24655.20
572.57	24985.22
572.74	24657.54
572.90	24645.84
573.06	25111.61
573.22	24957.13
573.38	24603.71
573.55	24760.53
573.71	24702.01
573.87	24781.59
574.03	24746.48
574.20	24840.11
574.36	24531.15
574.52	24816.70
574.68	24489.03
574.84	24889.26
575.01	24528.81
575.17	24760.53
575.33	24547.54
575.49	24664.57
575.65	25008.62
575.82	24973.52
575.98	24664.57
576.14	25032.03
576.30	24697.33
576.46	24868.19
576.62	25139.69
576.79	24680.95
576.95	25041.39
577.11	24755.85
577.27	25167.78
577.43	24978.20
577.59	25247.36
577.75	24713.72
577.92	24812.02
578.08	25106.93
578.24	24917.34
578.40	24917.34
578.56	24844.79
578.72	25259.06
578.88	25249.70
579.04	25151.40
579.21	24751.17
579.37	24980.54
579.53	25331.62
579.69	25064.80
579.85	24765.21
580.01	24985.22
580.17	24666.91
580.33	24790.95
580.49	24936.07
580.65	25172.46
580.82	24807.34
580.98	24840.11
581.14	25015.65
581.30	25097.56
581.46	24992.24
581.62	24980.54
581.78	24446.90
581.94	24947.77
582.10	24730.10
582.26	24952.45
582.42	24849.47
582.58	24809.68
582.74	24893.94
582.90	25216.93
583.06	24964.15
583.22	25120.97
583.38	25060.12
583.54	25135.01
583.70	25163.10
583.86	24957.13
584.02	24856.49
584.18	25200.55
584.34	24851.81
584.50	25127.99
584.66	24872.87
584.82	24788.61
584.98	24844.79
585.14	24985.22
585.30	24893.94
585.46	25242.68
585.62	25095.22
585.78	24912.66
585.94	25048.41
586.10	24947.77
586.26	24952.45
586.42	25106.93
586.58	25163.10
586.74	25043.73
586.90	24718.40
587.06	25055.43
587.22	25467.37
587.38	25151.40
587.54	25013.31
587.70	25488.43
587.86	25050.75
588.02	24872.87
588.18	25186.50
588.34	25544.61
588.49	24886.92
588.65	24837.76
588.81	24996.92
588.97	25317.57
589.13	24954.79
589.29	25434.60
589.45	25226.29
589.61	25277.79
589.77	25605.46
589.93	24938.41
590.08	25308.21
590.24	25039.05
590.40	25230.98
590.56	25132.67
590.72	25043.73
