SpectraSuite Data File
++++++++++++++++++++++++++++++++++++
Date: Thu Oct 24 13:20:59 EDT 2013
User: stostad
Dark Spectrum Present: No
Reference Spectrum Present: No
Number of Sampled Component Spectra: 1
Spectrometers: USB2+H05261
Integration Time (usec): 100000 (USB2+H05261)
Spectra Averaged: 1 (USB2+H05261)
Boxcar Smoothing: 0 (USB2+H05261)
Correct for Electrical Dark: No (USB2+H05261)
Strobe/Lamp Enabled: No (USB2+H05261)
Correct for Detector Non-linearity: No (USB2+H05261)
Correct for Stray Light: No (USB2+H05261)
Number of Pixels in Processed Spectrum: 2048
>>>>>Begin Processed Spectral Data<<<<<
365.73	589.82
365.92	589.82
366.12	589.82
366.32	505.56
366.52	435.34
366.72	463.43
366.91	498.53
367.11	423.64
367.31	416.62
367.51	376.83
367.70	451.72
367.90	482.15
368.10	440.02
368.30	404.91
368.49	444.70
368.69	521.94
368.89	416.62
369.09	477.47
369.28	458.74
369.48	428.32
369.68	435.34
369.87	552.37
370.07	470.45
370.27	624.92
370.47	578.11
370.66	566.41
370.86	592.16
371.06	662.37
371.25	671.73
371.45	645.99
371.65	538.32
371.84	582.79
372.04	585.13
372.24	580.45
372.44	648.33
372.63	587.47
372.83	622.58
373.03	594.50
373.22	669.39
373.42	620.24
373.62	645.99
373.81	624.92
374.01	645.99
374.21	627.26
374.40	608.54
374.60	655.35
374.79	667.05
374.99	594.50
375.19	746.63
375.38	617.90
375.58	606.20
375.78	638.97
375.97	638.97
376.17	671.73
376.37	617.90
376.56	620.24
376.76	601.52
376.95	655.35
377.15	631.94
377.35	638.97
377.54	596.84
377.74	653.01
377.93	617.90
378.13	674.07
378.33	653.01
378.52	552.37
378.72	559.39
378.91	566.41
379.11	571.09
379.31	704.50
379.50	603.86
379.70	610.88
379.89	643.65
380.09	624.92
380.28	669.39
380.48	617.90
380.68	582.79
380.87	615.56
381.07	575.77
381.26	695.14
381.46	676.41
381.65	634.29
381.85	599.18
382.04	617.90
382.24	655.35
382.43	547.69
382.63	594.50
382.83	631.94
383.02	636.63
383.22	667.05
383.41	671.73
383.61	568.75
383.80	638.97
384.00	643.65
384.19	669.39
384.39	627.26
384.58	636.63
384.78	603.86
384.97	688.12
385.17	643.65
385.36	657.69
385.56	697.48
385.75	629.60
385.95	617.90
386.14	648.33
386.34	620.24
386.53	683.44
386.72	589.82
386.92	678.76
387.11	575.77
387.31	592.16
387.50	589.82
387.70	648.33
387.89	653.01
388.09	550.03
388.28	624.92
388.48	641.31
388.67	650.67
388.86	627.26
389.06	601.52
389.25	629.60
389.45	667.05
389.64	629.60
389.84	678.76
390.03	676.41
390.22	662.37
390.42	589.82
390.61	580.45
390.81	662.37
391.00	603.86
391.19	629.60
391.39	645.99
391.58	603.86
391.78	573.43
391.97	615.56
392.16	578.11
392.36	648.33
392.55	627.26
392.75	692.80
392.94	664.71
393.13	674.07
393.33	608.54
393.52	669.39
393.71	617.90
393.91	650.67
394.10	559.39
394.29	547.69
394.49	550.03
394.68	624.92
394.88	674.07
395.07	645.99
395.26	585.13
395.46	545.34
395.65	622.58
395.84	594.50
396.04	613.22
396.23	575.77
396.42	650.67
396.62	634.29
396.81	648.33
397.00	669.39
397.19	585.13
397.39	589.82
397.58	615.56
397.77	620.24
397.97	648.33
398.16	608.54
398.35	671.73
398.55	636.63
398.74	608.54
398.93	655.35
399.12	629.60
399.32	617.90
399.51	596.84
399.70	615.56
399.90	667.05
400.09	580.45
400.28	624.92
400.47	636.63
400.67	566.41
400.86	580.45
401.05	641.31
401.24	650.67
401.44	540.66
401.63	594.50
401.82	568.75
402.01	561.73
402.21	592.16
402.40	578.11
402.59	578.11
402.78	587.47
402.97	589.82
403.17	664.71
403.36	634.29
403.55	587.47
403.74	601.52
403.93	755.99
404.13	692.80
404.32	730.25
404.51	627.26
404.70	697.48
404.89	683.44
405.09	657.69
405.28	589.82
405.47	585.13
405.66	629.60
405.85	650.67
406.05	667.05
406.24	575.77
406.43	596.84
406.62	573.43
406.81	662.37
407.00	706.84
407.20	664.71
407.39	592.16
407.58	585.13
407.77	713.86
407.96	648.33
408.15	634.29
408.34	561.73
408.54	636.63
408.73	601.52
408.92	655.35
409.11	608.54
409.30	664.71
409.49	594.50
409.68	610.88
409.87	613.22
410.07	641.31
410.26	622.58
410.45	631.94
410.64	613.22
410.83	683.44
411.02	650.67
411.21	627.26
411.40	599.18
411.59	587.47
411.78	657.69
411.98	629.60
412.17	571.09
412.36	587.47
412.55	678.76
412.74	664.71
412.93	699.82
413.12	613.22
413.31	573.43
413.50	653.01
413.69	603.86
413.88	657.69
414.07	629.60
414.26	629.60
414.45	582.79
414.64	636.63
414.83	606.20
415.02	582.79
415.22	571.09
415.41	620.24
415.60	681.10
415.79	669.39
415.98	657.69
416.17	653.01
416.36	650.67
416.55	648.33
416.74	648.33
416.93	627.26
417.12	676.41
417.31	578.11
417.50	631.94
417.69	697.48
417.88	557.05
418.07	587.47
418.26	559.39
418.45	627.26
418.64	685.78
418.83	636.63
419.02	526.62
419.21	622.58
419.39	657.69
419.58	599.18
419.77	634.29
419.96	636.63
420.15	645.99
420.34	615.56
420.53	664.71
420.72	613.22
420.91	641.31
421.10	596.84
421.29	638.97
421.48	643.65
421.67	678.76
421.86	587.47
422.05	613.22
422.24	648.33
422.43	692.80
422.61	657.69
422.80	638.97
422.99	603.86
423.18	634.29
423.37	674.07
423.56	634.29
423.75	641.31
423.94	676.41
424.13	657.69
424.32	587.47
424.50	643.65
424.69	592.16
424.88	692.80
425.07	716.20
425.26	643.65
425.45	617.90
425.64	620.24
425.83	636.63
426.01	606.20
426.20	690.46
426.39	702.16
426.58	587.47
426.77	695.14
426.96	624.92
427.15	580.45
427.33	617.90
427.52	622.58
427.71	629.60
427.90	592.16
428.09	601.52
428.28	585.13
428.46	631.94
428.65	622.58
428.84	617.90
429.03	638.97
429.22	615.56
429.40	566.41
429.59	608.54
429.78	615.56
429.97	650.67
430.16	641.31
430.34	676.41
430.53	645.99
430.72	660.03
430.91	676.41
431.10	615.56
431.28	629.60
431.47	695.14
431.66	622.58
431.85	671.73
432.03	650.67
432.22	688.12
432.41	638.97
432.60	662.37
432.79	606.20
432.97	606.20
433.16	613.22
433.35	645.99
433.54	634.29
433.72	620.24
433.91	662.37
434.10	645.99
434.28	660.03
434.47	662.37
434.66	690.46
434.85	669.39
435.03	873.02
435.22	1048.56
435.41	1135.16
435.59	1130.48
435.78	1015.79
435.97	828.55
436.16	788.76
436.34	596.84
436.53	648.33
436.72	671.73
436.90	688.12
437.09	613.22
437.28	704.50
437.46	603.86
437.65	615.56
437.84	678.76
438.02	657.69
438.21	571.09
438.40	629.60
438.58	610.88
438.77	688.12
438.96	627.26
439.14	692.80
439.33	578.11
439.52	657.69
439.70	629.60
439.89	645.99
440.08	561.73
440.26	638.97
440.45	653.01
440.63	592.16
440.82	608.54
441.01	620.24
441.19	648.33
441.38	629.60
441.57	589.82
441.75	704.50
441.94	629.60
442.12	620.24
442.31	645.99
442.50	622.58
442.68	645.99
442.87	641.31
443.05	643.65
443.24	664.71
443.43	683.44
443.61	653.01
443.80	620.24
443.98	603.86
444.17	634.29
444.35	636.63
444.54	650.67
444.73	664.71
444.91	634.29
445.10	594.50
445.28	561.73
445.47	641.31
445.65	683.44
445.84	699.82
446.02	596.84
446.21	641.31
446.39	671.73
446.58	641.31
446.77	655.35
446.95	599.18
447.14	676.41
447.32	695.14
447.51	627.26
447.69	692.80
447.88	634.29
448.06	681.10
448.25	678.76
448.43	657.69
448.62	697.48
448.80	645.99
448.99	657.69
449.17	648.33
449.36	629.60
449.54	592.16
449.73	627.26
449.91	622.58
450.10	657.69
450.28	725.57
450.46	620.24
450.65	671.73
450.83	690.46
451.02	674.07
451.20	685.78
451.39	582.79
451.57	641.31
451.76	622.58
451.94	648.33
452.13	723.23
452.31	660.03
452.49	676.41
452.68	636.63
452.86	657.69
453.05	620.24
453.23	671.73
453.42	699.82
453.60	683.44
453.78	620.24
453.97	594.50
454.15	596.84
454.34	592.16
454.52	631.94
454.70	638.97
454.89	645.99
455.07	608.54
455.26	636.63
455.44	631.94
455.62	613.22
455.81	697.48
455.99	645.99
456.17	643.65
456.36	664.71
456.54	592.16
456.73	650.67
456.91	580.45
457.09	617.90
457.28	662.37
457.46	608.54
457.64	667.05
457.83	624.92
458.01	603.86
458.19	580.45
458.38	692.80
458.56	648.33
458.74	606.20
458.93	711.52
459.11	683.44
459.29	610.88
459.48	645.99
459.66	657.69
459.84	648.33
460.03	631.94
460.21	606.20
460.39	704.50
460.57	674.07
460.76	653.01
460.94	678.76
461.12	620.24
461.31	655.35
461.49	702.16
461.67	688.12
461.85	667.05
462.04	662.37
462.22	919.83
462.40	641.31
462.59	638.97
462.77	674.07
462.95	559.39
463.13	681.10
463.32	653.01
463.50	664.71
463.68	631.94
463.86	634.29
464.05	671.73
464.23	695.14
464.41	585.13
464.59	596.84
464.78	657.69
464.96	617.90
465.14	713.86
465.32	596.84
465.50	627.26
465.69	671.73
465.87	624.92
466.05	655.35
466.23	638.97
466.41	643.65
466.60	566.41
466.78	660.03
466.96	669.39
467.14	699.82
467.32	702.16
467.51	638.97
467.69	552.37
467.87	692.80
468.05	681.10
468.23	718.54
468.41	697.48
468.60	606.20
468.78	674.07
468.96	690.46
469.14	674.07
469.32	671.73
469.50	606.20
469.69	800.46
469.87	685.78
470.05	695.14
470.23	622.58
470.41	645.99
470.59	664.71
470.77	641.31
470.95	650.67
471.14	657.69
471.32	704.50
471.50	662.37
471.68	676.41
471.86	674.07
472.04	669.39
472.22	678.76
472.40	650.67
472.58	638.97
472.77	688.12
472.95	613.22
473.13	688.12
473.31	662.37
473.49	599.18
473.67	653.01
473.85	624.92
474.03	603.86
474.21	622.58
474.39	709.18
474.57	765.36
474.75	685.78
474.93	638.97
475.12	620.24
475.30	699.82
475.48	634.29
475.66	514.92
475.84	622.58
476.02	636.63
476.20	615.56
476.38	688.12
476.56	645.99
476.74	617.90
476.92	645.99
477.10	552.37
477.28	643.65
477.46	610.88
477.64	650.67
477.82	643.65
478.00	655.35
478.18	650.67
478.36	648.33
478.54	664.71
478.72	641.31
478.90	634.29
479.08	711.52
479.26	622.58
479.44	645.99
479.62	620.24
479.80	615.56
479.98	610.88
480.16	627.26
480.34	650.67
480.52	615.56
480.70	697.48
480.88	681.10
481.06	547.69
481.24	648.33
481.41	641.31
481.59	660.03
481.77	648.33
481.95	643.65
482.13	629.60
482.31	643.65
482.49	622.58
482.67	543.00
482.85	648.33
483.03	650.67
483.21	669.39
483.39	638.97
483.57	692.80
483.74	716.20
483.92	674.07
484.10	664.71
484.28	688.12
484.46	746.63
484.64	678.76
484.82	692.80
485.00	727.91
485.18	765.36
485.35	662.37
485.53	720.88
485.71	748.97
485.89	758.33
486.07	751.31
486.25	770.04
486.43	718.54
486.61	723.23
486.78	709.18
486.96	695.14
487.14	739.61
487.32	732.59
487.50	657.69
487.68	732.59
487.85	688.12
488.03	711.52
488.21	746.63
488.39	725.57
488.57	727.91
488.75	732.59
488.92	695.14
489.10	716.20
489.28	688.12
489.46	704.50
489.64	697.48
489.81	702.16
489.99	765.36
490.17	697.48
490.35	784.08
490.53	699.82
490.70	690.46
490.88	758.33
491.06	690.46
491.24	739.61
491.41	655.35
491.59	744.29
491.77	664.71
491.95	699.82
492.13	702.16
492.30	716.20
492.48	741.95
492.66	685.78
492.84	622.58
493.01	648.33
493.19	716.20
493.37	690.46
493.54	653.01
493.72	685.78
493.90	688.12
494.08	669.39
494.25	669.39
494.43	664.71
494.61	734.93
494.79	603.86
494.96	641.31
495.14	730.25
495.32	671.73
495.49	709.18
495.67	676.41
495.85	702.16
496.02	638.97
496.20	655.35
496.38	709.18
496.55	643.65
496.73	636.63
496.91	720.88
497.09	681.10
497.26	664.71
497.44	692.80
497.62	741.95
497.79	685.78
497.97	688.12
498.14	713.86
498.32	702.16
498.50	674.07
498.67	641.31
498.85	575.77
499.03	643.65
499.20	678.76
499.38	589.82
499.56	706.84
499.73	695.14
499.91	711.52
500.08	678.76
500.26	664.71
500.44	631.94
500.61	655.35
500.79	711.52
500.97	669.39
501.14	617.90
501.32	580.45
501.49	599.18
501.67	706.84
501.84	697.48
502.02	629.60
502.20	657.69
502.37	660.03
502.55	636.63
502.72	624.92
502.90	629.60
503.07	631.94
503.25	631.94
503.43	690.46
503.60	688.12
503.78	674.07
503.95	681.10
504.13	720.88
504.30	704.50
504.48	669.39
504.65	683.44
504.83	667.05
505.01	685.78
505.18	669.39
505.36	573.43
505.53	683.44
505.71	681.10
505.88	653.01
506.06	610.88
506.23	624.92
506.41	662.37
506.58	592.16
506.76	695.14
506.93	650.67
507.11	699.82
507.28	592.16
507.46	648.33
507.63	727.91
507.81	655.35
507.98	636.63
508.16	660.03
508.33	650.67
508.50	645.99
508.68	582.79
508.85	617.90
509.03	575.77
509.20	695.14
509.38	676.41
509.55	671.73
509.73	636.63
509.90	606.20
510.08	592.16
510.25	641.31
510.42	592.16
510.60	627.26
510.77	706.84
510.95	667.05
511.12	613.22
511.30	697.48
511.47	664.71
511.64	681.10
511.82	622.58
511.99	638.97
512.17	734.93
512.34	636.63
512.51	606.20
512.69	645.99
512.86	669.39
513.04	706.84
513.21	566.41
513.38	653.01
513.56	617.90
513.73	610.88
513.90	622.58
514.08	601.52
514.25	596.84
514.43	695.14
514.60	627.26
514.77	674.07
514.95	688.12
515.12	650.67
515.29	622.58
515.47	613.22
515.64	615.56
515.81	631.94
515.99	685.78
516.16	678.76
516.33	660.03
516.51	657.69
516.68	610.88
516.85	655.35
517.03	636.63
517.20	655.35
517.37	648.33
517.54	617.90
517.72	641.31
517.89	676.41
518.06	587.47
518.24	678.76
518.41	704.50
518.58	692.80
518.75	664.71
518.93	662.37
519.10	648.33
519.27	641.31
519.45	704.50
519.62	671.73
519.79	592.16
519.96	678.76
520.14	589.82
520.31	720.88
520.48	601.52
520.65	582.79
520.83	681.10
521.00	624.92
521.17	723.23
521.34	653.01
521.52	739.61
521.69	674.07
521.86	688.12
522.03	596.84
522.20	671.73
522.38	613.22
522.55	624.92
522.72	615.56
522.89	674.07
523.07	704.50
523.24	643.65
523.41	641.31
523.58	655.35
523.75	685.78
523.92	608.54
524.10	631.94
524.27	634.29
524.44	695.14
524.61	688.12
524.78	753.65
524.96	683.44
525.13	613.22
525.30	608.54
525.47	688.12
525.64	648.33
525.81	683.44
525.98	624.92
526.16	678.76
526.33	587.47
526.50	638.97
526.67	638.97
526.84	660.03
527.01	648.33
527.18	624.92
527.36	657.69
527.53	610.88
527.70	669.39
527.87	603.86
528.04	655.35
528.21	617.90
528.38	653.01
528.55	662.37
528.72	683.44
528.89	711.52
529.07	681.10
529.24	690.46
529.41	669.39
529.58	657.69
529.75	655.35
529.92	650.67
530.09	540.66
530.26	774.72
530.43	573.43
530.60	716.20
530.77	683.44
530.94	610.88
531.11	650.67
531.28	566.41
531.46	664.71
531.63	660.03
531.80	718.54
531.97	655.35
532.14	674.07
532.31	697.48
532.48	702.16
532.65	748.97
532.82	681.10
532.99	683.44
533.16	681.10
533.33	704.50
533.50	709.18
533.67	725.57
533.84	627.26
534.01	737.27
534.18	676.41
534.35	688.12
534.52	711.52
534.69	648.33
534.86	620.24
535.03	629.60
535.20	674.07
535.37	645.99
535.54	695.14
535.71	669.39
535.88	690.46
536.05	706.84
536.22	669.39
536.38	692.80
536.55	709.18
536.72	688.12
536.89	650.67
537.06	732.59
537.23	744.29
537.40	711.52
537.57	744.29
537.74	805.14
537.91	851.96
538.08	704.50
538.25	690.46
538.42	697.48
538.59	812.17
538.75	765.36
538.92	821.53
539.09	791.10
539.26	821.53
539.43	793.44
539.60	793.44
539.77	912.81
539.94	851.96
540.11	931.53
540.28	940.90
540.44	966.64
540.61	938.55
540.78	1041.54
540.95	1181.97
541.12	1214.74
541.29	1287.29
541.46	1303.68
541.62	1343.47
541.79	1357.51
541.96	1240.48
542.13	1301.34
542.30	1186.65
542.47	1291.98
542.63	1224.10
542.80	1273.25
542.97	1343.47
543.14	1259.21
543.31	1266.23
543.48	1174.95
543.64	1221.76
543.81	1174.95
543.98	1245.16
544.15	1104.73
544.32	1217.08
544.48	1306.02
544.65	1254.53
544.82	1116.44
544.99	1210.06
545.16	1212.40
545.32	1261.55
545.49	1614.97
545.66	1973.07
545.83	2125.21
546.00	1961.37
546.16	1722.63
546.33	1521.35
546.50	1394.96
546.67	1289.64
546.83	1123.46
547.00	1039.20
547.17	1027.50
547.34	1006.43
547.50	973.66
547.67	894.08
547.84	873.02
548.00	961.96
548.17	938.55
548.34	938.55
548.51	931.53
548.67	887.06
548.84	908.13
549.01	908.13
549.18	924.51
549.34	861.32
549.51	901.11
549.68	844.93
549.84	882.38
550.01	798.12
550.18	821.53
550.34	842.59
550.51	868.34
550.68	821.53
550.84	802.80
551.01	842.59
551.18	842.59
551.34	706.84
551.51	791.10
551.68	772.38
551.84	744.29
552.01	739.61
552.18	755.99
552.34	765.36
552.51	730.25
552.68	798.12
552.84	809.83
553.01	779.40
553.18	709.18
553.34	786.42
553.51	713.86
553.67	643.65
553.84	727.91
554.01	720.88
554.17	739.61
554.34	763.01
554.51	641.31
554.67	702.16
554.84	744.29
555.00	655.35
555.17	660.03
555.33	706.84
555.50	641.31
555.67	685.78
555.83	741.95
556.00	678.76
556.16	727.91
556.33	767.70
556.50	697.48
556.66	702.16
556.83	631.94
556.99	706.84
557.16	713.86
557.32	681.10
557.49	627.26
557.65	688.12
557.82	655.35
557.98	664.71
558.15	645.99
558.32	671.73
558.48	671.73
558.65	667.05
558.81	641.31
558.98	657.69
559.14	681.10
559.31	641.31
559.47	629.60
559.64	674.07
559.80	734.93
559.97	634.29
560.13	568.75
560.30	676.41
560.46	650.67
560.63	660.03
560.79	660.03
560.96	650.67
561.12	662.37
561.29	662.37
561.45	648.33
561.61	683.44
561.78	648.33
561.94	732.59
562.11	624.92
562.27	662.37
562.44	676.41
562.60	681.10
562.77	638.97
562.93	699.82
563.10	660.03
563.26	716.20
563.42	653.01
563.59	634.29
563.75	669.39
563.92	741.95
564.08	641.31
564.24	688.12
564.41	681.10
564.57	688.12
564.74	704.50
564.90	643.65
565.07	608.54
565.23	681.10
565.39	638.97
565.56	645.99
565.72	603.86
565.88	620.24
566.05	603.86
566.21	711.52
566.38	634.29
566.54	681.10
566.70	706.84
566.87	671.73
567.03	648.33
567.19	603.86
567.36	664.71
567.52	627.26
567.68	657.69
567.85	664.71
568.01	603.86
568.17	587.47
568.34	610.88
568.50	641.31
568.66	697.48
568.83	713.86
568.99	634.29
569.15	592.16
569.32	589.82
569.48	648.33
569.64	641.31
569.81	636.63
569.97	580.45
570.13	674.07
570.30	582.79
570.46	664.71
570.62	678.76
570.78	660.03
570.95	615.56
571.11	648.33
571.27	653.01
571.43	655.35
571.60	709.18
571.76	631.94
571.92	699.82
572.09	664.71
572.25	608.54
572.41	662.37
572.57	653.01
572.74	718.54
572.90	711.52
573.06	697.48
573.22	706.84
573.38	631.94
573.55	624.92
573.71	641.31
573.87	627.26
574.03	622.58
574.20	662.37
574.36	751.31
574.52	683.44
574.68	671.73
574.84	603.86
575.01	601.52
575.17	671.73
575.33	636.63
575.49	713.86
575.65	697.48
575.82	681.10
575.98	706.84
576.14	709.18
576.30	807.48
576.46	763.01
576.62	908.13
576.79	915.15
576.95	912.81
577.11	765.36
577.27	777.06
577.43	718.54
577.59	774.72
577.75	653.01
577.92	699.82
578.08	678.76
578.24	685.78
578.40	755.99
578.56	748.97
578.72	973.66
578.88	950.26
579.04	861.32
579.21	800.46
579.37	744.29
579.53	767.70
579.69	751.31
579.85	781.74
580.01	819.19
580.17	760.67
580.33	763.01
580.49	723.23
580.65	737.27
580.82	760.67
580.98	758.33
581.14	786.42
581.30	770.04
581.46	786.42
581.62	706.84
581.78	788.76
581.94	774.72
582.10	760.67
582.26	767.70
582.42	784.08
582.58	758.33
582.74	847.27
582.90	826.21
583.06	800.46
583.22	830.89
583.38	828.55
583.54	763.01
583.70	795.78
583.86	793.44
584.02	814.51
584.18	779.40
584.34	844.93
584.50	835.57
584.66	800.46
584.82	765.36
584.98	737.27
585.14	713.86
585.30	791.10
585.46	830.89
585.62	763.01
585.78	727.91
585.94	765.36
586.10	809.83
586.26	802.80
586.42	770.04
586.58	814.51
586.74	798.12
586.90	828.55
587.06	858.98
587.22	933.87
587.38	926.85
587.54	905.79
587.70	849.61
587.86	821.53
588.02	800.46
588.18	779.40
588.34	713.86
588.49	734.93
588.65	786.42
588.81	746.63
588.97	692.80
589.13	704.50
589.29	809.83
589.45	755.99
589.61	711.52
589.77	786.42
589.93	727.91
590.08	765.36
590.24	770.04
590.40	667.05
590.56	725.57
590.72	779.40
590.88	671.73
591.04	842.59
591.20	683.44
591.35	758.33
591.51	727.91
591.67	706.84
591.83	744.29
591.99	765.36
592.15	779.40
592.31	800.46
592.46	732.59
592.62	833.23
592.78	784.08
592.94	786.42
593.10	816.85
593.26	786.42
593.41	786.42
593.57	830.89
593.73	730.25
593.89	777.06
594.05	732.59
594.20	739.61
594.36	697.48
594.52	741.95
594.68	688.12
594.84	753.65
594.99	704.50
595.15	784.08
595.31	720.88
595.47	702.16
595.62	667.05
595.78	662.37
595.94	744.29
596.10	681.10
596.25	653.01
596.41	793.44
596.57	676.41
596.73	660.03
596.88	741.95
597.04	737.27
597.20	678.76
597.36	723.23
597.51	645.99
597.67	688.12
597.83	660.03
597.99	732.59
598.14	713.86
598.30	746.63
598.46	699.82
598.61	795.78
598.77	758.33
598.93	718.54
599.09	760.67
599.24	791.10
599.40	814.51
599.56	706.84
599.71	706.84
599.87	795.78
600.03	697.48
600.18	755.99
600.34	760.67
600.50	704.50
600.65	753.65
600.81	706.84
600.97	697.48
601.12	636.63
601.28	655.35
601.44	674.07
601.59	650.67
601.75	660.03
601.91	704.50
602.06	622.58
602.22	744.29
602.37	732.59
602.53	718.54
602.69	683.44
602.84	664.71
603.00	657.69
603.16	706.84
603.31	720.88
603.47	683.44
603.62	699.82
603.78	683.44
603.94	748.97
604.09	641.31
604.25	589.82
604.40	690.46
604.56	636.63
604.71	695.14
604.87	692.80
605.03	683.44
605.18	678.76
605.34	695.14
605.49	615.56
605.65	678.76
605.80	699.82
605.96	713.86
606.12	699.82
606.27	667.05
606.43	711.52
606.58	720.88
606.74	732.59
606.89	753.65
607.05	730.25
607.20	709.18
607.36	674.07
607.51	765.36
607.67	697.48
607.82	716.20
607.98	739.61
608.13	716.20
608.29	830.89
608.44	777.06
608.60	758.33
608.75	847.27
608.91	830.89
609.06	770.04
609.22	903.45
609.37	786.42
609.53	833.23
609.68	908.13
