SpectraSuite Data File
++++++++++++++++++++++++++++++++++++
Date: Thu Oct 24 13:21:12 EDT 2013
User: stostad
Dark Spectrum Present: No
Reference Spectrum Present: No
Number of Sampled Component Spectra: 1
Spectrometers: USB2+H05261
Integration Time (usec): 100000 (USB2+H05261)
Spectra Averaged: 1 (USB2+H05261)
Boxcar Smoothing: 0 (USB2+H05261)
Correct for Electrical Dark: No (USB2+H05261)
Strobe/Lamp Enabled: No (USB2+H05261)
Correct for Detector Non-linearity: No (USB2+H05261)
Correct for Stray Light: No (USB2+H05261)
Number of Pixels in Processed Spectrum: 2048
>>>>>Begin Processed Spectral Data<<<<<
365.73	566.41
365.92	566.41
366.12	566.41
366.32	526.62
366.52	475.13
366.72	566.41
366.91	451.72
367.11	470.45
367.31	435.34
367.51	531.30
367.70	465.77
367.90	514.92
368.10	416.62
368.30	521.94
368.49	404.91
368.69	505.56
368.89	449.38
369.09	465.77
369.28	484.49
369.48	521.94
369.68	477.47
369.87	566.41
370.07	557.05
370.27	540.66
370.47	543.00
370.66	695.14
370.86	671.73
371.06	713.86
371.25	730.25
371.45	770.04
371.65	704.50
371.84	732.59
372.04	716.20
372.24	751.31
372.44	720.88
372.63	781.74
372.83	739.61
373.03	784.08
373.22	802.80
373.42	784.08
373.62	805.14
373.81	779.40
374.01	814.51
374.21	816.85
374.40	791.10
374.60	858.98
374.79	805.14
374.99	873.02
375.19	800.46
375.38	830.89
375.58	760.67
375.78	720.88
375.97	748.97
376.17	940.90
376.37	755.99
376.56	870.68
376.76	751.31
376.95	795.78
377.15	802.80
377.35	793.44
377.54	748.97
377.74	842.59
377.93	816.85
378.13	912.81
378.33	873.02
378.52	877.70
378.72	795.78
378.91	851.96
379.11	770.04
379.31	809.83
379.50	849.61
379.70	877.70
379.89	910.47
380.09	798.12
380.28	809.83
380.48	828.55
380.68	812.17
380.87	786.42
381.07	847.27
381.26	873.02
381.46	866.00
381.65	863.66
381.85	875.36
382.04	875.36
382.24	849.61
382.43	891.74
382.63	870.68
382.83	800.46
383.02	870.68
383.22	917.49
383.41	992.39
383.61	889.40
383.80	901.11
384.00	870.68
384.19	926.85
384.39	938.55
384.58	889.40
384.78	976.00
384.97	952.60
385.17	875.36
385.36	903.45
385.56	901.11
385.75	931.53
385.95	947.92
386.14	954.94
386.34	868.34
386.53	945.58
386.72	926.85
386.92	912.81
387.11	966.64
387.31	952.60
387.50	840.25
387.70	959.62
387.89	950.26
388.09	891.74
388.28	894.08
388.48	884.72
388.67	961.96
388.86	917.49
389.06	971.32
389.25	971.32
389.45	1022.81
389.64	922.17
389.84	973.66
390.03	980.68
390.22	985.37
390.42	964.30
390.61	1020.47
390.81	954.94
391.00	1062.60
391.19	968.98
391.39	992.39
391.58	1036.86
391.78	1060.26
391.97	971.32
392.16	990.05
392.36	1081.33
392.55	1060.26
392.75	1050.90
392.94	1071.97
393.13	990.05
393.33	985.37
393.52	1071.97
393.71	1046.22
393.91	1013.45
394.10	1100.05
394.29	1046.22
394.49	1071.97
394.68	1090.69
394.88	1097.71
395.07	1125.80
395.26	1107.07
395.46	1149.20
395.65	1121.12
395.84	1081.33
396.04	1128.14
396.23	1060.26
396.42	1158.57
396.62	1114.10
396.81	1116.44
397.00	1109.41
397.19	1174.95
397.39	1256.87
397.58	1097.71
397.77	1050.90
397.97	1193.67
398.16	1121.12
398.35	1146.86
398.55	1174.95
398.74	1196.01
398.93	1174.95
399.12	1167.93
399.32	1231.12
399.51	1170.27
399.70	1214.74
399.90	1263.89
400.09	1123.46
400.28	1320.06
400.47	1191.33
400.67	1268.57
400.86	1221.76
401.05	1210.06
401.24	1203.04
401.44	1291.98
401.63	1348.15
401.82	1261.55
402.01	1306.02
402.21	1301.34
402.40	1259.21
402.59	1245.16
402.78	1343.47
402.97	1315.38
403.17	1306.02
403.36	1376.24
403.55	1409.00
403.74	1441.77
403.93	1364.53
404.13	1502.62
404.32	1462.83
404.51	1479.22
404.70	1420.71
404.89	1472.20
405.09	1448.79
405.28	1413.68
405.47	1416.02
405.66	1483.90
405.85	1460.49
406.05	1394.96
406.24	1416.02
406.43	1462.83
406.62	1533.05
406.81	1472.20
407.00	1472.20
407.20	1416.02
407.39	1493.26
407.58	1563.48
407.77	1502.62
407.96	1465.18
408.15	1584.54
408.34	1483.90
408.54	1479.22
408.73	1572.84
408.92	1453.47
409.11	1652.42
409.30	1607.95
409.49	1530.71
409.68	1572.84
409.87	1577.52
410.07	1619.65
410.26	1598.59
410.45	1640.72
410.64	1629.01
410.83	1678.16
411.02	1694.55
411.21	1614.97
411.40	1694.55
411.59	1696.89
411.78	1727.32
411.98	1668.80
412.17	1724.97
412.36	1685.19
412.55	1818.60
412.74	1865.41
412.93	1795.19
413.12	1715.61
413.31	1785.83
413.50	1853.70
413.69	1813.92
413.88	1863.07
414.07	1879.45
414.26	1881.79
414.45	1872.43
414.64	1802.21
414.83	1959.03
415.02	1863.07
415.22	1933.28
415.41	2010.52
415.60	2012.86
415.79	2040.95
415.98	1994.14
416.17	1963.71
416.36	2045.63
416.55	2050.31
416.74	2036.27
416.93	2045.63
417.12	1916.90
417.31	2040.95
417.50	2099.46
417.69	2143.93
417.88	2111.16
418.07	2090.10
418.26	2038.61
418.45	2113.50
418.64	2242.23
418.83	2108.82
419.02	2256.28
419.21	2235.21
419.39	2155.63
419.58	2186.06
419.77	2038.61
419.96	2125.21
420.15	2282.02
420.34	2211.81
420.53	2167.34
420.72	2157.97
420.91	2258.62
421.10	2181.38
421.29	2314.79
421.48	2345.22
421.67	2342.88
421.86	2394.37
422.05	2387.35
422.24	2312.45
422.43	2326.49
422.61	2293.72
422.80	2263.30
422.99	2324.15
423.18	2420.11
423.37	2328.83
423.56	2354.58
423.75	2354.58
423.94	2310.11
424.13	2169.68
424.32	2305.43
424.50	2275.00
424.69	2403.73
424.88	2417.77
425.07	2422.45
425.26	2340.54
425.45	2300.75
425.64	2387.35
425.83	2310.11
426.01	2387.35
426.20	2340.54
426.39	2401.39
426.58	2457.56
426.77	2429.48
426.96	2352.24
427.15	2382.67
427.33	2380.32
427.52	2438.84
427.71	2356.92
427.90	2413.09
428.09	2438.84
428.28	2616.72
428.46	2511.39
428.65	2396.71
428.84	2551.18
429.03	2527.78
429.22	2420.11
429.40	2597.99
429.59	2555.86
429.78	2546.50
429.97	2509.05
430.16	2572.25
430.34	2558.21
430.53	2602.68
430.72	2656.51
430.91	2583.95
431.10	2562.89
431.28	2743.11
431.47	2628.42
431.66	2682.25
431.85	2635.44
432.03	2551.18
432.22	2530.12
432.41	2698.64
432.60	2745.45
432.79	2768.85
432.97	2874.18
433.16	2808.64
433.35	2782.90
433.54	2698.64
433.72	2764.17
433.91	2696.30
434.10	2890.56
434.28	2759.49
434.47	2752.47
434.66	2867.16
434.85	2810.98
435.03	2993.55
435.22	3066.10
435.41	3288.45
435.59	3239.30
435.78	3171.43
435.97	3087.17
436.16	2942.05
436.34	2904.60
436.53	2935.03
436.72	2928.01
436.90	2885.88
437.09	2963.12
437.28	2881.20
437.46	2965.46
437.65	3009.93
437.84	3014.61
438.02	3014.61
438.21	3052.06
438.40	3000.57
438.58	3171.43
438.77	3075.46
438.96	3129.30
439.14	3115.25
439.33	3253.34
439.52	3012.27
439.70	3211.22
439.89	3183.13
440.08	3314.20
440.26	3262.71
440.45	3215.90
440.63	3260.37
440.82	3403.14
441.01	3316.54
441.19	3276.75
441.38	3375.05
441.57	3222.92
441.75	3332.92
441.94	3379.73
442.12	3440.59
442.31	3531.87
442.50	3520.17
442.68	3393.78
442.87	3466.33
443.05	3510.80
443.24	3616.13
443.43	3559.95
443.61	3536.55
443.80	3588.04
443.98	3459.31
444.17	3386.76
444.35	3501.44
444.54	3524.85
444.73	3534.21
444.91	3508.46
445.10	3604.42
445.28	3529.53
445.47	3473.36
445.65	3456.97
445.84	3541.23
446.02	3602.08
446.21	3637.19
446.39	3576.34
446.58	3566.98
446.77	3620.81
446.95	3538.89
447.14	3499.10
447.32	3606.77
447.51	3679.32
447.69	3569.32
447.88	3667.62
448.06	3583.36
448.25	3585.70
448.43	3688.68
448.62	3700.39
448.80	3602.08
448.99	3574.00
449.17	3676.98
449.36	3630.17
449.54	3653.58
449.73	3674.64
449.91	3644.21
450.10	3679.32
450.28	3852.52
450.46	3749.54
450.65	3688.68
450.83	3932.10
451.02	3904.01
451.20	3817.41
451.39	3920.40
451.57	3810.39
451.76	3786.99
451.94	3911.04
452.13	3887.63
452.31	3932.10
452.49	3829.12
452.68	3847.84
452.86	3988.27
453.05	3873.59
453.23	3922.74
453.42	3962.53
453.60	3915.72
453.78	3964.87
453.97	3864.22
454.15	3955.51
454.34	4002.32
454.52	3992.95
454.70	4049.13
454.89	4042.11
455.07	4093.60
455.26	4161.47
455.44	4098.28
455.62	4056.15
455.81	4126.36
455.99	4133.39
456.17	4219.99
456.36	4182.54
456.54	4227.01
456.73	4138.07
456.91	4273.82
457.09	4329.99
457.28	4210.62
457.46	4135.73
457.64	4449.36
457.83	4280.84
458.01	4299.56
458.19	4411.91
458.38	4313.61
458.56	4301.90
458.74	4454.04
458.93	4358.08
459.11	4355.74
459.29	4510.21
459.48	4517.23
459.66	4381.48
459.84	4381.48
460.03	4578.09
460.21	4578.09
460.39	4454.04
460.57	4641.28
460.76	4461.06
460.94	4561.70
461.12	4535.96
461.31	4493.83
461.49	4482.13
461.67	4510.21
461.85	4737.24
462.04	4667.03
462.22	4945.55
462.40	4767.67
462.59	4641.28
462.77	4596.81
462.95	4674.05
463.13	4741.93
463.32	4755.97
463.50	4781.71
463.68	4753.63
463.86	4702.14
464.05	4748.95
464.23	4828.53
464.41	4669.37
464.59	4762.99
464.78	4851.93
464.96	4765.33
465.14	4720.86
465.32	4940.87
465.50	4999.38
465.69	4910.44
465.87	4922.15
466.05	4901.08
466.23	4669.37
466.41	4774.69
466.60	4943.21
466.78	4877.68
466.96	4889.38
467.14	5018.11
467.32	4987.68
467.51	4947.89
467.69	4758.31
467.87	5036.83
468.05	5095.35
468.23	4847.25
468.41	5104.71
468.60	4966.62
468.78	5020.45
468.96	4961.94
469.14	5188.97
469.32	5263.86
469.50	5146.84
469.69	5205.35
469.87	5130.45
470.05	5289.61
470.23	5114.07
470.41	5172.58
470.59	5273.23
470.77	5132.79
470.95	5254.50
471.14	5282.59
471.32	5088.32
471.50	5294.29
471.68	5334.08
471.86	5308.34
472.04	5434.72
472.22	5640.69
472.40	5305.99
472.58	5404.30
472.77	5495.58
472.95	5528.35
473.13	5762.40
473.31	5535.37
473.49	5451.11
473.67	5579.84
473.85	5724.95
474.03	5818.57
474.21	5762.40
474.39	5795.17
474.57	5783.46
474.75	5844.32
474.93	5865.38
475.12	5748.36
475.30	5853.68
475.48	5788.14
475.66	5994.11
475.84	5891.13
476.02	6097.10
476.20	5956.66
476.38	6153.27
476.56	6200.08
476.74	6057.31
476.92	6204.76
477.10	6214.12
477.28	6279.66
477.46	6342.85
477.64	6282.00
477.82	6246.89
478.00	6457.54
478.18	6480.94
478.36	6422.43
478.54	6523.07
478.72	6644.78
478.90	6822.66
479.08	6745.42
479.26	6813.30
479.44	6827.34
479.62	6871.81
479.80	6710.32
479.98	6853.09
480.16	7084.80
480.34	6878.83
480.52	7124.59
480.70	6991.18
480.88	6981.82
481.06	7110.55
481.24	7052.03
481.41	7164.38
481.59	7419.50
481.77	7396.09
481.95	7410.14
482.13	7396.09
482.31	7573.97
482.49	7744.83
482.67	7597.38
482.85	7714.41
483.03	7592.70
483.21	7740.15
483.39	7974.21
483.57	7866.54
483.74	8037.40
483.92	8058.46
484.10	7920.37
484.28	8105.28
484.46	8226.98
484.64	8475.08
484.82	8060.80
485.00	8430.61
485.18	8395.50
485.35	8407.20
485.53	8692.75
485.71	8493.80
485.89	8636.58
486.07	8772.33
486.25	8664.66
486.43	8720.84
486.61	8968.93
486.78	9076.60
486.96	9034.47
487.14	9165.54
487.32	9100.00
487.50	9579.81
487.68	9135.11
487.85	9406.61
488.03	9397.25
488.21	9659.39
488.39	9621.94
488.57	9701.52
488.75	9673.43
488.92	9734.29
489.10	9769.40
489.28	10001.11
489.46	10125.16
489.64	10054.94
489.81	10076.01
489.99	10078.35
490.17	10239.84
490.35	10363.89
490.53	10349.85
490.70	10693.91
490.88	10396.66
491.06	10434.11
491.24	10719.65
491.41	10422.41
491.59	10640.08
491.77	10616.67
491.95	10857.75
492.13	10841.36
492.30	10932.64
492.48	10892.85
492.66	11028.60
492.84	11016.90
493.01	11136.27
493.19	11012.22
493.37	11311.81
493.54	11293.08
493.72	11286.06
493.90	11375.00
494.08	11391.39
494.25	11489.69
494.43	11536.50
494.61	11775.24
494.79	11489.69
494.96	11648.85
495.14	12121.63
495.32	11871.20
495.49	11981.20
495.67	12112.27
495.85	12006.95
496.02	12191.85
496.20	12135.68
496.38	12304.20
496.55	12329.94
496.73	12409.52
496.91	12594.42
497.09	12755.92
497.26	12358.03
497.44	12505.48
497.62	12774.64
497.79	12690.38
497.97	12592.08
498.14	12784.01
498.32	13085.94
498.50	12919.76
498.67	12758.26
498.85	12854.22
499.03	12849.54
499.20	13200.62
499.38	13256.79
499.56	13121.04
499.73	13338.71
499.91	13284.88
500.08	13429.99
500.26	13474.46
500.44	13357.44
500.61	13673.41
500.79	13465.10
500.97	13757.67
501.14	13727.24
501.32	14057.26
501.49	13865.33
501.67	13879.38
501.84	13720.22
502.02	13790.44
502.20	14230.46
502.37	13783.41
502.55	13816.18
502.72	14080.66
502.90	13914.48
503.07	14295.99
503.25	14045.55
503.43	14045.55
503.60	14193.01
503.78	14530.05
503.95	14061.94
504.13	14445.79
504.30	14363.87
504.48	14333.44
504.65	14539.41
504.83	14546.43
505.01	14590.90
505.18	14523.02
505.36	14764.10
505.53	14759.42
505.71	14616.65
505.88	14897.51
506.06	14574.52
506.23	15129.22
506.41	15021.56
506.58	14881.13
506.76	14796.87
506.93	15300.08
507.11	15222.84
507.28	15140.93
507.46	15281.36
507.63	15194.76
507.81	15449.88
507.98	15220.50
508.16	15400.72
508.33	15346.89
508.50	15653.50
508.68	15667.55
508.85	15695.63
509.03	15438.17
509.20	15571.58
509.38	15709.68
509.55	16126.29
509.73	15683.93
509.90	16100.55
510.08	15859.47
510.25	15726.06
510.42	16025.65
510.60	16053.73
510.77	16154.38
510.95	16210.55
511.12	16086.50
511.30	16093.52
511.47	16318.22
511.64	16210.55
511.82	16348.64
511.99	16393.11
512.17	16081.82
512.34	16444.60
512.51	16538.23
512.69	16444.60
512.86	16360.34
513.04	16786.32
513.21	16617.80
513.38	16608.44
513.56	16622.48
513.73	16727.81
513.90	16954.84
514.08	16954.84
514.25	17036.76
514.43	17053.14
514.60	16793.34
514.77	17198.26
514.95	16971.22
515.12	16828.45
515.29	16767.60
515.47	16898.67
515.64	17303.58
515.81	17436.99
515.99	17373.80
516.16	17277.83
516.33	17369.12
516.51	17554.02
516.68	17570.40
516.85	17462.74
517.03	17806.80
517.20	17834.88
517.37	17600.83
517.54	17727.22
517.72	17743.60
517.89	17493.16
518.06	17448.69
518.24	17862.97
518.41	17678.07
518.58	17554.02
518.75	17617.21
518.93	17994.04
519.10	17963.61
519.27	17479.12
519.45	17844.24
519.62	17710.83
519.79	17982.34
519.96	18127.45
520.14	18129.79
520.31	17942.55
520.48	18139.15
520.65	18389.59
520.83	18235.11
521.00	18448.10
521.17	18054.89
521.34	18274.90
521.52	18143.83
521.69	18092.34
521.86	18302.99
522.03	18361.50
522.20	18665.77
522.38	18916.21
522.55	18670.45
522.72	18707.90
522.89	18401.29
523.07	18787.48
523.24	18679.82
523.41	18883.44
523.58	18466.83
523.75	19105.79
523.92	18829.61
524.10	18855.36
524.27	18885.78
524.44	18782.80
524.61	18890.46
524.78	18995.79
524.96	19077.71
525.13	19073.03
525.30	19405.38
525.47	19044.94
525.64	19414.74
525.81	19304.74
525.98	19381.98
526.16	19215.80
526.33	19468.58
526.50	19695.61
526.67	19620.71
526.84	19332.82
527.01	19508.37
527.18	19438.15
527.36	19487.30
527.53	19403.04
527.70	19903.92
527.87	19772.85
528.04	19688.59
528.21	19988.18
528.38	19578.58
528.55	19506.02
528.72	19857.10
528.89	19735.40
529.07	19756.46
529.24	19669.86
529.41	19693.27
529.58	19658.16
529.75	19910.94
529.92	19786.89
530.09	19847.74
530.26	19894.55
530.43	20128.61
530.60	19648.80
530.77	19903.92
530.94	20264.36
531.11	20060.73
531.28	20063.07
531.46	19861.79
531.63	20350.96
531.80	20245.63
531.97	20432.88
532.14	20428.20
532.31	20081.80
532.48	20315.85
532.65	20381.38
532.82	20381.38
532.99	20514.80
533.16	20479.69
533.33	20486.71
533.50	20629.48
533.67	20442.24
533.84	20542.88
534.01	20915.03
534.18	20386.07
534.35	20774.60
534.52	20807.36
534.69	20554.58
534.86	20629.48
535.03	20367.34
535.20	20599.05
535.37	20933.75
535.54	21109.29
535.71	20915.03
535.88	21053.12
536.05	20938.43
536.22	21013.33
536.38	21128.02
536.55	20849.49
536.72	21125.68
536.89	21071.84
537.06	21605.49
537.23	20931.41
537.40	21088.23
537.57	21172.49
537.74	21200.57
537.91	21495.48
538.08	21221.64
538.25	21010.99
538.42	21696.77
538.59	21315.26
538.75	21429.94
538.92	21488.46
539.09	21565.70
539.26	21556.33
539.43	21420.58
539.60	21635.91
539.77	21387.82
539.94	21921.46
540.11	21535.27
540.28	21902.73
540.44	22073.59
540.61	21713.15
540.78	21860.60
540.95	22089.98
541.12	22094.66
541.29	22232.75
541.46	22295.94
541.62	22258.49
541.79	22476.16
541.96	22036.14
542.13	22305.31
542.30	22197.64
542.47	22113.38
542.63	22408.29
542.80	22253.81
542.97	22614.26
543.14	22677.45
543.31	22747.67
543.48	22539.36
543.64	22321.69
543.81	22396.59
543.98	22761.71
544.15	22625.96
544.32	23058.96
544.48	22845.97
544.65	22623.62
544.82	22834.27
544.99	22834.27
545.16	22850.65
545.32	22815.54
545.49	23559.83
545.66	23779.84
545.83	23826.65
546.00	23704.95
546.16	23405.36
546.33	23068.32
546.50	22939.59
546.67	22806.18
546.83	22852.99
547.00	22808.52
547.17	22438.72
547.34	23042.57
547.50	22998.10
547.67	22895.12
547.84	22934.91
548.00	23381.95
548.17	23101.09
548.34	23033.21
548.51	23040.23
548.67	22827.24
548.84	23051.94
549.01	23084.70
549.18	22951.29
549.34	23056.62
549.51	23199.39
549.68	23061.30
549.84	23077.68
550.01	22927.89
550.18	22668.09
550.34	23250.88
550.51	22899.80
550.68	23204.07
550.84	23019.17
551.01	23243.86
551.18	22899.80
551.34	23063.64
551.51	23070.66
551.68	23161.94
551.84	23215.77
552.01	22806.18
552.18	23262.58
552.34	23538.77
552.51	23026.19
552.68	23126.83
552.84	23321.10
553.01	23215.77
553.18	23080.02
553.34	23477.91
553.51	23122.15
553.67	23550.47
553.84	23484.94
554.01	23356.21
554.17	23384.29
554.34	23807.93
554.51	23431.10
554.67	23421.74
554.84	23304.71
555.00	23173.64
555.17	23143.22
555.33	23480.25
555.50	23484.94
555.67	23297.69
555.83	23290.67
556.00	23737.71
556.16	23758.78
556.33	23735.37
556.50	23267.27
556.66	23632.39
556.83	23688.56
556.99	23435.78
557.16	23814.95
557.32	23784.52
557.49	23585.58
557.65	23679.20
557.82	23473.23
557.98	23391.31
558.15	23311.74
558.32	23515.36
558.48	23761.12
558.65	23903.89
558.81	23599.62
558.98	23651.11
559.14	23833.68
559.31	23653.45
559.47	23475.57
559.64	23821.97
559.80	23758.78
559.97	23859.42
560.13	23550.47
560.30	23618.35
560.46	23545.79
560.63	24159.01
560.79	24016.24
560.96	24006.87
561.12	24339.23
561.29	23594.94
561.45	23953.04
561.61	24070.07
561.78	24159.01
561.94	23997.51
562.11	24020.92
562.27	23871.12
562.44	23866.44
562.60	24140.29
562.77	24114.54
562.93	23974.11
563.10	24280.72
563.26	23882.83
563.42	24060.71
563.59	24114.54
563.75	24423.49
563.92	24386.04
564.08	24081.77
564.24	23946.02
564.41	24194.12
564.57	24486.68
564.74	24051.34
564.90	24386.04
565.07	24016.24
565.23	24322.85
565.39	24177.73
565.56	24304.12
565.72	23892.19
565.88	24156.67
566.05	24362.64
566.21	23871.12
566.38	24009.22
566.54	24332.21
566.70	24545.20
566.87	24081.77
567.03	24376.68
567.19	24547.54
567.36	24322.85
567.52	23969.43
567.68	24292.42
567.85	24243.27
568.01	24327.53
568.17	24336.89
568.34	24156.67
568.50	24250.29
568.66	24159.01
568.83	24507.75
568.99	24156.67
569.15	24535.84
569.32	24336.89
569.48	23948.36
569.64	24346.25
569.81	24194.12
569.97	24257.31
570.13	24105.18
570.30	24173.05
570.46	24582.65
570.62	24409.45
570.78	24201.14
570.95	24357.96
571.11	24421.15
571.27	24386.04
571.43	24261.99
571.60	24107.52
571.76	24404.77
571.92	24484.34
572.09	24245.61
572.25	24837.76
572.41	24769.89
572.57	24367.32
572.74	24418.81
572.90	24137.94
573.06	24393.06
573.22	24453.92
573.38	24379.02
573.55	24428.17
573.71	24704.35
573.87	24451.58
574.03	24486.68
574.20	24379.02
574.36	24430.51
574.52	24308.80
574.68	24397.74
574.84	24425.83
575.01	24196.46
575.17	24589.67
575.33	24610.73
575.49	24479.66
575.65	24538.18
575.82	24772.23
575.98	24388.38
576.14	24704.35
576.30	24870.53
576.46	24582.65
576.62	24758.19
576.79	24503.07
576.95	24657.54
577.11	24734.78
577.27	24765.21
577.43	24905.64
577.59	24982.88
577.75	24805.00
577.92	24566.26
578.08	24280.72
578.24	24863.51
578.40	24601.37
578.56	25099.90
578.72	25174.80
578.88	25205.23
579.04	24680.95
579.21	24627.12
579.37	24891.60
579.53	25022.67
579.69	24474.98
579.85	24725.42
580.01	25123.31
580.17	24664.57
580.33	24737.12
580.49	24500.73
580.65	25102.25
580.82	24748.82
580.98	24599.03
581.14	24767.55
581.30	24503.07
581.46	24154.33
581.62	24713.72
581.78	24283.06
581.94	24493.71
582.10	24285.40
582.26	24725.42
582.42	24622.44
582.58	24556.90
582.74	24657.54
582.90	24828.40
583.06	24629.46
583.22	24460.94
583.38	24599.03
583.54	24465.62
583.70	24474.98
583.86	24936.07
584.02	24601.37
584.18	24847.13
584.34	24790.95
584.50	24858.83
584.66	24390.72
584.82	24835.42
584.98	24662.22
585.14	24634.14
585.30	24388.38
585.46	24589.67
585.62	24577.97
585.78	24814.36
585.94	24865.85
586.10	24830.74
586.26	24781.59
586.42	24889.26
586.58	25198.21
586.74	24683.29
586.90	24800.32
587.06	24725.42
587.22	24875.21
587.38	25025.01
587.54	24968.84
587.70	24957.13
587.86	25057.78
588.02	24996.92
588.18	24912.66
588.34	24812.02
588.49	24830.74
588.65	24645.84
588.81	24393.06
588.97	24624.78
589.13	24711.38
589.29	24819.04
589.45	24952.45
589.61	24772.23
589.77	24924.36
589.93	24821.38
590.08	25074.16
590.24	24872.87
590.40	24903.30
590.56	25160.76
590.72	24706.70
590.88	24690.31
