SpectraSuite Data File
++++++++++++++++++++++++++++++++++++
Date: Thu Oct 24 13:21:42 EDT 2013
User: stostad
Dark Spectrum Present: No
Reference Spectrum Present: No
Number of Sampled Component Spectra: 1
Spectrometers: USB2+H05261
Integration Time (usec): 100000 (USB2+H05261)
Spectra Averaged: 1 (USB2+H05261)
Boxcar Smoothing: 0 (USB2+H05261)
Correct for Electrical Dark: No (USB2+H05261)
Strobe/Lamp Enabled: No (USB2+H05261)
Correct for Detector Non-linearity: No (USB2+H05261)
Correct for Stray Light: No (USB2+H05261)
Number of Pixels in Processed Spectrum: 2048
>>>>>Begin Processed Spectral Data<<<<<
365.73	592.16
365.92	592.16
366.12	592.16
366.32	599.18
366.52	465.77
366.72	535.98
366.91	456.40
367.11	547.69
367.31	496.19
367.51	517.26
367.70	498.53
367.90	479.81
368.10	423.64
368.30	454.06
368.49	433.00
368.69	535.98
368.89	627.26
369.09	519.60
369.28	535.98
369.48	531.30
369.68	554.71
369.87	561.73
370.07	482.15
370.27	557.05
370.47	758.33
370.66	1327.08
370.86	1413.68
371.06	1451.13
371.25	1490.92
371.45	1437.09
371.65	1411.34
371.84	1467.52
372.04	1516.67
372.24	1551.78
372.44	1582.20
372.63	1523.69
372.83	1563.48
373.03	1582.20
373.22	1652.42
373.42	1650.08
373.62	1668.80
373.81	1767.10
374.01	1696.89
374.21	1657.10
374.40	1699.23
374.60	1673.48
374.79	1657.10
374.99	1788.17
375.19	1783.49
375.38	1797.53
375.58	1706.25
375.78	1804.55
375.97	1743.70
376.17	1806.89
376.37	1778.81
376.56	1846.68
376.76	1799.87
376.95	1797.53
377.15	1830.30
377.35	1856.04
377.54	1926.26
377.74	1834.98
377.93	1867.75
378.13	1870.09
378.33	1942.64
378.52	1954.35
378.72	1839.66
378.91	1912.22
379.11	1853.70
379.31	1919.24
379.50	2008.18
379.70	2003.50
379.89	2097.12
380.09	2024.56
380.28	2001.16
380.48	2022.22
380.68	2017.54
380.87	2115.84
381.07	2045.63
381.26	2132.23
381.46	2165.00
381.65	2153.29
381.85	2064.35
382.04	2150.95
382.24	2225.85
382.43	2193.08
382.63	2162.66
382.83	2083.08
383.02	2228.19
383.22	2282.02
383.41	2249.25
383.61	2275.00
383.80	2394.37
384.00	2312.45
384.19	2368.62
384.39	2340.54
384.58	2422.45
384.78	2354.58
384.97	2382.67
385.17	2251.60
385.36	2429.48
385.56	2275.00
385.75	2431.82
385.95	2490.33
386.14	2476.29
386.34	2387.35
386.53	2583.95
386.72	2464.58
386.92	2626.08
387.11	2684.59
387.31	2424.80
387.50	2495.01
387.70	2572.25
387.89	2586.29
388.09	2509.05
388.28	2682.25
388.48	2729.06
388.67	2747.79
388.86	2712.68
389.06	2684.59
389.25	2803.96
389.45	2764.17
389.64	2710.34
389.84	2715.02
390.03	2848.43
390.22	2920.99
390.42	2815.66
390.61	2813.32
390.81	2909.29
391.00	2871.84
391.19	2932.69
391.39	2904.60
391.58	2878.86
391.78	2885.88
391.97	3033.33
392.16	2864.82
392.36	2986.52
392.55	3068.44
392.75	3021.63
392.94	3087.17
393.13	3117.59
393.33	3169.09
393.52	3143.34
393.71	3126.96
393.91	3283.77
394.10	3248.66
394.29	3281.43
394.49	3255.69
394.68	3302.50
394.88	3342.28
395.07	3276.75
395.26	3346.97
395.46	3487.40
395.65	3400.80
395.84	3513.14
396.04	3435.91
396.23	3520.17
396.42	3461.65
396.62	3461.65
396.81	3496.76
397.00	3653.58
397.19	3576.34
397.39	3569.32
397.58	3618.47
397.77	3599.74
397.97	3646.55
398.16	3648.90
398.35	3796.35
398.55	3653.58
398.74	3784.65
398.93	3843.16
399.12	3761.24
399.32	3716.77
399.51	3817.41
399.70	4025.72
399.90	3908.69
400.09	4011.68
400.28	4079.55
400.47	4021.04
400.67	3943.80
400.86	4037.42
401.05	4084.23
401.24	4138.07
401.44	4184.88
401.63	4135.73
401.82	4198.92
402.01	4102.96
402.21	4224.67
402.40	4341.69
402.59	4210.62
402.78	4266.80
402.97	4470.42
403.17	4414.25
403.36	4372.12
403.55	4451.70
403.74	4620.22
403.93	4608.51
404.13	4606.17
404.32	4660.01
404.51	4535.96
404.70	4631.92
404.89	4470.42
405.09	4706.82
405.28	4545.32
405.47	4821.50
405.66	4767.67
405.85	4692.77
406.05	4744.27
406.24	4795.76
406.43	4802.78
406.62	5039.17
406.81	5109.39
407.00	4795.76
407.20	4938.53
407.39	4954.91
407.58	5130.45
407.77	5137.48
407.96	5163.22
408.15	5158.54
408.34	5074.28
408.54	5301.31
408.73	5448.77
408.92	5308.34
409.11	5327.06
409.30	5240.46
409.49	5455.79
409.68	5423.02
409.87	5554.09
410.07	5549.41
410.26	5572.82
410.45	5579.84
410.64	5551.75
410.83	5748.36
411.02	5764.74
411.21	5748.36
411.40	5820.91
411.59	5895.81
411.78	5926.24
411.98	5956.66
412.17	5923.90
412.36	6090.07
412.55	6106.46
412.74	6230.51
412.93	6209.44
413.12	6054.97
413.31	6356.90
413.50	6389.66
413.69	6476.26
413.88	6546.48
414.07	6469.24
414.26	6715.00
414.45	6780.53
414.64	6654.14
414.83	6707.98
415.02	6878.83
415.22	6878.83
415.41	6902.24
415.60	6995.86
415.79	7049.69
415.98	7272.04
416.17	7304.81
416.36	7129.27
416.55	7208.85
416.74	7384.39
416.93	7428.86
417.12	7201.83
417.31	7616.10
417.50	7489.71
417.69	7630.15
417.88	7803.35
418.07	7674.62
418.26	7545.89
418.45	7730.79
418.64	7929.74
418.83	7838.45
419.02	7918.03
419.21	8077.19
419.39	8262.09
419.58	8182.51
419.77	7878.24
419.96	8276.13
420.15	8114.64
420.34	8147.40
420.53	8142.72
420.72	8315.92
420.91	8652.96
421.10	8615.51
421.29	8592.11
421.48	8442.31
421.67	8514.87
421.86	8582.74
422.05	8720.84
422.24	8634.24
422.43	8784.03
422.61	8791.05
422.80	8828.50
422.99	8627.21
423.18	8936.17
423.37	8975.95
423.56	8805.10
423.75	8966.59
423.94	8716.16
424.13	8344.01
424.32	8638.92
424.50	8978.30
424.69	9114.05
424.88	9102.34
425.07	8861.27
425.26	8760.63
425.45	8896.38
425.64	8896.38
425.83	8795.73
426.01	8821.48
426.20	8982.98
426.39	9109.36
426.58	9069.58
426.77	8933.82
426.96	9308.31
427.15	8997.02
427.33	9022.77
427.52	8940.85
427.71	9207.67
427.90	9460.45
428.09	9441.72
428.28	9610.24
428.46	9376.19
428.65	9334.06
428.84	10010.47
429.03	9720.24
429.22	9617.26
429.40	9841.95
429.59	9647.69
429.78	9432.36
429.97	9577.47
430.16	9706.20
430.34	9781.10
430.53	9996.43
430.72	9900.47
430.91	10174.31
431.10	10085.37
431.28	10228.14
431.47	10356.87
431.66	10368.57
431.85	10368.57
432.03	10420.06
432.22	10579.22
432.41	10223.46
432.60	10569.86
432.79	10614.33
432.97	10551.14
433.16	10846.04
433.35	10717.31
433.54	11019.24
433.72	11009.88
433.91	10752.42
434.10	10993.50
434.28	11073.07
434.47	11124.57
434.66	11009.88
434.85	11162.01
435.03	11321.17
435.22	11344.58
435.41	11765.87
435.59	11667.57
435.78	11733.11
435.97	11709.70
436.16	11461.60
436.34	11665.23
436.53	11510.75
436.72	11803.32
436.90	11541.18
437.09	11962.48
437.28	11595.01
437.46	11957.80
437.65	11800.98
437.84	11978.86
438.02	12109.93
438.21	12238.66
438.40	11747.15
438.58	12383.77
438.77	12468.03
438.96	12383.77
439.14	12657.62
439.33	12732.51
439.52	12929.12
439.70	12809.75
439.89	13048.49
440.08	12938.48
440.26	13177.22
440.45	13099.98
440.63	13362.12
440.82	13682.77
441.01	13572.77
441.19	13589.15
441.38	13757.67
441.57	13678.09
441.75	13956.61
441.94	14211.73
442.12	14143.86
442.31	14427.06
442.50	14183.65
442.68	14150.88
442.87	14377.91
443.05	14434.08
443.24	14707.93
443.43	14654.09
443.61	14710.27
443.80	15276.68
443.98	14160.24
444.17	13958.96
444.35	14548.77
444.54	14848.36
444.73	14775.80
444.91	14885.81
445.10	14956.02
445.28	14724.31
445.47	14920.92
445.65	14820.27
445.84	15007.52
446.02	15382.00
446.21	15272.00
446.39	15096.46
446.58	15318.81
446.77	15276.68
446.95	14824.95
447.14	15241.57
447.32	15398.38
447.51	15066.03
447.69	15047.30
447.88	15564.56
448.06	15183.06
448.25	15250.93
448.43	15314.13
448.62	15676.91
448.80	15386.68
448.99	15594.99
449.17	15396.04
449.36	15637.12
449.54	15822.02
449.73	16294.81
449.91	16219.91
450.10	16168.42
450.28	16140.33
450.46	16381.41
450.65	16360.34
450.83	16262.04
451.02	16252.68
451.20	16912.71
451.39	16552.27
451.57	16437.58
451.76	16437.58
451.94	16563.97
452.13	16793.34
452.31	16627.17
452.49	16496.10
452.68	16917.39
452.86	16872.92
453.05	17025.06
453.23	17261.45
453.42	17373.80
453.60	16690.36
453.78	17415.93
453.97	16851.86
454.15	17076.55
454.34	17132.72
454.52	17256.77
454.70	17514.23
454.89	17539.97
455.07	17839.56
455.26	17731.90
455.44	17673.39
455.62	17968.29
455.81	17916.80
455.99	18272.56
456.17	18092.34
456.36	18466.83
456.54	18178.94
456.73	18647.05
456.91	18747.69
457.09	18918.55
457.28	19110.47
457.46	18834.29
457.64	19227.50
457.83	18888.12
458.01	18668.11
458.19	19534.11
458.38	18904.51
458.56	19639.44
458.74	19475.60
458.93	19529.43
459.11	19435.81
459.29	19552.84
459.48	19702.63
459.66	19482.62
459.84	19723.69
460.03	20121.59
460.21	20224.57
460.39	19969.45
460.57	20107.54
460.76	20229.25
460.94	20435.22
461.12	20561.61
461.31	20493.73
461.49	20262.02
461.67	20229.25
461.85	21027.37
462.04	20732.47
462.22	21326.96
462.40	21135.04
462.59	21331.64
462.77	20702.04
462.95	21301.22
463.13	21214.62
463.32	21010.99
463.50	21610.17
463.68	21441.65
463.86	21331.64
464.05	21284.83
464.23	20882.26
464.41	21731.87
464.59	21317.60
464.78	22171.89
464.96	22061.89
465.14	22047.85
465.32	22211.68
465.50	21825.50
465.69	22092.32
465.87	22398.93
466.05	22361.48
466.23	22148.49
466.41	21975.29
466.60	22602.55
466.78	22232.75
466.96	22682.13
467.14	22366.16
467.32	22665.75
467.51	22981.72
467.69	22256.15
467.87	22707.88
468.05	23218.11
468.23	22534.68
468.41	23110.45
468.60	23248.54
468.78	23187.69
468.96	22984.06
469.14	23222.80
469.32	23857.08
469.50	23426.42
469.69	23679.20
469.87	24056.03
470.05	23796.23
470.23	24147.31
470.41	24238.59
470.59	24170.71
470.77	23896.87
470.95	24091.13
471.14	24694.99
471.32	24041.98
471.50	24985.22
471.68	24931.39
471.86	25301.19
472.04	25310.55
472.22	25773.98
472.40	25245.02
472.58	25495.46
472.77	25813.77
472.95	25764.62
473.13	26895.10
473.31	25724.83
473.49	26174.21
473.67	26228.04
473.85	26544.02
474.03	26820.20
474.21	26679.77
474.39	27234.47
474.57	26937.23
474.75	27590.24
474.93	27608.96
475.12	27477.89
475.30	27943.66
475.48	27580.87
475.66	28072.39
475.84	28065.36
476.02	28318.14
476.20	28435.17
476.38	28823.70
476.56	29516.50
476.74	29340.96
476.92	29074.13
477.10	29846.51
477.28	29558.63
477.46	30199.93
477.64	30040.78
477.82	30859.96
478.00	31269.56
478.18	30974.65
478.36	31646.38
478.54	31704.90
478.72	31527.02
478.90	32004.49
479.08	32491.32
479.26	32697.28
479.44	32606.00
479.62	32910.27
479.80	33521.15
479.98	33745.84
480.16	34419.92
480.34	33762.23
480.52	34483.11
480.70	34440.98
480.88	34167.14
481.06	34850.58
481.24	35311.66
481.41	35225.06
481.59	35999.78
481.77	36224.47
481.95	36524.06
482.13	36744.07
482.31	36762.79
482.49	37516.45
482.67	37528.15
482.85	37649.86
483.03	38401.17
483.21	38651.61
483.39	38848.21
483.57	38359.04
483.74	38927.79
483.92	39435.69
484.10	39056.52
484.28	40292.32
484.46	40601.27
484.64	41427.48
484.82	41097.47
485.00	41598.34
485.18	41457.91
485.35	42803.72
485.53	42747.54
485.71	42756.91
485.89	43653.33
486.07	43168.84
486.25	43026.07
486.43	43475.45
486.61	44032.50
486.78	44240.81
486.96	44676.15
487.14	45523.42
487.32	45181.70
487.50	45509.38
487.68	46305.16
487.85	46195.15
488.03	46803.69
488.21	47358.40
488.39	47367.76
488.57	47566.71
488.75	48086.31
488.92	48353.13
489.10	48659.74
489.28	48849.32
489.46	49184.02
489.64	48949.96
489.81	50237.26
489.99	49900.22
490.17	50068.74
490.35	50899.63
490.53	50883.25
490.70	51161.77
490.88	50827.07
491.06	51641.58
491.24	51817.12
491.41	51798.40
491.59	52315.65
491.77	52158.84
491.95	52495.88
492.13	52603.54
492.30	52992.07
492.48	53024.84
492.66	53282.30
492.84	53528.05
493.01	53792.53
493.19	53961.05
493.37	54279.36
493.54	53881.47
493.72	54761.51
493.90	54871.52
494.08	54871.52
494.25	55217.92
494.43	55171.11
494.61	55597.09
494.79	55440.27
494.96	55573.68
495.14	55451.97
495.32	56250.09
495.49	56203.28
495.67	56383.51
495.85	56547.34
496.02	56631.60
496.20	56839.91
496.38	57022.47
496.55	57120.77
496.73	57736.34
496.91	57492.92
497.09	57663.78
497.26	57851.02
497.44	57642.71
497.62	57902.51
497.79	58103.80
497.97	58300.40
498.14	58548.50
498.32	58653.82
498.50	58578.93
498.67	58827.02
498.85	58948.73
499.03	59002.56
499.20	59138.32
499.38	59529.19
499.56	59543.23
499.73	59554.93
499.91	59676.64
500.08	59686.00
500.26	59568.97
500.44	59657.91
500.61	59980.91
500.79	59945.80
500.97	60133.04
501.14	60533.28
501.32	60360.08
501.49	60224.32
501.67	60432.63
501.84	60713.50
502.02	60715.84
502.20	60891.38
502.37	60980.32
502.55	61120.75
502.72	61277.57
502.90	61123.09
503.07	61006.06
503.25	61418.00
503.43	61284.59
503.60	61329.06
503.78	61415.66
503.95	61572.47
504.13	61668.44
504.30	61834.61
504.48	61715.25
504.65	62003.13
504.83	62188.03
505.01	62171.65
505.18	62054.62
505.36	62314.42
505.53	62089.73
505.71	62384.64
505.88	62536.77
506.06	62300.38
506.23	62742.74
506.41	62642.10
506.58	62768.49
506.76	62674.87
506.93	63128.93
507.11	63072.76
507.28	63231.91
507.46	63201.49
507.63	63491.71
507.81	63393.41
507.98	63288.09
508.16	63353.62
508.33	63585.33
508.50	63763.21
508.68	63856.84
508.85	63955.14
509.03	63791.30
509.20	63955.14
509.38	64219.62
509.55	64186.85
509.73	64303.88
509.90	64338.99
510.08	64448.99
510.25	64371.75
510.42	64472.40
510.60	64484.10
510.77	64683.04
510.95	64853.90
511.12	64704.11
511.30	64708.79
511.47	64825.82
511.64	65034.13
511.82	65151.15
511.99	65048.17
512.17	65183.92
512.34	65148.81
512.51	65406.27
512.69	65497.55
512.86	65401.59
513.04	65535.00
513.21	65535.00
513.38	65530.32
513.56	65535.00
513.73	65535.00
513.90	65535.00
514.08	65535.00
514.25	65535.00
514.43	65535.00
514.60	65535.00
514.77	65535.00
514.95	65535.00
515.12	65535.00
515.29	65535.00
515.47	65535.00
515.64	65535.00
515.81	65535.00
515.99	65535.00
516.16	65535.00
516.33	65535.00
516.51	65535.00
516.68	65535.00
516.85	65535.00
517.03	65535.00
517.20	65535.00
517.37	65535.00
517.54	65535.00
517.72	65535.00
517.89	65535.00
518.06	65535.00
518.24	65535.00
518.41	65535.00
518.58	65535.00
518.75	65535.00
518.93	65535.00
519.10	65535.00
519.27	65535.00
519.45	65535.00
519.62	65535.00
519.79	65535.00
519.96	65535.00
520.14	65535.00
520.31	65535.00
520.48	65535.00
520.65	65535.00
520.83	65535.00
521.00	65535.00
521.17	65535.00
521.34	65535.00
521.52	65535.00
521.69	65535.00
521.86	65535.00
522.03	65535.00
522.20	65535.00
522.38	65535.00
522.55	65535.00
522.72	65535.00
522.89	65535.00
523.07	65535.00
523.24	65535.00
523.41	65535.00
523.58	65535.00
523.75	65535.00
523.92	65535.00
524.10	65535.00
524.27	65535.00
524.44	65535.00
524.61	65535.00
524.78	65535.00
524.96	65535.00
525.13	65535.00
525.30	65535.00
525.47	65535.00
525.64	65535.00
525.81	65535.00
525.98	65535.00
526.16	65535.00
526.33	65535.00
526.50	65535.00
526.67	65535.00
526.84	65535.00
527.01	65535.00
527.18	65535.00
527.36	65535.00
527.53	65535.00
527.70	65535.00
527.87	65535.00
528.04	65535.00
528.21	65535.00
528.38	65535.00
528.55	65535.00
528.72	65535.00
528.89	65535.00
529.07	65535.00
529.24	65535.00
529.41	65535.00
529.58	65535.00
529.75	65535.00
529.92	65535.00
530.09	65535.00
530.26	65535.00
530.43	65535.00
530.60	65535.00
530.77	65535.00
530.94	65535.00
531.11	65535.00
531.28	65535.00
531.46	65535.00
531.63	65535.00
531.80	65535.00
531.97	65535.00
532.14	65535.00
532.31	65535.00
532.48	65535.00
532.65	65535.00
532.82	65535.00
532.99	65535.00
533.16	65535.00
533.33	65535.00
533.50	65535.00
533.67	65535.00
533.84	65535.00
534.01	65535.00
534.18	65535.00
534.35	65535.00
534.52	65535.00
534.69	65535.00
534.86	65535.00
535.03	65535.00
535.20	65535.00
535.37	65535.00
535.54	65535.00
535.71	65535.00
535.88	65535.00
536.05	65535.00
536.22	65535.00
536.38	65535.00
536.55	65535.00
536.72	65535.00
536.89	65535.00
537.06	65535.00
537.23	65535.00
537.40	65535.00
537.57	65535.00
537.74	65535.00
537.91	65535.00
538.08	65535.00
538.25	65535.00
538.42	65535.00
538.59	65535.00
538.75	65535.00
538.92	65535.00
539.09	65535.00
539.26	65535.00
539.43	65535.00
539.60	65535.00
539.77	65535.00
539.94	65535.00
540.11	65535.00
540.28	65535.00
540.44	65535.00
540.61	65535.00
540.78	65535.00
540.95	65535.00
541.12	65535.00
541.29	65535.00
541.46	65535.00
541.62	65535.00
541.79	65535.00
541.96	65535.00
542.13	65535.00
542.30	65535.00
542.47	65535.00
542.63	65535.00
542.80	65535.00
542.97	65535.00
543.14	65535.00
543.31	65535.00
543.48	65535.00
543.64	65535.00
543.81	65535.00
543.98	65535.00
544.15	65535.00
544.32	65535.00
544.48	65535.00
544.65	65535.00
544.82	65535.00
544.99	65535.00
545.16	65535.00
545.32	65535.00
545.49	65535.00
545.66	65535.00
545.83	65535.00
546.00	65535.00
546.16	65535.00
546.33	65535.00
546.50	65535.00
546.67	65535.00
546.83	65535.00
547.00	65535.00
547.17	65535.00
547.34	65535.00
547.50	65535.00
547.67	65535.00
547.84	65535.00
548.00	65535.00
548.17	65535.00
548.34	65535.00
548.51	65535.00
548.67	65535.00
548.84	65535.00
549.01	65535.00
549.18	65535.00
549.34	65535.00
549.51	65535.00
549.68	65535.00
549.84	65535.00
550.01	65535.00
550.18	65535.00
550.34	65535.00
550.51	65535.00
550.68	65535.00
550.84	65535.00
551.01	65535.00
551.18	65535.00
551.34	65535.00
551.51	65535.00
551.68	65535.00
551.84	65535.00
552.01	65535.00
552.18	65535.00
552.34	65535.00
552.51	65535.00
552.68	65535.00
552.84	65535.00
553.01	65535.00
553.18	65535.00
553.34	65535.00
553.51	65535.00
553.67	65535.00
553.84	65535.00
554.01	65535.00
554.17	65535.00
554.34	65535.00
554.51	65535.00
554.67	65535.00
554.84	65535.00
555.00	65535.00
555.17	65535.00
555.33	65535.00
555.50	65535.00
555.67	65535.00
555.83	65535.00
556.00	65535.00
556.16	65535.00
556.33	65535.00
556.50	65535.00
556.66	65535.00
556.83	65535.00
556.99	65535.00
557.16	65535.00
557.32	65535.00
557.49	65535.00
557.65	65535.00
557.82	65535.00
557.98	65535.00
558.15	65535.00
558.32	65535.00
558.48	65535.00
558.65	65535.00
558.81	65535.00
558.98	65535.00
559.14	65535.00
559.31	65535.00
559.47	65535.00
559.64	65535.00
559.80	65535.00
559.97	65535.00
560.13	65535.00
560.30	65535.00
560.46	65535.00
560.63	65535.00
560.79	65535.00
560.96	65535.00
561.12	65535.00
561.29	65535.00
561.45	65535.00
561.61	65535.00
561.78	65535.00
561.94	65535.00
562.11	65535.00
562.27	65535.00
562.44	65535.00
562.60	65535.00
562.77	65535.00
562.93	65535.00
563.10	65535.00
563.26	65535.00
563.42	65535.00
563.59	65535.00
563.75	65535.00
563.92	65535.00
564.08	65535.00
564.24	65535.00
564.41	65535.00
564.57	65535.00
564.74	65535.00
564.90	65535.00
565.07	65535.00
565.23	65535.00
565.39	65535.00
565.56	65535.00
565.72	65535.00
565.88	65535.00
566.05	65535.00
566.21	65535.00
566.38	65535.00
566.54	65535.00
566.70	65535.00
566.87	65535.00
567.03	65535.00
567.19	65535.00
567.36	65535.00
567.52	65535.00
567.68	65535.00
567.85	65535.00
568.01	65535.00
568.17	65535.00
568.34	65535.00
568.50	65535.00
568.66	65535.00
568.83	65535.00
568.99	65535.00
569.15	65535.00
569.32	65535.00
569.48	65535.00
569.64	65535.00
569.81	65535.00
569.97	65535.00
570.13	65535.00
570.30	65535.00
570.46	65535.00
570.62	65535.00
570.78	65535.00
570.95	65535.00
571.11	65535.00
571.27	65535.00
571.43	65535.00
571.60	65535.00
571.76	65535.00
571.92	65535.00
572.09	65535.00
572.25	65535.00
572.41	65535.00
572.57	65535.00
572.74	65535.00
572.90	65535.00
573.06	65535.00
573.22	65535.00
573.38	65535.00
573.55	65535.00
573.71	65535.00
573.87	65535.00
574.03	65535.00
574.20	65535.00
574.36	65535.00
574.52	65535.00
574.68	65535.00
574.84	65535.00
575.01	65535.00
575.17	65535.00
575.33	65535.00
575.49	65535.00
575.65	65535.00
575.82	65535.00
575.98	65535.00
576.14	65535.00
576.30	65535.00
576.46	65535.00
576.62	65535.00
576.79	65535.00
576.95	65535.00
577.11	65535.00
577.27	65535.00
577.43	65535.00
577.59	65535.00
577.75	65535.00
577.92	65535.00
578.08	65535.00
578.24	65535.00
578.40	65535.00
578.56	65535.00
578.72	65535.00
578.88	65535.00
579.04	65535.00
579.21	65535.00
579.37	65535.00
579.53	65535.00
579.69	65535.00
579.85	65535.00
580.01	65535.00
580.17	65535.00
580.33	65535.00
580.49	65535.00
580.65	65535.00
580.82	65535.00
580.98	65535.00
581.14	65535.00
581.30	65535.00
581.46	65535.00
581.62	65535.00
581.78	65535.00
581.94	65535.00
582.10	65535.00
582.26	65535.00
582.42	65535.00
582.58	65535.00
582.74	65535.00
582.90	65535.00
583.06	65535.00
583.22	65535.00
583.38	65535.00
583.54	65535.00
583.70	65535.00
583.86	65535.00
584.02	65535.00
584.18	65535.00
584.34	65535.00
584.50	65535.00
584.66	65535.00
584.82	65535.00
584.98	65535.00
585.14	65535.00
585.30	65535.00
585.46	65535.00
585.62	65535.00
585.78	65535.00
585.94	65535.00
586.10	65535.00
586.26	65535.00
586.42	65535.00
586.58	65535.00
