SpectraSuite Data File
++++++++++++++++++++++++++++++++++++
Date: Thu Oct 24 13:21:20 EDT 2013
User: stostad
Dark Spectrum Present: No
Reference Spectrum Present: No
Number of Sampled Component Spectra: 1
Spectrometers: USB2+H05261
Integration Time (usec): 100000 (USB2+H05261)
Spectra Averaged: 1 (USB2+H05261)
Boxcar Smoothing: 0 (USB2+H05261)
Correct for Electrical Dark: No (USB2+H05261)
Strobe/Lamp Enabled: No (USB2+H05261)
Correct for Detector Non-linearity: No (USB2+H05261)
Correct for Stray Light: No (USB2+H05261)
Number of Pixels in Processed Spectrum: 2048
>>>>>Begin Processed Spectral Data<<<<<
365.73	496.19
365.92	496.19
366.12	496.19
366.32	514.92
366.52	507.90
366.72	484.49
366.91	433.00
367.11	550.03
367.31	491.51
367.51	365.12
367.70	449.38
367.90	414.27
368.10	437.68
368.30	540.66
368.49	479.81
368.69	479.81
368.89	493.85
369.09	451.72
369.28	479.81
369.48	526.62
369.68	498.53
369.87	512.58
370.07	571.09
370.27	575.77
370.47	573.43
370.66	791.10
370.86	833.23
371.06	837.91
371.25	919.83
371.45	868.34
371.65	889.40
371.84	784.08
372.04	910.47
372.24	964.30
372.44	924.51
372.63	917.49
372.83	908.13
373.03	980.68
373.22	1029.84
373.42	952.60
373.62	957.28
373.81	924.51
374.01	1043.88
374.21	1011.11
374.40	940.90
374.60	1001.75
374.79	1006.43
374.99	992.39
375.19	992.39
375.38	1027.50
375.58	915.15
375.78	1032.18
375.97	985.37
376.17	1001.75
376.37	987.71
376.56	1064.94
376.76	1027.50
376.95	959.62
377.15	1034.52
377.35	1020.47
377.54	1149.20
377.74	980.68
377.93	1078.99
378.13	1053.24
378.33	1043.88
378.52	1064.94
378.72	1015.79
378.91	1151.54
379.11	1060.26
379.31	1032.18
379.50	1128.14
379.70	1118.78
379.89	1130.48
380.09	1071.97
380.28	1114.10
380.48	1156.22
380.68	1097.71
380.87	1142.18
381.07	1114.10
381.26	1137.50
381.46	1081.33
381.65	1170.27
381.85	1116.44
382.04	1149.20
382.24	1158.57
382.43	1093.03
382.63	1107.07
382.83	1188.99
383.02	1233.46
383.22	1249.85
383.41	1214.74
383.61	1226.44
383.80	1289.64
384.00	1214.74
384.19	1245.16
384.39	1186.65
384.58	1165.59
384.78	1221.76
384.97	1198.35
385.17	1116.44
385.36	1214.74
385.56	1289.64
385.75	1256.87
385.95	1301.34
386.14	1287.29
386.34	1245.16
386.53	1287.29
386.72	1231.12
386.92	1301.34
387.11	1299.00
387.31	1249.85
387.50	1289.64
387.70	1193.67
387.89	1385.60
388.09	1296.66
388.28	1231.12
388.48	1296.66
388.67	1352.83
388.86	1399.64
389.06	1277.93
389.25	1362.19
389.45	1366.87
389.64	1371.55
389.84	1343.47
390.03	1420.71
390.22	1392.62
390.42	1425.39
390.61	1404.32
390.81	1320.06
391.00	1341.13
391.19	1345.81
391.39	1458.15
391.58	1481.56
391.78	1479.22
391.97	1490.92
392.16	1406.66
392.36	1446.45
392.55	1495.60
392.75	1476.88
392.94	1467.52
393.13	1516.67
393.33	1413.68
393.52	1486.24
393.71	1535.39
393.91	1511.99
394.10	1526.03
394.29	1544.75
394.49	1568.16
394.68	1629.01
394.88	1682.85
395.07	1537.73
395.26	1568.16
395.46	1640.72
395.65	1668.80
395.84	1607.95
396.04	1760.08
396.23	1713.27
396.42	1647.74
396.62	1659.44
396.81	1696.89
397.00	1659.44
397.19	1619.65
397.39	1739.02
397.58	1762.42
397.77	1741.36
397.97	1685.19
398.16	1671.14
398.35	1741.36
398.55	1746.04
398.74	1739.02
398.93	1825.62
399.12	1755.40
399.32	1750.72
399.51	1809.23
399.70	1778.81
399.90	1804.55
400.09	1886.47
400.28	1970.73
400.47	1877.11
400.67	1984.77
400.86	1888.81
401.05	1888.81
401.24	1928.60
401.44	1954.35
401.63	1956.69
401.82	1952.01
402.01	1935.62
402.21	1884.13
402.40	1984.77
402.59	2036.27
402.78	1980.09
402.97	1991.80
403.17	2125.21
403.36	2062.01
403.55	2059.67
403.74	2162.66
403.93	2209.47
404.13	2153.29
404.32	2139.25
404.51	2174.36
404.70	2181.38
404.89	2146.27
405.09	2104.14
405.28	2225.85
405.47	2331.17
405.66	2200.10
405.85	2188.40
406.05	2136.91
406.24	2265.64
406.43	2237.55
406.62	2223.51
406.81	2415.43
407.00	2377.98
407.20	2347.56
407.39	2310.11
407.58	2389.69
407.77	2408.41
407.96	2373.30
408.15	2385.01
408.34	2497.35
408.54	2403.73
408.73	2387.35
408.92	2417.77
409.11	2588.63
409.30	2457.56
409.49	2553.52
409.68	2530.12
409.87	2567.57
410.07	2658.85
410.26	2588.63
410.45	2640.12
410.64	2619.06
410.83	2682.25
411.02	2658.85
411.21	2642.46
411.40	2729.06
411.59	2827.37
411.78	2729.06
411.98	2754.81
412.17	2787.58
412.36	2827.37
412.55	2923.33
412.74	2883.54
412.93	2822.69
413.12	2801.62
413.31	2902.26
413.50	3082.49
413.69	2867.16
413.88	2998.23
414.07	3030.99
414.26	2949.08
414.45	3155.04
414.64	3131.64
414.83	3211.22
415.02	3213.56
415.22	3211.22
415.41	3197.17
415.60	3222.92
415.79	3138.66
415.98	3302.50
416.17	3339.94
416.36	3398.46
416.55	3506.12
416.74	3330.58
416.93	3286.11
417.12	3396.12
417.31	3503.78
417.50	3501.44
417.69	3531.87
417.88	3548.25
418.07	3459.31
418.26	3531.87
418.45	3538.89
418.64	3602.08
418.83	3646.55
419.02	3705.07
419.21	3709.75
419.39	3691.02
419.58	3613.79
419.77	3772.94
419.96	3899.33
420.15	3854.86
420.34	3850.18
420.53	3871.25
420.72	3808.05
420.91	3894.65
421.10	3847.84
421.29	3948.48
421.48	3815.07
421.67	3946.14
421.86	3920.40
422.05	3782.31
422.24	3904.01
422.43	3974.23
422.61	4016.36
422.80	4021.04
422.99	4065.51
423.18	4100.62
423.37	4095.94
423.56	4002.32
423.75	4018.70
423.94	4011.68
424.13	3681.66
424.32	3857.20
424.50	4028.06
424.69	4145.09
424.88	3983.59
425.07	3974.23
425.26	3978.91
425.45	3988.27
425.64	4060.83
425.83	4098.28
426.01	4229.35
426.20	4095.94
426.39	4128.70
426.58	4014.02
426.77	4159.13
426.96	4074.87
427.15	4088.92
427.33	4327.65
427.52	4229.35
427.71	4124.02
427.90	4379.14
428.09	4374.46
428.28	4264.46
428.46	4339.35
428.65	4322.97
428.84	4437.66
429.03	4449.36
429.22	4278.50
429.40	4463.40
429.59	4409.57
429.78	4512.55
429.97	4238.71
430.16	4512.55
430.34	4587.45
430.53	4397.87
430.72	4585.11
430.91	4526.60
431.10	4498.51
431.28	4596.81
431.47	4655.33
431.66	4585.11
431.85	4540.64
432.03	4746.61
432.22	4758.31
432.41	4826.18
432.60	4765.33
432.79	4779.37
432.97	4842.57
433.16	4851.93
433.35	4884.70
433.54	4844.91
433.72	4870.65
433.91	4877.68
434.10	4840.23
434.28	4938.53
434.47	4980.66
434.66	4945.55
434.85	5104.71
435.03	5076.62
435.22	5308.34
435.41	5418.34
435.59	5373.87
435.78	5364.51
435.97	5212.37
436.16	5181.95
436.34	5181.95
436.53	5034.49
436.72	5308.34
436.90	5116.41
437.09	5252.16
437.28	5060.24
437.46	5334.08
437.65	5366.85
437.84	5427.70
438.02	5324.72
438.21	5242.80
438.40	5268.55
438.58	5528.35
438.77	5495.58
438.96	5430.04
439.14	5678.14
439.33	5619.63
439.52	5692.18
439.70	5659.42
439.89	5558.77
440.08	5846.66
440.26	5856.02
440.45	5671.12
440.63	5949.64
440.82	5970.71
441.01	5930.92
441.19	6071.35
441.38	5975.39
441.57	5942.62
441.75	6047.94
441.94	6249.23
442.12	6296.04
442.31	6228.17
442.50	6113.48
442.68	6270.30
442.87	6122.84
443.05	6239.87
443.24	6389.66
443.43	6195.40
443.61	6380.30
443.80	6473.92
443.98	6106.46
444.17	6038.58
444.35	6300.72
444.54	6487.96
444.73	6305.40
444.91	6544.14
445.10	6541.80
445.28	6525.41
445.47	6502.01
445.65	6539.46
445.84	6478.60
446.02	6443.49
446.21	6689.25
446.39	6455.20
446.58	6614.35
446.77	6623.72
446.95	6331.15
447.14	6527.75
447.32	6614.35
447.51	6518.39
447.69	6686.91
447.88	6527.75
448.06	6731.38
448.25	6590.95
448.43	6729.04
448.62	6700.95
448.80	6635.42
448.99	6817.98
449.17	6745.42
449.36	6626.06
449.54	6822.66
449.73	6958.41
449.91	6885.86
450.10	6956.07
450.28	6899.90
450.46	6801.60
450.65	7061.40
450.83	7152.68
451.02	7056.72
451.20	7084.80
451.39	7082.46
451.57	7190.13
451.76	7045.01
451.94	7192.47
452.13	7148.00
452.31	7169.06
452.49	7126.93
452.68	7307.15
452.86	7279.07
453.05	7368.01
453.23	7335.24
453.42	7183.10
453.60	7293.11
453.78	7314.17
453.97	7276.73
454.15	7428.86
454.34	7389.07
454.52	7487.37
454.70	7578.65
454.89	7363.33
455.07	7396.09
455.26	7592.70
455.44	7566.95
455.62	7653.55
455.81	7590.36
455.99	7550.57
456.17	7681.64
456.36	7681.64
456.54	7754.19
456.73	7913.35
456.91	8025.70
457.09	8077.19
457.28	8018.68
457.46	7939.10
457.64	8112.30
457.83	8088.89
458.01	8121.66
458.19	8219.96
458.38	8044.42
458.56	8189.53
458.74	8390.82
458.93	8147.40
459.11	8393.16
459.29	8203.58
459.48	8432.95
459.66	8231.66
459.84	8315.92
460.03	8327.63
460.21	8362.73
460.39	8320.60
460.57	8257.41
460.76	8517.21
460.94	8568.70
461.12	8461.04
461.31	8449.33
461.49	8482.10
461.67	8634.24
461.85	8678.71
462.04	8744.24
462.22	9050.85
462.40	8882.33
462.59	8751.26
462.77	8718.50
462.95	8751.26
463.13	8833.18
463.32	8887.01
463.50	8961.91
463.68	9020.42
463.86	9062.55
464.05	8870.63
464.23	8994.68
464.41	8999.36
464.59	8882.33
464.78	9217.03
464.96	9107.02
465.14	8982.98
465.32	9121.07
465.50	9284.91
465.69	9252.14
465.87	9287.25
466.05	9067.24
466.23	9125.75
466.41	9331.72
466.60	9350.44
466.78	9238.09
466.96	9249.80
467.14	9348.10
467.32	9195.96
467.51	9423.00
467.69	9296.61
467.87	9568.11
468.05	9521.30
468.23	9462.79
468.41	9490.87
468.60	9678.12
468.78	9654.71
468.96	9455.76
469.14	9570.45
469.32	9699.18
469.50	9748.33
469.69	9877.06
469.87	9891.10
470.05	9851.31
470.23	9830.25
470.41	9954.30
470.59	10059.62
470.77	9987.07
470.95	9851.31
471.14	10099.41
471.32	9818.55
471.50	10216.44
471.68	9963.66
471.86	10251.55
472.04	10256.23
472.22	10469.22
472.40	10317.08
472.58	10354.53
472.77	10548.79
472.95	10487.94
473.13	10698.59
473.31	10445.81
473.49	10691.57
473.67	10473.90
473.85	10668.16
474.03	11023.92
474.21	10956.05
474.39	10956.05
474.57	11016.90
474.75	11035.63
474.93	11337.56
475.12	11281.38
475.30	11325.85
475.48	11375.00
475.66	11363.30
475.84	11239.25
476.02	11683.95
476.20	11356.28
476.38	11674.59
476.56	11716.72
476.74	11892.26
476.92	11894.60
477.10	11906.31
477.28	12023.33
477.46	12217.60
477.64	12376.75
477.82	12395.48
478.00	12758.26
478.18	12468.03
478.36	12503.14
478.54	12542.93
478.72	12533.57
478.90	12816.77
479.08	12870.61
479.26	13158.49
479.44	13193.60
479.62	13308.29
479.80	13385.52
479.98	13259.13
480.16	13727.24
480.34	13462.76
480.52	13830.23
480.70	13839.59
480.88	13834.91
481.06	13870.01
481.24	13666.39
481.41	14162.58
481.59	14176.62
481.77	14532.39
481.95	14347.48
482.13	14703.25
482.31	14618.99
482.49	15246.25
482.67	14656.43
482.85	15066.03
483.03	15272.00
483.21	15339.87
483.39	15452.22
483.57	15147.95
483.74	15704.99
483.92	15564.56
484.10	15758.83
484.28	16013.95
484.46	16568.65
484.64	16369.71
484.82	16217.57
485.00	16189.49
485.18	16847.18
485.35	16978.25
485.53	16755.90
485.71	16968.88
485.89	17399.54
486.07	17259.11
486.25	17249.75
486.43	17586.79
486.61	17589.13
486.78	17884.03
486.96	18078.30
487.14	18216.39
487.32	17975.31
487.50	18445.76
487.68	18291.29
487.85	18527.68
488.03	19084.73
488.21	18845.99
488.39	19019.19
488.57	19122.18
488.75	19248.57
488.92	19552.84
489.10	19770.51
489.28	19885.19
489.46	19840.72
489.64	19662.84
489.81	20428.20
489.99	20163.72
490.17	20350.96
490.35	20500.75
490.53	20369.68
490.70	20723.10
490.88	20940.77
491.06	21144.40
491.24	20912.69
491.41	21006.31
491.59	21619.53
491.77	21612.51
491.95	21839.54
492.13	21916.78
492.30	22043.17
492.48	21994.01
492.66	22244.45
492.84	22214.02
493.01	22122.74
493.19	22679.79
493.37	22628.30
493.54	23171.30
493.72	23094.07
493.90	23054.28
494.08	23260.24
494.25	23585.58
494.43	23646.43
494.61	23541.11
494.79	23857.08
494.96	23737.71
495.14	24327.53
495.32	24013.90
495.49	24166.03
495.67	24320.51
495.85	24702.01
496.02	24465.62
496.20	24875.21
496.38	24781.59
496.55	24922.02
496.73	25671.00
496.91	25628.87
497.09	25532.90
497.26	25832.49
497.44	25359.70
497.62	25495.46
497.79	25827.81
497.97	25521.20
498.14	26181.23
498.32	26527.63
498.50	26684.45
498.67	26663.38
498.85	26478.48
499.03	26864.67
499.20	26822.54
499.38	26733.60
499.56	27534.06
499.73	27538.74
499.91	27515.34
500.08	27487.25
500.26	27267.24
500.44	27384.27
500.61	27854.72
500.79	27761.09
500.97	27927.27
501.14	28135.58
501.32	28409.42
501.49	28013.87
501.67	28058.34
501.84	28374.31
502.02	29057.75
502.20	28334.53
502.37	29209.89
502.55	28734.76
502.72	28463.25
502.90	28666.88
503.07	28950.09
503.25	29062.43
503.43	28783.91
503.60	29268.40
503.78	29352.66
503.95	29036.69
504.13	29373.72
504.30	29434.58
504.48	29565.65
504.65	29738.85
504.83	29881.62
505.01	29986.94
505.18	30253.76
505.36	30260.79
505.53	30293.55
505.71	30567.40
505.88	30583.78
506.06	30597.82
506.23	30314.62
506.41	30752.30
506.58	30958.27
506.76	30588.46
506.93	31363.18
507.11	31374.88
507.28	31484.89
507.46	31384.24
507.63	31384.24
507.81	31810.22
507.98	31440.42
508.16	31225.09
508.33	31955.33
508.50	31782.13
508.68	32011.51
508.85	32105.13
509.03	32086.40
509.20	31957.67
509.38	32355.57
509.55	32629.41
509.73	32643.45
509.90	32856.44
510.08	32737.07
510.25	33006.23
510.42	32900.91
510.60	33013.26
510.77	33326.89
510.95	33446.26
511.12	33663.93
511.30	33539.88
511.47	33441.57
511.64	33736.48
511.82	33528.17
511.99	33556.26
512.17	33757.55
512.34	34005.64
512.51	34043.09
512.69	34127.35
512.86	34045.43
513.04	34354.38
513.21	34560.35
513.38	34061.82
513.56	34541.63
513.73	34424.60
513.90	34696.10
514.08	34916.11
514.25	35168.89
514.43	34890.37
514.60	34918.45
514.77	35063.57
514.95	35175.91
515.12	34876.32
515.29	34916.11
515.47	35365.49
515.64	35686.15
515.81	35463.80
515.99	35910.84
516.16	35864.03
516.33	35957.65
516.51	36133.19
516.68	35894.46
516.85	36170.64
517.03	36458.52
517.20	36065.31
517.37	36313.41
517.54	36322.77
517.72	36392.99
517.89	36280.64
518.06	36692.58
518.24	36753.43
518.41	36673.85
518.58	36891.52
518.75	36666.83
518.93	36741.73
519.10	36603.64
519.27	36940.68
519.45	36893.86
519.62	37544.53
519.79	37471.98
519.96	37017.91
520.14	37104.51
520.31	37177.07
520.48	37172.39
520.65	37605.39
520.83	37614.75
521.00	37790.29
521.17	37654.54
521.34	38190.52
521.52	38012.64
521.69	37787.95
521.86	38211.59
522.03	38022.00
522.20	38389.47
522.38	38464.36
522.55	38660.97
522.72	38534.58
522.89	39056.52
523.07	38745.23
523.24	38595.43
523.41	38817.78
523.58	38534.58
523.75	39044.82
523.92	38745.23
524.10	39407.60
524.27	39592.50
524.44	39578.46
524.61	39629.95
524.78	39756.34
524.96	39367.81
525.13	39763.36
525.30	39864.00
525.47	39866.34
525.64	39756.34
525.81	39704.85
525.98	39997.41
526.16	39906.13
526.33	39974.01
526.50	40657.45
526.67	40257.21
526.84	40163.59
527.01	40226.79
527.18	40559.14
527.36	40194.02
527.53	40519.35
527.70	40596.59
527.87	40753.41
528.04	40493.61
528.21	41125.55
528.38	40893.84
528.55	41029.59
528.72	41017.89
528.89	40886.82
529.07	40940.65
529.24	41249.60
529.41	41591.32
529.58	41502.38
529.75	41141.94
529.92	41614.72
530.09	41364.29
530.26	41240.24
530.43	41514.08
530.60	41399.40
530.77	41310.46
530.94	41677.92
531.11	41591.32
531.28	41820.69
531.46	42024.32
531.63	41624.09
531.80	42099.22
531.97	41928.36
532.14	42178.79
532.31	42134.32
532.48	42579.03
532.65	42546.26
532.82	42344.97
532.99	42572.00
533.16	41855.80
533.33	42836.48
533.50	43255.44
533.67	42497.11
533.84	42288.80
534.01	42916.06
534.18	42651.58
534.35	43131.39
534.52	43105.65
534.69	43086.92
534.86	42831.80
535.03	42934.79
535.20	42831.80
535.37	43519.92
535.54	43856.96
535.71	43278.85
535.88	43419.28
536.05	43529.28
536.22	43304.59
536.38	43683.76
536.55	43875.68
536.72	43548.01
536.89	44168.25
537.06	43856.96
537.23	44327.41
537.40	43973.98
537.57	43920.15
537.74	43896.75
537.91	43985.69
538.08	43756.32
538.25	43344.38
538.42	44020.80
538.59	44236.12
538.75	43962.28
538.92	44701.89
539.09	44238.47
539.26	44446.77
539.43	44102.71
539.60	44612.95
539.77	44446.77
539.94	44762.75
540.11	44978.07
540.28	45146.59
540.44	45198.09
540.61	44729.98
540.78	44383.58
540.95	45207.45
541.12	45076.38
541.29	45055.31
541.46	45132.55
541.62	45481.29
541.79	45698.96
541.96	45104.46
542.13	45310.43
542.30	45181.70
542.47	45612.36
542.63	45132.55
542.80	45694.28
542.97	46117.92
543.14	46415.16
543.31	46415.16
543.48	46534.53
543.64	46351.97
543.81	46141.32
543.98	46148.34
544.15	46167.07
544.32	46251.33
544.48	46670.28
544.65	46176.43
544.82	46520.49
544.99	46433.89
545.16	47079.88
545.32	46424.53
545.49	47173.50
545.66	47122.01
545.83	47297.55
546.00	47629.90
546.16	46813.05
546.33	46841.14
546.50	46876.25
546.67	46733.48
546.83	46464.32
547.00	46335.59
547.17	46899.65
547.34	46967.53
547.50	46808.37
547.67	47463.72
547.84	46780.29
548.00	47601.82
548.17	47854.59
548.34	47220.31
548.51	47386.49
548.67	47309.25
548.84	47105.62
549.01	47194.56
549.18	47332.65
549.34	48044.18
549.51	47182.86
549.68	47592.45
549.84	47430.96
550.01	47803.10
550.18	47386.49
550.34	47405.21
550.51	47161.79
550.68	47899.06
550.84	47398.19
551.01	47571.39
551.18	47753.95
551.34	47180.52
551.51	47157.11
551.68	47936.51
551.84	47929.49
552.01	47702.46
552.18	47943.53
552.34	47955.24
552.51	48453.77
552.68	47889.70
552.84	48088.65
553.01	48280.57
553.18	48318.02
553.34	48388.24
553.51	48098.01
553.67	48381.21
553.84	48549.73
554.01	48582.50
554.17	48268.87
554.34	48598.88
554.51	48208.01
554.67	48762.72
554.84	48245.46
555.00	48411.64
555.17	48020.77
555.33	48701.87
555.50	48215.04
555.67	48711.23
555.83	48650.38
556.00	48596.54
556.16	49179.34
556.33	48573.14
556.50	48889.11
556.66	48748.68
556.83	48732.29
556.99	49223.81
557.16	49399.35
557.32	48959.33
557.49	48931.24
557.65	48924.22
557.82	48919.54
557.98	48949.96
558.15	48882.09
558.32	48971.03
558.48	49010.82
558.65	49223.81
558.81	49448.50
558.98	49420.41
559.14	49125.50
559.31	49272.96
559.47	49453.18
559.64	49162.95
559.80	49298.70
559.97	49570.21
560.13	49045.93
560.30	49059.97
560.46	49420.41
560.63	49640.42
560.79	49287.00
560.96	49516.37
561.12	49443.82
561.29	49198.06
561.45	49523.40
561.61	49727.02
561.78	49031.88
561.94	49684.89
562.11	49722.34
562.27	49736.38
562.44	50000.86
562.60	49415.73
562.77	49614.68
562.93	49488.29
563.10	49605.31
563.26	49499.99
563.42	49785.54
563.59	49303.38
563.75	49574.89
563.92	50321.52
564.08	49570.21
564.24	50026.61
564.41	49865.11
564.57	49621.70
564.74	49867.45
564.90	49876.82
565.07	49766.81
565.23	50157.68
565.39	49961.08
565.56	50536.85
565.72	50108.53
565.88	50082.78
566.05	50319.18
566.21	49916.61
566.38	49710.64
566.54	50103.85
566.70	50326.20
566.87	50513.44
567.03	50295.77
567.19	50665.58
567.36	50571.96
567.52	50127.25
567.68	49839.37
567.85	50014.91
568.01	50272.37
568.17	50274.71
568.34	49822.98
568.50	50450.25
568.66	50658.56
568.83	50363.65
568.99	50288.75
569.15	50377.69
569.32	50192.79
569.48	50300.45
569.64	50164.70
569.81	50134.28
569.97	49778.51
570.13	50363.65
570.30	49972.78
570.46	50218.53
570.62	50295.77
570.78	50227.90
570.95	50136.62
571.11	50344.92
571.27	50305.13
571.43	50155.34
571.60	50368.33
571.76	50164.70
571.92	50543.87
572.09	50635.15
572.25	50777.92
572.41	50490.04
572.57	50363.65
572.74	51114.96
572.90	50796.65
573.06	50719.41
573.22	50431.52
573.38	50693.66
573.55	50569.61
573.71	50883.25
573.87	50609.40
574.03	50602.38
574.20	50707.71
574.36	50848.14
574.52	50876.22
574.68	50887.93
574.84	50937.08
575.01	50726.43
575.17	51044.74
575.33	50356.63
575.49	50614.08
575.65	50829.41
575.82	50897.29
575.98	50777.92
576.14	50916.01
576.30	51077.51
576.46	50656.21
576.62	50504.08
576.79	50586.00
576.95	50564.93
577.11	50806.01
577.27	50700.68
577.43	51196.88
577.59	50712.39
577.75	50688.98
577.92	50735.79
578.08	50775.58
578.24	50677.28
578.40	50838.78
578.56	50997.93
578.72	50862.18
578.88	51091.55
579.04	51213.26
579.21	50649.19
579.37	50876.22
579.53	51171.13
579.69	51042.40
579.85	50927.72
580.01	51138.36
580.17	51033.04
580.33	50930.06
580.49	51044.74
580.65	51035.38
580.82	51072.83
580.98	51070.49
581.14	50850.48
581.30	51295.18
581.46	50679.62
581.62	50693.66
581.78	51009.64
581.94	50890.27
582.10	50794.31
582.26	50913.67
582.42	50766.22
582.58	51068.15
582.74	50703.03
582.90	51332.63
583.06	51185.18
583.22	51042.40
583.38	51035.38
583.54	50696.00
583.70	51161.77
583.86	51086.87
584.02	50756.86
584.18	51400.50
584.34	51208.58
584.50	51187.52
584.66	50962.82
584.82	50801.33
584.98	51246.03
585.14	51171.13
585.30	50960.48
585.46	50925.38
585.62	50911.33
585.78	51255.39
585.94	51100.92
586.10	51487.10
586.26	51454.34
586.42	51274.12
586.58	51187.52
586.74	51026.02
586.90	50894.95
587.06	50953.46
587.22	51529.23
587.38	51377.10
587.54	51849.89
587.70	51847.55
587.86	51381.78
588.02	51344.33
588.18	51391.14
588.34	51791.37
588.49	51547.96
588.65	51416.89
588.81	51063.47
588.97	51339.65
