SpectraSuite Data File
++++++++++++++++++++++++++++++++++++
Date: Thu Oct 24 13:21:03 EDT 2013
User: stostad
Dark Spectrum Present: No
Reference Spectrum Present: No
Number of Sampled Component Spectra: 1
Spectrometers: USB2+H05261
Integration Time (usec): 100000 (USB2+H05261)
Spectra Averaged: 1 (USB2+H05261)
Boxcar Smoothing: 0 (USB2+H05261)
Correct for Electrical Dark: No (USB2+H05261)
Strobe/Lamp Enabled: No (USB2+H05261)
Correct for Detector Non-linearity: No (USB2+H05261)
Correct for Stray Light: No (USB2+H05261)
Number of Pixels in Processed Spectrum: 2048
>>>>>Begin Processed Spectral Data<<<<<
365.73	479.81
365.92	479.81
366.12	479.81
366.32	407.25
366.52	496.19
366.72	435.34
366.91	433.00
367.11	461.09
367.31	468.11
367.51	402.57
367.70	528.96
367.90	449.38
368.10	440.02
368.30	449.38
368.49	454.06
368.69	416.62
368.89	500.87
369.09	486.83
369.28	493.85
369.48	491.51
369.68	519.60
369.87	531.30
370.07	517.26
370.27	566.41
370.47	624.92
370.66	528.96
370.86	535.98
371.06	575.77
371.25	645.99
371.45	608.54
371.65	643.65
371.84	589.82
372.04	608.54
372.24	634.29
372.44	608.54
372.63	622.58
372.83	599.18
373.03	617.90
373.22	580.45
373.42	627.26
373.62	664.71
373.81	641.31
374.01	706.84
374.21	657.69
374.40	634.29
374.60	695.14
374.79	594.50
374.99	582.79
375.19	624.92
375.38	620.24
375.58	645.99
375.78	669.39
375.97	716.20
376.17	730.25
376.37	631.94
376.56	648.33
376.76	629.60
376.95	603.86
377.15	711.52
377.35	636.63
377.54	603.86
377.74	638.97
377.93	610.88
378.13	559.39
378.33	653.01
378.52	561.73
378.72	627.26
378.91	690.46
379.11	645.99
379.31	657.69
379.50	615.56
379.70	561.73
379.89	613.22
380.09	667.05
380.28	585.13
380.48	596.84
380.68	627.26
380.87	657.69
381.07	589.82
381.26	564.07
381.46	578.11
381.65	664.71
381.85	596.84
382.04	606.20
382.24	620.24
382.43	596.84
382.63	669.39
382.83	664.71
383.02	650.67
383.22	622.58
383.41	592.16
383.61	669.39
383.80	622.58
384.00	622.58
384.19	620.24
384.39	575.77
384.58	624.92
384.78	704.50
384.97	653.01
385.17	629.60
385.36	594.50
385.56	608.54
385.75	636.63
385.95	596.84
386.14	622.58
386.34	617.90
386.53	648.33
386.72	585.13
386.92	620.24
387.11	615.56
387.31	603.86
387.50	627.26
387.70	653.01
387.89	580.45
388.09	582.79
388.28	629.60
388.48	620.24
388.67	606.20
388.86	622.58
389.06	587.47
389.25	594.50
389.45	622.58
389.64	636.63
389.84	650.67
390.03	645.99
390.22	638.97
390.42	645.99
390.61	624.92
390.81	568.75
391.00	592.16
391.19	681.10
391.39	627.26
391.58	568.75
391.78	594.50
391.97	594.50
392.16	594.50
392.36	669.39
392.55	648.33
392.75	669.39
392.94	582.79
393.13	671.73
393.33	629.60
393.52	613.22
393.71	638.97
393.91	664.71
394.10	648.33
394.29	699.82
394.49	620.24
394.68	660.03
394.88	622.58
395.07	688.12
395.26	627.26
395.46	610.88
395.65	578.11
395.84	641.31
396.04	669.39
396.23	638.97
396.42	568.75
396.62	638.97
396.81	594.50
397.00	610.88
397.19	552.37
397.39	606.20
397.58	624.92
397.77	615.56
397.97	636.63
398.16	638.97
398.35	631.94
398.55	655.35
398.74	676.41
398.93	669.39
399.12	674.07
399.32	648.33
399.51	667.05
399.70	645.99
399.90	608.54
400.09	634.29
400.28	608.54
400.47	627.26
400.67	655.35
400.86	603.86
401.05	575.77
401.24	676.41
401.44	613.22
401.63	664.71
401.82	667.05
402.01	685.78
402.21	627.26
402.40	645.99
402.59	657.69
402.78	641.31
402.97	624.92
403.17	674.07
403.36	557.05
403.55	622.58
403.74	627.26
403.93	634.29
404.13	655.35
404.32	720.88
404.51	592.16
404.70	667.05
404.89	624.92
405.09	613.22
405.28	566.41
405.47	561.73
405.66	690.46
405.85	627.26
406.05	622.58
406.24	655.35
406.43	643.65
406.62	610.88
406.81	599.18
407.00	624.92
407.20	594.50
407.39	657.69
407.58	629.60
407.77	681.10
407.96	606.20
408.15	596.84
408.34	725.57
408.54	594.50
408.73	631.94
408.92	559.39
409.11	657.69
409.30	688.12
409.49	631.94
409.68	636.63
409.87	624.92
410.07	634.29
410.26	594.50
410.45	615.56
410.64	634.29
410.83	664.71
411.02	552.37
411.21	688.12
411.40	615.56
411.59	638.97
411.78	596.84
411.98	608.54
412.17	653.01
412.36	653.01
412.55	617.90
412.74	631.94
412.93	589.82
413.12	622.58
413.31	662.37
413.50	671.73
413.69	615.56
413.88	566.41
414.07	622.58
414.26	678.76
414.45	660.03
414.64	676.41
414.83	638.97
415.02	669.39
415.22	671.73
415.41	599.18
415.60	510.24
415.79	627.26
415.98	697.48
416.17	624.92
416.36	643.65
416.55	592.16
416.74	615.56
416.93	608.54
417.12	662.37
417.31	662.37
417.50	655.35
417.69	706.84
417.88	641.31
418.07	638.97
418.26	622.58
418.45	613.22
418.64	638.97
418.83	702.16
419.02	676.41
419.21	594.50
419.39	629.60
419.58	627.26
419.77	627.26
419.96	608.54
420.15	624.92
420.34	645.99
420.53	608.54
420.72	631.94
420.91	655.35
421.10	603.86
421.29	634.29
421.48	608.54
421.67	594.50
421.86	566.41
422.05	634.29
422.24	664.71
422.43	585.13
422.61	678.76
422.80	706.84
422.99	653.01
423.18	645.99
423.37	645.99
423.56	636.63
423.75	601.52
423.94	587.47
424.13	592.16
424.32	624.92
424.50	627.26
424.69	615.56
424.88	641.31
425.07	627.26
425.26	653.01
425.45	667.05
425.64	624.92
425.83	599.18
426.01	613.22
426.20	645.99
426.39	655.35
426.58	624.92
426.77	650.67
426.96	571.09
427.15	662.37
427.33	664.71
427.52	638.97
427.71	657.69
427.90	631.94
428.09	631.94
428.28	624.92
428.46	636.63
428.65	676.41
428.84	641.31
429.03	610.88
429.22	634.29
429.40	669.39
429.59	653.01
429.78	559.39
429.97	667.05
430.16	615.56
430.34	587.47
430.53	594.50
430.72	543.00
430.91	629.60
431.10	610.88
431.28	638.97
431.47	629.60
431.66	667.05
431.85	617.90
432.03	610.88
432.22	681.10
432.41	697.48
432.60	674.07
432.79	617.90
432.97	617.90
433.16	587.47
433.35	610.88
433.54	592.16
433.72	683.44
433.91	636.63
434.10	699.82
434.28	681.10
434.47	631.94
434.66	676.41
434.85	631.94
435.03	643.65
435.22	985.37
435.41	1029.84
435.59	896.43
435.78	873.02
435.97	870.68
436.16	765.36
436.34	596.84
436.53	660.03
436.72	671.73
436.90	667.05
437.09	699.82
437.28	669.39
437.46	634.29
437.65	655.35
437.84	613.22
438.02	671.73
438.21	660.03
438.40	606.20
438.58	568.75
438.77	622.58
438.96	653.01
439.14	596.84
439.33	660.03
439.52	718.54
439.70	634.29
439.89	631.94
440.08	634.29
440.26	629.60
440.45	561.73
440.63	655.35
440.82	601.52
441.01	610.88
441.19	660.03
441.38	667.05
441.57	683.44
441.75	641.31
441.94	622.58
442.12	566.41
442.31	620.24
442.50	676.41
442.68	587.47
442.87	622.58
443.05	615.56
443.24	648.33
443.43	653.01
443.61	617.90
443.80	615.56
443.98	627.26
444.17	601.52
444.35	720.88
444.54	648.33
444.73	592.16
444.91	650.67
445.10	599.18
445.28	627.26
445.47	664.71
445.65	603.86
445.84	603.86
446.02	685.78
446.21	655.35
446.39	641.31
446.58	610.88
446.77	650.67
446.95	650.67
447.14	641.31
447.32	629.60
447.51	667.05
447.69	617.90
447.88	669.39
448.06	655.35
448.25	645.99
448.43	674.07
448.62	617.90
448.80	613.22
448.99	624.92
449.17	589.82
449.36	662.37
449.54	601.52
449.73	650.67
449.91	564.07
450.10	660.03
450.28	676.41
450.46	636.63
450.65	629.60
450.83	657.69
451.02	674.07
451.20	601.52
451.39	662.37
451.57	709.18
451.76	664.71
451.94	697.48
452.13	669.39
452.31	676.41
452.49	681.10
452.68	634.29
452.86	641.31
453.05	636.63
453.23	678.76
453.42	655.35
453.60	615.56
453.78	709.18
453.97	615.56
454.15	585.13
454.34	552.37
454.52	638.97
454.70	681.10
454.89	720.88
455.07	620.24
455.26	645.99
455.44	683.44
455.62	648.33
455.81	713.86
455.99	697.48
456.17	636.63
456.36	746.63
456.54	678.76
456.73	631.94
456.91	578.11
457.09	674.07
457.28	683.44
457.46	603.86
457.64	664.71
457.83	608.54
458.01	615.56
458.19	664.71
458.38	608.54
458.56	638.97
458.74	615.56
458.93	648.33
459.11	660.03
459.29	608.54
459.48	662.37
459.66	699.82
459.84	662.37
460.03	664.71
460.21	683.44
460.39	564.07
460.57	552.37
460.76	671.73
460.94	688.12
461.12	737.27
461.31	660.03
461.49	566.41
461.67	657.69
461.85	615.56
462.04	645.99
462.22	917.49
462.40	660.03
462.59	613.22
462.77	669.39
462.95	636.63
463.13	683.44
463.32	608.54
463.50	648.33
463.68	631.94
463.86	636.63
464.05	683.44
464.23	720.88
464.41	650.67
464.59	631.94
464.78	641.31
464.96	601.52
465.14	725.57
465.32	585.13
465.50	629.60
465.69	627.26
465.87	608.54
466.05	601.52
466.23	650.67
466.41	608.54
466.60	582.79
466.78	653.01
466.96	613.22
467.14	671.73
467.32	571.09
467.51	653.01
467.69	608.54
467.87	681.10
468.05	592.16
468.23	629.60
468.41	718.54
468.60	667.05
468.78	683.44
468.96	718.54
469.14	671.73
469.32	610.88
469.50	561.73
469.69	594.50
469.87	674.07
470.05	638.97
470.23	603.86
470.41	653.01
470.59	695.14
470.77	594.50
470.95	603.86
471.14	746.63
471.32	695.14
471.50	617.90
471.68	603.86
471.86	610.88
472.04	624.92
472.22	571.09
472.40	690.46
472.58	674.07
472.77	582.79
472.95	631.94
473.13	683.44
473.31	699.82
473.49	674.07
473.67	685.78
473.85	634.29
474.03	641.31
474.21	573.43
474.39	620.24
474.57	706.84
474.75	650.67
474.93	580.45
475.12	613.22
475.30	601.52
475.48	650.67
475.66	655.35
475.84	634.29
476.02	657.69
476.20	716.20
476.38	662.37
476.56	634.29
476.74	620.24
476.92	601.52
477.10	606.20
477.28	660.03
477.46	645.99
477.64	664.71
477.82	699.82
478.00	690.46
478.18	580.45
478.36	634.29
478.54	674.07
478.72	748.97
478.90	599.18
479.08	657.69
479.26	669.39
479.44	678.76
479.62	667.05
479.80	589.82
479.98	582.79
480.16	638.97
480.34	631.94
480.52	688.12
480.70	711.52
480.88	648.33
481.06	695.14
481.24	648.33
481.41	634.29
481.59	655.35
481.77	599.18
481.95	615.56
482.13	634.29
482.31	706.84
482.49	643.65
482.67	702.16
482.85	664.71
483.03	699.82
483.21	643.65
483.39	599.18
483.57	638.97
483.74	748.97
483.92	622.58
484.10	667.05
484.28	690.46
484.46	638.97
484.64	702.16
484.82	683.44
485.00	711.52
485.18	617.90
485.35	702.16
485.53	763.01
485.71	667.05
485.89	683.44
486.07	638.97
486.25	730.25
486.43	720.88
486.61	634.29
486.78	683.44
486.96	709.18
487.14	641.31
487.32	777.06
487.50	727.91
487.68	730.25
487.85	723.23
488.03	734.93
488.21	683.44
488.39	692.80
488.57	718.54
488.75	704.50
488.92	786.42
489.10	702.16
489.28	683.44
489.46	669.39
489.64	688.12
489.81	681.10
489.99	739.61
490.17	709.18
490.35	697.48
490.53	709.18
490.70	655.35
490.88	676.41
491.06	634.29
491.24	702.16
491.41	725.57
491.59	690.46
491.77	709.18
491.95	674.07
492.13	643.65
492.30	704.50
492.48	650.67
492.66	678.76
492.84	638.97
493.01	688.12
493.19	657.69
493.37	662.37
493.54	648.33
493.72	716.20
493.90	690.46
494.08	706.84
494.25	688.12
494.43	674.07
494.61	657.69
494.79	671.73
494.96	683.44
495.14	702.16
495.32	683.44
495.49	676.41
495.67	704.50
495.85	657.69
496.02	617.90
496.20	645.99
496.38	660.03
496.55	725.57
496.73	636.63
496.91	699.82
497.09	643.65
497.26	699.82
497.44	690.46
497.62	664.71
497.79	601.52
497.97	662.37
498.14	655.35
498.32	664.71
498.50	681.10
498.67	603.86
498.85	739.61
499.03	587.47
499.20	669.39
499.38	660.03
499.56	669.39
499.73	716.20
499.91	657.69
500.08	678.76
500.26	631.94
500.44	657.69
500.61	678.76
500.79	685.78
500.97	653.01
501.14	638.97
501.32	676.41
501.49	688.12
501.67	692.80
501.84	690.46
502.02	620.24
502.20	653.01
502.37	688.12
502.55	636.63
502.72	645.99
502.90	634.29
503.07	645.99
503.25	711.52
503.43	660.03
503.60	662.37
503.78	599.18
503.95	645.99
504.13	636.63
504.30	624.92
504.48	720.88
504.65	676.41
504.83	561.73
505.01	692.80
505.18	655.35
505.36	638.97
505.53	678.76
505.71	620.24
505.88	730.25
506.06	669.39
506.23	638.97
506.41	699.82
506.58	613.22
506.76	589.82
506.93	723.23
507.11	697.48
507.28	709.18
507.46	645.99
507.63	573.43
507.81	622.58
507.98	634.29
508.16	645.99
508.33	688.12
508.50	660.03
508.68	617.90
508.85	629.60
509.03	669.39
509.20	669.39
509.38	718.54
509.55	678.76
509.73	716.20
509.90	683.44
510.08	648.33
510.25	662.37
510.42	629.60
510.60	662.37
510.77	664.71
510.95	669.39
511.12	587.47
511.30	631.94
511.47	634.29
511.64	678.76
511.82	624.92
511.99	664.71
512.17	702.16
512.34	699.82
512.51	615.56
512.69	636.63
512.86	613.22
513.04	554.71
513.21	613.22
513.38	573.43
513.56	669.39
513.73	622.58
513.90	650.67
514.08	599.18
514.25	627.26
514.43	594.50
514.60	702.16
514.77	641.31
514.95	606.20
515.12	648.33
515.29	683.44
515.47	631.94
515.64	716.20
515.81	645.99
515.99	744.29
516.16	606.20
516.33	662.37
516.51	575.77
516.68	613.22
516.85	697.48
517.03	615.56
517.20	695.14
517.37	648.33
517.54	660.03
517.72	725.57
517.89	655.35
518.06	718.54
518.24	758.33
518.41	667.05
518.58	620.24
518.75	622.58
518.93	674.07
519.10	643.65
519.27	638.97
519.45	615.56
519.62	667.05
519.79	695.14
519.96	629.60
520.14	603.86
520.31	664.71
520.48	578.11
520.65	695.14
520.83	610.88
521.00	601.52
521.17	688.12
521.34	664.71
521.52	596.84
521.69	592.16
521.86	681.10
522.03	601.52
522.20	685.78
522.38	627.26
522.55	629.60
522.72	711.52
522.89	620.24
523.07	704.50
523.24	608.54
523.41	603.86
523.58	692.80
523.75	645.99
523.92	624.92
524.10	657.69
524.27	744.29
524.44	638.97
524.61	697.48
524.78	634.29
524.96	699.82
525.13	596.84
525.30	664.71
525.47	664.71
525.64	685.78
525.81	653.01
525.98	692.80
526.16	599.18
526.33	580.45
526.50	688.12
526.67	641.31
526.84	676.41
527.01	692.80
527.18	650.67
527.36	695.14
527.53	620.24
527.70	587.47
527.87	634.29
528.04	641.31
528.21	599.18
528.38	695.14
528.55	627.26
528.72	631.94
528.89	683.44
529.07	648.33
529.24	662.37
529.41	631.94
529.58	641.31
529.75	566.41
529.92	624.92
530.09	683.44
530.26	681.10
530.43	631.94
530.60	641.31
530.77	664.71
530.94	734.93
531.11	671.73
531.28	617.90
531.46	622.58
531.63	580.45
531.80	575.77
531.97	678.76
532.14	695.14
532.31	697.48
532.48	566.41
532.65	645.99
532.82	608.54
532.99	641.31
533.16	678.76
533.33	657.69
533.50	660.03
533.67	624.92
533.84	723.23
534.01	653.01
534.18	676.41
534.35	678.76
534.52	653.01
534.69	723.23
534.86	608.54
535.03	690.46
535.20	706.84
535.37	734.93
535.54	650.67
535.71	667.05
535.88	681.10
536.05	692.80
536.22	657.69
536.38	671.73
536.55	695.14
536.72	751.31
536.89	648.33
537.06	739.61
537.23	741.95
537.40	774.72
537.57	683.44
537.74	760.67
537.91	683.44
538.08	709.18
538.25	746.63
538.42	627.26
538.59	755.99
538.75	716.20
538.92	704.50
539.09	760.67
539.26	765.36
539.43	800.46
539.60	816.85
539.77	732.59
539.94	819.19
540.11	814.51
540.28	940.90
540.44	933.87
540.61	931.53
540.78	933.87
540.95	1039.20
541.12	1146.86
541.29	1135.16
541.46	1174.95
541.62	1193.67
541.79	1217.08
541.96	1160.91
542.13	1156.22
542.30	1142.18
542.47	1214.74
542.63	1142.18
542.80	1102.39
542.97	1104.73
543.14	1135.16
543.31	1177.29
543.48	1111.75
543.64	1142.18
543.81	1114.10
543.98	1086.01
544.15	1088.35
544.32	1018.13
544.48	1095.37
544.65	1123.46
544.82	1046.22
544.99	1053.24
545.16	1048.56
545.32	1109.41
545.49	1394.96
545.66	1769.44
545.83	1860.73
546.00	1664.12
546.16	1535.39
546.33	1266.23
546.50	1252.19
546.67	1093.03
546.83	1048.56
547.00	990.05
547.17	870.68
547.34	926.85
547.50	908.13
547.67	882.38
547.84	833.23
548.00	901.11
548.17	973.66
548.34	889.40
548.51	889.40
548.67	847.27
548.84	856.64
549.01	861.32
549.18	784.08
549.34	851.96
549.51	891.74
549.68	924.51
549.84	791.10
550.01	844.93
550.18	861.32
550.34	788.76
550.51	788.76
550.68	828.55
550.84	669.39
551.01	781.74
551.18	863.66
551.34	774.72
551.51	767.70
551.68	718.54
551.84	779.40
552.01	795.78
552.18	723.23
552.34	751.31
552.51	798.12
552.68	793.44
552.84	765.36
553.01	690.46
553.18	627.26
553.34	709.18
553.51	697.48
553.67	774.72
553.84	741.95
554.01	718.54
554.17	741.95
554.34	697.48
554.51	662.37
554.67	662.37
554.84	732.59
555.00	683.44
555.17	671.73
555.33	685.78
555.50	681.10
555.67	617.90
555.83	631.94
556.00	655.35
556.16	781.74
556.33	674.07
556.50	671.73
556.66	615.56
556.83	650.67
556.99	674.07
557.16	648.33
557.32	585.13
557.49	655.35
557.65	627.26
557.82	641.31
557.98	664.71
558.15	641.31
558.32	690.46
558.48	650.67
558.65	578.11
558.81	667.05
558.98	657.69
559.14	648.33
559.31	634.29
559.47	636.63
559.64	702.16
559.80	699.82
559.97	636.63
560.13	634.29
560.30	641.31
560.46	608.54
560.63	638.97
560.79	660.03
560.96	674.07
561.12	641.31
561.29	676.41
561.45	613.22
561.61	653.01
561.78	709.18
561.94	624.92
562.11	653.01
562.27	645.99
562.44	580.45
562.60	650.67
562.77	634.29
562.93	685.78
563.10	688.12
563.26	655.35
563.42	695.14
563.59	676.41
563.75	624.92
563.92	674.07
564.08	589.82
564.24	610.88
564.41	723.23
564.57	638.97
564.74	669.39
564.90	723.23
565.07	692.80
565.23	655.35
565.39	587.47
565.56	645.99
565.72	631.94
565.88	627.26
566.05	641.31
566.21	678.76
566.38	641.31
566.54	660.03
566.70	660.03
566.87	613.22
567.03	557.05
567.19	660.03
567.36	678.76
567.52	650.67
567.68	622.58
567.85	678.76
568.01	641.31
568.17	526.62
568.34	660.03
568.50	702.16
568.66	645.99
568.83	648.33
568.99	653.01
569.15	685.78
569.32	655.35
569.48	692.80
569.64	648.33
569.81	678.76
569.97	582.79
570.13	725.57
570.30	681.10
570.46	681.10
570.62	678.76
570.78	629.60
570.95	674.07
571.11	720.88
571.27	662.37
571.43	667.05
571.60	704.50
571.76	631.94
571.92	667.05
572.09	582.79
572.25	699.82
572.41	617.90
572.57	704.50
572.74	723.23
572.90	645.99
573.06	660.03
573.22	755.99
573.38	697.48
573.55	580.45
573.71	641.31
573.87	669.39
574.03	699.82
574.20	645.99
574.36	723.23
574.52	613.22
574.68	617.90
574.84	669.39
575.01	709.18
575.17	620.24
575.33	653.01
575.49	622.58
575.65	744.29
575.82	669.39
575.98	643.65
576.14	739.61
576.30	685.78
576.46	702.16
576.62	812.17
576.79	894.08
576.95	849.61
577.11	800.46
577.27	695.14
577.43	807.48
577.59	727.91
577.75	678.76
577.92	685.78
578.08	688.12
578.24	709.18
578.40	725.57
578.56	791.10
578.72	887.06
578.88	880.04
579.04	849.61
579.21	727.91
579.37	760.67
579.53	734.93
579.69	800.46
579.85	690.46
580.01	739.61
580.17	763.01
580.33	711.52
580.49	748.97
580.65	777.06
580.82	723.23
580.98	718.54
581.14	662.37
581.30	716.20
581.46	695.14
581.62	777.06
581.78	755.99
581.94	697.48
582.10	739.61
582.26	720.88
582.42	748.97
582.58	727.91
582.74	748.97
582.90	741.95
583.06	772.38
583.22	774.72
583.38	676.41
583.54	718.54
583.70	802.80
583.86	748.97
584.02	711.52
584.18	795.78
584.34	767.70
584.50	800.46
584.66	734.93
584.82	739.61
584.98	760.67
585.14	690.46
585.30	748.97
585.46	692.80
585.62	758.33
585.78	763.01
585.94	793.44
586.10	732.59
586.26	690.46
586.42	816.85
586.58	727.91
586.74	800.46
586.90	802.80
587.06	910.47
587.22	802.80
587.38	891.74
587.54	837.91
587.70	882.38
587.86	765.36
588.02	760.67
588.18	753.65
588.34	678.76
588.49	718.54
588.65	662.37
588.81	734.93
588.97	671.73
589.13	669.39
589.29	704.50
589.45	685.78
589.61	690.46
589.77	791.10
589.93	716.20
590.08	664.71
590.24	755.99
590.40	692.80
590.56	681.10
590.72	645.99
590.88	692.80
591.04	741.95
591.20	676.41
591.35	688.12
591.51	802.80
591.67	692.80
591.83	744.29
591.99	763.01
592.15	702.16
592.31	774.72
592.46	802.80
592.62	795.78
592.78	774.72
592.94	791.10
593.10	784.08
593.26	697.48
593.41	767.70
593.57	763.01
593.73	746.63
593.89	765.36
594.05	697.48
594.20	662.37
594.36	753.65
594.52	636.63
594.68	631.94
594.84	718.54
594.99	723.23
595.15	695.14
595.31	681.10
595.47	737.27
595.62	638.97
595.78	716.20
595.94	713.86
596.10	739.61
596.25	662.37
596.41	641.31
596.57	713.86
596.73	678.76
596.88	702.16
597.04	688.12
597.20	655.35
597.36	664.71
597.51	781.74
597.67	732.59
597.83	699.82
597.99	718.54
598.14	702.16
598.30	620.24
598.46	669.39
598.61	805.14
598.77	688.12
598.93	713.86
599.09	755.99
599.24	716.20
599.40	784.08
599.56	730.25
599.71	737.27
599.87	744.29
600.03	746.63
600.18	760.67
600.34	720.88
600.50	662.37
600.65	690.46
600.81	739.61
600.97	671.73
601.12	678.76
601.28	650.67
601.44	676.41
601.59	669.39
601.75	685.78
601.91	690.46
602.06	685.78
602.22	720.88
602.37	713.86
602.53	669.39
602.69	730.25
602.84	676.41
603.00	662.37
603.16	725.57
603.31	734.93
603.47	662.37
603.62	660.03
603.78	676.41
603.94	683.44
604.09	634.29
604.25	631.94
604.40	594.50
604.56	671.73
604.71	702.16
604.87	709.18
605.03	643.65
605.18	730.25
605.34	702.16
605.49	634.29
605.65	655.35
605.80	645.99
605.96	664.71
606.12	690.46
606.27	709.18
606.43	678.76
606.58	669.39
606.74	645.99
606.89	669.39
607.05	699.82
607.20	624.92
607.36	723.23
607.51	664.71
607.67	732.59
607.82	788.76
607.98	763.01
608.13	807.48
608.29	636.63
608.44	767.70
608.60	758.33
608.75	779.40
608.91	695.14
609.06	720.88
609.22	807.48
609.37	748.97
609.53	835.57
609.68	851.96
609.84	901.11
