SpectraSuite Data File
++++++++++++++++++++++++++++++++++++
Date: Thu Oct 24 13:21:22 EDT 2013
User: stostad
Dark Spectrum Present: No
Reference Spectrum Present: No
Number of Sampled Component Spectra: 1
Spectrometers: USB2+H05261
Integration Time (usec): 100000 (USB2+H05261)
Spectra Averaged: 1 (USB2+H05261)
Boxcar Smoothing: 0 (USB2+H05261)
Correct for Electrical Dark: No (USB2+H05261)
Strobe/Lamp Enabled: No (USB2+H05261)
Correct for Detector Non-linearity: No (USB2+H05261)
Correct for Stray Light: No (USB2+H05261)
Number of Pixels in Processed Spectrum: 2048
>>>>>Begin Processed Spectral Data<<<<<
365.73	580.45
365.92	580.45
366.12	580.45
366.32	404.91
366.52	463.43
366.72	521.94
366.91	435.34
367.11	521.94
367.31	468.11
367.51	437.68
367.70	510.24
367.90	468.11
368.10	475.13
368.30	404.91
368.49	449.38
368.69	470.45
368.89	475.13
369.09	470.45
369.28	418.96
369.48	547.69
369.68	561.73
369.87	594.50
370.07	470.45
370.27	629.60
370.47	617.90
370.66	915.15
370.86	788.76
371.06	933.87
371.25	861.32
371.45	908.13
371.65	987.71
371.84	980.68
372.04	889.40
372.24	905.79
372.44	994.73
372.63	973.66
372.83	919.83
373.03	990.05
373.22	938.55
373.42	983.02
373.62	1011.11
373.81	954.94
374.01	1088.35
374.21	1046.22
374.40	1036.86
374.60	1083.67
374.79	912.81
374.99	1008.77
375.19	1008.77
375.38	1088.35
375.58	1078.99
375.78	1095.37
375.97	1036.86
376.17	1130.48
376.37	1048.56
376.56	1071.97
376.76	1053.24
376.95	1064.94
377.15	1078.99
377.35	1034.52
377.54	1139.84
377.74	1128.14
377.93	1093.03
378.13	1128.14
378.33	1104.73
378.52	1109.41
378.72	1081.33
378.91	1193.67
379.11	1160.91
379.31	1109.41
379.50	1128.14
379.70	1203.04
379.89	1156.22
380.09	1153.88
380.28	1247.51
380.48	1196.01
380.68	1170.27
380.87	1200.69
381.07	1193.67
381.26	1207.72
381.46	1198.35
381.65	1170.27
381.85	1153.88
382.04	1212.40
382.24	1245.16
382.43	1259.21
382.63	1228.78
382.83	1224.10
383.02	1263.89
383.22	1242.82
383.41	1268.57
383.61	1273.25
383.80	1357.51
384.00	1308.36
384.19	1277.93
384.39	1317.72
384.58	1266.23
384.78	1362.19
384.97	1343.47
385.17	1270.91
385.36	1310.70
385.56	1294.32
385.75	1376.24
385.95	1331.76
386.14	1315.38
386.34	1376.24
386.53	1299.00
386.72	1397.30
386.92	1399.64
387.11	1416.02
387.31	1369.21
387.50	1317.72
387.70	1401.98
387.89	1387.94
388.09	1437.09
388.28	1451.13
388.48	1437.09
388.67	1409.00
388.86	1430.07
389.06	1439.43
389.25	1514.33
389.45	1467.52
389.64	1427.73
389.84	1413.68
390.03	1488.58
390.22	1467.52
390.42	1472.20
390.61	1432.41
390.81	1486.24
391.00	1444.11
391.19	1511.99
391.39	1502.62
391.58	1572.84
391.78	1577.52
391.97	1493.26
392.16	1586.88
392.36	1619.65
392.55	1551.78
392.75	1647.74
392.94	1600.93
393.13	1607.95
393.33	1565.82
393.52	1746.04
393.71	1664.12
393.91	1631.35
394.10	1600.93
394.29	1589.22
394.49	1577.52
394.68	1638.38
394.88	1795.19
395.07	1696.89
395.26	1746.04
395.46	1811.57
395.65	1792.85
395.84	1823.28
396.04	1825.62
396.23	1844.34
396.42	1771.79
396.62	1790.51
396.81	1853.70
397.00	1905.20
397.19	1975.41
397.39	1820.94
397.58	1767.10
397.77	1790.51
397.97	1886.47
398.16	1893.49
398.35	1872.43
398.55	1891.15
398.74	1928.60
398.93	1989.46
399.12	1937.96
399.32	1961.37
399.51	1912.22
399.70	1973.07
399.90	1975.41
400.09	1984.77
400.28	2099.46
400.47	1916.90
400.67	1952.01
400.86	1973.07
401.05	2064.35
401.24	2022.22
401.44	1977.75
401.63	2076.06
401.82	2024.56
402.01	2047.97
402.21	2101.80
402.40	2136.91
402.59	2136.91
402.78	2200.10
402.97	2249.25
403.17	2197.76
403.36	2179.04
403.55	2282.02
403.74	2307.77
403.93	2370.96
404.13	2324.15
404.32	2385.01
404.51	2202.44
404.70	2420.11
404.89	2359.26
405.09	2399.05
405.28	2429.48
405.47	2340.54
405.66	2413.09
405.85	2530.12
406.05	2434.16
406.24	2511.39
406.43	2445.86
406.62	2516.08
406.81	2490.33
407.00	2492.67
407.20	2443.52
407.39	2483.31
407.58	2541.82
407.77	2527.78
407.96	2640.12
408.15	2495.01
408.34	2684.59
408.54	2607.36
408.73	2649.49
408.92	2670.55
409.11	2609.70
409.30	2675.23
409.49	2715.02
409.68	2663.53
409.87	2621.40
410.07	2785.24
410.26	2846.09
410.45	2719.70
410.64	2829.71
410.83	2869.50
411.02	2813.32
411.21	2942.05
411.40	2881.20
411.59	2939.71
411.78	3009.93
411.98	2916.31
412.17	3040.36
412.36	3021.63
412.55	3103.55
412.74	3124.62
412.93	3124.62
413.12	3075.46
413.31	3295.47
413.50	3232.28
413.69	3227.60
413.88	3337.60
414.07	3304.84
414.26	3318.88
414.45	3286.11
414.64	3349.31
414.83	3349.31
415.02	3487.40
415.22	3365.69
415.41	3480.38
415.60	3407.82
415.79	3349.31
415.98	3489.74
416.17	3571.66
416.36	3536.55
416.55	3590.38
416.74	3641.87
416.93	3583.36
417.12	3538.89
417.31	3644.21
417.50	3714.43
417.69	3871.25
417.88	3812.73
418.07	3707.41
418.26	3836.14
418.45	3815.07
418.64	4023.38
418.83	3981.25
419.02	3810.39
419.21	3857.20
419.39	3911.04
419.58	3911.04
419.77	3929.76
419.96	4007.00
420.15	4070.19
420.34	4007.00
420.53	4018.70
420.72	4154.45
420.91	4133.39
421.10	4187.22
421.29	4217.65
421.48	4107.64
421.67	4133.39
421.86	4060.83
422.05	4126.36
422.24	4227.01
422.43	4266.80
422.61	4313.61
422.80	4301.90
422.99	4163.81
423.18	4395.53
423.37	4425.95
423.56	4344.03
423.75	4432.97
423.94	4318.29
424.13	4173.18
424.32	4145.09
424.50	4360.42
424.69	4355.74
424.88	4421.27
425.07	4388.50
425.26	4166.15
425.45	4348.72
425.64	4341.69
425.83	4241.05
426.01	4468.08
426.20	4285.52
426.39	4425.95
426.58	4381.48
426.77	4479.79
426.96	4582.77
427.15	4418.93
427.33	4580.43
427.52	4517.23
427.71	4573.41
427.90	4435.32
428.09	4650.64
428.28	4779.37
428.46	4650.64
428.65	4645.96
428.84	4702.14
429.03	4720.86
429.22	4510.21
429.40	4765.33
429.59	4800.44
429.78	4505.53
429.97	4657.67
430.16	4648.30
430.34	4854.27
430.53	4821.50
430.72	4924.49
430.91	4889.38
431.10	4816.82
431.28	4856.61
431.47	5090.67
431.66	4968.96
431.85	5107.05
432.03	5214.71
432.22	5139.82
432.41	4922.15
432.60	5055.56
432.79	5088.32
432.97	5172.58
433.16	5320.04
433.35	5036.83
433.54	5221.74
433.72	5263.86
433.91	5247.48
434.10	5266.21
434.28	5210.03
434.47	5362.17
434.66	5427.70
434.85	5329.40
435.03	5416.00
435.22	5549.41
435.41	5722.61
435.59	5678.14
435.78	5659.42
435.97	5582.18
436.16	5551.75
436.34	5535.37
436.53	5586.86
436.72	5692.18
436.90	5504.94
437.09	5734.31
437.28	5607.92
437.46	5659.42
437.65	5619.63
437.84	5738.99
438.02	5806.87
438.21	5591.54
438.40	5675.80
438.58	5708.57
438.77	6087.73
438.96	6033.90
439.14	6083.05
439.33	5994.11
439.52	6200.08
439.70	6059.65
439.89	6155.61
440.08	6090.07
440.26	6225.82
440.45	6225.82
440.63	6282.00
440.82	6466.90
441.01	6399.02
441.19	6455.20
441.38	6623.72
441.57	6445.84
441.75	6612.01
441.94	6825.00
442.12	6689.25
442.31	6722.02
442.50	6808.62
442.68	6670.53
442.87	6698.61
443.05	6876.49
443.24	6869.47
443.43	6867.13
443.61	6988.84
443.80	7080.12
443.98	6731.38
444.17	6600.31
444.35	6843.73
444.54	6960.75
444.73	6892.88
444.91	6883.52
445.10	6958.41
445.28	7059.06
445.47	6888.20
445.65	6958.41
445.84	7073.10
446.02	7119.91
446.21	6935.01
446.39	6979.48
446.58	7026.29
446.77	6953.73
446.95	7019.27
447.14	7094.16
447.32	7049.69
447.51	7035.65
447.69	6946.71
447.88	7148.00
448.06	7101.19
448.25	7126.93
448.43	7262.68
448.62	7159.70
448.80	7218.21
448.99	7152.68
449.17	7370.35
449.36	7330.56
449.54	7297.79
449.73	7375.03
449.91	7604.40
450.10	7379.71
450.28	7452.27
450.46	7662.91
450.65	7564.61
450.83	7468.65
451.02	7700.36
451.20	7789.30
451.39	7644.19
451.57	7541.21
451.76	7681.64
451.94	7606.74
452.13	7843.14
452.31	7658.23
452.49	7721.43
452.68	7953.14
452.86	7775.26
453.05	7901.65
453.23	7866.54
453.42	7815.05
453.60	7756.54
453.78	7983.57
453.97	7885.26
454.15	7901.65
454.34	7726.11
454.52	7932.08
454.70	7964.84
454.89	8079.53
455.07	7978.89
455.26	7974.21
455.44	8262.09
455.62	8182.51
455.81	8299.54
455.99	8243.37
456.17	8320.60
456.36	8386.14
456.54	8210.60
456.73	8547.64
456.91	8720.84
457.09	8521.89
457.28	8636.58
457.46	8725.52
457.64	8746.58
457.83	8674.03
458.01	8606.15
458.19	8891.70
458.38	8734.88
458.56	8975.95
458.74	8805.10
458.93	8894.04
459.11	8865.95
459.29	8830.84
459.48	8791.05
459.66	9013.40
459.84	8997.02
460.03	9116.39
460.21	9205.33
460.39	9135.11
460.57	9036.81
460.76	9074.26
460.94	9139.79
461.12	9050.85
461.31	9399.59
461.49	9280.22
461.67	9146.81
461.85	9303.63
462.04	9226.39
462.22	9675.77
462.40	9633.64
462.59	9483.85
462.77	9268.52
462.95	9624.28
463.13	9472.15
463.32	9537.68
463.50	9631.30
463.68	9666.41
463.86	9720.24
464.05	9460.45
464.23	9778.76
464.41	9589.17
464.59	9664.07
464.78	10029.20
464.96	9907.49
465.14	9617.26
465.32	9785.78
465.50	9881.74
465.69	10239.84
465.87	10118.14
466.05	10054.94
466.23	9984.73
466.41	10160.27
466.60	10136.86
466.78	9970.68
466.96	9949.62
467.14	10090.05
467.32	10162.61
467.51	10157.92
467.69	9977.70
467.87	10377.94
468.05	10356.87
468.23	10298.36
468.41	10113.45
468.60	10249.21
468.78	10291.34
468.96	10279.63
469.14	10513.69
469.32	10537.09
469.50	10307.72
469.69	10679.86
469.87	10679.86
470.05	10731.36
470.23	10934.98
470.41	10761.78
470.59	10787.53
470.77	10782.85
470.95	10721.99
471.14	11087.12
471.32	10675.18
471.50	11063.71
471.68	10813.28
471.86	10977.11
472.04	11194.78
472.22	11232.23
472.40	11255.64
472.58	11265.00
472.77	11562.25
472.95	11576.29
473.13	11723.74
473.31	11265.00
473.49	11440.54
473.67	11583.31
473.85	11550.54
474.03	11796.30
474.21	11906.31
474.39	11810.34
474.57	11918.01
474.75	12119.29
474.93	12088.87
475.12	12084.19
475.30	12191.85
475.48	12325.26
475.66	12292.49
475.84	12222.28
476.02	12437.61
476.20	12468.03
476.38	12507.82
476.56	12903.37
476.74	12814.43
476.92	12556.97
477.10	12725.49
477.28	12922.10
477.46	12886.99
477.64	13092.96
477.82	13317.65
478.00	13680.43
478.18	13682.77
478.36	13392.55
478.54	13778.73
478.72	13788.10
478.90	14129.81
479.08	14195.35
479.26	14071.30
479.44	14064.28
479.62	14670.48
479.80	14497.28
479.98	14679.84
480.16	14815.59
480.34	14518.34
480.52	14787.50
480.70	15173.69
480.88	14897.51
481.06	15096.46
481.24	15300.08
481.41	15611.37
481.59	15496.69
481.77	15690.95
481.95	15770.53
482.13	15896.92
482.31	15761.17
482.49	16320.56
482.67	16290.13
482.85	16367.37
483.03	16760.58
483.21	16872.92
483.39	16776.96
483.57	16716.11
483.74	16875.26
483.92	17226.34
484.10	17053.14
484.28	17303.58
484.46	17565.72
484.64	18054.89
484.82	17582.10
485.00	17862.97
485.18	18251.50
485.35	18504.28
485.53	18118.09
485.71	18487.89
485.89	18803.86
486.07	18513.64
486.25	18871.74
486.43	19016.85
486.61	19138.56
486.78	19414.74
486.96	19477.94
487.14	19960.09
487.32	19648.80
487.50	19630.07
487.68	20018.60
487.85	20423.51
488.03	20198.82
488.21	20503.09
488.39	20631.82
488.57	20893.96
488.75	21036.74
488.92	21057.80
489.10	21448.67
489.28	21584.42
489.46	21680.38
489.64	21638.25
489.81	21954.22
489.99	22214.02
490.17	22082.95
490.35	22384.88
490.53	22686.81
490.70	22672.77
490.88	22831.93
491.06	23065.98
491.24	23168.96
491.41	23342.16
491.59	23225.14
491.77	23473.23
491.95	23665.16
492.13	23873.46
492.30	23910.91
492.48	23836.02
492.66	23878.15
492.84	24194.12
493.01	24493.71
493.19	24393.06
493.37	24556.90
493.54	24725.42
493.72	24877.55
493.90	24844.79
494.08	25025.01
494.25	25465.03
494.43	25811.43
494.61	25720.15
494.79	26019.74
494.96	25436.94
495.14	26237.41
495.32	25858.24
495.49	26338.05
495.67	26363.79
495.85	26499.55
496.02	26867.01
496.20	26794.45
496.38	26925.52
496.55	26944.25
496.73	27321.07
496.91	27449.80
497.09	27690.88
497.26	27861.74
497.44	27805.56
497.62	27974.08
497.79	28285.37
497.97	28261.97
498.14	28591.98
498.32	28676.24
498.50	28599.01
498.67	28922.00
498.85	28940.72
499.03	29024.98
499.20	29563.31
499.38	29404.15
499.56	29373.72
499.73	29780.98
499.91	29713.10
500.08	29668.63
500.26	29752.89
500.44	30045.46
500.61	30300.58
500.79	30068.86
500.97	30345.05
501.14	30639.95
501.32	30724.21
501.49	30703.15
501.67	30536.97
501.84	30735.92
502.02	31246.15
502.20	30993.37
502.37	31365.52
502.55	30820.17
502.72	31023.80
502.90	31339.77
503.07	31559.78
503.25	31850.01
503.43	31344.45
503.60	31648.72
503.78	32224.50
503.95	31587.87
504.13	31997.46
504.30	32254.92
504.48	32341.52
504.65	32638.77
504.83	32893.89
505.01	32891.55
505.18	32968.79
505.36	32940.70
505.53	32690.26
505.71	32854.10
505.88	33268.37
506.06	33399.44
506.23	33977.56
506.41	33584.35
506.58	33537.54
506.76	33383.06
506.93	34141.39
507.11	33809.04
507.28	34277.15
507.46	33783.29
507.63	34249.06
507.81	34302.89
507.98	33942.45
508.16	33933.09
508.33	34628.23
508.50	34534.60
508.68	34785.04
508.85	34932.50
509.03	34728.87
509.20	35164.21
509.38	34864.62
509.55	34712.49
509.73	35866.37
509.90	35754.02
510.08	36006.80
510.25	35793.81
510.42	36215.11
510.60	35899.14
510.77	36273.62
510.95	35749.34
511.12	35913.18
511.30	36329.80
511.47	36800.24
511.64	36500.65
511.82	36790.88
511.99	36421.08
512.17	36542.78
512.34	36858.76
512.51	36999.19
512.69	37186.43
512.86	36928.97
513.04	37247.29
513.21	37186.43
513.38	37734.12
513.56	37326.86
513.73	37495.38
513.90	37881.57
514.08	37495.38
514.25	38057.11
514.43	37586.66
514.60	38057.11
514.77	38281.80
514.95	37912.00
515.12	38157.75
515.29	38197.54
515.47	38569.69
515.64	38686.71
515.81	38396.49
515.99	38373.08
516.16	38555.64
516.33	38815.44
516.51	39313.98
516.68	39049.50
516.85	39253.12
517.03	39304.62
517.20	39276.53
517.37	39091.63
517.54	39203.97
517.72	39498.88
517.89	39620.59
518.06	39704.85
518.24	39667.40
518.41	40030.18
518.58	39487.18
518.75	39777.40
518.93	39739.96
519.10	39892.09
519.27	40076.99
519.45	39983.37
519.62	40041.88
519.79	40360.20
519.96	40753.41
520.14	40720.64
520.31	40339.13
520.48	40407.01
520.65	40715.96
520.83	41284.71
521.00	41305.77
521.17	41359.61
521.34	41078.74
521.52	41148.96
521.69	41383.01
521.86	41167.68
522.03	41277.69
522.20	41783.24
522.38	42164.75
522.55	42012.62
522.72	42232.63
522.89	41970.49
523.07	42057.09
523.24	41881.55
523.41	42080.49
523.58	41792.61
523.75	42192.84
523.92	42092.19
524.10	42801.38
524.27	43002.66
524.44	42705.41
524.61	42817.76
524.78	42735.84
524.96	42794.36
525.13	43143.09
525.30	42822.44
525.47	43578.43
525.64	43681.42
525.81	43452.05
525.98	43548.01
526.16	42817.76
526.33	43480.13
526.50	43845.26
526.67	43742.27
526.84	43819.51
527.01	43969.30
527.18	43440.34
527.36	44088.67
527.53	43482.47
527.70	44271.23
527.87	44334.43
528.04	44205.70
528.21	44638.70
528.38	44327.41
528.55	44788.49
528.72	44479.54
528.89	44594.23
529.07	44591.89
529.24	44020.80
529.41	44889.13
529.58	44832.96
529.75	44488.90
529.92	45228.51
530.09	45029.57
530.26	44931.26
530.43	44807.22
530.60	44800.19
530.77	45123.19
530.94	45116.17
531.11	45455.54
531.28	45448.52
531.46	45181.70
531.63	45385.33
531.80	45177.02
531.97	45165.32
532.14	45542.14
532.31	45385.33
532.48	46117.92
532.65	45631.08
532.82	45696.62
532.99	46307.50
533.16	45869.82
533.33	45874.50
533.50	46153.02
533.67	46019.61
533.84	45916.63
534.01	46408.14
534.18	45993.87
534.35	46979.23
534.52	46384.74
534.69	46579.00
534.86	46557.94
535.03	46349.63
535.20	46312.18
535.37	46887.95
535.54	47255.42
535.71	46586.02
535.88	46852.84
536.05	46995.62
536.22	47309.25
536.38	47224.99
536.55	47304.57
536.72	47175.84
536.89	47056.47
537.06	47309.25
537.23	47524.58
537.40	47311.59
537.57	47093.92
537.74	47423.93
537.91	47721.18
538.08	47526.92
538.25	47026.04
538.42	47732.89
538.59	48034.81
538.75	47145.41
538.92	47627.56
539.09	47618.20
539.26	48184.61
539.43	47892.04
539.60	47934.17
539.77	47742.25
539.94	48589.52
540.11	48844.64
540.28	48498.24
540.44	48669.10
540.61	48121.41
540.78	48222.06
540.95	48563.78
541.12	48563.78
541.29	48413.98
541.46	48559.09
541.62	48900.81
541.79	48910.17
541.96	48975.71
542.13	48846.98
542.30	48858.68
542.47	48659.74
542.63	48914.86
542.80	49118.48
542.97	49907.24
543.14	49708.30
543.31	49654.47
543.48	49373.60
543.64	50010.23
543.81	49663.83
543.98	49572.55
544.15	49312.75
544.32	49820.64
544.48	50204.49
544.65	49794.90
544.82	49916.61
544.99	49617.02
545.16	49954.05
545.32	49799.58
545.49	50124.91
545.66	50745.15
545.83	50312.16
546.00	50733.45
546.16	50480.67
546.33	50454.93
546.50	50361.31
546.67	50459.61
546.83	50042.99
547.00	50644.51
547.17	50061.72
547.34	49944.69
547.50	50513.44
547.67	50688.98
547.84	50637.49
548.00	50841.12
548.17	50986.23
548.34	50843.46
548.51	51281.14
548.67	50773.24
548.84	50742.81
549.01	50550.89
549.18	50707.71
549.34	50841.12
549.51	50951.12
549.68	50923.04
549.84	50674.94
550.01	50993.25
550.18	50649.19
550.34	50782.60
550.51	50817.71
550.68	51332.63
550.84	51014.32
551.01	51316.25
551.18	51374.76
551.34	50796.65
551.51	51075.17
551.68	51826.48
551.84	51136.02
552.01	51021.34
552.18	51271.78
552.34	51475.40
552.51	51936.49
552.68	51344.33
552.84	51569.02
553.01	51817.12
553.18	51281.14
553.34	51349.01
553.51	51737.54
553.67	51585.41
553.84	51920.10
554.01	52184.58
554.17	51999.68
554.34	51742.22
554.51	51859.25
554.67	51922.44
554.84	51796.06
555.00	51774.99
555.17	51870.95
555.33	51625.20
555.50	51760.95
555.67	51693.07
555.83	52210.33
556.00	51899.04
556.16	51810.10
556.33	52252.46
556.50	51849.89
556.66	51976.28
556.83	51536.26
556.99	52161.18
557.16	51992.66
557.32	52652.69
557.49	52467.79
557.65	51983.30
557.82	51985.64
557.98	52294.59
558.15	52133.09
558.32	52282.89
558.48	52273.52
558.65	52397.57
558.81	52247.78
558.98	52605.88
559.14	52458.43
559.31	52769.72
559.47	52418.64
559.64	52533.32
559.80	52395.23
559.97	52589.50
560.13	52507.58
560.30	52519.28
560.46	52722.91
560.63	52722.91
560.79	52959.30
560.96	53099.73
561.12	52554.39
561.29	52753.33
561.45	52533.32
561.61	52797.80
561.78	52636.31
561.94	52926.53
562.11	53371.24
562.27	53354.85
562.44	53071.65
562.60	53221.44
562.77	53113.78
562.93	52807.17
563.10	53085.69
563.26	52439.70
563.42	53024.84
563.59	53043.56
563.75	53291.66
563.92	53258.89
564.08	52989.73
564.24	52900.79
564.41	52956.96
564.57	53092.71
564.74	53036.54
564.90	53319.74
565.07	53240.17
565.23	53183.99
565.39	53331.45
565.56	53469.54
565.72	53059.94
565.88	53436.77
566.05	53289.32
566.21	53272.93
566.38	53048.24
566.54	53106.76
566.70	53230.80
566.87	53305.70
567.03	53474.22
567.19	54073.40
567.36	53738.70
567.52	53373.58
567.68	53352.51
567.85	53619.33
568.01	53504.65
568.17	53539.75
568.34	53734.02
568.50	53455.50
568.66	53631.04
568.83	53385.28
568.99	53771.47
569.15	53396.98
569.32	53729.34
569.48	53347.83
569.64	53511.67
569.81	52891.43
569.97	53209.74
570.13	53404.00
570.30	53560.82
570.46	53600.61
570.62	53558.48
570.78	53511.67
570.95	53492.94
571.11	53853.39
571.27	53778.49
571.43	53570.18
571.60	53666.14
571.76	53499.97
571.92	53528.05
572.09	53635.72
572.25	53869.77
572.41	53886.15
572.57	53790.19
572.74	54092.12
572.90	53703.59
573.06	53832.32
573.22	53771.47
573.38	53853.39
573.55	53673.16
573.71	54007.86
573.87	53916.58
574.03	53949.35
574.20	54068.72
574.36	53769.13
574.52	53640.40
574.68	53780.83
574.84	53951.69
575.01	53719.98
575.17	53855.73
575.33	54103.82
575.49	53895.52
575.65	54272.34
575.82	53972.75
575.98	54007.86
576.14	53853.39
576.30	54007.86
576.46	53656.78
576.62	54288.73
576.79	53902.54
576.95	53776.15
577.11	53965.73
577.27	54190.42
577.43	54108.50
577.59	54085.10
577.75	53951.69
577.92	53769.13
578.08	53727.00
578.24	53918.92
578.40	53900.20
578.56	53979.78
578.72	54052.33
578.88	54143.61
579.04	54192.76
579.21	54003.18
579.37	53928.28
579.53	54302.77
579.69	54246.60
579.85	54209.15
580.01	54291.07
580.17	54089.78
580.33	53972.75
580.49	54270.00
580.65	54349.58
580.82	54323.83
580.98	54272.34
581.14	53968.07
581.30	54445.54
581.46	53982.12
581.62	53970.41
581.78	54080.42
581.94	54045.31
582.10	54007.86
582.26	54195.10
582.42	54312.13
582.58	54145.95
582.74	53853.39
582.90	54438.52
583.06	54267.66
583.22	54246.60
583.38	54094.46
583.54	54010.20
583.70	54284.04
583.86	54651.51
584.02	54017.22
584.18	54363.62
584.34	54239.57
584.50	54529.80
584.66	54131.91
584.82	54258.30
584.98	54312.13
585.14	54443.20
585.30	54248.94
585.46	54223.19
585.62	54162.34
585.78	54487.67
585.94	54213.83
586.10	54410.43
586.26	54644.49
586.42	54342.56
586.58	54351.92
586.74	54115.53
586.90	53993.82
587.06	54162.34
587.22	54834.07
587.38	54295.75
587.54	54445.54
587.70	54354.26
587.86	54380.01
588.02	54644.49
588.18	54471.29
588.34	54438.52
588.49	54134.25
588.65	54195.10
