SpectraSuite Data File
++++++++++++++++++++++++++++++++++++
Date: Thu Oct 24 13:21:27 EDT 2013
User: stostad
Dark Spectrum Present: No
Reference Spectrum Present: No
Number of Sampled Component Spectra: 1
Spectrometers: USB2+H05261
Integration Time (usec): 100000 (USB2+H05261)
Spectra Averaged: 1 (USB2+H05261)
Boxcar Smoothing: 0 (USB2+H05261)
Correct for Electrical Dark: No (USB2+H05261)
Strobe/Lamp Enabled: No (USB2+H05261)
Correct for Detector Non-linearity: No (USB2+H05261)
Correct for Stray Light: No (USB2+H05261)
Number of Pixels in Processed Spectrum: 2048
>>>>>Begin Processed Spectral Data<<<<<
365.73	610.88
365.92	610.88
366.12	610.88
366.32	507.90
366.52	437.68
366.72	461.09
366.91	482.15
367.11	444.70
367.31	461.09
367.51	447.04
367.70	421.30
367.90	489.17
368.10	433.00
368.30	442.36
368.49	468.11
368.69	472.79
368.89	451.72
369.09	458.74
369.28	489.17
369.48	437.68
369.68	564.07
369.87	512.58
370.07	458.74
370.27	528.96
370.47	629.60
370.66	952.60
370.86	971.32
371.06	971.32
371.25	999.41
371.45	1027.50
371.65	1013.45
371.84	1006.43
372.04	1097.71
372.24	997.07
372.44	1046.22
372.63	1067.28
372.83	1107.07
373.03	1170.27
373.22	1156.22
373.42	1139.84
373.62	1046.22
373.81	1036.86
374.01	1130.48
374.21	1170.27
374.40	1125.80
374.60	1210.06
374.79	1165.59
374.99	1116.44
375.19	1160.91
375.38	1116.44
375.58	1158.57
375.78	1228.78
375.97	1135.16
376.17	1252.19
376.37	1231.12
376.56	1282.61
376.76	1219.42
376.95	1181.97
377.15	1259.21
377.35	1179.63
377.54	1221.76
377.74	1256.87
377.93	1294.32
378.13	1341.13
378.33	1327.08
378.52	1310.70
378.72	1359.85
378.91	1320.06
379.11	1282.61
379.31	1313.04
379.50	1280.27
379.70	1322.40
379.89	1430.07
380.09	1313.04
380.28	1315.38
380.48	1291.98
380.68	1242.82
380.87	1343.47
381.07	1397.30
381.26	1334.11
381.46	1411.34
381.65	1432.41
381.85	1338.79
382.04	1458.15
382.24	1448.79
382.43	1383.26
382.63	1397.30
382.83	1352.83
383.02	1376.24
383.22	1430.07
383.41	1479.22
383.61	1394.96
383.80	1556.46
384.00	1432.41
384.19	1495.60
384.39	1380.92
384.58	1425.39
384.78	1526.03
384.97	1577.52
385.17	1537.73
385.36	1458.15
385.56	1556.46
385.75	1563.48
385.95	1612.63
386.14	1563.48
386.34	1495.60
386.53	1544.75
386.72	1551.78
386.92	1647.74
387.11	1652.42
387.31	1629.01
387.50	1568.16
387.70	1626.67
387.89	1689.87
388.09	1593.90
388.28	1631.35
388.48	1739.02
388.67	1645.40
388.86	1764.76
389.06	1699.23
389.25	1696.89
389.45	1722.63
389.64	1727.32
389.84	1727.32
390.03	1748.38
390.22	1753.06
390.42	1792.85
390.61	1790.51
390.81	1863.07
391.00	1724.97
391.19	1724.97
391.39	1720.29
391.58	1806.89
391.78	1849.02
391.97	1952.01
392.16	1764.76
392.36	1905.20
392.55	1767.10
392.75	1905.20
392.94	1858.39
393.13	1926.26
393.33	1849.02
393.52	1984.77
393.71	1982.43
393.91	1942.64
394.10	1923.92
394.29	1994.14
394.49	1909.88
394.68	2005.84
394.88	2040.95
395.07	2066.69
395.26	2085.42
395.46	2085.42
395.65	2097.12
395.84	1987.11
396.04	2064.35
396.23	2136.91
396.42	2132.23
396.62	2183.72
396.81	2106.48
397.00	2073.71
397.19	2125.21
397.39	2204.78
397.58	2143.93
397.77	2202.44
397.97	2270.32
398.16	2197.76
398.35	2324.15
398.55	2176.70
398.74	2223.51
398.93	2305.43
399.12	2300.75
399.32	2310.11
399.51	2340.54
399.70	2392.03
399.90	2406.07
400.09	2342.88
400.28	2345.22
400.47	2464.58
400.67	2492.67
400.86	2356.92
401.05	2469.27
401.24	2565.23
401.44	2499.69
401.63	2544.16
401.82	2534.80
402.01	2534.80
402.21	2619.06
402.40	2614.38
402.59	2656.51
402.78	2691.62
402.97	2712.68
403.17	2595.65
403.36	2677.57
403.55	2658.85
403.74	2693.96
403.93	2651.83
404.13	2705.66
404.32	2822.69
404.51	2904.60
404.70	2818.00
404.89	2747.79
405.09	2881.20
405.28	2808.64
405.47	2855.45
405.66	2946.73
405.85	2942.05
406.05	2881.20
406.24	2937.37
406.43	2979.50
406.62	3133.98
406.81	3117.59
407.00	2949.08
407.20	2874.18
407.39	2979.50
407.58	3016.95
407.77	3169.09
407.96	3164.40
408.15	3164.40
408.34	3173.77
408.54	3157.38
408.73	3199.51
408.92	3307.18
409.11	3365.69
409.30	3304.84
409.49	3227.60
409.68	3428.88
409.87	3342.28
410.07	3442.93
410.26	3396.12
410.45	3494.42
410.64	3342.28
410.83	3473.36
411.02	3508.46
411.21	3529.53
411.40	3489.74
411.59	3548.25
411.78	3630.17
411.98	3529.53
412.17	3721.45
412.36	3630.17
412.55	3712.09
412.74	3707.41
412.93	3763.58
413.12	3850.18
413.31	3868.91
413.50	3843.16
413.69	3859.54
413.88	3864.22
414.07	3754.22
414.26	3875.93
414.45	4166.15
414.64	3953.16
414.83	4109.98
415.02	4107.64
415.22	4177.86
415.41	4276.16
415.60	4227.01
415.79	4395.53
415.98	4290.20
416.17	4299.56
416.36	4322.97
416.55	4411.91
416.74	4505.53
416.93	4390.84
417.12	4421.27
417.31	4493.83
417.50	4479.79
417.69	4718.52
417.88	4596.81
418.07	4587.45
418.26	4657.67
418.45	4631.92
418.64	4746.61
418.83	4786.40
419.02	4873.00
419.21	5036.83
419.39	4896.40
419.58	4816.82
419.77	4809.80
419.96	4903.42
420.15	5036.83
420.34	5032.15
420.53	4990.02
420.72	5083.64
420.91	5011.09
421.10	5146.84
421.29	5146.84
421.48	5013.43
421.67	5203.01
421.86	5111.73
422.05	5064.92
422.24	5123.43
422.43	5165.56
422.61	5275.57
422.80	5313.02
422.99	5200.67
423.18	5301.31
423.37	5329.40
423.56	5210.03
423.75	5308.34
423.94	5231.10
424.13	5006.41
424.32	5076.62
424.50	5317.70
424.69	5460.47
424.88	5467.49
425.07	5472.17
425.26	5233.44
425.45	5210.03
425.64	5472.17
425.83	5266.21
426.01	5399.62
426.20	5444.09
426.39	5451.11
426.58	5481.53
426.77	5341.10
426.96	5305.99
427.15	5413.66
427.33	5605.58
427.52	5575.16
427.71	5776.44
427.90	5476.85
428.09	5612.60
428.28	5643.03
428.46	5668.78
428.65	5577.50
428.84	5856.02
429.03	5856.02
429.22	5668.78
429.40	5839.64
429.59	5816.23
429.78	5774.10
429.97	5640.69
430.16	5940.28
430.34	5959.00
430.53	6057.31
430.72	6047.94
430.91	5977.73
431.10	5963.68
431.28	6066.67
431.47	6071.35
431.66	6136.88
431.85	6094.76
432.03	6267.95
432.22	6349.87
432.41	6136.88
432.60	6270.30
432.79	6258.59
432.97	6321.79
433.16	6356.90
433.35	6251.57
433.54	6293.70
433.72	6394.34
433.91	6509.03
434.10	6422.43
434.28	6450.52
434.47	6565.20
434.66	6672.87
434.85	6623.72
435.03	6902.24
435.22	6654.14
435.41	7178.42
435.59	6909.26
435.78	7000.54
435.97	6911.60
436.16	6590.95
436.34	6803.94
436.53	6832.02
436.72	7140.97
436.90	6703.29
437.09	7009.90
437.28	6787.55
437.46	7009.90
437.65	6935.01
437.84	6944.37
438.02	6995.86
438.21	7040.33
438.40	7014.59
438.58	7253.32
438.77	7382.05
438.96	7208.85
439.14	7527.16
439.33	7578.65
439.52	7655.89
439.70	7426.52
439.89	7695.68
440.08	7824.41
440.26	7719.09
440.45	7871.22
440.63	7665.25
440.82	7875.90
441.01	7646.53
441.19	7873.56
441.38	7843.14
441.57	8002.29
441.75	8016.33
441.94	8353.37
442.12	8184.85
442.31	8362.73
442.50	8339.33
442.68	8299.54
442.87	8248.05
443.05	8283.16
443.24	8585.08
443.43	8470.40
443.61	8559.34
443.80	8704.45
443.98	8311.24
444.17	7978.89
444.35	8557.00
444.54	8587.43
444.73	8617.85
444.91	8678.71
445.10	8774.67
445.28	8711.47
445.47	8606.15
445.65	8657.64
445.84	8664.66
446.02	8830.84
446.21	8856.59
446.39	8784.03
446.58	8741.90
446.77	8919.78
446.95	8557.00
447.14	8631.90
447.32	8779.35
447.51	8760.63
447.69	8858.93
447.88	8772.33
448.06	8812.12
448.25	8784.03
448.43	8905.74
448.62	8903.40
448.80	8851.91
448.99	9032.13
449.17	8973.61
449.36	8971.27
449.54	9289.59
449.73	9338.74
449.91	9329.38
450.10	9195.96
450.28	9366.82
450.46	9376.19
450.65	9474.49
450.83	9518.96
451.02	9540.02
451.20	9544.70
451.39	9455.76
451.57	9514.28
451.76	9408.95
451.94	9703.86
452.13	9713.22
452.31	9659.39
452.49	9462.79
452.68	9589.17
452.86	9748.33
453.05	9816.21
453.23	9966.00
453.42	9694.50
453.60	9533.00
453.78	10090.05
453.97	9961.32
454.15	9818.55
454.34	9706.20
454.52	9987.07
454.70	9947.28
454.89	10125.16
455.07	10059.62
455.26	10211.76
455.44	10377.94
455.62	10324.10
455.81	10223.46
455.99	10370.91
456.17	10195.37
456.36	10464.54
456.54	10494.96
456.73	10677.52
456.91	10738.38
457.09	10700.93
457.28	10583.90
457.46	10642.42
457.64	10890.51
457.83	10766.46
458.01	10759.44
458.19	11215.85
458.38	10822.64
458.56	10693.91
458.74	11026.26
458.93	11012.22
459.11	11360.96
459.29	11000.52
459.48	10949.03
459.66	10918.60
459.84	11304.79
460.03	11389.05
460.21	11438.20
460.39	11178.40
460.57	11169.04
460.76	11459.26
460.94	11339.90
461.12	11510.75
461.31	11365.64
461.49	11508.41
461.67	11534.16
461.85	11583.31
462.04	11712.04
462.22	12028.01
462.40	11948.43
462.59	11903.96
462.77	11700.34
462.95	12142.70
463.13	11969.50
463.32	11871.20
463.50	12053.76
463.68	12074.82
463.86	12123.98
464.05	11964.82
464.23	11962.48
464.41	12060.78
464.59	11845.45
464.78	12568.68
464.96	12351.01
465.14	12049.08
465.32	12437.61
465.50	12224.62
465.69	12369.73
465.87	12526.55
466.05	12521.87
466.23	12507.82
466.41	12453.99
466.60	12985.29
466.78	12521.87
466.96	12379.09
467.14	12442.29
467.32	12858.90
467.51	12788.69
467.69	12751.24
467.87	12697.41
468.05	12886.99
468.23	12788.69
468.41	12716.13
468.60	12912.74
468.78	12982.95
468.96	13018.06
469.14	13186.58
469.32	13254.45
469.50	12994.65
469.69	13013.38
469.87	13593.83
470.05	13446.38
470.23	13432.33
470.41	13273.18
470.59	13647.66
470.77	13497.87
470.95	13198.28
471.14	13736.60
471.32	13645.32
471.50	13748.31
471.68	13825.54
471.86	14001.08
472.04	14178.97
472.22	14160.24
472.40	14200.03
472.58	14108.75
472.77	14183.65
472.95	14162.58
473.13	14675.16
473.31	14480.89
473.49	14464.51
473.67	14267.91
473.85	14417.70
474.03	14934.96
474.21	15183.06
474.39	15161.99
474.57	15014.54
474.75	15033.26
474.93	15180.71
475.12	15042.62
475.30	15421.79
475.48	15316.47
475.66	15627.76
475.84	15204.12
476.02	15543.50
476.20	15648.82
476.38	16013.95
476.56	16395.45
476.74	16198.85
476.92	16334.60
477.10	16240.98
477.28	16484.39
477.46	16306.51
477.64	16683.34
477.82	16725.47
478.00	17186.55
478.18	17090.59
478.36	17352.73
478.54	17324.65
478.72	17502.53
478.90	17678.07
479.08	17893.40
479.26	17954.25
479.44	17949.57
479.62	18291.29
479.80	18508.96
479.98	18476.19
480.16	19000.47
480.34	18637.69
480.52	18745.35
480.70	18838.97
480.88	18527.68
481.06	19080.05
481.24	18895.14
481.41	19405.38
481.59	19541.13
481.77	19859.45
481.95	19824.34
482.13	20119.24
482.31	20166.06
482.49	20496.07
482.67	20805.02
482.85	20671.61
483.03	20957.16
483.21	21104.61
483.39	21404.20
483.57	21062.48
483.74	21383.13
483.92	21612.51
484.10	22001.04
484.28	22003.38
484.46	22115.72
484.64	22731.28
484.82	22143.81
485.00	22869.37
485.18	22717.24
485.35	23433.44
485.53	23632.39
485.71	23660.48
485.89	23651.11
486.07	23885.17
486.25	23784.52
486.43	23871.12
486.61	24315.83
486.78	24648.18
486.96	24861.17
487.14	25207.57
487.32	24669.25
487.50	25252.04
487.68	25380.77
487.85	25745.89
488.03	25879.30
488.21	25963.56
488.39	25977.61
488.57	26525.29
488.75	26258.47
488.92	26874.03
489.10	27260.22
489.28	27229.79
489.46	27899.19
489.64	27505.98
489.81	28016.21
489.99	27922.59
490.17	28016.21
490.35	28706.67
490.53	28533.47
490.70	28643.48
490.88	28847.10
491.06	29078.82
491.24	29069.45
491.41	29209.89
491.59	29619.48
491.77	29993.97
491.95	30293.55
492.13	30148.44
492.30	30520.59
492.48	30246.74
492.66	30581.44
492.84	30801.45
493.01	31274.24
493.19	31026.14
493.37	31285.94
493.54	31431.05
493.72	31658.09
493.90	31901.50
494.08	32290.03
494.25	32414.08
494.43	32271.31
494.61	32889.21
494.79	32371.95
494.96	32517.06
495.14	33102.20
495.32	33230.93
495.49	33731.80
495.67	33457.96
495.85	33991.60
496.02	34295.87
496.20	34387.15
496.38	34553.33
496.55	34476.09
496.73	35101.01
496.91	34913.77
497.09	35358.47
497.26	35028.46
497.44	34897.39
497.62	35353.79
497.79	35873.39
497.97	35620.61
498.14	36430.44
498.32	36446.82
498.50	36659.81
498.67	36472.57
498.85	36390.65
499.03	36893.86
499.20	37251.97
499.38	37390.06
499.56	37043.66
499.73	37303.46
499.91	37385.38
500.08	37521.13
500.26	37734.12
500.44	37865.19
500.61	38359.04
500.79	38054.77
500.97	38232.65
501.14	39409.94
501.32	38639.90
501.49	38836.51
501.67	39086.95
501.84	39248.44
502.02	38696.08
502.20	39075.24
502.37	39866.34
502.55	39445.05
502.72	39349.09
502.90	40018.48
503.07	39938.90
503.25	40521.69
503.43	39981.03
503.60	40451.48
503.78	40648.08
503.95	40421.05
504.13	40704.26
504.30	40774.47
504.48	40421.05
504.65	41170.02
504.83	40900.86
505.01	41394.71
505.18	41750.48
505.36	41605.36
505.53	41771.54
505.71	41755.16
505.88	42094.53
506.06	41771.54
506.23	42394.12
506.41	42124.96
506.58	42129.64
506.76	42249.01
506.93	42747.54
507.11	43009.68
507.28	42873.93
507.46	43012.02
507.63	43133.73
507.81	43452.05
507.98	42742.86
508.16	43243.74
508.33	43650.99
508.50	43538.65
508.68	43852.28
508.85	43908.45
509.03	43765.68
509.20	43798.44
509.38	44186.97
509.55	44423.37
509.73	44538.05
509.90	44683.17
510.08	44830.62
510.25	44898.50
510.42	44683.17
510.60	44699.55
510.77	45364.26
510.95	45703.64
511.12	45425.12
511.30	45584.27
511.47	46176.43
511.64	45490.65
511.82	46122.60
511.99	45673.21
512.17	45928.33
512.34	46410.48
512.51	46827.10
512.69	46890.29
512.86	46270.05
513.04	46838.80
513.21	46916.04
513.38	46899.65
513.56	47098.60
513.73	47016.68
513.90	47133.71
514.08	47070.51
514.25	47232.01
514.43	48039.50
514.60	47868.64
514.77	47688.42
514.95	47901.40
515.12	47599.47
515.29	47880.34
515.47	48030.13
515.64	48266.53
515.81	47995.03
515.99	48498.24
516.16	48903.15
516.33	48156.52
516.51	48884.43
516.68	48875.07
516.85	48898.47
517.03	48736.98
517.20	49097.42
517.37	48905.49
517.54	48910.17
517.72	49090.40
517.89	48928.90
518.06	49457.86
518.24	49682.55
518.41	49668.51
518.58	49673.19
518.75	49118.48
518.93	49677.87
519.10	49172.31
519.27	50277.05
519.45	49954.05
519.62	49872.14
519.79	50017.25
519.96	50045.33
520.14	50270.03
520.31	50094.49
520.48	50117.89
520.65	50475.99
520.83	50712.39
521.00	50965.17
521.17	50642.17
521.34	50897.29
521.52	50941.76
521.69	51049.42
521.86	51143.05
522.03	50969.85
522.20	51084.53
522.38	51557.32
522.55	51627.54
522.72	51484.76
522.89	51292.84
523.07	51683.71
523.24	51538.60
523.41	51744.56
523.58	51468.38
523.75	52109.69
523.92	52130.75
524.10	52219.69
524.27	52439.70
524.44	51746.90
524.61	52442.04
524.78	52397.57
524.96	52348.42
525.13	52444.38
525.30	52863.34
525.47	52678.44
525.64	52683.12
525.81	52575.45
525.98	52559.07
526.16	52486.51
526.33	52776.74
526.50	52994.41
526.67	53130.16
526.84	53310.38
527.01	53041.22
527.18	53347.83
527.36	53092.71
527.53	53198.04
527.70	53254.21
527.87	53558.48
528.04	53673.16
528.21	53645.08
528.38	53689.55
528.55	53815.94
528.72	53443.79
528.89	53546.78
529.07	53727.00
529.24	53879.13
529.41	53972.75
529.58	53876.79
529.75	53848.71
529.92	54157.66
530.09	53773.81
530.26	54183.40
530.43	54188.08
530.60	53993.82
530.77	54045.31
530.94	54141.27
531.11	54394.05
531.28	54300.43
531.46	54550.87
531.63	54391.71
531.80	54478.31
531.97	54534.48
532.14	54391.71
532.31	54375.33
532.48	54927.69
532.65	54850.45
532.82	54560.23
532.99	54770.88
533.16	54438.52
533.33	54939.39
533.50	55318.56
533.67	54955.78
533.84	55063.44
534.01	54939.39
534.18	55037.70
534.35	55381.76
534.52	55136.00
534.69	55241.32
534.86	55100.89
535.03	55238.98
535.20	55461.33
535.37	55316.22
535.54	55828.80
535.71	55339.63
535.88	55559.64
536.05	55489.42
536.22	55667.30
536.38	55789.01
536.55	55798.37
536.72	55962.21
536.89	55781.99
537.06	55796.03
537.23	56212.65
537.40	56097.96
537.57	55966.89
537.74	55873.27
537.91	56039.45
538.08	56158.81
538.25	55959.87
538.42	56128.39
538.59	56109.66
538.75	56151.79
538.92	56303.93
539.09	56388.19
539.26	56301.59
539.43	56381.16
539.60	56446.70
539.77	56526.28
539.94	56706.50
540.11	56584.79
540.28	56708.84
540.44	56395.21
540.61	56734.59
540.78	56673.73
540.95	56875.02
541.12	56629.26
541.29	56863.32
541.46	57111.41
541.62	56893.74
541.79	57144.18
541.96	56568.41
542.13	56994.39
542.30	56891.40
542.47	56849.27
542.63	57301.00
542.80	57310.36
542.97	57432.07
543.14	57441.43
543.31	57584.20
543.48	57364.19
543.64	57598.24
543.81	57537.39
543.98	57532.71
544.15	57518.67
544.32	57621.65
544.48	57801.87
544.65	57771.44
544.82	57890.81
544.99	57483.56
545.16	57844.00
545.32	57801.87
545.49	57937.62
545.66	58342.53
545.83	58216.14
546.00	58387.00
546.16	58145.93
546.33	58078.05
546.50	58047.63
546.67	58131.89
546.83	57811.23
547.00	57750.38
547.17	57499.94
547.34	58024.22
547.50	58185.72
547.67	58494.67
547.84	58232.53
548.00	58511.05
548.17	58607.01
548.34	58309.77
548.51	58372.96
548.67	58431.47
548.84	58199.76
549.01	58183.38
549.18	58314.45
549.34	58403.39
549.51	58520.41
549.68	58583.61
549.84	58710.00
550.01	58379.98
550.18	58403.39
550.34	58351.90
550.51	58585.95
550.68	58698.30
550.84	58550.84
551.01	58726.38
551.18	58705.32
551.34	58588.29
551.51	58719.36
551.68	58836.39
551.84	58801.28
552.01	58710.00
552.18	58915.96
552.34	58667.87
552.51	59133.63
552.68	58915.96
552.84	59114.91
553.01	59189.81
553.18	59002.56
553.34	58993.20
553.51	58773.19
553.67	58972.14
553.84	59444.93
554.01	59091.51
554.17	59262.36
554.34	59110.23
554.51	59316.20
554.67	59196.83
554.84	59173.42
555.00	59189.81
555.17	59042.35
555.33	59192.15
555.50	59269.39
555.67	59325.56
555.83	59274.07
556.00	59571.32
556.16	59536.21
556.33	59274.07
556.50	59377.05
556.66	59643.87
556.83	59494.08
556.99	59597.06
557.16	59690.68
557.32	59753.88
557.49	59718.77
557.65	59625.15
557.82	59660.26
557.98	59742.17
558.15	59468.33
558.32	59559.61
558.48	59461.31
558.65	59688.34
558.81	59788.98
558.98	59695.36
559.14	59742.17
559.31	59866.22
559.47	59690.68
559.64	59770.26
559.80	59779.62
559.97	59821.75
560.13	59807.71
560.30	59873.24
560.46	59917.71
560.63	59927.08
560.79	60163.47
560.96	60016.02
561.12	59894.31
561.29	59896.65
561.45	59971.55
561.61	60158.79
561.78	60027.72
561.94	60111.98
562.11	60219.64
562.27	60060.49
562.44	60072.19
562.60	60271.14
562.77	60472.42
562.93	60001.97
563.10	60191.56
563.26	59950.48
563.42	60371.78
563.59	60149.43
563.75	60107.30
563.92	60411.57
564.08	60275.82
564.24	60221.98
564.41	60184.54
564.57	60212.62
564.74	60142.41
564.90	60299.22
565.07	60250.07
565.23	60306.24
565.39	60308.58
565.56	60645.62
565.72	60486.46
565.88	60495.83
566.05	60432.63
566.21	60308.58
566.38	60313.26
566.54	60350.71
566.70	60392.84
566.87	60495.83
567.03	60626.90
567.19	60900.74
567.36	60645.62
567.52	60339.01
567.68	60622.22
567.85	60472.42
568.01	60598.81
568.17	60491.15
568.34	60467.74
568.50	60556.68
568.66	60526.25
568.83	60624.56
568.99	60587.11
569.15	60559.02
569.32	60645.62
569.48	60430.29
569.64	60589.45
569.81	60430.29
569.97	60317.95
570.13	60598.81
570.30	60715.84
570.46	60631.58
570.62	60807.12
570.78	60708.82
570.95	60617.53
571.11	60786.05
571.27	60671.37
571.43	60584.77
571.60	60741.58
571.76	60650.30
571.92	60640.94
572.09	60896.06
572.25	60940.53
572.41	60786.05
572.57	60629.24
572.74	61095.00
572.90	60743.92
573.06	60687.75
573.22	60654.98
573.38	60970.96
573.55	60746.26
573.71	60982.66
573.87	60928.83
574.03	60739.24
574.20	60980.32
574.36	60732.22
574.52	60807.12
574.68	60781.37
574.84	60898.40
575.01	60783.71
575.17	61073.94
575.33	60844.57
575.49	60886.70
575.65	61090.32
575.82	61069.26
575.98	60556.68
576.14	61130.11
576.30	61123.09
576.46	60938.19
576.62	60779.03
576.79	60781.37
576.95	60559.02
577.11	61006.06
577.27	61069.26
577.43	61092.66
577.59	60795.42
577.75	60996.70
577.92	60772.01
578.08	60872.65
578.24	60999.04
578.40	61057.56
578.56	61073.94
578.72	61071.60
578.88	61209.69
579.04	61165.22
579.21	61073.94
579.37	60975.64
579.53	61256.50
579.69	60973.30
579.85	61052.87
580.01	61109.05
580.17	61134.79
580.33	61160.54
580.49	61212.03
580.65	61219.05
580.82	61095.00
580.98	61165.22
581.14	61095.00
581.30	61209.69
581.46	61123.09
581.62	61111.39
581.78	60825.84
581.94	61223.73
582.10	60889.04
582.26	61291.61
582.42	60945.21
582.58	61066.92
582.74	61219.05
582.90	61396.93
583.06	61038.83
583.22	61022.45
583.38	61066.92
583.54	60956.91
583.70	61186.28
583.86	61146.50
584.02	61087.98
584.18	61200.33
584.34	61319.70
584.50	61296.29
584.66	61041.17
584.82	61312.67
584.98	61209.69
585.14	61015.43
585.30	61167.56
585.46	61205.01
585.62	61027.13
585.78	61347.78
585.94	61059.90
586.10	61251.82
586.26	61099.68
586.42	61443.74
586.58	61322.04
586.74	61275.22
586.90	60924.14
587.06	61076.28
587.22	61542.05
587.38	61448.42
587.54	61467.15
587.70	61551.41
587.86	61450.77
