SpectraSuite Data File
++++++++++++++++++++++++++++++++++++
Date: Thu Oct 24 13:20:59 EDT 2013
User: stostad
Dark Spectrum Present: No
Reference Spectrum Present: No
Number of Sampled Component Spectra: 1
Spectrometers: USB2+H05261
Integration Time (usec): 100000 (USB2+H05261)
Spectra Averaged: 1 (USB2+H05261)
Boxcar Smoothing: 0 (USB2+H05261)
Correct for Electrical Dark: No (USB2+H05261)
Strobe/Lamp Enabled: No (USB2+H05261)
Correct for Detector Non-linearity: No (USB2+H05261)
Correct for Stray Light: No (USB2+H05261)
Number of Pixels in Processed Spectrum: 2048
>>>>>Begin Processed Spectral Data<<<<<
365.73	587.47
365.92	587.47
366.12	587.47
366.32	411.93
366.52	475.13
366.72	395.55
366.91	437.68
367.11	491.51
367.31	486.83
367.51	507.90
367.70	503.22
367.90	512.58
368.10	440.02
368.30	404.91
368.49	414.27
368.69	484.49
368.89	447.04
369.09	477.47
369.28	482.15
369.48	507.90
369.68	543.00
369.87	484.49
370.07	454.06
370.27	484.49
370.47	512.58
370.66	559.39
370.86	500.87
371.06	547.69
371.25	599.18
371.45	585.13
371.65	622.58
371.84	641.31
372.04	627.26
372.24	674.07
372.44	498.53
372.63	578.11
372.83	568.75
373.03	638.97
373.22	599.18
373.42	655.35
373.62	573.43
373.81	624.92
374.01	678.76
374.21	613.22
374.40	631.94
374.60	702.16
374.79	653.01
374.99	634.29
375.19	660.03
375.38	540.66
375.58	613.22
375.78	641.31
375.97	603.86
376.17	664.71
376.37	587.47
376.56	622.58
376.76	627.26
376.95	599.18
377.15	695.14
377.35	627.26
377.54	601.52
377.74	559.39
377.93	596.84
378.13	606.20
378.33	669.39
378.52	622.58
378.72	655.35
378.91	657.69
379.11	615.56
379.31	615.56
379.50	622.58
379.70	648.33
379.89	610.88
380.09	582.79
380.28	634.29
380.48	650.67
380.68	624.92
380.87	638.97
381.07	711.52
381.26	653.01
381.46	610.88
381.65	608.54
381.85	627.26
382.04	643.65
382.24	596.84
382.43	636.63
382.63	587.47
382.83	561.73
383.02	578.11
383.22	575.77
383.41	610.88
383.61	615.56
383.80	660.03
384.00	634.29
384.19	615.56
384.39	624.92
384.58	662.37
384.78	615.56
384.97	599.18
385.17	585.13
385.36	664.71
385.56	641.31
385.75	653.01
385.95	634.29
386.14	589.82
386.34	620.24
386.53	674.07
386.72	660.03
386.92	685.78
387.11	617.90
387.31	638.97
387.50	603.86
387.70	610.88
387.89	657.69
388.09	613.22
388.28	622.58
388.48	575.77
388.67	660.03
388.86	638.97
389.06	566.41
389.25	624.92
389.45	594.50
389.64	636.63
389.84	620.24
390.03	697.48
390.22	613.22
390.42	662.37
390.61	627.26
390.81	587.47
391.00	697.48
391.19	657.69
391.39	641.31
391.58	620.24
391.78	678.76
391.97	603.86
392.16	617.90
392.36	634.29
392.55	641.31
392.75	587.47
392.94	552.37
393.13	657.69
393.33	596.84
393.52	695.14
393.71	671.73
393.91	624.92
394.10	615.56
394.29	641.31
394.49	596.84
394.68	594.50
394.88	638.97
395.07	550.03
395.26	592.16
395.46	575.77
395.65	587.47
395.84	655.35
396.04	617.90
396.23	657.69
396.42	662.37
396.62	613.22
396.81	653.01
397.00	610.88
397.19	606.20
397.39	615.56
397.58	678.76
397.77	631.94
397.97	608.54
398.16	596.84
398.35	615.56
398.55	653.01
398.74	624.92
398.93	690.46
399.12	592.16
399.32	617.90
399.51	629.60
399.70	683.44
399.90	615.56
400.09	564.07
400.28	587.47
400.47	645.99
400.67	660.03
400.86	685.78
401.05	648.33
401.24	571.09
401.44	585.13
401.63	697.48
401.82	634.29
402.01	671.73
402.21	641.31
402.40	636.63
402.59	585.13
402.78	638.97
402.97	622.58
403.17	638.97
403.36	704.50
403.55	524.28
403.74	601.52
403.93	758.33
404.13	751.31
404.32	624.92
404.51	699.82
404.70	676.41
404.89	571.09
405.09	655.35
405.28	641.31
405.47	617.90
405.66	664.71
405.85	650.67
406.05	638.97
406.24	615.56
406.43	610.88
406.62	695.14
406.81	648.33
407.00	620.24
407.20	624.92
407.39	594.50
407.58	587.47
407.77	603.86
407.96	664.71
408.15	571.09
408.34	681.10
408.54	624.92
408.73	643.65
408.92	613.22
409.11	678.76
409.30	613.22
409.49	662.37
409.68	657.69
409.87	629.60
410.07	622.58
410.26	589.82
410.45	599.18
410.64	585.13
410.83	566.41
411.02	613.22
411.21	660.03
411.40	645.99
411.59	608.54
411.78	702.16
411.98	606.20
412.17	617.90
412.36	540.66
412.55	615.56
412.74	613.22
412.93	697.48
413.12	615.56
413.31	636.63
413.50	664.71
413.69	641.31
413.88	615.56
414.07	685.78
414.26	648.33
414.45	676.41
414.64	580.45
414.83	617.90
415.02	648.33
415.22	585.13
415.41	660.03
415.60	582.79
415.79	620.24
415.98	662.37
416.17	578.11
416.36	592.16
416.55	622.58
416.74	674.07
416.93	575.77
417.12	580.45
417.31	615.56
417.50	629.60
417.69	624.92
417.88	617.90
418.07	622.58
418.26	624.92
418.45	636.63
418.64	599.18
418.83	603.86
419.02	664.71
419.21	664.71
419.39	748.97
419.58	631.94
419.77	631.94
419.96	629.60
420.15	732.59
420.34	657.69
420.53	617.90
420.72	685.78
420.91	603.86
421.10	660.03
421.29	606.20
421.48	681.10
421.67	683.44
421.86	667.05
422.05	592.16
422.24	599.18
422.43	620.24
422.61	599.18
422.80	599.18
422.99	655.35
423.18	629.60
423.37	683.44
423.56	627.26
423.75	627.26
423.94	564.07
424.13	610.88
424.32	613.22
424.50	603.86
424.69	608.54
424.88	664.71
425.07	669.39
425.26	713.86
425.45	653.01
425.64	702.16
425.83	629.60
426.01	624.92
426.20	674.07
426.39	587.47
426.58	655.35
426.77	723.23
426.96	613.22
427.15	601.52
427.33	617.90
427.52	599.18
427.71	638.97
427.90	615.56
428.09	648.33
428.28	571.09
428.46	575.77
428.65	592.16
428.84	671.73
429.03	737.27
429.22	615.56
429.40	573.43
429.59	629.60
429.78	678.76
429.97	655.35
430.16	643.65
430.34	650.67
430.53	575.77
430.72	638.97
430.91	655.35
431.10	610.88
431.28	634.29
431.47	709.18
431.66	601.52
431.85	622.58
432.03	653.01
432.22	704.50
432.41	650.67
432.60	655.35
432.79	620.24
432.97	636.63
433.16	667.05
433.35	641.31
433.54	629.60
433.72	727.91
433.91	643.65
434.10	638.97
434.28	704.50
434.47	664.71
434.66	648.33
434.85	681.10
435.03	786.42
435.22	1018.13
435.41	1050.90
435.59	973.66
435.78	973.66
435.97	877.70
436.16	765.36
436.34	688.12
436.53	657.69
436.72	655.35
436.90	671.73
437.09	589.82
437.28	557.05
437.46	629.60
437.65	648.33
437.84	690.46
438.02	681.10
438.21	601.52
438.40	667.05
438.58	587.47
438.77	580.45
438.96	648.33
439.14	622.58
439.33	601.52
439.52	610.88
439.70	641.31
439.89	603.86
440.08	643.65
440.26	664.71
440.45	650.67
440.63	613.22
440.82	681.10
441.01	662.37
441.19	592.16
441.38	622.58
441.57	613.22
441.75	697.48
441.94	629.60
442.12	599.18
442.31	667.05
442.50	606.20
442.68	531.30
442.87	601.52
443.05	629.60
443.24	648.33
443.43	671.73
443.61	631.94
443.80	592.16
443.98	606.20
444.17	645.99
444.35	610.88
444.54	671.73
444.73	678.76
444.91	613.22
445.10	624.92
445.28	622.58
445.47	599.18
445.65	641.31
445.84	559.39
446.02	739.61
446.21	641.31
446.39	631.94
446.58	688.12
446.77	655.35
446.95	660.03
447.14	648.33
447.32	585.13
447.51	669.39
447.69	629.60
447.88	580.45
448.06	655.35
448.25	617.90
448.43	624.92
448.62	645.99
448.80	650.67
448.99	648.33
449.17	629.60
449.36	692.80
449.54	671.73
449.73	650.67
449.91	669.39
450.10	615.56
450.28	704.50
450.46	660.03
450.65	617.90
450.83	596.84
451.02	664.71
451.20	624.92
451.39	671.73
451.57	641.31
451.76	606.20
451.94	636.63
452.13	653.01
452.31	671.73
452.49	751.31
452.68	594.50
452.86	629.60
453.05	650.67
453.23	634.29
453.42	678.76
453.60	587.47
453.78	660.03
453.97	594.50
454.15	613.22
454.34	645.99
454.52	631.94
454.70	660.03
454.89	631.94
455.07	690.46
455.26	631.94
455.44	725.57
455.62	634.29
455.81	568.75
455.99	699.82
456.17	645.99
456.36	568.75
456.54	655.35
456.73	608.54
456.91	681.10
457.09	730.25
457.28	683.44
457.46	631.94
457.64	627.26
457.83	580.45
458.01	655.35
458.19	645.99
458.38	638.97
458.56	606.20
458.74	676.41
458.93	674.07
459.11	681.10
459.29	613.22
459.48	636.63
459.66	617.90
459.84	692.80
460.03	734.93
460.21	660.03
460.39	599.18
460.57	629.60
460.76	631.94
460.94	653.01
461.12	559.39
461.31	678.76
461.49	699.82
461.67	613.22
461.85	697.48
462.04	615.56
462.22	936.21
462.40	582.79
462.59	669.39
462.77	596.84
462.95	638.97
463.13	629.60
463.32	641.31
463.50	636.63
463.68	650.67
463.86	641.31
464.05	645.99
464.23	674.07
464.41	594.50
464.59	559.39
464.78	634.29
464.96	613.22
465.14	601.52
465.32	617.90
465.50	655.35
465.69	627.26
465.87	650.67
466.05	681.10
466.23	601.52
466.41	641.31
466.60	650.67
466.78	681.10
466.96	636.63
467.14	620.24
467.32	638.97
467.51	683.44
467.69	603.86
467.87	695.14
468.05	613.22
468.23	653.01
468.41	662.37
468.60	671.73
468.78	622.58
468.96	669.39
469.14	589.82
469.32	585.13
469.50	624.92
469.69	650.67
469.87	669.39
470.05	697.48
470.23	660.03
470.41	695.14
470.59	657.69
470.77	571.09
470.95	564.07
471.14	641.31
471.32	657.69
471.50	674.07
471.68	655.35
471.86	645.99
472.04	615.56
472.22	660.03
472.40	554.71
472.58	610.88
472.77	667.05
472.95	629.60
473.13	624.92
473.31	650.67
473.49	620.24
473.67	627.26
473.85	615.56
474.03	599.18
474.21	594.50
474.39	620.24
474.57	697.48
474.75	615.56
474.93	610.88
475.12	573.43
475.30	599.18
475.48	669.39
475.66	615.56
475.84	667.05
476.02	657.69
476.20	589.82
476.38	596.84
476.56	699.82
476.74	636.63
476.92	667.05
477.10	636.63
477.28	727.91
477.46	617.90
477.64	664.71
477.82	624.92
478.00	678.76
478.18	643.65
478.36	638.97
478.54	702.16
478.72	571.09
478.90	645.99
479.08	681.10
479.26	608.54
479.44	552.37
479.62	662.37
479.80	674.07
479.98	641.31
480.16	669.39
480.34	624.92
480.52	606.20
480.70	655.35
480.88	683.44
481.06	669.39
481.24	636.63
481.41	634.29
481.59	641.31
481.77	706.84
481.95	671.73
482.13	791.10
482.31	662.37
482.49	645.99
482.67	657.69
482.85	683.44
483.03	641.31
483.21	725.57
483.39	676.41
483.57	641.31
483.74	681.10
483.92	704.50
484.10	683.44
484.28	725.57
484.46	706.84
484.64	683.44
484.82	706.84
485.00	706.84
485.18	699.82
485.35	660.03
485.53	718.54
485.71	732.59
485.89	744.29
486.07	767.70
486.25	746.63
486.43	760.67
486.61	718.54
486.78	690.46
486.96	711.52
487.14	751.31
487.32	720.88
487.50	678.76
487.68	741.95
487.85	760.67
488.03	664.71
488.21	711.52
488.39	662.37
488.57	704.50
488.75	765.36
488.92	786.42
489.10	748.97
489.28	765.36
489.46	699.82
489.64	674.07
489.81	692.80
489.99	765.36
490.17	674.07
490.35	688.12
490.53	727.91
490.70	755.99
490.88	706.84
491.06	723.23
491.24	753.65
491.41	711.52
491.59	709.18
491.77	702.16
491.95	688.12
492.13	683.44
492.30	667.05
492.48	727.91
492.66	716.20
492.84	753.65
493.01	711.52
493.19	704.50
493.37	683.44
493.54	711.52
493.72	706.84
493.90	688.12
494.08	674.07
494.25	720.88
494.43	692.80
494.61	692.80
494.79	662.37
494.96	690.46
495.14	730.25
495.32	695.14
495.49	704.50
495.67	681.10
495.85	704.50
496.02	645.99
496.20	603.86
496.38	681.10
496.55	711.52
496.73	699.82
496.91	627.26
497.09	704.50
497.26	795.78
497.44	641.31
497.62	685.78
497.79	704.50
497.97	657.69
498.14	734.93
498.32	709.18
498.50	641.31
498.67	603.86
498.85	676.41
499.03	648.33
499.20	683.44
499.38	573.43
499.56	690.46
499.73	669.39
499.91	638.97
500.08	681.10
500.26	681.10
500.44	688.12
500.61	709.18
500.79	641.31
500.97	648.33
501.14	692.80
501.32	699.82
501.49	695.14
501.67	669.39
501.84	657.69
502.02	599.18
502.20	674.07
502.37	685.78
502.55	641.31
502.72	702.16
502.90	676.41
503.07	690.46
503.25	664.71
503.43	634.29
503.60	653.01
503.78	732.59
503.95	613.22
504.13	617.90
504.30	662.37
504.48	669.39
504.65	723.23
504.83	664.71
505.01	667.05
505.18	650.67
505.36	655.35
505.53	594.50
505.71	613.22
505.88	636.63
506.06	678.76
506.23	638.97
506.41	648.33
506.58	678.76
506.76	636.63
506.93	758.33
507.11	690.46
507.28	692.80
507.46	681.10
507.63	620.24
507.81	669.39
507.98	636.63
508.16	643.65
508.33	713.86
508.50	648.33
508.68	685.78
508.85	631.94
509.03	582.79
509.20	667.05
509.38	671.73
509.55	653.01
509.73	636.63
509.90	622.58
510.08	678.76
510.25	617.90
510.42	727.91
510.60	603.86
510.77	617.90
510.95	695.14
511.12	603.86
511.30	648.33
511.47	664.71
511.64	690.46
511.82	685.78
511.99	681.10
512.17	678.76
512.34	676.41
512.51	678.76
512.69	685.78
512.86	643.65
513.04	678.76
513.21	552.37
513.38	601.52
513.56	702.16
513.73	657.69
513.90	657.69
514.08	608.54
514.25	650.67
514.43	622.58
514.60	655.35
514.77	713.86
514.95	671.73
515.12	596.84
515.29	645.99
515.47	676.41
515.64	753.65
515.81	678.76
515.99	653.01
516.16	624.92
516.33	634.29
516.51	615.56
516.68	692.80
516.85	676.41
517.03	648.33
517.20	671.73
517.37	615.56
517.54	683.44
517.72	648.33
517.89	655.35
518.06	692.80
518.24	650.67
518.41	662.37
518.58	723.23
518.75	627.26
518.93	617.90
519.10	617.90
519.27	690.46
519.45	667.05
519.62	657.69
519.79	627.26
519.96	681.10
520.14	643.65
520.31	655.35
520.48	603.86
520.65	620.24
520.83	697.48
521.00	692.80
521.17	568.75
521.34	643.65
521.52	636.63
521.69	676.41
521.86	514.92
522.03	641.31
522.20	697.48
522.38	615.56
522.55	601.52
522.72	727.91
522.89	720.88
523.07	683.44
523.24	641.31
523.41	601.52
523.58	615.56
523.75	692.80
523.92	692.80
524.10	641.31
524.27	643.65
524.44	592.16
524.61	636.63
524.78	674.07
524.96	638.97
525.13	622.58
525.30	697.48
525.47	601.52
525.64	636.63
525.81	674.07
525.98	641.31
526.16	643.65
526.33	669.39
526.50	648.33
526.67	653.01
526.84	669.39
527.01	697.48
527.18	657.69
527.36	601.52
527.53	692.80
527.70	669.39
527.87	641.31
528.04	662.37
528.21	641.31
528.38	669.39
528.55	697.48
528.72	634.29
528.89	657.69
529.07	664.71
529.24	685.78
529.41	660.03
529.58	627.26
529.75	627.26
529.92	636.63
530.09	636.63
530.26	634.29
530.43	613.22
530.60	676.41
530.77	690.46
530.94	648.33
531.11	699.82
531.28	667.05
531.46	634.29
531.63	655.35
531.80	702.16
531.97	585.13
532.14	692.80
532.31	727.91
532.48	655.35
532.65	695.14
532.82	662.37
532.99	638.97
533.16	631.94
533.33	741.95
533.50	702.16
533.67	662.37
533.84	624.92
534.01	648.33
534.18	695.14
534.35	641.31
534.52	657.69
534.69	765.36
534.86	650.67
535.03	716.20
535.20	697.48
535.37	655.35
535.54	692.80
535.71	734.93
535.88	664.71
536.05	711.52
536.22	634.29
536.38	730.25
536.55	725.57
536.72	692.80
536.89	720.88
537.06	720.88
537.23	737.27
537.40	751.31
537.57	760.67
537.74	826.21
537.91	716.20
538.08	753.65
538.25	772.38
538.42	807.48
538.59	755.99
538.75	741.95
538.92	779.40
539.09	814.51
539.26	814.51
539.43	805.14
539.60	896.43
539.77	791.10
539.94	936.21
540.11	891.74
540.28	957.28
540.44	940.90
540.61	1036.86
540.78	997.07
540.95	1135.16
541.12	1163.25
541.29	1203.04
541.46	1275.59
541.62	1345.81
541.79	1352.83
541.96	1242.82
542.13	1303.68
542.30	1303.68
542.47	1224.10
542.63	1303.68
542.80	1158.57
542.97	1196.01
543.14	1284.95
543.31	1214.74
543.48	1207.72
543.64	1151.54
543.81	1132.82
543.98	1170.27
544.15	1184.31
544.32	1191.33
544.48	1226.44
544.65	1137.50
544.82	1139.84
544.99	1139.84
545.16	1128.14
545.32	1277.93
545.49	1558.80
545.66	1961.37
545.83	2172.02
546.00	1942.64
546.16	1600.93
546.33	1502.62
546.50	1296.66
546.67	1291.98
546.83	1146.86
547.00	1083.67
547.17	1004.09
547.34	950.26
547.50	964.30
547.67	971.32
547.84	931.53
548.00	971.32
548.17	905.79
548.34	903.45
548.51	894.08
548.67	896.43
548.84	894.08
549.01	891.74
549.18	926.85
549.34	861.32
549.51	868.34
549.68	910.47
549.84	781.74
550.01	805.14
550.18	912.81
550.34	812.17
550.51	875.36
550.68	877.70
550.84	844.93
551.01	786.42
551.18	765.36
551.34	779.40
551.51	816.85
551.68	837.91
551.84	779.40
552.01	737.27
552.18	763.01
552.34	786.42
552.51	758.33
552.68	767.70
552.84	819.19
553.01	681.10
553.18	774.72
553.34	767.70
553.51	748.97
553.67	748.97
553.84	765.36
554.01	830.89
554.17	777.06
554.34	744.29
554.51	706.84
554.67	720.88
554.84	748.97
555.00	676.41
555.17	718.54
555.33	636.63
555.50	648.33
555.67	730.25
555.83	674.07
556.00	697.48
556.16	760.67
556.33	732.59
556.50	669.39
556.66	674.07
556.83	685.78
556.99	711.52
557.16	648.33
557.32	674.07
557.49	669.39
557.65	617.90
557.82	643.65
557.98	676.41
558.15	634.29
558.32	713.86
558.48	709.18
558.65	667.05
558.81	678.76
558.98	660.03
559.14	664.71
559.31	683.44
559.47	657.69
559.64	631.94
559.80	667.05
559.97	606.20
560.13	603.86
560.30	660.03
560.46	636.63
560.63	641.31
560.79	748.97
560.96	723.23
561.12	636.63
561.29	653.01
561.45	636.63
561.61	657.69
561.78	697.48
561.94	648.33
562.11	671.73
562.27	702.16
562.44	674.07
562.60	624.92
562.77	720.88
562.93	748.97
563.10	716.20
563.26	716.20
563.42	784.08
563.59	664.71
563.75	629.60
563.92	706.84
564.08	674.07
564.24	667.05
564.41	674.07
564.57	650.67
564.74	653.01
564.90	648.33
565.07	695.14
565.23	669.39
565.39	655.35
565.56	559.39
565.72	627.26
565.88	662.37
566.05	592.16
566.21	716.20
566.38	650.67
566.54	660.03
566.70	627.26
566.87	624.92
567.03	653.01
567.19	638.97
567.36	690.46
567.52	657.69
567.68	692.80
567.85	643.65
568.01	578.11
568.17	606.20
568.34	491.51
568.50	578.11
568.66	690.46
568.83	678.76
568.99	634.29
569.15	674.07
569.32	688.12
569.48	629.60
569.64	638.97
569.81	622.58
569.97	627.26
570.13	676.41
570.30	667.05
570.46	610.88
570.62	674.07
570.78	610.88
570.95	685.78
571.11	681.10
571.27	683.44
571.43	660.03
571.60	723.23
571.76	650.67
571.92	685.78
572.09	624.92
572.25	716.20
572.41	695.14
572.57	636.63
572.74	697.48
572.90	685.78
573.06	664.71
573.22	706.84
573.38	662.37
573.55	641.31
573.71	580.45
573.87	683.44
574.03	603.86
574.20	678.76
574.36	702.16
574.52	589.82
574.68	678.76
574.84	702.16
575.01	596.84
575.17	739.61
575.33	641.31
575.49	711.52
575.65	660.03
575.82	681.10
575.98	678.76
576.14	706.84
576.30	763.01
576.46	800.46
576.62	894.08
576.79	901.11
576.95	805.14
577.11	805.14
577.27	739.61
577.43	758.33
577.59	741.95
577.75	638.97
577.92	660.03
578.08	699.82
578.24	697.48
578.40	692.80
578.56	791.10
578.72	898.77
578.88	964.30
579.04	894.08
579.21	823.87
579.37	786.42
579.53	744.29
579.69	800.46
579.85	725.57
580.01	798.12
580.17	699.82
580.33	770.04
580.49	730.25
580.65	739.61
580.82	643.65
580.98	753.65
581.14	704.50
581.30	746.63
581.46	758.33
581.62	753.65
581.78	683.44
581.94	784.08
582.10	763.01
582.26	814.51
582.42	732.59
582.58	767.70
582.74	777.06
582.90	741.95
583.06	786.42
583.22	734.93
583.38	767.70
583.54	819.19
583.70	826.21
583.86	784.08
584.02	770.04
584.18	812.17
584.34	805.14
584.50	704.50
584.66	753.65
584.82	802.80
584.98	805.14
585.14	767.70
585.30	830.89
585.46	692.80
585.62	767.70
585.78	826.21
585.94	779.40
586.10	716.20
586.26	763.01
586.42	755.99
586.58	779.40
586.74	802.80
586.90	875.36
587.06	964.30
587.22	849.61
587.38	851.96
587.54	851.96
587.70	882.38
587.86	891.74
588.02	772.38
588.18	741.95
588.34	861.32
588.49	699.82
588.65	788.76
588.81	751.31
588.97	725.57
589.13	709.18
589.29	688.12
589.45	718.54
589.61	704.50
589.77	678.76
589.93	744.29
590.08	755.99
590.24	655.35
590.40	720.88
590.56	713.86
590.72	671.73
590.88	716.20
591.04	791.10
591.20	798.12
591.35	748.97
591.51	744.29
591.67	791.10
591.83	798.12
591.99	765.36
592.15	763.01
592.31	763.01
592.46	772.38
592.62	903.45
592.78	758.33
592.94	805.14
593.10	866.00
593.26	800.46
593.41	823.87
593.57	795.78
593.73	744.29
593.89	779.40
594.05	814.51
594.20	727.91
594.36	753.65
594.52	692.80
594.68	702.16
594.84	746.63
594.99	748.97
595.15	716.20
595.31	709.18
595.47	741.95
595.62	730.25
595.78	702.16
595.94	732.59
596.10	650.67
596.25	688.12
596.41	688.12
596.57	678.76
596.73	692.80
596.88	681.10
597.04	767.70
597.20	695.14
597.36	671.73
597.51	676.41
597.67	741.95
597.83	697.48
597.99	667.05
598.14	690.46
598.30	746.63
598.46	695.14
598.61	814.51
598.77	788.76
598.93	697.48
599.09	730.25
599.24	716.20
599.40	739.61
599.56	753.65
599.71	723.23
599.87	723.23
600.03	774.72
600.18	690.46
600.34	784.08
600.50	741.95
600.65	767.70
600.81	744.29
600.97	725.57
601.12	720.88
601.28	716.20
601.44	688.12
601.59	739.61
601.75	706.84
601.91	634.29
602.06	678.76
602.22	723.23
602.37	657.69
602.53	671.73
602.69	671.73
602.84	720.88
603.00	685.78
603.16	737.27
603.31	641.31
603.47	711.52
603.62	662.37
603.78	725.57
603.94	695.14
604.09	669.39
604.25	788.76
604.40	706.84
604.56	692.80
604.71	615.56
604.87	746.63
605.03	650.67
605.18	688.12
605.34	697.48
605.49	599.18
605.65	613.22
605.80	662.37
605.96	683.44
606.12	662.37
606.27	702.16
606.43	723.23
606.58	716.20
606.74	711.52
606.89	676.41
607.05	727.91
607.20	704.50
607.36	697.48
607.51	720.88
607.67	695.14
607.82	725.57
607.98	734.93
608.13	676.41
608.29	704.50
608.44	814.51
608.60	784.08
608.75	809.83
608.91	837.91
609.06	814.51
609.22	837.91
609.37	823.87
609.53	828.55
609.68	917.49
609.84	1001.75
