SpectraSuite Data File
++++++++++++++++++++++++++++++++++++
Date: Thu Oct 24 13:21:47 EDT 2013
User: stostad
Dark Spectrum Present: No
Reference Spectrum Present: No
Number of Sampled Component Spectra: 1
Spectrometers: USB2+H05261
Integration Time (usec): 100000 (USB2+H05261)
Spectra Averaged: 1 (USB2+H05261)
Boxcar Smoothing: 0 (USB2+H05261)
Correct for Electrical Dark: No (USB2+H05261)
Strobe/Lamp Enabled: No (USB2+H05261)
Correct for Detector Non-linearity: No (USB2+H05261)
Correct for Stray Light: No (USB2+H05261)
Number of Pixels in Processed Spectrum: 2048
>>>>>Begin Processed Spectral Data<<<<<
365.73	964.30
365.92	964.30
366.12	964.30
366.32	990.05
366.52	826.21
366.72	1001.75
366.91	901.11
367.11	947.92
367.31	947.92
367.51	922.17
367.70	870.68
367.90	983.02
368.10	938.55
368.30	903.45
368.49	908.13
368.69	983.02
368.89	997.07
369.09	992.39
369.28	915.15
369.48	978.34
369.68	987.71
369.87	1011.11
370.07	954.94
370.27	1062.60
370.47	1423.05
370.66	2307.77
370.86	2335.85
371.06	2417.77
371.25	2530.12
371.45	2546.50
371.65	2609.70
371.84	2607.36
372.04	2548.84
372.24	2546.50
372.44	2530.12
372.63	2670.55
372.83	2682.25
373.03	2729.06
373.22	2633.10
373.42	2719.70
373.62	2731.41
373.81	2726.72
374.01	2855.45
374.21	2733.75
374.40	2850.77
374.60	2920.99
374.79	2965.46
374.99	3038.02
375.19	2818.00
375.38	3028.65
375.58	2916.31
375.78	2928.01
375.97	2967.80
376.17	3000.57
376.37	3101.21
376.56	3056.74
376.76	3070.78
376.95	3145.68
377.15	3056.74
377.35	3133.98
377.54	3241.64
377.74	3255.69
377.93	3288.45
378.13	3255.69
378.33	3363.35
378.52	3260.37
378.72	3297.81
378.91	3351.65
379.11	3281.43
379.31	3363.35
379.50	3272.07
379.70	3471.01
379.89	3396.12
380.09	3325.90
380.28	3417.18
380.48	3424.20
380.68	3356.33
380.87	3447.61
381.07	3599.74
381.26	3768.26
381.46	3609.11
381.65	3529.53
381.85	3723.79
382.04	3627.83
382.24	3609.11
382.43	3822.09
382.63	3709.75
382.83	3768.26
383.02	3847.84
383.22	3946.14
383.41	3796.35
383.61	3840.82
383.80	3932.10
384.00	3964.87
384.19	3992.95
384.39	3817.41
384.58	3995.29
384.78	4063.17
384.97	3964.87
385.17	4046.79
385.36	4058.49
385.56	4112.32
385.75	3990.61
385.95	4126.36
386.14	4124.02
386.34	4243.39
386.53	4124.02
386.72	4208.28
386.92	4222.33
387.11	4365.10
387.31	4407.23
387.50	4454.04
387.70	4325.31
387.89	4418.93
388.09	4489.15
388.28	4512.55
388.48	4503.19
388.67	4652.98
388.86	4578.09
389.06	4554.68
389.25	4631.92
389.45	4706.82
389.64	4568.73
389.84	4697.46
390.03	4809.80
390.22	4760.65
390.42	4748.95
390.61	4837.89
390.81	4835.55
391.00	4985.34
391.19	4980.66
391.39	4903.42
391.58	5137.48
391.78	5004.07
391.97	4985.34
392.16	5034.49
392.36	5188.97
392.55	5242.80
392.75	5294.29
392.94	5298.97
393.13	5167.90
393.33	5177.26
393.52	5385.57
393.71	5373.87
393.91	5619.63
394.10	5577.50
394.29	5530.69
394.49	5568.13
394.68	5638.35
394.88	5631.33
395.07	5757.72
395.26	5771.76
395.46	5809.21
395.65	5872.40
395.84	5839.64
396.04	6045.60
396.23	5980.07
396.42	5947.30
396.62	6134.54
396.81	6209.44
397.00	6015.18
397.19	6132.20
397.39	6129.86
397.58	6113.48
397.77	6291.36
397.97	6384.98
398.16	6263.27
398.35	6434.13
398.55	6457.54
398.74	6490.31
398.93	6668.19
399.12	6516.05
399.32	6387.32
399.51	6567.54
399.70	6654.14
399.90	6710.32
400.09	6560.52
400.28	6864.79
400.47	6612.01
400.67	6850.75
400.86	6899.90
401.05	6864.79
401.24	7103.53
401.44	7208.85
401.63	7232.26
401.82	7183.10
402.01	7176.08
402.21	7321.20
402.40	7307.15
402.59	7295.45
402.78	7368.01
402.97	7391.41
403.17	7541.21
403.36	7508.44
403.55	7665.25
403.74	7852.50
403.93	7740.15
404.13	7878.24
404.32	7730.79
404.51	7784.62
404.70	7950.80
404.89	7836.11
405.09	8006.97
405.28	8194.22
405.47	8161.45
405.66	8166.13
405.85	8280.82
406.05	8245.71
406.24	8271.45
406.43	8280.82
406.62	8566.36
406.81	8599.13
407.00	8243.37
407.20	8325.29
407.39	8486.78
407.58	8664.66
407.77	8718.50
407.96	8674.03
408.15	8681.05
408.34	8610.83
408.54	8875.31
408.73	8966.59
408.92	8847.22
409.11	9188.94
409.30	9039.15
409.49	9160.86
409.68	9270.86
409.87	9362.14
410.07	9441.72
410.26	9540.02
410.45	9261.50
410.64	9551.73
410.83	9811.53
411.02	9867.70
411.21	9774.08
411.40	9799.82
411.59	10050.26
411.78	9980.04
411.98	10139.20
412.17	10413.04
412.36	10218.78
412.55	10443.47
412.74	10668.16
412.93	10473.90
413.12	10485.60
413.31	10799.23
413.50	10703.27
413.69	11037.97
413.88	10995.84
414.07	11222.87
414.26	11433.52
414.45	11382.03
414.64	11377.34
414.83	11655.87
415.02	11758.85
415.22	11604.38
415.41	11971.84
415.60	11768.21
415.79	11934.39
415.98	12283.13
416.17	12219.94
416.36	12201.21
416.55	12404.84
416.74	12465.69
416.93	12571.02
417.12	12301.86
417.31	12659.96
417.50	12606.13
417.69	13055.51
417.88	13186.58
418.07	13004.02
418.26	13069.55
418.45	13085.94
418.64	13802.14
418.83	13294.24
419.02	13528.30
419.21	13802.14
419.39	13650.00
419.58	13699.16
419.77	13462.76
419.96	14005.77
420.15	14099.39
420.34	14115.77
420.53	14155.56
420.72	14195.35
420.91	14443.45
421.10	14466.85
421.29	14499.62
421.48	14427.06
421.67	14668.14
421.86	14700.90
422.05	14452.81
422.24	14520.68
422.43	14658.78
422.61	14951.34
422.80	15091.77
422.99	14991.13
423.18	15206.46
423.37	15316.47
423.56	14998.15
423.75	14965.39
423.94	14909.21
424.13	14111.09
424.32	14490.26
424.50	15407.75
424.69	15459.24
424.88	15389.02
425.07	15197.10
425.26	14810.91
425.45	15098.80
425.64	15267.31
425.83	15316.47
426.01	15267.31
426.20	15447.54
426.39	15487.32
426.58	15433.49
426.77	15269.66
426.96	15672.23
427.15	15620.74
427.33	16145.02
427.52	16044.37
427.71	16285.45
427.90	16219.91
428.09	16306.51
428.28	16297.15
428.46	16435.24
428.65	16194.17
428.84	17083.57
429.03	16945.48
429.22	16645.89
429.40	16727.81
429.59	16814.41
429.78	16383.75
429.97	16145.02
430.16	16662.27
430.34	17191.23
430.53	17525.93
430.72	17331.67
430.91	17338.69
431.10	17121.02
431.28	17762.33
431.47	17837.22
431.66	18038.51
431.85	17572.74
432.03	18239.79
432.22	18485.55
432.41	18494.91
432.60	18026.81
432.79	18443.42
432.97	18616.62
433.16	18497.25
433.35	18520.66
433.54	18824.93
433.72	18857.70
433.91	18787.48
434.10	18820.25
434.28	18691.52
434.47	19421.77
434.66	19491.98
434.85	19665.18
435.03	19555.18
435.22	19613.69
435.41	20278.40
435.59	19913.28
435.78	20425.86
435.97	20060.73
436.16	19976.47
436.34	20119.24
436.53	20058.39
436.72	20800.34
436.90	20034.99
437.09	20915.03
437.28	20442.24
437.46	20467.98
437.65	20596.71
437.84	21036.74
438.02	20783.96
438.21	21142.06
438.40	20886.94
438.58	21951.88
438.77	21923.80
438.96	21809.11
439.14	22342.75
439.33	22576.81
439.52	22494.89
439.70	22256.15
439.89	22829.59
440.08	23157.26
440.26	23030.87
440.45	23323.44
440.63	23260.24
440.82	24133.26
441.01	23812.61
441.19	24170.71
441.38	23917.93
441.57	23850.06
441.75	24128.58
441.94	24994.58
442.12	24823.72
442.31	25420.56
442.50	25001.60
442.68	25163.10
442.87	25385.45
443.05	25743.55
443.24	26148.46
443.43	25652.27
443.61	25706.10
443.80	26607.21
443.98	25310.55
444.17	24826.06
444.35	26054.84
444.54	26518.27
444.73	26199.96
444.91	25984.63
445.10	26438.69
445.28	26452.73
445.47	26426.99
445.65	26389.54
445.84	27044.89
446.02	26867.01
446.21	27129.15
446.39	26586.15
446.58	26874.03
446.77	26721.90
446.95	26314.64
447.14	26939.57
447.32	27417.04
447.51	27009.78
447.69	26899.78
447.88	27253.20
448.06	27047.23
448.25	27133.83
448.43	27433.42
448.62	27587.89
448.80	27037.87
448.99	27466.19
449.17	28032.60
449.36	27452.14
449.54	28233.88
449.73	28540.49
449.91	29060.09
450.10	28517.09
450.28	29186.48
450.46	28975.83
450.65	28931.36
450.83	29200.52
451.02	28861.15
451.20	29195.84
451.39	29064.77
451.57	29486.07
451.76	29153.71
451.94	29380.74
452.13	30080.56
452.31	29790.34
452.49	29331.59
452.68	30176.53
452.86	30314.62
453.05	30328.66
453.23	30663.36
453.42	30316.96
453.60	29785.66
453.78	30808.47
453.97	30663.36
454.15	30506.54
454.34	30551.01
454.52	31213.38
454.70	30932.52
454.89	31175.94
455.07	31414.67
455.26	31620.64
455.44	31927.25
455.62	31929.59
455.81	32034.91
455.99	32311.10
456.17	32163.64
456.36	32360.25
456.54	32966.45
456.73	33259.01
456.91	33907.34
457.09	33596.05
457.28	33649.88
457.46	33497.75
457.64	34295.87
457.83	33890.96
458.01	33773.93
458.19	34190.55
458.38	34181.18
458.56	34845.90
458.74	35054.20
458.93	35145.48
459.11	34930.16
459.29	34740.57
459.48	35143.14
459.66	34796.74
459.84	35295.28
460.03	36189.36
460.21	35747.00
460.39	35651.04
460.57	35534.01
460.76	36231.49
460.94	36622.36
461.12	36622.36
461.31	36465.55
461.49	36676.19
461.67	36598.96
461.85	37488.36
462.04	36662.15
462.22	37584.32
462.40	38115.62
462.59	37511.77
462.77	37422.83
462.95	38302.87
463.13	37897.95
463.32	37776.25
463.50	38433.94
463.68	38529.90
463.86	38686.71
464.05	38068.81
464.23	38443.30
464.41	38859.91
464.59	38396.49
464.78	40055.93
464.96	39255.46
465.14	38600.12
465.32	39454.41
465.50	39498.88
465.69	40341.47
465.87	40116.78
466.05	39791.45
466.23	40025.50
466.41	39894.43
466.60	41067.04
466.78	39861.66
466.96	39997.41
467.14	40486.59
467.32	40914.90
467.51	41071.72
467.69	40058.27
467.87	40694.89
468.05	41420.46
468.23	41045.97
468.41	40882.14
468.60	41275.35
468.78	41734.09
468.96	41670.90
469.14	42326.25
469.32	42562.64
469.50	41464.93
469.69	42504.13
469.87	43292.89
470.05	43131.39
470.23	43093.94
470.41	43318.64
470.59	43414.60
470.77	43510.56
470.95	43489.49
471.14	44650.40
471.32	43428.64
471.50	44334.43
471.68	44538.05
471.86	44556.78
472.04	45336.18
472.22	46216.22
472.40	45146.59
472.58	45434.48
472.77	46024.29
472.95	46719.43
473.13	47573.73
473.31	46344.95
473.49	46492.40
473.67	46810.71
473.85	47112.64
474.03	47885.02
474.21	47889.70
474.39	48411.64
474.57	48388.24
474.75	48505.26
474.93	48790.81
475.12	48858.68
475.30	49319.77
475.48	48863.36
475.66	49832.35
475.84	49570.21
476.02	50447.91
476.20	50101.51
476.38	50997.93
476.56	51386.46
476.74	51358.38
476.92	51320.93
477.10	50979.21
477.28	52357.78
477.46	52123.73
477.64	52266.50
477.82	52982.71
478.00	53621.67
478.18	53249.53
478.36	53684.87
478.54	54017.22
478.72	54042.97
478.90	54490.01
479.08	54578.95
479.26	55042.38
479.44	55227.28
479.62	55412.18
479.80	55875.61
479.98	55686.03
480.16	56413.93
480.34	56034.77
480.52	56610.54
480.70	56601.18
480.88	56638.62
481.06	56725.22
481.24	57071.62
481.41	57425.04
481.59	57769.10
481.77	58049.97
481.95	58056.99
482.13	58248.91
482.31	58274.66
482.49	59000.22
482.67	58876.18
482.85	59145.34
483.03	59510.46
483.21	59653.23
483.39	60079.21
483.57	59959.84
483.74	60069.85
483.92	60273.48
484.10	60313.26
484.28	60804.78
484.46	61029.47
484.64	61535.02
484.82	61333.74
485.00	61705.88
485.18	61843.98
485.35	62199.74
485.53	62159.95
485.71	62539.11
485.89	63035.31
486.07	62555.50
486.25	62801.25
486.43	63302.13
486.61	63339.58
486.78	63470.65
486.96	63716.40
487.14	64044.08
487.32	64069.82
487.50	64177.49
487.68	64598.79
487.85	64797.73
488.03	65113.70
488.21	65296.27
488.39	65314.99
488.57	65530.32
488.75	65535.00
488.92	65535.00
489.10	65535.00
489.28	65535.00
489.46	65535.00
489.64	65535.00
489.81	65535.00
489.99	65535.00
490.17	65535.00
490.35	65535.00
490.53	65535.00
490.70	65535.00
490.88	65535.00
491.06	65535.00
491.24	65535.00
491.41	65535.00
491.59	65535.00
491.77	65535.00
491.95	65535.00
492.13	65535.00
492.30	65535.00
492.48	65535.00
492.66	65535.00
492.84	65535.00
493.01	65535.00
493.19	65535.00
493.37	65535.00
493.54	65535.00
493.72	65535.00
493.90	65535.00
494.08	65535.00
494.25	65535.00
494.43	65535.00
494.61	65535.00
494.79	65535.00
494.96	65535.00
495.14	65535.00
495.32	65535.00
495.49	65535.00
495.67	65535.00
495.85	65535.00
496.02	65535.00
496.20	65535.00
496.38	65535.00
496.55	65535.00
496.73	65535.00
496.91	65535.00
497.09	65535.00
497.26	65535.00
497.44	65535.00
497.62	65535.00
497.79	65535.00
497.97	65535.00
498.14	65535.00
498.32	65535.00
498.50	65535.00
498.67	65535.00
498.85	65535.00
499.03	65535.00
499.20	65535.00
499.38	65535.00
499.56	65535.00
499.73	65535.00
499.91	65535.00
500.08	65535.00
500.26	65535.00
500.44	65535.00
500.61	65535.00
500.79	65535.00
500.97	65535.00
501.14	65535.00
501.32	65535.00
501.49	65535.00
501.67	65535.00
501.84	65535.00
502.02	65535.00
502.20	65535.00
502.37	65535.00
502.55	65535.00
502.72	65535.00
502.90	65535.00
503.07	65535.00
503.25	65535.00
503.43	65535.00
503.60	65535.00
503.78	65535.00
503.95	65535.00
504.13	65535.00
504.30	65535.00
504.48	65535.00
504.65	65535.00
504.83	65535.00
505.01	65535.00
505.18	65535.00
505.36	65535.00
505.53	65535.00
505.71	65535.00
505.88	65535.00
506.06	65535.00
506.23	65535.00
506.41	65535.00
506.58	65535.00
506.76	65535.00
506.93	65535.00
507.11	65535.00
507.28	65535.00
507.46	65535.00
507.63	65535.00
507.81	65535.00
507.98	65535.00
508.16	65535.00
508.33	65535.00
508.50	65535.00
508.68	65535.00
508.85	65535.00
509.03	65535.00
509.20	65535.00
509.38	65535.00
509.55	65535.00
509.73	65535.00
509.90	65535.00
510.08	65535.00
510.25	65535.00
510.42	65535.00
510.60	65535.00
510.77	65535.00
510.95	65535.00
511.12	65535.00
511.30	65535.00
511.47	65535.00
511.64	65535.00
511.82	65535.00
511.99	65535.00
512.17	65535.00
512.34	65535.00
512.51	65535.00
512.69	65535.00
512.86	65535.00
513.04	65535.00
513.21	65535.00
513.38	65535.00
513.56	65535.00
513.73	65535.00
513.90	65535.00
514.08	65535.00
514.25	65535.00
514.43	65535.00
514.60	65535.00
514.77	65535.00
514.95	65535.00
515.12	65535.00
515.29	65535.00
515.47	65535.00
515.64	65535.00
515.81	65535.00
515.99	65535.00
516.16	65535.00
516.33	65535.00
516.51	65535.00
516.68	65535.00
516.85	65535.00
517.03	65535.00
517.20	65535.00
517.37	65535.00
517.54	65535.00
517.72	65535.00
517.89	65535.00
518.06	65535.00
518.24	65535.00
518.41	65535.00
518.58	65535.00
518.75	65535.00
518.93	65535.00
519.10	65535.00
519.27	65535.00
519.45	65535.00
519.62	65535.00
519.79	65535.00
519.96	65535.00
520.14	65535.00
520.31	65535.00
520.48	65535.00
520.65	65535.00
520.83	65535.00
521.00	65535.00
521.17	65535.00
521.34	65535.00
521.52	65535.00
521.69	65535.00
521.86	65535.00
522.03	65535.00
522.20	65535.00
522.38	65535.00
522.55	65535.00
522.72	65535.00
522.89	65535.00
523.07	65535.00
523.24	65535.00
523.41	65535.00
523.58	65535.00
523.75	65535.00
523.92	65535.00
524.10	65535.00
524.27	65535.00
524.44	65535.00
524.61	65535.00
524.78	65535.00
524.96	65535.00
525.13	65535.00
525.30	65535.00
525.47	65535.00
525.64	65535.00
525.81	65535.00
525.98	65535.00
526.16	65535.00
526.33	65535.00
526.50	65535.00
526.67	65535.00
526.84	65535.00
527.01	65535.00
527.18	65535.00
527.36	65535.00
527.53	65535.00
527.70	65535.00
527.87	65535.00
528.04	65535.00
528.21	65535.00
528.38	65535.00
528.55	65535.00
528.72	65535.00
528.89	65535.00
529.07	65535.00
529.24	65535.00
529.41	65535.00
529.58	65535.00
529.75	65535.00
529.92	65535.00
530.09	65535.00
530.26	65535.00
530.43	65535.00
530.60	65535.00
530.77	65535.00
530.94	65535.00
531.11	65535.00
531.28	65535.00
531.46	65535.00
531.63	65535.00
531.80	65535.00
531.97	65535.00
532.14	65535.00
532.31	65535.00
532.48	65535.00
532.65	65535.00
532.82	65535.00
532.99	65535.00
533.16	65535.00
533.33	65535.00
533.50	65535.00
533.67	65535.00
533.84	65535.00
534.01	65535.00
534.18	65535.00
534.35	65535.00
534.52	65535.00
534.69	65535.00
534.86	65535.00
535.03	65535.00
535.20	65535.00
535.37	65535.00
535.54	65535.00
535.71	65535.00
535.88	65535.00
536.05	65535.00
536.22	65535.00
536.38	65535.00
536.55	65535.00
536.72	65535.00
536.89	65535.00
537.06	65535.00
537.23	65535.00
537.40	65535.00
537.57	65535.00
537.74	65535.00
537.91	65535.00
538.08	65535.00
538.25	65535.00
538.42	65535.00
538.59	65535.00
538.75	65535.00
538.92	65535.00
539.09	65535.00
539.26	65535.00
539.43	65535.00
539.60	65535.00
539.77	65535.00
539.94	65535.00
540.11	65535.00
540.28	65535.00
540.44	65535.00
540.61	65535.00
540.78	65535.00
540.95	65535.00
541.12	65535.00
541.29	65535.00
541.46	65535.00
541.62	65535.00
541.79	65535.00
541.96	65535.00
542.13	65535.00
542.30	65535.00
542.47	65535.00
542.63	65535.00
542.80	65535.00
542.97	65535.00
543.14	65535.00
543.31	65535.00
543.48	65535.00
543.64	65535.00
543.81	65535.00
543.98	65535.00
544.15	65535.00
544.32	65535.00
544.48	65535.00
544.65	65535.00
544.82	65535.00
544.99	65535.00
545.16	65535.00
545.32	65535.00
545.49	65535.00
545.66	65535.00
545.83	65535.00
546.00	65535.00
546.16	65535.00
546.33	65535.00
546.50	65535.00
546.67	65535.00
546.83	65535.00
547.00	65535.00
547.17	65535.00
547.34	65535.00
547.50	65535.00
547.67	65535.00
547.84	65535.00
548.00	65535.00
548.17	65535.00
548.34	65535.00
548.51	65535.00
548.67	65535.00
548.84	65535.00
549.01	65535.00
549.18	65535.00
549.34	65535.00
549.51	65535.00
549.68	65535.00
549.84	65535.00
550.01	65535.00
550.18	65535.00
550.34	65535.00
550.51	65535.00
550.68	65535.00
550.84	65535.00
551.01	65535.00
551.18	65535.00
551.34	65535.00
551.51	65535.00
551.68	65535.00
551.84	65535.00
552.01	65535.00
552.18	65535.00
552.34	65535.00
552.51	65535.00
552.68	65535.00
552.84	65535.00
553.01	65535.00
553.18	65535.00
553.34	65535.00
553.51	65535.00
553.67	65535.00
553.84	65535.00
554.01	65535.00
554.17	65535.00
554.34	65535.00
554.51	65535.00
554.67	65535.00
554.84	65535.00
555.00	65535.00
555.17	65535.00
555.33	65535.00
555.50	65535.00
555.67	65535.00
555.83	65535.00
556.00	65535.00
556.16	65535.00
556.33	65535.00
556.50	65535.00
556.66	65535.00
556.83	65535.00
556.99	65535.00
557.16	65535.00
557.32	65535.00
557.49	65535.00
557.65	65535.00
557.82	65535.00
557.98	65535.00
558.15	65535.00
558.32	65535.00
558.48	65535.00
558.65	65535.00
558.81	65535.00
558.98	65535.00
559.14	65535.00
559.31	65535.00
559.47	65535.00
559.64	65535.00
559.80	65535.00
559.97	65535.00
560.13	65535.00
560.30	65535.00
560.46	65535.00
560.63	65535.00
560.79	65535.00
560.96	65535.00
561.12	65535.00
561.29	65535.00
561.45	65535.00
561.61	65535.00
561.78	65535.00
561.94	65535.00
562.11	65535.00
562.27	65535.00
562.44	65535.00
562.60	65535.00
562.77	65535.00
562.93	65535.00
563.10	65535.00
563.26	65535.00
563.42	65535.00
563.59	65535.00
563.75	65535.00
563.92	65535.00
564.08	65535.00
564.24	65535.00
564.41	65535.00
564.57	65535.00
564.74	65535.00
564.90	65535.00
565.07	65535.00
565.23	65535.00
565.39	65535.00
565.56	65535.00
565.72	65535.00
565.88	65535.00
566.05	65535.00
566.21	65535.00
566.38	65535.00
566.54	65535.00
566.70	65535.00
566.87	65535.00
567.03	65535.00
567.19	65535.00
567.36	65535.00
567.52	65535.00
567.68	65535.00
567.85	65535.00
568.01	65535.00
568.17	65535.00
568.34	65535.00
568.50	65535.00
568.66	65535.00
568.83	65535.00
568.99	65535.00
569.15	65535.00
569.32	65535.00
569.48	65535.00
569.64	65535.00
569.81	65535.00
569.97	65535.00
570.13	65535.00
570.30	65535.00
570.46	65535.00
570.62	65535.00
570.78	65535.00
570.95	65535.00
571.11	65535.00
571.27	65535.00
571.43	65535.00
571.60	65535.00
571.76	65535.00
571.92	65535.00
572.09	65535.00
572.25	65535.00
572.41	65535.00
572.57	65535.00
572.74	65535.00
572.90	65535.00
573.06	65535.00
573.22	65535.00
573.38	65535.00
573.55	65535.00
573.71	65535.00
573.87	65535.00
574.03	65535.00
574.20	65535.00
574.36	65535.00
574.52	65535.00
574.68	65535.00
574.84	65535.00
575.01	65535.00
575.17	65535.00
575.33	65535.00
575.49	65535.00
575.65	65535.00
575.82	65535.00
575.98	65535.00
576.14	65535.00
576.30	65535.00
576.46	65535.00
576.62	65535.00
576.79	65535.00
576.95	65535.00
577.11	65535.00
577.27	65535.00
577.43	65535.00
577.59	65535.00
577.75	65535.00
577.92	65535.00
578.08	65535.00
578.24	65535.00
578.40	65535.00
578.56	65535.00
578.72	65535.00
578.88	65535.00
579.04	65535.00
579.21	65535.00
579.37	65535.00
579.53	65535.00
579.69	65535.00
579.85	65535.00
580.01	65535.00
580.17	65535.00
580.33	65535.00
580.49	65535.00
580.65	65535.00
580.82	65535.00
580.98	65535.00
581.14	65535.00
581.30	65535.00
581.46	65535.00
581.62	65535.00
581.78	65535.00
581.94	65535.00
582.10	65535.00
582.26	65535.00
582.42	65535.00
582.58	65535.00
582.74	65535.00
582.90	65535.00
583.06	65535.00
583.22	65535.00
583.38	65535.00
583.54	65535.00
583.70	65535.00
583.86	65535.00
584.02	65535.00
584.18	65535.00
584.34	65535.00
584.50	65535.00
584.66	65535.00
584.82	65535.00
584.98	65535.00
585.14	65535.00
585.30	65535.00
585.46	65535.00
585.62	65535.00
