SpectraSuite Data File
++++++++++++++++++++++++++++++++++++
Date: Thu Oct 24 13:21:19 EDT 2013
User: stostad
Dark Spectrum Present: No
Reference Spectrum Present: No
Number of Sampled Component Spectra: 1
Spectrometers: USB2+H05261
Integration Time (usec): 100000 (USB2+H05261)
Spectra Averaged: 1 (USB2+H05261)
Boxcar Smoothing: 0 (USB2+H05261)
Correct for Electrical Dark: No (USB2+H05261)
Strobe/Lamp Enabled: No (USB2+H05261)
Correct for Detector Non-linearity: No (USB2+H05261)
Correct for Stray Light: No (USB2+H05261)
Number of Pixels in Processed Spectrum: 2048
>>>>>Begin Processed Spectral Data<<<<<
365.73	592.16
365.92	592.16
366.12	592.16
366.32	458.74
366.52	526.62
366.72	447.04
366.91	545.34
367.11	433.00
367.31	416.62
367.51	458.74
367.70	388.53
367.90	447.04
368.10	461.09
368.30	463.43
368.49	463.43
368.69	470.45
368.89	477.47
369.09	425.98
369.28	505.56
369.48	475.13
369.68	521.94
369.87	482.15
370.07	489.17
370.27	535.98
370.47	674.07
370.66	786.42
370.86	816.85
371.06	844.93
371.25	903.45
371.45	793.44
371.65	987.71
371.84	924.51
372.04	849.61
372.24	870.68
372.44	926.85
372.63	866.00
372.83	901.11
373.03	1036.86
373.22	950.26
373.42	968.98
373.62	917.49
373.81	961.96
374.01	968.98
374.21	952.60
374.40	947.92
374.60	1001.75
374.79	947.92
374.99	971.32
375.19	1025.15
375.38	1027.50
375.58	994.73
375.78	978.34
375.97	997.07
376.17	1067.28
376.37	1013.45
376.56	1013.45
376.76	924.51
376.95	966.64
377.15	971.32
377.35	1008.77
377.54	1062.60
377.74	1095.37
377.93	1008.77
378.13	987.71
378.33	1104.73
378.52	1036.86
378.72	1039.20
378.91	1125.80
379.11	1020.47
379.31	1041.54
379.50	1053.24
379.70	1027.50
379.89	1083.67
380.09	1090.69
380.28	1104.73
380.48	1069.62
380.68	1074.31
380.87	1151.54
381.07	1165.59
381.26	1156.22
381.46	1121.12
381.65	1160.91
381.85	1130.48
382.04	1165.59
382.24	1125.80
382.43	1146.86
382.63	1111.75
382.83	1163.25
383.02	1144.52
383.22	1284.95
383.41	1163.25
383.61	1139.84
383.80	1170.27
384.00	1139.84
384.19	1121.12
384.39	1177.29
384.58	1210.06
384.78	1174.95
384.97	1156.22
385.17	1146.86
385.36	1249.85
385.56	1254.53
385.75	1228.78
385.95	1207.72
386.14	1191.33
386.34	1174.95
386.53	1238.14
386.72	1282.61
386.92	1270.91
387.11	1287.29
387.31	1233.46
387.50	1254.53
387.70	1282.61
387.89	1341.13
388.09	1191.33
388.28	1273.25
388.48	1277.93
388.67	1219.42
388.86	1350.49
389.06	1306.02
389.25	1376.24
389.45	1327.08
389.64	1378.58
389.84	1317.72
390.03	1343.47
390.22	1341.13
390.42	1404.32
390.61	1343.47
390.81	1322.40
391.00	1331.76
391.19	1373.89
391.39	1409.00
391.58	1306.02
391.78	1437.09
391.97	1383.26
392.16	1413.68
392.36	1493.26
392.55	1460.49
392.75	1448.79
392.94	1409.00
393.13	1411.34
393.33	1479.22
393.52	1490.92
393.71	1486.24
393.91	1526.03
394.10	1483.90
394.29	1528.37
394.49	1460.49
394.68	1509.65
394.88	1519.01
395.07	1633.69
395.26	1526.03
395.46	1530.71
395.65	1570.50
395.84	1612.63
396.04	1673.48
396.23	1542.41
396.42	1603.27
396.62	1650.08
396.81	1638.38
397.00	1753.06
397.19	1650.08
397.39	1732.00
397.58	1652.42
397.77	1643.06
397.97	1755.40
398.16	1638.38
398.35	1739.02
398.55	1715.61
398.74	1790.51
398.93	1729.66
399.12	1692.21
399.32	1732.00
399.51	1732.00
399.70	1856.04
399.90	1788.17
400.09	1757.74
400.28	1837.32
400.47	1778.81
400.67	1902.86
400.86	1741.36
401.05	1746.04
401.24	1881.79
401.44	1863.07
401.63	1888.81
401.82	1863.07
402.01	1813.92
402.21	1926.26
402.40	1879.45
402.59	1984.77
402.78	2003.50
402.97	1923.92
403.17	2019.88
403.36	1891.15
403.55	2073.71
403.74	2062.01
403.93	2120.53
404.13	2062.01
404.32	2113.50
404.51	2106.48
404.70	2179.04
404.89	2143.93
405.09	2211.81
405.28	2204.78
405.47	2092.44
405.66	2172.02
405.85	2106.48
406.05	2249.25
406.24	2186.06
406.43	2186.06
406.62	2244.57
406.81	2253.94
407.00	2293.72
407.20	2319.47
407.39	2270.32
407.58	2389.69
407.77	2359.26
407.96	2373.30
408.15	2408.41
408.34	2352.24
408.54	2462.24
408.73	2389.69
408.92	2392.03
409.11	2396.71
409.30	2511.39
409.49	2377.98
409.68	2473.95
409.87	2483.31
410.07	2626.08
410.26	2420.11
410.45	2595.65
410.64	2605.02
410.83	2558.21
411.02	2590.97
411.21	2609.70
411.40	2616.72
411.59	2677.57
411.78	2724.38
411.98	2595.65
412.17	2754.81
412.36	2761.83
412.55	2724.38
412.74	2874.18
412.93	2778.22
413.12	2787.58
413.31	3059.08
413.50	2916.31
413.69	2904.60
413.88	2956.10
414.07	2972.48
414.26	3028.65
414.45	2963.12
414.64	2956.10
414.83	3028.65
415.02	3096.53
415.22	3176.11
415.41	3080.14
415.60	3098.87
415.79	3115.25
415.98	3173.77
416.17	3136.32
416.36	3143.34
416.55	3258.03
416.74	3253.34
416.93	3274.41
417.12	3201.85
417.31	3370.37
417.50	3377.39
417.69	3428.88
417.88	3447.61
418.07	3494.42
418.26	3557.61
418.45	3463.99
418.64	3550.59
418.83	3583.36
419.02	3412.50
419.21	3604.42
419.39	3599.74
419.58	3590.38
419.77	3574.00
419.96	3592.72
420.15	3679.32
420.34	3721.45
420.53	3822.09
420.72	3754.22
420.91	3674.64
421.10	3723.79
421.29	3721.45
421.48	3845.50
421.67	3641.87
421.86	3728.47
422.05	3812.73
422.24	3850.18
422.43	3770.60
422.61	3854.86
422.80	3962.53
422.99	3985.93
423.18	3936.78
423.37	3992.95
423.56	3932.10
423.75	3962.53
423.94	3871.25
424.13	3691.02
424.32	3700.39
424.50	3868.91
424.69	3875.93
424.88	3904.01
425.07	3850.18
425.26	3873.59
425.45	3763.58
425.64	3906.35
425.83	3728.47
426.01	3955.51
426.20	3953.16
426.39	3983.59
426.58	3988.27
426.77	4018.70
426.96	3983.59
427.15	3971.89
427.33	4147.43
427.52	4049.13
427.71	4133.39
427.90	3990.61
428.09	4170.83
428.28	4189.56
428.46	4140.41
428.65	4175.52
428.84	4264.46
429.03	4304.25
429.22	4180.20
429.40	4250.41
429.59	4276.16
429.78	4124.02
429.97	4056.15
430.16	4339.35
430.34	4423.61
430.53	4414.25
430.72	4346.37
430.91	4437.66
431.10	4311.27
431.28	4517.23
431.47	4512.55
431.66	4442.34
431.85	4559.36
432.03	4578.09
432.22	4575.75
432.41	4510.21
432.60	4561.70
432.79	4447.02
432.97	4662.35
433.16	4788.74
433.35	4685.75
433.54	4702.14
433.72	4863.63
433.91	4671.71
434.10	4746.61
434.28	4660.01
434.47	4734.90
434.66	4765.33
434.85	4926.83
435.03	4821.50
435.22	4971.30
435.41	5366.85
435.59	5102.37
435.78	5109.39
435.97	5135.14
436.16	5085.98
436.34	4898.74
436.53	5018.11
436.72	4968.96
436.90	4884.70
437.09	5053.22
437.28	4997.04
437.46	5067.26
437.65	5076.62
437.84	5219.39
438.02	5055.56
438.21	5177.26
438.40	4973.64
438.58	5261.52
438.77	5294.29
438.96	5376.21
439.14	5298.97
439.33	5268.55
439.52	5523.66
439.70	5446.43
439.89	5614.95
440.08	5591.54
440.26	5598.56
440.45	5397.28
440.63	5720.27
440.82	5746.02
441.01	5659.42
441.19	5776.44
441.38	5963.68
441.57	5912.19
441.75	5975.39
441.94	5930.92
442.12	6169.65
442.31	5991.77
442.50	6052.63
442.68	5949.64
442.87	5994.11
443.05	5982.41
443.24	6171.99
443.43	6033.90
443.61	6122.84
443.80	6263.27
443.98	5994.11
444.17	5907.51
444.35	6204.76
444.54	6417.75
444.73	6209.44
444.91	6204.76
445.10	6225.82
445.28	6157.95
445.47	6118.16
445.65	6246.89
445.84	6324.13
446.02	6286.68
446.21	6375.62
446.39	6312.42
446.58	6436.47
446.77	6354.55
446.95	6279.66
447.14	6345.19
447.32	6286.68
447.51	6314.77
447.69	6265.61
447.88	6310.08
448.06	6403.71
448.25	6455.20
448.43	6413.07
448.62	6389.66
448.80	6492.65
448.99	6382.64
449.17	6413.07
449.36	6516.05
449.54	6506.69
449.73	6675.21
449.91	6715.00
450.10	6736.06
450.28	6642.44
450.46	6836.70
450.65	6717.34
450.83	6698.61
451.02	6827.34
451.20	6993.52
451.39	6918.62
451.57	6848.41
451.76	6911.60
451.94	6794.58
452.13	6899.90
452.31	7124.59
452.49	6939.69
452.68	7101.19
452.86	6986.50
453.05	7005.22
453.23	6993.52
453.42	6904.58
453.60	6958.41
453.78	7035.65
453.97	7131.61
454.15	7087.14
454.34	7096.50
454.52	7087.14
454.70	7042.67
454.89	6935.01
455.07	7073.10
455.26	7239.28
455.44	7344.60
455.62	7311.83
455.81	7269.70
455.99	7344.60
456.17	7494.40
456.36	7211.19
456.54	7611.42
456.73	7578.65
456.91	7618.44
457.09	7550.57
457.28	7632.49
457.46	7513.12
457.64	7569.29
457.83	7735.47
458.01	7510.78
458.19	7915.69
458.38	7702.70
458.56	7845.48
458.74	7611.42
458.93	7768.24
459.11	7943.78
459.29	7857.18
459.48	7948.46
459.66	7896.97
459.84	8084.21
460.03	8231.66
460.21	8135.70
460.39	8037.40
460.57	8056.12
460.76	8266.77
460.94	8308.90
461.12	8154.43
461.31	8098.25
461.49	8236.35
461.67	8138.04
461.85	8484.44
462.04	8269.11
462.22	8568.70
462.40	8503.17
462.59	8463.38
462.77	8456.36
462.95	8622.53
463.13	8334.65
463.32	8503.17
463.50	8746.58
463.68	8655.30
463.86	8816.80
464.05	8552.32
464.23	8582.74
464.41	8641.26
464.59	8409.54
464.78	8933.82
464.96	8741.90
465.14	8601.47
465.32	8688.07
465.50	8959.57
465.69	9153.84
465.87	8812.12
466.05	8912.76
466.23	8788.71
466.41	8891.70
466.60	9020.42
466.78	8779.35
466.96	8861.27
467.14	8875.31
467.32	9076.60
467.51	9018.08
467.69	8798.07
467.87	9067.24
468.05	9118.73
468.23	9034.47
468.41	9036.81
468.60	9116.39
468.78	9078.94
468.96	9228.73
469.14	9256.82
469.32	9425.34
469.50	9001.70
469.69	9514.28
469.87	9535.34
470.05	9394.91
470.23	9497.89
470.41	9724.93
470.59	9713.22
470.77	9600.88
470.95	9544.70
471.14	9774.08
471.32	9554.07
471.50	9806.84
471.68	9614.92
471.86	9783.44
472.04	9891.10
472.22	10181.33
472.40	10029.20
472.58	10036.22
472.77	10066.64
472.95	10183.67
473.13	10361.55
473.31	10012.81
473.49	10104.09
473.67	10209.42
473.85	10368.57
474.03	10513.69
474.21	10450.49
474.39	10452.83
474.57	10626.03
474.75	10839.02
474.93	10516.03
475.12	10820.30
475.30	10904.56
475.48	10717.31
475.66	11019.24
475.84	10743.06
476.02	11105.84
476.20	11143.29
476.38	11286.06
476.56	11412.45
476.74	11449.90
476.92	11262.66
477.10	11396.07
477.28	11653.53
477.46	11712.04
477.64	11580.97
477.82	11756.51
478.00	11868.86
478.18	11995.25
478.36	11999.93
478.54	12208.23
478.72	12325.26
478.90	12367.39
479.08	12631.87
479.26	12315.90
479.44	12498.46
479.62	12769.96
479.80	12952.52
479.98	12968.91
480.16	13078.91
480.34	13027.42
480.52	13116.36
480.70	13252.11
480.88	13151.47
481.06	13322.33
481.24	13198.28
481.41	13811.50
481.59	13977.68
481.77	13867.67
481.95	13874.70
482.13	13940.23
482.31	13928.53
482.49	14300.67
482.67	14441.11
482.85	14532.39
483.03	14780.48
483.21	14967.73
483.39	14874.10
483.57	14841.34
483.74	14951.34
483.92	15379.66
484.10	15122.20
484.28	15487.32
484.46	15473.28
484.64	15590.31
484.82	15367.96
485.00	15833.72
485.18	16173.10
485.35	16245.66
485.53	16222.25
485.71	16500.78
485.89	16547.59
486.07	16362.69
486.25	16741.85
486.43	16746.53
486.61	17057.82
486.78	17228.68
486.96	17228.68
487.14	17579.76
487.32	17233.36
487.50	17427.63
487.68	17785.73
487.85	17785.73
488.03	18207.03
488.21	18284.26
488.39	18134.47
488.57	18438.74
488.75	18611.94
488.92	18513.64
489.10	18712.58
489.28	18897.49
489.46	19300.06
489.64	18920.89
489.81	19112.81
489.99	19321.12
490.17	19393.68
490.35	19758.80
490.53	19836.04
490.70	20247.97
490.88	19871.15
491.06	20203.50
491.24	19992.86
491.41	20638.84
491.59	20496.07
491.77	20723.10
491.95	20805.02
492.13	20847.15
492.30	21170.15
492.48	21249.72
492.66	21245.04
492.84	21326.96
493.01	21458.03
493.19	21783.37
493.37	21624.21
493.54	21930.82
493.72	22080.61
493.90	22118.06
494.08	22522.98
494.25	22331.05
494.43	22518.29
494.61	22494.89
494.79	22771.07
494.96	22398.93
495.14	22981.72
495.32	23386.63
495.49	23183.01
495.67	23391.31
495.85	23365.57
496.02	23494.30
496.20	23779.84
496.38	23871.12
496.55	23789.20
496.73	24498.39
496.91	24184.76
497.09	24056.03
497.26	24552.22
497.44	24266.67
497.62	24599.03
497.79	25095.22
497.97	25027.35
498.14	25280.13
498.32	25530.56
498.50	25570.35
498.67	25703.76
498.85	25411.20
499.03	25748.23
499.20	25947.18
499.38	25666.31
499.56	25687.38
499.73	25837.17
499.91	26258.47
500.08	26583.80
500.26	25977.61
500.44	26436.35
500.61	26656.36
500.79	26480.82
500.97	26752.32
501.14	27185.32
501.32	27143.19
501.49	27042.55
501.67	27143.19
501.84	27302.35
502.02	26752.32
502.20	27307.03
502.37	27466.19
502.55	27424.06
502.72	27826.63
502.90	27730.67
503.07	28046.64
503.25	27786.84
503.43	27913.23
503.60	28318.14
503.78	28147.28
503.95	27920.25
504.13	28102.81
504.30	28414.10
504.48	28266.65
504.65	28512.41
504.83	29359.68
505.01	28872.85
505.18	28769.86
505.36	28959.45
505.53	28767.52
505.71	28999.24
505.88	29638.20
506.06	29249.67
506.23	29408.83
506.41	29156.05
506.58	29780.98
506.76	29399.47
506.93	29394.79
507.11	29926.09
507.28	29970.56
507.46	29738.85
507.63	29963.54
507.81	29951.84
507.98	29729.48
508.16	29886.30
508.33	30258.45
508.50	30478.46
508.68	30560.37
508.85	30824.86
509.03	30492.50
509.20	30998.06
509.38	31070.61
509.55	31065.93
509.73	31164.23
509.90	31484.89
510.08	31316.37
510.25	31772.77
510.42	31632.34
510.60	31681.49
510.77	31903.84
510.95	31924.91
511.12	32044.27
511.30	32123.85
511.47	32259.60
511.64	32243.22
511.82	32245.56
511.99	32362.59
512.17	32070.02
512.34	32343.86
512.51	32790.91
512.69	32954.74
512.86	32769.84
513.04	32781.54
513.21	33394.76
513.38	33104.54
513.56	32608.34
513.73	32760.48
513.90	33151.35
514.08	33387.74
514.25	33574.98
514.43	33591.37
514.60	33556.26
514.77	33633.50
514.95	33998.62
515.12	33420.51
515.29	33558.60
515.47	34157.78
515.64	33893.30
515.81	34094.58
515.99	34007.98
516.16	34216.29
516.33	34455.03
516.51	34660.99
516.68	34373.11
516.85	34593.12
517.03	34684.40
517.20	35269.53
517.37	34609.50
517.54	34506.52
517.72	34604.82
517.89	34859.94
518.06	35129.10
518.24	35318.68
518.41	35096.33
518.58	35253.15
518.75	35189.95
518.93	35379.54
519.10	35234.42
519.27	35370.18
519.45	35831.26
519.62	35873.39
519.79	35873.39
519.96	35786.79
520.14	35934.24
520.31	35356.13
520.48	35997.44
520.65	35662.74
520.83	35962.33
521.00	35852.33
521.17	36332.14
521.34	36062.97
521.52	36004.46
521.69	36392.99
521.86	36704.28
522.03	37120.90
522.20	37076.43
522.38	37322.18
522.55	36989.83
522.72	37376.01
522.89	36940.68
523.07	37453.25
523.24	37144.30
523.41	37605.39
523.58	36959.40
523.75	37670.92
523.92	37659.22
524.10	37544.53
524.27	37701.35
524.44	37832.42
524.61	37717.73
524.78	37867.53
524.96	37523.47
525.13	38115.62
525.30	38242.01
525.47	38492.45
525.64	38497.13
525.81	38239.67
525.98	38398.83
526.16	38195.20
526.33	38342.66
526.50	38543.94
526.67	38831.83
526.84	38490.11
527.01	39075.24
527.18	38607.14
527.36	38864.60
527.53	38653.95
527.70	39166.52
527.87	39271.85
528.04	38712.46
528.21	39405.26
528.38	39136.10
528.55	39379.51
528.72	39658.04
528.89	39271.85
529.07	39105.67
529.24	39173.55
529.41	39765.70
529.58	39487.18
529.75	39524.63
529.92	39634.63
530.09	39620.59
530.26	39847.62
530.43	40032.52
530.60	39751.66
530.77	39592.50
530.94	40348.50
531.11	39997.41
531.28	40201.04
531.46	40444.46
531.63	40041.88
531.80	40388.28
531.97	40498.29
532.14	40524.04
532.31	40388.28
532.48	40769.79
532.65	40774.47
532.82	40863.41
532.99	40538.08
533.16	40451.48
533.33	41111.51
533.50	40959.38
533.67	41020.23
533.84	40760.43
534.01	41170.02
534.18	40797.88
534.35	41500.04
534.52	40933.63
534.69	40893.84
534.86	40931.29
535.03	40868.09
535.20	41600.68
535.37	41436.84
535.54	41951.76
535.71	41383.01
535.88	41591.32
536.05	41893.25
536.22	41944.74
536.38	42024.32
536.55	41979.85
536.72	42003.25
536.89	42541.58
537.06	42405.83
537.23	42548.60
537.40	42405.83
537.57	42160.07
537.74	42033.68
537.91	42614.13
538.08	42389.44
538.25	41860.48
538.42	42443.27
538.59	42464.34
538.75	42387.10
538.92	42869.25
539.09	42930.11
539.26	42394.12
539.43	42068.79
539.60	42394.12
539.77	42635.20
539.94	43178.20
540.11	43014.37
540.28	43346.72
540.44	43367.79
540.61	43180.54
540.78	43023.73
540.95	43157.14
541.12	43171.18
541.29	43559.71
541.46	43604.18
541.62	44318.04
541.79	43510.56
541.96	43353.74
542.13	43416.94
542.30	43615.88
542.47	43730.57
542.63	43732.91
542.80	43973.98
542.97	43997.39
543.14	44156.55
543.31	44439.75
543.48	44327.41
543.64	44926.58
543.81	44577.84
543.98	44383.58
544.15	44296.98
544.32	44311.02
544.48	44601.25
544.65	44825.94
544.82	44765.09
544.99	44336.77
545.16	45132.55
545.32	45059.99
545.49	45158.30
545.66	45500.01
545.83	45687.26
546.00	46043.02
546.16	45467.25
546.33	44839.98
546.50	45003.82
546.67	45010.84
546.83	44584.86
547.00	45043.61
547.17	44678.49
547.34	45106.80
547.50	45490.65
547.67	45881.52
547.84	45605.34
548.00	45963.44
548.17	45794.92
548.34	45471.93
548.51	45813.65
548.67	45378.31
548.84	45890.88
549.01	45633.42
549.18	45731.73
549.34	45483.63
549.51	45975.14
549.68	45705.98
549.84	45954.08
550.01	45514.06
550.18	45443.84
550.34	45305.75
550.51	45846.41
550.68	46050.04
550.84	45916.63
551.01	46045.36
551.18	45902.59
551.34	45254.26
551.51	45720.02
551.68	45478.95
551.84	46239.62
552.01	45853.44
552.18	46223.24
552.34	46248.99
552.51	46251.33
552.68	46466.66
552.84	46878.59
553.01	46461.97
553.18	46595.38
553.34	46342.61
553.51	46057.06
553.67	46569.64
553.84	46766.24
554.01	47026.04
554.17	46920.72
554.34	46522.83
554.51	46663.26
554.67	46995.62
554.84	46497.08
555.00	46274.73
555.17	46370.69
555.33	46644.54
555.50	46852.84
555.67	47030.72
555.83	46571.98
556.00	47110.30
556.16	47143.07
556.33	46892.63
556.50	46557.94
556.66	47234.35
556.83	46904.34
556.99	47388.83
557.16	47114.98
557.32	47316.27
557.49	47669.69
557.65	47007.32
557.82	47061.15
557.98	47313.93
558.15	47297.55
558.32	47168.82
558.48	46941.78
558.65	47342.02
558.81	47550.32
558.98	47576.07
559.14	47461.38
559.31	47580.75
559.47	47229.67
559.64	47388.83
559.80	47800.76
559.97	47688.42
560.13	47276.48
560.30	47540.96
560.46	47533.94
560.63	47407.55
560.79	47934.17
560.96	47817.14
561.12	47861.61
561.29	47899.06
561.45	47763.31
561.61	48020.77
561.78	47629.90
561.94	47798.42
562.11	48383.55
562.27	48203.33
562.44	48493.56
562.60	47739.91
562.77	47819.49
562.93	48109.71
563.10	47924.81
563.26	47798.42
563.42	48133.12
563.59	48308.66
563.75	47959.92
563.92	48751.02
564.08	48154.18
564.24	48348.45
564.41	47840.55
564.57	47992.68
564.74	47782.04
564.90	48428.02
565.07	48439.73
565.23	48444.41
565.39	48509.94
565.56	48509.94
565.72	47796.08
565.88	48435.05
566.05	48343.77
566.21	48154.18
566.38	48018.43
566.54	48364.83
566.70	48626.97
566.87	48484.20
567.03	48060.56
567.19	49059.97
567.36	48884.43
567.52	48224.40
567.68	48514.62
567.85	48416.32
568.01	48893.79
568.17	48519.31
568.34	48617.61
568.50	48498.24
568.66	48760.38
568.83	48589.52
568.99	48624.63
569.15	48350.79
569.32	48463.13
569.48	48673.78
569.64	48842.30
569.81	48570.80
569.97	48516.96
570.13	48903.15
570.30	48416.32
570.46	48638.67
570.62	48563.78
570.78	48727.61
570.95	48772.08
571.11	48893.79
571.27	48655.06
571.43	48732.29
571.60	48526.33
571.76	48786.13
571.92	48809.53
572.09	49015.50
572.25	49151.25
572.41	49031.88
572.57	48767.40
572.74	49085.72
572.90	49216.78
573.06	48751.02
573.22	48966.35
573.38	48814.21
573.55	48854.00
573.71	48846.98
573.87	48760.38
574.03	48465.47
574.20	48896.13
574.36	48746.34
574.52	48774.42
574.68	49169.97
574.84	49333.81
575.01	49003.80
575.17	49069.33
575.33	48917.20
575.49	48596.54
575.65	48835.28
575.82	49169.97
575.98	49162.95
576.14	49392.33
576.30	49153.59
576.46	48589.52
576.62	48896.13
576.79	49181.68
576.95	49162.95
577.11	49418.07
577.27	49343.17
577.43	49043.59
577.59	49153.59
577.75	49455.52
577.92	48832.94
578.08	49029.54
578.24	48781.45
578.40	49305.73
578.56	49148.91
578.72	49219.13
578.88	49600.63
579.04	49635.74
579.21	49511.69
579.37	49347.86
579.53	49413.39
579.69	49389.98
579.85	48935.92
580.01	49673.19
580.17	49198.06
580.33	49364.24
580.49	49104.44
580.65	49291.68
580.82	49549.14
580.98	49336.15
581.14	49584.25
581.30	49858.09
581.46	49249.55
581.62	49303.38
581.78	49146.57
581.94	49071.67
582.10	49263.60
582.26	49397.01
582.42	49120.82
582.58	49247.21
582.74	49249.55
582.90	49464.88
583.06	49443.82
583.22	49551.48
583.38	49326.79
583.54	49200.40
583.70	49345.51
583.86	49523.40
584.02	49263.60
584.18	49198.06
584.34	49507.01
584.50	49738.72
584.66	49382.96
584.82	49443.82
584.98	49439.14
585.14	49406.37
585.30	49198.06
585.46	49799.58
585.62	49134.87
585.78	50033.63
585.94	49450.84
586.10	49434.45
586.26	49464.88
586.42	49712.98
586.58	49532.76
586.74	49429.77
586.90	49488.29
587.06	49265.94
587.22	49797.24
587.38	49315.09
587.54	49703.62
587.70	49996.18
587.86	49668.51
588.02	49827.66
588.18	50162.36
588.34	50014.91
588.49	49766.81
588.65	49556.16
588.81	49549.14
588.97	49563.18
589.13	49687.23
