SpectraSuite Data File
++++++++++++++++++++++++++++++++++++
Date: Thu Oct 24 13:21:19 EDT 2013
User: stostad
Dark Spectrum Present: No
Reference Spectrum Present: No
Number of Sampled Component Spectra: 1
Spectrometers: USB2+H05261
Integration Time (usec): 100000 (USB2+H05261)
Spectra Averaged: 1 (USB2+H05261)
Boxcar Smoothing: 0 (USB2+H05261)
Correct for Electrical Dark: No (USB2+H05261)
Strobe/Lamp Enabled: No (USB2+H05261)
Correct for Detector Non-linearity: No (USB2+H05261)
Correct for Stray Light: No (USB2+H05261)
Number of Pixels in Processed Spectrum: 2048
>>>>>Begin Processed Spectral Data<<<<<
365.73	543.00
365.92	543.00
366.12	543.00
366.32	503.22
366.52	411.93
366.72	503.22
366.91	437.68
367.11	498.53
367.31	414.27
367.51	440.02
367.70	390.87
367.90	496.19
368.10	479.81
368.30	564.07
368.49	477.47
368.69	526.62
368.89	489.17
369.09	496.19
369.28	463.43
369.48	498.53
369.68	528.96
369.87	498.53
370.07	571.09
370.27	524.28
370.47	622.58
370.66	798.12
370.86	837.91
371.06	844.93
371.25	877.70
371.45	809.83
371.65	887.06
371.84	833.23
372.04	931.53
372.24	924.51
372.44	919.83
372.63	947.92
372.83	1057.92
373.03	880.04
373.22	961.96
373.42	1060.26
373.62	957.28
373.81	973.66
374.01	978.34
374.21	973.66
374.40	994.73
374.60	1041.54
374.79	1001.75
374.99	999.41
375.19	1018.13
375.38	980.68
375.58	971.32
375.78	976.00
375.97	973.66
376.17	1055.58
376.37	990.05
376.56	1060.26
376.76	1043.88
376.95	994.73
377.15	917.49
377.35	1060.26
377.54	1025.15
377.74	1022.81
377.93	1013.45
378.13	1013.45
378.33	1055.58
378.52	1071.97
378.72	1057.92
378.91	1086.01
379.11	1100.05
379.31	1121.12
379.50	1102.39
379.70	1076.65
379.89	1125.80
380.09	1064.94
380.28	971.32
380.48	1071.97
380.68	1071.97
380.87	1041.54
381.07	1041.54
381.26	1114.10
381.46	1142.18
381.65	1186.65
381.85	1093.03
382.04	1184.31
382.24	1146.86
382.43	1123.46
382.63	1184.31
382.83	1102.39
383.02	1170.27
383.22	1242.82
383.41	1188.99
383.61	1032.18
383.80	1207.72
384.00	1188.99
384.19	1252.19
384.39	1261.55
384.58	1252.19
384.78	1263.89
384.97	1186.65
385.17	1263.89
385.36	1179.63
385.56	1165.59
385.75	1212.40
385.95	1207.72
386.14	1205.38
386.34	1205.38
386.53	1203.04
386.72	1240.48
386.92	1188.99
387.11	1277.93
387.31	1327.08
387.50	1315.38
387.70	1277.93
387.89	1284.95
388.09	1296.66
388.28	1348.15
388.48	1324.74
388.67	1324.74
388.86	1310.70
389.06	1334.11
389.25	1259.21
389.45	1376.24
389.64	1345.81
389.84	1259.21
390.03	1329.42
390.22	1404.32
390.42	1357.51
390.61	1420.71
390.81	1432.41
391.00	1392.62
391.19	1474.54
391.39	1336.45
391.58	1430.07
391.78	1383.26
391.97	1444.11
392.16	1376.24
392.36	1448.79
392.55	1476.88
392.75	1465.18
392.94	1486.24
393.13	1392.62
393.33	1479.22
393.52	1502.62
393.71	1507.30
393.91	1469.86
394.10	1432.41
394.29	1519.01
394.49	1530.71
394.68	1563.48
394.88	1563.48
395.07	1591.56
395.26	1568.16
395.46	1572.84
395.65	1661.78
395.84	1600.93
396.04	1633.69
396.23	1593.90
396.42	1624.33
396.62	1540.07
396.81	1584.54
397.00	1671.14
397.19	1650.08
397.39	1652.42
397.58	1703.91
397.77	1575.18
397.97	1610.29
398.16	1694.55
398.35	1689.87
398.55	1753.06
398.74	1699.23
398.93	1820.94
399.12	1767.10
399.32	1699.23
399.51	1806.89
399.70	1858.39
399.90	1767.10
400.09	1837.32
400.28	1860.73
400.47	1785.83
400.67	1846.68
400.86	1846.68
401.05	1832.64
401.24	1907.54
401.44	1935.62
401.63	1914.56
401.82	1935.62
402.01	1842.00
402.21	2012.86
402.40	1984.77
402.59	1930.94
402.78	1949.67
402.97	1984.77
403.17	1947.33
403.36	1996.48
403.55	2008.18
403.74	2022.22
403.93	2038.61
404.13	2132.23
404.32	2029.24
404.51	2169.68
404.70	2162.66
404.89	2078.40
405.09	2080.74
405.28	2146.27
405.47	2097.12
405.66	2172.02
405.85	2204.78
406.05	2249.25
406.24	2143.93
406.43	2148.61
406.62	2279.68
406.81	2235.21
407.00	2165.00
407.20	2225.85
407.39	2263.30
407.58	2298.41
407.77	2305.43
407.96	2408.41
408.15	2347.56
408.34	2368.62
408.54	2394.37
408.73	2408.41
408.92	2413.09
409.11	2462.24
409.30	2588.63
409.49	2569.91
409.68	2483.31
409.87	2509.05
410.07	2518.42
410.26	2649.49
410.45	2614.38
410.64	2441.18
410.83	2635.44
411.02	2703.32
411.21	2623.74
411.40	2719.70
411.59	2724.38
411.78	2731.41
411.98	2736.09
412.17	2686.94
412.36	2775.88
412.55	2738.43
412.74	2836.73
412.93	2836.73
413.12	2813.32
413.31	2850.77
413.50	2920.99
413.69	2963.12
413.88	2979.50
414.07	2984.18
414.26	3087.17
414.45	3047.38
414.64	3141.00
414.83	3117.59
415.02	3110.57
415.22	3150.36
415.41	3150.36
415.60	3138.66
415.79	3236.96
415.98	3260.37
416.17	3150.36
416.36	3194.83
416.55	3204.19
416.74	3412.50
416.93	3286.11
417.12	3370.37
417.31	3398.46
417.50	3494.42
417.69	3527.19
417.88	3482.72
418.07	3454.63
418.26	3513.14
418.45	3620.81
418.64	3644.21
418.83	3534.21
419.02	3515.48
419.21	3557.61
419.39	3618.47
419.58	3632.51
419.77	3599.74
419.96	3709.75
420.15	3712.09
420.34	3679.32
420.53	3641.87
420.72	3796.35
420.91	3742.52
421.10	3875.93
421.29	3852.52
421.48	3904.01
421.67	3878.27
421.86	3826.78
422.05	3882.95
422.24	3852.52
422.43	3918.06
422.61	3852.52
422.80	3974.23
422.99	3925.08
423.18	3882.95
423.37	3964.87
423.56	3866.56
423.75	3941.46
423.94	3971.89
424.13	3742.52
424.32	3868.91
424.50	3882.95
424.69	4011.68
424.88	4002.32
425.07	3904.01
425.26	3871.25
425.45	3967.21
425.64	4007.00
425.83	4028.06
426.01	4039.76
426.20	4039.76
426.39	3992.95
426.58	4007.00
426.77	4037.42
426.96	4053.81
427.15	4074.87
427.33	4147.43
427.52	4161.47
427.71	4191.90
427.90	4191.90
428.09	4147.43
428.28	4262.12
428.46	4315.95
428.65	4262.12
428.84	4355.74
429.03	4245.73
429.22	4290.20
429.40	4341.69
429.59	4121.68
429.78	4283.18
429.97	4145.09
430.16	4374.46
430.34	4437.66
430.53	4503.19
430.72	4603.83
430.91	4545.32
431.10	4461.06
431.28	4505.53
431.47	4465.74
431.66	4498.51
431.85	4444.68
432.03	4521.92
432.22	4720.86
432.41	4645.96
432.60	4599.15
432.79	4760.65
432.97	4655.33
433.16	4732.56
433.35	4662.35
433.54	4713.84
433.72	4727.88
433.91	4760.65
434.10	4905.76
434.28	4664.69
434.47	4854.27
434.66	4975.98
434.85	4957.25
435.03	5018.11
435.22	5060.24
435.41	5193.65
435.59	5163.22
435.78	5163.22
435.97	5144.50
436.16	5060.24
436.34	4968.96
436.53	5205.35
436.72	5081.30
436.90	4929.17
437.09	5097.69
437.28	5135.14
437.46	5184.29
437.65	5231.10
437.84	5303.65
438.02	5350.46
438.21	5219.39
438.40	5118.75
438.58	5270.89
438.77	5481.53
438.96	5294.29
439.14	5430.04
439.33	5607.92
439.52	5554.09
439.70	5502.60
439.89	5654.73
440.08	5636.01
440.26	5661.76
440.45	5605.58
440.63	5717.93
440.82	5872.40
441.01	5568.13
441.19	5949.64
441.38	5830.27
441.57	5895.81
441.75	5940.28
441.94	5966.03
442.12	5959.00
442.31	6127.52
442.50	6132.20
442.68	5949.64
442.87	6289.02
443.05	6118.16
443.24	6286.68
443.43	6232.85
443.61	6293.70
443.80	6408.39
443.98	6136.88
444.17	5961.34
444.35	6174.33
444.54	6293.70
444.73	6431.79
444.91	6216.46
445.10	6356.90
445.28	6403.71
445.47	6434.13
445.65	6319.45
445.84	6347.53
446.02	6363.92
446.21	6312.42
446.39	6321.79
446.58	6525.41
446.77	6473.92
446.95	6300.72
447.14	6525.41
447.32	6377.96
447.51	6387.32
447.69	6333.49
447.88	6321.79
448.06	6499.67
448.25	6434.13
448.43	6504.35
448.62	6555.84
448.80	6462.22
448.99	6602.65
449.17	6366.26
449.36	6644.78
449.54	6733.72
449.73	6595.63
449.91	7007.56
450.10	6806.28
450.28	6869.47
450.46	6920.96
450.65	6836.70
450.83	6953.73
451.02	6885.86
451.20	6829.68
451.39	6944.37
451.57	6871.81
451.76	6930.33
451.94	6972.46
452.13	6913.94
452.31	7049.69
452.49	6834.36
452.68	7206.51
452.86	6986.50
453.05	7040.33
453.23	7101.19
453.42	6993.52
453.60	6906.92
453.78	7316.51
453.97	7148.00
454.15	7148.00
454.34	7021.61
454.52	7208.85
454.70	7243.96
454.89	7286.09
455.07	7421.84
455.26	7520.14
455.44	7452.27
455.62	7538.87
455.81	7536.52
455.99	7515.46
456.17	7489.71
456.36	7304.81
456.54	7625.47
456.73	7571.63
456.91	7716.75
457.09	7424.18
457.28	7754.19
457.46	7618.44
457.64	7838.45
457.83	7819.73
458.01	7777.60
458.19	7941.44
458.38	7899.31
458.56	8224.64
458.74	7899.31
458.93	8182.51
459.11	7918.03
459.29	8063.15
459.48	8109.96
459.66	8152.09
459.84	8184.85
460.03	8344.01
460.21	8409.54
460.39	8182.51
460.57	8320.60
460.76	8236.35
460.94	8222.30
461.12	8538.27
461.31	8503.17
461.49	8313.58
461.67	8477.42
461.85	8463.38
462.04	8390.82
462.22	8746.58
462.40	8718.50
462.59	8571.04
462.77	8430.61
462.95	8592.11
463.13	8542.96
463.32	8652.96
463.50	8828.50
463.68	8669.34
463.86	8788.71
464.05	8582.74
464.23	8491.46
464.41	8840.20
464.59	8643.60
464.78	8779.35
464.96	8905.74
465.14	8615.51
465.32	8936.17
465.50	8924.46
465.69	8933.82
465.87	8912.76
466.05	8879.99
466.23	8966.59
466.41	9039.15
466.60	9104.68
466.78	9287.25
466.96	8943.19
467.14	9139.79
467.32	9111.71
467.51	9305.97
467.69	8968.93
467.87	9331.72
468.05	9415.98
468.23	9139.79
468.41	9158.52
468.60	9280.22
468.78	9343.42
468.96	9195.96
469.14	9533.00
469.32	9628.96
469.50	9144.47
469.69	9469.81
469.87	9652.37
470.05	9600.88
470.23	9785.78
470.41	9619.60
470.59	9717.90
470.77	9804.50
470.95	9607.90
471.14	9877.06
471.32	9731.95
471.50	9963.66
471.68	9879.40
471.86	10029.20
472.04	10015.15
472.22	10031.54
472.40	10054.94
472.58	10214.10
472.77	10043.24
472.95	10141.54
473.13	10487.94
473.31	10181.33
473.49	10284.31
473.67	10516.03
473.85	10574.54
474.03	10555.82
474.21	10537.09
474.39	10523.05
474.57	10764.12
474.75	10759.44
474.93	10897.53
475.12	10824.98
475.30	10965.41
475.48	11101.16
475.66	11176.06
475.84	11084.78
476.02	11145.63
476.20	11140.95
476.38	11496.71
476.56	11812.68
476.74	11723.74
476.92	11541.18
477.10	11389.05
477.28	11623.10
477.46	11719.06
477.64	11810.34
477.82	12278.45
478.00	12194.19
478.18	12074.82
478.36	12245.68
478.54	12662.30
478.72	12351.01
478.90	12650.60
479.08	12622.51
479.26	12767.62
479.44	12971.25
479.62	13107.00
479.80	12858.90
479.98	13062.53
480.16	13514.25
480.34	13301.26
480.52	13308.29
480.70	13301.26
480.88	13411.27
481.06	13542.34
481.24	13628.94
481.41	14012.79
481.59	14104.07
481.77	14139.18
481.95	14277.27
482.13	14033.85
482.31	14375.57
482.49	14443.45
482.67	14555.79
482.85	14719.63
483.03	14757.08
483.21	15115.18
483.39	15293.06
483.57	15119.86
483.74	15171.35
483.92	15066.03
484.10	15253.27
484.28	15562.22
484.46	15658.18
484.64	16290.13
484.82	16039.69
485.00	15950.75
485.18	16271.40
485.35	16648.23
485.53	16456.31
485.71	16596.74
485.89	16816.75
486.07	16835.47
486.25	17226.34
486.43	17008.67
486.61	17413.59
486.78	17273.15
486.96	17369.12
487.14	17762.33
487.32	17619.55
487.50	17813.82
487.68	17935.53
487.85	18153.20
488.03	18457.46
488.21	18658.75
488.39	18450.44
488.57	18630.66
488.75	18679.82
488.92	18881.10
489.10	18895.14
489.28	19342.19
489.46	19435.81
489.64	19178.35
489.81	19683.91
489.99	19625.39
490.17	20011.58
490.35	20053.71
490.53	20566.29
490.70	20592.03
490.88	20236.27
491.06	20554.58
491.24	20655.23
491.41	20577.99
491.59	21092.91
491.77	21240.36
491.95	21025.03
492.13	21188.87
492.30	21273.13
492.48	21392.50
492.66	21509.52
492.84	21432.29
493.01	22008.06
493.19	21855.92
493.37	21921.46
493.54	22192.96
493.72	22148.49
493.90	22354.46
494.08	22441.06
494.25	22705.54
494.43	23211.09
494.61	22906.82
494.79	22750.01
494.96	23353.87
495.14	23583.24
495.32	23433.44
495.49	23407.70
495.67	23487.28
495.85	23711.97
496.02	24121.56
496.20	23917.93
496.38	24212.84
496.55	24669.25
496.73	25167.78
496.91	24463.28
497.09	24805.00
497.26	24980.54
497.44	24910.32
497.62	24971.18
497.79	25207.57
497.97	25184.16
498.14	25523.54
498.32	25668.66
498.50	25839.51
498.67	25839.51
498.85	25771.64
499.03	25888.67
499.20	26185.91
499.38	26326.35
499.56	26590.83
499.73	26525.29
499.91	26628.27
500.08	26852.97
500.26	26380.18
500.44	26782.75
500.61	27023.83
500.79	27372.57
500.97	27468.53
501.14	27679.18
501.32	27211.07
501.49	27477.89
501.67	27498.95
501.84	27997.49
502.02	27882.80
502.20	28407.08
502.37	27796.20
502.55	28018.55
502.72	28058.34
502.90	28402.40
503.07	27896.85
503.25	28355.59
503.43	28374.31
503.60	28444.53
503.78	28692.63
503.95	28596.67
504.13	28748.80
504.30	28811.99
504.48	28582.62
504.65	29027.32
504.83	29102.22
505.01	29706.08
505.18	29551.60
505.36	29497.77
505.53	29205.20
505.71	29832.47
505.88	29441.60
506.06	29450.96
506.23	29605.44
506.41	30103.97
506.58	29898.00
506.76	29699.06
506.93	30228.02
507.11	30356.75
507.28	30511.22
507.46	30279.51
507.63	31019.12
507.81	30948.90
507.98	30712.51
508.16	30623.57
508.33	31068.27
508.50	30754.64
508.68	30988.69
508.85	31260.20
509.03	31248.49
509.20	31103.38
509.38	31337.43
509.55	31672.13
509.73	31695.53
509.90	31805.54
510.08	32123.85
510.25	31702.56
510.42	32088.74
510.60	32233.86
510.77	32486.64
510.95	32713.67
511.12	32165.98
511.30	32524.08
511.47	32891.55
511.64	32636.43
511.82	32533.45
511.99	33230.93
512.17	32774.52
512.34	33125.60
512.51	33357.32
512.69	33001.55
512.86	33326.89
513.04	33530.51
513.21	33111.56
513.38	33511.79
513.56	33530.51
513.73	33294.12
513.90	33823.08
514.08	33530.51
514.25	34309.91
514.43	34403.53
514.60	34127.35
514.77	34120.33
514.95	34445.66
515.12	34000.96
515.29	34192.89
515.47	34288.85
515.64	34478.43
515.81	34218.63
515.99	34167.14
516.16	34686.74
516.33	34553.33
516.51	34944.20
516.68	35108.04
516.85	34876.32
517.03	35082.29
517.20	35304.64
517.37	35438.05
517.54	35335.07
517.72	35285.92
517.89	35271.87
518.06	35569.12
518.24	35702.53
518.41	35915.52
518.58	35772.75
518.75	35894.46
518.93	35566.78
519.10	35278.89
519.27	35903.82
519.45	35920.20
519.62	36074.68
519.79	36034.89
519.96	35915.52
520.14	36311.07
520.31	36194.04
520.48	36542.78
520.65	36449.16
520.83	37289.42
521.00	36744.07
521.17	37038.98
521.34	36893.86
521.52	36837.69
521.69	36753.43
521.86	36856.42
522.03	37237.92
522.20	37656.88
522.38	37750.50
522.55	37928.38
522.72	37113.87
522.89	37516.45
523.07	38071.15
523.24	37844.12
523.41	37687.31
523.58	37626.45
523.75	38036.05
523.92	37691.99
524.10	37778.59
524.27	38506.49
524.44	38206.90
524.61	38667.99
524.78	38763.95
524.96	38557.99
525.13	38579.05
525.30	39009.71
525.47	38906.73
525.64	38827.15
525.81	38700.76
525.98	39009.71
526.16	38838.85
526.33	38733.53
526.50	39236.74
526.67	39157.16
526.84	39763.36
527.01	39239.08
527.18	39290.57
527.36	39269.51
527.53	39414.62
527.70	40016.14
527.87	39578.46
528.04	39414.62
528.21	40339.13
528.38	40004.44
528.55	40313.39
528.72	39754.00
528.89	39789.11
529.07	40048.91
529.24	40318.07
529.41	40247.85
529.58	39873.37
529.75	40395.31
529.92	40641.06
530.09	40306.37
530.26	40472.54
530.43	40701.92
530.60	40158.91
530.77	40172.96
530.94	40821.28
531.11	40900.86
531.28	40620.00
531.46	40779.15
531.63	40315.73
531.80	40870.43
531.97	40966.40
532.14	41017.89
532.31	40720.64
532.48	40879.80
532.65	41469.61
532.82	40919.59
532.99	41263.64
533.16	41237.90
533.33	41390.03
533.50	41654.51
533.67	41436.84
533.84	41116.19
534.01	41970.49
534.18	41593.66
534.35	42050.06
534.52	41961.12
534.69	41996.23
534.86	42220.92
535.03	41607.70
535.20	41832.39
535.37	42195.18
535.54	42424.55
535.71	42363.70
535.88	42469.02
536.05	42230.29
536.22	42665.63
536.38	42466.68
536.55	42927.77
536.72	42712.44
536.89	42684.35
537.06	43026.07
537.23	43021.39
537.40	43255.44
537.57	42429.23
537.74	42883.30
537.91	43012.02
538.08	43194.59
538.25	43255.44
538.42	43297.57
538.59	43372.47
538.75	43056.50
538.92	43456.73
539.09	43168.84
539.26	43339.70
539.43	42630.52
539.60	43849.94
539.77	43702.48
539.94	43655.67
540.11	43466.09
540.28	44116.76
540.44	43973.98
540.61	43655.67
540.78	43772.70
540.95	43908.45
541.12	44079.31
541.29	43714.19
541.46	43966.96
541.62	44278.25
541.79	44121.44
541.96	43995.05
542.13	44039.52
542.30	44414.01
542.47	44114.42
542.63	44381.24
542.80	45120.85
542.97	44928.92
543.14	45020.20
543.31	44847.00
543.48	45324.47
543.64	44987.44
543.81	45191.06
543.98	45387.67
544.15	44861.05
544.32	44708.91
544.48	45338.52
544.65	45057.65
544.82	45797.26
544.99	45048.29
545.16	45261.28
545.32	44959.35
545.49	45855.78
545.66	46466.66
545.83	46600.07
546.00	46188.13
546.16	46021.95
546.33	45998.55
546.50	45492.99
546.67	45656.83
546.83	45258.94
547.00	45670.87
547.17	45462.57
547.34	45607.68
547.50	45935.35
547.67	45998.55
547.84	46206.86
548.00	46251.33
548.17	46658.58
548.34	46071.10
548.51	46209.20
548.67	46267.71
548.84	46085.15
549.01	46394.10
549.18	46546.23
549.34	46330.90
549.51	46625.81
549.68	46550.91
549.84	46426.87
550.01	46431.55
550.18	46529.85
550.34	46066.42
550.51	45855.78
550.68	46775.61
550.84	46487.72
551.01	46997.96
551.18	46361.33
551.34	46162.39
551.51	46579.00
551.68	46539.21
551.84	46761.56
552.01	46749.86
552.18	46773.27
552.34	46899.65
552.51	47047.11
552.68	47035.41
552.84	47075.19
553.01	46686.67
553.18	47250.74
553.34	47014.34
553.51	46857.52
553.67	47026.04
553.84	47639.26
554.01	47690.76
554.17	47393.51
554.34	47405.21
554.51	47482.45
554.67	47414.57
554.84	47475.43
555.00	47145.41
555.17	47103.28
555.33	47386.49
555.50	47367.76
555.67	47739.91
555.83	47304.57
556.00	47753.95
556.16	47927.15
556.33	47718.84
556.50	47091.58
556.66	47817.14
556.83	47157.11
556.99	48149.50
557.16	47569.05
557.32	48086.31
557.49	48374.19
557.65	48133.12
557.82	48222.06
557.98	48062.90
558.15	47676.71
558.32	48257.17
558.48	47990.34
558.65	48154.18
558.81	48446.75
558.98	48062.90
559.14	48374.19
559.31	48212.70
559.47	48460.79
559.64	48184.61
559.80	48172.91
559.97	48154.18
560.13	48156.52
560.30	48112.05
560.46	48369.51
560.63	48678.46
560.79	48538.03
560.96	48680.80
561.12	48217.38
561.29	48320.36
561.45	48168.22
561.61	48568.46
561.78	48355.47
561.94	48896.13
562.11	48598.88
562.27	48718.25
562.44	48776.76
562.60	48666.76
562.77	48163.54
562.93	48463.13
563.10	48795.49
563.26	48306.32
563.42	49006.14
563.59	48615.27
563.75	48842.30
563.92	48720.59
564.08	48516.96
564.24	49202.74
564.41	48891.45
564.57	48481.86
564.74	48259.51
564.90	49223.81
565.07	48823.58
565.23	48924.22
565.39	48959.33
565.56	49397.01
565.72	48832.94
565.88	49109.12
566.05	48978.05
566.21	49010.82
566.38	49022.52
566.54	48701.87
566.70	49134.87
566.87	49188.70
567.03	48982.73
567.19	49794.90
567.36	49429.77
567.52	48975.71
567.68	49020.18
567.85	48947.62
568.01	49610.00
568.17	49062.31
568.34	49439.14
568.50	49521.05
568.66	49521.05
568.83	49586.59
568.99	49240.19
569.15	49134.87
569.32	49385.30
569.48	49008.48
569.64	49113.80
569.81	49319.77
569.97	49202.74
570.13	49511.69
570.30	49184.02
570.46	48816.55
570.62	49345.51
570.78	49361.90
570.95	49052.95
571.11	49565.52
571.27	49298.70
571.43	49006.14
571.60	49228.49
571.76	48949.96
571.92	49366.58
572.09	49703.62
572.25	49958.73
572.41	49708.30
572.57	49612.34
572.74	49979.80
572.90	49221.47
573.06	49607.65
573.22	49523.40
573.38	49537.44
573.55	49640.42
573.71	49888.52
573.87	49432.11
574.03	49301.04
574.20	49663.83
574.36	50157.68
574.52	49750.43
574.68	49617.02
574.84	49691.91
575.01	49881.50
575.17	49792.56
575.33	49661.49
575.49	49457.86
575.65	49673.19
575.82	49778.51
575.98	49666.17
576.14	49916.61
576.30	49680.21
576.46	49551.48
576.62	49918.95
576.79	49818.30
576.95	49509.35
577.11	49860.43
577.27	49612.34
577.43	50005.55
577.59	49930.65
577.75	50342.58
577.92	49993.84
578.08	49883.84
578.24	49654.47
578.40	49860.43
578.56	49846.39
578.72	50234.92
578.88	50478.33
579.04	50120.23
579.21	50017.25
579.37	50000.86
579.53	50169.38
579.69	50106.19
579.85	49701.28
580.01	49918.95
580.17	50197.47
580.33	49907.24
580.49	49993.84
580.65	50291.09
580.82	49925.97
580.98	50024.27
581.14	49832.35
581.30	50085.12
581.46	49720.00
581.62	49921.29
581.78	49666.17
581.94	50197.47
582.10	49727.02
582.26	49808.94
582.42	49560.84
582.58	49551.48
582.74	50017.25
582.90	49862.77
583.06	49839.37
583.22	50010.23
583.38	50344.92
583.54	49862.77
583.70	49588.93
583.86	50078.10
584.02	49879.16
584.18	50181.09
584.34	49937.67
584.50	50244.28
584.66	49848.73
584.82	49881.50
584.98	50209.17
585.14	49876.82
585.30	50351.94
585.46	50059.38
585.62	49888.52
585.78	50679.62
585.94	50089.80
586.10	50564.93
586.26	50681.96
586.42	50501.74
586.58	50293.43
586.74	50344.92
586.90	50330.88
587.06	49586.59
587.22	50487.70
587.38	50401.10
587.54	50216.19
587.70	50637.49
587.86	50195.13
588.02	50389.39
588.18	50527.48
588.34	50490.04
588.49	50192.79
588.65	50267.69
588.81	50085.12
588.97	50241.94
589.13	50433.86
