SpectraSuite Data File
++++++++++++++++++++++++++++++++++++
Date: Thu Oct 24 13:21:09 EDT 2013
User: stostad
Dark Spectrum Present: No
Reference Spectrum Present: No
Number of Sampled Component Spectra: 1
Spectrometers: USB2+H05261
Integration Time (usec): 100000 (USB2+H05261)
Spectra Averaged: 1 (USB2+H05261)
Boxcar Smoothing: 0 (USB2+H05261)
Correct for Electrical Dark: No (USB2+H05261)
Strobe/Lamp Enabled: No (USB2+H05261)
Correct for Detector Non-linearity: No (USB2+H05261)
Correct for Stray Light: No (USB2+H05261)
Number of Pixels in Processed Spectrum: 2048
>>>>>Begin Processed Spectral Data<<<<<
365.73	629.60
365.92	629.60
366.12	629.60
366.32	449.38
366.52	430.66
366.72	543.00
366.91	425.98
367.11	465.77
367.31	421.30
367.51	512.58
367.70	433.00
367.90	416.62
368.10	468.11
368.30	477.47
368.49	489.17
368.69	484.49
368.89	447.04
369.09	514.92
369.28	484.49
369.48	444.70
369.68	461.09
369.87	554.71
370.07	486.83
370.27	514.92
370.47	561.73
370.66	638.97
370.86	669.39
371.06	688.12
371.25	758.33
371.45	732.59
371.65	683.44
371.84	704.50
372.04	732.59
372.24	746.63
372.44	784.08
372.63	744.29
372.83	706.84
373.03	711.52
373.22	807.48
373.42	748.97
373.62	798.12
373.81	741.95
374.01	795.78
374.21	826.21
374.40	805.14
374.60	833.23
374.79	793.44
374.99	837.91
375.19	791.10
375.38	837.91
375.58	870.68
375.78	866.00
375.97	805.14
376.17	849.61
376.37	854.30
376.56	903.45
376.76	826.21
376.95	828.55
377.15	856.64
377.35	856.64
377.54	870.68
377.74	767.70
377.93	842.59
378.13	819.19
378.33	819.19
378.52	896.43
378.72	866.00
378.91	837.91
379.11	777.06
379.31	854.30
379.50	826.21
379.70	795.78
379.89	929.19
380.09	772.38
380.28	903.45
380.48	880.04
380.68	880.04
380.87	800.46
381.07	844.93
381.26	896.43
381.46	816.85
381.65	837.91
381.85	788.76
382.04	837.91
382.24	891.74
382.43	835.57
382.63	882.38
382.83	917.49
383.02	917.49
383.22	926.85
383.41	877.70
383.61	912.81
383.80	882.38
384.00	936.21
384.19	861.32
384.39	903.45
384.58	884.72
384.78	943.24
384.97	961.96
385.17	947.92
385.36	873.02
385.56	985.37
385.75	903.45
385.95	884.72
386.14	915.15
386.34	866.00
386.53	968.98
386.72	861.32
386.92	917.49
387.11	894.08
387.31	971.32
387.50	943.24
387.70	896.43
387.89	1006.43
388.09	1022.81
388.28	945.58
388.48	936.21
388.67	966.64
388.86	990.05
389.06	926.85
389.25	954.94
389.45	973.66
389.64	945.58
389.84	1050.90
390.03	938.55
390.22	992.39
390.42	1071.97
390.61	1039.20
390.81	990.05
391.00	1013.45
391.19	990.05
391.39	1008.77
391.58	987.71
391.78	1029.84
391.97	1062.60
392.16	1067.28
392.36	978.34
392.55	999.41
392.75	1050.90
392.94	1050.90
393.13	978.34
393.33	1109.41
393.52	1043.88
393.71	1032.18
393.91	1048.56
394.10	1057.92
394.29	1013.45
394.49	964.30
394.68	1083.67
394.88	1109.41
395.07	1015.79
395.26	1081.33
395.46	1069.62
395.65	1177.29
395.84	1097.71
396.04	1207.72
396.23	1111.75
396.42	1132.82
396.62	1135.16
396.81	1146.86
397.00	1123.46
397.19	1165.59
397.39	1102.39
397.58	1240.48
397.77	1228.78
397.97	1174.95
398.16	1083.67
398.35	1226.44
398.55	1144.52
398.74	1142.18
398.93	1167.93
399.12	1191.33
399.32	1207.72
399.51	1158.57
399.70	1196.01
399.90	1212.40
400.09	1151.54
400.28	1303.68
400.47	1245.16
400.67	1210.06
400.86	1313.04
401.05	1205.38
401.24	1196.01
401.44	1301.34
401.63	1287.29
401.82	1373.89
402.01	1289.64
402.21	1256.87
402.40	1322.40
402.59	1296.66
402.78	1275.59
402.97	1291.98
403.17	1259.21
403.36	1355.17
403.55	1383.26
403.74	1390.28
403.93	1362.19
404.13	1425.39
404.32	1425.39
404.51	1345.81
404.70	1394.96
404.89	1437.09
405.09	1394.96
405.28	1425.39
405.47	1441.77
405.66	1451.13
405.85	1472.20
406.05	1483.90
406.24	1430.07
406.43	1394.96
406.62	1502.62
406.81	1509.65
407.00	1444.11
407.20	1455.81
407.39	1469.86
407.58	1535.39
407.77	1465.18
407.96	1465.18
408.15	1523.69
408.34	1516.67
408.54	1600.93
408.73	1591.56
408.92	1563.48
409.11	1652.42
409.30	1619.65
409.49	1521.35
409.68	1497.94
409.87	1530.71
410.07	1607.95
410.26	1657.10
410.45	1577.52
410.64	1547.09
410.83	1680.50
411.02	1558.80
411.21	1619.65
411.40	1666.46
411.59	1647.74
411.78	1682.85
411.98	1736.68
412.17	1762.42
412.36	1673.48
412.55	1722.63
412.74	1736.68
412.93	1692.21
413.12	1750.72
413.31	1710.93
413.50	1795.19
413.69	1837.32
413.88	1879.45
414.07	1853.70
414.26	1898.17
414.45	1888.81
414.64	1834.98
414.83	1860.73
415.02	1949.67
415.22	1830.30
415.41	1966.05
415.60	1926.26
415.79	1956.69
415.98	1888.81
416.17	2043.29
416.36	1989.46
416.55	1921.58
416.74	1949.67
416.93	1881.79
417.12	2031.58
417.31	2153.29
417.50	1994.14
417.69	2087.76
417.88	2111.16
418.07	2057.33
418.26	2193.08
418.45	2108.82
418.64	2120.53
418.83	2176.70
419.02	2073.71
419.21	2202.44
419.39	2186.06
419.58	2062.01
419.77	2106.48
419.96	2291.38
420.15	2223.51
420.34	2183.72
420.53	2211.81
420.72	2277.34
420.91	2291.38
421.10	2246.91
421.29	2270.32
421.48	2279.68
421.67	2207.13
421.86	2249.25
422.05	2291.38
422.24	2221.17
422.43	2230.53
422.61	2256.28
422.80	2333.51
422.99	2340.54
423.18	2286.70
423.37	2272.66
423.56	2270.32
423.75	2349.90
423.94	2265.64
424.13	2174.36
424.32	2228.19
424.50	2204.78
424.69	2289.04
424.88	2396.71
425.07	2377.98
425.26	2209.47
425.45	2312.45
425.64	2370.96
425.83	2289.04
426.01	2296.07
426.20	2417.77
426.39	2373.30
426.58	2314.79
426.77	2375.64
426.96	2319.47
427.15	2438.84
427.33	2427.14
427.52	2415.43
427.71	2347.56
427.90	2387.35
428.09	2450.54
428.28	2471.61
428.46	2614.38
428.65	2457.56
428.84	2607.36
429.03	2450.54
429.22	2499.69
429.40	2609.70
429.59	2408.41
429.78	2352.24
429.97	2448.20
430.16	2452.88
430.34	2628.42
430.53	2572.25
430.72	2586.29
430.91	2600.34
431.10	2553.52
431.28	2651.83
431.47	2668.21
431.66	2616.72
431.85	2511.39
432.03	2700.98
432.22	2677.57
432.41	2658.85
432.60	2635.44
432.79	2644.81
432.97	2644.81
433.16	2710.34
433.35	2803.96
433.54	2754.81
433.72	2761.83
433.91	2740.77
434.10	2785.24
434.28	2708.00
434.47	2813.32
434.66	2803.96
434.85	2766.51
435.03	2925.67
435.22	3073.12
435.41	3243.98
435.59	3190.15
435.78	3035.67
435.97	3059.08
436.16	2995.89
436.34	2878.86
436.53	2923.33
436.72	2864.82
436.90	2803.96
437.09	2918.65
437.28	2860.13
437.46	2881.20
437.65	2949.08
437.84	2965.46
438.02	2939.71
438.21	2972.48
438.40	2806.30
438.58	2991.20
438.77	2970.14
438.96	3023.97
439.14	3110.57
439.33	3143.34
439.52	3155.04
439.70	3136.32
439.89	3166.74
440.08	3232.28
440.26	3222.92
440.45	3218.24
440.63	3150.36
440.82	3279.09
441.01	3222.92
441.19	3356.33
441.38	3302.50
441.57	3290.79
441.75	3475.70
441.94	3384.41
442.12	3344.63
442.31	3414.84
442.50	3459.31
442.68	3576.34
442.87	3346.97
443.05	3506.12
443.24	3485.06
443.43	3480.38
443.61	3499.10
443.80	3583.36
443.98	3410.16
444.17	3372.71
444.35	3545.91
444.54	3597.40
444.73	3503.78
444.91	3597.40
445.10	3639.53
445.28	3595.06
445.47	3478.04
445.65	3520.17
445.84	3585.70
446.02	3564.64
446.21	3705.07
446.39	3562.30
446.58	3595.06
446.77	3552.93
446.95	3466.33
447.14	3590.38
447.32	3613.79
447.51	3459.31
447.69	3529.53
447.88	3459.31
448.06	3595.06
448.25	3620.81
448.43	3569.32
448.62	3557.61
448.80	3520.17
448.99	3665.28
449.17	3578.68
449.36	3599.74
449.54	3691.02
449.73	3646.55
449.91	3735.50
450.10	3824.44
450.28	3805.71
450.46	3754.22
450.65	3681.66
450.83	3815.07
451.02	3798.69
451.20	3866.56
451.39	3943.80
451.57	3838.48
451.76	3866.56
451.94	3742.52
452.13	3845.50
452.31	3889.97
452.49	3747.20
452.68	3999.98
452.86	3936.78
453.05	3866.56
453.23	3758.90
453.42	3791.67
453.60	3896.99
453.78	3899.33
453.97	3927.42
454.15	3824.44
454.34	4056.15
454.52	3995.29
454.70	4044.45
454.89	3936.78
455.07	4114.66
455.26	4014.02
455.44	4114.66
455.62	3878.27
455.81	3960.19
455.99	4042.11
456.17	4018.70
456.36	4210.62
456.54	4219.99
456.73	4395.53
456.91	4280.84
457.09	4322.97
457.28	4131.05
457.46	4318.29
457.64	4367.44
457.83	4161.47
458.01	4386.16
458.19	4404.89
458.38	4367.44
458.56	4365.10
458.74	4311.27
458.93	4348.72
459.11	4393.19
459.29	4418.93
459.48	4414.25
459.66	4241.05
459.84	4451.70
460.03	4559.36
460.21	4409.57
460.39	4351.06
460.57	4557.02
460.76	4348.72
460.94	4617.88
461.12	4645.96
461.31	4561.70
461.49	4334.67
461.67	4589.79
461.85	4629.58
462.04	4496.17
462.22	4985.34
462.40	4690.43
462.59	4580.43
462.77	4601.49
462.95	4678.73
463.13	4538.30
463.32	4753.63
463.50	4706.82
463.68	4730.22
463.86	4690.43
464.05	4610.86
464.23	4631.92
464.41	4692.77
464.59	4669.37
464.78	4840.23
464.96	4737.24
465.14	4674.05
465.32	4734.90
465.50	4905.76
465.69	4816.82
465.87	4929.17
466.05	4851.93
466.23	4835.55
466.41	4851.93
466.60	4931.51
466.78	4821.50
466.96	4910.44
467.14	4924.49
467.32	4856.61
467.51	4889.38
467.69	4777.03
467.87	4919.81
468.05	4994.70
468.23	4800.44
468.41	4938.53
468.60	4915.12
468.78	5013.43
468.96	4931.51
469.14	5153.86
469.32	5195.99
469.50	4919.81
469.69	4980.66
469.87	5179.61
470.05	5090.67
470.23	5093.01
470.41	5050.88
470.59	5284.93
470.77	5181.95
470.95	5076.62
471.14	5390.25
471.32	5121.09
471.50	5242.80
471.68	5366.85
471.86	5310.68
472.04	5233.44
472.22	5408.98
472.40	5275.57
472.58	5266.21
472.77	5511.96
472.95	5441.75
473.13	5518.98
473.31	5504.94
473.49	5645.37
473.67	5476.85
473.85	5628.99
474.03	5621.97
474.21	5556.43
474.39	5631.33
474.57	5624.31
474.75	5748.36
474.93	5771.76
475.12	5598.56
475.30	5755.38
475.48	5886.45
475.66	5916.87
475.84	5729.63
476.02	5797.51
476.20	5907.51
476.38	5970.71
476.56	6036.24
476.74	6024.54
476.92	6174.33
477.10	6153.27
477.28	6099.44
477.46	6200.08
477.64	6190.72
477.82	6361.58
478.00	6452.86
478.18	6244.55
478.36	6525.41
478.54	6389.66
478.72	6509.03
478.90	6656.48
479.08	6586.27
479.26	6829.68
479.44	6668.19
479.62	6792.23
479.80	6810.96
479.98	6696.27
480.16	6841.39
480.34	6974.80
480.52	6965.43
480.70	7215.87
480.88	6888.20
481.06	7066.08
481.24	7180.76
481.41	7227.57
481.59	7105.87
481.77	7176.08
481.95	7335.24
482.13	7407.80
482.31	7445.24
482.49	7377.37
482.67	7356.30
482.85	7597.38
483.03	7644.19
483.21	7819.73
483.39	7925.05
483.57	7829.09
483.74	7761.22
483.92	7887.61
484.10	7761.22
484.28	7847.82
484.46	8156.77
484.64	8217.62
484.82	8121.66
485.00	8159.11
485.18	8077.19
485.35	8486.78
485.53	8435.29
485.71	8655.30
485.89	8538.27
486.07	8486.78
486.25	8643.60
486.43	8784.03
486.61	8741.90
486.78	8847.22
486.96	9100.00
487.14	9025.11
487.32	9015.74
487.50	9020.42
487.68	9146.81
487.85	9366.82
488.03	9298.95
488.21	9423.00
488.39	9399.59
488.57	9451.08
488.75	9444.06
488.92	9678.12
489.10	9706.20
489.28	9818.55
489.46	9865.36
489.64	9757.69
489.81	10132.18
489.99	9867.70
490.17	10010.47
490.35	10289.00
490.53	10160.27
490.70	10181.33
490.88	10052.60
491.06	10356.87
491.24	10504.32
491.41	10324.10
491.59	10609.65
491.77	10897.53
491.95	10817.96
492.13	10623.69
492.30	10757.10
492.48	10785.19
492.66	10930.30
492.84	10832.00
493.01	10874.13
493.19	10981.79
493.37	11063.71
493.54	11040.31
493.72	11351.60
493.90	11403.09
494.08	11421.81
494.25	11335.21
494.43	11485.01
494.61	11442.88
494.79	11655.87
494.96	11571.61
495.14	11559.91
495.32	11843.11
495.49	12004.61
495.67	11705.02
495.85	11749.49
496.02	11999.93
496.20	12315.90
496.38	12182.49
496.55	12119.29
496.73	12346.33
496.91	12149.72
497.09	12503.14
497.26	12226.96
497.44	12524.21
497.62	12535.91
497.79	12725.49
497.97	12678.68
498.14	12812.09
498.32	12580.38
498.50	12730.17
498.67	13081.25
498.85	12805.07
499.03	12856.56
499.20	12699.75
499.38	13315.31
499.56	13177.22
499.73	13156.15
499.91	13280.20
500.08	13376.16
500.26	13015.72
500.44	13041.46
500.61	13387.86
500.79	13516.59
500.97	13652.34
501.14	13703.84
501.32	13673.41
501.49	13523.62
501.67	13650.00
501.84	13685.11
502.02	13650.00
502.20	13905.12
502.37	13628.94
502.55	13687.45
502.72	13987.04
502.90	14059.60
503.07	14068.96
503.25	14038.53
503.43	13998.74
503.60	14001.08
503.78	14246.84
503.95	14223.44
504.13	14193.01
504.30	14267.91
504.48	14352.16
504.65	14260.88
504.83	14558.13
505.01	14768.78
505.18	14338.12
505.36	14555.79
505.53	14335.78
505.71	14759.42
505.88	14663.46
506.06	14438.76
506.23	14965.39
506.41	14668.14
506.58	14801.55
506.76	14663.46
506.93	15108.16
507.11	14974.75
507.28	15229.87
507.46	15225.18
507.63	15016.88
507.81	15309.44
507.98	14960.70
508.16	15229.87
508.33	15250.93
508.50	15447.54
508.68	15353.91
508.85	15316.47
509.03	15302.42
509.20	15389.02
509.38	15733.08
509.55	15403.07
509.73	15494.35
509.90	15822.02
510.08	15449.88
510.25	15704.99
510.42	15782.23
510.60	15707.34
510.77	15854.79
510.95	16112.25
511.12	15798.62
511.30	16037.35
511.47	16011.60
511.64	16283.11
511.82	16072.46
511.99	16187.14
512.17	16496.10
512.34	16053.73
512.51	16496.10
512.69	16578.01
512.86	16369.71
513.04	16500.78
513.21	16704.40
513.38	16617.80
513.56	16535.88
513.73	16699.72
513.90	16545.25
514.08	16748.87
514.25	16828.45
514.43	16730.15
514.60	17039.10
514.77	16751.21
514.95	16800.37
515.12	16816.75
515.29	16910.37
515.47	17308.26
515.64	17102.29
515.81	16840.15
515.99	17261.45
516.16	17427.63
516.33	17331.67
516.51	17350.39
516.68	17266.13
516.85	17184.21
517.03	17200.60
517.20	17179.53
517.37	17378.48
517.54	16957.18
517.72	17605.51
517.89	17509.55
518.06	17500.19
518.24	17790.41
518.41	17523.59
518.58	17488.48
518.75	17657.00
518.93	17771.69
519.10	17418.27
519.27	17570.40
519.45	17535.29
519.62	17472.10
519.79	17687.43
519.96	17905.10
520.14	17790.41
520.31	17923.82
520.48	17888.71
520.65	18082.98
520.83	18263.20
521.00	18373.21
521.17	18235.11
521.34	18216.39
521.52	18239.79
521.69	18265.54
521.86	18277.24
522.03	18403.63
522.20	18368.52
522.38	18700.88
522.55	18431.72
522.72	18728.97
522.89	18370.86
523.07	18792.16
523.24	18572.15
523.41	18471.51
523.58	18595.56
523.75	18677.48
523.92	18398.95
524.10	18686.84
524.27	18551.09
524.44	18960.68
524.61	18967.70
524.78	18941.96
524.96	19026.21
525.13	19307.08
525.30	19101.11
525.47	18974.72
525.64	18998.13
525.81	18822.59
525.98	19318.78
526.16	18927.91
526.33	19335.17
526.50	19499.00
526.67	19054.30
526.84	19126.86
527.01	19592.62
527.18	19473.26
527.36	19271.97
527.53	19653.48
527.70	19257.93
527.87	19344.53
528.04	19477.94
528.21	19714.33
528.38	19571.56
528.55	19426.45
528.72	19520.07
528.89	19597.31
529.07	19524.75
529.24	19435.81
529.41	19463.90
529.58	19880.51
529.75	19833.70
529.92	20184.78
530.09	20081.80
530.26	19609.01
530.43	19903.92
530.60	19758.80
530.77	19999.88
530.94	20247.97
531.11	19924.98
531.28	20081.80
531.46	20053.71
531.63	20004.56
531.80	20255.00
531.97	19943.70
532.14	20182.44
532.31	20100.52
532.48	20360.32
532.65	20428.20
532.82	20217.55
532.99	20294.79
533.16	20238.61
533.33	20402.45
533.50	20306.49
533.67	20215.21
533.84	20304.15
534.01	20374.36
534.18	20554.58
534.35	20875.24
534.52	20554.58
534.69	20606.08
534.86	20655.23
535.03	20247.97
535.20	20236.27
535.37	20568.63
535.54	21064.82
535.71	20475.01
535.88	20599.05
536.05	20718.42
536.22	20643.52
536.38	20964.18
536.55	20776.94
536.72	20931.41
536.89	20931.41
537.06	21191.21
537.23	21266.11
537.40	21069.50
537.57	21102.27
537.74	21235.68
537.91	21179.51
538.08	21181.85
538.25	21062.48
538.42	20966.52
538.59	21238.02
538.75	20940.77
538.92	21238.02
539.09	21378.45
539.26	21326.96
539.43	21404.20
539.60	21394.84
539.77	21476.76
539.94	21832.52
540.11	21738.90
540.28	21617.19
540.44	21624.21
540.61	21280.15
540.78	21308.24
540.95	21724.85
541.12	21996.35
541.29	22143.81
541.46	22302.96
541.62	22197.64
541.79	22097.00
541.96	22003.38
542.13	21799.75
542.30	22188.28
542.47	22146.15
542.63	22087.64
542.80	22178.92
542.97	22270.20
543.14	22560.42
543.31	22604.89
543.48	22223.39
543.64	22501.91
543.81	22504.25
543.98	22623.62
544.15	22618.94
544.32	22539.36
544.48	22595.53
544.65	22466.80
544.82	22466.80
544.99	22462.12
545.16	22944.27
545.32	22487.87
545.49	23063.64
545.66	23723.67
545.83	23805.59
546.00	23817.29
546.16	23396.00
546.33	23524.72
546.50	22995.76
546.67	22925.55
546.83	22464.46
547.00	23026.19
547.17	22476.16
547.34	22501.91
547.50	22728.94
547.67	22850.65
547.84	22860.01
548.00	22939.59
548.17	22890.44
548.34	22766.39
548.51	22864.69
548.67	23112.79
548.84	23285.99
549.01	22824.90
549.18	22951.29
549.34	23147.90
549.51	22916.19
549.68	22925.55
549.84	22993.42
550.01	23061.30
550.18	22754.69
550.34	22572.13
550.51	22995.76
550.68	23016.83
550.84	22740.64
551.01	22944.27
551.18	22658.73
551.34	22658.73
551.51	22974.70
551.68	23082.36
551.84	23080.02
552.01	22724.26
552.18	22937.25
552.34	22913.84
552.51	23082.36
552.68	22981.72
552.84	23325.78
553.01	23293.01
553.18	23304.71
553.34	23379.61
553.51	23194.71
553.67	23323.44
553.84	23346.84
554.01	23517.70
554.17	23314.08
554.34	23438.12
554.51	23190.03
554.67	23470.89
554.84	23140.88
555.00	23370.25
555.17	22974.70
555.33	23346.84
555.50	23068.32
555.67	23695.58
555.83	23264.92
556.00	23756.44
556.16	23791.55
556.33	23688.56
556.50	23344.50
556.66	23381.95
556.83	23672.18
556.99	23590.26
557.16	23583.24
557.32	23836.02
557.49	23711.97
557.65	23639.41
557.82	23545.79
557.98	23662.82
558.15	23580.90
558.32	23426.42
558.48	23440.47
558.65	23597.28
558.81	23772.82
558.98	24037.30
559.14	23864.10
559.31	24112.20
559.47	23498.98
559.64	23714.31
559.80	23587.92
559.97	23658.14
560.13	23599.62
560.30	23716.65
560.46	23260.24
560.63	23646.43
560.79	23634.73
560.96	23852.40
561.12	23726.01
561.29	23843.04
561.45	23913.25
561.61	23861.76
561.78	24016.24
561.94	24217.52
562.11	24053.69
562.27	24161.35
562.44	23772.82
562.60	23618.35
562.77	24189.44
562.93	24079.43
563.10	24072.41
563.26	24056.03
563.42	24088.79
563.59	23569.19
563.75	23777.50
563.92	24196.46
564.08	23971.77
564.24	24301.78
564.41	23782.18
564.57	23828.99
564.74	24070.07
564.90	24222.20
565.07	24381.36
565.23	24301.78
565.39	24011.56
565.56	24116.88
565.72	24147.31
565.88	24072.41
566.05	24240.93
566.21	24037.30
566.38	24100.50
566.54	23962.40
566.70	24243.27
566.87	24482.00
567.03	24189.44
567.19	24362.64
567.36	24711.38
567.52	24100.50
567.68	24360.30
567.85	24020.92
568.01	24446.90
568.17	24086.45
568.34	23985.81
568.50	24243.27
568.66	24320.51
568.83	24133.26
568.99	24226.89
569.15	24470.30
569.32	24114.54
569.48	24411.79
569.64	24102.84
569.81	24203.48
569.97	24147.31
570.13	24240.93
570.30	24320.51
570.46	24549.88
570.62	24184.76
570.78	24259.65
570.95	24177.73
571.11	24308.80
571.27	24198.80
571.43	24311.14
571.60	23948.36
571.76	24477.32
571.92	24638.82
572.09	24627.12
572.25	24430.51
572.41	24706.70
572.57	24709.04
572.74	24765.21
572.90	24446.90
573.06	24386.04
573.22	24442.21
573.38	24421.15
573.55	24343.91
573.71	24559.24
573.87	24531.15
574.03	24313.48
574.20	24301.78
574.36	24194.12
574.52	24690.31
574.68	24477.32
574.84	24570.94
575.01	24683.29
575.17	24549.88
575.33	24379.02
575.49	24503.07
575.65	24531.15
575.82	24444.56
575.98	24570.94
576.14	24643.50
576.30	24596.69
576.46	24730.10
576.62	24753.51
576.79	24648.18
576.95	24498.39
577.11	24350.93
577.27	24627.12
577.43	24882.24
577.59	24723.08
577.75	24325.19
577.92	24460.94
578.08	24634.14
578.24	24444.56
578.40	24872.87
578.56	24702.01
578.72	24903.30
578.88	24856.49
579.04	24842.45
579.21	24751.17
579.37	24617.75
579.53	24842.45
579.69	24875.21
579.85	24767.55
580.01	24915.00
580.17	24463.28
580.33	24655.20
580.49	24257.31
580.65	24734.78
580.82	24531.15
580.98	24372.00
581.14	24664.57
581.30	24704.35
581.46	24716.06
581.62	24496.05
581.78	24212.84
581.94	24393.06
582.10	24395.40
582.26	24566.26
582.42	24526.47
582.58	24617.75
582.74	24741.80
582.90	24577.97
583.06	24561.58
583.22	24545.20
583.38	24615.41
583.54	24531.15
583.70	24514.77
583.86	24570.94
584.02	24858.83
584.18	24702.01
584.34	25050.75
584.50	24999.26
584.66	24596.69
584.82	24584.99
584.98	24669.25
585.14	24636.48
585.30	24570.94
585.46	24797.98
585.62	24910.32
585.78	24720.74
585.94	24723.08
586.10	24631.80
586.26	24577.97
586.42	24861.17
586.58	24535.84
586.74	24959.47
586.90	24456.26
587.06	24833.08
587.22	25046.07
587.38	24896.28
587.54	24985.22
587.70	24884.58
587.86	25151.40
588.02	25308.21
588.18	24992.24
588.34	25041.39
588.49	24797.98
588.65	24666.91
588.81	24554.56
588.97	24968.84
589.13	24460.94
589.29	24566.26
589.45	24790.95
589.61	25064.80
589.77	25298.85
589.93	24823.72
590.08	25184.16
590.24	25043.73
590.40	24929.05
590.56	24833.08
590.72	24713.72
590.88	24592.01
