SpectraSuite Data File
++++++++++++++++++++++++++++++++++++
Date: Thu Oct 24 13:21:03 EDT 2013
User: stostad
Dark Spectrum Present: No
Reference Spectrum Present: No
Number of Sampled Component Spectra: 1
Spectrometers: USB2+H05261
Integration Time (usec): 100000 (USB2+H05261)
Spectra Averaged: 1 (USB2+H05261)
Boxcar Smoothing: 0 (USB2+H05261)
Correct for Electrical Dark: No (USB2+H05261)
Strobe/Lamp Enabled: No (USB2+H05261)
Correct for Detector Non-linearity: No (USB2+H05261)
Correct for Stray Light: No (USB2+H05261)
Number of Pixels in Processed Spectrum: 2048
>>>>>Begin Processed Spectral Data<<<<<
365.73	575.77
365.92	575.77
366.12	575.77
366.32	454.06
366.52	510.24
366.72	482.15
366.91	425.98
367.11	437.68
367.31	449.38
367.51	493.85
367.70	484.49
367.90	451.72
368.10	449.38
368.30	470.45
368.49	489.17
368.69	484.49
368.89	535.98
369.09	430.66
369.28	435.34
369.48	561.73
369.68	479.81
369.87	512.58
370.07	500.87
370.27	571.09
370.47	531.30
370.66	545.34
370.86	538.32
371.06	629.60
371.25	629.60
371.45	554.71
371.65	601.52
371.84	545.34
372.04	564.07
372.24	582.79
372.44	589.82
372.63	599.18
372.83	503.22
373.03	631.94
373.22	596.84
373.42	636.63
373.62	610.88
373.81	641.31
374.01	636.63
374.21	601.52
374.40	648.33
374.60	634.29
374.79	662.37
374.99	648.33
375.19	657.69
375.38	615.56
375.58	692.80
375.78	657.69
375.97	620.24
376.17	695.14
376.37	631.94
376.56	634.29
376.76	608.54
376.95	634.29
377.15	575.77
377.35	636.63
377.54	634.29
377.74	641.31
377.93	610.88
378.13	582.79
378.33	634.29
378.52	645.99
378.72	655.35
378.91	669.39
379.11	643.65
379.31	589.82
379.50	662.37
379.70	655.35
379.89	648.33
380.09	594.50
380.28	540.66
380.48	601.52
380.68	629.60
380.87	615.56
381.07	599.18
381.26	617.90
381.46	645.99
381.65	613.22
381.85	566.41
382.04	653.01
382.24	613.22
382.43	739.61
382.63	657.69
382.83	660.03
383.02	674.07
383.22	645.99
383.41	683.44
383.61	725.57
383.80	706.84
384.00	636.63
384.19	627.26
384.39	667.05
384.58	617.90
384.78	631.94
384.97	638.97
385.17	627.26
385.36	622.58
385.56	634.29
385.75	608.54
385.95	622.58
386.14	592.16
386.34	627.26
386.53	627.26
386.72	601.52
386.92	683.44
387.11	599.18
387.31	662.37
387.50	648.33
387.70	603.86
387.89	601.52
388.09	606.20
388.28	636.63
388.48	629.60
388.67	671.73
388.86	631.94
389.06	617.90
389.25	596.84
389.45	636.63
389.64	603.86
389.84	667.05
390.03	596.84
390.22	610.88
390.42	624.92
390.61	592.16
390.81	571.09
391.00	580.45
391.19	683.44
391.39	671.73
391.58	631.94
391.78	575.77
391.97	645.99
392.16	552.37
392.36	676.41
392.55	653.01
392.75	629.60
392.94	674.07
393.13	702.16
393.33	601.52
393.52	664.71
393.71	674.07
393.91	580.45
394.10	676.41
394.29	587.47
394.49	631.94
394.68	589.82
394.88	744.29
395.07	624.92
395.26	660.03
395.46	685.78
395.65	634.29
395.84	615.56
396.04	697.48
396.23	592.16
396.42	573.43
396.62	610.88
396.81	578.11
397.00	592.16
397.19	648.33
397.39	573.43
397.58	636.63
397.77	624.92
397.97	683.44
398.16	601.52
398.35	592.16
398.55	582.79
398.74	631.94
398.93	631.94
399.12	622.58
399.32	592.16
399.51	613.22
399.70	615.56
399.90	638.97
400.09	610.88
400.28	610.88
400.47	608.54
400.67	660.03
400.86	608.54
401.05	681.10
401.24	662.37
401.44	683.44
401.63	697.48
401.82	550.03
402.01	592.16
402.21	631.94
402.40	648.33
402.59	561.73
402.78	613.22
402.97	638.97
403.17	643.65
403.36	683.44
403.55	660.03
403.74	631.94
403.93	610.88
404.13	709.18
404.32	669.39
404.51	645.99
404.70	662.37
404.89	617.90
405.09	723.23
405.28	660.03
405.47	629.60
405.66	580.45
405.85	641.31
406.05	653.01
406.24	650.67
406.43	599.18
406.62	566.41
406.81	645.99
407.00	624.92
407.20	657.69
407.39	561.73
407.58	671.73
407.77	653.01
407.96	667.05
408.15	737.27
408.34	627.26
408.54	615.56
408.73	650.67
408.92	587.47
409.11	685.78
409.30	634.29
409.49	648.33
409.68	613.22
409.87	643.65
410.07	615.56
410.26	638.97
410.45	629.60
410.64	615.56
410.83	734.93
411.02	594.50
411.21	552.37
411.40	662.37
411.59	580.45
411.78	601.52
411.98	650.67
412.17	627.26
412.36	641.31
412.55	664.71
412.74	674.07
412.93	622.58
413.12	636.63
413.31	613.22
413.50	681.10
413.69	648.33
413.88	648.33
414.07	622.58
414.26	550.03
414.45	627.26
414.64	580.45
414.83	711.52
415.02	643.65
415.22	645.99
415.41	671.73
415.60	613.22
415.79	667.05
415.98	582.79
416.17	671.73
416.36	641.31
416.55	690.46
416.74	681.10
416.93	645.99
417.12	575.77
417.31	650.67
417.50	606.20
417.69	627.26
417.88	620.24
418.07	641.31
418.26	676.41
418.45	624.92
418.64	685.78
418.83	599.18
419.02	624.92
419.21	664.71
419.39	662.37
419.58	627.26
419.77	641.31
419.96	676.41
420.15	692.80
420.34	645.99
420.53	660.03
420.72	641.31
420.91	641.31
421.10	629.60
421.29	606.20
421.48	615.56
421.67	702.16
421.86	650.67
422.05	559.39
422.24	643.65
422.43	613.22
422.61	596.84
422.80	585.13
422.99	638.97
423.18	568.75
423.37	650.67
423.56	678.76
423.75	634.29
423.94	610.88
424.13	610.88
424.32	580.45
424.50	596.84
424.69	592.16
424.88	617.90
425.07	636.63
425.26	660.03
425.45	655.35
425.64	631.94
425.83	587.47
426.01	669.39
426.20	667.05
426.39	674.07
426.58	615.56
426.77	653.01
426.96	629.60
427.15	571.09
427.33	641.31
427.52	674.07
427.71	648.33
427.90	617.90
428.09	578.11
428.28	638.97
428.46	580.45
428.65	631.94
428.84	650.67
429.03	676.41
429.22	622.58
429.40	603.86
429.59	559.39
429.78	627.26
429.97	674.07
430.16	655.35
430.34	683.44
430.53	685.78
430.72	557.05
430.91	664.71
431.10	685.78
431.28	667.05
431.47	667.05
431.66	638.97
431.85	645.99
432.03	603.86
432.22	674.07
432.41	582.79
432.60	664.71
432.79	634.29
432.97	641.31
433.16	711.52
433.35	660.03
433.54	587.47
433.72	751.31
433.91	643.65
434.10	664.71
434.28	664.71
434.47	676.41
434.66	615.56
434.85	734.93
435.03	763.01
435.22	964.30
435.41	1041.54
435.59	968.98
435.78	854.30
435.97	812.17
436.16	755.99
436.34	690.46
436.53	622.58
436.72	624.92
436.90	690.46
437.09	622.58
437.28	627.26
437.46	657.69
437.65	617.90
437.84	631.94
438.02	603.86
438.21	620.24
438.40	629.60
438.58	601.52
438.77	655.35
438.96	566.41
439.14	627.26
439.33	650.67
439.52	662.37
439.70	638.97
439.89	624.92
440.08	631.94
440.26	613.22
440.45	599.18
440.63	627.26
440.82	550.03
441.01	589.82
441.19	671.73
441.38	610.88
441.57	557.05
441.75	690.46
441.94	653.01
442.12	655.35
442.31	599.18
442.50	706.84
442.68	648.33
442.87	645.99
443.05	702.16
443.24	587.47
443.43	606.20
443.61	674.07
443.80	615.56
443.98	582.79
444.17	692.80
444.35	645.99
444.54	594.50
444.73	638.97
444.91	617.90
445.10	596.84
445.28	648.33
445.47	603.86
445.65	638.97
445.84	683.44
446.02	636.63
446.21	592.16
446.39	636.63
446.58	650.67
446.77	634.29
446.95	683.44
447.14	683.44
447.32	622.58
447.51	617.90
447.69	631.94
447.88	636.63
448.06	702.16
448.25	606.20
448.43	683.44
448.62	641.31
448.80	688.12
448.99	706.84
449.17	641.31
449.36	650.67
449.54	557.05
449.73	648.33
449.91	697.48
450.10	608.54
450.28	702.16
450.46	629.60
450.65	660.03
450.83	711.52
451.02	624.92
451.20	617.90
451.39	624.92
451.57	617.90
451.76	622.58
451.94	648.33
452.13	580.45
452.31	671.73
452.49	599.18
452.68	664.71
452.86	638.97
453.05	669.39
453.23	622.58
453.42	650.67
453.60	641.31
453.78	645.99
453.97	617.90
454.15	624.92
454.34	608.54
454.52	634.29
454.70	643.65
454.89	669.39
455.07	650.67
455.26	657.69
455.44	664.71
455.62	641.31
455.81	669.39
455.99	629.60
456.17	671.73
456.36	706.84
456.54	667.05
456.73	629.60
456.91	627.26
457.09	610.88
457.28	645.99
457.46	725.57
457.64	648.33
457.83	631.94
458.01	627.26
458.19	667.05
458.38	596.84
458.56	608.54
458.74	653.01
458.93	678.76
459.11	636.63
459.29	631.94
459.48	627.26
459.66	641.31
459.84	624.92
460.03	674.07
460.21	566.41
460.39	657.69
460.57	603.86
460.76	631.94
460.94	641.31
461.12	629.60
461.31	627.26
461.49	645.99
461.67	636.63
461.85	655.35
462.04	655.35
462.22	1029.84
462.40	690.46
462.59	592.16
462.77	606.20
462.95	744.29
463.13	671.73
463.32	671.73
463.50	690.46
463.68	650.67
463.86	573.43
464.05	695.14
464.23	535.98
464.41	643.65
464.59	601.52
464.78	552.37
464.96	594.50
465.14	610.88
465.32	589.82
465.50	580.45
465.69	690.46
465.87	627.26
466.05	655.35
466.23	627.26
466.41	676.41
466.60	657.69
466.78	638.97
466.96	660.03
467.14	620.24
467.32	662.37
467.51	671.73
467.69	648.33
467.87	638.97
468.05	702.16
468.23	678.76
468.41	657.69
468.60	596.84
468.78	631.94
468.96	669.39
469.14	674.07
469.32	552.37
469.50	596.84
469.69	671.73
469.87	615.56
470.05	669.39
470.23	641.31
470.41	645.99
470.59	606.20
470.77	617.90
470.95	653.01
471.14	615.56
471.32	655.35
471.50	678.76
471.68	702.16
471.86	596.84
472.04	657.69
472.22	631.94
472.40	678.76
472.58	568.75
472.77	585.13
472.95	692.80
473.13	568.75
473.31	631.94
473.49	674.07
473.67	557.05
473.85	599.18
474.03	732.59
474.21	643.65
474.39	669.39
474.57	613.22
474.75	671.73
474.93	606.20
475.12	608.54
475.30	629.60
475.48	648.33
475.66	636.63
475.84	655.35
476.02	643.65
476.20	667.05
476.38	669.39
476.56	643.65
476.74	709.18
476.92	573.43
477.10	657.69
477.28	655.35
477.46	631.94
477.64	643.65
477.82	582.79
478.00	599.18
478.18	706.84
478.36	669.39
478.54	620.24
478.72	627.26
478.90	606.20
479.08	662.37
479.26	629.60
479.44	650.67
479.62	599.18
479.80	657.69
479.98	615.56
480.16	692.80
480.34	657.69
480.52	667.05
480.70	709.18
480.88	613.22
481.06	702.16
481.24	552.37
481.41	636.63
481.59	624.92
481.77	575.77
481.95	671.73
482.13	725.57
482.31	681.10
482.49	695.14
482.67	678.76
482.85	671.73
483.03	692.80
483.21	706.84
483.39	636.63
483.57	660.03
483.74	622.58
483.92	702.16
484.10	645.99
484.28	697.48
484.46	737.27
484.64	718.54
484.82	720.88
485.00	641.31
485.18	657.69
485.35	662.37
485.53	599.18
485.71	734.93
485.89	641.31
486.07	723.23
486.25	748.97
486.43	744.29
486.61	692.80
486.78	657.69
486.96	741.95
487.14	615.56
487.32	706.84
487.50	730.25
487.68	718.54
487.85	695.14
488.03	636.63
488.21	737.27
488.39	688.12
488.57	683.44
488.75	730.25
488.92	781.74
489.10	718.54
489.28	720.88
489.46	660.03
489.64	685.78
489.81	676.41
489.99	727.91
490.17	739.61
490.35	746.63
490.53	638.97
490.70	653.01
490.88	660.03
491.06	753.65
491.24	674.07
491.41	763.01
491.59	678.76
491.77	702.16
491.95	681.10
492.13	653.01
492.30	664.71
492.48	671.73
492.66	695.14
492.84	678.76
493.01	648.33
493.19	660.03
493.37	725.57
493.54	692.80
493.72	741.95
493.90	685.78
494.08	650.67
494.25	713.86
494.43	716.20
494.61	641.31
494.79	678.76
494.96	718.54
495.14	692.80
495.32	711.52
495.49	695.14
495.67	648.33
495.85	660.03
496.02	676.41
496.20	660.03
496.38	620.24
496.55	643.65
496.73	709.18
496.91	601.52
497.09	755.99
497.26	720.88
497.44	657.69
497.62	692.80
497.79	660.03
497.97	634.29
498.14	613.22
498.32	660.03
498.50	720.88
498.67	674.07
498.85	655.35
499.03	674.07
499.20	641.31
499.38	669.39
499.56	664.71
499.73	688.12
499.91	683.44
500.08	702.16
500.26	638.97
500.44	638.97
500.61	699.82
500.79	533.64
500.97	610.88
501.14	660.03
501.32	634.29
501.49	636.63
501.67	667.05
501.84	599.18
502.02	561.73
502.20	631.94
502.37	627.26
502.55	634.29
502.72	613.22
502.90	650.67
503.07	676.41
503.25	664.71
503.43	641.31
503.60	655.35
503.78	610.88
503.95	599.18
504.13	606.20
504.30	669.39
504.48	641.31
504.65	676.41
504.83	664.71
505.01	650.67
505.18	664.71
505.36	631.94
505.53	624.92
505.71	681.10
505.88	629.60
506.06	669.39
506.23	631.94
506.41	631.94
506.58	627.26
506.76	622.58
506.93	641.31
507.11	688.12
507.28	617.90
507.46	671.73
507.63	636.63
507.81	674.07
507.98	587.47
508.16	660.03
508.33	599.18
508.50	692.80
508.68	678.76
508.85	678.76
509.03	681.10
509.20	599.18
509.38	664.71
509.55	688.12
509.73	617.90
509.90	676.41
510.08	645.99
510.25	685.78
510.42	601.52
510.60	662.37
510.77	641.31
510.95	669.39
511.12	585.13
511.30	571.09
511.47	655.35
511.64	685.78
511.82	664.71
511.99	634.29
512.17	617.90
512.34	599.18
512.51	573.43
512.69	622.58
512.86	620.24
513.04	580.45
513.21	594.50
513.38	645.99
513.56	648.33
513.73	676.41
513.90	645.99
514.08	664.71
514.25	671.73
514.43	610.88
514.60	620.24
514.77	664.71
514.95	653.01
515.12	667.05
515.29	624.92
515.47	645.99
515.64	671.73
515.81	643.65
515.99	681.10
516.16	599.18
516.33	554.71
516.51	660.03
516.68	631.94
516.85	608.54
517.03	575.77
517.20	653.01
517.37	636.63
517.54	692.80
517.72	624.92
517.89	622.58
518.06	645.99
518.24	746.63
518.41	667.05
518.58	695.14
518.75	641.31
518.93	613.22
519.10	730.25
519.27	648.33
519.45	662.37
519.62	589.82
519.79	557.05
519.96	664.71
520.14	653.01
520.31	688.12
520.48	648.33
520.65	653.01
520.83	631.94
521.00	615.56
521.17	594.50
521.34	641.31
521.52	606.20
521.69	580.45
521.86	606.20
522.03	669.39
522.20	713.86
522.38	671.73
522.55	648.33
522.72	657.69
522.89	706.84
523.07	650.67
523.24	638.97
523.41	645.99
523.58	571.09
523.75	622.58
523.92	676.41
524.10	678.76
524.27	653.01
524.44	678.76
524.61	683.44
524.78	608.54
524.96	617.90
525.13	650.67
525.30	683.44
525.47	648.33
525.64	629.60
525.81	615.56
525.98	608.54
526.16	713.86
526.33	608.54
526.50	655.35
526.67	638.97
526.84	589.82
527.01	641.31
527.18	636.63
527.36	587.47
527.53	655.35
527.70	641.31
527.87	596.84
528.04	582.79
528.21	622.58
528.38	741.95
528.55	650.67
528.72	617.90
528.89	622.58
529.07	671.73
529.24	657.69
529.41	610.88
529.58	613.22
529.75	608.54
529.92	706.84
530.09	667.05
530.26	657.69
530.43	608.54
530.60	648.33
530.77	585.13
530.94	636.63
531.11	629.60
531.28	671.73
531.46	660.03
531.63	645.99
531.80	580.45
531.97	582.79
532.14	695.14
532.31	662.37
532.48	660.03
532.65	690.46
532.82	706.84
532.99	653.01
533.16	676.41
533.33	631.94
533.50	641.31
533.67	634.29
533.84	697.48
534.01	636.63
534.18	636.63
534.35	631.94
534.52	592.16
534.69	645.99
534.86	599.18
535.03	699.82
535.20	784.08
535.37	648.33
535.54	638.97
535.71	624.92
535.88	638.97
536.05	674.07
536.22	688.12
536.38	653.01
536.55	683.44
536.72	634.29
536.89	636.63
537.06	685.78
537.23	711.52
537.40	702.16
537.57	716.20
537.74	725.57
537.91	671.73
538.08	723.23
538.25	734.93
538.42	711.52
538.59	823.87
538.75	706.84
538.92	798.12
539.09	781.74
539.26	784.08
539.43	786.42
539.60	786.42
539.77	802.80
539.94	819.19
540.11	805.14
540.28	912.81
540.44	898.77
540.61	905.79
540.78	873.02
540.95	987.71
541.12	1121.12
541.29	1114.10
541.46	1179.63
541.62	1158.57
541.79	1256.87
541.96	1167.93
542.13	1217.08
542.30	1191.33
542.47	1135.16
542.63	1146.86
542.80	1086.01
542.97	1032.18
543.14	1128.14
543.31	1076.65
543.48	1123.46
543.64	1128.14
543.81	1036.86
543.98	1064.94
544.15	1086.01
544.32	1086.01
544.48	1081.33
544.65	1015.79
544.82	1043.88
544.99	1032.18
545.16	1008.77
545.32	1144.52
545.49	1448.79
545.66	1703.91
545.83	1900.52
546.00	1668.80
546.16	1523.69
546.33	1308.36
546.50	1167.93
546.67	1158.57
546.83	1041.54
547.00	933.87
547.17	905.79
547.34	842.59
547.50	866.00
547.67	908.13
547.84	926.85
548.00	821.53
548.17	901.11
548.34	903.45
548.51	828.55
548.67	947.92
548.84	826.21
549.01	833.23
549.18	816.85
549.34	816.85
549.51	819.19
549.68	730.25
549.84	866.00
550.01	746.63
550.18	784.08
550.34	823.87
550.51	800.46
550.68	814.51
550.84	713.86
551.01	795.78
551.18	826.21
551.34	788.76
551.51	758.33
551.68	753.65
551.84	690.46
552.01	800.46
552.18	805.14
552.34	765.36
552.51	699.82
552.68	779.40
552.84	695.14
553.01	737.27
553.18	777.06
553.34	669.39
553.51	730.25
553.67	681.10
553.84	774.72
554.01	709.18
554.17	695.14
554.34	699.82
554.51	683.44
554.67	683.44
554.84	671.73
555.00	692.80
555.17	662.37
555.33	695.14
555.50	622.58
555.67	685.78
555.83	676.41
556.00	716.20
556.16	744.29
556.33	697.48
556.50	664.71
556.66	660.03
556.83	643.65
556.99	622.58
557.16	704.50
557.32	699.82
557.49	657.69
557.65	657.69
557.82	620.24
557.98	643.65
558.15	657.69
558.32	669.39
558.48	697.48
558.65	620.24
558.81	671.73
558.98	655.35
559.14	641.31
559.31	585.13
559.47	629.60
559.64	622.58
559.80	645.99
559.97	657.69
560.13	636.63
560.30	674.07
560.46	730.25
560.63	674.07
560.79	547.69
560.96	641.31
561.12	641.31
561.29	697.48
561.45	678.76
561.61	653.01
561.78	681.10
561.94	641.31
562.11	660.03
562.27	657.69
562.44	671.73
562.60	669.39
562.77	641.31
562.93	709.18
563.10	608.54
563.26	704.50
563.42	795.78
563.59	695.14
563.75	685.78
563.92	709.18
564.08	720.88
564.24	711.52
564.41	709.18
564.57	608.54
564.74	620.24
564.90	695.14
565.07	613.22
565.23	741.95
565.39	648.33
565.56	629.60
565.72	617.90
565.88	617.90
566.05	613.22
566.21	643.65
566.38	720.88
566.54	648.33
566.70	657.69
566.87	613.22
567.03	603.86
567.19	624.92
567.36	681.10
567.52	653.01
567.68	671.73
567.85	662.37
568.01	685.78
568.17	709.18
568.34	601.52
568.50	638.97
568.66	655.35
568.83	688.12
568.99	653.01
569.15	624.92
569.32	629.60
569.48	671.73
569.64	683.44
569.81	660.03
569.97	643.65
570.13	662.37
570.30	641.31
570.46	620.24
570.62	634.29
570.78	615.56
570.95	620.24
571.11	664.71
571.27	674.07
571.43	690.46
571.60	683.44
571.76	606.20
571.92	655.35
572.09	645.99
572.25	620.24
572.41	610.88
572.57	711.52
572.74	676.41
572.90	650.67
573.06	641.31
573.22	671.73
573.38	606.20
573.55	606.20
573.71	725.57
573.87	655.35
574.03	571.09
574.20	629.60
574.36	610.88
574.52	657.69
574.68	627.26
574.84	648.33
575.01	613.22
575.17	610.88
575.33	580.45
575.49	634.29
575.65	690.46
575.82	681.10
575.98	709.18
576.14	655.35
576.30	636.63
576.46	774.72
576.62	807.48
576.79	868.34
576.95	861.32
577.11	814.51
577.27	734.93
577.43	709.18
577.59	702.16
577.75	671.73
577.92	667.05
578.08	685.78
578.24	617.90
578.40	748.97
578.56	791.10
578.72	877.70
578.88	889.40
579.04	751.31
579.21	718.54
579.37	711.52
579.53	753.65
579.69	716.20
579.85	781.74
580.01	788.76
580.17	718.54
580.33	699.82
580.49	643.65
580.65	683.44
580.82	734.93
580.98	727.91
581.14	716.20
581.30	702.16
581.46	688.12
581.62	697.48
581.78	748.97
581.94	767.70
582.10	763.01
582.26	779.40
582.42	784.08
582.58	784.08
582.74	739.61
582.90	755.99
583.06	807.48
583.22	711.52
583.38	751.31
583.54	760.67
583.70	823.87
583.86	751.31
584.02	744.29
584.18	711.52
584.34	730.25
584.50	774.72
584.66	685.78
584.82	685.78
584.98	681.10
585.14	704.50
585.30	725.57
585.46	737.27
585.62	681.10
585.78	690.46
585.94	713.86
586.10	788.76
586.26	716.20
586.42	753.65
586.58	816.85
586.74	800.46
586.90	816.85
587.06	807.48
587.22	847.27
587.38	826.21
587.54	784.08
587.70	816.85
587.86	702.16
588.02	809.83
588.18	702.16
588.34	711.52
588.49	716.20
588.65	746.63
588.81	723.23
588.97	676.41
589.13	816.85
589.29	702.16
589.45	699.82
589.61	671.73
589.77	718.54
589.93	697.48
590.08	713.86
590.24	669.39
590.40	690.46
590.56	727.91
590.72	657.69
590.88	669.39
591.04	755.99
591.20	681.10
591.35	723.23
591.51	711.52
591.67	706.84
591.83	739.61
591.99	823.87
592.15	765.36
592.31	760.67
592.46	748.97
592.62	812.17
592.78	723.23
592.94	779.40
593.10	765.36
593.26	758.33
593.41	725.57
593.57	734.93
593.73	671.73
593.89	739.61
594.05	772.38
594.20	751.31
594.36	709.18
594.52	627.26
594.68	660.03
594.84	648.33
594.99	636.63
595.15	770.04
595.31	685.78
595.47	704.50
595.62	678.76
595.78	671.73
595.94	751.31
596.10	753.65
596.25	702.16
596.41	704.50
596.57	660.03
596.73	657.69
596.88	681.10
597.04	704.50
597.20	655.35
597.36	664.71
597.51	692.80
597.67	777.06
597.83	699.82
597.99	770.04
598.14	784.08
598.30	709.18
598.46	676.41
598.61	713.86
598.77	671.73
598.93	697.48
599.09	711.52
599.24	746.63
599.40	725.57
599.56	741.95
599.71	718.54
599.87	716.20
600.03	786.42
600.18	767.70
600.34	706.84
600.50	704.50
600.65	699.82
600.81	685.78
600.97	695.14
601.12	737.27
601.28	720.88
601.44	723.23
601.59	723.23
601.75	650.67
601.91	725.57
602.06	617.90
602.22	734.93
602.37	662.37
602.53	620.24
602.69	692.80
602.84	685.78
603.00	765.36
603.16	730.25
603.31	688.12
603.47	669.39
603.62	599.18
603.78	615.56
603.94	664.71
604.09	711.52
604.25	690.46
604.40	634.29
604.56	695.14
604.71	702.16
604.87	634.29
605.03	669.39
605.18	645.99
605.34	709.18
605.49	634.29
605.65	692.80
605.80	671.73
605.96	697.48
606.12	697.48
606.27	709.18
606.43	727.91
606.58	711.52
606.74	643.65
606.89	662.37
607.05	767.70
607.20	739.61
607.36	692.80
607.51	655.35
607.67	704.50
607.82	674.07
607.98	744.29
608.13	793.44
608.29	702.16
608.44	798.12
608.60	746.63
608.75	858.98
608.91	781.74
609.06	807.48
609.22	798.12
609.37	793.44
609.53	767.70
609.68	882.38
609.84	849.61
