SpectraSuite Data File
++++++++++++++++++++++++++++++++++++
Date: Thu Oct 24 13:21:22 EDT 2013
User: stostad
Dark Spectrum Present: No
Reference Spectrum Present: No
Number of Sampled Component Spectra: 1
Spectrometers: USB2+H05261
Integration Time (usec): 100000 (USB2+H05261)
Spectra Averaged: 1 (USB2+H05261)
Boxcar Smoothing: 0 (USB2+H05261)
Correct for Electrical Dark: No (USB2+H05261)
Strobe/Lamp Enabled: No (USB2+H05261)
Correct for Detector Non-linearity: No (USB2+H05261)
Correct for Stray Light: No (USB2+H05261)
Number of Pixels in Processed Spectrum: 2048
>>>>>Begin Processed Spectral Data<<<<<
365.73	585.13
365.92	585.13
366.12	585.13
366.32	489.17
366.52	521.94
366.72	454.06
366.91	430.66
367.11	463.43
367.31	440.02
367.51	472.79
367.70	430.66
367.90	493.85
368.10	482.15
368.30	425.98
368.49	449.38
368.69	461.09
368.89	421.30
369.09	507.90
369.28	526.62
369.48	482.15
369.68	512.58
369.87	507.90
370.07	535.98
370.27	533.64
370.47	655.35
370.66	912.81
370.86	828.55
371.06	908.13
371.25	887.06
371.45	901.11
371.65	912.81
371.84	896.43
372.04	924.51
372.24	908.13
372.44	976.00
372.63	1004.09
372.83	968.98
373.03	966.64
373.22	1004.09
373.42	1011.11
373.62	985.37
373.81	1046.22
374.01	1048.56
374.21	1027.50
374.40	997.07
374.60	1039.20
374.79	980.68
374.99	1104.73
375.19	1090.69
375.38	1064.94
375.58	1004.09
375.78	1067.28
375.97	1013.45
376.17	1020.47
376.37	1064.94
376.56	1076.65
376.76	1025.15
376.95	1104.73
377.15	1069.62
377.35	1055.58
377.54	1118.78
377.74	1142.18
377.93	1095.37
378.13	1130.48
378.33	1060.26
378.52	1111.75
378.72	1132.82
378.91	1193.67
379.11	1156.22
379.31	1156.22
379.50	1153.88
379.70	1214.74
379.89	1210.06
380.09	1238.14
380.28	1174.95
380.48	1163.25
380.68	1008.77
380.87	1174.95
381.07	1203.04
381.26	1221.76
381.46	1214.74
381.65	1205.38
381.85	1277.93
382.04	1247.51
382.24	1231.12
382.43	1172.61
382.63	1252.19
382.83	1226.44
383.02	1289.64
383.22	1252.19
383.41	1139.84
383.61	1217.08
383.80	1228.78
384.00	1280.27
384.19	1280.27
384.39	1266.23
384.58	1266.23
384.78	1329.42
384.97	1275.59
385.17	1256.87
385.36	1240.48
385.56	1341.13
385.75	1277.93
385.95	1282.61
386.14	1359.85
386.34	1350.49
386.53	1366.87
386.72	1263.89
386.92	1355.17
387.11	1329.42
387.31	1352.83
387.50	1420.71
387.70	1364.53
387.89	1397.30
388.09	1430.07
388.28	1394.96
388.48	1378.58
388.67	1432.41
388.86	1364.53
389.06	1425.39
389.25	1413.68
389.45	1439.43
389.64	1519.01
389.84	1472.20
390.03	1467.52
390.22	1549.43
390.42	1495.60
390.61	1434.75
390.81	1369.21
391.00	1507.30
391.19	1565.82
391.39	1465.18
391.58	1507.30
391.78	1476.88
391.97	1448.79
392.16	1460.49
392.36	1568.16
392.55	1572.84
392.75	1547.09
392.94	1565.82
393.13	1600.93
393.33	1495.60
393.52	1645.40
393.71	1519.01
393.91	1673.48
394.10	1614.97
394.29	1612.63
394.49	1666.46
394.68	1717.95
394.88	1696.89
395.07	1657.10
395.26	1636.03
395.46	1671.14
395.65	1771.79
395.84	1734.34
396.04	1743.70
396.23	1732.00
396.42	1785.83
396.62	1764.76
396.81	1769.44
397.00	1727.32
397.19	1755.40
397.39	1764.76
397.58	1802.21
397.77	1764.76
397.97	1827.96
398.16	1919.24
398.35	1849.02
398.55	1947.33
398.74	1884.13
398.93	1898.17
399.12	1853.70
399.32	1895.83
399.51	1909.88
399.70	2015.20
399.90	1837.32
400.09	1926.26
400.28	2057.33
400.47	1975.41
400.67	1947.33
400.86	2029.24
401.05	2085.42
401.24	2104.14
401.44	2080.74
401.63	2176.70
401.82	2136.91
402.01	2136.91
402.21	2040.95
402.40	2108.82
402.59	2099.46
402.78	2054.99
402.97	2169.68
403.17	2066.69
403.36	2066.69
403.55	2207.13
403.74	2188.40
403.93	2218.83
404.13	2307.77
404.32	2200.10
404.51	2300.75
404.70	2314.79
404.89	2291.38
405.09	2347.56
405.28	2373.30
405.47	2272.66
405.66	2417.77
405.85	2307.77
406.05	2321.81
406.24	2366.28
406.43	2438.84
406.62	2476.29
406.81	2450.54
407.00	2459.90
407.20	2394.37
407.39	2473.95
407.58	2583.95
407.77	2593.31
407.96	2626.08
408.15	2665.87
408.34	2586.29
408.54	2670.55
408.73	2558.21
408.92	2663.53
409.11	2565.23
409.30	2754.81
409.49	2789.92
409.68	2759.49
409.87	2729.06
410.07	2801.62
410.26	2796.94
410.45	2916.31
410.64	2867.16
410.83	2878.86
411.02	2794.60
411.21	2944.39
411.40	2906.95
411.59	2909.29
411.78	2918.65
411.98	2850.77
412.17	2946.73
412.36	3030.99
412.55	3089.51
412.74	3089.51
412.93	3021.63
413.12	3075.46
413.31	3176.11
413.50	3150.36
413.69	3038.02
413.88	3169.09
414.07	3279.09
414.26	3265.05
414.45	3234.62
414.64	3325.90
414.83	3356.33
415.02	3389.10
415.22	3358.67
415.41	3417.18
415.60	3445.27
415.79	3433.57
415.98	3538.89
416.17	3515.48
416.36	3527.19
416.55	3658.26
416.74	3510.80
416.93	3613.79
417.12	3684.00
417.31	3730.81
417.50	3674.64
417.69	3777.62
417.88	3655.92
418.07	3730.81
418.26	3906.35
418.45	3679.32
418.64	3960.19
418.83	3918.06
419.02	3873.59
419.21	3939.12
419.39	4067.85
419.58	3929.76
419.77	3878.27
419.96	3964.87
420.15	4016.36
420.34	3990.61
420.53	3929.76
420.72	4037.42
420.91	4086.58
421.10	4032.74
421.29	4072.53
421.48	4004.66
421.67	4245.73
421.86	4177.86
422.05	4203.60
422.24	4149.77
422.43	4301.90
422.61	4255.09
422.80	4273.82
422.99	4334.67
423.18	4210.62
423.37	4369.78
423.56	4348.72
423.75	4124.02
423.94	4140.41
424.13	4147.43
424.32	4182.54
424.50	4255.09
424.69	4334.67
424.88	4334.67
425.07	4257.43
425.26	4236.37
425.45	4400.21
425.64	4273.82
425.83	4383.82
426.01	4327.65
426.20	4535.96
426.39	4379.14
426.58	4369.78
426.77	4393.19
426.96	4580.43
427.15	4526.60
427.33	4507.87
427.52	4498.51
427.71	4517.23
427.90	4496.17
428.09	4503.19
428.28	4533.62
428.46	4580.43
428.65	4514.89
428.84	4559.36
429.03	4594.47
429.22	4596.81
429.40	4774.69
429.59	4550.00
429.78	4517.23
429.97	4526.60
430.16	4779.37
430.34	4931.51
430.53	4788.74
430.72	4725.54
430.91	4758.31
431.10	4723.20
431.28	4973.64
431.47	4947.89
431.66	5081.30
431.85	4812.14
432.03	4894.06
432.22	5090.67
432.41	5149.18
432.60	5022.79
432.79	5020.45
432.97	5050.88
433.16	5181.95
433.35	5109.39
433.54	5083.64
433.72	5163.22
433.91	5184.29
434.10	5284.93
434.28	5121.09
434.47	5322.38
434.66	5394.93
434.85	5177.26
435.03	5598.56
435.22	5446.43
435.41	5746.02
435.59	5598.56
435.78	5502.60
435.97	5544.73
436.16	5406.64
436.34	5462.81
436.53	5568.13
436.72	5628.99
436.90	5348.12
437.09	5514.30
437.28	5467.49
437.46	5425.36
437.65	5490.90
437.84	5788.14
438.02	5753.04
438.21	5706.23
438.40	5507.28
438.58	5776.44
438.77	5809.21
438.96	5753.04
439.14	6005.81
439.33	5963.68
439.52	6108.80
439.70	5987.09
439.89	6094.76
440.08	6106.46
440.26	6296.04
440.45	6118.16
440.63	6139.23
440.82	6436.47
441.01	6284.34
441.19	6246.89
441.38	6239.87
441.57	6403.71
441.75	6459.88
441.94	6616.69
442.12	6696.27
442.31	6712.66
442.50	6560.52
442.68	6628.40
442.87	6675.21
443.05	6684.57
443.24	6834.36
443.43	6843.73
443.61	6853.09
443.80	7068.42
443.98	6682.23
444.17	6527.75
444.35	6813.30
444.54	6822.66
444.73	6951.39
444.91	6773.51
445.10	6956.07
445.28	6904.58
445.47	6867.13
445.65	6937.35
445.84	6958.41
446.02	7037.99
446.21	6984.16
446.39	6930.33
446.58	6998.20
446.77	7080.12
446.95	6764.15
447.14	6995.86
447.32	7059.06
447.51	7049.69
447.69	6883.52
447.88	7159.70
448.06	7040.33
448.25	7026.29
448.43	7192.47
448.62	7152.68
448.80	7091.82
448.99	7155.02
449.17	7222.89
449.36	7204.17
449.54	7150.34
449.73	7400.77
449.91	7400.77
450.10	7138.63
450.28	7541.21
450.46	7419.50
450.65	7646.53
450.83	7353.96
451.02	7286.09
451.20	7517.80
451.39	7520.14
451.57	7375.03
451.76	7463.97
451.94	7674.62
452.13	7681.64
452.31	7625.47
452.49	7463.97
452.68	7651.21
452.86	7588.02
453.05	7695.68
453.23	7796.32
453.42	7555.25
453.60	7641.85
453.78	7784.62
453.97	7707.38
454.15	7698.02
454.34	7709.72
454.52	7981.23
454.70	7840.79
454.89	7934.42
455.07	7925.05
455.26	8030.38
455.44	7943.78
455.62	8070.17
455.81	8114.64
455.99	8074.85
456.17	8229.32
456.36	8236.35
456.54	8339.33
456.73	8294.86
456.91	8496.14
457.09	8491.46
457.28	8503.17
457.46	8294.86
457.64	8489.12
457.83	8549.98
458.01	8528.91
458.19	8692.75
458.38	8566.36
458.56	8802.75
458.74	8674.03
458.93	8561.68
459.11	8711.47
459.29	8744.24
459.48	8671.68
459.66	8840.20
459.84	8730.20
460.03	9029.79
460.21	8807.44
460.39	8910.42
460.57	9116.39
460.76	8926.80
460.94	9041.49
461.12	9174.90
461.31	9198.31
461.49	9029.79
461.67	9163.20
461.85	9228.73
462.04	9268.52
462.22	9460.45
462.40	9334.06
462.59	9193.62
462.77	9327.03
462.95	9525.98
463.13	9423.00
463.32	9224.05
463.50	9308.31
463.68	9544.70
463.86	9518.96
464.05	9394.91
464.23	9474.49
464.41	9617.26
464.59	9254.48
464.78	9872.38
464.96	9607.90
465.14	9624.28
465.32	9916.85
465.50	9825.57
465.69	9729.61
465.87	9832.59
466.05	9764.72
466.23	9949.62
466.41	9839.61
466.60	10036.22
466.78	9745.99
466.96	9879.40
467.14	10024.51
467.32	9844.29
467.51	9937.91
467.69	9706.20
467.87	9989.41
468.05	10244.52
468.23	10223.46
468.41	9926.21
468.60	10045.58
468.78	10118.14
468.96	10178.99
469.14	10181.33
469.32	10286.65
469.50	10307.72
469.69	10340.49
469.87	10567.52
470.05	10429.43
470.23	10586.24
470.41	10551.14
470.59	10785.19
470.77	10602.63
470.95	10546.45
471.14	10792.21
471.32	10586.24
471.50	11063.71
471.68	10860.09
471.86	10736.04
472.04	10899.87
472.22	11143.29
472.40	10927.96
472.58	10949.03
472.77	11433.52
472.95	11119.89
473.13	11597.35
473.31	11157.33
473.49	11477.99
473.67	11239.25
473.85	11623.10
474.03	11627.78
474.21	11555.22
474.39	11761.19
474.57	11763.53
474.75	11908.65
474.93	12053.76
475.12	12016.31
475.30	11875.88
475.48	12145.04
475.66	12077.16
475.84	12105.25
476.02	12285.47
476.20	12259.73
476.38	12636.55
476.56	12786.35
476.74	12762.94
476.92	12854.22
477.10	12606.13
477.28	12634.21
477.46	12847.20
477.64	13067.21
477.82	13170.19
478.00	13458.08
478.18	13247.43
478.36	13497.87
478.54	13535.32
478.72	13577.45
478.90	13769.37
479.08	13685.11
479.26	13902.78
479.44	13895.76
479.62	14190.67
479.80	14513.66
479.98	14335.78
480.16	14829.63
480.34	14626.01
480.52	14712.61
480.70	14618.99
480.88	14469.19
481.06	14714.95
481.24	14869.42
481.41	15070.71
481.59	15382.00
481.77	15524.77
481.95	15449.88
482.13	15538.82
482.31	15803.30
482.49	16058.42
482.67	15845.43
482.85	16196.51
483.03	16273.74
483.21	16580.36
483.39	16453.97
483.57	16631.85
483.74	16535.88
483.92	16826.11
484.10	16924.41
484.28	17415.93
484.46	17294.22
484.64	17877.01
484.82	17642.96
485.00	17666.36
485.18	17635.94
485.35	18059.57
485.53	18101.70
485.71	18389.59
485.89	18562.79
486.07	18326.39
486.25	18513.64
486.43	18478.53
486.61	19023.87
486.78	19197.07
486.96	19449.85
487.14	19393.68
487.32	19510.71
487.50	19318.78
487.68	19276.65
487.85	20435.22
488.03	20521.82
488.21	20547.56
488.39	20360.32
488.57	20437.56
488.75	20451.60
488.92	20936.09
489.10	21191.21
489.28	21200.57
489.46	21310.58
489.64	21174.83
489.81	21886.35
489.99	21357.39
490.17	21750.60
490.35	22272.54
490.53	22036.14
490.70	22745.33
490.88	22244.45
491.06	22518.29
491.24	22427.01
491.41	22752.35
491.59	22829.59
491.77	23215.77
491.95	23571.54
492.13	23709.63
492.30	23220.45
492.48	23613.66
492.66	23550.47
492.84	23545.79
493.01	24212.84
493.19	24088.79
493.37	24554.56
493.54	24416.47
493.72	24386.04
493.90	24704.35
494.08	24716.06
494.25	25132.67
494.43	25266.08
494.61	25167.78
494.79	25195.87
494.96	25446.30
495.14	25404.17
495.32	26185.91
495.49	25958.88
495.67	25699.08
495.85	26277.19
496.02	26412.95
496.20	26724.24
496.38	26946.59
496.55	26780.41
496.73	27438.10
496.91	27061.27
497.09	27531.72
497.26	27194.68
497.44	27190.00
497.62	27700.24
497.79	28130.90
497.97	27894.50
498.14	28034.94
498.32	28404.74
498.50	28158.99
498.67	28409.42
498.85	28367.29
499.03	28418.78
499.20	28706.67
499.38	29181.80
499.56	29191.16
499.73	29291.80
499.91	29055.41
500.08	29783.32
500.26	29113.92
500.44	29259.04
500.61	29610.12
500.79	29802.04
500.97	29659.27
501.14	29951.84
501.32	30096.95
501.49	29879.28
501.67	29961.20
501.84	30593.14
502.02	30504.20
502.20	30609.53
502.37	31131.47
502.55	30756.98
502.72	30710.17
502.90	30679.74
503.07	31105.72
503.25	31115.08
503.43	31374.88
503.60	31487.23
503.78	31484.89
503.95	31264.88
504.13	31812.56
504.30	31527.02
504.48	31644.04
504.65	31892.14
504.83	32369.61
505.01	32339.18
505.18	32201.09
505.36	32861.12
505.53	32165.98
505.71	32460.89
505.88	32388.33
506.06	32741.75
506.23	32699.62
506.41	32905.59
506.58	32828.35
506.76	32800.27
506.93	32723.03
507.11	32975.81
507.28	33469.66
507.46	33551.58
507.63	33582.01
507.81	34043.09
507.98	33158.37
508.16	33329.23
508.33	33790.31
508.50	33902.66
508.68	34354.38
508.85	34277.15
509.03	34368.43
509.20	34164.80
509.38	34338.00
509.55	34672.70
509.73	34988.67
509.90	35274.21
510.08	35086.97
510.25	35133.78
510.42	34801.43
510.60	35498.91
510.77	35541.03
510.95	35901.48
511.12	35463.80
511.30	35749.34
511.47	36100.42
511.64	35386.56
511.82	35849.99
511.99	35714.23
512.17	36020.84
512.34	36505.34
512.51	36442.14
512.69	36715.98
512.86	36538.10
513.04	37111.53
513.21	36666.83
513.38	36512.36
513.56	36935.99
513.73	36779.18
513.90	37067.06
514.08	36999.19
514.25	37804.33
514.43	37474.32
514.60	37755.18
514.77	37523.47
514.95	37467.30
515.12	37565.60
515.29	37577.30
515.47	38340.32
515.64	37926.04
515.81	37783.27
515.99	38103.92
516.16	38129.67
516.33	38246.69
516.51	38675.01
516.68	38330.95
516.85	38309.89
517.03	38890.34
517.20	38281.80
517.37	38452.66
517.54	38490.11
517.72	38960.56
517.89	38745.23
518.06	38993.32
518.24	39110.35
518.41	39349.09
518.58	39136.10
518.75	38686.71
518.93	39573.78
519.10	38962.90
519.27	39695.49
519.45	39423.98
519.62	39950.60
519.79	40055.93
519.96	39754.00
520.14	39976.35
520.31	39725.91
520.48	39971.67
520.65	40292.32
520.83	40528.72
521.00	40872.78
521.17	40491.27
521.34	40322.75
521.52	40755.75
521.69	40079.33
521.86	40685.53
522.03	40598.93
522.20	40957.03
522.38	41235.56
522.55	41432.16
522.72	41008.53
522.89	41464.93
523.07	41109.17
523.24	41385.35
523.41	41324.50
523.58	41743.45
523.75	42096.88
523.92	41172.36
524.10	42452.64
524.27	42209.22
524.44	42089.85
524.61	42131.98
524.78	42089.85
524.96	42131.98
525.13	42454.98
525.30	42726.48
525.47	42747.54
525.64	42508.81
525.81	42946.49
525.98	42859.89
526.16	42492.43
526.33	42710.10
526.50	42955.85
526.67	42579.03
526.84	43302.25
527.01	42806.06
527.18	43236.72
527.36	43000.32
527.53	43288.21
527.70	43400.55
527.87	44165.91
528.04	43349.06
528.21	43536.30
528.38	43442.68
528.55	43910.79
528.72	43477.79
528.89	43735.25
529.07	43594.82
529.24	43646.31
529.41	44100.37
529.58	44470.18
529.75	44231.44
529.92	44252.51
530.09	44348.47
530.26	44226.76
530.43	44154.21
530.60	43807.81
530.77	44329.75
530.94	44753.38
531.11	44598.91
531.28	44856.37
531.46	45017.86
531.63	44701.89
531.80	44765.09
531.97	44921.90
532.14	45106.80
532.31	44886.79
532.48	45354.90
532.65	45495.33
532.82	45123.19
532.99	44727.64
533.16	45277.66
533.33	45675.55
533.50	45823.01
533.67	45275.32
533.84	45478.95
534.01	45855.78
534.18	45174.68
534.35	46195.15
534.52	45694.28
534.69	46106.21
534.86	45879.18
535.03	45811.31
535.20	46333.24
535.37	46106.21
535.54	46220.90
535.71	45895.56
535.88	46321.54
536.05	46412.82
536.22	46897.31
536.38	46272.39
536.55	46684.33
536.72	46508.79
536.89	46422.19
537.06	46791.99
537.23	46927.74
537.40	46639.86
537.57	46824.76
537.74	47004.98
537.91	46965.19
538.08	46780.29
538.25	47002.64
538.42	47356.06
538.59	47400.53
538.75	47023.70
538.92	47309.25
539.09	47274.14
539.26	47463.72
539.43	47203.92
539.60	47477.77
539.77	47587.77
539.94	47931.83
540.11	47779.70
540.28	47927.15
540.44	47817.14
540.61	47700.12
540.78	47608.84
540.95	47966.94
541.12	47632.24
541.29	48100.35
541.46	48032.47
541.62	48383.55
541.79	48516.96
541.96	48107.37
542.13	48236.10
542.30	48048.86
542.47	48086.31
542.63	48289.93
542.80	48622.29
542.97	48982.73
543.14	48973.37
543.31	49191.04
543.48	48802.51
543.64	49148.91
543.81	49123.16
543.98	48996.77
544.15	48882.09
544.32	49191.04
544.48	49801.92
544.65	49366.58
544.82	49883.84
544.99	49181.68
545.16	49317.43
545.32	49411.05
545.49	49914.26
545.66	50295.77
545.83	50138.96
546.00	50122.57
546.16	49846.39
546.33	49731.70
546.50	49673.19
546.67	49865.11
546.83	49488.29
547.00	49567.87
547.17	49780.85
547.34	49507.01
547.50	49996.18
547.67	50288.75
547.84	50192.79
548.00	50237.26
548.17	50450.25
548.34	50080.44
548.51	50440.89
548.67	50035.97
548.84	50153.00
549.01	50174.06
549.18	50167.04
549.34	50401.10
549.51	50382.37
549.68	50447.91
549.84	50253.64
550.01	50375.35
550.18	50314.50
550.34	50251.30
550.51	50368.33
550.68	50398.76
550.84	50288.75
551.01	50436.20
551.18	50452.59
551.34	50480.67
551.51	50255.98
551.68	50855.16
551.84	50623.45
552.01	50436.20
552.18	50450.25
552.34	50410.46
552.51	50981.55
552.68	50845.80
552.84	51009.64
553.01	50768.56
553.18	50815.37
553.34	50705.37
553.51	50941.76
553.67	51351.35
553.84	51409.87
554.01	51475.40
554.17	51129.00
554.34	51180.49
554.51	51121.98
554.67	51154.75
554.84	50976.87
555.00	51138.36
555.17	51145.39
555.33	51068.15
555.50	51168.79
555.67	51302.20
555.83	51217.94
556.00	51622.86
556.16	51721.16
556.33	51732.86
556.50	51283.48
556.66	51299.86
556.83	51246.03
556.99	51569.02
557.16	51491.79
557.32	51849.89
557.49	52074.58
557.65	51592.43
557.82	51728.18
557.98	51587.75
558.15	51370.08
558.32	51690.73
558.48	51679.03
558.65	51810.10
558.81	52037.13
558.98	51990.32
559.14	51718.82
559.31	51709.46
559.47	51887.34
559.64	52041.81
559.80	51812.44
559.97	52406.94
560.13	51749.24
560.30	52130.75
560.46	51882.66
560.63	52343.74
560.79	52259.48
560.96	52308.63
561.12	52294.59
561.29	51709.46
561.45	52053.51
561.61	52243.10
561.78	52261.82
561.94	52114.37
562.11	52786.10
562.27	52219.69
562.44	52594.18
562.60	52285.23
562.77	52589.50
562.93	52203.31
563.10	52853.98
563.26	52264.16
563.42	52629.29
563.59	52495.88
563.75	52266.50
563.92	52619.92
564.08	52292.25
564.24	52746.31
564.41	52512.26
564.57	52229.05
564.74	52369.49
564.90	52367.15
565.07	52603.54
565.23	52617.58
565.39	52545.03
565.56	52699.50
565.72	52758.02
565.88	52865.68
566.05	53057.60
566.21	52533.32
566.38	52603.54
566.54	52229.05
566.70	52753.33
566.87	53015.47
567.03	53027.18
567.19	53176.97
567.36	53141.86
567.52	52830.57
567.68	53013.13
567.85	52802.49
568.01	52683.12
568.17	52418.64
568.34	52713.55
568.50	52861.00
568.66	53085.69
568.83	52900.79
568.99	53008.45
569.15	52853.98
569.32	52797.80
569.48	52568.43
569.64	53242.51
569.81	53029.52
569.97	52959.30
570.13	52945.26
570.30	53050.58
570.46	53230.80
570.62	53076.33
570.78	53001.43
570.95	52673.76
571.11	53315.06
571.27	52889.09
571.43	52928.87
571.60	53188.67
571.76	52741.63
571.92	52861.00
572.09	53179.31
572.25	53511.67
572.41	53216.76
572.57	53375.92
572.74	53151.23
572.90	52769.72
573.06	53303.36
573.22	53104.41
573.38	53109.10
573.55	53200.38
573.71	53621.67
573.87	53095.05
574.03	52884.40
574.20	53212.08
574.36	53244.85
574.52	53322.08
574.68	53193.36
574.84	53226.12
575.01	53394.64
575.17	53722.32
575.33	53315.06
575.49	53544.44
575.65	53631.04
575.82	53528.05
575.98	53343.15
576.14	53750.40
576.30	53581.88
576.46	53448.47
576.62	53195.70
576.79	53312.72
576.95	53209.74
577.11	53593.59
577.27	53441.45
577.43	53244.85
577.59	53429.75
577.75	53357.19
577.92	53237.83
578.08	53183.99
578.24	52987.39
578.40	53567.84
578.56	53616.99
578.72	53432.09
578.88	53682.53
579.04	53577.20
579.21	53570.18
579.37	53364.21
579.53	53628.69
579.69	53535.07
579.85	53382.94
580.01	53628.69
580.17	53455.50
580.33	53769.13
580.49	53425.07
580.65	53738.70
580.82	53813.60
580.98	53528.05
581.14	53712.95
581.30	53645.08
581.46	53867.43
581.62	53422.73
581.78	53076.33
581.94	53640.40
582.10	53635.72
582.26	53514.01
582.42	53626.35
582.58	53689.55
582.74	53799.55
582.90	53778.49
583.06	53827.64
583.22	53677.85
583.38	53483.58
583.54	53254.21
583.70	53354.85
583.86	53895.52
584.02	53633.38
584.18	53808.92
584.34	53872.11
584.50	53951.69
584.66	53682.53
584.82	53399.32
584.98	53691.89
585.14	53785.51
585.30	53588.91
585.46	53427.41
585.62	53542.10
585.78	53801.89
585.94	53844.02
586.10	53663.80
586.26	53532.73
586.42	53574.86
586.58	53808.92
586.74	53738.70
586.90	53642.74
587.06	53822.96
587.22	54213.83
587.38	53755.08
587.54	54227.87
587.70	54312.13
587.86	54099.14
588.02	53841.68
588.18	53970.41
588.34	54071.06
588.49	54045.31
588.65	53792.53
588.81	53804.24
