SpectraSuite Data File
++++++++++++++++++++++++++++++++++++
Date: Thu Oct 24 13:21:44 EDT 2013
User: stostad
Dark Spectrum Present: No
Reference Spectrum Present: No
Number of Sampled Component Spectra: 1
Spectrometers: USB2+H05261
Integration Time (usec): 100000 (USB2+H05261)
Spectra Averaged: 1 (USB2+H05261)
Boxcar Smoothing: 0 (USB2+H05261)
Correct for Electrical Dark: No (USB2+H05261)
Strobe/Lamp Enabled: No (USB2+H05261)
Correct for Detector Non-linearity: No (USB2+H05261)
Correct for Stray Light: No (USB2+H05261)
Number of Pixels in Processed Spectrum: 2048
>>>>>Begin Processed Spectral Data<<<<<
365.73	678.76
365.92	678.76
366.12	678.76
366.32	634.29
366.52	557.05
366.72	645.99
366.91	557.05
367.11	566.41
367.31	580.45
367.51	643.65
367.70	648.33
367.90	599.18
368.10	580.45
368.30	606.20
368.49	585.13
368.69	606.20
368.89	538.32
369.09	550.03
369.28	645.99
369.48	667.05
369.68	678.76
369.87	758.33
370.07	702.16
370.27	767.70
370.47	976.00
370.66	1893.49
370.86	1874.77
371.06	1959.03
371.25	1949.67
371.45	1900.52
371.65	2012.86
371.84	1989.46
372.04	2104.14
372.24	2052.65
372.44	2122.87
372.63	2122.87
372.83	2115.84
373.03	2214.15
373.22	2136.91
373.42	2193.08
373.62	2230.53
373.81	2277.34
374.01	2260.96
374.21	2296.07
374.40	2267.98
374.60	2335.85
374.79	2345.22
374.99	2342.88
375.19	2321.81
375.38	2382.67
375.58	2377.98
375.78	2466.92
375.97	2525.44
376.17	2471.61
376.37	2452.88
376.56	2438.84
376.76	2572.25
376.95	2562.89
377.15	2534.80
377.35	2551.18
377.54	2551.18
377.74	2630.76
377.93	2597.99
378.13	2661.19
378.33	2658.85
378.52	2658.85
378.72	2726.72
378.91	2593.31
379.11	2691.62
379.31	2621.40
379.50	2775.88
379.70	2670.55
379.89	2871.84
380.09	2897.58
380.28	2808.64
380.48	2806.30
380.68	2885.88
380.87	2867.16
381.07	2946.73
381.26	2977.16
381.46	2981.84
381.65	2977.16
381.85	3042.70
382.04	3000.57
382.24	3119.93
382.43	3166.74
382.63	3122.27
382.83	3101.21
383.02	3084.83
383.22	3185.47
383.41	3243.98
383.61	3229.94
383.80	3145.68
384.00	3293.13
384.19	3229.94
384.39	3246.32
384.58	3204.19
384.78	3323.56
384.97	3218.24
385.17	3351.65
385.36	3389.10
385.56	3330.58
385.75	3412.50
385.95	3370.37
386.14	3389.10
386.34	3412.50
386.53	3314.20
386.72	3487.40
386.92	3449.95
387.11	3620.81
387.31	3545.91
387.50	3590.38
387.70	3620.81
387.89	3655.92
388.09	3676.98
388.28	3691.02
388.48	3698.05
388.67	3770.60
388.86	3859.54
389.06	3730.81
389.25	3831.46
389.45	4098.28
389.64	3894.65
389.84	3948.48
390.03	3896.99
390.22	3878.27
390.42	4070.19
390.61	3971.89
390.81	3974.23
391.00	3990.61
391.19	4042.11
391.39	4079.55
391.58	4088.92
391.78	4105.30
391.97	4257.43
392.16	4358.08
392.36	4397.87
392.55	4318.29
392.75	4334.67
392.94	4400.21
393.13	4362.76
393.33	4507.87
393.52	4456.38
393.71	4454.04
393.91	4582.77
394.10	4671.71
394.29	4578.09
394.49	4554.68
394.68	4636.60
394.88	4608.51
395.07	4718.52
395.26	4877.68
395.46	4709.16
395.65	4840.23
395.84	4931.51
396.04	4915.12
396.23	4999.38
396.42	5006.41
396.62	5193.65
396.81	5041.51
397.00	5055.56
397.19	4966.62
397.39	5093.01
397.58	5067.26
397.77	5163.22
397.97	5266.21
398.16	5228.76
398.35	5343.44
398.55	5336.42
398.74	5390.25
398.93	5458.13
399.12	5392.59
399.32	5416.00
399.51	5399.62
399.70	5584.52
399.90	5636.01
400.09	5654.73
400.28	5675.80
400.47	5722.61
400.67	5785.80
400.86	5757.72
401.05	5820.91
401.24	5673.46
401.44	5820.91
401.63	5989.43
401.82	6045.60
402.01	5912.19
402.21	6073.69
402.40	6150.93
402.59	6136.88
402.78	6417.75
402.97	6373.28
403.17	6363.92
403.36	6342.85
403.55	6420.09
403.74	6576.91
403.93	6637.76
404.13	6679.89
404.32	6492.65
404.51	6637.76
404.70	6729.04
404.89	6525.41
405.09	6771.17
405.28	6752.45
405.47	6899.90
405.66	6979.48
405.85	6986.50
406.05	7000.54
406.24	6904.58
406.43	6897.56
406.62	7262.68
406.81	7250.98
407.00	7180.76
407.20	7138.63
407.39	7112.89
407.58	7304.81
407.77	7318.86
407.96	7499.08
408.15	7487.37
408.34	7454.61
408.54	7508.44
408.73	7473.33
408.92	7536.52
409.11	7733.13
409.30	7639.51
409.49	7840.79
409.68	7927.39
409.87	7915.69
410.07	8035.06
410.26	8056.12
410.45	8065.49
410.64	8205.92
410.83	8262.09
411.02	8138.04
411.21	8231.66
411.40	8446.99
411.59	8435.29
411.78	8470.40
411.98	8549.98
412.17	8634.24
412.36	8493.80
412.55	8985.32
412.74	8957.23
412.93	8835.52
413.12	8954.89
413.31	9366.82
413.50	9032.13
413.69	9327.03
413.88	9444.06
414.07	9458.10
414.26	9722.59
414.45	9528.32
414.64	9584.49
414.83	9895.78
415.02	10090.05
415.22	9900.47
415.41	9996.43
415.60	9947.28
415.79	10235.16
415.98	10333.47
416.17	10338.15
416.36	10450.49
416.55	10342.83
416.74	10764.12
416.93	10511.35
417.12	10792.21
417.31	10834.34
417.50	10815.62
417.69	10977.11
417.88	11014.56
418.07	11126.91
418.26	11084.78
418.45	11140.95
418.64	11323.51
418.83	11407.77
419.02	11349.26
419.21	11672.25
419.39	11693.32
419.58	11648.85
419.77	11803.32
419.96	11817.36
420.15	11840.77
420.34	12058.44
420.53	11936.73
420.72	12084.19
420.91	12006.95
421.10	12241.00
421.29	12615.49
421.48	11946.09
421.67	12379.09
421.86	12437.61
422.05	12453.99
422.24	12486.76
422.43	12524.21
422.61	12774.64
422.80	12940.82
422.99	12596.76
423.18	12762.94
423.37	12985.29
423.56	12776.98
423.75	12830.82
423.94	12582.72
424.13	12025.67
424.32	12362.71
424.50	13041.46
424.69	13212.32
424.88	12854.22
425.07	12671.66
425.26	12669.32
425.45	12695.07
425.64	12786.35
425.83	12772.30
426.01	13008.70
426.20	13046.15
426.39	13179.56
426.58	13252.11
426.77	12886.99
426.96	13039.12
427.15	13256.79
427.33	13434.68
427.52	13315.31
427.71	13642.98
427.90	13301.26
428.09	13458.08
428.28	14153.22
428.46	13870.01
428.65	13682.77
428.84	14164.92
429.03	14207.05
429.22	13858.31
429.40	14150.88
429.59	14398.98
429.78	13848.95
429.97	13837.25
430.16	14235.14
430.34	14661.12
430.53	14836.66
430.72	14719.63
430.91	14516.00
431.10	14647.07
431.28	15042.62
431.47	15091.77
431.66	14988.79
431.85	14909.21
432.03	15353.91
432.22	15583.29
432.41	15316.47
432.60	15529.45
432.79	15681.59
432.97	15693.29
433.16	15651.16
433.35	15592.65
433.54	15740.10
433.72	16105.23
433.91	16006.92
434.10	16149.70
434.28	15735.42
434.47	16252.68
434.66	16201.19
434.85	16512.48
435.03	16666.95
435.22	16760.58
435.41	17109.32
435.59	16947.82
435.78	16821.43
435.97	17132.72
436.16	16807.39
436.34	16545.25
436.53	16992.29
436.72	17460.40
436.90	17160.81
437.09	17207.62
437.28	16950.16
437.46	17479.12
437.65	17607.85
437.84	17771.69
438.02	17558.70
438.21	17862.97
438.40	17717.86
438.58	18441.08
438.77	18298.31
438.96	18354.48
439.14	18829.61
439.33	18759.39
439.52	19201.76
439.70	19026.21
439.89	19381.98
440.08	19339.85
440.26	19658.16
440.45	19316.44
440.63	19744.76
440.82	19990.52
441.01	19702.63
441.19	20088.82
441.38	20463.30
441.57	20194.14
441.75	20280.74
441.94	20905.66
442.12	20580.33
442.31	21193.55
442.50	21191.21
442.68	21226.32
442.87	21146.74
443.05	21135.04
443.24	21933.16
443.43	22005.72
443.61	21874.65
443.80	22309.99
443.98	21352.71
444.17	20718.42
444.35	22087.64
444.54	22040.82
444.73	22202.32
444.91	22452.76
445.10	22499.57
445.28	22073.59
445.47	22160.19
445.65	22036.14
445.84	22302.96
446.02	22359.14
446.21	22595.53
446.39	22038.48
446.58	22508.93
446.77	22661.07
446.95	21958.91
447.14	22558.08
447.32	22738.30
447.51	22504.25
447.69	22352.12
447.88	22551.06
448.06	22862.35
448.25	22733.62
448.43	22471.48
448.62	23014.49
448.80	22686.81
448.99	23094.07
449.17	23548.13
449.36	23131.51
449.54	23459.19
449.73	24056.03
449.91	24133.26
450.10	24114.54
450.28	24379.02
450.46	24666.91
450.65	24758.19
450.83	24336.89
451.02	24058.37
451.20	24992.24
451.39	24278.38
451.57	24430.51
451.76	24613.07
451.94	24884.58
452.13	25252.04
452.31	25125.65
452.49	24776.91
452.68	24950.11
452.86	24823.72
453.05	25373.75
453.23	25680.36
453.42	25205.23
453.60	25404.17
453.78	25762.28
453.97	25177.14
454.15	25481.41
454.34	25516.52
454.52	26197.62
454.70	26263.15
454.89	26298.26
455.07	26415.29
455.26	26686.79
455.44	26742.96
455.62	26738.28
455.81	26799.13
455.99	27126.81
456.17	26808.50
456.36	27218.09
456.54	27564.49
456.73	27878.12
456.91	28034.94
457.09	28198.77
457.28	28376.66
457.46	28149.62
457.64	28201.11
457.83	28210.48
458.01	28353.25
458.19	28797.95
458.38	28811.99
458.56	29046.05
458.74	29202.86
458.93	28945.41
459.11	29092.86
459.29	29429.90
459.48	29511.81
459.66	29324.57
459.84	29699.06
460.03	30408.24
460.21	29886.30
460.39	29888.64
460.57	29858.21
460.76	30513.56
460.94	30675.06
461.12	30721.87
461.31	30946.56
461.49	30333.34
461.67	30548.67
461.85	30967.63
462.04	30866.98
462.22	31672.13
462.40	31821.92
462.59	31253.17
462.77	31463.82
462.95	31833.63
463.13	31517.65
463.32	31714.26
463.50	32086.40
463.68	32306.41
463.86	32196.41
464.05	31709.58
464.23	31721.28
464.41	32507.70
464.59	32299.39
464.78	33237.95
464.96	32727.71
465.14	32484.30
465.32	33134.96
465.50	32760.48
465.69	33270.72
465.87	33340.93
466.05	32919.63
466.23	33123.26
466.41	33624.14
466.60	34492.47
466.78	33453.28
466.96	33481.36
467.14	33724.78
467.32	34167.14
467.51	34731.21
467.69	33390.08
467.87	34139.05
468.05	34731.21
468.23	34492.47
468.41	33890.96
468.60	35096.33
468.78	35012.07
468.96	34455.03
469.14	35304.64
469.32	35938.93
469.50	34941.86
469.69	35686.15
469.87	36077.02
470.05	36278.30
470.23	36407.03
470.41	36531.08
470.59	37069.40
470.77	36332.14
470.95	36596.62
471.14	37439.21
471.32	36479.59
471.50	36907.91
471.68	37422.83
471.86	37340.91
472.04	37743.48
472.22	38658.63
472.40	37741.14
472.58	38689.06
472.77	38555.64
472.95	38546.28
473.13	40114.44
473.31	38696.08
473.49	39365.47
473.67	39068.22
473.85	39826.56
474.03	40507.65
474.21	39894.43
474.39	40369.56
474.57	40701.92
474.75	41244.92
474.93	41474.29
475.12	40942.99
475.30	41614.72
475.48	41869.84
475.66	42176.45
475.84	42000.91
476.02	42314.55
476.20	42567.32
476.38	43250.76
476.56	43552.69
476.74	43819.51
476.92	43627.59
477.10	43824.19
477.28	44636.36
477.46	44673.81
477.64	45083.40
477.82	45619.38
478.00	46539.21
478.18	45942.38
478.36	46391.76
478.54	47267.12
478.72	47405.21
478.90	47861.61
479.08	48385.89
479.26	48470.15
479.44	48472.49
479.62	49006.14
479.80	49029.54
479.98	49478.92
480.16	50349.60
480.34	49748.09
480.52	50361.31
480.70	50520.46
480.88	50316.84
481.06	50752.18
481.24	51274.12
481.41	51325.61
481.59	51707.12
481.77	52374.17
481.95	52502.90
482.13	52804.83
482.31	52521.62
482.49	53738.70
482.67	53038.88
482.85	53633.38
483.03	54021.90
483.21	54330.86
483.39	54635.13
483.57	54152.97
483.74	54609.38
483.92	55154.72
484.10	54632.78
484.28	55643.90
484.46	55973.91
484.64	56502.87
484.82	55817.10
485.00	56507.55
485.18	56961.62
485.35	57116.09
485.53	57188.65
485.71	57680.16
485.89	58171.67
486.07	57946.98
486.25	57860.38
486.43	58253.59
486.61	58255.93
486.78	58766.17
486.96	58717.02
487.14	59278.75
487.32	59599.40
487.50	59334.92
487.68	59744.51
487.85	59887.29
488.03	60247.73
488.21	60762.65
488.39	60474.76
488.57	60870.31
488.75	60954.57
488.92	61062.24
489.10	61221.39
489.28	61403.95
489.46	61879.08
489.64	61446.08
489.81	62202.08
489.99	62239.53
490.17	62279.31
490.35	62681.89
490.53	62777.85
490.70	63025.95
490.88	62777.85
491.06	63311.49
491.24	63206.17
491.41	63597.04
491.59	63744.49
491.77	63938.75
491.95	64055.78
492.13	64186.85
492.30	64275.79
492.48	64369.41
492.66	64484.10
492.84	64750.92
493.01	64701.77
493.19	64977.95
493.37	65181.58
493.54	65303.29
493.72	65275.20
493.90	65523.30
494.08	65535.00
494.25	65535.00
494.43	65535.00
494.61	65535.00
494.79	65535.00
494.96	65535.00
495.14	65535.00
495.32	65535.00
495.49	65535.00
495.67	65535.00
495.85	65535.00
496.02	65535.00
496.20	65535.00
496.38	65535.00
496.55	65535.00
496.73	65535.00
496.91	65535.00
497.09	65535.00
497.26	65535.00
497.44	65535.00
497.62	65535.00
497.79	65535.00
497.97	65535.00
498.14	65535.00
498.32	65535.00
498.50	65535.00
498.67	65535.00
498.85	65535.00
499.03	65535.00
499.20	65535.00
499.38	65535.00
499.56	65535.00
499.73	65535.00
499.91	65535.00
500.08	65535.00
500.26	65535.00
500.44	65535.00
500.61	65535.00
500.79	65535.00
500.97	65535.00
501.14	65535.00
501.32	65535.00
501.49	65535.00
501.67	65535.00
501.84	65535.00
502.02	65535.00
502.20	65535.00
502.37	65535.00
502.55	65535.00
502.72	65535.00
502.90	65535.00
503.07	65535.00
503.25	65535.00
503.43	65535.00
503.60	65535.00
503.78	65535.00
503.95	65535.00
504.13	65535.00
504.30	65535.00
504.48	65535.00
504.65	65535.00
504.83	65535.00
505.01	65535.00
505.18	65535.00
505.36	65535.00
505.53	65535.00
505.71	65535.00
505.88	65535.00
506.06	65535.00
506.23	65535.00
506.41	65535.00
506.58	65535.00
506.76	65535.00
506.93	65535.00
507.11	65535.00
507.28	65535.00
507.46	65535.00
507.63	65535.00
507.81	65535.00
507.98	65535.00
508.16	65535.00
508.33	65535.00
508.50	65535.00
508.68	65535.00
508.85	65535.00
509.03	65535.00
509.20	65535.00
509.38	65535.00
509.55	65535.00
509.73	65535.00
509.90	65535.00
510.08	65535.00
510.25	65535.00
510.42	65535.00
510.60	65535.00
510.77	65535.00
510.95	65535.00
511.12	65535.00
511.30	65535.00
511.47	65535.00
511.64	65535.00
511.82	65535.00
511.99	65535.00
512.17	65535.00
512.34	65535.00
512.51	65535.00
512.69	65535.00
512.86	65535.00
513.04	65535.00
513.21	65535.00
513.38	65535.00
513.56	65535.00
513.73	65535.00
513.90	65535.00
514.08	65535.00
514.25	65535.00
514.43	65535.00
514.60	65535.00
514.77	65535.00
514.95	65535.00
515.12	65535.00
515.29	65535.00
515.47	65535.00
515.64	65535.00
515.81	65535.00
515.99	65535.00
516.16	65535.00
516.33	65535.00
516.51	65535.00
516.68	65535.00
516.85	65535.00
517.03	65535.00
517.20	65535.00
517.37	65535.00
517.54	65535.00
517.72	65535.00
517.89	65535.00
518.06	65535.00
518.24	65535.00
518.41	65535.00
518.58	65535.00
518.75	65535.00
518.93	65535.00
519.10	65535.00
519.27	65535.00
519.45	65535.00
519.62	65535.00
519.79	65535.00
519.96	65535.00
520.14	65535.00
520.31	65535.00
520.48	65535.00
520.65	65535.00
520.83	65535.00
521.00	65535.00
521.17	65535.00
521.34	65535.00
521.52	65535.00
521.69	65535.00
521.86	65535.00
522.03	65535.00
522.20	65535.00
522.38	65535.00
522.55	65535.00
522.72	65535.00
522.89	65535.00
523.07	65535.00
523.24	65535.00
523.41	65535.00
523.58	65535.00
523.75	65535.00
523.92	65535.00
524.10	65535.00
524.27	65535.00
524.44	65535.00
524.61	65535.00
524.78	65535.00
524.96	65535.00
525.13	65535.00
525.30	65535.00
525.47	65535.00
525.64	65535.00
525.81	65535.00
525.98	65535.00
526.16	65535.00
526.33	65535.00
526.50	65535.00
526.67	65535.00
526.84	65535.00
527.01	65535.00
527.18	65535.00
527.36	65535.00
527.53	65535.00
527.70	65535.00
527.87	65535.00
528.04	65535.00
528.21	65535.00
528.38	65535.00
528.55	65535.00
528.72	65535.00
528.89	65535.00
529.07	65535.00
529.24	65535.00
529.41	65535.00
529.58	65535.00
529.75	65535.00
529.92	65535.00
530.09	65535.00
530.26	65535.00
530.43	65535.00
530.60	65535.00
530.77	65535.00
530.94	65535.00
531.11	65535.00
531.28	65535.00
531.46	65535.00
531.63	65535.00
531.80	65535.00
531.97	65535.00
532.14	65535.00
532.31	65535.00
532.48	65535.00
532.65	65535.00
532.82	65535.00
532.99	65535.00
533.16	65535.00
533.33	65535.00
533.50	65535.00
533.67	65535.00
533.84	65535.00
534.01	65535.00
534.18	65535.00
534.35	65535.00
534.52	65535.00
534.69	65535.00
534.86	65535.00
535.03	65535.00
535.20	65535.00
535.37	65535.00
535.54	65535.00
535.71	65535.00
535.88	65535.00
536.05	65535.00
536.22	65535.00
536.38	65535.00
536.55	65535.00
536.72	65535.00
536.89	65535.00
537.06	65535.00
537.23	65535.00
537.40	65535.00
537.57	65535.00
537.74	65535.00
537.91	65535.00
538.08	65535.00
538.25	65535.00
538.42	65535.00
538.59	65535.00
538.75	65535.00
538.92	65535.00
539.09	65535.00
539.26	65535.00
539.43	65535.00
539.60	65535.00
539.77	65535.00
539.94	65535.00
540.11	65535.00
540.28	65535.00
540.44	65535.00
540.61	65535.00
540.78	65535.00
540.95	65535.00
541.12	65535.00
541.29	65535.00
541.46	65535.00
541.62	65535.00
541.79	65535.00
541.96	65535.00
542.13	65535.00
542.30	65535.00
542.47	65535.00
542.63	65535.00
542.80	65535.00
542.97	65535.00
543.14	65535.00
543.31	65535.00
543.48	65535.00
543.64	65535.00
543.81	65535.00
543.98	65535.00
544.15	65535.00
544.32	65535.00
544.48	65535.00
544.65	65535.00
544.82	65535.00
544.99	65535.00
545.16	65535.00
545.32	65535.00
545.49	65535.00
545.66	65535.00
545.83	65535.00
546.00	65535.00
546.16	65535.00
546.33	65535.00
546.50	65535.00
546.67	65535.00
546.83	65535.00
547.00	65535.00
547.17	65535.00
547.34	65535.00
547.50	65535.00
547.67	65535.00
547.84	65535.00
548.00	65535.00
548.17	65535.00
548.34	65535.00
548.51	65535.00
548.67	65535.00
548.84	65535.00
549.01	65535.00
549.18	65535.00
549.34	65535.00
549.51	65535.00
549.68	65535.00
549.84	65535.00
550.01	65535.00
550.18	65535.00
550.34	65535.00
550.51	65535.00
550.68	65535.00
550.84	65535.00
551.01	65535.00
551.18	65535.00
551.34	65535.00
551.51	65535.00
551.68	65535.00
551.84	65535.00
552.01	65535.00
552.18	65535.00
552.34	65535.00
552.51	65535.00
552.68	65535.00
552.84	65535.00
553.01	65535.00
553.18	65535.00
553.34	65535.00
553.51	65535.00
553.67	65535.00
553.84	65535.00
554.01	65535.00
554.17	65535.00
554.34	65535.00
554.51	65535.00
554.67	65535.00
554.84	65535.00
555.00	65535.00
555.17	65535.00
555.33	65535.00
555.50	65535.00
555.67	65535.00
555.83	65535.00
556.00	65535.00
556.16	65535.00
556.33	65535.00
556.50	65535.00
556.66	65535.00
556.83	65535.00
556.99	65535.00
557.16	65535.00
557.32	65535.00
557.49	65535.00
557.65	65535.00
557.82	65535.00
557.98	65535.00
558.15	65535.00
558.32	65535.00
558.48	65535.00
558.65	65535.00
558.81	65535.00
558.98	65535.00
559.14	65535.00
559.31	65535.00
559.47	65535.00
559.64	65535.00
559.80	65535.00
559.97	65535.00
560.13	65535.00
560.30	65535.00
560.46	65535.00
560.63	65535.00
560.79	65535.00
560.96	65535.00
561.12	65535.00
561.29	65535.00
561.45	65535.00
561.61	65535.00
561.78	65535.00
561.94	65535.00
562.11	65535.00
562.27	65535.00
562.44	65535.00
562.60	65535.00
562.77	65535.00
562.93	65535.00
563.10	65535.00
563.26	65535.00
563.42	65535.00
563.59	65535.00
563.75	65535.00
563.92	65535.00
564.08	65535.00
564.24	65535.00
564.41	65535.00
564.57	65535.00
564.74	65535.00
564.90	65535.00
565.07	65535.00
565.23	65535.00
565.39	65535.00
565.56	65535.00
565.72	65535.00
565.88	65535.00
566.05	65535.00
566.21	65535.00
566.38	65535.00
566.54	65535.00
566.70	65535.00
566.87	65535.00
567.03	65535.00
567.19	65535.00
567.36	65535.00
567.52	65535.00
567.68	65535.00
567.85	65535.00
568.01	65535.00
568.17	65535.00
568.34	65535.00
568.50	65535.00
568.66	65535.00
568.83	65535.00
568.99	65535.00
569.15	65535.00
569.32	65535.00
569.48	65535.00
569.64	65535.00
569.81	65535.00
569.97	65535.00
570.13	65535.00
570.30	65535.00
570.46	65535.00
570.62	65535.00
570.78	65535.00
570.95	65535.00
571.11	65535.00
571.27	65535.00
571.43	65535.00
571.60	65535.00
571.76	65535.00
571.92	65535.00
572.09	65535.00
572.25	65535.00
572.41	65535.00
572.57	65535.00
572.74	65535.00
572.90	65535.00
573.06	65535.00
573.22	65535.00
573.38	65535.00
573.55	65535.00
573.71	65535.00
573.87	65535.00
574.03	65535.00
574.20	65535.00
574.36	65535.00
574.52	65535.00
574.68	65535.00
574.84	65535.00
575.01	65535.00
575.17	65535.00
575.33	65535.00
575.49	65535.00
575.65	65535.00
575.82	65535.00
575.98	65535.00
576.14	65535.00
576.30	65535.00
576.46	65535.00
576.62	65535.00
576.79	65535.00
576.95	65535.00
577.11	65535.00
577.27	65535.00
577.43	65535.00
577.59	65535.00
577.75	65535.00
577.92	65535.00
578.08	65535.00
578.24	65535.00
578.40	65535.00
578.56	65535.00
578.72	65535.00
578.88	65535.00
579.04	65535.00
579.21	65535.00
579.37	65535.00
579.53	65535.00
579.69	65535.00
579.85	65535.00
580.01	65535.00
580.17	65535.00
580.33	65535.00
580.49	65535.00
580.65	65535.00
580.82	65535.00
580.98	65535.00
581.14	65535.00
581.30	65535.00
581.46	65535.00
581.62	65535.00
581.78	65535.00
581.94	65535.00
582.10	65535.00
582.26	65535.00
582.42	65535.00
582.58	65535.00
582.74	65535.00
582.90	65535.00
583.06	65535.00
583.22	65535.00
583.38	65535.00
583.54	65535.00
583.70	65535.00
583.86	65535.00
584.02	65535.00
584.18	65535.00
584.34	65535.00
584.50	65535.00
584.66	65535.00
584.82	65535.00
584.98	65535.00
585.14	65535.00
585.30	65535.00
585.46	65535.00
585.62	65535.00
585.78	65535.00
