SpectraSuite Data File
++++++++++++++++++++++++++++++++++++
Date: Thu Oct 24 13:21:43 EDT 2013
User: stostad
Dark Spectrum Present: No
Reference Spectrum Present: No
Number of Sampled Component Spectra: 1
Spectrometers: USB2+H05261
Integration Time (usec): 100000 (USB2+H05261)
Spectra Averaged: 1 (USB2+H05261)
Boxcar Smoothing: 0 (USB2+H05261)
Correct for Electrical Dark: No (USB2+H05261)
Strobe/Lamp Enabled: No (USB2+H05261)
Correct for Detector Non-linearity: No (USB2+H05261)
Correct for Stray Light: No (USB2+H05261)
Number of Pixels in Processed Spectrum: 2048
>>>>>Begin Processed Spectral Data<<<<<
365.73	578.11
365.92	578.11
366.12	578.11
366.32	479.81
366.52	496.19
366.72	463.43
366.91	503.22
367.11	433.00
367.31	425.98
367.51	491.51
367.70	381.51
367.90	409.59
368.10	458.74
368.30	463.43
368.49	451.72
368.69	477.47
368.89	521.94
369.09	526.62
369.28	547.69
369.48	512.58
369.68	482.15
369.87	477.47
370.07	514.92
370.27	538.32
370.47	732.59
370.66	1231.12
370.86	1303.68
371.06	1301.34
371.25	1329.42
371.45	1355.17
371.65	1425.39
371.84	1219.42
372.04	1306.02
372.24	1380.92
372.44	1371.55
372.63	1380.92
372.83	1504.96
373.03	1481.56
373.22	1490.92
373.42	1511.99
373.62	1460.49
373.81	1493.26
374.01	1533.05
374.21	1542.41
374.40	1509.65
374.60	1453.47
374.79	1554.12
374.99	1584.54
375.19	1549.43
375.38	1577.52
375.58	1575.18
375.78	1591.56
375.97	1598.59
376.17	1593.90
376.37	1657.10
376.56	1645.40
376.76	1549.43
376.95	1689.87
377.15	1673.48
377.35	1575.18
377.54	1781.15
377.74	1757.74
377.93	1722.63
378.13	1657.10
378.33	1743.70
378.52	1736.68
378.72	1879.45
378.91	1724.97
379.11	1720.29
379.31	1734.34
379.50	1753.06
379.70	1781.15
379.89	1769.44
380.09	1750.72
380.28	1823.28
380.48	1853.70
380.68	1898.17
380.87	1834.98
381.07	1867.75
381.26	1849.02
381.46	1809.23
381.65	1891.15
381.85	1996.48
382.04	2052.65
382.24	1891.15
382.43	1996.48
382.63	1959.03
382.83	1982.43
383.02	2015.20
383.22	2078.40
383.41	2029.24
383.61	2010.52
383.80	2071.37
384.00	2036.27
384.19	2008.18
384.39	2085.42
384.58	2120.53
384.78	2059.67
384.97	2214.15
385.17	2111.16
385.36	2197.76
385.56	2101.80
385.75	2193.08
385.95	2167.34
386.14	2204.78
386.34	2204.78
386.53	2221.17
386.72	2237.55
386.92	2275.00
387.11	2267.98
387.31	2267.98
387.50	2225.85
387.70	2291.38
387.89	2373.30
388.09	2370.96
388.28	2298.41
388.48	2286.70
388.67	2310.11
388.86	2291.38
389.06	2387.35
389.25	2448.20
389.45	2424.80
389.64	2410.75
389.84	2450.54
390.03	2399.05
390.22	2497.35
390.42	2483.31
390.61	2422.45
390.81	2448.20
391.00	2530.12
391.19	2422.45
391.39	2480.97
391.58	2626.08
391.78	2621.40
391.97	2605.02
392.16	2565.23
392.36	2693.96
392.55	2726.72
392.75	2637.78
392.94	2712.68
393.13	2658.85
393.33	2733.75
393.52	2745.45
393.71	2719.70
393.91	2766.51
394.10	2787.58
394.29	2888.22
394.49	2829.71
394.68	2773.53
394.88	2832.05
395.07	2920.99
395.26	2953.76
395.46	2960.78
395.65	3087.17
395.84	3038.02
396.04	2942.05
396.23	3080.14
396.42	2965.46
396.62	3066.10
396.81	3133.98
397.00	3173.77
397.19	3173.77
397.39	3002.91
397.58	3126.96
397.77	3206.53
397.97	3274.41
398.16	3262.71
398.35	3248.66
398.55	3253.34
398.74	3286.11
398.93	3314.20
399.12	3330.58
399.32	3346.97
399.51	3384.41
399.70	3346.97
399.90	3332.92
400.09	3400.80
400.28	3433.57
400.47	3527.19
400.67	3501.44
400.86	3618.47
401.05	3510.80
401.24	3630.17
401.44	3648.90
401.63	3599.74
401.82	3609.11
402.01	3632.51
402.21	3606.77
402.40	3782.31
402.59	3639.53
402.78	3763.58
402.97	3824.44
403.17	3918.06
403.36	3808.05
403.55	3941.46
403.74	3894.65
403.93	4028.06
404.13	3971.89
404.32	4023.38
404.51	4156.79
404.70	4081.89
404.89	4014.02
405.09	4166.15
405.28	4014.02
405.47	4245.73
405.66	4140.41
405.85	4353.40
406.05	4063.17
406.24	4159.13
406.43	4344.03
406.62	4393.19
406.81	4390.84
407.00	4325.31
407.20	4292.54
407.39	4194.24
407.58	4404.89
407.77	4582.77
407.96	4498.51
408.15	4475.10
408.34	4498.51
408.54	4547.66
408.73	4568.73
408.92	4585.11
409.11	4594.47
409.30	4779.37
409.49	4638.94
409.68	4954.91
409.87	4936.19
410.07	4938.53
410.26	4821.50
410.45	4814.48
410.64	4973.64
410.83	5036.83
411.02	5085.98
411.21	5097.69
411.40	4882.36
411.59	5165.56
411.78	5132.79
411.98	5050.88
412.17	5245.14
412.36	5207.69
412.55	5411.32
412.74	5366.85
412.93	5418.34
413.12	5191.31
413.31	5535.37
413.50	5514.30
413.69	5563.45
413.88	5600.90
414.07	5643.03
414.26	5729.63
414.45	5731.97
414.64	5877.09
414.83	5954.32
415.02	5928.58
415.22	5947.30
415.41	5874.74
415.60	6253.91
415.79	6083.05
415.98	6202.42
416.17	6228.17
416.36	6293.70
416.55	6047.94
416.74	6466.90
416.93	6282.00
417.12	6438.81
417.31	6527.75
417.50	6532.44
417.69	6644.78
417.88	6740.74
418.07	6473.92
418.26	6679.89
418.45	6675.21
418.64	6916.28
418.83	6722.02
419.02	6951.39
419.21	7227.57
419.39	7026.29
419.58	7002.88
419.77	7007.56
419.96	7159.70
420.15	6956.07
420.34	7194.81
420.53	7211.19
420.72	7204.17
420.91	7133.95
421.10	7328.22
421.29	7269.70
421.48	7213.53
421.67	7414.82
421.86	7272.04
422.05	7435.88
422.24	7499.08
422.43	7531.84
422.61	7618.44
422.80	7667.60
422.99	7613.76
423.18	7604.40
423.37	7751.85
423.56	7665.25
423.75	7599.72
423.94	7370.35
424.13	7101.19
424.32	7265.02
424.50	7765.90
424.69	7510.78
424.88	7763.56
425.07	7515.46
425.26	7543.55
425.45	7653.55
425.64	7618.44
425.83	7543.55
426.01	7772.92
426.20	7878.24
426.39	7826.75
426.58	7908.67
426.77	7758.88
426.96	7955.48
427.15	7936.76
427.33	7992.93
427.52	7854.84
427.71	7950.80
427.90	8009.31
428.09	8234.00
428.28	8126.34
428.46	8336.99
428.65	8098.25
428.84	8322.94
429.03	8510.19
429.22	8231.66
429.40	8423.59
429.59	8365.07
429.78	8257.41
429.97	8140.38
430.16	8231.66
430.34	8566.36
430.53	8561.68
430.72	8690.41
430.91	8472.74
431.10	8512.53
431.28	8730.20
431.47	8741.90
431.66	9188.94
431.85	8905.74
432.03	9057.87
432.22	9226.39
432.41	9069.58
432.60	9078.94
432.79	9202.99
432.97	9181.92
433.16	9355.12
433.35	9277.88
433.54	9266.18
433.72	9310.65
433.91	9310.65
434.10	9542.36
434.28	9348.10
434.47	9455.76
434.66	9633.64
434.85	9488.53
435.03	9771.74
435.22	9802.16
435.41	10190.69
435.59	10101.75
435.78	9984.73
435.97	10047.92
436.16	9839.61
436.34	9706.20
436.53	9998.77
436.72	10375.59
436.90	9848.97
437.09	10204.74
437.28	10104.09
437.46	9963.66
437.65	10286.65
437.84	10019.83
438.02	10377.94
438.21	10244.52
438.40	10307.72
438.58	10719.65
438.77	10672.84
438.96	10562.84
439.14	10942.00
439.33	10813.28
439.52	10864.77
439.70	11040.31
439.89	11365.64
440.08	11311.81
440.26	11283.72
440.45	11295.43
440.63	11578.63
440.82	11543.52
441.01	11456.92
441.19	11969.50
441.38	12004.61
441.57	11906.31
441.75	11955.46
441.94	12154.40
442.12	12320.58
442.31	12367.39
442.50	12388.46
442.68	12189.51
442.87	12404.84
443.05	12507.82
443.24	12751.24
443.43	12379.09
443.61	12606.13
443.80	12919.76
443.98	12372.07
444.17	12025.67
444.35	12699.75
444.54	13076.57
444.73	12648.26
444.91	12643.57
445.10	13046.15
445.28	12847.20
445.47	12718.47
445.65	12727.83
445.84	12908.05
446.02	13212.32
446.21	12816.77
446.39	12950.18
446.58	13022.74
446.77	13032.10
446.95	12989.97
447.14	12915.08
447.32	13259.13
447.51	12966.57
447.69	12999.34
447.88	13209.98
448.06	13081.25
448.25	13006.36
448.43	13315.31
448.62	13104.66
448.80	12968.91
448.99	13172.54
449.17	13521.27
449.36	13160.83
449.54	13664.05
449.73	13788.10
449.91	13879.38
450.10	13687.45
450.28	13987.04
450.46	14101.73
450.65	13664.05
450.83	13984.70
451.02	13968.32
451.20	14403.66
451.39	14036.19
451.57	14209.39
451.76	14122.79
451.94	14218.75
452.13	14349.82
452.31	14464.51
452.49	14139.18
452.68	14607.28
452.86	14218.75
453.05	14548.77
453.23	14682.18
453.42	14588.56
453.60	14443.45
453.78	14633.03
453.97	14633.03
454.15	14637.71
454.34	14726.65
454.52	14857.72
454.70	15112.84
454.89	14979.43
455.07	14829.63
455.26	14839.00
455.44	15594.99
455.62	15276.68
455.81	15225.18
455.99	15531.80
456.17	15386.68
456.36	15590.31
456.54	15646.48
456.73	15695.63
456.91	15892.24
457.09	16100.55
457.28	16152.04
457.46	15824.36
457.64	16273.74
457.83	16538.23
458.01	16215.23
458.19	16596.74
458.38	16154.38
458.56	16683.34
458.74	16343.96
458.93	16819.09
459.11	16559.29
459.29	16580.36
459.48	16917.39
459.66	16596.74
459.84	17027.40
460.03	16842.50
460.21	16886.97
460.39	16863.56
460.57	16952.50
460.76	17062.51
460.94	17209.96
461.12	17689.77
461.31	17348.05
461.49	17085.91
461.67	17081.23
461.85	17727.22
462.04	17511.89
462.22	17738.92
462.40	18352.14
462.59	17797.43
462.77	17778.71
462.95	18298.31
463.13	18129.79
463.32	17984.68
463.50	18200.01
463.68	18120.43
463.86	18490.23
464.05	18345.12
464.23	18515.98
464.41	18813.23
464.59	18211.71
464.78	18780.46
464.96	18462.15
465.14	18443.42
465.32	18965.36
465.50	18806.20
465.69	19094.09
465.87	18892.80
466.05	18890.46
466.23	18775.78
466.41	19152.60
466.60	19318.78
466.78	19061.32
466.96	19080.05
467.14	19297.72
467.32	19236.86
467.51	19707.31
467.69	19168.99
467.87	19623.05
468.05	19335.17
468.23	19260.27
468.41	19470.92
468.60	19183.03
468.78	20051.37
468.96	19611.35
469.14	19988.18
469.32	20570.97
469.50	19695.61
469.69	20238.61
469.87	20229.25
470.05	20652.89
470.23	20580.33
470.41	20512.46
470.59	20769.91
470.77	20680.97
470.95	20830.77
471.14	21223.98
471.32	20585.01
471.50	21135.04
471.68	21057.80
471.86	21399.52
472.04	21535.27
472.22	22281.90
472.40	21413.56
472.58	21654.64
472.77	21734.21
472.95	21893.37
473.13	22504.25
473.31	21776.34
473.49	22298.28
473.67	22040.82
473.85	22520.63
474.03	22948.95
474.21	22876.40
474.39	23173.64
474.57	22972.36
474.75	23391.31
474.93	23178.33
475.12	23419.40
475.30	23412.38
475.48	23592.60
475.66	23903.89
475.84	23800.91
476.02	23896.87
476.20	24299.44
476.38	24779.25
476.56	24802.66
476.74	25282.47
476.92	25181.82
477.10	24952.45
477.28	25493.12
477.46	25436.94
477.64	25312.89
477.82	26005.69
478.00	26792.11
478.18	26396.56
478.36	26558.06
478.54	27115.11
478.72	26932.54
478.90	27360.86
479.08	27236.81
479.26	27704.92
479.44	28135.58
479.62	28304.10
479.80	28285.37
479.98	28528.79
480.16	29446.28
480.34	28971.15
480.52	29071.79
480.70	29427.56
480.88	28989.88
481.06	29457.98
481.24	29893.32
481.41	30096.95
481.59	30534.63
481.77	30923.16
481.95	30878.69
482.13	31143.17
482.31	30939.54
482.49	31880.44
482.67	31311.69
482.85	31997.46
483.03	32685.58
483.21	32465.57
483.39	32999.21
483.57	33139.65
483.74	33172.41
483.92	33771.59
484.10	33502.43
484.28	34054.79
484.46	34611.84
484.64	35264.85
484.82	34731.21
485.00	35145.48
485.18	35213.36
485.35	36294.69
485.53	36023.19
485.71	36718.32
485.89	36943.02
486.07	36833.01
486.25	37397.08
486.43	36776.84
486.61	37638.15
486.78	38117.96
486.96	38309.89
487.14	38888.00
487.32	38707.78
487.50	39103.33
487.68	39646.33
487.85	39805.49
488.03	39798.47
488.21	40821.28
488.39	40432.75
488.57	41092.79
488.75	41226.20
488.92	41457.91
489.10	42181.13
489.28	41764.52
489.46	42651.58
489.64	42693.71
489.81	43136.07
489.99	42878.61
490.17	43725.89
490.35	44273.57
490.53	44395.28
490.70	44397.62
490.88	44573.16
491.06	45106.80
491.24	44697.21
491.41	45202.77
491.59	46024.29
491.77	45720.02
491.95	46454.95
492.13	45979.82
492.30	47187.54
492.48	46630.49
492.66	47302.23
492.84	47002.64
493.01	47908.43
493.19	47667.35
493.37	48009.07
493.54	48577.82
493.72	48568.46
493.90	48652.72
494.08	49420.41
494.25	49659.15
494.43	49387.64
494.61	50138.96
494.79	50099.17
494.96	49942.35
495.14	49904.90
495.32	50600.04
495.49	50857.50
495.67	50876.22
495.85	51222.62
496.02	51264.75
496.20	51454.34
496.38	51613.49
496.55	51702.43
496.73	52598.86
496.91	52116.71
497.09	52486.51
497.26	52612.90
497.44	52856.32
497.62	52931.22
497.79	53102.07
497.97	53254.21
498.14	53708.27
498.32	53832.32
498.50	53549.12
498.67	53958.71
498.85	53598.27
499.03	54220.85
499.20	54328.52
499.38	54588.31
499.56	54569.59
499.73	54536.82
499.91	54859.82
500.08	54946.42
500.26	54721.72
500.44	54944.08
500.61	55414.52
500.79	55171.11
500.97	55454.31
501.14	55817.10
501.32	56034.77
501.49	55789.01
501.67	56147.11
501.84	56339.04
502.02	56109.66
502.20	56493.51
502.37	56556.70
502.55	56402.23
502.72	56402.23
502.90	56605.86
503.07	56994.39
503.25	56767.35
503.43	56673.73
503.60	57373.55
503.78	57270.57
503.95	57200.35
504.13	57322.06
504.30	57511.64
504.48	57635.69
504.65	57581.86
504.83	57722.29
505.01	57930.60
505.18	57918.90
505.36	57865.06
505.53	57937.62
505.71	58244.23
505.88	58272.32
506.06	57895.49
506.23	58473.60
506.41	58342.53
506.58	58454.88
506.76	58384.66
506.93	58651.48
507.11	58534.46
507.28	59047.04
507.46	58918.31
507.63	59220.23
507.81	59201.51
507.98	58953.41
508.16	59075.12
508.33	59426.20
508.50	59451.95
508.68	59597.06
508.85	59657.91
509.03	59552.59
509.20	59573.66
509.38	59980.91
509.55	59994.95
509.73	60088.57
509.90	60310.92
510.08	60413.91
510.25	60116.66
510.42	60210.28
510.60	60317.95
510.77	60355.39
510.95	60662.00
511.12	60533.28
511.30	60582.43
511.47	60919.46
511.64	60828.18
511.82	60938.19
511.99	60877.33
512.17	61029.47
512.34	61116.07
512.51	61350.12
512.69	61382.89
512.86	61418.00
513.04	61684.82
513.21	61408.64
513.38	61408.64
513.56	61549.07
513.73	61546.73
513.90	61787.80
514.08	61715.25
514.25	61932.92
514.43	61808.87
514.60	61932.92
514.77	61766.74
514.95	62136.54
515.12	62031.22
515.29	62211.44
515.47	62496.98
515.64	62553.16
515.81	62302.72
515.99	62307.40
516.16	62560.18
516.33	62471.24
516.51	62660.82
516.68	62775.51
516.85	62719.34
517.03	62780.19
517.20	62887.85
517.37	62810.62
517.54	62789.55
517.72	62878.49
517.89	63084.46
518.06	63180.42
518.24	63072.76
518.41	63299.79
518.58	63220.21
518.75	63126.59
518.93	63288.09
519.10	63304.47
519.27	63428.52
519.45	63641.51
519.62	63735.13
519.79	63788.96
519.96	63903.65
520.14	63833.43
520.31	63608.74
520.48	63894.28
520.65	63758.53
520.83	64053.44
521.00	64151.74
521.17	64186.85
521.34	64203.24
521.52	64287.49
521.69	64233.66
521.86	64217.28
522.03	64303.88
522.20	64402.18
522.38	64683.04
522.55	64568.36
522.72	64477.08
522.89	64544.95
523.07	64757.94
523.24	64484.10
523.41	64837.52
523.58	64896.03
523.75	65130.09
523.92	65066.89
524.10	64984.97
524.27	65045.83
524.44	65022.42
524.61	65230.73
524.78	65244.77
524.96	65207.32
525.13	65233.07
525.30	65535.00
525.47	65509.25
525.64	65535.00
525.81	65535.00
525.98	65535.00
526.16	65535.00
526.33	65525.64
526.50	65535.00
526.67	65535.00
526.84	65535.00
527.01	65535.00
527.18	65535.00
527.36	65535.00
527.53	65535.00
527.70	65535.00
527.87	65535.00
528.04	65535.00
528.21	65535.00
528.38	65535.00
528.55	65535.00
528.72	65535.00
528.89	65535.00
529.07	65535.00
529.24	65535.00
529.41	65535.00
529.58	65535.00
529.75	65535.00
529.92	65535.00
530.09	65535.00
530.26	65535.00
530.43	65535.00
530.60	65535.00
530.77	65535.00
530.94	65535.00
531.11	65535.00
531.28	65535.00
531.46	65535.00
531.63	65535.00
531.80	65535.00
531.97	65535.00
532.14	65535.00
532.31	65535.00
532.48	65535.00
532.65	65535.00
532.82	65535.00
532.99	65535.00
533.16	65535.00
533.33	65535.00
533.50	65535.00
533.67	65535.00
533.84	65535.00
534.01	65535.00
534.18	65535.00
534.35	65535.00
534.52	65535.00
534.69	65535.00
534.86	65535.00
535.03	65535.00
535.20	65535.00
535.37	65535.00
535.54	65535.00
535.71	65535.00
535.88	65535.00
536.05	65535.00
536.22	65535.00
536.38	65535.00
536.55	65535.00
536.72	65535.00
536.89	65535.00
537.06	65535.00
537.23	65535.00
537.40	65535.00
537.57	65535.00
537.74	65535.00
537.91	65535.00
538.08	65535.00
538.25	65535.00
538.42	65535.00
538.59	65535.00
538.75	65535.00
538.92	65535.00
539.09	65535.00
539.26	65535.00
539.43	65535.00
539.60	65535.00
539.77	65535.00
539.94	65535.00
540.11	65535.00
540.28	65535.00
540.44	65535.00
540.61	65535.00
540.78	65535.00
540.95	65535.00
541.12	65535.00
541.29	65535.00
541.46	65535.00
541.62	65535.00
541.79	65535.00
541.96	65535.00
542.13	65535.00
542.30	65535.00
542.47	65535.00
542.63	65535.00
542.80	65535.00
542.97	65535.00
543.14	65535.00
543.31	65535.00
543.48	65535.00
543.64	65535.00
543.81	65535.00
543.98	65535.00
544.15	65535.00
544.32	65535.00
544.48	65535.00
544.65	65535.00
544.82	65535.00
544.99	65535.00
545.16	65535.00
545.32	65535.00
545.49	65535.00
545.66	65535.00
545.83	65535.00
546.00	65535.00
546.16	65535.00
546.33	65535.00
546.50	65535.00
546.67	65535.00
546.83	65535.00
547.00	65535.00
547.17	65535.00
547.34	65535.00
547.50	65535.00
547.67	65535.00
547.84	65535.00
548.00	65535.00
548.17	65535.00
548.34	65535.00
548.51	65535.00
548.67	65535.00
548.84	65535.00
549.01	65535.00
549.18	65535.00
549.34	65535.00
549.51	65535.00
549.68	65535.00
549.84	65535.00
550.01	65535.00
550.18	65535.00
550.34	65535.00
550.51	65535.00
550.68	65535.00
550.84	65535.00
551.01	65535.00
551.18	65535.00
551.34	65535.00
551.51	65535.00
551.68	65535.00
551.84	65535.00
552.01	65535.00
552.18	65535.00
552.34	65535.00
552.51	65535.00
552.68	65535.00
552.84	65535.00
553.01	65535.00
553.18	65535.00
553.34	65535.00
553.51	65535.00
553.67	65535.00
553.84	65535.00
554.01	65535.00
554.17	65535.00
554.34	65535.00
554.51	65535.00
554.67	65535.00
554.84	65535.00
555.00	65535.00
555.17	65535.00
555.33	65535.00
555.50	65535.00
555.67	65535.00
555.83	65535.00
556.00	65535.00
556.16	65535.00
556.33	65535.00
556.50	65535.00
556.66	65535.00
556.83	65535.00
556.99	65535.00
557.16	65535.00
557.32	65535.00
557.49	65535.00
557.65	65535.00
557.82	65535.00
557.98	65535.00
558.15	65535.00
558.32	65535.00
558.48	65535.00
558.65	65535.00
558.81	65535.00
558.98	65535.00
559.14	65535.00
559.31	65535.00
559.47	65535.00
559.64	65535.00
559.80	65535.00
559.97	65535.00
560.13	65535.00
560.30	65535.00
560.46	65535.00
560.63	65535.00
560.79	65535.00
560.96	65535.00
561.12	65535.00
561.29	65535.00
561.45	65535.00
561.61	65535.00
561.78	65535.00
561.94	65535.00
562.11	65535.00
562.27	65535.00
562.44	65535.00
562.60	65535.00
562.77	65535.00
562.93	65535.00
563.10	65535.00
563.26	65535.00
563.42	65535.00
563.59	65535.00
563.75	65535.00
563.92	65535.00
564.08	65535.00
564.24	65535.00
564.41	65535.00
564.57	65535.00
564.74	65535.00
564.90	65535.00
565.07	65535.00
565.23	65535.00
565.39	65535.00
565.56	65535.00
565.72	65535.00
565.88	65535.00
566.05	65535.00
566.21	65535.00
566.38	65535.00
566.54	65535.00
566.70	65535.00
566.87	65535.00
567.03	65535.00
567.19	65535.00
567.36	65535.00
567.52	65535.00
567.68	65535.00
567.85	65535.00
568.01	65535.00
568.17	65535.00
568.34	65535.00
568.50	65535.00
568.66	65535.00
568.83	65535.00
568.99	65535.00
569.15	65535.00
569.32	65535.00
569.48	65535.00
569.64	65535.00
569.81	65535.00
569.97	65535.00
570.13	65535.00
570.30	65535.00
570.46	65535.00
570.62	65535.00
570.78	65535.00
570.95	65535.00
571.11	65535.00
571.27	65535.00
571.43	65535.00
571.60	65535.00
571.76	65535.00
571.92	65535.00
572.09	65535.00
572.25	65535.00
572.41	65535.00
572.57	65535.00
572.74	65535.00
572.90	65535.00
573.06	65535.00
573.22	65535.00
573.38	65535.00
573.55	65535.00
573.71	65535.00
573.87	65535.00
574.03	65535.00
574.20	65535.00
574.36	65535.00
574.52	65535.00
574.68	65535.00
574.84	65535.00
575.01	65535.00
575.17	65535.00
575.33	65535.00
575.49	65535.00
575.65	65535.00
575.82	65535.00
575.98	65535.00
576.14	65535.00
576.30	65535.00
576.46	65535.00
576.62	65535.00
576.79	65535.00
576.95	65535.00
577.11	65535.00
577.27	65535.00
577.43	65535.00
577.59	65535.00
577.75	65535.00
577.92	65535.00
578.08	65535.00
578.24	65535.00
578.40	65535.00
578.56	65535.00
578.72	65535.00
578.88	65535.00
579.04	65535.00
579.21	65535.00
579.37	65535.00
579.53	65535.00
579.69	65535.00
579.85	65535.00
580.01	65535.00
580.17	65535.00
580.33	65535.00
580.49	65535.00
580.65	65535.00
580.82	65535.00
580.98	65535.00
581.14	65535.00
581.30	65535.00
581.46	65535.00
581.62	65535.00
581.78	65535.00
581.94	65535.00
582.10	65535.00
582.26	65535.00
582.42	65535.00
582.58	65535.00
582.74	65535.00
582.90	65535.00
583.06	65535.00
583.22	65535.00
583.38	65535.00
583.54	65535.00
583.70	65535.00
583.86	65535.00
584.02	65535.00
584.18	65535.00
584.34	65535.00
584.50	65535.00
584.66	65535.00
584.82	65535.00
584.98	65535.00
585.14	65535.00
585.30	65535.00
585.46	65535.00
585.62	65535.00
585.78	65535.00
585.94	65535.00
586.10	65535.00
586.26	65535.00
586.42	65535.00
586.58	65535.00
586.74	65535.00
586.90	65535.00
