SpectraSuite Data File
++++++++++++++++++++++++++++++++++++
Date: Thu Oct 24 13:21:11 EDT 2013
User: stostad
Dark Spectrum Present: No
Reference Spectrum Present: No
Number of Sampled Component Spectra: 1
Spectrometers: USB2+H05261
Integration Time (usec): 100000 (USB2+H05261)
Spectra Averaged: 1 (USB2+H05261)
Boxcar Smoothing: 0 (USB2+H05261)
Correct for Electrical Dark: No (USB2+H05261)
Strobe/Lamp Enabled: No (USB2+H05261)
Correct for Detector Non-linearity: No (USB2+H05261)
Correct for Stray Light: No (USB2+H05261)
Number of Pixels in Processed Spectrum: 2048
>>>>>Begin Processed Spectral Data<<<<<
365.73	564.07
365.92	564.07
366.12	564.07
366.32	458.74
366.52	390.87
366.72	400.23
366.91	437.68
367.11	379.17
367.31	449.38
367.51	444.70
367.70	442.36
367.90	477.47
368.10	468.11
368.30	547.69
368.49	498.53
368.69	526.62
368.89	519.60
369.09	435.34
369.28	461.09
369.48	531.30
369.68	528.96
369.87	564.07
370.07	524.28
370.27	557.05
370.47	533.64
370.66	655.35
370.86	641.31
371.06	720.88
371.25	744.29
371.45	704.50
371.65	753.65
371.84	791.10
372.04	725.57
372.24	744.29
372.44	720.88
372.63	730.25
372.83	779.40
373.03	697.48
373.22	748.97
373.42	732.59
373.62	781.74
373.81	819.19
374.01	868.34
374.21	826.21
374.40	807.48
374.60	823.87
374.79	760.67
374.99	814.51
375.19	793.44
375.38	830.89
375.58	882.38
375.78	753.65
375.97	802.80
376.17	858.98
376.37	791.10
376.56	870.68
376.76	753.65
376.95	833.23
377.15	774.72
377.35	877.70
377.54	828.55
377.74	805.14
377.93	898.77
378.13	840.25
378.33	851.96
378.52	901.11
378.72	887.06
378.91	814.51
379.11	788.76
379.31	798.12
379.50	786.42
379.70	870.68
379.89	816.85
380.09	866.00
380.28	830.89
380.48	814.51
380.68	830.89
380.87	870.68
381.07	866.00
381.26	894.08
381.46	861.32
381.65	826.21
381.85	933.87
382.04	849.61
382.24	873.02
382.43	903.45
382.63	791.10
382.83	922.17
383.02	952.60
383.22	933.87
383.41	929.19
383.61	875.36
383.80	968.98
384.00	966.64
384.19	884.72
384.39	964.30
384.58	915.15
384.78	912.81
384.97	856.64
385.17	835.57
385.36	910.47
385.56	922.17
385.75	938.55
385.95	938.55
386.14	917.49
386.34	922.17
386.53	968.98
386.72	903.45
386.92	985.37
387.11	1008.77
387.31	915.15
387.50	933.87
387.70	924.51
387.89	994.73
388.09	973.66
388.28	1001.75
388.48	968.98
388.67	1022.81
388.86	1011.11
389.06	1041.54
389.25	976.00
389.45	1025.15
389.64	933.87
389.84	1036.86
390.03	994.73
390.22	985.37
390.42	1001.75
390.61	990.05
390.81	976.00
391.00	968.98
391.19	1036.86
391.39	1013.45
391.58	997.07
391.78	1057.92
391.97	1078.99
392.16	1036.86
392.36	1095.37
392.55	1041.54
392.75	1006.43
392.94	1055.58
393.13	1018.13
393.33	1137.50
393.52	1076.65
393.71	1076.65
393.91	1039.20
394.10	1067.28
394.29	1114.10
394.49	1086.01
394.68	1093.03
394.88	1118.78
395.07	1186.65
395.26	1163.25
395.46	1135.16
395.65	1121.12
395.84	1153.88
396.04	1184.31
396.23	1160.91
396.42	1104.73
396.62	1118.78
396.81	1107.07
397.00	1160.91
397.19	1186.65
397.39	1078.99
397.58	1170.27
397.77	1165.59
397.97	1160.91
398.16	1177.29
398.35	1170.27
398.55	1242.82
398.74	1256.87
398.93	1240.48
399.12	1153.88
399.32	1144.52
399.51	1174.95
399.70	1203.04
399.90	1146.86
400.09	1263.89
400.28	1198.35
400.47	1252.19
400.67	1306.02
400.86	1221.76
401.05	1301.34
401.24	1254.53
401.44	1238.14
401.63	1308.36
401.82	1299.00
402.01	1277.93
402.21	1343.47
402.40	1299.00
402.59	1352.83
402.78	1350.49
402.97	1336.45
403.17	1434.75
403.36	1334.11
403.55	1392.62
403.74	1383.26
403.93	1474.54
404.13	1467.52
404.32	1380.92
404.51	1490.92
404.70	1493.26
404.89	1458.15
405.09	1394.96
405.28	1399.64
405.47	1448.79
405.66	1413.68
405.85	1441.77
406.05	1448.79
406.24	1409.00
406.43	1472.20
406.62	1476.88
406.81	1514.33
407.00	1521.35
407.20	1502.62
407.39	1479.22
407.58	1451.13
407.77	1584.54
407.96	1600.93
408.15	1469.86
408.34	1572.84
408.54	1600.93
408.73	1607.95
408.92	1528.37
409.11	1589.22
409.30	1771.79
409.49	1575.18
409.68	1647.74
409.87	1699.23
410.07	1631.35
410.26	1713.27
410.45	1692.21
410.64	1722.63
410.83	1694.55
411.02	1823.28
411.21	1631.35
411.40	1722.63
411.59	1769.44
411.78	1778.81
411.98	1741.36
412.17	1795.19
412.36	1795.19
412.55	1818.60
412.74	1874.77
412.93	1860.73
413.12	1799.87
413.31	1959.03
413.50	1937.96
413.69	1893.49
413.88	1853.70
414.07	1902.86
414.26	1891.15
414.45	1856.04
414.64	1926.26
414.83	2052.65
415.02	1996.48
415.22	2078.40
415.41	2015.20
415.60	1975.41
415.79	2080.74
415.98	1912.22
416.17	2008.18
416.36	2057.33
416.55	2127.55
416.74	2054.99
416.93	2101.80
417.12	2073.71
417.31	2120.53
417.50	2265.64
417.69	2097.12
417.88	2214.15
418.07	2115.84
418.26	2150.95
418.45	2223.51
418.64	2230.53
418.83	2200.10
419.02	2186.06
419.21	2321.81
419.39	2260.96
419.58	2258.62
419.77	2249.25
419.96	2319.47
420.15	2347.56
420.34	2321.81
420.53	2253.94
420.72	2403.73
420.91	2279.68
421.10	2307.77
421.29	2380.32
421.48	2310.11
421.67	2392.03
421.86	2289.04
422.05	2340.54
422.24	2417.77
422.43	2370.96
422.61	2340.54
422.80	2420.11
422.99	2436.50
423.18	2455.22
423.37	2450.54
423.56	2457.56
423.75	2399.05
423.94	2321.81
424.13	2377.98
424.32	2326.49
424.50	2476.29
424.69	2380.32
424.88	2539.48
425.07	2385.01
425.26	2497.35
425.45	2506.71
425.64	2485.65
425.83	2448.20
426.01	2539.48
426.20	2483.31
426.39	2415.43
426.58	2466.92
426.77	2502.03
426.96	2541.82
427.15	2525.44
427.33	2569.91
427.52	2476.29
427.71	2495.01
427.90	2562.89
428.09	2628.42
428.28	2623.74
428.46	2677.57
428.65	2558.21
428.84	2560.55
429.03	2787.58
429.22	2597.99
429.40	2504.37
429.59	2663.53
429.78	2602.68
429.97	2513.74
430.16	2506.71
430.34	2548.84
430.53	2668.21
430.72	2789.92
430.91	2698.64
431.10	2672.89
431.28	2780.56
431.47	2654.17
431.66	2708.00
431.85	2722.04
432.03	2810.98
432.22	2843.75
432.41	2864.82
432.60	2773.53
432.79	2799.28
432.97	2923.33
433.16	2700.98
433.35	2778.22
433.54	2871.84
433.72	2733.75
433.91	2820.35
434.10	2820.35
434.28	2920.99
434.47	2855.45
434.66	2951.42
434.85	2909.29
435.03	3201.85
435.22	3295.47
435.41	3461.65
435.59	3323.56
435.78	3279.09
435.97	3080.14
436.16	3101.21
436.34	2965.46
436.53	3073.12
436.72	3066.10
436.90	2911.63
437.09	3012.27
437.28	3094.19
437.46	2984.18
437.65	3040.36
437.84	3033.33
438.02	3030.99
438.21	3091.85
438.40	3075.46
438.58	3274.41
438.77	3187.81
438.96	3194.83
439.14	3152.70
439.33	3361.01
439.52	3173.77
439.70	3267.39
439.89	3323.56
440.08	3363.35
440.26	3318.88
440.45	3267.39
440.63	3398.46
440.82	3468.67
441.01	3286.11
441.19	3499.10
441.38	3478.04
441.57	3372.71
441.75	3531.87
441.94	3508.46
442.12	3496.76
442.31	3700.39
442.50	3625.49
442.68	3538.89
442.87	3597.40
443.05	3520.17
443.24	3590.38
443.43	3620.81
443.61	3744.86
443.80	3810.39
443.98	3606.77
444.17	3585.70
444.35	3679.32
444.54	3686.34
444.73	3782.31
444.91	3737.84
445.10	3714.43
445.28	3653.58
445.47	3637.19
445.65	3716.77
445.84	3686.34
446.02	3726.13
446.21	3765.92
446.39	3831.46
446.58	3735.50
446.77	3859.54
446.95	3620.81
447.14	3737.84
447.32	3758.90
447.51	3744.86
447.69	3754.22
447.88	3684.00
448.06	3723.79
448.25	3791.67
448.43	3871.25
448.62	3712.09
448.80	3744.86
448.99	3772.94
449.17	3796.35
449.36	3737.84
449.54	3871.25
449.73	3943.80
449.91	3861.88
450.10	3815.07
450.28	3911.04
450.46	3971.89
450.65	3901.67
450.83	3983.59
451.02	3978.91
451.20	4056.15
451.39	3904.01
451.57	3932.10
451.76	4051.47
451.94	4009.34
452.13	4023.38
452.31	4142.75
452.49	4100.62
452.68	4018.70
452.86	4241.05
453.05	4170.83
453.23	4140.41
453.42	4107.64
453.60	3971.89
453.78	4201.26
453.97	4053.81
454.15	4056.15
454.34	4095.94
454.52	4119.34
454.70	4037.42
454.89	4334.67
455.07	4241.05
455.26	4311.27
455.44	4231.69
455.62	4236.37
455.81	4276.16
455.99	4234.03
456.17	4353.40
456.36	4374.46
456.54	4444.68
456.73	4334.67
456.91	4510.21
457.09	4470.42
457.28	4472.76
457.46	4465.74
457.64	4489.15
457.83	4505.53
458.01	4388.50
458.19	4432.97
458.38	4519.57
458.56	4470.42
458.74	4631.92
458.93	4554.68
459.11	4655.33
459.29	4585.11
459.48	4636.60
459.66	4510.21
459.84	4718.52
460.03	4716.18
460.21	4596.81
460.39	4550.00
460.57	4681.07
460.76	4552.34
460.94	4713.84
461.12	4751.29
461.31	4751.29
461.49	4819.16
461.67	4732.56
461.85	4898.74
462.04	4805.12
462.22	5160.88
462.40	5004.07
462.59	4858.95
462.77	4802.78
462.95	5043.85
463.13	4837.89
463.32	4868.31
463.50	4978.32
463.68	4912.78
463.86	4938.53
464.05	4997.04
464.23	4910.44
464.41	5135.14
464.59	4954.91
464.78	5107.05
464.96	4959.60
465.14	4924.49
465.32	4999.38
465.50	5041.51
465.69	5060.24
465.87	5055.56
466.05	5032.15
466.23	5018.11
466.41	5144.50
466.60	5172.58
466.78	5102.37
466.96	5172.58
467.14	5135.14
467.32	5128.11
467.51	5296.63
467.69	5139.82
467.87	5334.08
468.05	5200.67
468.23	5174.92
468.41	5163.22
468.60	5238.12
468.78	5242.80
468.96	5289.61
469.14	5399.62
469.32	5444.09
469.50	5245.14
469.69	5357.49
469.87	5369.19
470.05	5556.43
470.23	5628.99
470.41	5416.00
470.59	5495.58
470.77	5497.92
470.95	5502.60
471.14	5727.29
471.32	5451.11
471.50	5570.48
471.68	5518.98
471.86	5640.69
472.04	5584.52
472.22	5710.91
472.40	5673.46
472.58	5640.69
472.77	5636.01
472.95	5715.59
473.13	5884.11
473.31	5631.33
473.49	5912.19
473.67	5696.86
473.85	5856.02
474.03	5996.45
474.21	5954.32
474.39	6080.71
474.57	5935.60
474.75	6036.24
474.93	6101.78
475.12	6052.63
475.30	6197.74
475.48	6134.54
475.66	6129.86
475.84	6125.18
476.02	6134.54
476.20	6291.36
476.38	6265.61
476.56	6473.92
476.74	6380.30
476.92	6427.11
477.10	6305.40
477.28	6478.60
477.46	6574.56
477.64	6619.04
477.82	6607.33
478.00	6712.66
478.18	6698.61
478.36	6707.98
478.54	6740.74
478.72	6963.09
478.90	7077.78
479.08	7082.46
479.26	7026.29
479.44	7286.09
479.62	7037.99
479.80	7155.02
479.98	7248.64
480.16	7321.20
480.34	7166.72
480.52	7330.56
480.70	7398.43
480.88	7410.14
481.06	7393.75
481.24	7431.20
481.41	7384.39
481.59	7744.83
481.77	7655.89
481.95	7819.73
482.13	7740.15
482.31	7695.68
482.49	7927.39
482.67	7967.18
482.85	8088.89
483.03	8021.02
483.21	8344.01
483.39	8210.60
483.57	8278.47
483.74	8322.94
483.92	8278.47
484.10	8201.24
484.28	8601.47
484.46	8580.40
484.64	8765.31
484.82	8772.33
485.00	8872.97
485.18	8861.27
485.35	9130.43
485.53	8940.85
485.71	8954.89
485.89	9214.69
486.07	9071.92
486.25	9102.34
486.43	9107.02
486.61	9408.95
486.78	9411.29
486.96	9549.39
487.14	9575.13
487.32	9568.11
487.50	9610.24
487.68	9713.22
487.85	9926.21
488.03	9949.62
488.21	10068.98
488.39	9961.32
488.57	10026.86
488.75	10010.47
488.92	10148.56
489.10	10310.06
489.28	10455.17
489.46	10417.72
489.64	10380.28
489.81	10560.50
489.99	10682.20
490.17	10656.46
490.35	10853.06
490.53	10670.50
490.70	10581.56
490.88	10920.94
491.06	10977.11
491.24	11171.38
491.41	11049.67
491.59	11279.04
491.77	11136.27
491.95	11290.74
492.13	11520.12
492.30	11449.90
492.48	11442.88
492.66	11461.60
492.84	11454.58
493.01	11592.67
493.19	11847.79
493.37	11964.82
493.54	11859.49
493.72	12084.19
493.90	12035.03
494.08	12093.55
494.25	12142.70
494.43	12044.40
494.61	12163.76
494.79	12243.34
494.96	12306.54
495.14	12475.06
495.32	12428.24
495.49	12519.53
495.67	12631.87
495.85	12648.26
496.02	12947.84
496.20	12908.05
496.38	12854.22
496.55	12814.43
496.73	13191.26
496.91	13280.20
497.09	13268.50
497.26	13240.41
497.44	13013.38
497.62	13341.05
497.79	13378.50
497.97	13055.51
498.14	13483.83
498.32	13717.88
498.50	13774.05
498.67	13631.28
498.85	13561.06
499.03	13682.77
499.20	13626.60
499.38	13898.10
499.56	14221.10
499.73	14087.68
499.91	13916.83
500.08	13685.11
500.26	14090.02
500.44	14125.13
500.61	14122.79
500.79	14487.92
500.97	14415.36
501.14	14508.98
501.32	14321.74
501.49	14253.86
501.67	14314.72
501.84	14719.63
502.02	14682.18
502.20	14511.32
502.37	14740.69
502.55	14588.56
502.72	14853.04
502.90	14785.16
503.07	14768.78
503.25	14806.23
503.43	14626.01
503.60	14941.98
503.78	14871.76
503.95	14871.76
504.13	15110.50
504.30	14876.44
504.48	15403.07
504.65	15295.40
504.83	15421.79
505.01	15653.50
505.18	15236.89
505.36	15499.03
505.53	15452.22
505.71	15466.26
505.88	15573.92
506.06	15447.54
506.23	15683.93
506.41	15438.17
506.58	15417.11
506.76	15934.37
506.93	15962.45
507.11	15913.30
507.28	15864.15
507.46	16194.17
507.63	16114.59
507.81	16170.76
507.98	15981.18
508.16	16173.10
508.33	16264.38
508.50	16264.38
508.68	16489.07
508.85	16624.83
509.03	16549.93
509.20	16575.67
509.38	16641.21
509.55	16594.40
509.73	16746.53
509.90	16645.89
510.08	16641.21
510.25	16772.28
510.42	16868.24
510.60	16861.22
510.77	16992.29
510.95	16875.26
511.12	16830.79
511.30	17060.16
511.47	17102.29
511.64	17181.87
511.82	17268.47
511.99	17025.06
512.17	16985.27
512.34	17350.39
512.51	17317.62
512.69	17479.12
512.86	17511.89
513.04	17767.01
513.21	17642.96
513.38	17451.03
513.56	17516.57
513.73	17767.01
513.90	17635.94
514.08	17607.85
514.25	17942.55
514.43	17809.14
514.60	17579.76
514.77	17759.98
514.95	18078.30
515.12	17991.70
515.29	17797.43
515.47	18267.88
515.64	18113.41
515.81	18010.42
515.99	18370.86
516.16	18085.32
516.33	18174.26
516.51	18630.66
516.68	18558.11
516.85	18387.25
517.03	18618.96
517.20	18342.78
517.37	18508.96
517.54	18424.70
517.72	18525.34
517.89	18441.08
518.06	18712.58
518.24	18974.72
518.41	18787.48
518.58	18616.62
518.75	18773.44
518.93	18766.42
519.10	18562.79
519.27	18906.85
519.45	18649.39
519.62	19047.28
519.79	19051.96
519.96	18937.27
520.14	19199.41
520.31	18618.96
520.48	19229.84
520.65	19044.94
520.83	19412.40
521.00	19538.79
521.17	19145.58
521.34	19468.58
521.52	19374.95
521.69	19351.55
521.86	19257.93
522.03	19461.55
522.20	19384.32
522.38	19592.62
522.55	19749.44
522.72	19442.83
522.89	19534.11
523.07	19793.91
523.24	19665.18
523.41	19812.63
523.58	19789.23
523.75	19854.76
523.92	20121.59
524.10	20114.56
524.27	19779.87
524.44	19974.13
524.61	19964.77
524.78	20217.55
524.96	19585.60
525.13	20308.83
525.30	20318.19
525.47	20587.35
525.64	20540.54
525.81	20152.01
525.98	20301.81
526.16	20524.16
526.33	20273.72
526.50	20240.95
526.67	20395.43
526.84	20245.63
527.01	20533.52
527.18	20800.34
527.36	20802.68
527.53	20690.34
527.70	21132.70
527.87	20659.91
528.04	20802.68
528.21	21118.65
528.38	20835.45
528.55	20844.81
528.72	21008.65
528.89	20765.23
529.07	20814.38
529.24	20664.59
529.41	20952.48
529.58	20875.24
529.75	21001.63
529.92	21198.23
530.09	21116.31
530.26	21205.25
530.43	21177.17
530.60	20982.90
530.77	21128.02
530.94	20886.94
531.11	21247.38
531.28	21280.15
531.46	21249.72
531.63	21231.00
531.80	21315.26
531.97	21425.26
532.14	21188.87
532.31	21748.26
532.48	21694.43
532.65	21570.38
532.82	21259.09
532.99	21589.10
533.16	21383.13
533.33	21483.78
533.50	21860.60
533.67	21687.40
533.84	21647.61
534.01	21846.56
534.18	21713.15
534.35	21986.99
534.52	21741.24
534.69	21865.28
534.86	21783.37
535.03	21542.29
535.20	21802.09
535.37	22036.14
535.54	22349.78
535.71	21996.35
535.88	22075.93
536.05	22185.94
536.22	22050.19
536.38	22214.02
536.55	22038.48
536.72	21994.01
536.89	22199.98
537.06	22530.00
537.23	22469.14
537.40	22712.56
537.57	22455.10
537.74	22394.25
537.91	22473.82
538.08	22270.20
538.25	22190.62
538.42	22672.77
538.59	22764.05
538.75	22953.63
538.92	22738.30
539.09	22927.89
539.26	22448.08
539.43	22565.10
539.60	22569.79
539.77	22700.86
539.94	22963.00
540.11	23166.62
540.28	22717.24
540.44	23351.52
540.61	23007.47
540.78	22991.08
540.95	23023.85
541.12	23225.14
541.29	23557.49
541.46	23702.61
541.62	23295.35
541.79	23222.80
541.96	23145.56
542.13	23611.32
542.30	23417.06
542.47	23765.80
542.63	23988.15
542.80	23868.78
542.97	23604.30
543.14	23939.00
543.31	23786.86
543.48	24067.73
543.64	24088.79
543.81	23817.29
543.98	23988.15
544.15	24034.96
544.32	24095.82
544.48	24542.86
544.65	24081.77
544.82	23992.83
544.99	23857.08
545.16	24229.23
545.32	23983.47
545.49	24613.07
545.66	24720.74
545.83	25242.68
546.00	24980.54
546.16	24858.83
546.33	24479.66
546.50	24245.61
546.67	24189.44
546.83	24231.57
547.00	24161.35
547.17	23850.06
547.34	24065.39
547.50	24386.04
547.67	24489.03
547.84	23875.80
548.00	24144.97
548.17	24388.38
548.34	24437.53
548.51	24369.66
548.67	24205.82
548.84	24311.14
549.01	24465.62
549.18	24313.48
549.34	24341.57
549.51	24596.69
549.68	24273.70
549.84	24430.51
550.01	24332.21
550.18	24053.69
550.34	24196.46
550.51	24613.07
550.68	24458.60
550.84	24411.79
551.01	24608.39
551.18	24032.62
551.34	24264.33
551.51	24587.33
551.68	24404.77
551.84	24458.60
552.01	24091.13
552.18	24561.58
552.34	24327.53
552.51	24730.10
552.68	24781.59
552.84	24851.81
553.01	24608.39
553.18	24793.29
553.34	24924.36
553.51	24751.17
553.67	24793.29
553.84	24805.00
554.01	24807.34
554.17	25001.60
554.34	24643.50
554.51	24741.80
554.67	24893.94
554.84	24872.87
555.00	24570.94
555.17	24840.11
555.33	24905.64
555.50	24589.67
555.67	24755.85
555.83	24589.67
556.00	25127.99
556.16	25118.63
556.33	25249.70
556.50	24879.89
556.66	24947.77
556.83	25125.65
556.99	25324.60
557.16	24994.58
557.32	25186.50
557.49	25123.31
557.65	25202.89
557.82	25270.76
557.98	25036.71
558.15	25039.05
558.32	25329.28
558.48	24971.18
558.65	25074.16
558.81	25371.41
558.98	25406.52
559.14	25046.07
559.31	25472.05
559.47	25184.16
559.64	25174.80
559.80	25186.50
559.97	25221.61
560.13	24933.73
560.30	24950.11
560.46	25570.35
560.63	25326.94
560.79	25247.36
560.96	25535.24
561.12	25532.90
561.29	25511.84
561.45	25188.85
561.61	25500.14
561.78	25429.92
561.94	25165.44
562.11	25575.03
562.27	25902.71
562.44	25530.56
562.60	25603.12
562.77	25338.64
562.93	25303.53
563.10	25268.42
563.26	25170.12
563.42	25663.97
563.59	25532.90
563.75	25238.00
563.92	25818.45
564.08	25605.46
564.24	25846.54
564.41	25673.34
564.57	25631.21
564.74	25488.43
564.90	25713.13
565.07	25373.75
565.23	25848.88
565.39	25642.91
565.56	25792.70
565.72	25441.62
565.88	25804.41
566.05	25348.00
566.21	25717.81
566.38	25668.66
566.54	25867.60
566.70	25802.07
566.87	25993.99
567.03	26015.05
567.19	25982.29
567.36	25993.99
567.52	25628.87
567.68	25694.40
567.85	25692.06
568.01	25556.31
568.17	25907.39
568.34	25628.87
568.50	26087.61
568.66	25748.23
568.83	25958.88
568.99	25844.20
569.15	25678.02
569.32	25542.27
569.48	25383.11
569.64	26061.87
569.81	26045.48
569.97	25862.92
570.13	25968.24
570.30	26043.14
570.46	26085.27
570.62	26089.95
570.78	25963.56
570.95	25905.05
571.11	26092.29
571.27	25699.08
571.43	25701.42
571.60	25935.48
571.76	25876.96
571.92	25982.29
572.09	25951.86
572.25	26171.87
572.41	26043.14
572.57	25998.67
572.74	26127.40
572.90	26316.98
573.06	26249.11
573.22	25909.73
573.38	26040.80
573.55	25586.74
573.71	26099.31
573.87	25963.56
574.03	26113.36
574.20	26150.81
574.36	25832.49
574.52	26134.42
574.68	25851.22
574.84	25986.97
575.01	25970.58
575.17	26059.52
575.33	26249.11
575.49	25940.16
575.65	26302.94
575.82	26155.49
575.98	25972.92
576.14	26059.52
576.30	26045.48
576.46	26169.53
576.62	25825.47
576.79	26246.77
576.95	26382.52
577.11	26312.30
577.27	26480.82
577.43	26291.24
577.59	26127.40
577.75	26324.01
577.92	26022.08
578.08	25790.36
578.24	26003.35
578.40	26356.77
578.56	26352.09
578.72	26492.52
578.88	26389.54
579.04	26366.13
579.21	26178.89
579.37	25982.29
579.53	26375.50
579.69	26003.35
579.85	26466.78
580.01	26092.29
580.17	25996.33
580.33	26211.66
580.49	25923.77
580.65	26375.50
580.82	26164.85
580.98	25961.22
581.14	26054.84
581.30	26532.31
581.46	26197.62
581.62	26167.19
581.78	26300.60
581.94	26176.55
582.10	26015.05
582.26	26370.82
582.42	26324.01
582.58	26176.55
582.74	26356.77
582.90	26569.76
583.06	26366.13
583.22	26129.74
583.38	26235.06
583.54	26345.07
583.70	25802.07
583.86	26270.17
584.02	26403.58
584.18	26192.94
584.34	26380.18
584.50	26352.09
584.66	26190.59
584.82	26001.01
584.98	26469.12
585.14	26349.75
585.30	26263.15
585.46	26150.81
585.62	25940.16
585.78	26291.24
585.94	26272.51
586.10	26445.71
586.26	26415.29
586.42	26607.21
586.58	26752.32
586.74	26162.51
586.90	25956.54
587.06	26263.15
587.22	26529.97
587.38	26251.45
587.54	26338.05
587.70	26691.47
587.86	26593.17
588.02	26033.78
588.18	26546.36
588.34	26719.56
588.49	26616.57
588.65	26150.81
588.81	26302.94
588.97	26487.84
589.13	26347.41
589.29	26267.83
589.45	26450.39
589.61	26630.62
589.77	26656.36
589.93	26677.43
590.08	26761.69
590.24	26604.87
590.40	26698.49
590.56	26256.13
590.72	26682.11
