SpectraSuite Data File
++++++++++++++++++++++++++++++++++++
Date: Thu Oct 24 13:21:02 EDT 2013
User: stostad
Dark Spectrum Present: No
Reference Spectrum Present: No
Number of Sampled Component Spectra: 1
Spectrometers: USB2+H05261
Integration Time (usec): 100000 (USB2+H05261)
Spectra Averaged: 1 (USB2+H05261)
Boxcar Smoothing: 0 (USB2+H05261)
Correct for Electrical Dark: No (USB2+H05261)
Strobe/Lamp Enabled: No (USB2+H05261)
Correct for Detector Non-linearity: No (USB2+H05261)
Correct for Stray Light: No (USB2+H05261)
Number of Pixels in Processed Spectrum: 2048
>>>>>Begin Processed Spectral Data<<<<<
365.73	594.50
365.92	594.50
366.12	594.50
366.32	503.22
366.52	472.79
366.72	486.83
366.91	444.70
367.11	472.79
367.31	500.87
367.51	402.57
367.70	477.47
367.90	503.22
368.10	433.00
368.30	472.79
368.49	465.77
368.69	477.47
368.89	479.81
369.09	451.72
369.28	503.22
369.48	447.04
369.68	575.77
369.87	514.92
370.07	486.83
370.27	533.64
370.47	505.56
370.66	489.17
370.86	559.39
371.06	624.92
371.25	543.00
371.45	653.01
371.65	582.79
371.84	599.18
372.04	594.50
372.24	587.47
372.44	603.86
372.63	601.52
372.83	631.94
373.03	676.41
373.22	599.18
373.42	617.90
373.62	631.94
373.81	615.56
374.01	599.18
374.21	681.10
374.40	531.30
374.60	631.94
374.79	636.63
374.99	655.35
375.19	592.16
375.38	660.03
375.58	622.58
375.78	692.80
375.97	606.20
376.17	674.07
376.37	585.13
376.56	662.37
376.76	650.67
376.95	615.56
377.15	655.35
377.35	674.07
377.54	657.69
377.74	606.20
377.93	629.60
378.13	627.26
378.33	660.03
378.52	650.67
378.72	585.13
378.91	629.60
379.11	653.01
379.31	641.31
379.50	543.00
379.70	671.73
379.89	681.10
380.09	657.69
380.28	615.56
380.48	624.92
380.68	575.77
380.87	512.58
381.07	678.76
381.26	624.92
381.46	617.90
381.65	587.47
381.85	641.31
382.04	662.37
382.24	622.58
382.43	589.82
382.63	655.35
382.83	582.79
383.02	620.24
383.22	674.07
383.41	561.73
383.61	580.45
383.80	676.41
384.00	648.33
384.19	613.22
384.39	655.35
384.58	653.01
384.78	641.31
384.97	648.33
385.17	631.94
385.36	615.56
385.56	592.16
385.75	641.31
385.95	660.03
386.14	615.56
386.34	589.82
386.53	599.18
386.72	587.47
386.92	615.56
387.11	695.14
387.31	667.05
387.50	685.78
387.70	709.18
387.89	603.86
388.09	606.20
388.28	645.99
388.48	571.09
388.67	643.65
388.86	648.33
389.06	638.97
389.25	594.50
389.45	650.67
389.64	575.77
389.84	585.13
390.03	645.99
390.22	608.54
390.42	606.20
390.61	643.65
390.81	601.52
391.00	643.65
391.19	643.65
391.39	634.29
391.58	594.50
391.78	594.50
391.97	578.11
392.16	620.24
392.36	641.31
392.55	669.39
392.75	566.41
392.94	580.45
393.13	697.48
393.33	624.92
393.52	613.22
393.71	596.84
393.91	608.54
394.10	645.99
394.29	624.92
394.49	622.58
394.68	648.33
394.88	610.88
395.07	622.58
395.26	638.97
395.46	697.48
395.65	685.78
395.84	578.11
396.04	641.31
396.23	615.56
396.42	645.99
396.62	615.56
396.81	620.24
397.00	571.09
397.19	601.52
397.39	629.60
397.58	634.29
397.77	676.41
397.97	603.86
398.16	622.58
398.35	662.37
398.55	624.92
398.74	617.90
398.93	575.77
399.12	695.14
399.32	650.67
399.51	650.67
399.70	629.60
399.90	603.86
400.09	631.94
400.28	620.24
400.47	631.94
400.67	681.10
400.86	664.71
401.05	638.97
401.24	657.69
401.44	610.88
401.63	622.58
401.82	645.99
402.01	545.34
402.21	613.22
402.40	634.29
402.59	622.58
402.78	613.22
402.97	667.05
403.17	653.01
403.36	629.60
403.55	594.50
403.74	613.22
403.93	615.56
404.13	678.76
404.32	678.76
404.51	713.86
404.70	692.80
404.89	671.73
405.09	603.86
405.28	603.86
405.47	559.39
405.66	674.07
405.85	596.84
406.05	629.60
406.24	622.58
406.43	669.39
406.62	641.31
406.81	645.99
407.00	606.20
407.20	615.56
407.39	624.92
407.58	596.84
407.77	622.58
407.96	653.01
408.15	690.46
408.34	653.01
408.54	697.48
408.73	653.01
408.92	589.82
409.11	638.97
409.30	566.41
409.49	648.33
409.68	643.65
409.87	624.92
410.07	587.47
410.26	627.26
410.45	631.94
410.64	662.37
410.83	585.13
411.02	629.60
411.21	617.90
411.40	594.50
411.59	617.90
411.78	617.90
411.98	638.97
412.17	585.13
412.36	709.18
412.55	573.43
412.74	699.82
412.93	676.41
413.12	606.20
413.31	606.20
413.50	678.76
413.69	617.90
413.88	650.67
414.07	606.20
414.26	634.29
414.45	648.33
414.64	669.39
414.83	629.60
415.02	664.71
415.22	681.10
415.41	664.71
415.60	629.60
415.79	685.78
415.98	634.29
416.17	645.99
416.36	610.88
416.55	575.77
416.74	615.56
416.93	615.56
417.12	655.35
417.31	636.63
417.50	620.24
417.69	617.90
417.88	603.86
418.07	645.99
418.26	667.05
418.45	566.41
418.64	636.63
418.83	634.29
419.02	613.22
419.21	678.76
419.39	660.03
419.58	575.77
419.77	641.31
419.96	627.26
420.15	681.10
420.34	667.05
420.53	610.88
420.72	713.86
420.91	559.39
421.10	657.69
421.29	667.05
421.48	678.76
421.67	655.35
421.86	617.90
422.05	622.58
422.24	648.33
422.43	622.58
422.61	678.76
422.80	601.52
422.99	589.82
423.18	578.11
423.37	636.63
423.56	613.22
423.75	648.33
423.94	638.97
424.13	596.84
424.32	617.90
424.50	624.92
424.69	608.54
424.88	568.75
425.07	594.50
425.26	648.33
425.45	650.67
425.64	610.88
425.83	568.75
426.01	664.71
426.20	636.63
426.39	585.13
426.58	631.94
426.77	634.29
426.96	683.44
427.15	585.13
427.33	650.67
427.52	587.47
427.71	629.60
427.90	660.03
428.09	599.18
428.28	631.94
428.46	606.20
428.65	620.24
428.84	592.16
429.03	674.07
429.22	674.07
429.40	589.82
429.59	552.37
429.78	617.90
429.97	585.13
430.16	606.20
430.34	702.16
430.53	629.60
430.72	702.16
430.91	648.33
431.10	695.14
431.28	653.01
431.47	653.01
431.66	631.94
431.85	571.09
432.03	645.99
432.22	725.57
432.41	599.18
432.60	620.24
432.79	699.82
432.97	692.80
433.16	589.82
433.35	699.82
433.54	620.24
433.72	634.29
433.91	629.60
434.10	664.71
434.28	664.71
434.47	688.12
434.66	706.84
434.85	716.20
435.03	807.48
435.22	1015.79
435.41	1128.14
435.59	1067.28
435.78	990.05
435.97	847.27
436.16	765.36
436.34	620.24
436.53	650.67
436.72	697.48
436.90	711.52
437.09	713.86
437.28	648.33
437.46	617.90
437.65	587.47
437.84	643.65
438.02	585.13
438.21	617.90
438.40	627.26
438.58	589.82
438.77	678.76
438.96	709.18
439.14	650.67
439.33	660.03
439.52	631.94
439.70	688.12
439.89	676.41
440.08	608.54
440.26	657.69
440.45	711.52
440.63	634.29
440.82	634.29
441.01	674.07
441.19	601.52
441.38	667.05
441.57	685.78
441.75	664.71
441.94	692.80
442.12	697.48
442.31	664.71
442.50	582.79
442.68	678.76
442.87	622.58
443.05	678.76
443.24	615.56
443.43	671.73
443.61	671.73
443.80	631.94
443.98	660.03
444.17	601.52
444.35	664.71
444.54	706.84
444.73	704.50
444.91	688.12
445.10	620.24
445.28	615.56
445.47	709.18
445.65	629.60
445.84	608.54
446.02	709.18
446.21	624.92
446.39	592.16
446.58	685.78
446.77	655.35
446.95	603.86
447.14	690.46
447.32	617.90
447.51	622.58
447.69	571.09
447.88	671.73
448.06	678.76
448.25	599.18
448.43	580.45
448.62	564.07
448.80	636.63
448.99	678.76
449.17	688.12
449.36	657.69
449.54	683.44
449.73	620.24
449.91	641.31
450.10	660.03
450.28	720.88
450.46	655.35
450.65	725.57
450.83	624.92
451.02	755.99
451.20	648.33
451.39	617.90
451.57	669.39
451.76	592.16
451.94	641.31
452.13	711.52
452.31	669.39
452.49	634.29
452.68	608.54
452.86	575.77
453.05	690.46
453.23	634.29
453.42	603.86
453.60	608.54
453.78	599.18
453.97	589.82
454.15	580.45
454.34	617.90
454.52	636.63
454.70	695.14
454.89	648.33
455.07	631.94
455.26	730.25
455.44	589.82
455.62	622.58
455.81	636.63
455.99	662.37
456.17	653.01
456.36	669.39
456.54	620.24
456.73	681.10
456.91	638.97
457.09	636.63
457.28	690.46
457.46	606.20
457.64	678.76
457.83	655.35
458.01	528.96
458.19	601.52
458.38	587.47
458.56	624.92
458.74	627.26
458.93	599.18
459.11	662.37
459.29	685.78
459.48	636.63
459.66	629.60
459.84	688.12
460.03	718.54
460.21	615.56
460.39	636.63
460.57	683.44
460.76	594.50
460.94	648.33
461.12	624.92
461.31	613.22
461.49	629.60
461.67	608.54
461.85	660.03
462.04	634.29
462.22	894.08
462.40	645.99
462.59	720.88
462.77	641.31
462.95	610.88
463.13	674.07
463.32	660.03
463.50	655.35
463.68	681.10
463.86	674.07
464.05	638.97
464.23	720.88
464.41	702.16
464.59	615.56
464.78	641.31
464.96	622.58
465.14	664.71
465.32	634.29
465.50	653.01
465.69	643.65
465.87	634.29
466.05	589.82
466.23	580.45
466.41	571.09
466.60	608.54
466.78	603.86
466.96	664.71
467.14	638.97
467.32	655.35
467.51	669.39
467.69	674.07
467.87	636.63
468.05	631.94
468.23	683.44
468.41	683.44
468.60	669.39
468.78	671.73
468.96	674.07
469.14	727.91
469.32	638.97
469.50	650.67
469.69	681.10
469.87	592.16
470.05	664.71
470.23	582.79
470.41	575.77
470.59	671.73
470.77	615.56
470.95	636.63
471.14	603.86
471.32	655.35
471.50	711.52
471.68	606.20
471.86	697.48
472.04	645.99
472.22	601.52
472.40	638.97
472.58	671.73
472.77	589.82
472.95	608.54
473.13	669.39
473.31	669.39
473.49	671.73
473.67	657.69
473.85	667.05
474.03	606.20
474.21	589.82
474.39	702.16
474.57	634.29
474.75	653.01
474.93	629.60
475.12	608.54
475.30	664.71
475.48	664.71
475.66	664.71
475.84	699.82
476.02	636.63
476.20	645.99
476.38	594.50
476.56	702.16
476.74	657.69
476.92	615.56
477.10	634.29
477.28	709.18
477.46	606.20
477.64	734.93
477.82	641.31
478.00	669.39
478.18	641.31
478.36	606.20
478.54	702.16
478.72	648.33
478.90	660.03
479.08	641.31
479.26	683.44
479.44	589.82
479.62	596.84
479.80	615.56
479.98	690.46
480.16	617.90
480.34	664.71
480.52	699.82
480.70	622.58
480.88	617.90
481.06	648.33
481.24	681.10
481.41	650.67
481.59	692.80
481.77	676.41
481.95	669.39
482.13	718.54
482.31	653.01
482.49	650.67
482.67	599.18
482.85	681.10
483.03	664.71
483.21	648.33
483.39	629.60
483.57	645.99
483.74	702.16
483.92	676.41
484.10	664.71
484.28	685.78
484.46	767.70
484.64	648.33
484.82	631.94
485.00	587.47
485.18	657.69
485.35	704.50
485.53	664.71
485.71	720.88
485.89	739.61
486.07	699.82
486.25	774.72
486.43	697.48
486.61	737.27
486.78	723.23
486.96	704.50
487.14	655.35
487.32	727.91
487.50	688.12
487.68	678.76
487.85	767.70
488.03	755.99
488.21	720.88
488.39	718.54
488.57	650.67
488.75	704.50
488.92	781.74
489.10	653.01
489.28	737.27
489.46	744.29
489.64	676.41
489.81	690.46
489.99	674.07
490.17	671.73
490.35	772.38
490.53	690.46
490.70	713.86
490.88	657.69
491.06	692.80
491.24	650.67
491.41	631.94
491.59	706.84
491.77	620.24
491.95	699.82
492.13	697.48
492.30	786.42
492.48	713.86
492.66	711.52
492.84	674.07
493.01	660.03
493.19	657.69
493.37	718.54
493.54	720.88
493.72	636.63
493.90	748.97
494.08	720.88
494.25	697.48
494.43	667.05
494.61	723.23
494.79	713.86
494.96	683.44
495.14	690.46
495.32	688.12
495.49	664.71
495.67	746.63
495.85	674.07
496.02	645.99
496.20	692.80
496.38	671.73
496.55	699.82
496.73	669.39
496.91	699.82
497.09	711.52
497.26	716.20
497.44	683.44
497.62	683.44
497.79	704.50
497.97	692.80
498.14	681.10
498.32	674.07
498.50	681.10
498.67	720.88
498.85	706.84
499.03	601.52
499.20	629.60
499.38	643.65
499.56	606.20
499.73	641.31
499.91	643.65
500.08	664.71
500.26	683.44
500.44	648.33
500.61	587.47
500.79	648.33
500.97	702.16
501.14	695.14
501.32	601.52
501.49	681.10
501.67	648.33
501.84	587.47
502.02	610.88
502.20	631.94
502.37	645.99
502.55	674.07
502.72	669.39
502.90	660.03
503.07	676.41
503.25	657.69
503.43	608.54
503.60	552.37
503.78	636.63
503.95	692.80
504.13	622.58
504.30	678.76
504.48	711.52
504.65	713.86
504.83	650.67
505.01	671.73
505.18	669.39
505.36	678.76
505.53	608.54
505.71	603.86
505.88	674.07
506.06	643.65
506.23	608.54
506.41	624.92
506.58	690.46
506.76	692.80
506.93	634.29
507.11	636.63
507.28	631.94
507.46	627.26
507.63	676.41
507.81	699.82
507.98	664.71
508.16	688.12
508.33	631.94
508.50	615.56
508.68	648.33
508.85	674.07
509.03	634.29
509.20	706.84
509.38	662.37
509.55	660.03
509.73	667.05
509.90	716.20
510.08	653.01
510.25	676.41
510.42	657.69
510.60	627.26
510.77	706.84
510.95	622.58
511.12	629.60
511.30	671.73
511.47	664.71
511.64	678.76
511.82	559.39
511.99	617.90
512.17	704.50
512.34	645.99
512.51	667.05
512.69	592.16
512.86	627.26
513.04	648.33
513.21	671.73
513.38	641.31
513.56	580.45
513.73	631.94
513.90	629.60
514.08	638.97
514.25	564.07
514.43	606.20
514.60	671.73
514.77	599.18
514.95	587.47
515.12	629.60
515.29	648.33
515.47	683.44
515.64	660.03
515.81	681.10
515.99	636.63
516.16	603.86
516.33	662.37
516.51	615.56
516.68	662.37
516.85	638.97
517.03	674.07
517.20	681.10
517.37	655.35
517.54	643.65
517.72	636.63
517.89	624.92
518.06	620.24
518.24	713.86
518.41	730.25
518.58	671.73
518.75	613.22
518.93	587.47
519.10	683.44
519.27	606.20
519.45	638.97
519.62	669.39
519.79	657.69
519.96	706.84
520.14	641.31
520.31	671.73
520.48	683.44
520.65	613.22
520.83	613.22
521.00	669.39
521.17	657.69
521.34	685.78
521.52	620.24
521.69	674.07
521.86	622.58
522.03	706.84
522.20	671.73
522.38	664.71
522.55	678.76
522.72	643.65
522.89	638.97
523.07	716.20
523.24	669.39
523.41	667.05
523.58	688.12
523.75	622.58
523.92	638.97
524.10	653.01
524.27	634.29
524.44	627.26
524.61	706.84
524.78	650.67
524.96	622.58
525.13	613.22
525.30	699.82
525.47	669.39
525.64	645.99
525.81	741.95
525.98	725.57
526.16	653.01
526.33	627.26
526.50	629.60
526.67	629.60
526.84	615.56
527.01	627.26
527.18	643.65
527.36	606.20
527.53	615.56
527.70	667.05
527.87	552.37
528.04	704.50
528.21	622.58
528.38	667.05
528.55	648.33
528.72	667.05
528.89	629.60
529.07	653.01
529.24	641.31
529.41	599.18
529.58	678.76
529.75	599.18
529.92	660.03
530.09	653.01
530.26	657.69
530.43	608.54
530.60	622.58
530.77	671.73
530.94	615.56
531.11	629.60
531.28	589.82
531.46	634.29
531.63	727.91
531.80	683.44
531.97	660.03
532.14	636.63
532.31	664.71
532.48	664.71
532.65	746.63
532.82	690.46
532.99	697.48
533.16	645.99
533.33	709.18
533.50	664.71
533.67	653.01
533.84	702.16
534.01	629.60
534.18	667.05
534.35	676.41
534.52	622.58
534.69	702.16
534.86	620.24
535.03	678.76
535.20	631.94
535.37	627.26
535.54	739.61
535.71	683.44
535.88	692.80
536.05	746.63
536.22	634.29
536.38	641.31
536.55	667.05
536.72	678.76
536.89	746.63
537.06	681.10
537.23	730.25
537.40	704.50
537.57	748.97
537.74	720.88
537.91	737.27
538.08	844.93
538.25	816.85
538.42	718.54
538.59	737.27
538.75	777.06
538.92	791.10
539.09	809.83
539.26	723.23
539.43	800.46
539.60	837.91
539.77	833.23
539.94	917.49
540.11	898.77
540.28	882.38
540.44	889.40
540.61	964.30
540.78	1041.54
540.95	978.34
541.12	1149.20
541.29	1212.40
541.46	1163.25
541.62	1210.06
541.79	1165.59
541.96	1167.93
542.13	1235.80
542.30	1210.06
542.47	1268.57
542.63	1132.82
542.80	1231.12
542.97	1163.25
543.14	1146.86
543.31	1280.27
543.48	1198.35
543.64	1144.52
543.81	1181.97
543.98	1252.19
544.15	1146.86
544.32	1135.16
544.48	1167.93
544.65	1135.16
544.82	1090.69
544.99	1086.01
545.16	1259.21
545.32	1254.53
545.49	1451.13
545.66	1966.05
545.83	2087.76
546.00	1816.26
546.16	1596.25
546.33	1479.22
546.50	1320.06
546.67	1177.29
546.83	1116.44
547.00	1004.09
547.17	912.81
547.34	896.43
547.50	908.13
547.67	896.43
547.84	901.11
548.00	905.79
548.17	784.08
548.34	926.85
548.51	992.39
548.67	915.15
548.84	870.68
549.01	877.70
549.18	840.25
549.34	903.45
549.51	866.00
549.68	802.80
549.84	849.61
550.01	903.45
550.18	830.89
550.34	894.08
550.51	849.61
550.68	800.46
550.84	816.85
551.01	819.19
551.18	826.21
551.34	709.18
551.51	772.38
551.68	788.76
551.84	741.95
552.01	772.38
552.18	716.20
552.34	777.06
552.51	755.99
552.68	774.72
552.84	671.73
553.01	704.50
553.18	753.65
553.34	741.95
553.51	784.08
553.67	739.61
553.84	784.08
554.01	739.61
554.17	730.25
554.34	692.80
554.51	702.16
554.67	716.20
554.84	725.57
555.00	751.31
555.17	697.48
555.33	725.57
555.50	732.59
555.67	723.23
555.83	704.50
556.00	676.41
556.16	748.97
556.33	716.20
556.50	692.80
556.66	645.99
556.83	655.35
556.99	671.73
557.16	641.31
557.32	711.52
557.49	667.05
557.65	636.63
557.82	648.33
557.98	608.54
558.15	660.03
558.32	662.37
558.48	622.58
558.65	671.73
558.81	692.80
558.98	617.90
559.14	660.03
559.31	678.76
559.47	650.67
559.64	690.46
559.80	645.99
559.97	624.92
560.13	723.23
560.30	620.24
560.46	671.73
560.63	713.86
560.79	688.12
560.96	662.37
561.12	645.99
561.29	617.90
561.45	730.25
561.61	657.69
561.78	760.67
561.94	674.07
562.11	655.35
562.27	699.82
562.44	624.92
562.60	641.31
562.77	681.10
562.93	732.59
563.10	681.10
563.26	610.88
563.42	709.18
563.59	706.84
563.75	641.31
563.92	580.45
564.08	645.99
564.24	730.25
564.41	709.18
564.57	648.33
564.74	610.88
564.90	648.33
565.07	678.76
565.23	657.69
565.39	655.35
565.56	711.52
565.72	688.12
565.88	629.60
566.05	688.12
566.21	641.31
566.38	681.10
566.54	634.29
566.70	638.97
566.87	615.56
567.03	664.71
567.19	685.78
567.36	678.76
567.52	641.31
567.68	645.99
567.85	676.41
568.01	695.14
568.17	615.56
568.34	641.31
568.50	669.39
568.66	634.29
568.83	697.48
568.99	692.80
569.15	592.16
569.32	676.41
569.48	650.67
569.64	676.41
569.81	676.41
569.97	624.92
570.13	725.57
570.30	596.84
570.46	660.03
570.62	631.94
570.78	592.16
570.95	657.69
571.11	643.65
571.27	716.20
571.43	575.77
571.60	695.14
571.76	643.65
571.92	648.33
572.09	645.99
572.25	718.54
572.41	657.69
572.57	676.41
572.74	603.86
572.90	643.65
573.06	629.60
573.22	709.18
573.38	648.33
573.55	648.33
573.71	631.94
573.87	638.97
574.03	575.77
574.20	594.50
574.36	650.67
574.52	653.01
574.68	685.78
574.84	645.99
575.01	702.16
575.17	711.52
575.33	667.05
575.49	629.60
575.65	664.71
575.82	629.60
575.98	671.73
576.14	634.29
576.30	653.01
576.46	795.78
576.62	856.64
576.79	877.70
576.95	826.21
577.11	816.85
577.27	826.21
577.43	772.38
577.59	779.40
577.75	631.94
577.92	688.12
578.08	760.67
578.24	692.80
578.40	713.86
578.56	788.76
578.72	868.34
578.88	908.13
579.04	779.40
579.21	828.55
579.37	765.36
579.53	739.61
579.69	741.95
579.85	781.74
580.01	826.21
580.17	826.21
580.33	788.76
580.49	748.97
580.65	763.01
580.82	711.52
580.98	739.61
581.14	753.65
581.30	697.48
581.46	709.18
581.62	739.61
581.78	758.33
581.94	690.46
582.10	688.12
582.26	830.89
582.42	802.80
582.58	821.53
582.74	755.99
582.90	751.31
583.06	767.70
583.22	718.54
583.38	786.42
583.54	753.65
583.70	760.67
583.86	807.48
584.02	690.46
584.18	727.91
584.34	763.01
584.50	727.91
584.66	798.12
584.82	866.00
584.98	781.74
585.14	758.33
585.30	755.99
585.46	828.55
585.62	753.65
585.78	779.40
585.94	763.01
586.10	695.14
586.26	760.67
586.42	767.70
586.58	805.14
586.74	774.72
586.90	884.72
587.06	929.19
587.22	938.55
587.38	894.08
587.54	788.76
587.70	812.17
587.86	821.53
588.02	770.04
588.18	781.74
588.34	837.91
588.49	727.91
588.65	765.36
588.81	814.51
588.97	683.44
589.13	746.63
589.29	688.12
589.45	706.84
589.61	706.84
589.77	699.82
589.93	725.57
590.08	669.39
590.24	755.99
590.40	753.65
590.56	748.97
590.72	720.88
590.88	676.41
591.04	751.31
591.20	744.29
591.35	774.72
591.51	793.44
591.67	751.31
591.83	692.80
591.99	835.57
592.15	746.63
592.31	767.70
592.46	725.57
592.62	793.44
592.78	786.42
592.94	809.83
593.10	802.80
593.26	763.01
593.41	821.53
593.57	727.91
593.73	779.40
593.89	760.67
594.05	692.80
594.20	725.57
594.36	674.07
594.52	695.14
594.68	699.82
594.84	741.95
594.99	716.20
595.15	650.67
595.31	674.07
595.47	667.05
595.62	704.50
595.78	676.41
595.94	690.46
596.10	683.44
596.25	730.25
596.41	648.33
596.57	678.76
596.73	667.05
596.88	690.46
597.04	674.07
597.20	720.88
597.36	657.69
597.51	716.20
597.67	695.14
597.83	727.91
597.99	662.37
598.14	674.07
598.30	704.50
598.46	688.12
598.61	781.74
598.77	732.59
598.93	706.84
599.09	699.82
599.24	732.59
599.40	758.33
599.56	837.91
599.71	788.76
599.87	727.91
600.03	800.46
600.18	678.76
600.34	732.59
600.50	746.63
600.65	667.05
600.81	678.76
600.97	667.05
601.12	709.18
601.28	725.57
601.44	678.76
601.59	664.71
601.75	697.48
601.91	727.91
602.06	631.94
602.22	718.54
602.37	662.37
602.53	683.44
602.69	772.38
602.84	648.33
603.00	624.92
603.16	664.71
603.31	739.61
603.47	657.69
603.62	617.90
603.78	678.76
603.94	676.41
604.09	655.35
604.25	648.33
604.40	631.94
604.56	671.73
604.71	727.91
604.87	678.76
605.03	638.97
605.18	716.20
605.34	702.16
605.49	690.46
605.65	702.16
605.80	692.80
605.96	720.88
606.12	751.31
606.27	669.39
606.43	655.35
606.58	746.63
606.74	690.46
606.89	699.82
607.05	798.12
607.20	732.59
607.36	706.84
607.51	744.29
607.67	751.31
607.82	767.70
607.98	777.06
608.13	772.38
608.29	674.07
608.44	774.72
608.60	763.01
608.75	755.99
608.91	786.42
609.06	844.93
609.22	854.30
609.37	840.25
609.53	844.93
609.68	952.60
609.84	908.13
