SpectraSuite Data File
++++++++++++++++++++++++++++++++++++
Date: Thu Oct 24 13:21:09 EDT 2013
User: stostad
Dark Spectrum Present: No
Reference Spectrum Present: No
Number of Sampled Component Spectra: 1
Spectrometers: USB2+H05261
Integration Time (usec): 100000 (USB2+H05261)
Spectra Averaged: 1 (USB2+H05261)
Boxcar Smoothing: 0 (USB2+H05261)
Correct for Electrical Dark: No (USB2+H05261)
Strobe/Lamp Enabled: No (USB2+H05261)
Correct for Detector Non-linearity: No (USB2+H05261)
Correct for Stray Light: No (USB2+H05261)
Number of Pixels in Processed Spectrum: 2048
>>>>>Begin Processed Spectral Data<<<<<
365.73	596.84
365.92	596.84
366.12	596.84
366.32	543.00
366.52	444.70
366.72	514.92
366.91	479.81
367.11	454.06
367.31	475.13
367.51	435.34
367.70	498.53
367.90	461.09
368.10	465.77
368.30	512.58
368.49	435.34
368.69	479.81
368.89	519.60
369.09	458.74
369.28	456.40
369.48	479.81
369.68	449.38
369.87	461.09
370.07	496.19
370.27	589.82
370.47	589.82
370.66	669.39
370.86	702.16
371.06	821.53
371.25	812.17
371.45	660.03
371.65	699.82
371.84	692.80
372.04	777.06
372.24	690.46
372.44	763.01
372.63	786.42
372.83	795.78
373.03	739.61
373.22	795.78
373.42	842.59
373.62	748.97
373.81	812.17
374.01	795.78
374.21	875.36
374.40	823.87
374.60	835.57
374.79	837.91
374.99	753.65
375.19	842.59
375.38	940.90
375.58	828.55
375.78	788.76
375.97	861.32
376.17	919.83
376.37	854.30
376.56	851.96
376.76	809.83
376.95	781.74
377.15	908.13
377.35	919.83
377.54	826.21
377.74	819.19
377.93	823.87
378.13	744.29
378.33	758.33
378.52	971.32
378.72	868.34
378.91	772.38
379.11	767.70
379.31	821.53
379.50	795.78
379.70	819.19
379.89	858.98
380.09	856.64
380.28	833.23
380.48	851.96
380.68	812.17
380.87	830.89
381.07	830.89
381.26	896.43
381.46	882.38
381.65	849.61
381.85	849.61
382.04	863.66
382.24	847.27
382.43	856.64
382.63	868.34
382.83	816.85
383.02	940.90
383.22	887.06
383.41	915.15
383.61	891.74
383.80	887.06
384.00	866.00
384.19	947.92
384.39	863.66
384.58	896.43
384.78	947.92
384.97	922.17
385.17	987.71
385.36	929.19
385.56	950.26
385.75	1034.52
385.95	1006.43
386.14	985.37
386.34	901.11
386.53	971.32
386.72	954.94
386.92	980.68
387.11	1025.15
387.31	910.47
387.50	910.47
387.70	938.55
387.89	919.83
388.09	943.24
388.28	1041.54
388.48	894.08
388.67	990.05
388.86	999.41
389.06	985.37
389.25	1004.09
389.45	983.02
389.64	926.85
389.84	1029.84
390.03	1020.47
390.22	912.81
390.42	968.98
390.61	983.02
390.81	1039.20
391.00	1043.88
391.19	1025.15
391.39	1011.11
391.58	1053.24
391.78	1039.20
391.97	1020.47
392.16	978.34
392.36	1067.28
392.55	1053.24
392.75	1041.54
392.94	1064.94
393.13	1018.13
393.33	1067.28
393.52	1067.28
393.71	1029.84
393.91	1057.92
394.10	1069.62
394.29	1149.20
394.49	1057.92
394.68	1074.31
394.88	1100.05
395.07	1118.78
395.26	1111.75
395.46	1090.69
395.65	1025.15
395.84	1128.14
396.04	1144.52
396.23	1167.93
396.42	1149.20
396.62	1186.65
396.81	1174.95
397.00	1160.91
397.19	1128.14
397.39	1219.42
397.58	1207.72
397.77	1174.95
397.97	1174.95
398.16	1156.22
398.35	1205.38
398.55	1275.59
398.74	1123.46
398.93	1252.19
399.12	1254.53
399.32	1181.97
399.51	1163.25
399.70	1233.46
399.90	1289.64
400.09	1224.10
400.28	1334.11
400.47	1273.25
400.67	1193.67
400.86	1259.21
401.05	1303.68
401.24	1280.27
401.44	1308.36
401.63	1336.45
401.82	1378.58
402.01	1308.36
402.21	1362.19
402.40	1306.02
402.59	1352.83
402.78	1301.34
402.97	1303.68
403.17	1334.11
403.36	1397.30
403.55	1373.89
403.74	1390.28
403.93	1425.39
404.13	1458.15
404.32	1462.83
404.51	1383.26
404.70	1366.87
404.89	1418.36
405.09	1439.43
405.28	1413.68
405.47	1359.85
405.66	1474.54
405.85	1418.36
406.05	1451.13
406.24	1488.58
406.43	1411.34
406.62	1467.52
406.81	1483.90
407.00	1401.98
407.20	1394.96
407.39	1614.97
407.58	1561.14
407.77	1495.60
407.96	1549.43
408.15	1516.67
408.34	1572.84
408.54	1586.88
408.73	1582.20
408.92	1568.16
409.11	1521.35
409.30	1647.74
409.49	1612.63
409.68	1603.27
409.87	1511.99
410.07	1675.82
410.26	1582.20
410.45	1650.08
410.64	1643.06
410.83	1633.69
411.02	1654.76
411.21	1689.87
411.40	1741.36
411.59	1708.59
411.78	1682.85
411.98	1732.00
412.17	1755.40
412.36	1813.92
412.55	1771.79
412.74	1823.28
412.93	1762.42
413.12	1795.19
413.31	1923.92
413.50	1844.34
413.69	1809.23
413.88	1947.33
414.07	1813.92
414.26	1823.28
414.45	1895.83
414.64	1959.03
414.83	1954.35
415.02	1980.09
415.22	1914.56
415.41	1914.56
415.60	1877.11
415.79	1949.67
415.98	2033.93
416.17	1956.69
416.36	1966.05
416.55	2113.50
416.74	1977.75
416.93	2078.40
417.12	2157.97
417.31	2083.08
417.50	2134.57
417.69	2195.42
417.88	2169.68
418.07	2157.97
418.26	2132.23
418.45	2153.29
418.64	2204.78
418.83	2202.44
419.02	2122.87
419.21	2062.01
419.39	2183.72
419.58	2207.13
419.77	2172.02
419.96	2303.09
420.15	2216.49
420.34	2333.51
420.53	2244.57
420.72	2375.64
420.91	2317.13
421.10	2291.38
421.29	2300.75
421.48	2298.41
421.67	2225.85
421.86	2326.49
422.05	2307.77
422.24	2321.81
422.43	2366.28
422.61	2445.86
422.80	2338.20
422.99	2359.26
423.18	2338.20
423.37	2377.98
423.56	2413.09
423.75	2373.30
423.94	2338.20
424.13	2317.13
424.32	2190.74
424.50	2420.11
424.69	2466.92
424.88	2342.88
425.07	2356.92
425.26	2373.30
425.45	2335.85
425.64	2497.35
425.83	2466.92
426.01	2457.56
426.20	2373.30
426.39	2485.65
426.58	2389.69
426.77	2406.07
426.96	2448.20
427.15	2373.30
427.33	2487.99
427.52	2455.22
427.71	2504.37
427.90	2511.39
428.09	2553.52
428.28	2621.40
428.46	2487.99
428.65	2443.52
428.84	2579.27
429.03	2581.61
429.22	2487.99
429.40	2476.29
429.59	2541.82
429.78	2574.59
429.97	2480.97
430.16	2539.48
430.34	2621.40
430.53	2693.96
430.72	2616.72
430.91	2649.49
431.10	2661.19
431.28	2651.83
431.47	2640.12
431.66	2658.85
431.85	2700.98
432.03	2766.51
432.22	2876.52
432.41	2743.11
432.60	2705.66
432.79	2740.77
432.97	2712.68
433.16	2768.85
433.35	2778.22
433.54	2773.53
433.72	2787.58
433.91	2918.65
434.10	2942.05
434.28	2775.88
434.47	2740.77
434.66	2883.54
434.85	2953.76
435.03	2981.84
435.22	3236.96
435.41	3370.37
435.59	3185.47
435.78	3185.47
435.97	3152.70
436.16	3117.59
436.34	3045.04
436.53	2991.20
436.72	3084.83
436.90	2942.05
437.09	3052.06
437.28	3028.65
437.46	2993.55
437.65	2904.60
437.84	3124.62
438.02	3021.63
438.21	3063.76
438.40	3000.57
438.58	3122.27
438.77	3218.24
438.96	3080.14
439.14	3110.57
439.33	3136.32
439.52	3260.37
439.70	3276.75
439.89	3386.76
440.08	3337.60
440.26	3332.92
440.45	3211.22
440.63	3375.05
440.82	3412.50
441.01	3290.79
441.19	3419.52
441.38	3433.57
441.57	3400.80
441.75	3356.33
441.94	3534.21
442.12	3414.84
442.31	3543.57
442.50	3597.40
442.68	3344.63
442.87	3468.67
443.05	3506.12
443.24	3557.61
443.43	3559.95
443.61	3566.98
443.80	3489.74
443.98	3557.61
444.17	3496.76
444.35	3566.98
444.54	3581.02
444.73	3473.36
444.91	3616.13
445.10	3648.90
445.28	3581.02
445.47	3566.98
445.65	3627.83
445.84	3674.64
446.02	3592.72
446.21	3716.77
446.39	3721.45
446.58	3686.34
446.77	3602.08
446.95	3620.81
447.14	3576.34
447.32	3754.22
447.51	3693.37
447.69	3620.81
447.88	3688.68
448.06	3765.92
448.25	3653.58
448.43	3646.55
448.62	3735.50
448.80	3779.97
448.99	3744.86
449.17	3716.77
449.36	3665.28
449.54	3810.39
449.73	3889.97
449.91	3899.33
450.10	3962.53
450.28	3885.29
450.46	3950.82
450.65	3861.88
450.83	3868.91
451.02	3892.31
451.20	3838.48
451.39	3925.08
451.57	3805.71
451.76	3953.16
451.94	3838.48
452.13	3985.93
452.31	3929.76
452.49	4102.96
452.68	3833.80
452.86	4032.74
453.05	4030.40
453.23	4100.62
453.42	3971.89
453.60	3918.06
453.78	4173.18
453.97	3936.78
454.15	4030.40
454.34	4039.76
454.52	4119.34
454.70	4159.13
454.89	4109.98
455.07	4187.22
455.26	4154.45
455.44	4152.11
455.62	4149.77
455.81	4060.83
455.99	4229.35
456.17	4245.73
456.36	4227.01
456.54	4241.05
456.73	4386.16
456.91	4444.68
457.09	4346.37
457.28	4348.72
457.46	4351.06
457.64	4437.66
457.83	4414.25
458.01	4369.78
458.19	4432.97
458.38	4376.80
458.56	4428.29
458.74	4395.53
458.93	4428.29
459.11	4542.98
459.29	4463.40
459.48	4564.04
459.66	4526.60
459.84	4552.34
460.03	4643.62
460.21	4573.41
460.39	4622.56
460.57	4519.57
460.76	4692.77
460.94	4704.48
461.12	4571.07
461.31	4669.37
461.49	4552.34
461.67	4648.30
461.85	4784.06
462.04	4667.03
462.22	5029.81
462.40	4929.17
462.59	4727.88
462.77	4655.33
462.95	4849.59
463.13	4781.71
463.32	4746.61
463.50	4795.76
463.68	4990.02
463.86	4751.29
464.05	4873.00
464.23	4779.37
464.41	4887.04
464.59	4922.15
464.78	4952.57
464.96	4940.87
465.14	4877.68
465.32	5074.28
465.50	4990.02
465.69	4919.81
465.87	4849.59
466.05	4894.06
466.23	4975.98
466.41	5064.92
466.60	5193.65
466.78	5062.58
466.96	5083.64
467.14	5004.07
467.32	4865.97
467.51	5093.01
467.69	4926.83
467.87	4952.57
468.05	5233.44
468.23	5093.01
468.41	5036.83
468.60	5118.75
468.78	5289.61
468.96	4968.96
469.14	5231.10
469.32	5203.01
469.50	5191.31
469.69	5205.35
469.87	5416.00
470.05	5193.65
470.23	5205.35
470.41	5357.49
470.59	5369.19
470.77	5249.82
470.95	5334.08
471.14	5472.17
471.32	5364.51
471.50	5462.81
471.68	5502.60
471.86	5444.09
472.04	5495.58
472.22	5589.20
472.40	5486.22
472.58	5425.36
472.77	5624.31
472.95	5612.60
473.13	5809.21
473.31	5621.97
473.49	5804.53
473.67	5582.18
473.85	5703.89
474.03	5788.14
474.21	5696.86
474.39	5949.64
474.57	5830.27
474.75	5919.21
474.93	5966.03
475.12	5858.36
475.30	5905.17
475.48	5968.37
475.66	6019.86
475.84	5919.21
476.02	6045.60
476.20	5970.71
476.38	6207.10
476.56	6399.02
476.74	6277.32
476.92	6368.60
477.10	6455.20
477.28	6221.14
477.46	6401.37
477.64	6462.22
477.82	6576.91
478.00	6642.44
478.18	6600.31
478.36	6604.99
478.54	6717.34
478.72	6729.04
478.90	6857.77
479.08	6796.92
479.26	6930.33
479.44	6918.62
479.62	6853.09
479.80	7084.80
479.98	7056.72
480.16	7049.69
480.34	7162.04
480.52	7337.58
480.70	7255.66
480.88	7274.38
481.06	7293.11
481.24	7248.64
481.41	7398.43
481.59	7445.24
481.77	7581.00
481.95	7618.44
482.13	7573.97
482.31	7520.14
482.49	7826.75
482.67	7901.65
482.85	7960.16
483.03	7901.65
483.21	7878.24
483.39	7892.29
483.57	8021.02
483.74	8065.49
483.92	8049.10
484.10	8030.38
484.28	8500.83
484.46	8334.65
484.64	8575.72
484.82	8423.59
485.00	8568.70
485.18	8594.45
485.35	8697.43
485.53	8819.14
485.71	8802.75
485.89	9100.00
486.07	8943.19
486.25	8924.46
486.43	9008.72
486.61	8894.04
486.78	9085.96
486.96	9371.50
487.14	9291.93
487.32	9270.86
487.50	9282.56
487.68	9507.26
487.85	9586.83
488.03	9617.26
488.21	9696.84
488.39	9991.75
488.57	9802.16
488.75	9851.31
488.92	9963.66
489.10	9968.34
489.28	10052.60
489.46	10150.90
489.64	10251.55
489.81	10427.09
489.99	10296.02
490.17	10455.17
490.35	10609.65
490.53	10459.85
490.70	10721.99
490.88	10693.91
491.06	10705.61
491.24	10839.02
491.41	10626.03
491.59	11021.58
491.77	11154.99
491.95	11082.44
492.13	11007.54
492.30	11225.21
492.48	11157.33
492.66	11248.61
492.84	11124.57
493.01	11325.85
493.19	11433.52
493.37	11531.82
493.54	11316.49
493.72	11651.19
493.90	11833.75
494.08	11740.13
494.25	11693.32
494.43	11990.56
494.61	11775.24
494.79	12093.55
494.96	11971.84
495.14	12219.94
495.32	12304.20
495.49	12311.22
495.67	12283.13
495.85	12439.95
496.02	12732.51
496.20	12411.86
496.38	12727.83
496.55	12528.89
496.73	12896.35
496.91	12489.10
497.09	12898.69
497.26	12664.64
497.44	12828.48
497.62	12996.99
497.79	13296.58
497.97	13102.32
498.14	13282.54
498.32	13252.11
498.50	13209.98
498.67	13282.54
498.85	13078.91
499.03	13191.26
499.20	13497.87
499.38	13500.21
499.56	13635.96
499.73	13783.41
499.91	13870.01
500.08	13717.88
500.26	13600.85
500.44	13762.35
500.61	13958.96
500.79	13596.17
500.97	14075.98
501.14	14127.47
501.32	14092.37
501.49	13928.53
501.67	13839.59
501.84	14178.97
502.02	14108.75
502.20	14618.99
502.37	14459.83
502.55	14139.18
502.72	14244.50
502.90	14389.61
503.07	14216.41
503.25	14712.61
503.43	14485.58
503.60	14911.55
503.78	14829.63
503.95	14611.96
504.13	14520.68
504.30	15056.67
504.48	14736.01
504.65	14902.19
504.83	15049.64
505.01	15005.17
505.18	15154.97
505.36	15112.84
505.53	15056.67
505.71	15030.92
505.88	15234.55
506.06	14984.11
506.23	15248.59
506.41	15447.54
506.58	15351.57
506.76	15384.34
506.93	15461.58
507.11	15286.04
507.28	15475.62
507.46	15412.43
507.63	15641.80
507.81	15765.85
507.98	15452.22
508.16	15749.46
508.33	15700.31
508.50	15857.13
508.68	15913.30
508.85	16196.51
509.03	15744.78
509.20	16042.03
509.38	16425.88
509.55	16224.59
509.73	16095.86
509.90	16327.58
510.08	16552.27
510.25	16189.49
510.42	16343.96
510.60	16563.97
510.77	16453.97
510.95	16416.52
511.12	16666.95
511.30	16519.50
511.47	16575.67
511.64	16823.77
511.82	16844.84
511.99	16795.68
512.17	16753.55
512.34	16973.56
512.51	17043.78
512.69	16908.03
512.86	16933.78
513.04	17193.58
513.21	17109.32
513.38	16802.71
513.56	17247.41
513.73	17135.06
513.90	17547.00
514.08	17188.89
514.25	17701.47
514.43	17310.60
514.60	17156.13
514.77	17518.91
514.95	17497.84
515.12	17579.76
515.29	17542.32
515.47	17675.73
515.64	17455.72
515.81	17614.87
515.99	17785.73
516.16	17830.20
516.33	18003.40
516.51	18134.47
516.68	18136.81
516.85	17713.17
517.03	17827.86
517.20	18167.24
517.37	18054.89
517.54	18139.15
517.72	18221.07
517.89	17970.63
518.06	18185.96
518.24	18118.09
518.41	18108.72
518.58	18391.93
518.75	18221.07
518.93	18333.42
519.10	18125.11
519.27	18565.13
519.45	18270.22
519.62	18640.03
519.79	18326.39
519.96	18637.69
520.14	18487.89
520.31	18530.02
520.48	18635.35
520.65	18373.21
520.83	18696.20
521.00	18834.29
521.17	18909.19
521.34	18911.53
521.52	18731.31
521.69	18864.72
521.86	18902.17
522.03	18977.06
522.20	19101.11
522.38	19414.74
522.55	19199.41
522.72	18920.89
522.89	19073.03
523.07	19206.44
523.24	19290.70
523.41	19346.87
523.58	19314.10
523.75	19288.35
523.92	19342.19
524.10	19552.84
524.27	19335.17
524.44	19845.40
524.61	19693.27
524.78	19534.11
524.96	19360.91
525.13	19686.25
525.30	19910.94
525.47	19953.07
525.64	19695.61
525.81	19779.87
525.98	19662.84
526.16	19953.07
526.33	19967.11
526.50	20044.35
526.67	19733.06
526.84	19702.63
527.01	20163.72
527.18	19889.87
527.36	19920.30
527.53	20222.23
527.70	20123.93
527.87	20159.03
528.04	20388.41
528.21	20414.15
528.38	20397.77
528.55	20374.36
528.72	20198.82
528.89	20301.81
529.07	20140.31
529.24	20107.54
529.41	20257.34
529.58	20528.84
529.75	20545.22
529.92	20615.44
530.09	20449.26
530.26	20388.41
530.43	20334.57
530.60	20339.26
530.77	20622.46
530.94	20905.66
531.11	20893.96
531.28	20854.17
531.46	20666.93
531.63	20893.96
531.80	20886.94
531.97	20854.17
532.14	20989.92
532.31	21027.37
532.48	21123.33
532.65	21247.38
532.82	21046.10
532.99	20807.36
533.16	21135.04
533.33	20666.93
533.50	21256.75
533.67	21109.29
533.84	20915.03
534.01	21128.02
534.18	21301.22
534.35	21460.37
534.52	21420.58
534.69	21167.80
534.86	21071.84
535.03	21151.42
535.20	21249.72
535.37	21277.81
535.54	21415.90
535.71	21741.24
535.88	21305.90
536.05	21614.85
536.22	21535.27
536.38	21460.37
536.55	21799.75
536.72	21530.59
536.89	21832.52
537.06	21659.32
537.23	21781.03
537.40	21853.58
537.57	21951.88
537.74	21830.18
537.91	22125.08
538.08	21951.88
538.25	21930.82
538.42	21909.75
538.59	22143.81
538.75	22094.66
538.92	22127.42
539.09	22340.41
539.26	22387.22
539.43	21933.16
539.60	22003.38
539.77	22043.17
539.94	22586.17
540.11	22366.16
540.28	22513.61
540.44	22586.17
540.61	22417.65
540.78	22277.22
540.95	22625.96
541.12	22740.64
541.29	23101.09
541.46	22944.27
541.62	22867.03
541.79	23030.87
541.96	22628.30
542.13	22771.07
542.30	23021.51
542.47	22906.82
542.63	22773.41
542.80	23243.86
542.97	23337.48
543.14	23679.20
543.31	23285.99
543.48	23063.64
543.64	23723.67
543.81	23290.67
543.98	23594.94
544.15	23358.55
544.32	23342.16
544.48	23473.23
544.65	23330.46
544.82	23314.08
544.99	23353.87
545.16	23545.79
545.32	23681.54
545.49	23901.55
545.66	24369.66
545.83	24414.13
546.00	24390.72
546.16	24254.97
546.33	24126.24
546.50	23501.32
546.67	23527.06
546.83	23293.01
547.00	23351.52
547.17	23110.45
547.34	23454.51
547.50	23494.30
547.67	23821.97
547.84	23754.10
548.00	24231.57
548.17	23814.95
548.34	23391.31
548.51	23414.72
548.67	23981.13
548.84	23531.75
549.01	23779.84
549.18	23693.24
549.34	23864.10
549.51	23941.34
549.68	23604.30
549.84	23960.06
550.01	23489.62
550.18	23571.54
550.34	23358.55
550.51	23817.29
550.68	23665.16
550.84	23353.87
551.01	23789.20
551.18	23812.61
551.34	23782.18
551.51	23978.79
551.68	23723.67
551.84	23775.16
552.01	23976.45
552.18	23896.87
552.34	23978.79
552.51	24140.29
552.68	24034.96
552.84	23962.40
553.01	24105.18
553.18	23611.32
553.34	23751.76
553.51	23957.72
553.67	24212.84
553.84	24414.13
554.01	24372.00
554.17	23791.55
554.34	24112.20
554.51	24290.08
554.67	24306.46
554.84	24180.07
555.00	24182.42
555.17	23939.00
555.33	24414.13
555.50	24460.94
555.67	24205.82
555.83	24428.17
556.00	24306.46
556.16	24737.12
556.33	24456.26
556.50	24070.07
556.66	24594.35
556.83	24376.68
556.99	24297.10
557.16	24318.17
557.32	24709.04
557.49	24381.36
557.65	24332.21
557.82	24294.76
557.98	24182.42
558.15	24545.20
558.32	24453.92
558.48	24500.73
558.65	24493.71
558.81	24833.08
558.98	24912.66
559.14	24580.31
559.31	24510.09
559.47	24790.95
559.64	24629.46
559.80	24877.55
559.97	24554.56
560.13	24386.04
560.30	24402.43
560.46	24692.65
560.63	24805.00
560.79	24659.88
560.96	24482.00
561.12	25008.62
561.29	24854.15
561.45	24603.71
561.61	24432.85
561.78	24692.65
561.94	25006.28
562.11	24835.42
562.27	24952.45
562.44	24723.08
562.60	25088.20
562.77	24947.77
562.93	24973.52
563.10	25172.46
563.26	25003.94
563.42	25123.31
563.59	24882.24
563.75	24737.12
563.92	24835.42
564.08	25223.95
564.24	24931.39
564.41	24936.07
564.57	24947.77
564.74	25284.81
564.90	25282.47
565.07	25308.21
565.23	25071.82
565.39	24996.92
565.56	25172.46
565.72	24805.00
565.88	25242.68
566.05	24819.04
566.21	24898.62
566.38	24992.24
566.54	24762.87
566.70	25170.12
566.87	25305.87
567.03	25209.91
567.19	25221.61
567.36	25172.46
567.52	25022.67
567.68	24989.90
567.85	25249.70
568.01	25322.26
568.17	25296.51
568.34	24922.02
568.50	25287.15
568.66	25315.23
568.83	25350.34
568.99	25118.63
569.15	24833.08
569.32	25050.75
569.48	25322.26
569.64	25198.21
569.81	24816.70
569.97	25151.40
570.13	25333.96
570.30	24868.19
570.46	25626.53
570.62	25130.33
570.78	25184.16
570.95	25429.92
571.11	25495.46
571.27	25163.10
571.43	25287.15
571.60	25195.87
571.76	25179.48
571.92	25270.76
572.09	25256.72
572.25	25752.91
572.41	25083.52
572.57	25596.10
572.74	25745.89
572.90	25135.01
573.06	25249.70
573.22	25296.51
573.38	25645.25
573.55	25247.36
573.71	25453.33
573.87	25282.47
574.03	25408.86
574.20	25621.84
574.36	25350.34
574.52	25397.15
574.68	25252.04
574.84	25429.92
575.01	25467.37
575.17	25221.61
575.33	25556.31
575.49	24999.26
575.65	25584.40
575.82	25539.93
575.98	25614.82
576.14	25659.29
576.30	25453.33
576.46	25443.96
576.62	25369.07
576.79	25366.73
576.95	25301.19
577.11	25652.27
577.27	25624.18
577.43	25687.38
577.59	25127.99
577.75	25806.75
577.92	25249.70
578.08	25537.59
578.24	25474.39
578.40	25605.46
578.56	25759.94
578.72	25984.63
578.88	25792.70
579.04	25876.96
579.21	25654.61
579.37	25357.36
579.53	25706.10
579.69	25596.10
579.85	25666.31
580.01	25642.91
580.17	25745.89
580.33	25528.22
580.49	25678.02
580.65	25853.56
580.82	25392.47
580.98	25518.86
581.14	25546.95
581.30	25738.87
581.46	25214.59
581.62	25516.52
581.78	25193.53
581.94	25315.23
582.10	25387.79
582.26	26010.37
582.42	25458.01
582.58	25790.36
582.74	25619.50
582.90	25804.41
583.06	25600.78
583.22	25558.65
583.38	25532.90
583.54	25296.51
583.70	25362.04
583.86	25692.06
584.02	25844.20
584.18	25516.52
584.34	25661.63
584.50	25535.24
584.66	25305.87
584.82	25474.39
584.98	25813.77
585.14	25736.53
585.30	25652.27
585.46	25443.96
585.62	25378.43
585.78	25504.82
585.94	25694.40
586.10	25727.17
586.26	26010.37
586.42	25483.75
586.58	25668.66
586.74	25689.72
586.90	25830.15
587.06	25523.54
587.22	25844.20
587.38	26078.25
587.54	25827.81
587.70	25916.75
587.86	25956.54
588.02	25783.34
588.18	25993.99
588.34	25696.74
588.49	25956.54
588.65	25589.08
588.81	25312.89
588.97	25788.02
589.13	25551.63
589.29	25979.95
589.45	25759.94
589.61	25858.24
589.77	26141.44
589.93	25685.04
590.08	25834.83
590.24	26134.42
590.40	25544.61
590.56	25862.92
590.72	25673.34
