SpectraSuite Data File
++++++++++++++++++++++++++++++++++++
Date: Thu Oct 24 13:21:09 EDT 2013
User: stostad
Dark Spectrum Present: No
Reference Spectrum Present: No
Number of Sampled Component Spectra: 1
Spectrometers: USB2+H05261
Integration Time (usec): 100000 (USB2+H05261)
Spectra Averaged: 1 (USB2+H05261)
Boxcar Smoothing: 0 (USB2+H05261)
Correct for Electrical Dark: No (USB2+H05261)
Strobe/Lamp Enabled: No (USB2+H05261)
Correct for Detector Non-linearity: No (USB2+H05261)
Correct for Stray Light: No (USB2+H05261)
Number of Pixels in Processed Spectrum: 2048
>>>>>Begin Processed Spectral Data<<<<<
365.73	531.30
365.92	531.30
366.12	531.30
366.32	428.32
366.52	475.13
366.72	465.77
366.91	428.32
367.11	489.17
367.31	444.70
367.51	491.51
367.70	507.90
367.90	433.00
368.10	451.72
368.30	505.56
368.49	463.43
368.69	428.32
368.89	454.06
369.09	418.96
369.28	482.15
369.48	538.32
369.68	552.37
369.87	503.22
370.07	554.71
370.27	589.82
370.47	552.37
370.66	657.69
370.86	798.12
371.06	706.84
371.25	781.74
371.45	699.82
371.65	765.36
371.84	751.31
372.04	685.78
372.24	727.91
372.44	779.40
372.63	781.74
372.83	727.91
373.03	685.78
373.22	805.14
373.42	800.46
373.62	847.27
373.81	816.85
374.01	779.40
374.21	863.66
374.40	873.02
374.60	840.25
374.79	765.36
374.99	819.19
375.19	800.46
375.38	788.76
375.58	784.08
375.78	866.00
375.97	842.59
376.17	856.64
376.37	800.46
376.56	758.33
376.76	812.17
376.95	830.89
377.15	835.57
377.35	798.12
377.54	840.25
377.74	821.53
377.93	725.57
378.13	798.12
378.33	882.38
378.52	828.55
378.72	786.42
378.91	805.14
379.11	770.04
379.31	833.23
379.50	917.49
379.70	821.53
379.89	882.38
380.09	816.85
380.28	826.21
380.48	826.21
380.68	894.08
380.87	858.98
381.07	826.21
381.26	863.66
381.46	903.45
381.65	903.45
381.85	905.79
382.04	896.43
382.24	882.38
382.43	917.49
382.63	833.23
382.83	880.04
383.02	880.04
383.22	882.38
383.41	851.96
383.61	882.38
383.80	905.79
384.00	856.64
384.19	889.40
384.39	964.30
384.58	842.59
384.78	905.79
384.97	1008.77
385.17	896.43
385.36	833.23
385.56	964.30
385.75	833.23
385.95	924.51
386.14	889.40
386.34	891.74
386.53	922.17
386.72	858.98
386.92	938.55
387.11	994.73
387.31	926.85
387.50	985.37
387.70	961.96
387.89	901.11
388.09	980.68
388.28	903.45
388.48	999.41
388.67	987.71
388.86	968.98
389.06	1008.77
389.25	1004.09
389.45	978.34
389.64	940.90
389.84	926.85
390.03	1025.15
390.22	1041.54
390.42	971.32
390.61	952.60
390.81	950.26
391.00	966.64
391.19	997.07
391.39	1006.43
391.58	1064.94
391.78	1018.13
391.97	1097.71
392.16	973.66
392.36	1095.37
392.55	1025.15
392.75	1039.20
392.94	1018.13
393.13	1081.33
393.33	985.37
393.52	1116.44
393.71	1071.97
393.91	1008.77
394.10	1090.69
394.29	1043.88
394.49	1067.28
394.68	1090.69
394.88	1130.48
395.07	1008.77
395.26	1163.25
395.46	1151.54
395.65	1076.65
395.84	1158.57
396.04	1174.95
396.23	1111.75
396.42	1093.03
396.62	1116.44
396.81	1071.97
397.00	1144.52
397.19	1118.78
397.39	1146.86
397.58	1139.84
397.77	1142.18
397.97	1165.59
398.16	1177.29
398.35	1196.01
398.55	1219.42
398.74	1184.31
398.93	1196.01
399.12	1214.74
399.32	1203.04
399.51	1114.10
399.70	1207.72
399.90	1261.55
400.09	1177.29
400.28	1313.04
400.47	1291.98
400.67	1259.21
400.86	1217.08
401.05	1303.68
401.24	1277.93
401.44	1235.80
401.63	1153.88
401.82	1277.93
402.01	1277.93
402.21	1310.70
402.40	1310.70
402.59	1331.76
402.78	1343.47
402.97	1284.95
403.17	1359.85
403.36	1369.21
403.55	1404.32
403.74	1320.06
403.93	1413.68
404.13	1495.60
404.32	1418.36
404.51	1413.68
404.70	1427.73
404.89	1418.36
405.09	1413.68
405.28	1458.15
405.47	1455.81
405.66	1476.88
405.85	1507.30
406.05	1479.22
406.24	1451.13
406.43	1521.35
406.62	1526.03
406.81	1460.49
407.00	1460.49
407.20	1481.56
407.39	1495.60
407.58	1607.95
407.77	1535.39
407.96	1572.84
408.15	1533.05
408.34	1554.12
408.54	1556.46
408.73	1593.90
408.92	1610.29
409.11	1596.25
409.30	1565.82
409.49	1605.61
409.68	1675.82
409.87	1561.14
410.07	1544.75
410.26	1652.42
410.45	1643.06
410.64	1682.85
410.83	1743.70
411.02	1703.91
411.21	1760.08
411.40	1692.21
411.59	1799.87
411.78	1694.55
411.98	1680.50
412.17	1696.89
412.36	1776.47
412.55	1792.85
412.74	1825.62
412.93	1839.66
413.12	1764.76
413.31	1898.17
413.50	1750.72
413.69	1870.09
413.88	1872.43
414.07	1881.79
414.26	1907.54
414.45	1963.71
414.64	1949.67
414.83	1949.67
415.02	1886.47
415.22	1872.43
415.41	2005.84
415.60	2005.84
415.79	1989.46
415.98	2069.03
416.17	2076.06
416.36	2052.65
416.55	2066.69
416.74	2069.03
416.93	1973.07
417.12	2066.69
417.31	2139.25
417.50	2083.08
417.69	2136.91
417.88	2150.95
418.07	2165.00
418.26	2113.50
418.45	2090.10
418.64	2160.31
418.83	2195.42
419.02	2200.10
419.21	2186.06
419.39	2155.63
419.58	2235.21
419.77	2190.74
419.96	2270.32
420.15	2275.00
420.34	2207.13
420.53	2246.91
420.72	2307.77
420.91	2232.87
421.10	2335.85
421.29	2258.62
421.48	2317.13
421.67	2335.85
421.86	2342.88
422.05	2326.49
422.24	2279.68
422.43	2291.38
422.61	2342.88
422.80	2452.88
422.99	2368.62
423.18	2415.43
423.37	2518.42
423.56	2291.38
423.75	2361.60
423.94	2361.60
424.13	2242.23
424.32	2218.83
424.50	2480.97
424.69	2518.42
424.88	2466.92
425.07	2366.28
425.26	2363.94
425.45	2438.84
425.64	2361.60
425.83	2385.01
426.01	2361.60
426.20	2319.47
426.39	2396.71
426.58	2392.03
426.77	2368.62
426.96	2375.64
427.15	2431.82
427.33	2403.73
427.52	2377.98
427.71	2495.01
427.90	2471.61
428.09	2506.71
428.28	2539.48
428.46	2509.05
428.65	2560.55
428.84	2562.89
429.03	2586.29
429.22	2541.82
429.40	2506.71
429.59	2558.21
429.78	2471.61
429.97	2602.68
430.16	2499.69
430.34	2640.12
430.53	2637.78
430.72	2616.72
430.91	2565.23
431.10	2553.52
431.28	2698.64
431.47	2684.59
431.66	2722.04
431.85	2651.83
432.03	2722.04
432.22	2703.32
432.41	2708.00
432.60	2635.44
432.79	2684.59
432.97	2778.22
433.16	2759.49
433.35	2595.65
433.54	2724.38
433.72	2785.24
433.91	2792.26
434.10	2818.00
434.28	2750.13
434.47	2846.09
434.66	2876.52
434.85	2892.90
435.03	3040.36
435.22	3211.22
435.41	3229.94
435.59	3281.43
435.78	3215.90
435.97	3129.30
436.16	3028.65
436.34	2951.42
436.53	3110.57
436.72	2960.78
436.90	2888.22
437.09	2984.18
437.28	3023.97
437.46	3045.04
437.65	3068.44
437.84	3042.70
438.02	3091.85
438.21	3042.70
438.40	2946.73
438.58	3087.17
438.77	3162.06
438.96	3091.85
439.14	3166.74
439.33	3194.83
439.52	3110.57
439.70	3248.66
439.89	3213.56
440.08	3332.92
440.26	3152.70
440.45	3375.05
440.63	3309.52
440.82	3407.82
441.01	3274.41
441.19	3370.37
441.38	3396.12
441.57	3433.57
441.75	3346.97
441.94	3487.40
442.12	3517.83
442.31	3440.59
442.50	3569.32
442.68	3330.58
442.87	3520.17
443.05	3620.81
443.24	3541.23
443.43	3634.85
443.61	3634.85
443.80	3693.37
443.98	3442.93
444.17	3358.67
444.35	3438.25
444.54	3574.00
444.73	3574.00
444.91	3726.13
445.10	3623.15
445.28	3606.77
445.47	3592.72
445.65	3578.68
445.84	3637.19
446.02	3644.21
446.21	3632.51
446.39	3520.17
446.58	3620.81
446.77	3709.75
446.95	3492.08
447.14	3648.90
447.32	3733.15
447.51	3641.87
447.69	3728.47
447.88	3686.34
448.06	3744.86
448.25	3730.81
448.43	3735.50
448.62	3653.58
448.80	3665.28
448.99	3751.88
449.17	3791.67
449.36	3698.05
449.54	3878.27
449.73	3707.41
449.91	3796.35
450.10	3815.07
450.28	3922.74
450.46	3976.57
450.65	3740.18
450.83	3794.01
451.02	3847.84
451.20	3824.44
451.39	3889.97
451.57	3934.44
451.76	3969.55
451.94	3908.69
452.13	3995.29
452.31	4018.70
452.49	3946.14
452.68	3985.93
452.86	3976.57
453.05	3946.14
453.23	3971.89
453.42	4023.38
453.60	4042.11
453.78	4039.76
453.97	4021.04
454.15	3932.10
454.34	4086.58
454.52	4032.74
454.70	4135.73
454.89	4138.07
455.07	4039.76
455.26	4212.96
455.44	4280.84
455.62	4037.42
455.81	4236.37
455.99	4297.22
456.17	4308.93
456.36	4255.09
456.54	4243.39
456.73	4308.93
456.91	4341.69
457.09	4194.24
457.28	4322.97
457.46	4418.93
457.64	4383.82
457.83	4367.44
458.01	4416.59
458.19	4472.76
458.38	4332.33
458.56	4521.92
458.74	4475.10
458.93	4542.98
459.11	4381.48
459.29	4372.12
459.48	4524.26
459.66	4456.38
459.84	4484.47
460.03	4601.49
460.21	4648.30
460.39	4463.40
460.57	4631.92
460.76	4711.50
460.94	4667.03
461.12	4741.93
461.31	4622.56
461.49	4587.45
461.67	4547.66
461.85	4615.54
462.04	4561.70
462.22	4894.06
462.40	4816.82
462.59	4624.90
462.77	4730.22
462.95	4791.08
463.13	4770.01
463.32	4793.42
463.50	4924.49
463.68	4847.25
463.86	4865.97
464.05	4795.76
464.23	4781.71
464.41	4915.12
464.59	4837.89
464.78	4842.57
464.96	4894.06
465.14	4788.74
465.32	4957.25
465.50	4889.38
465.69	4929.17
465.87	4800.44
466.05	4903.42
466.23	5020.45
466.41	5158.54
466.60	5043.85
466.78	5071.94
466.96	4957.25
467.14	5006.41
467.32	5139.82
467.51	5174.92
467.69	5165.56
467.87	5181.95
468.05	5137.48
468.23	5135.14
468.41	4931.51
468.60	5114.07
468.78	5205.35
468.96	5008.75
469.14	5116.41
469.32	5289.61
469.50	5118.75
469.69	5280.25
469.87	5186.63
470.05	5397.28
470.23	5371.53
470.41	5334.08
470.59	5212.37
470.77	5301.31
470.95	5245.14
471.14	5476.85
471.32	5411.32
471.50	5500.26
471.68	5343.44
471.86	5518.98
472.04	5652.39
472.22	5743.67
472.40	5664.10
472.58	5521.32
472.77	5530.69
472.95	5748.36
473.13	5692.18
473.31	5636.01
473.49	5638.35
473.67	5652.39
473.85	5755.38
474.03	5738.99
474.21	5834.96
474.39	5687.50
474.57	5839.64
474.75	5874.74
474.93	5923.90
475.12	5783.46
475.30	5893.47
475.48	5879.43
475.66	6150.93
475.84	5891.13
476.02	6040.92
476.20	6026.88
476.38	6195.40
476.56	6214.12
476.74	6111.14
476.92	6232.85
477.10	6221.14
477.28	6502.01
477.46	6436.47
477.64	6523.07
477.82	6399.02
478.00	6588.61
478.18	6377.96
478.36	6544.14
478.54	6670.53
478.72	6712.66
478.90	6778.19
479.08	6705.63
479.26	6843.73
479.44	6970.12
479.62	6977.14
479.80	7037.99
479.98	6986.50
480.16	7302.47
480.34	7178.42
480.52	7077.78
480.70	7307.15
480.88	7255.66
481.06	7236.94
481.24	7194.81
481.41	7449.93
481.59	7370.35
481.77	7606.74
481.95	7506.10
482.13	7662.91
482.31	7501.42
482.49	7840.79
482.67	7878.24
482.85	7857.18
483.03	7943.78
483.21	7845.48
483.39	8175.49
483.57	7801.01
483.74	7901.65
483.92	8124.00
484.10	8035.06
484.28	8383.80
484.46	8322.94
484.64	8367.42
484.82	8454.02
485.00	8524.23
485.18	8568.70
485.35	8627.21
485.53	8659.98
485.71	8877.65
485.89	8872.97
486.07	8898.72
486.25	9198.31
486.43	9092.98
486.61	8882.33
486.78	9088.30
486.96	9170.22
487.14	9327.03
487.32	9212.35
487.50	9291.93
487.68	9357.46
487.85	9551.73
488.03	9448.74
488.21	9666.41
488.39	9671.09
488.57	9727.27
488.75	9891.10
488.92	10008.13
489.10	10157.92
489.28	10183.67
489.46	9984.73
489.64	10157.92
489.81	10307.72
489.99	10279.63
490.17	10513.69
490.35	10548.79
490.53	10637.73
490.70	10642.42
490.88	10586.24
491.06	10768.80
491.24	10724.33
491.41	10836.68
491.59	10773.49
491.77	11016.90
491.95	10995.84
492.13	11122.23
492.30	10977.11
492.48	11084.78
492.66	11197.12
492.84	11309.47
493.01	11419.47
493.19	11442.88
493.37	11494.37
493.54	11545.86
493.72	11705.02
493.90	11508.41
494.08	11686.29
494.25	11845.45
494.43	12004.61
494.61	11999.93
494.79	11988.22
494.96	11960.14
495.14	12156.74
495.32	12063.12
495.49	12205.89
495.67	12233.98
495.85	12238.66
496.02	12442.29
496.20	12648.26
496.38	12255.04
496.55	12638.89
496.73	12950.18
496.91	12805.07
497.09	12814.43
497.26	12816.77
497.44	12912.74
497.62	12856.56
497.79	13041.46
497.97	12830.82
498.14	13495.53
498.32	13151.47
498.50	13256.79
498.67	13280.20
498.85	13275.52
499.03	13305.95
499.20	13341.05
499.38	13654.69
499.56	13802.14
499.73	13708.52
499.91	13593.83
500.08	13584.47
500.26	13696.82
500.44	13429.99
500.61	13722.56
500.79	13661.71
500.97	14019.81
501.14	14363.87
501.32	14087.68
501.49	14047.90
501.67	13844.27
501.84	14286.63
502.02	14040.87
502.20	14176.62
502.37	14141.52
502.55	14373.23
502.72	14265.57
502.90	14644.73
503.07	14436.42
503.25	14712.61
503.43	14164.92
503.60	14567.49
503.78	14738.35
503.95	14745.38
504.13	14574.52
504.30	14726.65
504.48	14684.52
504.65	14857.72
504.83	14923.26
505.01	15124.54
505.18	14932.62
505.36	15173.69
505.53	14977.09
505.71	14960.70
505.88	15206.46
506.06	15143.27
506.23	15304.76
506.41	14953.68
506.58	15159.65
506.76	15417.11
506.93	15529.45
507.11	15627.76
507.28	15229.87
507.46	15536.48
507.63	15419.45
507.81	15337.53
507.98	15627.76
508.16	15646.48
508.33	15697.97
508.50	15871.17
508.68	16100.55
508.85	16255.02
509.03	16093.52
509.20	15915.64
509.38	16137.99
509.55	16217.57
509.73	16271.40
509.90	16229.27
510.08	16339.28
510.25	16451.63
510.42	16240.98
510.60	16400.13
510.77	16304.17
510.95	16491.41
511.12	16346.30
511.30	16659.93
511.47	16596.74
511.64	16498.44
511.82	16688.02
511.99	16627.17
512.17	16725.47
512.34	16826.11
512.51	16961.86
512.69	17170.17
512.86	17013.35
513.04	17041.44
513.21	17163.15
513.38	17109.32
513.56	17195.92
513.73	17238.05
513.90	17202.94
514.08	17156.13
514.25	17289.54
514.43	17788.07
514.60	17294.22
514.77	17310.60
514.95	17598.49
515.12	17139.74
515.29	17474.44
515.47	17420.61
515.64	17638.28
515.81	17500.19
515.99	17678.07
516.16	17886.37
516.33	17671.04
516.51	17879.35
516.68	17724.88
516.85	17928.50
517.03	17886.37
517.20	18326.39
517.37	17900.42
517.54	18352.14
517.72	17488.48
517.89	18061.91
518.06	18174.26
518.24	18024.47
518.41	18267.88
518.58	18001.06
518.75	18223.41
518.93	18237.45
519.10	18127.45
519.27	18298.31
519.45	18455.12
519.62	18195.32
519.79	18663.43
519.96	18490.23
520.14	18714.92
520.31	18738.33
520.48	18515.98
520.65	18696.20
520.83	18913.87
521.00	18906.85
521.17	19005.15
521.34	18845.99
521.52	18747.69
521.69	18558.11
521.86	18801.52
522.03	19166.65
522.20	19007.49
522.38	19058.98
522.55	19110.47
522.72	19248.57
522.89	19002.81
523.07	19243.88
523.24	18939.62
523.41	19108.13
523.58	19248.57
523.75	19644.12
523.92	19274.31
524.10	19220.48
524.27	19246.23
524.44	19473.26
524.61	19611.35
524.78	19496.66
524.96	19662.84
525.13	19609.01
525.30	20067.75
525.47	19917.96
525.64	19683.91
525.81	19702.63
525.98	19847.74
526.16	19538.79
526.33	19704.97
526.50	20226.91
526.67	19658.16
526.84	19992.86
527.01	20070.09
527.18	19969.45
527.36	19990.52
527.53	19777.53
527.70	20163.72
527.87	19845.40
528.04	20212.87
528.21	20306.49
528.38	20224.57
528.55	20194.14
528.72	20049.03
528.89	20313.51
529.07	20173.08
529.24	20229.25
529.41	20336.91
529.58	20308.83
529.75	20594.37
529.92	20683.31
530.09	20322.87
530.26	20566.29
530.43	20460.96
530.60	20533.52
530.77	20680.97
530.94	21036.74
531.11	20634.16
531.28	20765.23
531.46	20666.93
531.63	20954.82
531.80	20788.64
531.97	20643.52
532.14	20875.24
532.31	20975.88
532.48	20765.23
532.65	21240.36
532.82	20788.64
532.99	21256.75
533.16	20819.07
533.33	21057.80
533.50	20915.03
533.67	21172.49
533.84	21048.44
534.01	21329.30
534.18	21399.52
534.35	21638.25
534.52	21282.49
534.69	21427.60
534.86	21174.83
535.03	21247.38
535.20	21322.28
535.37	21521.23
535.54	21855.92
535.71	21373.77
535.88	21579.74
536.05	21369.09
536.22	21909.75
536.38	21682.72
536.55	21591.44
536.72	21790.39
536.89	21502.50
537.06	21738.90
537.23	21954.22
537.40	21664.00
537.57	21860.60
537.74	21961.25
537.91	22232.75
538.08	22340.41
538.25	21762.30
538.42	21823.16
538.59	22148.49
538.75	21961.25
538.92	22033.80
539.09	22434.03
539.26	22115.72
539.43	22050.19
539.60	21701.45
539.77	22405.95
539.94	22408.29
540.11	22534.68
540.28	22342.75
540.44	22075.93
540.61	22647.02
540.78	22167.21
540.95	22471.48
541.12	22892.78
541.29	22672.77
541.46	22836.61
541.62	22960.66
541.79	22881.08
541.96	22698.52
542.13	22932.57
542.30	22871.72
542.47	23073.00
542.63	22883.42
542.80	23178.33
542.97	23145.56
543.14	23580.90
543.31	23056.62
543.48	23185.35
543.64	23405.36
543.81	23307.05
543.98	23604.30
544.15	23175.98
544.32	23433.44
544.48	23456.85
544.65	23431.10
544.82	23264.92
544.99	23220.45
545.16	23718.99
545.32	23545.79
545.49	23730.69
545.66	24582.65
545.83	24346.25
546.00	24584.99
546.16	24023.26
546.33	23946.02
546.50	23747.08
546.67	23384.29
546.83	23342.16
547.00	23180.67
547.17	23316.42
547.34	23321.10
547.50	23339.82
547.67	23754.10
547.84	23358.55
548.00	23852.40
548.17	23702.61
548.34	23599.62
548.51	23726.01
548.67	23852.40
548.84	23246.20
549.01	23709.63
549.18	23564.51
549.34	23854.74
549.51	23789.20
549.68	23957.72
549.84	23646.43
550.01	23953.04
550.18	23772.82
550.34	23204.07
550.51	23821.97
550.68	24196.46
550.84	23185.35
551.01	23936.66
551.18	23630.05
551.34	23779.84
551.51	23597.28
551.68	23726.01
551.84	24049.00
552.01	24114.54
552.18	23660.48
552.34	23772.82
552.51	23906.23
552.68	23627.71
552.84	24304.12
553.01	23927.30
553.18	23608.98
553.34	23871.12
553.51	23999.85
553.67	24020.92
553.84	24306.46
554.01	24191.78
554.17	24091.13
554.34	24327.53
554.51	24020.92
554.67	24416.47
554.84	24194.12
555.00	24201.14
555.17	23885.17
555.33	24044.32
555.50	24098.16
555.67	23871.12
555.83	24283.06
556.00	24229.23
556.16	24912.66
556.33	24477.32
556.50	24154.33
556.66	24299.44
556.83	23901.55
556.99	24451.58
557.16	24357.96
557.32	24559.24
557.49	24615.41
557.65	24315.83
557.82	24194.12
557.98	24271.36
558.15	24112.20
558.32	24374.34
558.48	24334.55
558.65	24744.14
558.81	24460.94
558.98	24669.25
559.14	24601.37
559.31	24149.65
559.47	24456.26
559.64	24812.02
559.80	24407.11
559.97	24648.18
560.13	24238.59
560.30	24465.62
560.46	24430.51
560.63	24322.85
560.79	24755.85
560.96	24744.14
561.12	24430.51
561.29	24570.94
561.45	24493.71
561.61	24994.58
561.78	24711.38
561.94	24678.61
562.11	25022.67
562.27	24872.87
562.44	24650.52
562.60	24758.19
562.77	24809.68
562.93	24376.68
563.10	24786.27
563.26	24467.96
563.42	25123.31
563.59	24893.94
563.75	24835.42
563.92	24978.20
564.08	25212.25
564.24	24844.79
564.41	24807.34
564.57	24877.55
564.74	24882.24
564.90	24879.89
565.07	25221.61
565.23	25109.27
565.39	24954.79
565.56	25116.29
565.72	24973.52
565.88	24812.02
566.05	24975.86
566.21	24940.75
566.38	25034.37
566.54	24952.45
566.70	25261.40
566.87	25111.61
567.03	25188.85
567.19	25219.27
567.36	25247.36
567.52	25039.05
567.68	25268.42
567.85	25125.65
568.01	25160.76
568.17	24854.15
568.34	25256.72
568.50	25092.88
568.66	24947.77
568.83	25453.33
568.99	24985.22
569.15	25069.48
569.32	25277.79
569.48	24765.21
569.64	25329.28
569.81	25067.14
569.97	24945.43
570.13	24971.18
570.30	24837.76
570.46	24945.43
570.62	25242.68
570.78	24879.89
570.95	24783.93
571.11	25450.99
571.27	25060.12
571.43	24945.43
571.60	25130.33
571.76	25106.93
571.92	25350.34
572.09	25429.92
572.25	25544.61
572.41	25479.07
572.57	25607.80
572.74	25357.36
572.90	24961.81
573.06	25167.78
573.22	25088.20
573.38	25181.82
573.55	24835.42
573.71	25249.70
573.87	25397.15
574.03	25207.57
574.20	25514.18
574.36	25544.61
574.52	25069.48
574.68	25366.73
574.84	25242.68
575.01	25392.47
575.17	25006.28
575.33	25373.75
575.49	25390.13
575.65	25504.82
575.82	25322.26
575.98	25486.09
576.14	25458.01
576.30	25518.86
576.46	25715.47
576.62	25628.87
576.79	25163.10
576.95	25165.44
577.11	25525.88
577.27	25544.61
577.43	25418.22
577.59	25422.90
577.75	25109.27
577.92	25319.92
578.08	25319.92
578.24	25069.48
578.40	25607.80
578.56	25673.34
578.72	25762.28
578.88	25855.90
579.04	25993.99
579.21	25570.35
579.37	25537.59
579.53	25521.20
579.69	25280.13
579.85	25605.46
580.01	25708.44
580.17	25493.12
580.33	25565.67
580.49	25448.64
580.65	25750.57
580.82	25287.15
580.98	25642.91
581.14	25369.07
581.30	25455.67
581.46	25462.69
581.62	25336.30
581.78	25223.95
581.94	25598.44
582.10	25326.94
582.26	25364.39
582.42	25434.60
582.58	25542.27
582.74	25652.27
582.90	25680.36
583.06	25467.37
583.22	25483.75
583.38	25465.03
583.54	25678.02
583.70	25404.17
583.86	25804.41
584.02	25661.63
584.18	25458.01
584.34	25649.93
584.50	25668.66
584.66	25378.43
584.82	25497.80
584.98	25642.91
585.14	25844.20
585.30	25696.74
585.46	25759.94
585.62	25523.54
585.78	25745.89
585.94	25689.72
586.10	25551.63
586.26	25795.04
586.42	25898.03
586.58	25542.27
586.74	25710.78
586.90	25521.20
587.06	25488.43
587.22	25841.85
587.38	25771.64
587.54	25612.48
587.70	25874.62
587.86	25947.18
588.02	25642.91
588.18	25895.69
588.34	25841.85
588.49	25951.86
588.65	25806.75
588.81	25371.41
588.97	25612.48
589.13	25720.15
589.29	25631.21
589.45	25582.06
589.61	25898.03
589.77	25930.80
589.93	25851.22
590.08	26111.02
590.24	25900.37
590.40	26040.80
590.56	25839.51
590.72	25663.97
