SpectraSuite Data File
++++++++++++++++++++++++++++++++++++
Date: Thu Oct 24 13:21:44 EDT 2013
User: stostad
Dark Spectrum Present: No
Reference Spectrum Present: No
Number of Sampled Component Spectra: 1
Spectrometers: USB2+H05261
Integration Time (usec): 100000 (USB2+H05261)
Spectra Averaged: 1 (USB2+H05261)
Boxcar Smoothing: 0 (USB2+H05261)
Correct for Electrical Dark: No (USB2+H05261)
Strobe/Lamp Enabled: No (USB2+H05261)
Correct for Detector Non-linearity: No (USB2+H05261)
Correct for Stray Light: No (USB2+H05261)
Number of Pixels in Processed Spectrum: 2048
>>>>>Begin Processed Spectral Data<<<<<
365.73	657.69
365.92	657.69
366.12	657.69
366.32	519.60
366.52	592.16
366.72	496.19
366.91	479.81
367.11	477.47
367.31	500.87
367.51	482.15
367.70	552.37
367.90	512.58
368.10	557.05
368.30	505.56
368.49	477.47
368.69	500.87
368.89	500.87
369.09	468.11
369.28	538.32
369.48	568.75
369.68	575.77
369.87	554.71
370.07	615.56
370.27	641.31
370.47	858.98
370.66	1516.67
370.86	1476.88
371.06	1563.48
371.25	1692.21
371.45	1570.50
371.65	1570.50
371.84	1603.27
372.04	1650.08
372.24	1722.63
372.44	1748.38
372.63	1706.25
372.83	1710.93
373.03	1717.95
373.22	1720.29
373.42	1816.26
373.62	1769.44
373.81	1797.53
374.01	1863.07
374.21	1898.17
374.40	1853.70
374.60	1856.04
374.79	1884.13
374.99	2022.22
375.19	1921.58
375.38	1895.83
375.58	1949.67
375.78	2017.54
375.97	1900.52
376.17	2064.35
376.37	1954.35
376.56	1874.77
376.76	1933.28
376.95	2071.37
377.15	2008.18
377.35	2069.03
377.54	2069.03
377.74	2132.23
377.93	2099.46
378.13	2172.02
378.33	2162.66
378.52	2099.46
378.72	2073.71
378.91	2148.61
379.11	2230.53
379.31	2202.44
379.50	2195.42
379.70	2291.38
379.89	2265.64
380.09	2251.60
380.28	2251.60
380.48	2326.49
380.68	2282.02
380.87	2223.51
381.07	2356.92
381.26	2347.56
381.46	2434.16
381.65	2354.58
381.85	2352.24
382.04	2429.48
382.24	2363.94
382.43	2455.22
382.63	2551.18
382.83	2424.80
383.02	2553.52
383.22	2504.37
383.41	2483.31
383.61	2448.20
383.80	2605.02
384.00	2539.48
384.19	2597.99
384.39	2612.04
384.58	2621.40
384.78	2729.06
384.97	2668.21
385.17	2684.59
385.36	2583.95
385.56	2708.00
385.75	2684.59
385.95	2689.28
386.14	2839.07
386.34	2785.24
386.53	2789.92
386.72	2736.09
386.92	2682.25
387.11	2710.34
387.31	2867.16
387.50	2827.37
387.70	2806.30
387.89	2897.58
388.09	2801.62
388.28	2897.58
388.48	3023.97
388.67	2892.90
388.86	3002.91
389.06	2972.48
389.25	3080.14
389.45	3124.62
389.64	2928.01
389.84	3155.04
390.03	3133.98
390.22	3251.00
390.42	3255.69
390.61	3159.72
390.81	3253.34
391.00	3129.30
391.19	3279.09
391.39	3297.81
391.58	3309.52
391.78	3384.41
391.97	3260.37
392.16	3368.03
392.36	3379.73
392.55	3403.14
392.75	3405.48
392.94	3421.86
393.13	3426.54
393.33	3393.78
393.52	3473.36
393.71	3578.68
393.91	3508.46
394.10	3513.14
394.29	3723.79
394.49	3552.93
394.68	3655.92
394.88	3681.66
395.07	3648.90
395.26	3658.26
395.46	3695.71
395.65	3803.37
395.84	3861.88
396.04	3873.59
396.23	3997.64
396.42	4063.17
396.62	4044.45
396.81	3934.44
397.00	3887.63
397.19	3845.50
397.39	4028.06
397.58	4044.45
397.77	4159.13
397.97	4147.43
398.16	4180.20
398.35	4203.60
398.55	4102.96
398.74	4201.26
398.93	4341.69
399.12	4329.99
399.32	4159.13
399.51	4311.27
399.70	4379.14
399.90	4344.03
400.09	4554.68
400.28	4456.38
400.47	4470.42
400.67	4456.38
400.86	4428.29
401.05	4409.57
401.24	4669.37
401.44	4631.92
401.63	4622.56
401.82	4585.11
402.01	4594.47
402.21	4725.54
402.40	4716.18
402.59	4809.80
402.78	4835.55
402.97	4777.03
403.17	4943.21
403.36	4926.83
403.55	4992.36
403.74	5160.88
403.93	5146.84
404.13	5050.88
404.32	5170.24
404.51	5135.14
404.70	5214.71
404.89	5090.67
405.09	5350.46
405.28	5263.86
405.47	5242.80
405.66	5416.00
405.85	5385.57
406.05	5455.79
406.24	5453.45
406.43	5509.62
406.62	5518.98
406.81	5624.31
407.00	5467.49
407.20	5577.50
407.39	5591.54
407.58	5671.12
407.77	5743.67
407.96	5621.97
408.15	5757.72
408.34	5738.99
408.54	5975.39
408.73	5799.85
408.92	5991.77
409.11	6104.12
409.30	5846.66
409.49	6047.94
409.68	6221.14
409.87	5994.11
410.07	6298.38
410.26	6211.78
410.45	6349.87
410.64	6310.08
410.83	6466.90
411.02	6361.58
411.21	6677.55
411.40	6583.93
411.59	6778.19
411.78	6764.15
411.98	6558.18
412.17	6761.81
412.36	7023.95
412.55	6956.07
412.74	7143.32
412.93	6951.39
413.12	6942.03
413.31	7204.17
413.50	7206.51
413.69	7220.55
413.88	7356.30
414.07	7442.90
414.26	7433.54
414.45	7400.77
414.64	7501.42
414.83	7524.82
415.02	7826.75
415.22	7833.77
415.41	8016.33
415.60	7798.66
415.79	8035.06
415.98	8070.17
416.17	8215.28
416.36	7943.78
416.55	8056.12
416.74	8421.25
416.93	8269.11
417.12	8409.54
417.31	8367.42
417.50	8367.42
417.69	8540.61
417.88	8702.11
418.07	8748.92
418.26	8664.66
418.45	8648.28
418.64	9043.83
418.83	8755.94
419.02	8945.53
419.21	9390.23
419.39	9095.32
419.58	9217.03
419.77	9207.67
419.96	9301.29
420.15	9420.66
420.34	9399.59
420.53	9282.56
420.72	9383.21
420.91	9434.70
421.10	9472.15
421.29	9654.71
421.48	9397.25
421.67	9582.15
421.86	9710.88
422.05	9547.05
422.24	9659.39
422.43	9785.78
422.61	9870.04
422.80	9865.36
422.99	9893.44
423.18	9980.04
423.37	10171.97
423.56	10099.41
423.75	10104.09
423.94	9802.16
424.13	9376.19
424.32	9635.99
424.50	10029.20
424.69	10148.56
424.88	10401.34
425.07	10068.98
425.26	9912.17
425.45	10174.31
425.64	10176.65
425.83	9809.19
426.01	10209.42
426.20	10204.74
426.39	10389.64
426.58	10326.44
426.77	10228.14
426.96	10410.70
427.15	10073.67
427.33	10504.32
427.52	10406.02
427.71	10621.35
427.90	10551.14
428.09	10471.56
428.28	10853.06
428.46	10764.12
428.65	10733.70
428.84	11164.36
429.03	11028.60
429.22	10813.28
429.40	10965.41
429.59	11164.36
429.78	10691.57
429.97	10733.70
430.16	11119.89
430.34	11197.12
430.53	11302.45
430.72	11480.33
430.91	11302.45
431.10	11363.30
431.28	11742.47
431.47	11517.78
431.66	11882.90
431.85	11602.04
432.03	11967.16
432.22	12079.50
432.41	11833.75
432.60	11815.02
432.79	12095.89
432.97	11920.35
433.16	11981.20
433.35	11988.22
433.54	12290.15
433.72	12360.37
433.91	12456.33
434.10	12542.93
434.28	12327.60
434.47	12453.99
434.66	12699.75
434.85	12858.90
435.03	12910.40
435.22	12950.18
435.41	13448.72
435.59	12989.97
435.78	13205.30
435.97	13343.39
436.16	13202.96
436.34	13186.58
436.53	13319.99
436.72	13144.45
436.90	13011.04
437.09	13453.40
437.28	13275.52
437.46	13329.35
437.65	13558.72
437.84	13837.25
438.02	13612.56
438.21	13762.35
438.40	13696.82
438.58	14265.57
438.77	14260.88
438.96	14218.75
439.14	14527.71
439.33	14628.35
439.52	14829.63
439.70	14635.37
439.89	14986.45
440.08	15204.12
440.26	14998.15
440.45	14970.07
440.63	15199.44
440.82	15655.84
441.01	15316.47
441.19	15714.36
441.38	15831.38
441.57	15714.36
441.75	15892.24
441.94	16201.19
442.12	16142.67
442.31	16372.05
442.50	16320.56
442.68	16283.11
442.87	16262.04
443.05	16587.38
443.24	16444.60
443.43	16685.68
443.61	16561.63
443.80	17198.26
443.98	16540.57
444.17	16203.53
444.35	16582.70
444.54	17039.10
444.73	16795.68
444.91	16842.50
445.10	16929.09
445.28	17121.02
445.47	16929.09
445.65	17399.54
445.84	17275.49
446.02	17596.15
446.21	17584.44
446.39	17366.78
446.58	17502.53
446.77	17664.02
446.95	17291.88
447.14	17256.77
447.32	17785.73
447.51	17310.60
447.69	17537.63
447.88	17479.12
448.06	17474.44
448.25	17439.33
448.43	17720.20
448.62	17462.74
448.80	17661.68
448.99	17664.02
449.17	17769.35
449.36	17797.43
449.54	18260.86
449.73	18593.22
449.91	18560.45
450.10	18499.59
450.28	18874.08
450.46	18789.82
450.65	18862.38
450.83	18775.78
451.02	18707.90
451.20	19054.30
451.39	18986.43
451.57	18841.31
451.76	18937.27
451.94	18951.32
452.13	19463.90
452.31	19339.85
452.49	19147.92
452.68	19337.51
452.86	19417.08
453.05	19690.93
453.23	19566.88
453.42	19442.83
453.60	19491.98
453.78	20184.78
453.97	19779.87
454.15	19873.49
454.34	19459.21
454.52	20306.49
454.70	20016.26
454.89	19864.13
455.07	20393.09
455.26	20500.75
455.44	21006.31
455.62	20556.93
455.81	20748.85
455.99	20737.15
456.17	20805.02
456.36	20795.66
456.54	21273.13
456.73	21378.45
456.91	21731.87
457.09	21462.71
457.28	22047.85
457.46	21523.57
457.64	21963.59
457.83	21844.22
458.01	21640.59
458.19	22546.38
458.38	21961.25
458.56	22354.46
458.74	22202.32
458.93	22387.22
459.11	22391.91
459.29	22728.94
459.48	22279.56
459.66	22682.13
459.84	22845.97
460.03	23040.23
460.21	23035.55
460.39	22932.57
460.57	23087.04
460.76	23489.62
460.94	23616.01
461.12	23300.03
461.31	23571.54
461.49	23318.76
461.67	23328.12
461.85	23852.40
462.04	23686.22
462.22	24451.58
462.40	24465.62
462.59	24025.60
462.77	24067.73
462.95	24519.45
463.13	24357.96
463.32	24343.91
463.50	24865.85
463.68	24870.53
463.86	25032.03
464.05	24355.61
464.23	24484.34
464.41	25032.03
464.59	24769.89
464.78	25666.31
464.96	25493.12
465.14	24528.81
465.32	25165.44
465.50	25806.75
465.69	25671.00
465.87	25570.35
466.05	25614.82
466.23	25816.11
466.41	25596.10
466.60	26251.45
466.78	26033.78
466.96	25610.14
467.14	25811.43
467.32	26139.10
467.51	26469.12
467.69	25589.08
467.87	26504.23
468.05	26480.82
468.23	26045.48
468.41	26094.63
468.60	26340.39
468.78	26944.25
468.96	26452.73
469.14	27225.11
469.32	27545.76
469.50	26735.94
469.69	27264.90
469.87	27634.71
470.05	27552.79
470.23	27704.92
470.41	27990.47
470.59	27929.61
470.77	27768.12
470.95	28222.18
471.14	28811.99
471.32	28215.16
471.50	28423.47
471.68	28826.04
471.86	28694.97
472.04	29214.57
472.22	29614.80
472.40	28807.31
472.58	29207.55
472.77	29680.33
472.95	29755.23
473.13	30909.11
473.31	29752.89
473.49	30066.52
473.67	30277.17
473.85	30462.07
474.03	31201.68
474.21	31290.62
474.39	31316.37
474.57	31683.83
474.75	31868.73
474.93	31920.23
475.12	31550.42
475.30	32072.36
475.48	31847.67
475.66	32439.82
475.84	32290.03
476.02	33057.73
476.20	32615.37
476.38	33490.73
476.56	33949.47
476.74	33701.37
476.92	33411.15
477.10	33703.71
477.28	34469.07
477.46	34597.80
477.64	34740.57
477.82	35669.76
478.00	35976.37
478.18	35559.76
478.36	36680.88
478.54	36807.26
478.72	37050.68
478.90	37090.47
479.08	37556.24
479.26	37921.36
479.44	37970.51
479.62	37825.40
479.80	38667.99
479.98	38726.50
480.16	39812.51
480.34	39351.43
480.52	39796.13
480.70	39824.22
480.88	39576.12
481.06	40158.91
481.24	39601.86
481.41	40638.72
481.59	41366.63
481.77	41881.55
481.95	41783.24
482.13	42270.08
482.31	41816.01
482.49	43147.78
482.67	42808.40
482.85	43241.40
483.03	43714.19
483.21	44631.68
483.39	44605.93
483.57	44158.89
483.74	44732.32
483.92	45162.98
484.10	45085.74
484.28	46216.22
484.46	46656.24
484.64	47426.28
484.82	46436.23
485.00	47292.86
485.18	47950.56
485.35	48577.82
485.53	48582.50
485.71	48467.81
485.89	49357.22
486.07	49254.23
486.25	49130.19
486.43	49834.69
486.61	49862.77
486.78	50316.84
486.96	50520.46
487.14	51154.75
487.32	51037.72
487.50	51489.45
487.68	51728.18
487.85	52009.04
488.03	52795.46
488.21	53013.13
488.39	52652.69
488.57	52982.71
488.75	53387.62
488.92	53471.88
489.10	54096.80
489.28	54052.33
489.46	54899.61
489.64	54300.43
489.81	54773.22
489.99	55072.81
490.17	55323.24
490.35	55655.60
490.53	55716.45
490.70	56081.58
490.88	55781.99
491.06	56360.10
491.24	56079.24
491.41	56694.80
491.59	56989.70
491.77	56802.46
491.95	57200.35
492.13	57272.91
492.30	57371.21
492.48	57565.48
492.66	57752.72
492.84	57762.08
493.01	58199.76
493.19	58117.84
493.37	58543.82
493.54	58656.17
493.72	58681.91
493.90	58852.77
494.08	59182.79
494.25	59433.22
494.43	59402.80
494.61	59653.23
494.79	59737.49
494.96	59786.64
495.14	59861.54
495.32	60430.29
495.49	60388.16
495.67	60516.89
495.85	60575.40
496.02	60629.24
496.20	60856.27
496.38	60858.61
496.55	61226.07
496.73	61593.54
496.91	61509.28
497.09	61474.17
497.26	61708.22
497.44	61780.78
497.62	61897.81
497.79	62183.35
497.97	62021.86
498.14	62307.40
498.32	62384.64
498.50	62506.35
498.67	62705.29
498.85	62642.10
499.03	62906.58
499.20	62794.23
499.38	62859.77
499.56	63178.08
499.73	63241.28
499.91	63231.91
500.08	63508.10
500.26	63248.30
500.44	63674.27
500.61	63723.43
500.79	63814.71
500.97	63828.75
501.14	64189.19
501.32	64034.72
501.49	64228.98
501.67	64252.39
501.84	64371.75
502.02	64500.48
502.20	64535.59
502.37	64526.23
502.55	64687.73
502.72	64643.26
502.90	64767.30
503.07	64910.08
503.25	64898.37
503.43	64661.98
503.60	65336.05
503.78	65167.54
503.95	65102.00
504.13	65261.16
504.30	65347.76
504.48	65439.04
504.65	65406.27
504.83	65535.00
505.01	65535.00
505.18	65535.00
505.36	65535.00
505.53	65535.00
505.71	65535.00
505.88	65535.00
506.06	65535.00
506.23	65535.00
506.41	65535.00
506.58	65535.00
506.76	65535.00
506.93	65535.00
507.11	65535.00
507.28	65535.00
507.46	65535.00
507.63	65535.00
507.81	65535.00
507.98	65535.00
508.16	65535.00
508.33	65535.00
508.50	65535.00
508.68	65535.00
508.85	65535.00
509.03	65535.00
509.20	65535.00
509.38	65535.00
509.55	65535.00
509.73	65535.00
509.90	65535.00
510.08	65535.00
510.25	65535.00
510.42	65535.00
510.60	65535.00
510.77	65535.00
510.95	65535.00
511.12	65535.00
511.30	65535.00
511.47	65535.00
511.64	65535.00
511.82	65535.00
511.99	65535.00
512.17	65535.00
512.34	65535.00
512.51	65535.00
512.69	65535.00
512.86	65535.00
513.04	65535.00
513.21	65535.00
513.38	65535.00
513.56	65535.00
513.73	65535.00
513.90	65535.00
514.08	65535.00
514.25	65535.00
514.43	65535.00
514.60	65535.00
514.77	65535.00
514.95	65535.00
515.12	65535.00
515.29	65535.00
515.47	65535.00
515.64	65535.00
515.81	65535.00
515.99	65535.00
516.16	65535.00
516.33	65535.00
516.51	65535.00
516.68	65535.00
516.85	65535.00
517.03	65535.00
517.20	65535.00
517.37	65535.00
517.54	65535.00
517.72	65535.00
517.89	65535.00
518.06	65535.00
518.24	65535.00
518.41	65535.00
518.58	65535.00
518.75	65535.00
518.93	65535.00
519.10	65535.00
519.27	65535.00
519.45	65535.00
519.62	65535.00
519.79	65535.00
519.96	65535.00
520.14	65535.00
520.31	65535.00
520.48	65535.00
520.65	65535.00
520.83	65535.00
521.00	65535.00
521.17	65535.00
521.34	65535.00
521.52	65535.00
521.69	65535.00
521.86	65535.00
522.03	65535.00
522.20	65535.00
522.38	65535.00
522.55	65535.00
522.72	65535.00
522.89	65535.00
523.07	65535.00
523.24	65535.00
523.41	65535.00
523.58	65535.00
523.75	65535.00
523.92	65535.00
524.10	65535.00
524.27	65535.00
524.44	65535.00
524.61	65535.00
524.78	65535.00
524.96	65535.00
525.13	65535.00
525.30	65535.00
525.47	65535.00
525.64	65535.00
525.81	65535.00
525.98	65535.00
526.16	65535.00
526.33	65535.00
526.50	65535.00
526.67	65535.00
526.84	65535.00
527.01	65535.00
527.18	65535.00
527.36	65535.00
527.53	65535.00
527.70	65535.00
527.87	65535.00
528.04	65535.00
528.21	65535.00
528.38	65535.00
528.55	65535.00
528.72	65535.00
528.89	65535.00
529.07	65535.00
529.24	65535.00
529.41	65535.00
529.58	65535.00
529.75	65535.00
529.92	65535.00
530.09	65535.00
530.26	65535.00
530.43	65535.00
530.60	65535.00
530.77	65535.00
530.94	65535.00
531.11	65535.00
531.28	65535.00
531.46	65535.00
531.63	65535.00
531.80	65535.00
531.97	65535.00
532.14	65535.00
532.31	65535.00
532.48	65535.00
532.65	65535.00
532.82	65535.00
532.99	65535.00
533.16	65535.00
533.33	65535.00
533.50	65535.00
533.67	65535.00
533.84	65535.00
534.01	65535.00
534.18	65535.00
534.35	65535.00
534.52	65535.00
534.69	65535.00
534.86	65535.00
535.03	65535.00
535.20	65535.00
535.37	65535.00
535.54	65535.00
535.71	65535.00
535.88	65535.00
536.05	65535.00
536.22	65535.00
536.38	65535.00
536.55	65535.00
536.72	65535.00
536.89	65535.00
537.06	65535.00
537.23	65535.00
537.40	65535.00
537.57	65535.00
537.74	65535.00
537.91	65535.00
538.08	65535.00
538.25	65535.00
538.42	65535.00
538.59	65535.00
538.75	65535.00
538.92	65535.00
539.09	65535.00
539.26	65535.00
539.43	65535.00
539.60	65535.00
539.77	65535.00
539.94	65535.00
540.11	65535.00
540.28	65535.00
540.44	65535.00
540.61	65535.00
540.78	65535.00
540.95	65535.00
541.12	65535.00
541.29	65535.00
541.46	65535.00
541.62	65535.00
541.79	65535.00
541.96	65535.00
542.13	65535.00
542.30	65535.00
542.47	65535.00
542.63	65535.00
542.80	65535.00
542.97	65535.00
543.14	65535.00
543.31	65535.00
543.48	65535.00
543.64	65535.00
543.81	65535.00
543.98	65535.00
544.15	65535.00
544.32	65535.00
544.48	65535.00
544.65	65535.00
544.82	65535.00
544.99	65535.00
545.16	65535.00
545.32	65535.00
545.49	65535.00
545.66	65535.00
545.83	65535.00
546.00	65535.00
546.16	65535.00
546.33	65535.00
546.50	65535.00
546.67	65535.00
546.83	65535.00
547.00	65535.00
547.17	65535.00
547.34	65535.00
547.50	65535.00
547.67	65535.00
547.84	65535.00
548.00	65535.00
548.17	65535.00
548.34	65535.00
548.51	65535.00
548.67	65535.00
548.84	65535.00
549.01	65535.00
549.18	65535.00
549.34	65535.00
549.51	65535.00
549.68	65535.00
549.84	65535.00
550.01	65535.00
550.18	65535.00
550.34	65535.00
550.51	65535.00
550.68	65535.00
550.84	65535.00
551.01	65535.00
551.18	65535.00
551.34	65535.00
551.51	65535.00
551.68	65535.00
551.84	65535.00
552.01	65535.00
552.18	65535.00
552.34	65535.00
552.51	65535.00
552.68	65535.00
552.84	65535.00
553.01	65535.00
553.18	65535.00
553.34	65535.00
553.51	65535.00
553.67	65535.00
553.84	65535.00
554.01	65535.00
554.17	65535.00
554.34	65535.00
554.51	65535.00
554.67	65535.00
554.84	65535.00
555.00	65535.00
555.17	65535.00
555.33	65535.00
555.50	65535.00
555.67	65535.00
555.83	65535.00
556.00	65535.00
556.16	65535.00
556.33	65535.00
556.50	65535.00
556.66	65535.00
556.83	65535.00
556.99	65535.00
557.16	65535.00
557.32	65535.00
557.49	65535.00
557.65	65535.00
557.82	65535.00
557.98	65535.00
558.15	65535.00
558.32	65535.00
558.48	65535.00
558.65	65535.00
558.81	65535.00
558.98	65535.00
559.14	65535.00
559.31	65535.00
559.47	65535.00
559.64	65535.00
559.80	65535.00
559.97	65535.00
560.13	65535.00
560.30	65535.00
560.46	65535.00
560.63	65535.00
560.79	65535.00
560.96	65535.00
561.12	65535.00
561.29	65535.00
561.45	65535.00
561.61	65535.00
561.78	65535.00
561.94	65535.00
562.11	65535.00
562.27	65535.00
562.44	65535.00
562.60	65535.00
562.77	65535.00
562.93	65535.00
563.10	65535.00
563.26	65535.00
563.42	65535.00
563.59	65535.00
563.75	65535.00
563.92	65535.00
564.08	65535.00
564.24	65535.00
564.41	65535.00
564.57	65535.00
564.74	65535.00
564.90	65535.00
565.07	65535.00
565.23	65535.00
565.39	65535.00
565.56	65535.00
565.72	65535.00
565.88	65535.00
566.05	65535.00
566.21	65535.00
566.38	65535.00
566.54	65535.00
566.70	65535.00
566.87	65535.00
567.03	65535.00
567.19	65535.00
567.36	65535.00
567.52	65535.00
567.68	65535.00
567.85	65535.00
568.01	65535.00
568.17	65535.00
568.34	65535.00
568.50	65535.00
568.66	65535.00
568.83	65535.00
568.99	65535.00
569.15	65535.00
569.32	65535.00
569.48	65535.00
569.64	65535.00
569.81	65535.00
569.97	65535.00
570.13	65535.00
570.30	65535.00
570.46	65535.00
570.62	65535.00
570.78	65535.00
570.95	65535.00
571.11	65535.00
571.27	65535.00
571.43	65535.00
571.60	65535.00
571.76	65535.00
571.92	65535.00
572.09	65535.00
572.25	65535.00
572.41	65535.00
572.57	65535.00
572.74	65535.00
572.90	65535.00
573.06	65535.00
573.22	65535.00
573.38	65535.00
573.55	65535.00
573.71	65535.00
573.87	65535.00
574.03	65535.00
574.20	65535.00
574.36	65535.00
574.52	65535.00
574.68	65535.00
574.84	65535.00
575.01	65535.00
575.17	65535.00
575.33	65535.00
575.49	65535.00
575.65	65535.00
575.82	65535.00
575.98	65535.00
576.14	65535.00
576.30	65535.00
576.46	65535.00
576.62	65535.00
576.79	65535.00
576.95	65535.00
577.11	65535.00
577.27	65535.00
577.43	65535.00
577.59	65535.00
577.75	65535.00
577.92	65535.00
578.08	65535.00
578.24	65535.00
578.40	65535.00
578.56	65535.00
578.72	65535.00
578.88	65535.00
579.04	65535.00
579.21	65535.00
579.37	65535.00
579.53	65535.00
579.69	65535.00
579.85	65535.00
580.01	65535.00
580.17	65535.00
580.33	65535.00
580.49	65535.00
580.65	65535.00
580.82	65535.00
580.98	65535.00
581.14	65535.00
581.30	65535.00
581.46	65535.00
581.62	65535.00
581.78	65535.00
581.94	65535.00
582.10	65535.00
582.26	65535.00
582.42	65535.00
582.58	65535.00
582.74	65535.00
582.90	65535.00
583.06	65535.00
583.22	65535.00
583.38	65535.00
583.54	65535.00
583.70	65535.00
583.86	65535.00
584.02	65535.00
584.18	65535.00
584.34	65535.00
584.50	65535.00
584.66	65535.00
584.82	65535.00
584.98	65535.00
585.14	65535.00
585.30	65535.00
585.46	65535.00
585.62	65535.00
585.78	65535.00
585.94	65535.00
586.10	65535.00
586.26	65535.00
