SpectraSuite Data File
++++++++++++++++++++++++++++++++++++
Date: Thu Oct 24 13:21:06 EDT 2013
User: stostad
Dark Spectrum Present: No
Reference Spectrum Present: No
Number of Sampled Component Spectra: 1
Spectrometers: USB2+H05261
Integration Time (usec): 100000 (USB2+H05261)
Spectra Averaged: 1 (USB2+H05261)
Boxcar Smoothing: 0 (USB2+H05261)
Correct for Electrical Dark: No (USB2+H05261)
Strobe/Lamp Enabled: No (USB2+H05261)
Correct for Detector Non-linearity: No (USB2+H05261)
Correct for Stray Light: No (USB2+H05261)
Number of Pixels in Processed Spectrum: 2048
>>>>>Begin Processed Spectral Data<<<<<
365.73	566.41
365.92	566.41
366.12	566.41
366.32	491.51
366.52	470.45
366.72	428.32
366.91	524.28
367.11	465.77
367.31	425.98
367.51	442.36
367.70	482.15
367.90	414.27
368.10	449.38
368.30	465.77
368.49	383.85
368.69	517.26
368.89	507.90
369.09	465.77
369.28	500.87
369.48	491.51
369.68	531.30
369.87	512.58
370.07	491.51
370.27	573.43
370.47	634.29
370.66	664.71
370.86	695.14
371.06	763.01
371.25	809.83
371.45	716.20
371.65	706.84
371.84	793.44
372.04	734.93
372.24	763.01
372.44	734.93
372.63	816.85
372.83	763.01
373.03	755.99
373.22	774.72
373.42	751.31
373.62	844.93
373.81	793.44
374.01	837.91
374.21	828.55
374.40	823.87
374.60	849.61
374.79	842.59
374.99	868.34
375.19	802.80
375.38	821.53
375.58	880.04
375.78	816.85
375.97	837.91
376.17	821.53
376.37	779.40
376.56	842.59
376.76	763.01
376.95	805.14
377.15	802.80
377.35	835.57
377.54	854.30
377.74	833.23
377.93	856.64
378.13	828.55
378.33	875.36
378.52	835.57
378.72	938.55
378.91	847.27
379.11	828.55
379.31	912.81
379.50	812.17
379.70	842.59
379.89	791.10
380.09	826.21
380.28	833.23
380.48	849.61
380.68	870.68
380.87	826.21
381.07	849.61
381.26	870.68
381.46	898.77
381.65	830.89
381.85	835.57
382.04	875.36
382.24	849.61
382.43	828.55
382.63	908.13
382.83	910.47
383.02	887.06
383.22	910.47
383.41	947.92
383.61	912.81
383.80	863.66
384.00	837.91
384.19	847.27
384.39	933.87
384.58	926.85
384.78	919.83
384.97	947.92
385.17	922.17
385.36	945.58
385.56	971.32
385.75	884.72
385.95	880.04
386.14	936.21
386.34	990.05
386.53	947.92
386.72	961.96
386.92	971.32
387.11	980.68
387.31	957.28
387.50	894.08
387.70	866.00
387.89	959.62
388.09	971.32
388.28	947.92
388.48	947.92
388.67	1039.20
388.86	1027.50
389.06	940.90
389.25	1053.24
389.45	973.66
389.64	938.55
389.84	1022.81
390.03	952.60
390.22	1043.88
390.42	952.60
390.61	933.87
390.81	938.55
391.00	1029.84
391.19	1022.81
391.39	1036.86
391.58	987.71
391.78	1015.79
391.97	1081.33
392.16	1050.90
392.36	1067.28
392.55	1032.18
392.75	983.02
392.94	1064.94
393.13	1036.86
393.33	994.73
393.52	1041.54
393.71	1090.69
393.91	1057.92
394.10	1018.13
394.29	1123.46
394.49	1069.62
394.68	1130.48
394.88	1111.75
395.07	1083.67
395.26	1156.22
395.46	1011.11
395.65	1107.07
395.84	1081.33
396.04	1165.59
396.23	1146.86
396.42	1090.69
396.62	1158.57
396.81	1109.41
397.00	1139.84
397.19	1224.10
397.39	1184.31
397.58	1102.39
397.77	1170.27
397.97	1146.86
398.16	1172.61
398.35	1238.14
398.55	1107.07
398.74	1188.99
398.93	1200.69
399.12	1125.80
399.32	1153.88
399.51	1217.08
399.70	1181.97
399.90	1177.29
400.09	1188.99
400.28	1277.93
400.47	1299.00
400.67	1282.61
400.86	1200.69
401.05	1174.95
401.24	1235.80
401.44	1322.40
401.63	1238.14
401.82	1256.87
402.01	1259.21
402.21	1322.40
402.40	1324.74
402.59	1299.00
402.78	1294.32
402.97	1313.04
403.17	1355.17
403.36	1387.94
403.55	1338.79
403.74	1345.81
403.93	1324.74
404.13	1399.64
404.32	1390.28
404.51	1350.49
404.70	1373.89
404.89	1362.19
405.09	1453.47
405.28	1486.24
405.47	1406.66
405.66	1516.67
405.85	1465.18
406.05	1404.32
406.24	1500.28
406.43	1420.71
406.62	1533.05
406.81	1542.41
407.00	1458.15
407.20	1479.22
407.39	1472.20
407.58	1586.88
407.77	1479.22
407.96	1514.33
408.15	1493.26
408.34	1528.37
408.54	1533.05
408.73	1565.82
408.92	1544.75
409.11	1509.65
409.30	1561.14
409.49	1614.97
409.68	1675.82
409.87	1673.48
410.07	1666.46
410.26	1673.48
410.45	1694.55
410.64	1619.65
410.83	1706.25
411.02	1657.10
411.21	1682.85
411.40	1680.50
411.59	1692.21
411.78	1703.91
411.98	1720.29
412.17	1764.76
412.36	1778.81
412.55	1778.81
412.74	1717.95
412.93	1849.02
413.12	1778.81
413.31	1799.87
413.50	1870.09
413.69	1769.44
413.88	1797.53
414.07	1834.98
414.26	1867.75
414.45	1886.47
414.64	1860.73
414.83	1837.32
415.02	1907.54
415.22	1907.54
415.41	1930.94
415.60	1877.11
415.79	2008.18
415.98	2012.86
416.17	2008.18
416.36	1998.82
416.55	1952.01
416.74	2069.03
416.93	1998.82
417.12	2022.22
417.31	2033.93
417.50	2045.63
417.69	2059.67
417.88	2010.52
418.07	2001.16
418.26	2078.40
418.45	2101.80
418.64	2127.55
418.83	2200.10
419.02	2204.78
419.21	2181.38
419.39	2111.16
419.58	2101.80
419.77	2230.53
419.96	2202.44
420.15	2239.89
420.34	2101.80
420.53	2230.53
420.72	2239.89
420.91	2204.78
421.10	2300.75
421.29	2272.66
421.48	2401.39
421.67	2153.29
421.86	2296.07
422.05	2305.43
422.24	2256.28
422.43	2305.43
422.61	2300.75
422.80	2340.54
422.99	2314.79
423.18	2370.96
423.37	2338.20
423.56	2293.72
423.75	2347.56
423.94	2275.00
424.13	2176.70
424.32	2165.00
424.50	2410.75
424.69	2420.11
424.88	2317.13
425.07	2387.35
425.26	2312.45
425.45	2394.37
425.64	2328.83
425.83	2256.28
426.01	2431.82
426.20	2370.96
426.39	2370.96
426.58	2333.51
426.77	2342.88
426.96	2370.96
427.15	2506.71
427.33	2445.86
427.52	2450.54
427.71	2406.07
427.90	2511.39
428.09	2422.45
428.28	2516.08
428.46	2459.90
428.65	2504.37
428.84	2464.58
429.03	2551.18
429.22	2523.10
429.40	2499.69
429.59	2466.92
429.78	2497.35
429.97	2509.05
430.16	2525.44
430.34	2562.89
430.53	2583.95
430.72	2600.34
430.91	2506.71
431.10	2553.52
431.28	2621.40
431.47	2506.71
431.66	2764.17
431.85	2644.81
432.03	2558.21
432.22	2803.96
432.41	2747.79
432.60	2698.64
432.79	2747.79
432.97	2691.62
433.16	2693.96
433.35	2780.56
433.54	2841.41
433.72	2698.64
433.91	2782.90
434.10	2708.00
434.28	2654.17
434.47	2736.09
434.66	2925.67
434.85	2771.19
435.03	3042.70
435.22	3133.98
435.41	3288.45
435.59	3166.74
435.78	3084.83
435.97	2984.18
436.16	2942.05
436.34	2860.13
436.53	3012.27
436.72	2974.82
436.90	2738.43
437.09	2913.97
437.28	2867.16
437.46	2920.99
437.65	2965.46
437.84	2988.86
438.02	2918.65
438.21	3049.72
438.40	2951.42
438.58	3052.06
438.77	3035.67
438.96	3047.38
439.14	3126.96
439.33	3066.10
439.52	3054.40
439.70	3129.30
439.89	3136.32
440.08	3159.72
440.26	3243.98
440.45	3201.85
440.63	3258.03
440.82	3318.88
441.01	3307.18
441.19	3375.05
441.38	3323.56
441.57	3421.86
441.75	3342.28
441.94	3447.61
442.12	3389.10
442.31	3454.63
442.50	3407.82
442.68	3300.16
442.87	3410.16
443.05	3346.97
443.24	3478.04
443.43	3431.23
443.61	3503.78
443.80	3543.57
443.98	3480.38
444.17	3428.88
444.35	3559.95
444.54	3576.34
444.73	3487.40
444.91	3604.42
445.10	3531.87
445.28	3534.21
445.47	3599.74
445.65	3487.40
445.84	3627.83
446.02	3574.00
446.21	3529.53
446.39	3452.29
446.58	3646.55
446.77	3583.36
446.95	3520.17
447.14	3616.13
447.32	3550.59
447.51	3494.42
447.69	3543.57
447.88	3590.38
448.06	3524.85
448.25	3550.59
448.43	3676.98
448.62	3655.92
448.80	3529.53
448.99	3637.19
449.17	3761.24
449.36	3597.40
449.54	3843.16
449.73	3908.69
449.91	3698.05
450.10	3744.86
450.28	3854.86
450.46	3859.54
450.65	3772.94
450.83	3777.62
451.02	3768.26
451.20	3803.37
451.39	3669.96
451.57	3873.59
451.76	3913.38
451.94	3772.94
452.13	3850.18
452.31	3950.82
452.49	3859.54
452.68	3882.95
452.86	3901.67
453.05	4032.74
453.23	3918.06
453.42	3826.78
453.60	3850.18
453.78	3978.91
453.97	3796.35
454.15	3953.16
454.34	3850.18
454.52	4049.13
454.70	3925.08
454.89	3901.67
455.07	4058.49
455.26	4037.42
455.44	4147.43
455.62	4051.47
455.81	3992.95
455.99	4109.98
456.17	4175.52
456.36	4231.69
456.54	4187.22
456.73	4131.05
456.91	4257.43
457.09	4149.77
457.28	4294.88
457.46	4269.14
457.64	4184.88
457.83	4329.99
458.01	4182.54
458.19	4161.47
458.38	4208.28
458.56	4376.80
458.74	4278.50
458.93	4334.67
459.11	4341.69
459.29	4383.82
459.48	4521.92
459.66	4454.04
459.84	4423.61
460.03	4535.96
460.21	4479.79
460.39	4489.15
460.57	4542.98
460.76	4482.13
460.94	4514.89
461.12	4648.30
461.31	4444.68
461.49	4528.94
461.67	4573.41
461.85	4695.11
462.04	4521.92
462.22	4856.61
462.40	4606.17
462.59	4517.23
462.77	4685.75
462.95	4652.98
463.13	4725.54
463.32	4683.41
463.50	4699.80
463.68	4891.72
463.86	4727.88
464.05	4748.95
464.23	4676.39
464.41	4781.71
464.59	4624.90
464.78	4924.49
464.96	4807.46
465.14	4716.18
465.32	4772.35
465.50	4709.16
465.69	4891.72
465.87	4861.29
466.05	4891.72
466.23	4868.31
466.41	4723.20
466.60	4870.65
466.78	4823.84
466.96	4915.12
467.14	4990.02
467.32	4854.27
467.51	5074.28
467.69	4940.87
467.87	4947.89
468.05	5048.54
468.23	4922.15
468.41	4793.42
468.60	5118.75
468.78	4912.78
468.96	4924.49
469.14	5093.01
469.32	5118.75
469.50	4957.25
469.69	5062.58
469.87	4978.32
470.05	5139.82
470.23	5313.02
470.41	5259.18
470.59	5261.52
470.77	5210.03
470.95	5186.63
471.14	5376.21
471.32	5085.98
471.50	5366.85
471.68	5305.99
471.86	5228.76
472.04	5341.10
472.22	5324.72
472.40	5413.66
472.58	5305.99
472.77	5341.10
472.95	5479.19
473.13	5699.20
473.31	5399.62
473.49	5619.63
473.67	5537.71
473.85	5490.90
474.03	5738.99
474.21	5678.14
474.39	5872.40
474.57	5771.76
474.75	5856.02
474.93	5682.82
475.12	5844.32
475.30	5764.74
475.48	5708.57
475.66	5891.13
475.84	5877.09
476.02	6019.86
476.20	5851.34
476.38	6069.01
476.56	6132.20
476.74	6162.63
476.92	6015.18
477.10	6146.25
477.28	6167.31
477.46	6279.66
477.64	6148.59
477.82	6232.85
478.00	6487.96
478.18	6441.15
478.36	6464.56
478.54	6492.65
478.72	6384.98
478.90	6707.98
479.08	6604.99
479.26	6768.83
479.44	6621.38
479.62	6864.79
479.80	6803.94
479.98	6932.67
480.16	7021.61
480.34	6899.90
480.52	7066.08
480.70	6956.07
480.88	6876.49
481.06	6967.77
481.24	7112.89
481.41	7225.23
481.59	7288.43
481.77	7328.22
481.95	7475.67
482.13	7435.88
482.31	7494.40
482.49	7531.84
482.67	7407.80
482.85	7431.20
483.03	7559.93
483.21	7913.35
483.39	7833.77
483.57	7845.48
483.74	7712.07
483.92	7887.61
484.10	7983.57
484.28	7969.52
484.46	8016.33
484.64	8379.12
484.82	8088.89
485.00	8360.39
485.18	8498.49
485.35	8526.57
485.53	8372.10
485.71	8442.31
485.89	8751.26
486.07	8671.68
486.25	8912.76
486.43	8732.54
486.61	8847.22
486.78	8985.32
486.96	9032.13
487.14	9266.18
487.32	9004.04
487.50	8919.78
487.68	9256.82
487.85	9188.94
488.03	9483.85
488.21	9561.09
488.39	9430.02
488.57	9603.22
488.75	9551.73
488.92	9533.00
489.10	9745.99
489.28	9788.12
489.46	9891.10
489.64	9797.48
489.81	10136.86
489.99	9937.91
490.17	10120.48
490.35	10260.91
490.53	10338.15
490.70	10279.63
490.88	10270.27
491.06	10560.50
491.24	10614.33
491.41	10452.83
491.59	10602.63
491.77	10724.33
491.95	10602.63
492.13	10649.44
492.30	10932.64
492.48	10927.96
492.66	10930.30
492.84	10981.79
493.01	11002.86
493.19	11129.25
493.37	11133.93
493.54	11159.67
493.72	11180.74
493.90	11302.45
494.08	11297.77
494.25	11690.98
494.43	11686.29
494.61	11438.20
494.79	11573.95
494.96	11641.82
495.14	11726.08
495.32	11861.84
495.49	11850.13
495.67	12074.82
495.85	12030.35
496.02	12081.85
496.20	12203.55
496.38	12348.67
496.55	12142.70
496.73	12388.46
496.91	12549.95
497.09	12580.38
497.26	12432.93
497.44	12241.00
497.62	12512.50
497.79	12840.18
497.97	12493.78
498.14	12952.52
498.32	13116.36
498.50	12908.05
498.67	13348.08
498.85	12744.22
499.03	12968.91
499.20	12688.04
499.38	13116.36
499.56	13097.64
499.73	13310.63
499.91	13352.76
500.08	13420.63
500.26	13329.35
500.44	13404.25
500.61	13657.03
500.79	13327.01
500.97	13617.24
501.14	13816.18
501.32	13877.04
501.49	13437.02
501.67	13575.11
501.84	13696.82
502.02	13607.87
502.20	13888.74
502.37	13823.20
502.55	13977.68
502.72	13895.76
502.90	13965.98
503.07	14031.51
503.25	13984.70
503.43	14031.51
503.60	13989.38
503.78	14359.19
503.95	14146.20
504.13	14539.41
504.30	14424.72
504.48	14197.69
504.65	14572.18
504.83	14583.88
505.01	14860.06
505.18	14743.03
505.36	14939.64
505.53	14569.83
505.71	14871.76
505.88	14597.92
506.06	14958.36
506.23	14827.29
506.41	14913.89
506.58	14937.30
506.76	14941.98
506.93	15147.95
507.11	14871.76
507.28	15180.71
507.46	15262.63
507.63	15234.55
507.81	15178.37
507.98	15246.25
508.16	15506.05
508.33	15431.15
508.50	15304.76
508.68	15644.14
508.85	15740.10
509.03	15627.76
509.20	15690.95
509.38	15606.69
509.55	15475.62
509.73	15805.64
509.90	16116.93
510.08	15653.50
510.25	16013.95
510.42	15873.51
510.60	15943.73
510.77	15894.58
510.95	16112.25
511.12	16168.42
511.30	16152.04
511.47	16271.40
511.64	16322.90
511.82	16355.66
511.99	16388.43
512.17	16369.71
512.34	16313.53
512.51	16369.71
512.69	16692.70
512.86	16484.39
513.04	16643.55
513.21	16559.29
513.38	16393.11
513.56	16526.52
513.73	16800.37
513.90	16854.20
514.08	16795.68
514.25	16877.60
514.43	17097.61
514.60	16924.41
514.77	16795.68
514.95	17060.16
515.12	16800.37
515.29	17287.20
515.47	17233.36
515.64	17455.72
515.81	17249.75
515.99	17165.49
516.16	17460.40
516.33	17224.00
516.51	17408.90
516.68	17324.65
516.85	17317.62
517.03	17488.48
517.20	17490.82
517.37	17315.28
517.54	17394.86
517.72	17462.74
517.89	17619.55
518.06	17748.28
518.24	17862.97
518.41	17759.98
518.58	17685.09
518.75	17376.14
518.93	17797.43
519.10	17373.80
519.27	17909.78
519.45	17542.32
519.62	17752.96
519.79	18108.72
519.96	18075.96
520.14	18031.49
520.31	17958.93
520.48	18003.40
520.65	18164.90
520.83	18293.63
521.00	18459.81
521.17	17975.31
521.34	18312.35
521.52	18136.81
521.69	18307.67
521.86	18455.12
522.03	18403.63
522.20	18288.95
522.38	18326.39
522.55	18883.44
522.72	18567.47
522.89	18377.89
523.07	18443.42
523.24	18728.97
523.41	18958.34
523.58	18743.01
523.75	19087.07
523.92	18948.98
524.10	18841.31
524.27	19190.05
524.44	18700.88
524.61	19234.52
524.78	18771.10
524.96	19047.28
525.13	19073.03
525.30	19253.25
525.47	19164.31
525.64	19035.58
525.81	19225.16
525.98	19260.27
526.16	19147.92
526.33	19187.71
526.50	19440.49
526.67	19199.41
526.84	19351.55
527.01	19419.42
527.18	19623.05
527.36	19618.37
527.53	19269.63
527.70	19775.19
527.87	19559.86
528.04	19665.18
528.21	19873.49
528.38	19878.17
528.55	19529.43
528.72	19672.20
528.89	19447.51
529.07	19721.35
529.24	19534.11
529.41	20126.27
529.58	19929.66
529.75	20336.91
529.92	19946.05
530.09	19817.32
530.26	20161.37
530.43	19697.95
530.60	19707.31
530.77	19981.15
530.94	20418.83
531.11	20292.44
531.28	20060.73
531.46	20327.55
531.63	20006.90
531.80	20315.85
531.97	20463.30
532.14	20306.49
532.31	20386.07
532.48	20264.36
532.65	20610.76
532.82	20318.19
532.99	20482.03
533.16	20226.91
533.33	20416.49
533.50	20643.52
533.67	20695.02
533.84	20217.55
534.01	20416.49
534.18	20390.75
534.35	20793.32
534.52	20772.25
534.69	21219.30
534.86	20690.34
535.03	20475.01
535.20	20744.17
535.37	20980.56
535.54	21057.80
535.71	20985.24
535.88	21039.08
536.05	20842.47
536.22	21015.67
536.38	21010.99
536.55	21235.68
536.72	21301.22
536.89	20891.62
537.06	21357.39
537.23	21104.61
537.40	21174.83
537.57	21003.97
537.74	21345.69
537.91	21366.75
538.08	21106.95
538.25	21167.80
538.42	21439.31
538.59	21542.29
538.75	21242.70
538.92	21362.07
539.09	21706.13
539.26	21296.53
539.43	21373.77
539.60	21371.43
539.77	21392.50
539.94	21635.91
540.11	21827.84
540.28	21701.45
540.44	21654.64
540.61	21874.65
540.78	21549.31
540.95	21621.87
541.12	21874.65
541.29	22242.11
541.46	22391.91
541.62	22396.59
541.79	22335.73
541.96	22075.93
542.13	22286.58
542.30	22094.66
542.47	22389.56
542.63	22298.28
542.80	22394.25
542.97	23353.87
543.14	22944.27
543.31	22960.66
543.48	22930.23
543.64	22876.40
543.81	22665.75
543.98	22829.59
544.15	22312.33
544.32	22644.68
544.48	22944.27
544.65	22827.24
544.82	22689.15
544.99	22759.37
545.16	22773.41
545.32	22920.87
545.49	23487.28
545.66	23573.88
545.83	23843.04
546.00	23693.24
546.16	23271.95
546.33	23131.51
546.50	23000.44
546.67	22965.34
546.83	22693.83
547.00	22771.07
547.17	22803.84
547.34	23028.53
547.50	23119.81
547.67	23094.07
547.84	23178.33
548.00	23138.54
548.17	23133.86
548.34	23227.48
548.51	23105.77
548.67	22918.53
548.84	23431.10
549.01	22951.29
549.18	23414.72
549.34	22864.69
549.51	23438.12
549.68	23271.95
549.84	23056.62
550.01	23096.41
550.18	23197.05
550.34	22845.97
550.51	23227.48
550.68	23372.59
550.84	23110.45
551.01	23115.13
551.18	23002.78
551.34	23126.83
551.51	23143.22
551.68	22890.44
551.84	22998.10
552.01	23194.71
552.18	23344.50
552.34	23213.43
552.51	23569.19
552.68	23229.82
552.84	23297.69
553.01	23569.19
553.18	23564.51
553.34	23674.52
553.51	23164.28
553.67	23463.87
553.84	23967.09
554.01	23601.96
554.17	23583.24
554.34	23737.71
554.51	23634.73
554.67	24049.00
554.84	23606.64
555.00	23765.80
555.17	23590.26
555.33	23651.11
555.50	23597.28
555.67	23550.47
555.83	23461.53
556.00	23618.35
556.16	23756.44
556.33	23784.52
556.50	23456.85
556.66	23765.80
556.83	23541.11
556.99	23545.79
557.16	24341.57
557.32	23716.65
557.49	24070.07
557.65	23737.71
557.82	23796.23
557.98	23531.75
558.15	23646.43
558.32	23770.48
558.48	23850.06
558.65	23887.51
558.81	24032.62
558.98	24084.11
559.14	23798.57
559.31	23711.97
559.47	24009.22
559.64	23817.29
559.80	24166.03
559.97	24018.58
560.13	23601.96
560.30	23798.57
560.46	24011.56
560.63	23988.15
560.79	23653.45
560.96	24142.63
561.12	23559.83
561.29	23763.46
561.45	24100.50
561.61	24175.39
561.78	23899.21
561.94	24121.56
562.11	24512.43
562.27	24266.67
562.44	24320.51
562.60	24020.92
562.77	24210.50
562.93	24166.03
563.10	24205.82
563.26	24102.84
563.42	24482.00
563.59	24128.58
563.75	24339.23
563.92	24601.37
564.08	24549.88
564.24	24084.11
564.41	24252.63
564.57	24311.14
564.74	24334.55
564.90	24243.27
565.07	24236.25
565.23	24584.99
565.39	24512.43
565.56	24362.64
565.72	24369.66
565.88	24151.99
566.05	24116.88
566.21	24269.01
566.38	24474.98
566.54	24346.25
566.70	24687.97
566.87	24512.43
567.03	24449.24
567.19	24891.60
567.36	24582.65
567.52	24451.58
567.68	24318.17
567.85	24404.77
568.01	24617.75
568.17	24163.69
568.34	24381.36
568.50	24166.03
568.66	24280.72
568.83	24505.41
568.99	24659.88
569.15	24212.84
569.32	24535.84
569.48	24666.91
569.64	24280.72
569.81	24320.51
569.97	24575.62
570.13	24575.62
570.30	24526.47
570.46	24503.07
570.62	24306.46
570.78	24273.70
570.95	24393.06
571.11	24615.41
571.27	24741.80
571.43	24449.24
571.60	24517.11
571.76	24393.06
571.92	24716.06
572.09	24734.78
572.25	24659.88
572.41	24655.20
572.57	24861.17
572.74	24725.42
572.90	24254.97
573.06	24994.58
573.22	24772.23
573.38	24865.85
573.55	24379.02
573.71	25106.93
573.87	24589.67
574.03	24727.76
574.20	24840.11
574.36	24545.20
574.52	24467.96
574.68	24753.51
574.84	24680.95
575.01	24865.85
575.17	24849.47
575.33	24589.67
575.49	24823.72
575.65	25029.69
575.82	24985.22
575.98	24805.00
576.14	25008.62
576.30	24800.32
576.46	24861.17
576.62	24835.42
576.79	24159.01
576.95	24666.91
577.11	24711.38
577.27	24795.64
577.43	24980.54
577.59	24491.37
577.75	24687.97
577.92	24725.42
578.08	24725.42
578.24	24577.97
578.40	25336.30
578.56	24814.36
578.72	25015.65
578.88	25151.40
579.04	25022.67
579.21	25097.56
579.37	25076.50
579.53	25401.83
579.69	24732.44
579.85	25006.28
580.01	25015.65
580.17	24922.02
580.33	24493.71
580.49	24872.87
580.65	24912.66
580.82	24669.25
580.98	24805.00
581.14	25317.57
581.30	24975.86
581.46	24727.76
581.62	24737.12
581.78	24790.95
581.94	24980.54
582.10	24924.36
582.26	25132.67
582.42	24889.26
582.58	24704.35
582.74	24795.64
582.90	25315.23
583.06	25015.65
583.22	24856.49
583.38	25053.09
583.54	24680.95
583.70	24730.10
583.86	25207.57
584.02	24814.36
584.18	24847.13
584.34	24833.08
584.50	24891.60
584.66	24973.52
584.82	24879.89
584.98	24814.36
585.14	25132.67
585.30	24943.09
585.46	24959.47
585.62	24697.33
585.78	24950.11
585.94	24720.74
586.10	24854.15
586.26	25514.18
586.42	25195.87
586.58	25029.69
586.74	24982.88
586.90	24945.43
587.06	25048.41
587.22	25638.23
587.38	24849.47
587.54	25226.29
587.70	25060.12
587.86	25102.25
588.02	25074.16
588.18	25113.95
588.34	25200.55
588.49	24968.84
588.65	24877.55
588.81	25167.78
588.97	25064.80
589.13	25022.67
589.29	24882.24
589.45	25223.95
589.61	25394.81
589.77	25160.76
589.93	25081.18
590.08	25156.08
590.24	25273.10
590.40	25223.95
590.56	25055.43
590.72	25184.16
590.88	24868.19
