SpectraSuite Data File
++++++++++++++++++++++++++++++++++++
Date: Thu Oct 24 13:21:14 EDT 2013
User: stostad
Dark Spectrum Present: No
Reference Spectrum Present: No
Number of Sampled Component Spectra: 1
Spectrometers: USB2+H05261
Integration Time (usec): 100000 (USB2+H05261)
Spectra Averaged: 1 (USB2+H05261)
Boxcar Smoothing: 0 (USB2+H05261)
Correct for Electrical Dark: No (USB2+H05261)
Strobe/Lamp Enabled: No (USB2+H05261)
Correct for Detector Non-linearity: No (USB2+H05261)
Correct for Stray Light: No (USB2+H05261)
Number of Pixels in Processed Spectrum: 2048
>>>>>Begin Processed Spectral Data<<<<<
365.73	557.05
365.92	557.05
366.12	557.05
366.32	482.15
366.52	500.87
366.72	519.60
366.91	407.25
367.11	472.79
367.31	409.59
367.51	475.13
367.70	533.64
367.90	524.28
368.10	503.22
368.30	435.34
368.49	484.49
368.69	486.83
368.89	491.51
369.09	486.83
369.28	545.34
369.48	404.91
369.68	533.64
369.87	573.43
370.07	531.30
370.27	540.66
370.47	524.28
370.66	706.84
370.86	713.86
371.06	711.52
371.25	690.46
371.45	725.57
371.65	786.42
371.84	727.91
372.04	770.04
372.24	854.30
372.44	809.83
372.63	849.61
372.83	786.42
373.03	800.46
373.22	777.06
373.42	791.10
373.62	828.55
373.81	809.83
374.01	784.08
374.21	866.00
374.40	802.80
374.60	882.38
374.79	847.27
374.99	847.27
375.19	858.98
375.38	786.42
375.58	905.79
375.78	908.13
375.97	880.04
376.17	805.14
376.37	894.08
376.56	912.81
376.76	924.51
376.95	837.91
377.15	910.47
377.35	905.79
377.54	793.44
377.74	917.49
377.93	830.89
378.13	835.57
378.33	873.02
378.52	802.80
378.72	791.10
378.91	891.74
379.11	931.53
379.31	873.02
379.50	870.68
379.70	912.81
379.89	880.04
380.09	821.53
380.28	952.60
380.48	940.90
380.68	915.15
380.87	992.39
381.07	933.87
381.26	898.77
381.46	922.17
381.65	929.19
381.85	976.00
382.04	940.90
382.24	919.83
382.43	947.92
382.63	926.85
382.83	938.55
383.02	973.66
383.22	994.73
383.41	957.28
383.61	884.72
383.80	961.96
384.00	952.60
384.19	957.28
384.39	966.64
384.58	1008.77
384.78	964.30
384.97	1029.84
385.17	968.98
385.36	1048.56
385.56	947.92
385.75	910.47
385.95	987.71
386.14	1046.22
386.34	1036.86
386.53	1015.79
386.72	1015.79
386.92	964.30
387.11	1004.09
387.31	910.47
387.50	994.73
387.70	1004.09
387.89	1053.24
388.09	1020.47
388.28	1107.07
388.48	1048.56
388.67	1018.13
388.86	1046.22
389.06	954.94
389.25	1027.50
389.45	1097.71
389.64	1015.79
389.84	1086.01
390.03	1086.01
390.22	1020.47
390.42	1067.28
390.61	931.53
390.81	1093.03
391.00	1081.33
391.19	1170.27
391.39	1107.07
391.58	1151.54
391.78	1060.26
391.97	1102.39
392.16	1071.97
392.36	1156.22
392.55	1111.75
392.75	1163.25
392.94	1069.62
393.13	1137.50
393.33	1116.44
393.52	1163.25
393.71	1151.54
393.91	1123.46
394.10	1163.25
394.29	1198.35
394.49	1191.33
394.68	1210.06
394.88	1137.50
395.07	1210.06
395.26	1151.54
395.46	1132.82
395.65	1137.50
395.84	1179.63
396.04	1245.16
396.23	1238.14
396.42	1245.16
396.62	1336.45
396.81	1146.86
397.00	1249.85
397.19	1184.31
397.39	1179.63
397.58	1261.55
397.77	1348.15
397.97	1179.63
398.16	1235.80
398.35	1313.04
398.55	1277.93
398.74	1331.76
398.93	1308.36
399.12	1322.40
399.32	1277.93
399.51	1366.87
399.70	1219.42
399.90	1296.66
400.09	1273.25
400.28	1329.42
400.47	1303.68
400.67	1350.49
400.86	1362.19
401.05	1420.71
401.24	1357.51
401.44	1336.45
401.63	1448.79
401.82	1406.66
402.01	1411.34
402.21	1423.05
402.40	1528.37
402.59	1420.71
402.78	1376.24
402.97	1418.36
403.17	1495.60
403.36	1444.11
403.55	1486.24
403.74	1584.54
403.93	1570.50
404.13	1554.12
404.32	1600.93
404.51	1521.35
404.70	1502.62
404.89	1535.39
405.09	1558.80
405.28	1500.28
405.47	1528.37
405.66	1598.59
405.85	1568.16
406.05	1617.31
406.24	1572.84
406.43	1710.93
406.62	1694.55
406.81	1605.61
407.00	1570.50
407.20	1621.99
407.39	1638.38
407.58	1650.08
407.77	1720.29
407.96	1781.15
408.15	1689.87
408.34	1652.42
408.54	1664.12
408.73	1732.00
408.92	1724.97
409.11	1748.38
409.30	1746.04
409.49	1863.07
409.68	1870.09
409.87	1799.87
410.07	1827.96
410.26	1771.79
410.45	1720.29
410.64	1905.20
410.83	1884.13
411.02	1825.62
411.21	1844.34
411.40	1846.68
411.59	1877.11
411.78	1867.75
411.98	1902.86
412.17	1963.71
412.36	1919.24
412.55	1994.14
412.74	1987.11
412.93	1987.11
413.12	1987.11
413.31	2062.01
413.50	2003.50
413.69	2071.37
413.88	2083.08
414.07	2183.72
414.26	2132.23
414.45	2085.42
414.64	2083.08
414.83	2150.95
415.02	2211.81
415.22	2260.96
415.41	2108.82
415.60	2289.04
415.79	2289.04
415.98	2253.94
416.17	2232.87
416.36	2305.43
416.55	2263.30
416.74	2267.98
416.93	2293.72
417.12	2385.01
417.31	2300.75
417.50	2352.24
417.69	2345.22
417.88	2438.84
418.07	2366.28
418.26	2345.22
418.45	2387.35
418.64	2424.80
418.83	2476.29
419.02	2448.20
419.21	2506.71
419.39	2441.18
419.58	2478.63
419.77	2476.29
419.96	2546.50
420.15	2455.22
420.34	2476.29
420.53	2513.74
420.72	2560.55
420.91	2518.42
421.10	2504.37
421.29	2616.72
421.48	2647.15
421.67	2516.08
421.86	2576.93
422.05	2630.76
422.24	2626.08
422.43	2651.83
422.61	2593.31
422.80	2703.32
422.99	2724.38
423.18	2778.22
423.37	2712.68
423.56	2614.38
423.75	2628.42
423.94	2691.62
424.13	2548.84
424.32	2661.19
424.50	2686.94
424.69	2654.17
424.88	2710.34
425.07	2717.36
425.26	2789.92
425.45	2715.02
425.64	2705.66
425.83	2640.12
426.01	2609.70
426.20	2724.38
426.39	2803.96
426.58	2729.06
426.77	2712.68
426.96	2789.92
427.15	2867.16
427.33	2789.92
427.52	2661.19
427.71	2778.22
427.90	2796.94
428.09	2799.28
428.28	2832.05
428.46	2832.05
428.65	2792.26
428.84	2946.73
429.03	2860.13
429.22	2836.73
429.40	2946.73
429.59	2930.35
429.78	2925.67
429.97	2918.65
430.16	2904.60
430.34	2939.71
430.53	3035.67
430.72	2958.44
430.91	3059.08
431.10	2956.10
431.28	3056.74
431.47	2981.84
431.66	3030.99
431.85	3080.14
432.03	3091.85
432.22	3187.81
432.41	3063.76
432.60	3138.66
432.79	3084.83
432.97	3145.68
433.16	3199.51
433.35	3087.17
433.54	3201.85
433.72	3204.19
433.91	3141.00
434.10	3199.51
434.28	3110.57
434.47	3239.30
434.66	3325.90
434.85	3323.56
435.03	3386.76
435.22	3630.17
435.41	3644.21
435.59	3595.06
435.78	3602.08
435.97	3524.85
436.16	3496.76
436.34	3332.92
436.53	3325.90
436.72	3335.26
436.90	3323.56
437.09	3428.88
437.28	3295.47
437.46	3307.18
437.65	3421.86
437.84	3602.08
438.02	3522.51
438.21	3396.12
438.40	3389.10
438.58	3559.95
438.77	3627.83
438.96	3566.98
439.14	3709.75
439.33	3733.15
439.52	3604.42
439.70	3674.64
439.89	3658.26
440.08	3791.67
440.26	3721.45
440.45	3698.05
440.63	3859.54
440.82	3899.33
441.01	3894.65
441.19	3887.63
441.38	3892.31
441.57	3824.44
441.75	3801.03
441.94	3913.38
442.12	4004.66
442.31	3941.46
442.50	3964.87
442.68	4009.34
442.87	3908.69
443.05	3962.53
443.24	3995.29
443.43	4063.17
443.61	4102.96
443.80	4180.20
443.98	4028.06
444.17	3887.63
444.35	3983.59
444.54	4196.58
444.73	4058.49
444.91	4205.94
445.10	4166.15
445.28	4135.73
445.47	4037.42
445.65	4117.00
445.84	4093.60
446.02	4177.86
446.21	4074.87
446.39	4203.60
446.58	4114.66
446.77	4273.82
446.95	4166.15
447.14	4236.37
447.32	4257.43
447.51	4248.07
447.69	4159.13
447.88	4229.35
448.06	4156.79
448.25	4095.94
448.43	4194.24
448.62	4189.56
448.80	4229.35
448.99	4248.07
449.17	4238.71
449.36	4173.18
449.54	4212.96
449.73	4273.82
449.91	4440.00
450.10	4458.72
450.28	4418.93
450.46	4353.40
450.65	4341.69
450.83	4503.19
451.02	4479.79
451.20	4479.79
451.39	4327.65
451.57	4587.45
451.76	4440.00
451.94	4585.11
452.13	4496.17
452.31	4557.02
452.49	4440.00
452.68	4505.53
452.86	4608.51
453.05	4734.90
453.23	4566.39
453.42	4521.92
453.60	4648.30
453.78	4550.00
453.97	4526.60
454.15	4643.62
454.34	4568.73
454.52	4610.86
454.70	4704.48
454.89	4697.46
455.07	4720.86
455.26	4631.92
455.44	4767.67
455.62	4699.80
455.81	4669.37
455.99	4683.41
456.17	4912.78
456.36	5006.41
456.54	4983.00
456.73	4978.32
456.91	5001.72
457.09	5078.96
457.28	4994.70
457.46	5001.72
457.64	5048.54
457.83	5074.28
458.01	5004.07
458.19	5181.95
458.38	5025.13
458.56	5107.05
458.74	5083.64
458.93	5158.54
459.11	5011.09
459.29	5093.01
459.48	5146.84
459.66	5076.62
459.84	5027.47
460.03	5357.49
460.21	5441.75
460.39	5214.71
460.57	5294.29
460.76	5135.14
460.94	5235.78
461.12	5322.38
461.31	5303.65
461.49	5352.81
461.67	5373.87
461.85	5317.70
462.04	5270.89
462.22	5626.65
462.40	5584.52
462.59	5481.53
462.77	5488.56
462.95	5486.22
463.13	5394.93
463.32	5324.72
463.50	5507.28
463.68	5502.60
463.86	5554.09
464.05	5476.85
464.23	5502.60
464.41	5551.75
464.59	5509.62
464.78	5715.59
464.96	5516.64
465.14	5612.60
465.32	5643.03
465.50	5797.51
465.69	5736.65
465.87	5701.54
466.05	5596.22
466.23	5746.02
466.41	5771.76
466.60	5827.93
466.78	5645.37
466.96	5813.89
467.14	5762.40
467.32	5823.25
467.51	5959.00
467.69	5640.69
467.87	5673.46
468.05	5872.40
468.23	5774.10
468.41	5905.17
468.60	5778.78
468.78	6033.90
468.96	5949.64
469.14	6008.16
469.32	6195.40
469.50	6022.20
469.69	5961.34
469.87	6125.18
470.05	6029.22
470.23	6134.54
470.41	6118.16
470.59	6169.65
470.77	6132.20
470.95	6097.10
471.14	6167.31
471.32	5968.37
471.50	6155.61
471.68	6134.54
471.86	6415.41
472.04	6347.53
472.22	6487.96
472.40	6335.83
472.58	6417.75
472.77	6410.73
472.95	6576.91
473.13	6654.14
473.31	6417.75
473.49	6572.22
473.67	6532.44
473.85	6569.88
474.03	6698.61
474.21	6633.08
474.39	6689.25
474.57	6846.07
474.75	6927.99
474.93	7007.56
475.12	6796.92
475.30	6909.26
475.48	6825.00
475.66	6932.67
475.84	6939.69
476.02	6981.82
476.20	7045.01
476.38	7054.37
476.56	7403.11
476.74	7241.62
476.92	7258.00
477.10	7274.38
477.28	7431.20
477.46	7255.66
477.64	7447.58
477.82	7339.92
478.00	7653.55
478.18	7702.70
478.36	7590.36
478.54	7733.13
478.72	7953.14
478.90	7918.03
479.08	7768.24
479.26	8077.19
479.44	7939.10
479.62	8018.68
479.80	8318.26
479.98	8140.38
480.16	8159.11
480.34	8102.93
480.52	8477.42
480.70	8393.16
480.88	8215.28
481.06	8334.65
481.24	8390.82
481.41	8580.40
481.59	8564.02
481.77	8788.71
481.95	8748.92
482.13	8882.33
482.31	8737.22
482.49	8978.30
482.67	9247.46
482.85	9102.34
483.03	8987.66
483.21	9095.32
483.39	9305.97
483.57	9217.03
483.74	9369.16
483.92	9437.04
484.10	9556.41
484.28	9724.93
484.46	9792.80
484.64	9944.94
484.82	9664.07
485.00	9963.66
485.18	9970.68
485.35	10207.08
485.53	10050.26
485.71	10064.30
485.89	10389.64
486.07	10218.78
486.25	10043.24
486.43	10516.03
486.61	10338.15
486.78	10429.43
486.96	10773.49
487.14	10843.70
487.32	10684.55
487.50	10981.79
487.68	10995.84
487.85	11119.89
488.03	11225.21
488.21	11405.43
488.39	11279.04
488.57	11477.99
488.75	11534.16
488.92	11611.40
489.10	11786.94
489.28	11775.24
489.46	11815.02
489.64	11812.68
489.81	12187.17
489.99	12032.69
490.17	12042.06
490.35	12329.94
490.53	12372.07
490.70	12610.81
490.88	12283.13
491.06	12737.20
491.24	12594.42
491.41	12535.91
491.59	12578.04
491.77	12535.91
491.95	12774.64
492.13	12762.94
492.30	12980.61
492.48	12938.48
492.66	12891.67
492.84	13144.45
493.01	13188.92
493.19	13252.11
493.37	13614.90
493.54	13448.72
493.72	13458.08
493.90	13610.22
494.08	13540.00
494.25	13755.33
494.43	13647.66
494.61	13834.91
494.79	13806.82
494.96	14214.07
495.14	14099.39
495.32	14160.24
495.49	14286.63
495.67	14483.24
495.85	14373.23
496.02	14193.01
496.20	14492.60
496.38	14602.60
496.55	14846.02
496.73	14799.21
496.91	14743.03
497.09	14869.42
497.26	15157.31
497.44	14956.02
497.62	14937.30
497.79	15384.34
497.97	15330.51
498.14	15339.87
498.32	15405.41
498.50	15346.89
498.67	15576.27
498.85	15658.18
499.03	15585.63
499.20	15735.42
499.38	15634.78
499.56	15819.68
499.73	15962.45
499.91	15824.36
500.08	15995.22
500.26	16053.73
500.44	16070.12
500.61	16287.79
500.79	16365.03
500.97	16575.67
501.14	16173.10
501.32	16264.38
501.49	16570.99
501.67	16283.11
501.84	16578.01
502.02	16711.42
502.20	16821.43
502.37	16938.46
502.55	16783.98
502.72	16748.87
502.90	16727.81
503.07	17001.65
503.25	17291.88
503.43	16917.39
503.60	17259.11
503.78	17132.72
503.95	17216.98
504.13	17242.73
504.30	17422.95
504.48	17635.94
504.65	17469.76
504.83	17654.66
505.01	17694.45
505.18	17626.57
505.36	17563.38
505.53	17717.86
505.71	17694.45
505.88	18015.10
506.06	17830.20
506.23	17767.01
506.41	17944.89
506.58	17942.55
506.76	18059.57
506.93	18101.70
507.11	17752.96
507.28	18443.42
507.46	18178.94
507.63	18640.03
507.81	18558.11
507.98	18293.63
508.16	18420.02
508.33	18396.61
508.50	18396.61
508.68	18586.19
508.85	18867.06
509.03	18670.45
509.20	18525.34
509.38	19138.56
509.55	19023.87
509.73	18696.20
509.90	19016.85
510.08	19103.45
510.25	19229.84
510.42	19180.69
510.60	19281.33
510.77	19229.84
510.95	19454.53
511.12	19449.85
511.30	19634.75
511.47	19379.64
511.64	19520.07
511.82	19468.58
511.99	19480.28
512.17	19604.33
512.34	19475.60
512.51	20009.24
512.69	19929.66
512.86	19749.44
513.04	19859.45
513.21	20350.96
513.38	20121.59
513.56	19901.58
513.73	19957.75
513.90	19995.20
514.08	20393.09
514.25	20437.56
514.43	20311.17
514.60	20196.48
514.77	20437.56
514.95	20423.51
515.12	20463.30
515.29	20149.67
515.47	20814.38
515.64	20751.19
515.81	20781.62
515.99	20943.11
516.16	20865.88
516.33	21071.84
516.51	21132.70
516.68	21083.55
516.85	20788.64
517.03	20926.73
517.20	21170.15
517.37	21088.23
517.54	21383.13
517.72	20989.92
517.89	21350.37
518.06	21231.00
518.24	21254.40
518.41	21406.54
518.58	21401.86
518.75	21348.03
518.93	21322.28
519.10	21209.93
519.27	21212.28
519.45	21568.04
519.62	21493.14
519.79	21839.54
519.96	21919.12
520.14	21568.04
520.31	21682.72
520.48	21626.55
520.65	21970.61
520.83	22167.21
521.00	22026.78
521.17	22026.78
521.34	21956.57
521.52	21996.35
521.69	21944.86
521.86	22129.77
522.03	22347.44
522.20	22530.00
522.38	22572.13
522.55	22682.13
522.72	22242.11
522.89	22361.48
523.07	22452.76
523.24	22375.52
523.41	22649.36
523.58	22342.75
523.75	22843.63
523.92	22710.22
524.10	22995.76
524.27	23009.81
524.44	22705.54
524.61	22820.22
524.78	22838.95
524.96	22745.33
525.13	23180.67
525.30	23225.14
525.47	23131.51
525.64	23302.37
525.81	23679.20
525.98	23239.18
526.16	23309.40
526.33	23307.05
526.50	23608.98
526.67	23143.22
526.84	23438.12
527.01	23288.33
527.18	23655.79
527.36	23627.71
527.53	23693.24
527.70	23555.15
527.87	23733.03
528.04	23791.55
528.21	23597.28
528.38	23850.06
528.55	23634.73
528.72	23948.36
528.89	23730.69
529.07	23964.75
529.24	23833.68
529.41	24032.62
529.58	24032.62
529.75	24407.11
529.92	24173.05
530.09	24025.60
530.26	23875.80
530.43	23903.89
530.60	24116.88
530.77	24100.50
530.94	24240.93
531.11	24683.29
531.28	24414.13
531.46	24161.35
531.63	24467.96
531.80	24257.31
531.97	24788.61
532.14	24545.20
532.31	24458.60
532.48	24540.52
532.65	24959.47
532.82	24769.89
532.99	24837.76
533.16	24739.46
533.33	25064.80
533.50	24985.22
533.67	24807.34
533.84	24573.28
534.01	24732.44
534.18	25254.38
534.35	25319.92
534.52	25193.53
534.69	24952.45
534.86	24954.79
535.03	24968.84
535.20	24858.83
535.37	25116.29
535.54	25165.44
535.71	25310.55
535.88	25111.61
536.05	25268.42
536.22	25315.23
536.38	25516.52
536.55	25500.14
536.72	25809.09
536.89	25273.10
537.06	25568.01
537.23	25848.88
537.40	25816.11
537.57	25993.99
537.74	25439.28
537.91	25675.68
538.08	26029.10
538.25	25818.45
538.42	25844.20
538.59	25825.47
538.75	25642.91
538.92	25568.01
539.09	26029.10
539.26	25598.44
539.43	25429.92
539.60	25919.09
539.77	25914.41
539.94	26022.08
540.11	25928.45
540.28	26623.59
540.44	26630.62
540.61	26225.70
540.78	26125.06
540.95	26419.97
541.12	26621.25
541.29	26469.12
541.46	26424.65
541.62	26565.08
541.79	26967.65
541.96	26391.88
542.13	26719.56
542.30	26831.90
542.47	26539.33
542.63	26946.59
542.80	27051.91
542.97	27246.18
543.14	26988.72
543.31	27072.98
543.48	27175.96
543.64	27318.73
543.81	27566.83
543.98	27157.24
544.15	27440.44
544.32	27508.32
544.48	27573.85
544.65	27016.80
544.82	27674.49
544.99	27269.58
545.16	27391.29
545.32	27463.85
545.49	27810.25
545.66	28467.94
545.83	28371.97
546.00	28304.10
546.16	28147.28
546.33	27772.80
546.50	27505.98
546.67	28177.71
546.83	27431.08
547.00	27459.16
547.17	27402.99
547.34	27758.75
547.50	27405.33
547.67	27761.09
547.84	27594.92
548.00	27597.26
548.17	27791.52
548.34	27735.35
548.51	27559.81
548.67	27894.50
548.84	27637.05
549.01	27747.05
549.18	27583.21
549.34	27672.15
549.51	27917.91
549.68	28091.11
549.84	27871.10
550.01	27796.20
550.18	27871.10
550.34	27473.21
550.51	27555.13
550.68	28144.94
550.84	27810.25
551.01	28128.56
551.18	27707.26
551.34	27761.09
551.51	27817.27
551.68	28128.56
551.84	28137.92
552.01	27800.88
552.18	27873.44
552.34	28053.66
552.51	28470.28
552.68	28034.94
552.84	28224.52
553.01	28503.04
553.18	27999.83
553.34	27885.14
553.51	28208.14
553.67	28158.99
553.84	28531.13
554.01	28315.80
554.17	28222.18
554.34	28088.77
554.51	28460.91
554.67	28348.57
554.84	28493.68
555.00	28261.97
555.17	28184.73
555.33	28591.98
555.50	28425.81
555.67	28360.27
555.83	28383.68
556.00	28374.31
556.16	28645.82
556.33	28528.79
556.50	28460.91
556.66	28430.49
556.83	28411.76
556.99	28568.58
557.16	28596.67
557.32	28662.20
557.49	28828.38
557.65	28709.01
557.82	28868.17
557.98	28336.87
558.15	28694.97
558.32	28732.42
558.48	28833.06
558.65	28945.41
558.81	28678.58
558.98	28774.55
559.14	28566.24
559.31	28982.85
559.47	28411.76
559.64	29024.98
559.80	28678.58
559.97	28741.78
560.13	28975.83
560.30	28842.42
560.46	28648.16
560.63	28968.81
560.79	29139.67
560.96	28830.72
561.12	29277.76
561.29	28924.34
561.45	28947.75
561.61	29284.78
561.78	28966.47
561.94	29296.49
562.11	29235.63
562.27	29436.92
562.44	29469.69
562.60	29156.05
562.77	28765.18
562.93	28945.41
563.10	29252.02
563.26	28917.32
563.42	29071.79
563.59	29125.63
563.75	28922.00
563.92	28914.98
564.08	29212.23
564.24	29631.18
564.41	29392.45
564.57	29235.63
564.74	29347.98
564.90	29336.27
565.07	29205.20
565.23	29537.56
565.39	29425.22
565.56	29694.38
565.72	28870.51
565.88	29446.28
566.05	29432.24
566.21	29106.90
566.38	28676.24
566.54	29256.70
566.70	29692.04
566.87	29626.50
567.03	29488.41
567.19	29617.14
567.36	29762.25
567.52	29174.78
567.68	29312.87
567.85	29586.71
568.01	29652.25
568.17	29598.41
568.34	29364.36
568.50	29722.46
568.66	29369.04
568.83	29422.87
568.99	29661.61
569.15	29212.23
569.32	29722.46
569.48	29237.97
569.64	29509.47
569.81	29352.66
569.97	29631.18
570.13	29450.96
570.30	29188.82
570.46	29610.12
570.62	29469.69
570.78	29404.15
570.95	29198.18
571.11	29720.12
571.27	29591.39
571.43	29467.34
571.60	29713.10
571.76	29710.76
571.92	29748.21
572.09	29371.38
572.25	29296.49
572.41	29621.82
572.57	29558.63
572.74	30064.18
572.90	29682.67
573.06	29813.74
573.22	29869.92
573.38	29778.64
573.55	29507.13
573.71	29902.68
573.87	29989.28
574.03	29308.19
574.20	29635.86
574.36	29401.81
574.52	29982.26
574.68	29771.61
574.84	29832.47
575.01	29443.94
575.17	29518.84
575.33	29731.83
575.49	29785.66
575.65	30061.84
575.82	29947.15
575.98	30015.03
576.14	30019.71
576.30	29654.59
576.46	29872.26
576.62	29528.20
576.79	29855.87
576.95	29916.73
577.11	30118.01
577.27	29839.49
577.43	29771.61
577.59	30075.88
577.75	29771.61
577.92	29919.07
578.08	29869.92
578.24	30167.16
578.40	30185.89
578.56	30155.46
578.72	30171.85
578.88	30590.80
579.04	30307.60
579.21	30232.70
579.37	30019.71
579.53	30448.03
579.69	30209.29
579.85	29905.02
580.01	29883.96
580.17	29715.44
580.33	30029.07
580.49	30099.29
580.65	30118.01
580.82	29586.71
580.98	30291.21
581.14	30141.42
581.30	30195.25
581.46	30017.37
581.62	29745.87
581.78	29729.48
581.94	30082.91
582.10	29699.06
582.26	29902.68
582.42	29923.75
582.58	29982.26
582.74	29989.28
582.90	30171.85
583.06	29862.90
583.22	30118.01
583.38	29710.76
583.54	30101.63
583.70	29998.65
583.86	30038.44
584.02	29902.68
584.18	29867.58
584.34	30022.05
584.50	30246.74
584.66	29963.54
584.82	29949.50
584.98	30036.09
585.14	30286.53
585.30	29982.26
585.46	29783.32
585.62	29727.14
585.78	30286.53
585.94	30150.78
586.10	30176.53
586.26	29841.83
586.42	30246.74
586.58	30015.03
586.74	30213.98
586.90	30216.32
587.06	30052.48
587.22	30490.16
587.38	29947.15
587.54	29940.13
587.70	30228.02
587.86	30450.37
588.02	30368.45
588.18	30415.26
588.34	30387.18
588.49	30113.33
588.65	29825.45
588.81	30134.40
588.97	30066.52
589.13	29837.15
589.29	30457.39
589.45	30167.16
589.61	30464.41
589.77	30532.29
589.93	30335.68
590.08	30251.42
590.24	30408.24
590.40	30483.14
