SpectraSuite Data File
++++++++++++++++++++++++++++++++++++
Date: Thu Oct 24 13:21:06 EDT 2013
User: stostad
Dark Spectrum Present: No
Reference Spectrum Present: No
Number of Sampled Component Spectra: 1
Spectrometers: USB2+H05261
Integration Time (usec): 100000 (USB2+H05261)
Spectra Averaged: 1 (USB2+H05261)
Boxcar Smoothing: 0 (USB2+H05261)
Correct for Electrical Dark: No (USB2+H05261)
Strobe/Lamp Enabled: No (USB2+H05261)
Correct for Detector Non-linearity: No (USB2+H05261)
Correct for Stray Light: No (USB2+H05261)
Number of Pixels in Processed Spectrum: 2048
>>>>>Begin Processed Spectral Data<<<<<
365.73	594.50
365.92	594.50
366.12	594.50
366.32	519.60
366.52	486.83
366.72	484.49
366.91	404.91
367.11	465.77
367.31	482.15
367.51	444.70
367.70	512.58
367.90	423.64
368.10	554.71
368.30	449.38
368.49	475.13
368.69	404.91
368.89	514.92
369.09	531.30
369.28	491.51
369.48	514.92
369.68	528.96
369.87	500.87
370.07	526.62
370.27	510.24
370.47	617.90
370.66	690.46
370.86	755.99
371.06	711.52
371.25	690.46
371.45	842.59
371.65	763.01
371.84	713.86
372.04	674.07
372.24	767.70
372.44	767.70
372.63	819.19
372.83	683.44
373.03	793.44
373.22	748.97
373.42	732.59
373.62	763.01
373.81	732.59
374.01	812.17
374.21	830.89
374.40	786.42
374.60	870.68
374.79	854.30
374.99	819.19
375.19	751.31
375.38	842.59
375.58	816.85
375.78	786.42
375.97	814.51
376.17	732.59
376.37	802.80
376.56	821.53
376.76	837.91
376.95	912.81
377.15	763.01
377.35	826.21
377.54	800.46
377.74	774.72
377.93	798.12
378.13	802.80
378.33	830.89
378.52	840.25
378.72	887.06
378.91	816.85
379.11	847.27
379.31	854.30
379.50	847.27
379.70	896.43
379.89	795.78
380.09	851.96
380.28	840.25
380.48	870.68
380.68	884.72
380.87	819.19
381.07	809.83
381.26	807.48
381.46	866.00
381.65	894.08
381.85	877.70
382.04	830.89
382.24	812.17
382.43	837.91
382.63	912.81
382.83	884.72
383.02	903.45
383.22	887.06
383.41	889.40
383.61	896.43
383.80	950.26
384.00	849.61
384.19	887.06
384.39	945.58
384.58	940.90
384.78	896.43
384.97	964.30
385.17	903.45
385.36	875.36
385.56	915.15
385.75	856.64
385.95	908.13
386.14	938.55
386.34	910.47
386.53	905.79
386.72	908.13
386.92	964.30
387.11	924.51
387.31	931.53
387.50	877.70
387.70	938.55
387.89	898.77
388.09	985.37
388.28	978.34
388.48	1008.77
388.67	903.45
388.86	1001.75
389.06	980.68
389.25	931.53
389.45	915.15
389.64	908.13
389.84	968.98
390.03	1018.13
390.22	1008.77
390.42	973.66
390.61	1018.13
390.81	1015.79
391.00	1048.56
391.19	1043.88
391.39	987.71
391.58	1022.81
391.78	1062.60
391.97	1004.09
392.16	1060.26
392.36	1055.58
392.55	1100.05
392.75	1107.07
392.94	1074.31
393.13	1018.13
393.33	1027.50
393.52	1060.26
393.71	1090.69
393.91	1046.22
394.10	1034.52
394.29	1088.35
394.49	1083.67
394.68	1081.33
394.88	1036.86
395.07	1144.52
395.26	1137.50
395.46	1093.03
395.65	1219.42
395.84	1160.91
396.04	1217.08
396.23	1114.10
396.42	1048.56
396.62	1132.82
396.81	1146.86
397.00	1142.18
397.19	1137.50
397.39	1083.67
397.58	1181.97
397.77	1114.10
397.97	1193.67
398.16	1181.97
398.35	1135.16
398.55	1156.22
398.74	1144.52
398.93	1165.59
399.12	1205.38
399.32	1093.03
399.51	1207.72
399.70	1193.67
399.90	1076.65
400.09	1207.72
400.28	1191.33
400.47	1179.63
400.67	1245.16
400.86	1212.40
401.05	1174.95
401.24	1242.82
401.44	1196.01
401.63	1287.29
401.82	1221.76
402.01	1203.04
402.21	1266.23
402.40	1282.61
402.59	1280.27
402.78	1242.82
402.97	1345.81
403.17	1345.81
403.36	1287.29
403.55	1371.55
403.74	1383.26
403.93	1334.11
404.13	1324.74
404.32	1373.89
404.51	1336.45
404.70	1479.22
404.89	1348.15
405.09	1355.17
405.28	1308.36
405.47	1406.66
405.66	1380.92
405.85	1490.92
406.05	1409.00
406.24	1444.11
406.43	1469.86
406.62	1362.19
406.81	1554.12
407.00	1371.55
407.20	1416.02
407.39	1474.54
407.58	1554.12
407.77	1568.16
407.96	1497.94
408.15	1460.49
408.34	1507.30
408.54	1458.15
408.73	1523.69
408.92	1530.71
409.11	1483.90
409.30	1479.22
409.49	1547.09
409.68	1507.30
409.87	1495.60
410.07	1617.31
410.26	1483.90
410.45	1551.78
410.64	1586.88
410.83	1547.09
411.02	1636.03
411.21	1511.99
411.40	1621.99
411.59	1692.21
411.78	1638.38
411.98	1657.10
412.17	1659.44
412.36	1652.42
412.55	1699.23
412.74	1792.85
412.93	1790.51
413.12	1696.89
413.31	1769.44
413.50	1767.10
413.69	1774.13
413.88	1909.88
414.07	1825.62
414.26	1842.00
414.45	1820.94
414.64	1952.01
414.83	1905.20
415.02	1926.26
415.22	1886.47
415.41	1832.64
415.60	1879.45
415.79	1982.43
415.98	1923.92
416.17	1956.69
416.36	1907.54
416.55	1973.07
416.74	1975.41
416.93	1898.17
417.12	1928.60
417.31	2134.57
417.50	2022.22
417.69	2153.29
417.88	2017.54
418.07	2036.27
418.26	2064.35
418.45	2059.67
418.64	2134.57
418.83	2052.65
419.02	2115.84
419.21	2005.84
419.39	2150.95
419.58	2181.38
419.77	2047.97
419.96	2179.04
420.15	2193.08
420.34	2111.16
420.53	2108.82
420.72	2221.17
420.91	2207.13
421.10	2232.87
421.29	2183.72
421.48	2160.31
421.67	2167.34
421.86	2232.87
422.05	2108.82
422.24	2204.78
422.43	2244.57
422.61	2176.70
422.80	2193.08
422.99	2174.36
423.18	2235.21
423.37	2300.75
423.56	2265.64
423.75	2331.17
423.94	2157.97
424.13	2153.29
424.32	2176.70
424.50	2319.47
424.69	2377.98
424.88	2356.92
425.07	2277.34
425.26	2228.19
425.45	2242.23
425.64	2310.11
425.83	2218.83
426.01	2382.67
426.20	2324.15
426.39	2321.81
426.58	2228.19
426.77	2342.88
426.96	2380.32
427.15	2368.62
427.33	2319.47
427.52	2319.47
427.71	2438.84
427.90	2368.62
428.09	2375.64
428.28	2363.94
428.46	2368.62
428.65	2312.45
428.84	2541.82
429.03	2478.63
429.22	2450.54
429.40	2408.41
429.59	2490.33
429.78	2335.85
429.97	2370.96
430.16	2429.48
430.34	2480.97
430.53	2534.80
430.72	2516.08
430.91	2473.95
431.10	2527.78
431.28	2562.89
431.47	2654.17
431.66	2569.91
431.85	2614.38
432.03	2567.57
432.22	2736.09
432.41	2619.06
432.60	2637.78
432.79	2539.48
432.97	2693.96
433.16	2586.29
433.35	2576.93
433.54	2715.02
433.72	2686.94
433.91	2567.57
434.10	2675.23
434.28	2539.48
434.47	2597.99
434.66	2799.28
434.85	2890.56
435.03	2956.10
435.22	2988.86
435.41	3183.13
435.59	3073.12
435.78	3047.38
435.97	3035.67
436.16	2984.18
436.34	2937.37
436.53	2857.79
436.72	2871.84
436.90	2740.77
437.09	2920.99
437.28	2789.92
437.46	2839.07
437.65	2775.88
437.84	2949.08
438.02	2862.48
438.21	2874.18
438.40	2848.43
438.58	2967.80
438.77	3021.63
438.96	2928.01
439.14	3096.53
439.33	3180.79
439.52	3204.19
439.70	3040.36
439.89	3108.23
440.08	3171.43
440.26	3098.87
440.45	3131.64
440.63	3089.51
440.82	3246.32
441.01	3213.56
441.19	3206.53
441.38	3337.60
441.57	3199.51
441.75	3243.98
441.94	3337.60
442.12	3253.34
442.31	3353.99
442.50	3382.07
442.68	3412.50
442.87	3325.90
443.05	3274.41
443.24	3283.77
443.43	3321.22
443.61	3494.42
443.80	3431.23
443.98	3328.24
444.17	3269.73
444.35	3199.51
444.54	3382.07
444.73	3372.71
444.91	3407.82
445.10	3365.69
445.28	3440.59
445.47	3361.01
445.65	3403.14
445.84	3426.54
446.02	3545.91
446.21	3389.10
446.39	3417.18
446.58	3527.19
446.77	3452.29
446.95	3428.88
447.14	3536.55
447.32	3517.83
447.51	3543.57
447.69	3541.23
447.88	3466.33
448.06	3480.38
448.25	3522.51
448.43	3541.23
448.62	3602.08
448.80	3384.41
448.99	3515.48
449.17	3618.47
449.36	3506.12
449.54	3576.34
449.73	3702.73
449.91	3641.87
450.10	3660.60
450.28	3763.58
450.46	3679.32
450.65	3543.57
450.83	3716.77
451.02	3744.86
451.20	3592.72
451.39	3665.28
451.57	3684.00
451.76	3672.30
451.94	3592.72
452.13	3756.56
452.31	3761.24
452.49	3824.44
452.68	3960.19
452.86	3740.18
453.05	3843.16
453.23	3861.88
453.42	3712.09
453.60	3641.87
453.78	3838.48
453.97	3899.33
454.15	3805.71
454.34	3873.59
454.52	3831.46
454.70	3840.82
454.89	3995.29
455.07	4004.66
455.26	3892.31
455.44	3922.74
455.62	3843.16
455.81	3906.35
455.99	3939.12
456.17	4032.74
456.36	3969.55
456.54	4067.85
456.73	4086.58
456.91	4095.94
457.09	4124.02
457.28	4107.64
457.46	4098.28
457.64	4088.92
457.83	4208.28
458.01	4077.21
458.19	4236.37
458.38	4154.45
458.56	4238.71
458.74	4259.78
458.93	4128.70
459.11	4236.37
459.29	4203.60
459.48	4194.24
459.66	4273.82
459.84	4255.09
460.03	4365.10
460.21	4381.48
460.39	4257.43
460.57	4355.74
460.76	4411.91
460.94	4308.93
461.12	4393.19
461.31	4418.93
461.49	4294.88
461.67	4484.47
461.85	4491.49
462.04	4421.27
462.22	4617.88
462.40	4416.59
462.59	4360.42
462.77	4482.13
462.95	4526.60
463.13	4517.23
463.32	4484.47
463.50	4421.27
463.68	4561.70
463.86	4538.30
464.05	4489.15
464.23	4535.96
464.41	4526.60
464.59	4465.74
464.78	4648.30
464.96	4622.56
465.14	4575.75
465.32	4571.07
465.50	4580.43
465.69	4655.33
465.87	4713.84
466.05	4692.77
466.23	4767.67
466.41	4748.95
466.60	4786.40
466.78	4671.71
466.96	4751.29
467.14	4748.95
467.32	4830.87
467.51	4819.16
467.69	4737.24
467.87	4884.70
468.05	4695.11
468.23	4931.51
468.41	4833.21
468.60	4809.80
468.78	4784.06
468.96	4875.34
469.14	4966.62
469.32	4903.42
469.50	4922.15
469.69	4903.42
469.87	5100.03
470.05	4950.23
470.23	5011.09
470.41	4933.85
470.59	5011.09
470.77	4950.23
470.95	4966.62
471.14	5111.73
471.32	4997.04
471.50	4983.00
471.68	5004.07
471.86	5111.73
472.04	5167.90
472.22	5345.78
472.40	5263.86
472.58	5242.80
472.77	5343.44
472.95	5324.72
473.13	5549.41
473.31	5315.36
473.49	5254.50
473.67	5231.10
473.85	5427.70
474.03	5518.98
474.21	5364.51
474.39	5537.71
474.57	5507.28
474.75	5582.18
474.93	5619.63
475.12	5699.20
475.30	5650.05
475.48	5568.13
475.66	5607.92
475.84	5760.06
476.02	5706.23
476.20	5664.10
476.38	5708.57
476.56	5933.26
476.74	5900.49
476.92	5863.04
477.10	5851.34
477.28	6136.88
477.46	5961.34
477.64	6120.50
477.82	6188.38
478.00	6188.38
478.18	6160.29
478.36	6296.04
478.54	6300.72
478.72	6387.32
478.90	6427.11
479.08	6607.33
479.26	6539.46
479.44	6590.95
479.62	6368.60
479.80	6464.56
479.98	6532.44
480.16	6703.29
480.34	6633.08
480.52	6602.65
480.70	6906.92
480.88	6712.66
481.06	6757.13
481.24	6846.07
481.41	6904.58
481.59	6963.09
481.77	7045.01
481.95	7030.97
482.13	7190.13
482.31	7166.72
482.49	7363.33
482.67	7349.28
482.85	7456.95
483.03	7468.65
483.21	7573.97
483.39	7449.93
483.57	7618.44
483.74	7576.31
483.92	7707.38
484.10	7693.34
484.28	7784.62
484.46	7962.50
484.64	8044.42
484.82	7901.65
485.00	8035.06
485.18	8067.83
485.35	8119.32
485.53	8121.66
485.71	8442.31
485.89	8425.93
486.07	8404.86
486.25	8498.49
486.43	8348.69
486.61	8578.06
486.78	8437.63
486.96	8678.71
487.14	8671.68
487.32	8933.82
487.50	8727.86
487.68	9081.28
487.85	8872.97
488.03	9158.52
488.21	9303.63
488.39	9158.52
488.57	9282.56
488.75	9294.27
488.92	9294.27
489.10	9329.38
489.28	9411.29
489.46	9540.02
489.64	9476.83
489.81	9678.12
489.99	9694.50
490.17	9834.93
490.35	9898.13
490.53	9860.68
490.70	10092.39
490.88	9980.04
491.06	10106.43
491.24	10101.75
491.41	10181.33
491.59	10150.90
491.77	10181.33
491.95	10375.59
492.13	10480.92
492.30	10602.63
492.48	10520.71
492.66	10305.38
492.84	10937.32
493.01	10794.55
493.19	10693.91
493.37	10785.19
493.54	10771.15
493.72	10869.45
493.90	10759.44
494.08	10794.55
494.25	11145.63
494.43	10934.98
494.61	10911.58
494.79	11150.31
494.96	11377.34
495.14	11325.85
495.32	11126.91
495.49	11470.97
495.67	11695.66
495.85	11522.46
496.02	11674.59
496.20	11688.64
496.38	11709.70
496.55	11854.81
496.73	11901.62
496.91	11915.67
497.09	12070.14
497.26	12063.12
497.44	11976.52
497.62	12311.22
497.79	12219.94
497.97	12159.08
498.14	12266.75
498.32	12353.35
498.50	12395.48
498.67	12559.31
498.85	12430.59
499.03	12638.89
499.20	12744.22
499.38	12388.46
499.56	12772.30
499.73	12575.70
499.91	12709.11
500.08	12697.41
500.26	12908.05
500.44	12917.42
500.61	12919.76
500.79	12908.05
500.97	13048.49
501.14	13385.52
501.32	13277.86
501.49	13001.68
501.67	13359.78
501.84	13324.67
502.02	13422.97
502.20	13633.62
502.37	13296.58
502.55	13240.41
502.72	13273.18
502.90	13504.89
503.07	13378.50
503.25	13612.56
503.43	13481.49
503.60	13483.83
503.78	13696.82
503.95	13851.29
504.13	13668.73
504.30	13982.36
504.48	13926.19
504.65	13862.99
504.83	14094.71
505.01	14022.15
505.18	14134.50
505.36	14171.94
505.53	14303.01
505.71	14132.15
505.88	14104.07
506.06	14118.11
506.23	14293.65
506.41	14293.65
506.58	14368.55
506.76	14211.73
506.93	14298.33
507.11	14471.53
507.28	14635.37
507.46	14530.05
507.63	14436.42
507.81	14497.28
507.98	14396.64
508.16	14946.66
508.33	14754.74
508.50	14640.05
508.68	14785.16
508.85	14878.79
509.03	14878.79
509.20	14909.21
509.38	15178.37
509.55	15382.00
509.73	15370.30
509.90	15227.53
510.08	15049.64
510.25	15243.91
510.42	15307.10
510.60	15389.02
510.77	15442.85
510.95	15470.94
511.12	15466.26
511.30	15484.98
511.47	15866.49
511.64	15335.19
511.82	15964.79
511.99	15611.37
512.17	15700.31
512.34	15805.64
512.51	16067.78
512.69	15864.15
512.86	15826.70
513.04	16114.59
513.21	16177.78
513.38	15873.51
513.56	16116.93
513.73	16133.31
513.90	16046.71
514.08	16217.57
514.25	16449.28
514.43	16526.52
514.60	16273.74
514.77	16369.71
514.95	16374.39
515.12	16273.74
515.29	16315.87
515.47	16451.63
515.64	16615.46
515.81	16739.51
515.99	16725.47
516.16	16760.58
516.33	16662.27
516.51	16559.29
516.68	16643.55
516.85	16643.55
517.03	16989.95
517.20	16938.46
517.37	16959.52
517.54	16718.45
517.72	16957.18
517.89	16868.24
518.06	17142.08
518.24	17277.83
518.41	16898.67
518.58	17083.57
518.75	16973.56
518.93	16994.63
519.10	17053.14
519.27	17097.61
519.45	17149.11
519.62	17415.93
519.79	17186.55
519.96	17296.56
520.14	17603.17
520.31	17495.50
520.48	17076.55
520.65	17280.18
520.83	18054.89
521.00	17369.12
521.17	17500.19
521.34	17652.32
521.52	17530.61
521.69	17547.00
521.86	17654.66
522.03	17902.76
522.20	17582.10
522.38	17956.59
522.55	17956.59
522.72	17954.25
522.89	18359.16
523.07	17769.35
523.24	17865.31
523.41	18073.62
523.58	17795.09
523.75	18356.82
523.92	18115.75
524.10	18108.72
524.27	18106.38
524.44	18195.32
524.61	18321.71
524.78	18338.10
524.96	18340.44
525.13	18492.57
525.30	18703.22
525.47	18534.70
525.64	18494.91
525.81	18326.39
525.98	18534.70
526.16	18537.04
526.33	18583.85
526.50	18794.50
526.67	18338.10
526.84	18679.82
527.01	18845.99
527.18	18745.35
527.36	18633.00
527.53	18799.18
527.70	19009.83
527.87	18963.02
528.04	18820.25
528.21	19030.90
528.38	18710.24
528.55	19253.25
528.72	18796.84
528.89	18977.06
529.07	18829.61
529.24	18869.40
529.41	19129.20
529.58	19344.53
529.75	19328.14
529.92	19477.94
530.09	19124.52
530.26	18986.43
530.43	19037.92
530.60	19147.92
530.77	19300.06
530.94	19807.95
531.11	19286.01
531.28	19412.40
531.46	19278.99
531.63	19407.72
531.80	19580.92
531.97	19597.31
532.14	19372.61
532.31	19557.52
532.48	19665.18
532.65	19541.13
532.82	19487.30
532.99	19527.09
533.16	19576.24
533.33	19655.82
533.50	19901.58
533.67	19941.36
533.84	19473.26
534.01	19477.94
534.18	19681.56
534.35	20016.26
534.52	19882.85
534.69	19573.90
534.86	19887.53
535.03	19920.30
535.20	20343.94
535.37	20154.35
535.54	20453.94
535.71	20203.50
535.88	20133.29
536.05	20004.56
536.22	20079.46
536.38	19929.66
536.55	20182.44
536.72	20336.91
536.89	20280.74
537.06	20589.69
537.23	20250.32
537.40	20566.29
537.57	19950.73
537.74	20592.03
537.91	20531.18
538.08	20552.24
538.25	20418.83
538.42	20397.77
538.59	20402.45
538.75	20603.74
538.92	20730.12
539.09	20699.70
539.26	20369.68
539.43	20751.19
539.60	20365.00
539.77	20690.34
539.94	20821.41
540.11	20985.24
540.28	21249.72
540.44	21153.76
540.61	20809.70
540.78	20540.54
540.95	20938.43
541.12	21610.17
541.29	21270.79
541.46	21479.10
541.62	21486.12
541.79	21605.49
541.96	21186.53
542.13	21621.87
542.30	21474.42
542.47	21207.59
542.63	21404.20
542.80	21696.77
542.97	21792.73
543.14	22106.36
543.31	21673.36
543.48	21429.94
543.64	21928.48
543.81	21977.63
543.98	21640.59
544.15	21912.10
544.32	22216.36
544.48	22101.68
544.65	21518.89
544.82	21666.34
544.99	21675.70
545.16	21553.99
545.32	21874.65
545.49	22104.02
545.66	22448.08
545.83	23147.90
546.00	22897.46
546.16	22494.89
546.33	22455.10
546.50	22359.14
546.67	22246.79
546.83	21706.13
547.00	21610.17
547.17	21919.12
547.34	21898.05
547.50	22097.00
547.67	22263.18
547.84	21940.18
548.00	22209.34
548.17	22530.00
548.34	21977.63
548.51	22361.48
548.67	22223.39
548.84	22171.89
549.01	22298.28
549.18	22459.78
549.34	22508.93
549.51	22221.05
549.68	22335.73
549.84	22087.64
550.01	22108.70
550.18	22302.96
550.34	21886.35
550.51	22305.31
550.68	22356.80
550.84	22010.40
551.01	22649.36
551.18	22192.96
551.34	21832.52
551.51	22082.95
551.68	22104.02
551.84	22583.83
552.01	22064.23
552.18	22555.74
552.34	22422.33
552.51	22513.61
552.68	22359.14
552.84	22284.24
553.01	22476.16
553.18	22216.36
553.34	22766.39
553.51	22324.03
553.67	22532.34
553.84	22780.43
554.01	22735.96
554.17	22370.84
554.34	22522.98
554.51	22321.69
554.67	22569.79
554.84	22747.67
555.00	22553.40
555.17	22352.12
555.33	22691.49
555.50	22782.77
555.67	22899.80
555.83	22757.03
556.00	22656.39
556.16	23054.28
556.33	22972.36
556.50	23014.49
556.66	22902.14
556.83	22487.87
556.99	22963.00
557.16	22923.21
557.32	22937.25
557.49	23028.53
557.65	23033.21
557.82	22953.63
557.98	23178.33
558.15	22836.61
558.32	22979.38
558.48	23070.66
558.65	23316.42
558.81	22939.59
558.98	22796.82
559.14	22890.44
559.31	23295.35
559.47	22579.15
559.64	23204.07
559.80	22953.63
559.97	23311.74
560.13	22972.36
560.30	22822.56
560.46	22778.09
560.63	23103.43
560.79	22981.72
560.96	23180.67
561.12	23321.10
561.29	22902.14
561.45	23077.68
561.61	23117.47
561.78	23211.09
561.94	23520.04
562.11	23548.13
562.27	23845.38
562.44	23557.49
562.60	23288.33
562.77	23330.46
562.93	23143.22
563.10	23325.78
563.26	23054.28
563.42	23487.28
563.59	23183.01
563.75	23030.87
563.92	23042.57
564.08	23396.00
564.24	23608.98
564.41	23159.60
564.57	23225.14
564.74	23407.70
564.90	23798.57
565.07	23690.90
565.23	23208.75
565.39	23026.19
565.56	23681.54
565.72	23304.71
565.88	23417.06
566.05	23260.24
566.21	23168.96
566.38	23480.25
566.54	23611.32
566.70	23508.34
566.87	23779.84
567.03	23821.97
567.19	23714.31
567.36	23552.81
567.52	23342.16
567.68	23569.19
567.85	23608.98
568.01	23620.69
568.17	23749.42
568.34	23243.86
568.50	23824.31
568.66	23709.63
568.83	23555.15
568.99	23625.37
569.15	23482.59
569.32	23506.00
569.48	23578.56
569.64	23255.56
569.81	23388.97
569.97	23316.42
570.13	23374.93
570.30	23524.72
570.46	23323.44
570.62	23087.04
570.78	23489.62
570.95	23564.51
571.11	23859.42
571.27	23330.46
571.43	23583.24
571.60	23566.85
571.76	23555.15
571.92	23676.86
572.09	23506.00
572.25	23859.42
572.41	23981.13
572.57	24240.93
572.74	23807.93
572.90	23840.70
573.06	23601.96
573.22	23601.96
573.38	23693.24
573.55	23351.52
573.71	23517.70
573.87	23723.67
574.03	23370.25
574.20	23997.51
574.36	23634.73
574.52	23606.64
574.68	23620.69
574.84	23742.39
575.01	23742.39
575.17	23946.02
575.33	23438.12
575.49	23754.10
575.65	23403.02
575.82	24212.84
575.98	23653.45
576.14	24004.53
576.30	23896.87
576.46	23978.79
576.62	23784.52
576.79	23763.46
576.95	23681.54
577.11	23828.99
577.27	24112.20
577.43	23924.96
577.59	24002.19
577.75	23662.82
577.92	23800.91
578.08	23641.75
578.24	23520.04
578.40	23920.28
578.56	24002.19
578.72	23976.45
578.88	24208.16
579.04	24037.30
579.21	23833.68
579.37	23913.25
579.53	24013.90
579.69	23917.93
579.85	23882.83
580.01	23562.17
580.17	24051.34
580.33	23424.08
580.49	23814.95
580.65	23953.04
580.82	23859.42
580.98	23957.72
581.14	23957.72
581.30	24126.24
581.46	23763.46
581.62	23611.32
581.78	23447.49
581.94	23887.51
582.10	23660.48
582.26	23737.71
582.42	23704.95
582.58	23878.15
582.74	24027.94
582.90	24222.20
583.06	23847.72
583.22	23672.18
583.38	23548.13
583.54	23761.12
583.70	24006.87
583.86	24304.12
584.02	23697.92
584.18	24039.64
584.34	23969.43
584.50	23957.72
584.66	23857.08
584.82	24067.73
584.98	23735.37
585.14	24030.28
585.30	23840.70
585.46	24070.07
585.62	23892.19
585.78	23985.81
585.94	23983.47
586.10	23913.25
586.26	24063.05
586.42	23946.02
586.58	24107.52
586.74	24002.19
586.90	23948.36
587.06	23833.68
587.22	23999.85
587.38	23985.81
587.54	24201.14
587.70	24219.86
587.86	24299.44
588.02	23995.17
588.18	24292.42
588.34	24287.74
588.49	24084.11
588.65	24175.39
588.81	23803.25
588.97	24313.48
589.13	24105.18
589.29	24177.73
589.45	23953.04
589.61	24147.31
589.77	24261.99
589.93	24070.07
590.08	23981.13
590.24	24140.29
590.40	24018.58
590.56	24224.54
590.72	24039.64
590.88	24039.64
