SpectraSuite Data File
++++++++++++++++++++++++++++++++++++
Date: Thu Oct 24 13:21:00 EDT 2013
User: stostad
Dark Spectrum Present: No
Reference Spectrum Present: No
Number of Sampled Component Spectra: 1
Spectrometers: USB2+H05261
Integration Time (usec): 100000 (USB2+H05261)
Spectra Averaged: 1 (USB2+H05261)
Boxcar Smoothing: 0 (USB2+H05261)
Correct for Electrical Dark: No (USB2+H05261)
Strobe/Lamp Enabled: No (USB2+H05261)
Correct for Detector Non-linearity: No (USB2+H05261)
Correct for Stray Light: No (USB2+H05261)
Number of Pixels in Processed Spectrum: 2048
>>>>>Begin Processed Spectral Data<<<<<
365.73	505.56
365.92	505.56
366.12	505.56
366.32	491.51
366.52	447.04
366.72	451.72
366.91	428.32
367.11	423.64
367.31	510.24
367.51	425.98
367.70	442.36
367.90	475.13
368.10	421.30
368.30	463.43
368.49	568.75
368.69	454.06
368.89	482.15
369.09	451.72
369.28	451.72
369.48	454.06
369.68	519.60
369.87	519.60
370.07	454.06
370.27	561.73
370.47	500.87
370.66	533.64
370.86	543.00
371.06	531.30
371.25	561.73
371.45	585.13
371.65	601.52
371.84	538.32
372.04	493.85
372.24	601.52
372.44	629.60
372.63	568.75
372.83	601.52
373.03	634.29
373.22	571.09
373.42	669.39
373.62	636.63
373.81	596.84
374.01	629.60
374.21	645.99
374.40	627.26
374.60	641.31
374.79	573.43
374.99	641.31
375.19	692.80
375.38	631.94
375.58	585.13
375.78	624.92
375.97	589.82
376.17	676.41
376.37	578.11
376.56	617.90
376.76	608.54
376.95	641.31
377.15	636.63
377.35	599.18
377.54	587.47
377.74	571.09
377.93	580.45
378.13	561.73
378.33	617.90
378.52	683.44
378.72	678.76
378.91	620.24
379.11	622.58
379.31	613.22
379.50	554.71
379.70	587.47
379.89	709.18
380.09	601.52
380.28	610.88
380.48	620.24
380.68	582.79
380.87	615.56
381.07	631.94
381.26	578.11
381.46	653.01
381.65	557.05
381.85	622.58
382.04	547.69
382.24	594.50
382.43	575.77
382.63	599.18
382.83	664.71
383.02	664.71
383.22	571.09
383.41	657.69
383.61	653.01
383.80	641.31
384.00	587.47
384.19	617.90
384.39	690.46
384.58	641.31
384.78	634.29
384.97	571.09
385.17	587.47
385.36	585.13
385.56	608.54
385.75	624.92
385.95	657.69
386.14	613.22
386.34	573.43
386.53	627.26
386.72	589.82
386.92	643.65
387.11	636.63
387.31	653.01
387.50	592.16
387.70	702.16
387.89	617.90
388.09	589.82
388.28	631.94
388.48	617.90
388.67	678.76
388.86	620.24
389.06	648.33
389.25	561.73
389.45	653.01
389.64	589.82
389.84	594.50
390.03	653.01
390.22	650.67
390.42	594.50
390.61	655.35
390.81	664.71
391.00	582.79
391.19	638.97
391.39	615.56
391.58	573.43
391.78	645.99
391.97	578.11
392.16	638.97
392.36	697.48
392.55	664.71
392.75	634.29
392.94	608.54
393.13	587.47
393.33	622.58
393.52	601.52
393.71	657.69
393.91	634.29
394.10	617.90
394.29	603.86
394.49	648.33
394.68	638.97
394.88	615.56
395.07	582.79
395.26	613.22
395.46	664.71
395.65	660.03
395.84	692.80
396.04	624.92
396.23	610.88
396.42	645.99
396.62	599.18
396.81	662.37
397.00	636.63
397.19	585.13
397.39	608.54
397.58	601.52
397.77	636.63
397.97	671.73
398.16	571.09
398.35	589.82
398.55	592.16
398.74	641.31
398.93	622.58
399.12	587.47
399.32	589.82
399.51	596.84
399.70	622.58
399.90	564.07
400.09	617.90
400.28	697.48
400.47	596.84
400.67	664.71
400.86	638.97
401.05	648.33
401.24	564.07
401.44	613.22
401.63	571.09
401.82	631.94
402.01	575.77
402.21	613.22
402.40	582.79
402.59	550.03
402.78	617.90
402.97	669.39
403.17	631.94
403.36	589.82
403.55	589.82
403.74	613.22
403.93	690.46
404.13	709.18
404.32	704.50
404.51	676.41
404.70	653.01
404.89	685.78
405.09	671.73
405.28	690.46
405.47	624.92
405.66	664.71
405.85	643.65
406.05	683.44
406.24	610.88
406.43	608.54
406.62	692.80
406.81	678.76
407.00	650.67
407.20	645.99
407.39	617.90
407.58	664.71
407.77	645.99
407.96	657.69
408.15	695.14
408.34	629.60
408.54	678.76
408.73	697.48
408.92	727.91
409.11	566.41
409.30	676.41
409.49	655.35
409.68	664.71
409.87	580.45
410.07	596.84
410.26	599.18
410.45	657.69
410.64	695.14
410.83	648.33
411.02	571.09
411.21	575.77
411.40	573.43
411.59	676.41
411.78	627.26
411.98	631.94
412.17	629.60
412.36	559.39
412.55	643.65
412.74	674.07
412.93	657.69
413.12	648.33
413.31	636.63
413.50	608.54
413.69	573.43
413.88	671.73
414.07	713.86
414.26	636.63
414.45	634.29
414.64	606.20
414.83	589.82
415.02	692.80
415.22	664.71
415.41	669.39
415.60	664.71
415.79	596.84
415.98	645.99
416.17	636.63
416.36	561.73
416.55	594.50
416.74	608.54
416.93	650.67
417.12	692.80
417.31	624.92
417.50	660.03
417.69	603.86
417.88	608.54
418.07	557.05
418.26	620.24
418.45	589.82
418.64	669.39
418.83	559.39
419.02	643.65
419.21	568.75
419.39	636.63
419.58	655.35
419.77	645.99
419.96	627.26
420.15	681.10
420.34	610.88
420.53	629.60
420.72	653.01
420.91	547.69
421.10	613.22
421.29	599.18
421.48	692.80
421.67	617.90
421.86	697.48
422.05	667.05
422.24	617.90
422.43	578.11
422.61	648.33
422.80	655.35
422.99	650.67
423.18	669.39
423.37	643.65
423.56	617.90
423.75	620.24
423.94	608.54
424.13	622.58
424.32	669.39
424.50	667.05
424.69	641.31
424.88	636.63
425.07	603.86
425.26	650.67
425.45	636.63
425.64	561.73
425.83	601.52
426.01	660.03
426.20	699.82
426.39	688.12
426.58	634.29
426.77	587.47
426.96	610.88
427.15	653.01
427.33	655.35
427.52	627.26
427.71	601.52
427.90	631.94
428.09	631.94
428.28	610.88
428.46	667.05
428.65	617.90
428.84	627.26
429.03	667.05
429.22	655.35
429.40	660.03
429.59	617.90
429.78	737.27
429.97	631.94
430.16	608.54
430.34	681.10
430.53	704.50
430.72	622.58
430.91	683.44
431.10	634.29
431.28	660.03
431.47	716.20
431.66	592.16
431.85	667.05
432.03	669.39
432.22	667.05
432.41	638.97
432.60	617.90
432.79	631.94
432.97	695.14
433.16	617.90
433.35	650.67
433.54	608.54
433.72	676.41
433.91	631.94
434.10	610.88
434.28	629.60
434.47	655.35
434.66	699.82
434.85	667.05
435.03	758.33
435.22	1036.86
435.41	1149.20
435.59	1116.44
435.78	973.66
435.97	908.13
436.16	767.70
436.34	671.73
436.53	610.88
436.72	641.31
436.90	706.84
437.09	683.44
437.28	650.67
437.46	662.37
437.65	655.35
437.84	653.01
438.02	613.22
438.21	564.07
438.40	676.41
438.58	704.50
438.77	669.39
438.96	641.31
439.14	596.84
439.33	704.50
439.52	634.29
439.70	587.47
439.89	643.65
440.08	695.14
440.26	697.48
440.45	671.73
440.63	648.33
440.82	627.26
441.01	674.07
441.19	608.54
441.38	664.71
441.57	669.39
441.75	636.63
441.94	631.94
442.12	578.11
442.31	669.39
442.50	540.66
442.68	620.24
442.87	643.65
443.05	594.50
443.24	697.48
443.43	627.26
443.61	669.39
443.80	631.94
443.98	685.78
444.17	617.90
444.35	695.14
444.54	610.88
444.73	669.39
444.91	678.76
445.10	685.78
445.28	734.93
445.47	573.43
445.65	678.76
445.84	610.88
446.02	669.39
446.21	695.14
446.39	636.63
446.58	585.13
446.77	664.71
446.95	627.26
447.14	692.80
447.32	678.76
447.51	702.16
447.69	695.14
447.88	641.31
448.06	585.13
448.25	744.29
448.43	594.50
448.62	599.18
448.80	655.35
448.99	688.12
449.17	650.67
449.36	627.26
449.54	674.07
449.73	615.56
449.91	627.26
450.10	648.33
450.28	669.39
450.46	627.26
450.65	678.76
450.83	695.14
451.02	624.92
451.20	657.69
451.39	596.84
451.57	662.37
451.76	594.50
451.94	683.44
452.13	629.60
452.31	615.56
452.49	648.33
452.68	676.41
452.86	543.00
453.05	667.05
453.23	650.67
453.42	648.33
453.60	634.29
453.78	627.26
453.97	657.69
454.15	669.39
454.34	608.54
454.52	643.65
454.70	650.67
454.89	615.56
455.07	550.03
455.26	667.05
455.44	622.58
455.62	634.29
455.81	653.01
455.99	662.37
456.17	667.05
456.36	667.05
456.54	617.90
456.73	596.84
456.91	613.22
457.09	606.20
457.28	660.03
457.46	650.67
457.64	650.67
457.83	692.80
458.01	594.50
458.19	678.76
458.38	638.97
458.56	634.29
458.74	690.46
458.93	575.77
459.11	627.26
459.29	627.26
459.48	650.67
459.66	622.58
459.84	561.73
460.03	662.37
460.21	674.07
460.39	594.50
460.57	645.99
460.76	617.90
460.94	599.18
461.12	669.39
461.31	699.82
461.49	720.88
461.67	641.31
461.85	603.86
462.04	667.05
462.22	849.61
462.40	692.80
462.59	671.73
462.77	650.67
462.95	622.58
463.13	664.71
463.32	648.33
463.50	587.47
463.68	676.41
463.86	599.18
464.05	582.79
464.23	678.76
464.41	653.01
464.59	660.03
464.78	653.01
464.96	653.01
465.14	638.97
465.32	664.71
465.50	573.43
465.69	685.78
465.87	685.78
466.05	643.65
466.23	638.97
466.41	664.71
466.60	638.97
466.78	594.50
466.96	678.76
467.14	681.10
467.32	676.41
467.51	660.03
467.69	592.16
467.87	720.88
468.05	575.77
468.23	643.65
468.41	655.35
468.60	674.07
468.78	575.77
468.96	678.76
469.14	674.07
469.32	678.76
469.50	606.20
469.69	671.73
469.87	697.48
470.05	657.69
470.23	610.88
470.41	657.69
470.59	660.03
470.77	568.75
470.95	641.31
471.14	638.97
471.32	629.60
471.50	667.05
471.68	655.35
471.86	601.52
472.04	643.65
472.22	648.33
472.40	641.31
472.58	624.92
472.77	683.44
472.95	641.31
473.13	718.54
473.31	704.50
473.49	669.39
473.67	620.24
473.85	662.37
474.03	662.37
474.21	681.10
474.39	688.12
474.57	631.94
474.75	697.48
474.93	631.94
475.12	575.77
475.30	634.29
475.48	667.05
475.66	641.31
475.84	615.56
476.02	627.26
476.20	627.26
476.38	638.97
476.56	622.58
476.74	606.20
476.92	681.10
477.10	664.71
477.28	521.94
477.46	634.29
477.64	617.90
477.82	645.99
478.00	650.67
478.18	702.16
478.36	589.82
478.54	650.67
478.72	669.39
478.90	671.73
479.08	688.12
479.26	669.39
479.44	613.22
479.62	648.33
479.80	692.80
479.98	648.33
480.16	650.67
480.34	706.84
480.52	596.84
480.70	669.39
480.88	674.07
481.06	660.03
481.24	650.67
481.41	645.99
481.59	608.54
481.77	667.05
481.95	631.94
482.13	669.39
482.31	571.09
482.49	695.14
482.67	688.12
482.85	678.76
483.03	709.18
483.21	662.37
483.39	634.29
483.57	660.03
483.74	704.50
483.92	620.24
484.10	713.86
484.28	763.01
484.46	784.08
484.64	704.50
484.82	713.86
485.00	704.50
485.18	751.31
485.35	685.78
485.53	709.18
485.71	772.38
485.89	734.93
486.07	748.97
486.25	758.33
486.43	678.76
486.61	734.93
486.78	723.23
486.96	631.94
487.14	664.71
487.32	692.80
487.50	706.84
487.68	718.54
487.85	716.20
488.03	744.29
488.21	699.82
488.39	699.82
488.57	760.67
488.75	655.35
488.92	753.65
489.10	720.88
489.28	744.29
489.46	709.18
489.64	699.82
489.81	629.60
489.99	734.93
490.17	641.31
490.35	704.50
490.53	669.39
490.70	720.88
490.88	767.70
491.06	746.63
491.24	763.01
491.41	664.71
491.59	709.18
491.77	671.73
491.95	683.44
492.13	657.69
492.30	760.67
492.48	678.76
492.66	723.23
492.84	641.31
493.01	655.35
493.19	699.82
493.37	688.12
493.54	748.97
493.72	755.99
493.90	599.18
494.08	685.78
494.25	657.69
494.43	676.41
494.61	608.54
494.79	732.59
494.96	760.67
495.14	704.50
495.32	685.78
495.49	711.52
495.67	720.88
495.85	784.08
496.02	716.20
496.20	660.03
496.38	720.88
496.55	629.60
496.73	709.18
496.91	709.18
497.09	695.14
497.26	674.07
497.44	681.10
497.62	662.37
497.79	622.58
497.97	660.03
498.14	678.76
498.32	706.84
498.50	690.46
498.67	763.01
498.85	709.18
499.03	653.01
499.20	641.31
499.38	631.94
499.56	763.01
499.73	699.82
499.91	718.54
500.08	699.82
500.26	748.97
500.44	645.99
500.61	580.45
500.79	695.14
500.97	636.63
501.14	690.46
501.32	620.24
501.49	622.58
501.67	662.37
501.84	671.73
502.02	667.05
502.20	718.54
502.37	683.44
502.55	622.58
502.72	674.07
502.90	674.07
503.07	678.76
503.25	739.61
503.43	622.58
503.60	620.24
503.78	671.73
503.95	645.99
504.13	648.33
504.30	653.01
504.48	638.97
504.65	748.97
504.83	667.05
505.01	615.56
505.18	660.03
505.36	676.41
505.53	615.56
505.71	674.07
505.88	683.44
506.06	667.05
506.23	627.26
506.41	617.90
506.58	664.71
506.76	664.71
506.93	587.47
507.11	702.16
507.28	582.79
507.46	620.24
507.63	657.69
507.81	575.77
507.98	610.88
508.16	638.97
508.33	692.80
508.50	683.44
508.68	716.20
508.85	624.92
509.03	648.33
509.20	685.78
509.38	622.58
509.55	664.71
509.73	713.86
509.90	606.20
510.08	690.46
510.25	734.93
510.42	667.05
510.60	608.54
510.77	608.54
510.95	638.97
511.12	655.35
511.30	631.94
511.47	610.88
511.64	641.31
511.82	690.46
511.99	648.33
512.17	683.44
512.34	629.60
512.51	685.78
512.69	613.22
512.86	648.33
513.04	648.33
513.21	641.31
513.38	704.50
513.56	608.54
513.73	662.37
513.90	601.52
514.08	627.26
514.25	524.28
514.43	692.80
514.60	678.76
514.77	641.31
514.95	669.39
515.12	667.05
515.29	671.73
515.47	596.84
515.64	638.97
515.81	636.63
515.99	678.76
516.16	603.86
516.33	685.78
516.51	643.65
516.68	631.94
516.85	634.29
517.03	613.22
517.20	653.01
517.37	585.13
517.54	704.50
517.72	713.86
517.89	676.41
518.06	624.92
518.24	697.48
518.41	727.91
518.58	660.03
518.75	638.97
518.93	711.52
519.10	610.88
519.27	660.03
519.45	660.03
519.62	667.05
519.79	704.50
519.96	655.35
520.14	683.44
520.31	739.61
520.48	617.90
520.65	624.92
520.83	667.05
521.00	671.73
521.17	613.22
521.34	653.01
521.52	748.97
521.69	645.99
521.86	608.54
522.03	650.67
522.20	718.54
522.38	678.76
522.55	755.99
522.72	645.99
522.89	704.50
523.07	695.14
523.24	653.01
523.41	655.35
523.58	592.16
523.75	660.03
523.92	589.82
524.10	655.35
524.27	643.65
524.44	648.33
524.61	676.41
524.78	662.37
524.96	653.01
525.13	610.88
525.30	636.63
525.47	613.22
525.64	667.05
525.81	676.41
525.98	627.26
526.16	617.90
526.33	662.37
526.50	622.58
526.67	674.07
526.84	603.86
527.01	613.22
527.18	657.69
527.36	671.73
527.53	669.39
527.70	688.12
527.87	711.52
528.04	664.71
528.21	638.97
528.38	690.46
528.55	638.97
528.72	627.26
528.89	627.26
529.07	685.78
529.24	690.46
529.41	704.50
529.58	676.41
529.75	589.82
529.92	608.54
530.09	650.67
530.26	720.88
530.43	655.35
530.60	650.67
530.77	653.01
530.94	699.82
531.11	650.67
531.28	636.63
531.46	683.44
531.63	671.73
531.80	636.63
531.97	667.05
532.14	650.67
532.31	620.24
532.48	622.58
532.65	711.52
532.82	669.39
532.99	669.39
533.16	760.67
533.33	706.84
533.50	734.93
533.67	685.78
533.84	657.69
534.01	674.07
534.18	674.07
534.35	676.41
534.52	678.76
534.69	716.20
534.86	699.82
535.03	692.80
535.20	657.69
535.37	664.71
535.54	671.73
535.71	702.16
535.88	657.69
536.05	681.10
536.22	688.12
536.38	706.84
536.55	763.01
536.72	781.74
536.89	704.50
537.06	718.54
537.23	713.86
537.40	748.97
537.57	706.84
537.74	695.14
537.91	741.95
538.08	730.25
538.25	763.01
538.42	765.36
538.59	753.65
538.75	835.57
538.92	795.78
539.09	678.76
539.26	791.10
539.43	805.14
539.60	844.93
539.77	802.80
539.94	882.38
540.11	957.28
540.28	1001.75
540.44	971.32
540.61	940.90
540.78	1036.86
540.95	1043.88
541.12	1228.78
541.29	1233.46
541.46	1291.98
541.62	1317.72
541.79	1299.00
541.96	1401.98
542.13	1310.70
542.30	1275.59
542.47	1228.78
542.63	1287.29
542.80	1249.85
542.97	1268.57
543.14	1245.16
543.31	1277.93
543.48	1160.91
543.64	1235.80
543.81	1156.22
543.98	1240.48
544.15	1221.76
544.32	1247.51
544.48	1212.40
544.65	1158.57
544.82	1165.59
544.99	1165.59
545.16	1174.95
545.32	1235.80
545.49	1706.25
545.66	2069.03
545.83	2363.94
546.00	1973.07
546.16	1652.42
546.33	1460.49
546.50	1352.83
546.67	1350.49
546.83	1149.20
547.00	1069.62
547.17	1046.22
547.34	1013.45
547.50	1004.09
547.67	952.60
547.84	976.00
548.00	987.71
548.17	945.58
548.34	882.38
548.51	992.39
548.67	997.07
548.84	903.45
549.01	891.74
549.18	976.00
549.34	896.43
549.51	798.12
549.68	856.64
549.84	849.61
550.01	870.68
550.18	833.23
550.34	901.11
550.51	765.36
550.68	875.36
550.84	798.12
551.01	788.76
551.18	795.78
551.34	835.57
551.51	777.06
551.68	788.76
551.84	763.01
552.01	744.29
552.18	812.17
552.34	842.59
552.51	763.01
552.68	802.80
552.84	763.01
553.01	706.84
553.18	753.65
553.34	699.82
553.51	690.46
553.67	730.25
553.84	772.38
554.01	741.95
554.17	662.37
554.34	676.41
554.51	737.27
554.67	741.95
554.84	685.78
555.00	641.31
555.17	720.88
555.33	725.57
555.50	669.39
555.67	667.05
555.83	702.16
556.00	718.54
556.16	805.14
556.33	744.29
556.50	585.13
556.66	603.86
556.83	603.86
556.99	634.29
557.16	690.46
557.32	648.33
557.49	657.69
557.65	671.73
557.82	638.97
557.98	641.31
558.15	634.29
558.32	624.92
558.48	561.73
558.65	695.14
558.81	650.67
558.98	587.47
559.14	720.88
559.31	674.07
559.47	645.99
559.64	627.26
559.80	643.65
559.97	657.69
560.13	718.54
560.30	641.31
560.46	634.29
560.63	650.67
560.79	697.48
560.96	671.73
561.12	671.73
561.29	601.52
561.45	606.20
561.61	631.94
561.78	681.10
561.94	650.67
562.11	571.09
562.27	702.16
562.44	690.46
562.60	631.94
562.77	709.18
562.93	634.29
563.10	683.44
563.26	645.99
563.42	662.37
563.59	650.67
563.75	664.71
563.92	723.23
564.08	657.69
564.24	657.69
564.41	727.91
564.57	594.50
564.74	629.60
564.90	638.97
565.07	809.83
565.23	732.59
565.39	699.82
565.56	603.86
565.72	678.76
565.88	683.44
566.05	660.03
566.21	634.29
566.38	603.86
566.54	655.35
566.70	716.20
566.87	671.73
567.03	690.46
567.19	650.67
567.36	657.69
567.52	667.05
567.68	617.90
567.85	587.47
568.01	674.07
568.17	695.14
568.34	617.90
568.50	662.37
568.66	608.54
568.83	723.23
568.99	681.10
569.15	669.39
569.32	620.24
569.48	657.69
569.64	671.73
569.81	624.92
569.97	662.37
570.13	638.97
570.30	582.79
570.46	671.73
570.62	709.18
570.78	695.14
570.95	667.05
571.11	634.29
571.27	645.99
571.43	599.18
571.60	645.99
571.76	617.90
571.92	648.33
572.09	580.45
572.25	653.01
572.41	645.99
572.57	674.07
572.74	690.46
572.90	711.52
573.06	650.67
573.22	592.16
573.38	704.50
573.55	613.22
573.71	706.84
573.87	601.52
574.03	641.31
574.20	685.78
574.36	674.07
574.52	699.82
574.68	671.73
574.84	688.12
575.01	690.46
575.17	662.37
575.33	631.94
575.49	692.80
575.65	702.16
575.82	627.26
575.98	716.20
576.14	702.16
576.30	676.41
576.46	866.00
576.62	830.89
576.79	931.53
576.95	919.83
577.11	800.46
577.27	823.87
577.43	779.40
577.59	779.40
577.75	697.48
577.92	746.63
578.08	664.71
578.24	690.46
578.40	709.18
578.56	866.00
578.72	966.64
578.88	945.58
579.04	854.30
579.21	812.17
579.37	798.12
579.53	770.04
579.69	793.44
579.85	842.59
580.01	791.10
580.17	786.42
580.33	685.78
580.49	737.27
580.65	755.99
580.82	716.20
580.98	629.60
581.14	760.67
581.30	746.63
581.46	812.17
581.62	823.87
581.78	751.31
581.94	720.88
582.10	746.63
582.26	901.11
582.42	716.20
582.58	753.65
582.74	828.55
582.90	786.42
583.06	854.30
583.22	788.76
583.38	734.93
583.54	770.04
583.70	807.48
583.86	784.08
584.02	732.59
584.18	798.12
584.34	772.38
584.50	744.29
584.66	730.25
584.82	727.91
584.98	734.93
585.14	744.29
585.30	786.42
585.46	800.46
585.62	716.20
585.78	765.36
585.94	755.99
586.10	809.83
586.26	725.57
586.42	781.74
586.58	833.23
586.74	791.10
586.90	908.13
587.06	870.68
587.22	908.13
587.38	868.34
587.54	880.04
587.70	868.34
587.86	819.19
588.02	774.72
588.18	758.33
588.34	800.46
588.49	732.59
588.65	730.25
588.81	779.40
588.97	758.33
589.13	763.01
589.29	746.63
589.45	751.31
589.61	763.01
589.77	772.38
589.93	727.91
590.08	685.78
590.24	725.57
590.40	807.48
590.56	720.88
590.72	716.20
590.88	720.88
591.04	713.86
591.20	807.48
591.35	711.52
591.51	798.12
591.67	744.29
591.83	767.70
591.99	767.70
592.15	739.61
592.31	851.96
592.46	819.19
592.62	870.68
592.78	760.67
592.94	760.67
593.10	807.48
593.26	847.27
593.41	830.89
593.57	880.04
593.73	746.63
593.89	748.97
594.05	816.85
594.20	713.86
594.36	835.57
594.52	702.16
594.68	732.59
594.84	704.50
594.99	732.59
595.15	671.73
595.31	763.01
595.47	727.91
595.62	716.20
595.78	770.04
595.94	706.84
596.10	737.27
596.25	697.48
596.41	751.31
596.57	683.44
596.73	662.37
596.88	716.20
597.04	744.29
597.20	716.20
597.36	688.12
597.51	725.57
597.67	688.12
597.83	655.35
597.99	723.23
598.14	713.86
598.30	748.97
598.46	645.99
598.61	730.25
598.77	741.95
598.93	760.67
599.09	739.61
599.24	753.65
599.40	798.12
599.56	741.95
599.71	730.25
599.87	734.93
600.03	849.61
600.18	699.82
600.34	741.95
600.50	744.29
600.65	732.59
600.81	685.78
600.97	723.23
601.12	748.97
601.28	695.14
601.44	725.57
601.59	636.63
601.75	737.27
601.91	678.76
602.06	730.25
602.22	683.44
602.37	657.69
602.53	699.82
602.69	624.92
602.84	678.76
603.00	674.07
603.16	739.61
603.31	786.42
603.47	711.52
603.62	601.52
603.78	711.52
603.94	699.82
604.09	627.26
604.25	723.23
604.40	709.18
604.56	678.76
604.71	599.18
604.87	699.82
605.03	711.52
605.18	786.42
605.34	711.52
605.49	685.78
605.65	711.52
605.80	688.12
605.96	709.18
606.12	746.63
606.27	718.54
606.43	713.86
606.58	699.82
606.74	608.54
606.89	702.16
607.05	741.95
607.20	770.04
607.36	748.97
607.51	767.70
607.67	753.65
607.82	716.20
607.98	741.95
608.13	816.85
608.29	706.84
608.44	772.38
608.60	758.33
608.75	755.99
608.91	786.42
609.06	840.25
609.22	863.66
609.37	816.85
609.53	849.61
609.68	926.85
