SpectraSuite Data File
++++++++++++++++++++++++++++++++++++
Date: Thu Oct 24 13:21:00 EDT 2013
User: stostad
Dark Spectrum Present: No
Reference Spectrum Present: No
Number of Sampled Component Spectra: 1
Spectrometers: USB2+H05261
Integration Time (usec): 100000 (USB2+H05261)
Spectra Averaged: 1 (USB2+H05261)
Boxcar Smoothing: 0 (USB2+H05261)
Correct for Electrical Dark: No (USB2+H05261)
Strobe/Lamp Enabled: No (USB2+H05261)
Correct for Detector Non-linearity: No (USB2+H05261)
Correct for Stray Light: No (USB2+H05261)
Number of Pixels in Processed Spectrum: 2048
>>>>>Begin Processed Spectral Data<<<<<
365.73	578.11
365.92	578.11
366.12	578.11
366.32	458.74
366.52	484.49
366.72	540.66
366.91	503.22
367.11	388.53
367.31	428.32
367.51	456.40
367.70	503.22
367.90	430.66
368.10	470.45
368.30	493.85
368.49	414.27
368.69	435.34
368.89	461.09
369.09	477.47
369.28	538.32
369.48	463.43
369.68	484.49
369.87	458.74
370.07	524.28
370.27	552.37
370.47	571.09
370.66	594.50
370.86	533.64
371.06	540.66
371.25	585.13
371.45	547.69
371.65	545.34
371.84	535.98
372.04	547.69
372.24	702.16
372.44	634.29
372.63	603.86
372.83	592.16
373.03	589.82
373.22	606.20
373.42	660.03
373.62	610.88
373.81	617.90
374.01	606.20
374.21	734.93
374.40	505.56
374.60	631.94
374.79	678.76
374.99	643.65
375.19	653.01
375.38	697.48
375.58	671.73
375.78	575.77
375.97	664.71
376.17	596.84
376.37	547.69
376.56	559.39
376.76	622.58
376.95	585.13
377.15	624.92
377.35	624.92
377.54	624.92
377.74	645.99
377.93	594.50
378.13	589.82
378.33	608.54
378.52	601.52
378.72	655.35
378.91	648.33
379.11	580.45
379.31	601.52
379.50	587.47
379.70	617.90
379.89	655.35
380.09	589.82
380.28	617.90
380.48	634.29
380.68	631.94
380.87	627.26
381.07	678.76
381.26	589.82
381.46	578.11
381.65	599.18
381.85	617.90
382.04	645.99
382.24	566.41
382.43	624.92
382.63	571.09
382.83	655.35
383.02	582.79
383.22	643.65
383.41	702.16
383.61	641.31
383.80	648.33
384.00	596.84
384.19	624.92
384.39	564.07
384.58	660.03
384.78	627.26
384.97	648.33
385.17	575.77
385.36	599.18
385.56	578.11
385.75	599.18
385.95	603.86
386.14	676.41
386.34	664.71
386.53	543.00
386.72	643.65
386.92	641.31
387.11	697.48
387.31	650.67
387.50	624.92
387.70	557.05
387.89	610.88
388.09	648.33
388.28	629.60
388.48	638.97
388.67	643.65
388.86	594.50
389.06	587.47
389.25	603.86
389.45	641.31
389.64	669.39
389.84	599.18
390.03	629.60
390.22	561.73
390.42	685.78
390.61	631.94
390.81	615.56
391.00	559.39
391.19	645.99
391.39	599.18
391.58	634.29
391.78	620.24
391.97	655.35
392.16	617.90
392.36	634.29
392.55	657.69
392.75	631.94
392.94	538.32
393.13	606.20
393.33	610.88
393.52	601.52
393.71	648.33
393.91	624.92
394.10	610.88
394.29	589.82
394.49	603.86
394.68	690.46
394.88	629.60
395.07	641.31
395.26	660.03
395.46	669.39
395.65	596.84
395.84	655.35
396.04	655.35
396.23	585.13
396.42	629.60
396.62	610.88
396.81	561.73
397.00	606.20
397.19	650.67
397.39	524.28
397.58	636.63
397.77	589.82
397.97	643.65
398.16	631.94
398.35	596.84
398.55	601.52
398.74	671.73
398.93	669.39
399.12	528.96
399.32	582.79
399.51	617.90
399.70	662.37
399.90	678.76
400.09	645.99
400.28	657.69
400.47	667.05
400.67	634.29
400.86	578.11
401.05	561.73
401.24	599.18
401.44	620.24
401.63	638.97
401.82	573.43
402.01	636.63
402.21	592.16
402.40	638.97
402.59	592.16
402.78	629.60
402.97	627.26
403.17	585.13
403.36	585.13
403.55	606.20
403.74	657.69
403.93	667.05
404.13	648.33
404.32	653.01
404.51	653.01
404.70	711.52
404.89	645.99
405.09	692.80
405.28	655.35
405.47	660.03
405.66	648.33
405.85	592.16
406.05	566.41
406.24	627.26
406.43	596.84
406.62	706.84
406.81	631.94
407.00	636.63
407.20	660.03
407.39	571.09
407.58	615.56
407.77	617.90
407.96	655.35
408.15	629.60
408.34	645.99
408.54	648.33
408.73	650.67
408.92	674.07
409.11	657.69
409.30	620.24
409.49	599.18
409.68	624.92
409.87	627.26
410.07	653.01
410.26	580.45
410.45	617.90
410.64	603.86
410.83	587.47
411.02	650.67
411.21	617.90
411.40	601.52
411.59	631.94
411.78	603.86
411.98	622.58
412.17	641.31
412.36	620.24
412.55	582.79
412.74	561.73
412.93	620.24
413.12	615.56
413.31	617.90
413.50	711.52
413.69	566.41
413.88	662.37
414.07	589.82
414.26	667.05
414.45	685.78
414.64	674.07
414.83	695.14
415.02	657.69
415.22	681.10
415.41	660.03
415.60	655.35
415.79	601.52
415.98	657.69
416.17	622.58
416.36	657.69
416.55	641.31
416.74	617.90
416.93	634.29
417.12	676.41
417.31	580.45
417.50	557.05
417.69	739.61
417.88	575.77
418.07	596.84
418.26	650.67
418.45	638.97
418.64	631.94
418.83	592.16
419.02	660.03
419.21	645.99
419.39	610.88
419.58	643.65
419.77	648.33
419.96	664.71
420.15	664.71
420.34	636.63
420.53	638.97
420.72	716.20
420.91	692.80
421.10	615.56
421.29	627.26
421.48	655.35
421.67	624.92
421.86	608.54
422.05	629.60
422.24	596.84
422.43	683.44
422.61	622.58
422.80	629.60
422.99	627.26
423.18	620.24
423.37	671.73
423.56	657.69
423.75	624.92
423.94	671.73
424.13	681.10
424.32	653.01
424.50	669.39
424.69	608.54
424.88	620.24
425.07	592.16
425.26	629.60
425.45	617.90
425.64	634.29
425.83	601.52
426.01	716.20
426.20	629.60
426.39	638.97
426.58	723.23
426.77	648.33
426.96	660.03
427.15	627.26
427.33	580.45
427.52	692.80
427.71	627.26
427.90	697.48
428.09	643.65
428.28	634.29
428.46	610.88
428.65	688.12
428.84	603.86
429.03	662.37
429.22	648.33
429.40	636.63
429.59	641.31
429.78	660.03
429.97	622.58
430.16	674.07
430.34	564.07
430.53	704.50
430.72	603.86
430.91	667.05
431.10	631.94
431.28	681.10
431.47	636.63
431.66	657.69
431.85	603.86
432.03	636.63
432.22	685.78
432.41	669.39
432.60	592.16
432.79	643.65
432.97	601.52
433.16	674.07
433.35	627.26
433.54	669.39
433.72	655.35
433.91	601.52
434.10	641.31
434.28	617.90
434.47	638.97
434.66	615.56
434.85	643.65
435.03	826.21
435.22	1067.28
435.41	1137.50
435.59	1069.62
435.78	1029.84
435.97	887.06
436.16	798.12
436.34	697.48
436.53	723.23
436.72	664.71
436.90	664.71
437.09	627.26
437.28	643.65
437.46	641.31
437.65	681.10
437.84	631.94
438.02	601.52
438.21	624.92
438.40	580.45
438.58	585.13
438.77	645.99
438.96	650.67
439.14	688.12
439.33	636.63
439.52	699.82
439.70	655.35
439.89	629.60
440.08	564.07
440.26	685.78
440.45	608.54
440.63	643.65
440.82	617.90
441.01	636.63
441.19	641.31
441.38	587.47
441.57	636.63
441.75	664.71
441.94	725.57
442.12	638.97
442.31	704.50
442.50	571.09
442.68	667.05
442.87	643.65
443.05	657.69
443.24	678.76
443.43	636.63
443.61	582.79
443.80	643.65
443.98	653.01
444.17	638.97
444.35	582.79
444.54	664.71
444.73	589.82
444.91	683.44
445.10	622.58
445.28	622.58
445.47	671.73
445.65	648.33
445.84	627.26
446.02	580.45
446.21	573.43
446.39	596.84
446.58	573.43
446.77	580.45
446.95	657.69
447.14	645.99
447.32	624.92
447.51	667.05
447.69	688.12
447.88	727.91
448.06	613.22
448.25	624.92
448.43	657.69
448.62	613.22
448.80	709.18
448.99	603.86
449.17	620.24
449.36	627.26
449.54	645.99
449.73	627.26
449.91	645.99
450.10	671.73
450.28	674.07
450.46	697.48
450.65	688.12
450.83	634.29
451.02	638.97
451.20	648.33
451.39	634.29
451.57	662.37
451.76	643.65
451.94	655.35
452.13	601.52
452.31	622.58
452.49	688.12
452.68	596.84
452.86	660.03
453.05	697.48
453.23	587.47
453.42	559.39
453.60	608.54
453.78	655.35
453.97	629.60
454.15	613.22
454.34	578.11
454.52	564.07
454.70	641.31
454.89	645.99
455.07	610.88
455.26	624.92
455.44	568.75
455.62	559.39
455.81	636.63
455.99	678.76
456.17	648.33
456.36	671.73
456.54	589.82
456.73	678.76
456.91	631.94
457.09	667.05
457.28	692.80
457.46	645.99
457.64	671.73
457.83	634.29
458.01	657.69
458.19	676.41
458.38	650.67
458.56	641.31
458.74	587.47
458.93	653.01
459.11	660.03
459.29	648.33
459.48	615.56
459.66	683.44
459.84	657.69
460.03	699.82
460.21	650.67
460.39	671.73
460.57	678.76
460.76	664.71
460.94	608.54
461.12	664.71
461.31	620.24
461.49	634.29
461.67	681.10
461.85	699.82
462.04	676.41
462.22	931.53
462.40	641.31
462.59	716.20
462.77	634.29
462.95	638.97
463.13	606.20
463.32	653.01
463.50	669.39
463.68	660.03
463.86	627.26
464.05	662.37
464.23	620.24
464.41	706.84
464.59	620.24
464.78	634.29
464.96	667.05
465.14	683.44
465.32	681.10
465.50	643.65
465.69	671.73
465.87	676.41
466.05	624.92
466.23	554.71
466.41	606.20
466.60	631.94
466.78	582.79
466.96	671.73
467.14	622.58
467.32	662.37
467.51	688.12
467.69	645.99
467.87	653.01
468.05	723.23
468.23	727.91
468.41	695.14
468.60	627.26
468.78	697.48
468.96	580.45
469.14	620.24
469.32	655.35
469.50	702.16
469.69	657.69
469.87	603.86
470.05	674.07
470.23	667.05
470.41	681.10
470.59	631.94
470.77	564.07
470.95	704.50
471.14	610.88
471.32	582.79
471.50	683.44
471.68	566.41
471.86	657.69
472.04	636.63
472.22	610.88
472.40	613.22
472.58	650.67
472.77	650.67
472.95	688.12
473.13	683.44
473.31	592.16
473.49	643.65
473.67	641.31
473.85	648.33
474.03	627.26
474.21	667.05
474.39	697.48
474.57	636.63
474.75	622.58
474.93	613.22
475.12	582.79
475.30	674.07
475.48	629.60
475.66	617.90
475.84	592.16
476.02	653.01
476.20	662.37
476.38	671.73
476.56	622.58
476.74	627.26
476.92	678.76
477.10	613.22
477.28	657.69
477.46	601.52
477.64	660.03
477.82	678.76
478.00	552.37
478.18	634.29
478.36	624.92
478.54	627.26
478.72	610.88
478.90	683.44
479.08	697.48
479.26	585.13
479.44	592.16
479.62	704.50
479.80	674.07
479.98	559.39
480.16	648.33
480.34	650.67
480.52	636.63
480.70	657.69
480.88	624.92
481.06	688.12
481.24	660.03
481.41	645.99
481.59	681.10
481.77	634.29
481.95	638.97
482.13	702.16
482.31	653.01
482.49	608.54
482.67	706.84
482.85	622.58
483.03	685.78
483.21	660.03
483.39	725.57
483.57	692.80
483.74	678.76
483.92	702.16
484.10	681.10
484.28	650.67
484.46	688.12
484.64	720.88
484.82	608.54
485.00	706.84
485.18	741.95
485.35	748.97
485.53	732.59
485.71	599.18
485.89	725.57
486.07	734.93
486.25	746.63
486.43	746.63
486.61	678.76
486.78	704.50
486.96	678.76
487.14	711.52
487.32	765.36
487.50	692.80
487.68	688.12
487.85	746.63
488.03	716.20
488.21	657.69
488.39	702.16
488.57	697.48
488.75	683.44
488.92	812.17
489.10	741.95
489.28	681.10
489.46	664.71
489.64	706.84
489.81	716.20
489.99	727.91
490.17	765.36
490.35	819.19
490.53	643.65
490.70	674.07
490.88	655.35
491.06	678.76
491.24	681.10
491.41	718.54
491.59	660.03
491.77	695.14
491.95	713.86
492.13	660.03
492.30	678.76
492.48	795.78
492.66	699.82
492.84	688.12
493.01	791.10
493.19	751.31
493.37	709.18
493.54	695.14
493.72	627.26
493.90	720.88
494.08	744.29
494.25	690.46
494.43	683.44
494.61	702.16
494.79	699.82
494.96	702.16
495.14	711.52
495.32	641.31
495.49	671.73
495.67	711.52
495.85	739.61
496.02	669.39
496.20	629.60
496.38	713.86
496.55	636.63
496.73	690.46
496.91	674.07
497.09	704.50
497.26	676.41
497.44	662.37
497.62	695.14
497.79	655.35
497.97	734.93
498.14	671.73
498.32	711.52
498.50	692.80
498.67	636.63
498.85	688.12
499.03	681.10
499.20	643.65
499.38	627.26
499.56	685.78
499.73	697.48
499.91	634.29
500.08	688.12
500.26	660.03
500.44	669.39
500.61	683.44
500.79	671.73
500.97	641.31
501.14	645.99
501.32	657.69
501.49	692.80
501.67	657.69
501.84	758.33
502.02	678.76
502.20	683.44
502.37	667.05
502.55	641.31
502.72	645.99
502.90	599.18
503.07	641.31
503.25	645.99
503.43	575.77
503.60	606.20
503.78	664.71
503.95	653.01
504.13	615.56
504.30	692.80
504.48	716.20
504.65	615.56
504.83	547.69
505.01	669.39
505.18	657.69
505.36	727.91
505.53	638.97
505.71	711.52
505.88	634.29
506.06	613.22
506.23	667.05
506.41	683.44
506.58	650.67
506.76	690.46
506.93	608.54
507.11	657.69
507.28	664.71
507.46	650.67
507.63	648.33
507.81	601.52
507.98	685.78
508.16	697.48
508.33	667.05
508.50	636.63
508.68	690.46
508.85	608.54
509.03	545.34
509.20	582.79
509.38	676.41
509.55	613.22
509.73	662.37
509.90	660.03
510.08	653.01
510.25	678.76
510.42	596.84
510.60	631.94
510.77	564.07
510.95	678.76
511.12	667.05
511.30	641.31
511.47	645.99
511.64	702.16
511.82	688.12
511.99	681.10
512.17	627.26
512.34	617.90
512.51	587.47
512.69	613.22
512.86	674.07
513.04	606.20
513.21	655.35
513.38	543.00
513.56	592.16
513.73	620.24
513.90	716.20
514.08	580.45
514.25	638.97
514.43	650.67
514.60	638.97
514.77	653.01
514.95	650.67
515.12	568.75
515.29	683.44
515.47	667.05
515.64	622.58
515.81	667.05
515.99	650.67
516.16	755.99
516.33	664.71
516.51	645.99
516.68	631.94
516.85	613.22
517.03	671.73
517.20	711.52
517.37	697.48
517.54	688.12
517.72	573.43
517.89	643.65
518.06	655.35
518.24	702.16
518.41	678.76
518.58	650.67
518.75	620.24
518.93	678.76
519.10	634.29
519.27	589.82
519.45	655.35
519.62	674.07
519.79	622.58
519.96	606.20
520.14	655.35
520.31	660.03
520.48	624.92
520.65	624.92
520.83	631.94
521.00	645.99
521.17	685.78
521.34	660.03
521.52	669.39
521.69	671.73
521.86	645.99
522.03	643.65
522.20	585.13
522.38	688.12
522.55	692.80
522.72	650.67
522.89	653.01
523.07	695.14
523.24	631.94
523.41	636.63
523.58	629.60
523.75	674.07
523.92	648.33
524.10	648.33
524.27	645.99
524.44	603.86
524.61	674.07
524.78	662.37
524.96	620.24
525.13	617.90
525.30	655.35
525.47	685.78
525.64	697.48
525.81	624.92
525.98	648.33
526.16	641.31
526.33	599.18
526.50	674.07
526.67	655.35
526.84	617.90
527.01	671.73
527.18	678.76
527.36	653.01
527.53	690.46
527.70	683.44
527.87	653.01
528.04	660.03
528.21	627.26
528.38	648.33
528.55	624.92
528.72	620.24
528.89	702.16
529.07	695.14
529.24	662.37
529.41	720.88
529.58	641.31
529.75	622.58
529.92	676.41
530.09	645.99
530.26	674.07
530.43	699.82
530.60	601.52
530.77	648.33
530.94	695.14
531.11	610.88
531.28	692.80
531.46	620.24
531.63	667.05
531.80	627.26
531.97	678.76
532.14	662.37
532.31	629.60
532.48	662.37
532.65	643.65
532.82	615.56
532.99	718.54
533.16	596.84
533.33	669.39
533.50	664.71
533.67	674.07
533.84	690.46
534.01	655.35
534.18	702.16
534.35	711.52
534.52	601.52
534.69	681.10
534.86	688.12
535.03	615.56
535.20	676.41
535.37	702.16
535.54	669.39
535.71	645.99
535.88	716.20
536.05	667.05
536.22	629.60
536.38	676.41
536.55	664.71
536.72	716.20
536.89	688.12
537.06	678.76
537.23	744.29
537.40	676.41
537.57	730.25
537.74	784.08
537.91	830.89
538.08	807.48
538.25	732.59
538.42	763.01
538.59	732.59
538.75	805.14
538.92	821.53
539.09	770.04
539.26	779.40
539.43	840.25
539.60	821.53
539.77	938.55
539.94	884.72
540.11	844.93
540.28	910.47
540.44	985.37
540.61	1025.15
540.78	992.39
540.95	1086.01
541.12	1203.04
541.29	1301.34
541.46	1294.32
541.62	1338.79
541.79	1284.95
541.96	1158.57
542.13	1313.04
542.30	1348.15
542.47	1336.45
542.63	1240.48
542.80	1212.40
542.97	1256.87
543.14	1254.53
543.31	1196.01
543.48	1160.91
543.64	1245.16
543.81	1242.82
543.98	1259.21
544.15	1177.29
544.32	1170.27
544.48	1130.48
544.65	1170.27
544.82	1156.22
544.99	1219.42
545.16	1212.40
545.32	1242.82
545.49	1624.33
545.66	2015.20
545.83	2239.89
546.00	1989.46
546.16	1717.95
546.33	1488.58
546.50	1378.58
546.67	1364.53
546.83	1142.18
547.00	1064.94
547.17	1060.26
547.34	947.92
547.50	983.02
547.67	910.47
547.84	896.43
548.00	947.92
548.17	905.79
548.34	936.21
548.51	938.55
548.67	954.94
548.84	910.47
549.01	931.53
549.18	931.53
549.34	943.24
549.51	891.74
549.68	938.55
549.84	821.53
550.01	887.06
550.18	901.11
550.34	821.53
550.51	851.96
550.68	772.38
550.84	781.74
551.01	816.85
551.18	837.91
551.34	823.87
551.51	840.25
551.68	784.08
551.84	851.96
552.01	746.63
552.18	795.78
552.34	772.38
552.51	791.10
552.68	823.87
552.84	727.91
553.01	699.82
553.18	704.50
553.34	690.46
553.51	741.95
553.67	786.42
553.84	746.63
554.01	727.91
554.17	765.36
554.34	746.63
554.51	603.86
554.67	662.37
554.84	781.74
555.00	734.93
555.17	678.76
555.33	734.93
555.50	645.99
555.67	734.93
555.83	709.18
556.00	716.20
556.16	755.99
556.33	695.14
556.50	706.84
556.66	617.90
556.83	627.26
556.99	622.58
557.16	690.46
557.32	634.29
557.49	636.63
557.65	676.41
557.82	704.50
557.98	737.27
558.15	723.23
558.32	669.39
558.48	732.59
558.65	667.05
558.81	674.07
558.98	629.60
559.14	706.84
559.31	725.57
559.47	617.90
559.64	676.41
559.80	638.97
559.97	739.61
560.13	662.37
560.30	685.78
560.46	657.69
560.63	662.37
560.79	664.71
560.96	683.44
561.12	638.97
561.29	624.92
561.45	667.05
561.61	692.80
561.78	734.93
561.94	667.05
562.11	690.46
562.27	624.92
562.44	709.18
562.60	704.50
562.77	671.73
562.93	737.27
563.10	653.01
563.26	678.76
563.42	681.10
563.59	624.92
563.75	653.01
563.92	655.35
564.08	716.20
564.24	650.67
564.41	704.50
564.57	657.69
564.74	664.71
564.90	650.67
565.07	709.18
565.23	627.26
565.39	699.82
565.56	702.16
565.72	653.01
565.88	645.99
566.05	653.01
566.21	697.48
566.38	660.03
566.54	674.07
566.70	601.52
566.87	596.84
567.03	641.31
567.19	631.94
567.36	645.99
567.52	645.99
567.68	664.71
567.85	629.60
568.01	690.46
568.17	683.44
568.34	704.50
568.50	653.01
568.66	664.71
568.83	641.31
568.99	662.37
569.15	643.65
569.32	578.11
569.48	704.50
569.64	638.97
569.81	648.33
569.97	655.35
570.13	681.10
570.30	685.78
570.46	613.22
570.62	629.60
570.78	667.05
570.95	643.65
571.11	681.10
571.27	713.86
571.43	650.67
571.60	671.73
571.76	599.18
571.92	657.69
572.09	648.33
572.25	671.73
572.41	636.63
572.57	674.07
572.74	704.50
572.90	657.69
573.06	636.63
573.22	606.20
573.38	683.44
573.55	695.14
573.71	653.01
573.87	624.92
574.03	568.75
574.20	688.12
574.36	655.35
574.52	615.56
574.68	606.20
574.84	713.86
575.01	606.20
575.17	606.20
575.33	617.90
575.49	704.50
575.65	674.07
575.82	713.86
575.98	681.10
576.14	774.72
576.30	786.42
576.46	758.33
576.62	957.28
576.79	889.40
576.95	912.81
577.11	866.00
577.27	730.25
577.43	805.14
577.59	681.10
577.75	711.52
577.92	638.97
578.08	681.10
578.24	685.78
578.40	695.14
578.56	788.76
578.72	898.77
578.88	978.34
579.04	889.40
579.21	791.10
579.37	802.80
579.53	812.17
579.69	744.29
579.85	734.93
580.01	800.46
580.17	784.08
580.33	772.38
580.49	744.29
580.65	751.31
580.82	688.12
580.98	760.67
581.14	828.55
581.30	732.59
581.46	739.61
581.62	826.21
581.78	734.93
581.94	711.52
582.10	720.88
582.26	695.14
582.42	746.63
582.58	758.33
582.74	739.61
582.90	802.80
583.06	884.72
583.22	791.10
583.38	795.78
583.54	805.14
583.70	854.30
583.86	765.36
584.02	795.78
584.18	870.68
584.34	753.65
584.50	744.29
584.66	795.78
584.82	748.97
584.98	725.57
585.14	730.25
585.30	830.89
585.46	793.44
585.62	702.16
585.78	819.19
585.94	741.95
586.10	758.33
586.26	807.48
586.42	798.12
586.58	837.91
586.74	858.98
586.90	891.74
587.06	861.32
587.22	884.72
587.38	866.00
587.54	837.91
587.70	861.32
587.86	863.66
588.02	863.66
588.18	868.34
588.34	770.04
588.49	746.63
588.65	760.67
588.81	758.33
588.97	706.84
589.13	695.14
589.29	727.91
589.45	814.51
589.61	753.65
589.77	760.67
589.93	662.37
590.08	692.80
590.24	758.33
590.40	716.20
590.56	734.93
590.72	739.61
590.88	802.80
591.04	702.16
591.20	683.44
591.35	809.83
591.51	779.40
591.67	772.38
591.83	795.78
591.99	753.65
592.15	751.31
592.31	730.25
592.46	723.23
592.62	791.10
592.78	755.99
592.94	755.99
593.10	840.25
593.26	772.38
593.41	791.10
593.57	732.59
593.73	779.40
593.89	767.70
594.05	795.78
594.20	734.93
594.36	767.70
594.52	739.61
594.68	723.23
594.84	732.59
594.99	723.23
595.15	695.14
595.31	697.48
595.47	709.18
595.62	695.14
595.78	629.60
595.94	681.10
596.10	699.82
596.25	718.54
596.41	802.80
596.57	606.20
596.73	662.37
596.88	692.80
597.04	732.59
597.20	699.82
597.36	725.57
597.51	685.78
597.67	655.35
597.83	683.44
597.99	718.54
598.14	774.72
598.30	711.52
598.46	727.91
598.61	753.65
598.77	784.08
598.93	727.91
599.09	791.10
599.24	779.40
599.40	746.63
599.56	795.78
599.71	744.29
599.87	702.16
600.03	704.50
600.18	716.20
600.34	751.31
600.50	718.54
600.65	781.74
600.81	723.23
600.97	755.99
601.12	690.46
601.28	727.91
601.44	678.76
601.59	725.57
601.75	662.37
601.91	727.91
602.06	662.37
602.22	697.48
602.37	669.39
602.53	653.01
602.69	629.60
602.84	620.24
603.00	725.57
603.16	690.46
603.31	653.01
603.47	674.07
603.62	692.80
603.78	709.18
603.94	692.80
604.09	608.54
604.25	660.03
604.40	683.44
604.56	638.97
604.71	641.31
604.87	734.93
605.03	718.54
605.18	695.14
605.34	606.20
605.49	690.46
605.65	622.58
605.80	688.12
605.96	683.44
606.12	660.03
606.27	683.44
606.43	648.33
606.58	676.41
606.74	603.86
606.89	643.65
607.05	730.25
607.20	727.91
607.36	814.51
607.51	748.97
607.67	734.93
607.82	814.51
607.98	777.06
608.13	758.33
608.29	868.34
608.44	763.01
608.60	786.42
608.75	912.81
608.91	858.98
609.06	784.08
609.22	812.17
609.37	877.70
609.53	875.36
609.68	891.74
