SpectraSuite Data File
++++++++++++++++++++++++++++++++++++
Date: Thu Oct 24 13:21:17 EDT 2013
User: stostad
Dark Spectrum Present: No
Reference Spectrum Present: No
Number of Sampled Component Spectra: 1
Spectrometers: USB2+H05261
Integration Time (usec): 100000 (USB2+H05261)
Spectra Averaged: 1 (USB2+H05261)
Boxcar Smoothing: 0 (USB2+H05261)
Correct for Electrical Dark: No (USB2+H05261)
Strobe/Lamp Enabled: No (USB2+H05261)
Correct for Detector Non-linearity: No (USB2+H05261)
Correct for Stray Light: No (USB2+H05261)
Number of Pixels in Processed Spectrum: 2048
>>>>>Begin Processed Spectral Data<<<<<
365.73	627.26
365.92	627.26
366.12	627.26
366.32	498.53
366.52	496.19
366.72	416.62
366.91	461.09
367.11	451.72
367.31	444.70
367.51	484.49
367.70	386.19
367.90	402.57
368.10	411.93
368.30	397.89
368.49	470.45
368.69	491.51
368.89	484.49
369.09	472.79
369.28	486.83
369.48	538.32
369.68	524.28
369.87	538.32
370.07	500.87
370.27	603.86
370.47	566.41
370.66	688.12
370.86	777.06
371.06	774.72
371.25	896.43
371.45	821.53
371.65	826.21
371.84	777.06
372.04	922.17
372.24	901.11
372.44	863.66
372.63	847.27
372.83	880.04
373.03	910.47
373.22	887.06
373.42	894.08
373.62	856.64
373.81	910.47
374.01	873.02
374.21	905.79
374.40	961.96
374.60	961.96
374.79	889.40
374.99	936.21
375.19	898.77
375.38	954.94
375.58	919.83
375.78	952.60
375.97	898.77
376.17	945.58
376.37	961.96
376.56	964.30
376.76	966.64
376.95	1025.15
377.15	1008.77
377.35	987.71
377.54	997.07
377.74	922.17
377.93	1015.79
378.13	990.05
378.33	1034.52
378.52	961.96
378.72	1104.73
378.91	1032.18
379.11	964.30
379.31	973.66
379.50	987.71
379.70	1036.86
379.89	1006.43
380.09	1025.15
380.28	1046.22
380.48	987.71
380.68	912.81
380.87	1067.28
381.07	957.28
381.26	978.34
381.46	1032.18
381.65	1020.47
381.85	1076.65
382.04	1102.39
382.24	1022.81
382.43	1048.56
382.63	1086.01
382.83	999.41
383.02	1125.80
383.22	1160.91
383.41	1076.65
383.61	1083.67
383.80	1132.82
384.00	1067.28
384.19	1121.12
384.39	1104.73
384.58	1055.58
384.78	1121.12
384.97	1081.33
385.17	1121.12
385.36	1177.29
385.56	1153.88
385.75	1158.57
385.95	1123.46
386.14	1149.20
386.34	1191.33
386.53	1132.82
386.72	1100.05
386.92	1165.59
387.11	1179.63
387.31	1121.12
387.50	1153.88
387.70	1184.31
387.89	1273.25
388.09	1170.27
388.28	1238.14
388.48	1139.84
388.67	1149.20
388.86	1270.91
389.06	1144.52
389.25	1261.55
389.45	1301.34
389.64	1203.04
389.84	1212.40
390.03	1256.87
390.22	1191.33
390.42	1219.42
390.61	1233.46
390.81	1191.33
391.00	1249.85
391.19	1231.12
391.39	1352.83
391.58	1277.93
391.78	1219.42
391.97	1345.81
392.16	1336.45
392.36	1324.74
392.55	1277.93
392.75	1322.40
392.94	1369.21
393.13	1275.59
393.33	1240.48
393.52	1315.38
393.71	1376.24
393.91	1341.13
394.10	1366.87
394.29	1406.66
394.49	1336.45
394.68	1378.58
394.88	1394.96
395.07	1472.20
395.26	1416.02
395.46	1322.40
395.65	1416.02
395.84	1430.07
396.04	1502.62
396.23	1432.41
396.42	1497.94
396.62	1416.02
396.81	1472.20
397.00	1453.47
397.19	1476.88
397.39	1483.90
397.58	1493.26
397.77	1451.13
397.97	1537.73
398.16	1537.73
398.35	1621.99
398.55	1614.97
398.74	1603.27
398.93	1530.71
399.12	1591.56
399.32	1547.09
399.51	1584.54
399.70	1612.63
399.90	1610.29
400.09	1640.72
400.28	1671.14
400.47	1563.48
400.67	1579.86
400.86	1650.08
401.05	1619.65
401.24	1626.67
401.44	1680.50
401.63	1696.89
401.82	1858.39
402.01	1764.76
402.21	1715.61
402.40	1732.00
402.59	1750.72
402.78	1682.85
402.97	1750.72
403.17	1694.55
403.36	1757.74
403.55	1830.30
403.74	1788.17
403.93	1846.68
404.13	1870.09
404.32	1966.05
404.51	1792.85
404.70	1886.47
404.89	1923.92
405.09	1930.94
405.28	1973.07
405.47	1926.26
405.66	1947.33
405.85	1980.09
406.05	2026.90
406.24	1933.28
406.43	1973.07
406.62	2115.84
406.81	2092.44
407.00	1937.96
407.20	1968.39
407.39	2008.18
407.58	2026.90
407.77	2136.91
407.96	2064.35
408.15	2139.25
408.34	2141.59
408.54	2115.84
408.73	2080.74
408.92	2193.08
409.11	2183.72
409.30	2258.62
409.49	2155.63
409.68	2230.53
409.87	2204.78
410.07	2312.45
410.26	2228.19
410.45	2317.13
410.64	2146.27
410.83	2410.75
411.02	2375.64
411.21	2345.22
411.40	2415.43
411.59	2377.98
411.78	2422.45
411.98	2396.71
412.17	2490.33
412.36	2569.91
412.55	2525.44
412.74	2452.88
412.93	2389.69
413.12	2455.22
413.31	2504.37
413.50	2452.88
413.69	2499.69
413.88	2593.31
414.07	2619.06
414.26	2544.16
414.45	2644.81
414.64	2710.34
414.83	2768.85
415.02	2743.11
415.22	2794.60
415.41	2726.72
415.60	2787.58
415.79	2761.83
415.98	2782.90
416.17	2918.65
416.36	2916.31
416.55	2939.71
416.74	3016.95
416.93	2883.54
417.12	3056.74
417.31	2958.44
417.50	2963.12
417.69	3016.95
417.88	3063.76
418.07	2979.50
418.26	2986.52
418.45	3045.04
418.64	3070.78
418.83	3084.83
419.02	2977.16
419.21	3164.40
419.39	2932.69
419.58	3201.85
419.77	3124.62
419.96	3192.49
420.15	3173.77
420.34	3169.09
420.53	3248.66
420.72	3384.41
420.91	3377.39
421.10	3356.33
421.29	3330.58
421.48	3386.76
421.67	3365.69
421.86	3346.97
422.05	3236.96
422.24	3225.26
422.43	3314.20
422.61	3405.48
422.80	3379.73
422.99	3398.46
423.18	3562.30
423.37	3454.63
423.56	3384.41
423.75	3297.81
423.94	3424.20
424.13	3288.45
424.32	3311.86
424.50	3445.27
424.69	3473.36
424.88	3414.84
425.07	3449.95
425.26	3302.50
425.45	3576.34
425.64	3386.76
425.83	3396.12
426.01	3487.40
426.20	3520.17
426.39	3438.25
426.58	3478.04
426.77	3588.04
426.96	3517.83
427.15	3506.12
427.33	3581.02
427.52	3592.72
427.71	3658.26
427.90	3651.24
428.09	3555.27
428.28	3651.24
428.46	3562.30
428.65	3562.30
428.84	3782.31
429.03	3606.77
429.22	3744.86
429.40	3730.81
429.59	3819.75
429.78	3604.42
429.97	3616.13
430.16	3660.60
430.34	3789.33
430.53	3761.24
430.72	3812.73
430.91	3796.35
431.10	3908.69
431.28	3716.77
431.47	4023.38
431.66	3801.03
431.85	3913.38
432.03	4053.81
432.22	4060.83
432.41	4072.53
432.60	4079.55
432.79	3918.06
432.97	4182.54
433.16	4049.13
433.35	3983.59
433.54	4180.20
433.72	4077.21
433.91	4112.32
434.10	4084.23
434.28	4114.66
434.47	4131.05
434.66	4124.02
434.85	4393.19
435.03	4351.06
435.22	4404.89
435.41	4519.57
435.59	4500.85
435.78	4568.73
435.97	4421.27
436.16	4348.72
436.34	4346.37
436.53	4320.63
436.72	4362.76
436.90	4372.12
437.09	4409.57
437.28	4423.61
437.46	4447.02
437.65	4386.16
437.84	4564.04
438.02	4442.34
438.21	4496.17
438.40	4418.93
438.58	4587.45
438.77	4706.82
438.96	4634.26
439.14	4669.37
439.33	4688.09
439.52	4774.69
439.70	4767.67
439.89	4840.23
440.08	4835.55
440.26	4734.90
440.45	4777.03
440.63	4805.12
440.82	5034.49
441.01	4884.70
441.19	4992.36
441.38	5238.12
441.57	4978.32
441.75	5198.33
441.94	5301.31
442.12	5210.03
442.31	5238.12
442.50	5128.11
442.68	5217.05
442.87	5210.03
443.05	5193.65
443.24	5397.28
443.43	5310.68
443.61	5401.96
443.80	5483.88
443.98	5331.74
444.17	5184.29
444.35	5296.63
444.54	5446.43
444.73	5334.08
444.91	5355.15
445.10	5537.71
445.28	5366.85
445.47	5329.40
445.65	5320.04
445.84	5406.64
446.02	5507.28
446.21	5336.42
446.39	5380.89
446.58	5467.49
446.77	5423.02
446.95	5397.28
447.14	5420.68
447.32	5640.69
447.51	5535.37
447.69	5486.22
447.88	5490.90
448.06	5504.94
448.25	5488.56
448.43	5497.92
448.62	5488.56
448.80	5664.10
448.99	5563.45
449.17	5771.76
449.36	5792.83
449.54	5682.82
449.73	5851.34
449.91	5844.32
450.10	5750.70
450.28	5816.23
450.46	5863.04
450.65	5774.10
450.83	5879.43
451.02	5867.72
451.20	5860.70
451.39	5877.09
451.57	5870.06
451.76	5785.80
451.94	5893.47
452.13	6045.60
452.31	6104.12
452.49	5991.77
452.68	6043.26
452.86	5973.05
453.05	6115.82
453.23	6078.37
453.42	5980.07
453.60	6045.60
453.78	6265.61
453.97	5970.71
454.15	6230.51
454.34	6024.54
454.52	6097.10
454.70	6354.55
454.89	6260.93
455.07	6214.12
455.26	6239.87
455.44	6384.98
455.62	6417.75
455.81	6384.98
455.99	6445.84
456.17	6441.15
456.36	6377.96
456.54	6541.80
456.73	6637.76
456.91	6808.62
457.09	6597.97
457.28	6672.87
457.46	6583.93
457.64	6909.26
457.83	6590.95
458.01	6539.46
458.19	6787.55
458.38	6689.25
458.56	6836.70
458.74	6764.15
458.93	6719.68
459.11	6878.83
459.29	6813.30
459.48	6799.26
459.66	6829.68
459.84	6911.60
460.03	6972.46
460.21	7122.25
460.39	6939.69
460.57	7155.02
460.76	7206.51
460.94	7201.83
461.12	7260.34
461.31	7279.07
461.49	7162.04
461.67	7171.40
461.85	7405.46
462.04	7124.59
462.22	7480.35
462.40	7414.82
462.59	7236.94
462.77	7206.51
462.95	7316.51
463.13	7227.57
463.32	7274.38
463.50	7466.31
463.68	7566.95
463.86	7506.10
464.05	7377.37
464.23	7435.88
464.41	7431.20
464.59	7288.43
464.78	7719.09
464.96	7487.37
465.14	7440.56
465.32	7627.81
465.50	7723.77
465.69	7761.22
465.87	7655.89
466.05	7588.02
466.23	7693.34
466.41	7686.32
466.60	7831.43
466.78	7815.05
466.96	7651.21
467.14	7873.56
467.32	7866.54
467.51	7960.16
467.69	7772.92
467.87	7925.05
468.05	7826.75
468.23	7885.26
468.41	7854.84
468.60	8025.70
468.78	7819.73
468.96	7878.24
469.14	8009.31
469.32	7978.89
469.50	7946.12
469.69	8051.44
469.87	8124.00
470.05	8105.28
470.23	8229.32
470.41	8156.77
470.59	8187.19
470.77	8311.24
470.95	8166.13
471.14	8526.57
471.32	8182.51
471.50	8351.03
471.68	8493.80
471.86	8456.36
472.04	8606.15
472.22	8594.45
472.40	8533.59
472.58	8557.00
472.77	8748.92
472.95	8748.92
473.13	8931.48
473.31	8634.24
473.49	8760.63
473.67	8732.54
473.85	8861.27
474.03	9320.01
474.21	8816.80
474.39	8992.34
474.57	9095.32
474.75	9144.47
474.93	9242.78
475.12	9170.22
475.30	9516.62
475.48	9076.60
475.66	9385.55
475.84	9376.19
476.02	9528.32
476.20	9486.19
476.38	9715.56
476.56	9877.06
476.74	9741.31
476.92	9799.82
477.10	9858.34
477.28	9905.15
477.46	9966.00
477.64	9980.04
477.82	10008.13
478.00	10513.69
478.18	10169.63
478.36	10153.24
478.54	10410.70
478.72	10511.35
478.90	10593.26
479.08	10679.86
479.26	10801.57
479.44	10927.96
479.62	10923.28
479.80	11030.94
479.98	10906.90
480.16	11316.49
480.34	11049.67
480.52	11337.56
480.70	11543.52
480.88	11136.27
481.06	11353.94
481.24	11454.58
481.41	11595.01
481.59	11761.19
481.77	11808.00
481.95	11861.84
482.13	11873.54
482.31	12063.12
482.49	12336.96
482.67	12243.34
482.85	12308.88
483.03	12531.23
483.21	12402.50
483.39	12812.09
483.57	12613.15
483.74	12732.51
483.92	12711.45
484.10	12812.09
484.28	13207.64
484.46	13334.03
484.64	13458.08
484.82	13509.57
485.00	13605.53
485.18	13605.53
485.35	14057.26
485.53	13825.54
485.71	14214.07
485.89	14303.01
486.07	14122.79
486.25	14270.25
486.43	14391.95
486.61	14347.48
486.78	14703.25
486.96	14778.14
487.14	14946.66
487.32	15073.05
487.50	14927.94
487.68	15028.58
487.85	15459.24
488.03	15452.22
488.21	15836.06
488.39	15482.64
488.57	15838.41
488.75	15782.23
488.92	15688.61
489.10	16025.65
489.28	15964.79
489.46	16240.98
489.64	16114.59
489.81	16418.86
489.99	16865.90
490.17	16486.73
490.35	16903.35
490.53	16961.86
490.70	17104.64
490.88	16821.43
491.06	17207.62
491.24	17296.56
491.41	17504.87
491.59	17528.27
491.77	17715.51
491.95	17972.97
492.13	17804.46
492.30	18097.02
492.48	17806.80
492.66	18183.62
492.84	17865.31
493.01	18295.97
493.19	18251.50
493.37	18483.21
493.54	18431.72
493.72	18775.78
493.90	18513.64
494.08	18979.40
494.25	19077.71
494.43	19206.44
494.61	19688.59
494.79	19447.51
494.96	19501.34
495.14	19616.03
495.32	19992.86
495.49	19850.08
495.67	19688.59
495.85	20081.80
496.02	20058.39
496.20	20058.39
496.38	20119.24
496.55	20320.53
496.73	21015.67
496.91	21039.08
497.09	20830.77
497.26	20961.84
497.44	20994.61
497.62	20947.79
497.79	21287.17
497.97	20793.32
498.14	21687.40
498.32	21916.78
498.50	21600.80
498.67	21584.42
498.85	21661.66
499.03	21645.27
499.20	22094.66
499.38	22300.62
499.56	21891.03
499.73	22270.20
499.91	22504.25
500.08	22583.83
500.26	21921.46
500.44	22412.97
500.61	22651.70
500.79	22820.22
500.97	22647.02
501.14	23190.03
501.32	22724.26
501.49	22670.43
501.67	23328.12
501.84	22995.76
502.02	23264.92
502.20	23484.94
502.37	23136.20
502.55	23103.43
502.72	23482.59
502.90	23508.34
503.07	23276.63
503.25	23772.82
503.43	23880.49
503.60	23707.29
503.78	23634.73
503.95	24013.90
504.13	23662.82
504.30	24334.55
504.48	23817.29
504.65	24191.78
504.83	24788.61
505.01	24388.38
505.18	24556.90
505.36	24936.07
505.53	24542.86
505.71	24552.22
505.88	24697.33
506.06	24802.66
506.23	25090.54
506.41	25191.19
506.58	25226.29
506.76	25085.86
506.93	25165.44
507.11	25308.21
507.28	25455.67
507.46	25645.25
507.63	25893.35
507.81	25558.65
507.98	25254.38
508.16	25523.54
508.33	25703.76
508.50	26249.11
508.68	26040.80
508.85	26033.78
509.03	25984.63
509.20	26054.84
509.38	26635.30
509.55	26677.43
509.73	26593.17
509.90	26429.33
510.08	26651.68
510.25	26937.23
510.42	26618.91
510.60	26902.12
510.77	26867.01
510.95	27250.86
511.12	26815.52
511.30	27569.17
511.47	27316.39
511.64	27328.10
511.82	27550.45
511.99	27122.13
512.17	27367.88
512.34	27531.72
512.51	28201.11
512.69	28407.08
512.86	27875.78
513.04	28491.34
513.21	28217.50
513.38	28271.33
513.56	27854.72
513.73	28128.56
513.90	28011.53
514.08	28041.96
514.25	28643.48
514.43	28545.17
514.60	28727.74
514.77	28161.33
514.95	28549.85
515.12	28407.08
515.29	28517.09
515.47	28926.68
515.64	29160.73
515.81	28943.06
515.99	29235.63
516.16	28966.47
516.33	29146.69
516.51	29345.64
516.68	28950.09
516.85	28802.63
517.03	29500.11
517.20	29448.62
517.37	29603.10
517.54	29294.14
517.72	29507.13
517.89	29750.55
518.06	29394.79
518.24	29914.39
518.41	30122.69
518.58	29947.15
518.75	29539.90
518.93	29883.96
519.10	29930.77
519.27	30237.38
519.45	30115.67
519.62	30183.55
519.79	29905.02
519.96	30323.98
520.14	30431.65
520.31	30639.95
520.48	30637.61
520.65	30632.93
520.83	30916.14
521.00	31159.55
521.17	30906.77
521.34	30787.41
521.52	30738.26
521.69	30806.13
521.86	31089.34
522.03	31117.42
522.20	31182.96
522.38	31615.96
522.55	31777.45
522.72	31592.55
522.89	31262.54
523.07	31604.25
523.24	31496.59
523.41	31747.03
523.58	31541.06
523.75	32327.48
523.92	32009.17
524.10	31934.27
524.27	32212.79
524.44	32395.35
524.61	31814.90
524.78	32271.31
524.96	32385.99
525.13	32414.08
525.30	32645.79
525.47	32348.54
525.64	32858.78
525.81	32704.31
525.98	32418.76
526.16	32657.49
526.33	32818.99
526.50	32678.56
526.67	32404.72
526.84	32755.80
527.01	32741.75
527.18	32760.48
527.36	32996.87
527.53	32989.85
527.70	32893.89
527.87	33525.83
528.04	33008.58
528.21	33776.27
528.38	33436.89
528.55	33659.24
528.72	33205.18
528.89	33467.32
529.07	33481.36
529.24	33462.64
529.41	33799.68
529.58	33771.59
529.75	34075.86
529.92	33830.10
530.09	33645.20
530.26	34038.41
530.43	34036.07
530.60	33574.98
530.77	33886.28
530.94	34265.44
531.11	33806.70
531.28	34532.26
531.46	34316.93
531.63	34314.59
531.80	34015.01
531.97	34387.15
532.14	34405.88
532.31	34082.88
532.48	34553.33
532.65	35152.51
532.82	34742.91
532.99	34909.09
533.16	34181.18
533.33	34958.24
533.50	34986.33
533.67	34646.95
533.84	34841.21
534.01	35065.91
534.18	34909.09
534.35	35409.96
534.52	34976.97
534.69	35159.53
534.86	35374.86
535.03	34822.49
535.20	34897.39
535.37	34873.98
535.54	35648.70
535.71	35707.21
535.88	35569.12
536.05	35681.47
536.22	35442.73
536.38	35840.62
536.55	35613.59
536.72	35763.39
536.89	35929.56
537.06	35800.83
537.23	35929.56
537.40	35995.10
537.57	35892.12
537.74	35782.11
537.91	36397.67
538.08	35864.03
538.25	35482.52
538.42	35983.40
538.59	36903.23
538.75	36180.00
538.92	36481.93
539.09	36484.27
539.26	36407.03
539.43	35903.82
539.60	36561.51
539.77	36163.62
539.94	37146.64
540.11	36896.20
540.28	36987.49
540.44	36720.66
540.61	37258.99
540.78	37202.82
540.95	36961.74
541.12	36591.94
541.29	37064.72
541.46	37677.94
541.62	37516.45
541.79	37523.47
541.96	37333.89
542.13	37298.78
542.30	37240.26
542.47	37581.98
542.63	37315.16
542.80	38089.88
542.97	38328.61
543.14	38176.48
543.31	37832.42
543.48	38068.81
543.64	37989.24
543.81	37968.17
543.98	38012.64
544.15	37586.66
544.32	38132.01
544.48	38216.27
544.65	38326.27
544.82	38328.61
544.99	38447.98
545.16	38057.11
545.32	38345.00
545.49	38431.60
545.66	39138.44
545.83	39414.62
546.00	39349.09
546.16	39042.48
546.33	38632.88
546.50	38452.66
546.67	38703.10
546.83	38096.90
547.00	38132.01
547.17	38389.47
547.34	38700.76
547.50	38611.82
547.67	39477.82
547.84	39196.95
548.00	39035.45
548.17	39421.64
548.34	38775.66
548.51	39058.86
548.67	39199.29
548.84	38902.04
549.01	39124.40
549.18	38967.58
549.34	39316.32
549.51	39370.15
549.68	38911.41
549.84	39173.55
550.01	38892.68
550.18	38506.49
550.34	39171.21
550.51	39082.27
550.68	39047.16
550.84	39388.88
551.01	39419.30
551.18	38995.67
551.34	39189.93
551.51	39409.94
551.68	39035.45
551.84	39316.32
552.01	39049.50
552.18	39833.58
552.34	39512.92
552.51	39658.04
552.68	39569.10
552.84	40018.48
553.01	39737.62
553.18	39772.72
553.34	39917.84
553.51	39871.03
553.67	39810.17
553.84	40346.15
554.01	39789.11
554.17	39931.88
554.34	40144.87
554.51	39651.02
554.67	40383.60
554.84	39735.27
555.00	39910.82
555.17	40027.84
555.33	40142.53
555.50	39498.88
555.67	40285.30
555.83	40280.62
556.00	40481.91
556.16	40495.95
556.33	40205.72
556.50	39920.18
556.66	40112.10
556.83	39985.71
556.99	40739.36
557.16	40507.65
557.32	40753.41
557.49	40704.26
557.65	40226.79
557.82	40531.06
557.98	40292.32
558.15	40385.94
558.32	40961.72
558.48	40189.34
558.65	40816.60
558.81	40481.91
558.98	40650.42
559.14	40505.31
559.31	40627.02
559.47	40484.25
559.64	40783.83
559.80	40439.78
559.97	40690.21
560.13	40091.04
560.30	40722.98
560.46	41024.91
560.63	41130.23
560.79	41462.59
560.96	41214.49
561.12	41017.89
561.29	40697.24
561.45	40947.67
561.61	41113.85
561.78	40720.64
561.94	40903.20
562.11	41022.57
562.27	41071.72
562.44	41174.70
562.60	41284.71
562.77	41523.44
562.93	40886.82
563.10	41481.31
563.26	41441.53
563.42	41289.39
563.59	41366.63
563.75	41509.40
563.92	41261.30
564.08	40758.09
564.24	41413.44
564.41	41528.13
564.57	41399.40
564.74	40989.80
564.90	41518.76
565.07	41385.35
565.23	41593.66
565.39	41663.88
565.56	42120.28
565.72	41303.43
565.88	41860.48
566.05	41521.10
566.21	41055.34
566.38	41219.17
566.54	41560.89
566.70	41755.16
566.87	41916.65
567.03	41968.15
567.19	42080.49
567.36	42305.18
567.52	41429.82
567.68	41909.63
567.85	41722.39
568.01	41804.31
568.17	42038.36
568.34	41628.77
568.50	41991.55
568.66	42019.64
568.83	41993.89
568.99	41895.59
569.15	41221.52
569.32	41628.77
569.48	41897.93
569.64	41958.78
569.81	41450.89
569.97	41069.38
570.13	41778.56
570.30	41872.18
570.46	41839.42
570.62	41652.17
570.78	41347.90
570.95	41694.30
571.11	41911.97
571.27	42040.70
571.43	41722.39
571.60	41518.76
571.76	42064.11
571.92	41570.25
572.09	41696.64
572.25	42508.81
572.41	42047.72
572.57	42017.30
572.74	42932.45
572.90	42094.53
573.06	42419.87
573.22	41743.45
573.38	42043.04
573.55	41869.84
573.71	42389.44
573.87	42157.73
574.03	41734.09
574.20	42387.10
574.36	42160.07
574.52	42335.61
574.68	41776.22
574.84	42106.24
575.01	42387.10
575.17	42274.76
575.33	42029.00
575.49	42286.46
575.65	42178.79
575.82	42092.19
575.98	42202.20
576.14	42293.48
576.30	42618.81
576.46	42281.78
576.62	42241.99
576.79	42155.39
576.95	42057.09
577.11	42452.64
577.27	42347.31
577.43	42272.42
577.59	42602.43
577.75	42204.54
577.92	42085.17
578.08	41799.63
578.24	42220.92
578.40	42684.35
578.56	42773.29
578.72	42391.78
578.88	42361.36
579.04	42651.58
579.21	42244.33
579.37	42841.17
579.53	43131.39
579.69	42050.06
579.85	42155.39
580.01	42522.85
580.17	42319.23
580.33	42263.05
580.49	42656.26
580.65	42241.99
580.82	42770.95
580.98	42909.04
581.14	42515.83
581.30	42557.96
581.46	42270.08
581.62	42286.46
581.78	42139.00
581.94	42054.75
582.10	42139.00
582.26	42422.21
582.42	41855.80
582.58	42258.37
582.74	42426.89
582.90	42536.90
583.06	42618.81
583.22	42230.29
583.38	42581.37
583.54	42029.00
583.70	42377.74
583.86	42543.92
584.02	42515.83
584.18	42583.71
584.34	42660.94
584.50	42438.59
584.66	42309.86
584.82	42176.45
584.98	42113.26
585.14	42387.10
585.30	42328.59
585.46	42576.69
585.62	42557.96
585.78	43030.75
585.94	42349.65
586.10	42674.99
586.26	43271.82
586.42	43112.67
586.58	42939.47
586.74	42733.50
586.90	42593.07
587.06	42993.30
587.22	43091.60
587.38	42564.98
587.54	43154.80
587.70	43182.88
587.86	43255.44
588.02	42653.92
588.18	43182.88
588.34	42988.62
588.49	43075.22
588.65	42822.44
588.81	43047.13
588.97	43119.69
589.13	42522.85
589.29	42983.94
589.45	43274.16
589.61	43320.98
