SpectraSuite Data File
++++++++++++++++++++++++++++++++++++
Date: Thu Oct 24 13:20:59 EDT 2013
User: stostad
Dark Spectrum Present: No
Reference Spectrum Present: No
Number of Sampled Component Spectra: 1
Spectrometers: USB2+H05261
Integration Time (usec): 100000 (USB2+H05261)
Spectra Averaged: 1 (USB2+H05261)
Boxcar Smoothing: 0 (USB2+H05261)
Correct for Electrical Dark: No (USB2+H05261)
Strobe/Lamp Enabled: No (USB2+H05261)
Correct for Detector Non-linearity: No (USB2+H05261)
Correct for Stray Light: No (USB2+H05261)
Number of Pixels in Processed Spectrum: 2048
>>>>>Begin Processed Spectral Data<<<<<
365.73	547.69
365.92	547.69
366.12	547.69
366.32	442.36
366.52	510.24
366.72	463.43
366.91	493.85
367.11	449.38
367.31	470.45
367.51	468.11
367.70	449.38
367.90	479.81
368.10	482.15
368.30	454.06
368.49	470.45
368.69	510.24
368.89	524.28
369.09	433.00
369.28	538.32
369.48	454.06
369.68	425.98
369.87	531.30
370.07	444.70
370.27	528.96
370.47	524.28
370.66	587.47
370.86	540.66
371.06	568.75
371.25	664.71
371.45	603.86
371.65	580.45
371.84	580.45
372.04	601.52
372.24	580.45
372.44	552.37
372.63	603.86
372.83	610.88
373.03	627.26
373.22	627.26
373.42	641.31
373.62	627.26
373.81	699.82
374.01	545.34
374.21	617.90
374.40	627.26
374.60	620.24
374.79	631.94
374.99	683.44
375.19	592.16
375.38	660.03
375.58	641.31
375.78	704.50
375.97	641.31
376.17	653.01
376.37	599.18
376.56	662.37
376.76	622.58
376.95	631.94
377.15	636.63
377.35	613.22
377.54	653.01
377.74	622.58
377.93	580.45
378.13	650.67
378.33	678.76
378.52	594.50
378.72	629.60
378.91	620.24
379.11	629.60
379.31	667.05
379.50	550.03
379.70	655.35
379.89	627.26
380.09	664.71
380.28	603.86
380.48	638.97
380.68	608.54
380.87	624.92
381.07	554.71
381.26	587.47
381.46	655.35
381.65	671.73
381.85	620.24
382.04	638.97
382.24	674.07
382.43	699.82
382.63	627.26
382.83	622.58
383.02	702.16
383.22	709.18
383.41	634.29
383.61	566.41
383.80	587.47
384.00	631.94
384.19	627.26
384.39	664.71
384.58	564.07
384.78	631.94
384.97	613.22
385.17	594.50
385.36	669.39
385.56	603.86
385.75	608.54
385.95	634.29
386.14	589.82
386.34	653.01
386.53	608.54
386.72	660.03
386.92	627.26
387.11	624.92
387.31	613.22
387.50	594.50
387.70	557.05
387.89	596.84
388.09	578.11
388.28	636.63
388.48	622.58
388.67	676.41
388.86	603.86
389.06	587.47
389.25	617.90
389.45	641.31
389.64	660.03
389.84	716.20
390.03	674.07
390.22	676.41
390.42	559.39
390.61	650.67
390.81	622.58
391.00	617.90
391.19	550.03
391.39	638.97
391.58	596.84
391.78	678.76
391.97	575.77
392.16	603.86
392.36	636.63
392.55	655.35
392.75	624.92
392.94	615.56
393.13	540.66
393.33	603.86
393.52	650.67
393.71	629.60
393.91	674.07
394.10	538.32
394.29	634.29
394.49	610.88
394.68	578.11
394.88	589.82
395.07	655.35
395.26	606.20
395.46	627.26
395.65	603.86
395.84	596.84
396.04	688.12
396.23	582.79
396.42	627.26
396.62	613.22
396.81	601.52
397.00	667.05
397.19	629.60
397.39	603.86
397.58	629.60
397.77	582.79
397.97	662.37
398.16	660.03
398.35	638.97
398.55	617.90
398.74	545.34
398.93	660.03
399.12	657.69
399.32	580.45
399.51	620.24
399.70	634.29
399.90	578.11
400.09	676.41
400.28	627.26
400.47	664.71
400.67	610.88
400.86	622.58
401.05	624.92
401.24	676.41
401.44	638.97
401.63	620.24
401.82	571.09
402.01	678.76
402.21	674.07
402.40	622.58
402.59	606.20
402.78	634.29
402.97	653.01
403.17	589.82
403.36	592.16
403.55	578.11
403.74	620.24
403.93	662.37
404.13	664.71
404.32	638.97
404.51	690.46
404.70	709.18
404.89	667.05
405.09	655.35
405.28	667.05
405.47	571.09
405.66	580.45
405.85	617.90
406.05	631.94
406.24	610.88
406.43	662.37
406.62	580.45
406.81	690.46
407.00	568.75
407.20	613.22
407.39	674.07
407.58	559.39
407.77	655.35
407.96	608.54
408.15	634.29
408.34	660.03
408.54	592.16
408.73	624.92
408.92	669.39
409.11	674.07
409.30	667.05
409.49	648.33
409.68	641.31
409.87	671.73
410.07	624.92
410.26	601.52
410.45	660.03
410.64	608.54
410.83	622.58
411.02	554.71
411.21	631.94
411.40	653.01
411.59	667.05
411.78	662.37
411.98	610.88
412.17	582.79
412.36	613.22
412.55	573.43
412.74	610.88
412.93	650.67
413.12	589.82
413.31	664.71
413.50	711.52
413.69	578.11
413.88	648.33
414.07	641.31
414.26	620.24
414.45	615.56
414.64	568.75
414.83	564.07
415.02	592.16
415.22	606.20
415.41	692.80
415.60	627.26
415.79	578.11
415.98	631.94
416.17	568.75
416.36	737.27
416.55	615.56
416.74	641.31
416.93	622.58
417.12	638.97
417.31	594.50
417.50	624.92
417.69	634.29
417.88	596.84
418.07	641.31
418.26	667.05
418.45	596.84
418.64	645.99
418.83	554.71
419.02	615.56
419.21	683.44
419.39	669.39
419.58	592.16
419.77	617.90
419.96	650.67
420.15	664.71
420.34	669.39
420.53	662.37
420.72	613.22
420.91	601.52
421.10	655.35
421.29	648.33
421.48	660.03
421.67	627.26
421.86	617.90
422.05	594.50
422.24	601.52
422.43	702.16
422.61	669.39
422.80	627.26
422.99	610.88
423.18	655.35
423.37	606.20
423.56	634.29
423.75	683.44
423.94	660.03
424.13	624.92
424.32	524.28
424.50	627.26
424.69	615.56
424.88	695.14
425.07	617.90
425.26	641.31
425.45	720.88
425.64	709.18
425.83	606.20
426.01	627.26
426.20	638.97
426.39	613.22
426.58	599.18
426.77	643.65
426.96	685.78
427.15	608.54
427.33	706.84
427.52	622.58
427.71	662.37
427.90	669.39
428.09	615.56
428.28	580.45
428.46	648.33
428.65	634.29
428.84	592.16
429.03	613.22
429.22	573.43
429.40	669.39
429.59	660.03
429.78	599.18
429.97	634.29
430.16	669.39
430.34	617.90
430.53	629.60
430.72	624.92
430.91	575.77
431.10	564.07
431.28	650.67
431.47	692.80
431.66	631.94
431.85	634.29
432.03	538.32
432.22	681.10
432.41	645.99
432.60	631.94
432.79	641.31
432.97	615.56
433.16	690.46
433.35	727.91
433.54	662.37
433.72	566.41
433.91	681.10
434.10	582.79
434.28	634.29
434.47	592.16
434.66	622.58
434.85	650.67
435.03	826.21
435.22	968.98
435.41	1071.97
435.59	1069.62
435.78	980.68
435.97	870.68
436.16	788.76
436.34	723.23
436.53	655.35
436.72	638.97
436.90	697.48
437.09	711.52
437.28	678.76
437.46	648.33
437.65	662.37
437.84	702.16
438.02	662.37
438.21	571.09
438.40	648.33
438.58	580.45
438.77	653.01
438.96	634.29
439.14	638.97
439.33	704.50
439.52	667.05
439.70	613.22
439.89	662.37
440.08	676.41
440.26	732.59
440.45	631.94
440.63	676.41
440.82	709.18
441.01	610.88
441.19	613.22
441.38	681.10
441.57	629.60
441.75	627.26
441.94	657.69
442.12	615.56
442.31	664.71
442.50	725.57
442.68	603.86
442.87	559.39
443.05	702.16
443.24	690.46
443.43	622.58
443.61	622.58
443.80	606.20
443.98	599.18
444.17	678.76
444.35	676.41
444.54	674.07
444.73	709.18
444.91	674.07
445.10	655.35
445.28	645.99
445.47	622.58
445.65	580.45
445.84	657.69
446.02	624.92
446.21	617.90
446.39	671.73
446.58	606.20
446.77	615.56
446.95	645.99
447.14	638.97
447.32	664.71
447.51	608.54
447.69	608.54
447.88	702.16
448.06	723.23
448.25	702.16
448.43	603.86
448.62	592.16
448.80	634.29
448.99	664.71
449.17	641.31
449.36	617.90
449.54	688.12
449.73	617.90
449.91	660.03
450.10	683.44
450.28	657.69
450.46	634.29
450.65	702.16
450.83	650.67
451.02	610.88
451.20	664.71
451.39	615.56
451.57	697.48
451.76	631.94
451.94	660.03
452.13	667.05
452.31	613.22
452.49	690.46
452.68	671.73
452.86	580.45
453.05	683.44
453.23	615.56
453.42	615.56
453.60	627.26
453.78	660.03
453.97	608.54
454.15	617.90
454.34	545.34
454.52	594.50
454.70	685.78
454.89	629.60
455.07	629.60
455.26	664.71
455.44	650.67
455.62	671.73
455.81	629.60
455.99	660.03
456.17	624.92
456.36	629.60
456.54	664.71
456.73	592.16
456.91	622.58
457.09	636.63
457.28	718.54
457.46	657.69
457.64	709.18
457.83	664.71
458.01	610.88
458.19	645.99
458.38	657.69
458.56	653.01
458.74	660.03
458.93	645.99
459.11	683.44
459.29	634.29
459.48	629.60
459.66	655.35
459.84	592.16
460.03	720.88
460.21	638.97
460.39	692.80
460.57	648.33
460.76	739.61
460.94	645.99
461.12	674.07
461.31	634.29
461.49	657.69
461.67	613.22
461.85	589.82
462.04	580.45
462.22	1067.28
462.40	638.97
462.59	620.24
462.77	603.86
462.95	620.24
463.13	638.97
463.32	664.71
463.50	615.56
463.68	660.03
463.86	653.01
464.05	613.22
464.23	638.97
464.41	655.35
464.59	681.10
464.78	568.75
464.96	653.01
465.14	716.20
465.32	580.45
465.50	636.63
465.69	643.65
465.87	664.71
466.05	664.71
466.23	524.28
466.41	688.12
466.60	655.35
466.78	610.88
466.96	685.78
467.14	606.20
467.32	692.80
467.51	631.94
467.69	641.31
467.87	692.80
468.05	622.58
468.23	737.27
468.41	725.57
468.60	716.20
468.78	669.39
468.96	627.26
469.14	662.37
469.32	613.22
469.50	627.26
469.69	695.14
469.87	634.29
470.05	601.52
470.23	620.24
470.41	641.31
470.59	645.99
470.77	613.22
470.95	606.20
471.14	615.56
471.32	587.47
471.50	730.25
471.68	603.86
471.86	695.14
472.04	599.18
472.22	671.73
472.40	629.60
472.58	669.39
472.77	575.77
472.95	603.86
473.13	685.78
473.31	713.86
473.49	622.58
473.67	636.63
473.85	580.45
474.03	641.31
474.21	608.54
474.39	685.78
474.57	702.16
474.75	692.80
474.93	585.13
475.12	629.60
475.30	669.39
475.48	653.01
475.66	624.92
475.84	657.69
476.02	669.39
476.20	674.07
476.38	631.94
476.56	692.80
476.74	622.58
476.92	622.58
477.10	702.16
477.28	631.94
477.46	676.41
477.64	613.22
477.82	662.37
478.00	575.77
478.18	690.46
478.36	596.84
478.54	610.88
478.72	704.50
478.90	596.84
479.08	660.03
479.26	578.11
479.44	641.31
479.62	671.73
479.80	720.88
479.98	603.86
480.16	610.88
480.34	671.73
480.52	650.67
480.70	655.35
480.88	643.65
481.06	655.35
481.24	620.24
481.41	620.24
481.59	613.22
481.77	620.24
481.95	650.67
482.13	683.44
482.31	704.50
482.49	638.97
482.67	674.07
482.85	702.16
483.03	706.84
483.21	681.10
483.39	629.60
483.57	634.29
483.74	709.18
483.92	734.93
484.10	692.80
484.28	690.46
484.46	669.39
484.64	662.37
484.82	629.60
485.00	629.60
485.18	620.24
485.35	657.69
485.53	671.73
485.71	685.78
485.89	718.54
486.07	767.70
486.25	645.99
486.43	697.48
486.61	695.14
486.78	753.65
486.96	767.70
487.14	739.61
487.32	669.39
487.50	706.84
487.68	732.59
487.85	697.48
488.03	720.88
488.21	798.12
488.39	739.61
488.57	732.59
488.75	723.23
488.92	772.38
489.10	748.97
489.28	702.16
489.46	662.37
489.64	683.44
489.81	706.84
489.99	751.31
490.17	718.54
490.35	760.67
490.53	725.57
490.70	718.54
490.88	730.25
491.06	695.14
491.24	739.61
491.41	690.46
491.59	774.72
491.77	688.12
491.95	697.48
492.13	627.26
492.30	734.93
492.48	660.03
492.66	732.59
492.84	723.23
493.01	638.97
493.19	704.50
493.37	720.88
493.54	758.33
493.72	725.57
493.90	669.39
494.08	650.67
494.25	709.18
494.43	741.95
494.61	678.76
494.79	692.80
494.96	711.52
495.14	685.78
495.32	746.63
495.49	695.14
495.67	702.16
495.85	683.44
496.02	674.07
496.20	674.07
496.38	594.50
496.55	662.37
496.73	695.14
496.91	681.10
497.09	720.88
497.26	702.16
497.44	720.88
497.62	627.26
497.79	664.71
497.97	711.52
498.14	674.07
498.32	688.12
498.50	695.14
498.67	601.52
498.85	653.01
499.03	674.07
499.20	657.69
499.38	669.39
499.56	709.18
499.73	657.69
499.91	744.29
500.08	669.39
500.26	657.69
500.44	641.31
500.61	648.33
500.79	603.86
500.97	631.94
501.14	601.52
501.32	653.01
501.49	725.57
501.67	699.82
501.84	624.92
502.02	641.31
502.20	732.59
502.37	688.12
502.55	634.29
502.72	582.79
502.90	695.14
503.07	629.60
503.25	620.24
503.43	613.22
503.60	610.88
503.78	716.20
503.95	667.05
504.13	582.79
504.30	599.18
504.48	610.88
504.65	645.99
504.83	685.78
505.01	645.99
505.18	685.78
505.36	582.79
505.53	645.99
505.71	669.39
505.88	678.76
506.06	650.67
506.23	720.88
506.41	685.78
506.58	657.69
506.76	575.77
506.93	643.65
507.11	622.58
507.28	601.52
507.46	608.54
507.63	695.14
507.81	638.97
507.98	718.54
508.16	688.12
508.33	643.65
508.50	641.31
508.68	667.05
508.85	636.63
509.03	589.82
509.20	641.31
509.38	641.31
509.55	634.29
509.73	681.10
509.90	734.93
510.08	671.73
510.25	723.23
510.42	669.39
510.60	683.44
510.77	643.65
510.95	589.82
511.12	585.13
511.30	580.45
511.47	650.67
511.64	685.78
511.82	622.58
511.99	688.12
512.17	631.94
512.34	587.47
512.51	613.22
512.69	564.07
512.86	636.63
513.04	655.35
513.21	671.73
513.38	638.97
513.56	634.29
513.73	615.56
513.90	622.58
514.08	615.56
514.25	631.94
514.43	699.82
514.60	641.31
514.77	629.60
514.95	669.39
515.12	657.69
515.29	575.77
515.47	674.07
515.64	664.71
515.81	720.88
515.99	676.41
516.16	643.65
516.33	629.60
516.51	615.56
516.68	631.94
516.85	641.31
517.03	664.71
517.20	685.78
517.37	655.35
517.54	662.37
517.72	671.73
517.89	620.24
518.06	610.88
518.24	655.35
518.41	688.12
518.58	648.33
518.75	657.69
518.93	610.88
519.10	589.82
519.27	662.37
519.45	660.03
519.62	660.03
519.79	685.78
519.96	660.03
520.14	697.48
520.31	713.86
520.48	678.76
520.65	645.99
520.83	657.69
521.00	650.67
521.17	758.33
521.34	653.01
521.52	643.65
521.69	655.35
521.86	713.86
522.03	706.84
522.20	585.13
522.38	613.22
522.55	606.20
522.72	617.90
522.89	655.35
523.07	676.41
523.24	589.82
523.41	699.82
523.58	608.54
523.75	664.71
523.92	648.33
524.10	678.76
524.27	540.66
524.44	629.60
524.61	627.26
524.78	650.67
524.96	669.39
525.13	697.48
525.30	676.41
525.47	629.60
525.64	613.22
525.81	653.01
525.98	606.20
526.16	627.26
526.33	624.92
526.50	550.03
526.67	678.76
526.84	599.18
527.01	638.97
527.18	664.71
527.36	627.26
527.53	603.86
527.70	674.07
527.87	638.97
528.04	662.37
528.21	711.52
528.38	671.73
528.55	608.54
528.72	648.33
528.89	732.59
529.07	674.07
529.24	676.41
529.41	671.73
529.58	664.71
529.75	660.03
529.92	645.99
530.09	629.60
530.26	692.80
530.43	697.48
530.60	690.46
530.77	601.52
530.94	725.57
531.11	674.07
531.28	627.26
531.46	622.58
531.63	648.33
531.80	636.63
531.97	643.65
532.14	753.65
532.31	671.73
532.48	688.12
532.65	681.10
532.82	653.01
532.99	643.65
533.16	667.05
533.33	648.33
533.50	741.95
533.67	653.01
533.84	723.23
534.01	674.07
534.18	692.80
534.35	690.46
534.52	650.67
534.69	638.97
534.86	608.54
535.03	692.80
535.20	645.99
535.37	638.97
535.54	711.52
535.71	648.33
535.88	751.31
536.05	653.01
536.22	697.48
536.38	641.31
536.55	727.91
536.72	727.91
536.89	755.99
537.06	688.12
537.23	737.27
537.40	730.25
537.57	723.23
537.74	751.31
537.91	657.69
538.08	772.38
538.25	805.14
538.42	732.59
538.59	772.38
538.75	791.10
538.92	725.57
539.09	793.44
539.26	765.36
539.43	786.42
539.60	849.61
539.77	821.53
539.94	856.64
540.11	891.74
540.28	926.85
540.44	978.34
540.61	898.77
540.78	985.37
540.95	1036.86
541.12	1095.37
541.29	1207.72
541.46	1320.06
541.62	1322.40
541.79	1249.85
541.96	1320.06
542.13	1327.08
542.30	1256.87
542.47	1310.70
542.63	1228.78
542.80	1235.80
542.97	1263.89
543.14	1205.38
543.31	1256.87
543.48	1240.48
543.64	1245.16
543.81	1151.54
543.98	1156.22
544.15	1146.86
544.32	1224.10
544.48	1238.14
544.65	1233.46
544.82	1214.74
544.99	1163.25
545.16	1224.10
545.32	1221.76
545.49	1572.84
545.66	1966.05
545.83	2148.61
546.00	1968.39
546.16	1607.95
546.33	1462.83
546.50	1394.96
546.67	1256.87
546.83	1132.82
547.00	1001.75
547.17	1020.47
547.34	966.64
547.50	961.96
547.67	950.26
547.84	929.19
548.00	856.64
548.17	978.34
548.34	938.55
548.51	877.70
548.67	866.00
548.84	929.19
549.01	959.62
549.18	816.85
549.34	826.21
549.51	922.17
549.68	875.36
549.84	854.30
550.01	863.66
550.18	847.27
550.34	798.12
550.51	807.48
550.68	812.17
550.84	835.57
551.01	875.36
551.18	725.57
551.34	786.42
551.51	786.42
551.68	793.44
551.84	774.72
552.01	833.23
552.18	791.10
552.34	781.74
552.51	725.57
552.68	720.88
552.84	727.91
553.01	730.25
553.18	697.48
553.34	723.23
553.51	674.07
553.67	720.88
553.84	765.36
554.01	727.91
554.17	753.65
554.34	671.73
554.51	751.31
554.67	699.82
554.84	734.93
555.00	706.84
555.17	760.67
555.33	744.29
555.50	720.88
555.67	685.78
555.83	737.27
556.00	692.80
556.16	784.08
556.33	662.37
556.50	620.24
556.66	690.46
556.83	631.94
556.99	678.76
557.16	755.99
557.32	697.48
557.49	699.82
557.65	685.78
557.82	622.58
557.98	622.58
558.15	655.35
558.32	690.46
558.48	678.76
558.65	723.23
558.81	660.03
558.98	650.67
559.14	699.82
559.31	676.41
559.47	655.35
559.64	657.69
559.80	674.07
559.97	655.35
560.13	704.50
560.30	589.82
560.46	660.03
560.63	706.84
560.79	685.78
560.96	664.71
561.12	634.29
561.29	631.94
561.45	655.35
561.61	608.54
561.78	727.91
561.94	716.20
562.11	692.80
562.27	645.99
562.44	678.76
562.60	662.37
562.77	638.97
562.93	669.39
563.10	730.25
563.26	571.09
563.42	648.33
563.59	662.37
563.75	667.05
563.92	627.26
564.08	711.52
564.24	692.80
564.41	692.80
564.57	610.88
564.74	641.31
564.90	688.12
565.07	683.44
565.23	624.92
565.39	615.56
565.56	660.03
565.72	613.22
565.88	674.07
566.05	653.01
566.21	638.97
566.38	676.41
566.54	704.50
566.70	704.50
566.87	599.18
567.03	634.29
567.19	650.67
567.36	620.24
567.52	699.82
567.68	664.71
567.85	606.20
568.01	613.22
568.17	685.78
568.34	617.90
568.50	648.33
568.66	643.65
568.83	685.78
568.99	571.09
569.15	645.99
569.32	655.35
569.48	505.56
569.64	727.91
569.81	650.67
569.97	615.56
570.13	648.33
570.30	676.41
570.46	753.65
570.62	561.73
570.78	608.54
570.95	671.73
571.11	699.82
571.27	674.07
571.43	653.01
571.60	660.03
571.76	624.92
571.92	641.31
572.09	636.63
572.25	657.69
572.41	638.97
572.57	657.69
572.74	634.29
572.90	660.03
573.06	734.93
573.22	690.46
573.38	685.78
573.55	711.52
573.71	709.18
573.87	606.20
574.03	582.79
574.20	641.31
574.36	643.65
574.52	695.14
574.68	648.33
574.84	622.58
575.01	669.39
575.17	716.20
575.33	620.24
575.49	669.39
575.65	624.92
575.82	608.54
575.98	730.25
576.14	755.99
576.30	655.35
576.46	844.93
576.62	800.46
576.79	938.55
576.95	844.93
577.11	823.87
577.27	725.57
577.43	821.53
577.59	732.59
577.75	678.76
577.92	667.05
578.08	667.05
578.24	648.33
578.40	727.91
578.56	823.87
578.72	887.06
578.88	851.96
579.04	863.66
579.21	894.08
579.37	880.04
579.53	777.06
579.69	744.29
579.85	758.33
580.01	795.78
580.17	777.06
580.33	779.40
580.49	744.29
580.65	692.80
580.82	760.67
580.98	725.57
581.14	828.55
581.30	786.42
581.46	650.67
581.62	746.63
581.78	718.54
581.94	805.14
582.10	840.25
582.26	753.65
582.42	823.87
582.58	788.76
582.74	760.67
582.90	802.80
583.06	760.67
583.22	744.29
583.38	734.93
583.54	800.46
583.70	816.85
583.86	692.80
584.02	777.06
584.18	788.76
584.34	706.84
584.50	697.48
584.66	704.50
584.82	746.63
584.98	739.61
585.14	755.99
585.30	760.67
585.46	753.65
585.62	732.59
585.78	856.64
585.94	777.06
586.10	737.27
586.26	805.14
586.42	821.53
586.58	770.04
586.74	844.93
586.90	844.93
587.06	901.11
587.22	917.49
587.38	894.08
587.54	821.53
587.70	870.68
587.86	833.23
588.02	809.83
588.18	840.25
588.34	760.67
588.49	697.48
588.65	779.40
588.81	788.76
588.97	739.61
589.13	734.93
589.29	697.48
589.45	739.61
589.61	765.36
589.77	772.38
589.93	774.72
590.08	760.67
590.24	690.46
590.40	805.14
590.56	751.31
590.72	746.63
590.88	751.31
591.04	730.25
591.20	802.80
591.35	800.46
591.51	748.97
591.67	800.46
591.83	697.48
591.99	741.95
592.15	786.42
592.31	816.85
592.46	826.21
592.62	807.48
592.78	770.04
592.94	828.55
593.10	814.51
593.26	786.42
593.41	823.87
593.57	814.51
593.73	741.95
593.89	786.42
594.05	744.29
594.20	744.29
594.36	723.23
594.52	760.67
594.68	648.33
594.84	741.95
594.99	692.80
595.15	650.67
595.31	706.84
595.47	683.44
595.62	711.52
595.78	706.84
595.94	662.37
596.10	706.84
596.25	634.29
596.41	697.48
596.57	706.84
596.73	704.50
596.88	725.57
597.04	774.72
597.20	720.88
597.36	718.54
597.51	662.37
597.67	734.93
597.83	723.23
597.99	744.29
598.14	655.35
598.30	718.54
598.46	697.48
598.61	774.72
598.77	744.29
598.93	709.18
599.09	737.27
599.24	723.23
599.40	744.29
599.56	713.86
599.71	667.05
599.87	706.84
600.03	763.01
600.18	706.84
600.34	758.33
600.50	730.25
600.65	755.99
600.81	744.29
600.97	667.05
601.12	685.78
601.28	713.86
601.44	685.78
601.59	692.80
601.75	690.46
601.91	723.23
602.06	669.39
602.22	711.52
602.37	641.31
602.53	613.22
602.69	660.03
602.84	657.69
603.00	645.99
603.16	699.82
603.31	711.52
603.47	706.84
603.62	662.37
603.78	636.63
603.94	765.36
604.09	660.03
604.25	655.35
604.40	676.41
604.56	662.37
604.71	683.44
604.87	655.35
605.03	627.26
605.18	634.29
605.34	650.67
605.49	676.41
605.65	697.48
605.80	711.52
605.96	702.16
606.12	763.01
606.27	709.18
606.43	667.05
606.58	674.07
606.74	737.27
606.89	662.37
607.05	704.50
607.20	697.48
607.36	755.99
607.51	699.82
607.67	748.97
607.82	748.97
607.98	819.19
608.13	720.88
608.29	751.31
608.44	774.72
608.60	720.88
608.75	784.08
608.91	875.36
609.06	791.10
609.22	819.19
609.37	805.14
609.53	919.83
609.68	788.76
609.84	922.17
