SpectraSuite Data File
++++++++++++++++++++++++++++++++++++
Date: Thu Oct 24 13:21:15 EDT 2013
User: stostad
Dark Spectrum Present: No
Reference Spectrum Present: No
Number of Sampled Component Spectra: 1
Spectrometers: USB2+H05261
Integration Time (usec): 100000 (USB2+H05261)
Spectra Averaged: 1 (USB2+H05261)
Boxcar Smoothing: 0 (USB2+H05261)
Correct for Electrical Dark: No (USB2+H05261)
Strobe/Lamp Enabled: No (USB2+H05261)
Correct for Detector Non-linearity: No (USB2+H05261)
Correct for Stray Light: No (USB2+H05261)
Number of Pixels in Processed Spectrum: 2048
>>>>>Begin Processed Spectral Data<<<<<
365.73	606.20
365.92	606.20
366.12	606.20
366.32	510.24
366.52	510.24
366.72	526.62
366.91	449.38
367.11	468.11
367.31	468.11
367.51	475.13
367.70	498.53
367.90	505.56
368.10	416.62
368.30	407.25
368.49	402.57
368.69	578.11
368.89	477.47
369.09	524.28
369.28	500.87
369.48	512.58
369.68	496.19
369.87	493.85
370.07	535.98
370.27	484.49
370.47	634.29
370.66	695.14
370.86	786.42
371.06	884.72
371.25	755.99
371.45	837.91
371.65	805.14
371.84	802.80
372.04	791.10
372.24	788.76
372.44	887.06
372.63	870.68
372.83	858.98
373.03	847.27
373.22	854.30
373.42	901.11
373.62	866.00
373.81	870.68
374.01	873.02
374.21	961.96
374.40	919.83
374.60	875.36
374.79	926.85
374.99	903.45
375.19	863.66
375.38	882.38
375.58	894.08
375.78	945.58
375.97	868.34
376.17	961.96
376.37	821.53
376.56	978.34
376.76	943.24
376.95	961.96
377.15	894.08
377.35	940.90
377.54	1013.45
377.74	915.15
377.93	945.58
378.13	922.17
378.33	917.49
378.52	903.45
378.72	983.02
378.91	915.15
379.11	936.21
379.31	994.73
379.50	926.85
379.70	933.87
379.89	875.36
380.09	1006.43
380.28	987.71
380.48	978.34
380.68	985.37
380.87	964.30
381.07	1015.79
381.26	933.87
381.46	980.68
381.65	929.19
381.85	985.37
382.04	912.81
382.24	994.73
382.43	938.55
382.63	959.62
382.83	952.60
383.02	1013.45
383.22	1151.54
383.41	1062.60
383.61	1006.43
383.80	1078.99
384.00	1121.12
384.19	1018.13
384.39	1001.75
384.58	1001.75
384.78	1078.99
384.97	971.32
385.17	1130.48
385.36	1034.52
385.56	999.41
385.75	1067.28
385.95	1090.69
386.14	1086.01
386.34	1057.92
386.53	1015.79
386.72	1041.54
386.92	1078.99
387.11	1174.95
387.31	1156.22
387.50	1036.86
387.70	1055.58
387.89	1153.88
388.09	1228.78
388.28	1158.57
388.48	1151.54
388.67	1139.84
388.86	1151.54
389.06	1153.88
389.25	1172.61
389.45	1125.80
389.64	1137.50
389.84	1156.22
390.03	1111.75
390.22	1158.57
390.42	1198.35
390.61	1181.97
390.81	1151.54
391.00	1193.67
391.19	1191.33
391.39	1256.87
391.58	1212.40
391.78	1233.46
391.97	1259.21
392.16	1240.48
392.36	1245.16
392.55	1252.19
392.75	1205.38
392.94	1217.08
393.13	1203.04
393.33	1205.38
393.52	1238.14
393.71	1252.19
393.91	1247.51
394.10	1256.87
394.29	1277.93
394.49	1240.48
394.68	1317.72
394.88	1338.79
395.07	1399.64
395.26	1413.68
395.46	1336.45
395.65	1390.28
395.84	1345.81
396.04	1376.24
396.23	1362.19
396.42	1373.89
396.62	1322.40
396.81	1497.94
397.00	1385.60
397.19	1411.34
397.39	1380.92
397.58	1500.28
397.77	1462.83
397.97	1394.96
398.16	1446.45
398.35	1401.98
398.55	1479.22
398.74	1413.68
398.93	1603.27
399.12	1401.98
399.32	1380.92
399.51	1554.12
399.70	1493.26
399.90	1469.86
400.09	1533.05
400.28	1446.45
400.47	1509.65
400.67	1572.84
400.86	1535.39
401.05	1568.16
401.24	1551.78
401.44	1579.86
401.63	1605.61
401.82	1563.48
402.01	1547.09
402.21	1558.80
402.40	1624.33
402.59	1572.84
402.78	1664.12
402.97	1797.53
403.17	1668.80
403.36	1657.10
403.55	1607.95
403.74	1771.79
403.93	1701.57
404.13	1788.17
404.32	1825.62
404.51	1696.89
404.70	1811.57
404.89	1687.53
405.09	1727.32
405.28	1682.85
405.47	1823.28
405.66	1809.23
405.85	1844.34
406.05	1776.47
406.24	1935.62
406.43	1760.08
406.62	1842.00
406.81	1837.32
407.00	1823.28
407.20	1823.28
407.39	1832.64
407.58	1973.07
407.77	1879.45
407.96	1984.77
408.15	1956.69
408.34	1980.09
408.54	1935.62
408.73	1989.46
408.92	1975.41
409.11	2033.93
409.30	1963.71
409.49	2003.50
409.68	2038.61
409.87	2085.42
410.07	2111.16
410.26	2087.76
410.45	2139.25
410.64	2165.00
410.83	2113.50
411.02	2176.70
411.21	2209.47
411.40	2113.50
411.59	2225.85
411.78	2204.78
411.98	2300.75
412.17	2221.17
412.36	2242.23
412.55	2312.45
412.74	2333.51
412.93	2345.22
413.12	2354.58
413.31	2434.16
413.50	2253.94
413.69	2403.73
413.88	2331.17
414.07	2396.71
414.26	2429.48
414.45	2462.24
414.64	2469.27
414.83	2534.80
415.02	2492.67
415.22	2663.53
415.41	2516.08
415.60	2511.39
415.79	2518.42
415.98	2649.49
416.17	2675.23
416.36	2696.30
416.55	2630.76
416.74	2820.35
416.93	2647.15
417.12	2731.41
417.31	2775.88
417.50	2775.88
417.69	2796.94
417.88	2761.83
418.07	2708.00
418.26	2806.30
418.45	2684.59
418.64	2888.22
418.83	2743.11
419.02	2930.35
419.21	2960.78
419.39	2920.99
419.58	2918.65
419.77	2913.97
419.96	2885.88
420.15	2984.18
420.34	2984.18
420.53	2928.01
420.72	2916.31
420.91	2916.31
421.10	3002.91
421.29	3047.38
421.48	2993.55
421.67	2864.82
421.86	3045.04
422.05	3080.14
422.24	2970.14
422.43	2981.84
422.61	3136.32
422.80	3232.28
422.99	3070.78
423.18	3009.93
423.37	3122.27
423.56	3096.53
423.75	3239.30
423.94	3169.09
424.13	2946.73
424.32	2993.55
424.50	3164.40
424.69	3300.16
424.88	3096.53
425.07	3136.32
425.26	3222.92
425.45	3208.87
425.64	3054.40
425.83	3094.19
426.01	3045.04
426.20	3124.62
426.39	3361.01
426.58	3180.79
426.77	3253.34
426.96	3243.98
427.15	3335.26
427.33	3243.98
427.52	3246.32
427.71	3208.87
427.90	3323.56
428.09	3258.03
428.28	3269.73
428.46	3421.86
428.65	3426.54
428.84	3515.48
429.03	3480.38
429.22	3330.58
429.40	3372.71
429.59	3382.07
429.78	3239.30
429.97	3218.24
430.16	3393.78
430.34	3548.25
430.53	3515.48
430.72	3438.25
430.91	3588.04
431.10	3440.59
431.28	3527.19
431.47	3503.78
431.66	3627.83
431.85	3529.53
432.03	3740.18
432.22	3772.94
432.41	3744.86
432.60	3627.83
432.79	3719.11
432.97	3730.81
433.16	3726.13
433.35	3705.07
433.54	3702.73
433.72	3747.20
433.91	3719.11
434.10	3728.47
434.28	3639.53
434.47	3861.88
434.66	3754.22
434.85	3824.44
435.03	4046.79
435.22	4105.30
435.41	4114.66
435.59	4105.30
435.78	4102.96
435.97	4154.45
436.16	4084.23
436.34	3875.93
436.53	3936.78
436.72	3892.31
436.90	4009.34
437.09	4107.64
437.28	3925.08
437.46	4065.51
437.65	4140.41
437.84	4124.02
438.02	4056.15
438.21	4009.34
438.40	4159.13
438.58	4227.01
438.77	4241.05
438.96	4241.05
439.14	4332.33
439.33	4294.88
439.52	4397.87
439.70	4437.66
439.89	4437.66
440.08	4444.68
440.26	4369.78
440.45	4292.54
440.63	4341.69
440.82	4643.62
441.01	4442.34
441.19	4554.68
441.38	4702.14
441.57	4643.62
441.75	4620.22
441.94	4772.35
442.12	4662.35
442.31	4828.53
442.50	4791.08
442.68	4737.24
442.87	4788.74
443.05	4695.11
443.24	4833.21
443.43	4915.12
443.61	4809.80
443.80	4936.19
443.98	4830.87
444.17	4753.63
444.35	4774.69
444.54	4933.85
444.73	4793.42
444.91	4844.91
445.10	4898.74
445.28	4816.82
445.47	4891.72
445.65	5011.09
445.84	4959.60
446.02	5041.51
446.21	4929.17
446.39	4987.68
446.58	5053.22
446.77	4884.70
446.95	4917.47
447.14	4910.44
447.32	4980.66
447.51	5013.43
447.69	4961.94
447.88	5083.64
448.06	5060.24
448.25	5095.35
448.43	5144.50
448.62	5013.43
448.80	5107.05
448.99	5071.94
449.17	5011.09
449.36	5149.18
449.54	5181.95
449.73	5205.35
449.91	5338.76
450.10	5298.97
450.28	5362.17
450.46	5390.25
450.65	5158.54
450.83	5270.89
451.02	5394.93
451.20	5317.70
451.39	5336.42
451.57	5343.44
451.76	5240.46
451.94	5399.62
452.13	5437.06
452.31	5348.12
452.49	5420.68
452.68	5488.56
452.86	5495.58
453.05	5458.13
453.23	5547.07
453.42	5528.35
453.60	5394.93
453.78	5657.07
453.97	5621.97
454.15	5493.24
454.34	5397.28
454.52	5617.29
454.70	5643.03
454.89	5509.62
455.07	5748.36
455.26	5603.24
455.44	5806.87
455.62	5734.31
455.81	5832.62
455.99	5741.33
456.17	5715.59
456.36	5715.59
456.54	5865.38
456.73	5790.49
456.91	6010.50
457.09	5994.11
457.28	6033.90
457.46	5982.41
457.64	6050.28
457.83	5909.85
458.01	6005.81
458.19	6015.18
458.38	5919.21
458.56	6324.13
458.74	6197.74
458.93	6237.53
459.11	6113.48
459.29	6246.89
459.48	6207.10
459.66	6050.28
459.84	6256.25
460.03	6319.45
460.21	6389.66
460.39	6267.95
460.57	6272.64
460.76	6368.60
460.94	6427.11
461.12	6359.24
461.31	6494.99
461.49	6483.28
461.67	6417.75
461.85	6494.99
462.04	6518.39
462.22	6817.98
462.40	6494.99
462.59	6579.25
462.77	6473.92
462.95	6661.16
463.13	6705.63
463.32	6656.48
463.50	6726.70
463.68	6731.38
463.86	6569.88
464.05	6590.95
464.23	6691.59
464.41	6775.85
464.59	6670.53
464.78	6878.83
464.96	6717.34
465.14	6712.66
465.32	6794.58
465.50	7075.44
465.69	6775.85
465.87	6825.00
466.05	6801.60
466.23	6789.89
466.41	7129.27
466.60	6817.98
466.78	6850.75
466.96	6925.65
467.14	6808.62
467.32	7173.74
467.51	7180.76
467.69	6881.18
467.87	6829.68
468.05	7014.59
468.23	7136.29
468.41	6930.33
468.60	7138.63
468.78	7215.87
468.96	6825.00
469.14	7124.59
469.32	7358.64
469.50	7356.30
469.69	7108.21
469.87	7372.69
470.05	7253.32
470.23	7426.52
470.41	7190.13
470.59	7424.18
470.77	7281.41
470.95	7470.99
471.14	7747.17
471.32	7501.42
471.50	7578.65
471.68	7550.57
471.86	7573.97
472.04	7630.15
472.22	7651.21
472.40	7592.70
472.58	7789.30
472.77	8063.15
472.95	7843.14
473.13	7988.25
473.31	7885.26
473.49	7765.90
473.67	7751.85
473.85	8056.12
474.03	8102.93
474.21	8140.38
474.39	8180.17
474.57	8177.83
474.75	8222.30
474.93	8472.74
475.12	8299.54
475.30	8402.52
475.48	8355.71
475.66	8582.74
475.84	8416.57
476.02	8528.91
476.20	8732.54
476.38	8610.83
476.56	8781.69
476.74	8807.44
476.92	8681.05
477.10	8746.58
477.28	9043.83
477.46	8971.27
477.64	8865.95
477.82	9153.84
478.00	9263.84
478.18	9277.88
478.36	9413.63
478.54	9362.14
478.72	9493.21
478.90	9607.90
479.08	9741.31
479.26	9570.45
479.44	9619.60
479.62	9811.53
479.80	9928.55
479.98	9909.83
480.16	10092.39
480.34	10249.21
480.52	10040.90
480.70	10178.99
480.88	9928.55
481.06	10181.33
481.24	10267.93
481.41	10204.74
481.59	10328.78
481.77	10635.39
481.95	10530.07
482.13	10759.44
482.31	10738.38
482.49	10832.00
482.67	10885.83
482.85	11019.24
483.03	11183.08
483.21	11389.05
483.39	11375.00
483.57	11279.04
483.74	11487.35
483.92	11653.53
484.10	11583.31
484.28	11702.68
484.46	11765.87
484.64	12154.40
484.82	11726.08
485.00	11929.71
485.18	12332.28
485.35	12587.40
485.53	12154.40
485.71	12533.57
485.89	12681.02
486.07	12599.10
486.25	12931.46
486.43	13027.42
486.61	12727.83
486.78	12954.87
486.96	13015.72
487.14	13266.16
487.32	13352.76
487.50	13341.05
487.68	13579.79
487.85	13626.60
488.03	13748.31
488.21	13965.98
488.39	13870.01
488.57	13912.14
488.75	14094.71
488.92	14178.97
489.10	14387.27
489.28	14604.94
489.46	14548.77
489.64	14483.24
489.81	14644.73
489.99	14661.12
490.17	14869.42
490.35	15115.18
490.53	15143.27
490.70	15281.36
490.88	15033.26
491.06	15260.29
491.24	15428.81
491.41	15550.52
491.59	15662.86
491.77	15632.44
491.95	15866.49
492.13	16135.65
492.30	16079.48
492.48	15925.00
492.66	15983.52
492.84	16035.01
493.01	16397.79
493.19	16383.75
493.37	16486.73
493.54	16636.53
493.72	16692.70
493.90	16573.33
494.08	17095.27
494.25	17008.67
494.43	17034.42
494.61	17202.94
494.79	17174.85
494.96	17348.05
495.14	17179.53
495.32	17500.19
495.49	17781.05
495.67	17867.65
495.85	17792.75
496.02	18036.17
496.20	17905.10
496.38	18204.69
496.55	18333.42
496.73	18525.34
496.91	18218.73
497.09	18511.30
497.26	18427.04
497.44	18558.11
497.62	18850.67
497.79	18911.53
497.97	18604.92
498.14	18806.20
498.32	19187.71
498.50	19164.31
498.67	19075.37
498.85	19274.31
499.03	19346.87
499.20	19838.38
499.38	19632.41
499.56	19580.92
499.73	19843.06
499.91	19843.06
500.08	19674.54
500.26	19733.06
500.44	20201.16
500.61	20173.08
500.79	20388.41
500.97	20152.01
501.14	20563.95
501.32	20292.44
501.49	20449.26
501.67	20332.23
501.84	20407.13
502.02	20524.16
502.20	20559.27
502.37	20959.50
502.55	20453.94
502.72	20793.32
502.90	20882.26
503.07	21076.52
503.25	21135.04
503.43	21064.82
503.60	21261.43
503.78	21025.03
503.95	21322.28
504.13	21282.49
504.30	21305.90
504.48	21507.18
504.65	21968.27
504.83	21804.43
505.01	21935.50
505.18	21933.16
505.36	21860.60
505.53	21774.00
505.71	21994.01
505.88	22328.71
506.06	21715.49
506.23	22047.85
506.41	22197.64
506.58	22314.67
506.76	22237.43
506.93	22380.20
507.11	22473.82
507.28	22616.60
507.46	22609.58
507.63	22642.34
507.81	22953.63
507.98	22717.24
508.16	23068.32
508.33	22970.02
508.50	23175.98
508.68	22981.72
508.85	23218.11
509.03	23178.33
509.20	23159.60
509.38	23524.72
509.55	23555.15
509.73	23990.49
509.90	23868.78
510.08	23651.11
510.25	23906.23
510.42	23520.04
510.60	23931.98
510.77	23501.32
510.95	24226.89
511.12	24126.24
511.30	24446.90
511.47	24116.88
511.64	23807.93
511.82	24725.42
511.99	23700.26
512.17	24393.06
512.34	24374.34
512.51	24718.40
512.69	24671.59
512.86	24746.48
513.04	25195.87
513.21	25144.38
513.38	24819.04
513.56	24830.74
513.73	24964.15
513.90	25429.92
514.08	25261.40
514.25	25348.00
514.43	25310.55
514.60	25149.06
514.77	25415.88
514.95	25516.52
515.12	25266.08
515.29	25792.70
515.47	25312.89
515.64	26031.44
515.81	25385.45
515.99	25848.88
516.16	25649.93
516.33	25851.22
516.51	25958.88
516.68	26139.10
516.85	25886.32
517.03	26333.37
517.20	26368.48
517.37	26314.64
517.54	26356.77
517.72	25919.09
517.89	26057.18
518.06	26464.44
518.24	26368.48
518.41	26267.83
518.58	26572.10
518.75	26485.50
518.93	26621.25
519.10	26249.11
519.27	26724.24
519.45	26363.79
519.62	26562.74
519.79	26871.69
519.96	27021.48
520.14	26998.08
520.31	26906.80
520.48	27042.55
520.65	26822.54
520.83	27442.78
521.00	27311.71
521.17	26852.97
521.34	27370.22
521.52	27447.46
521.69	27243.84
521.86	27325.75
522.03	27627.68
522.20	27840.67
522.38	28350.91
522.55	27997.49
522.72	27812.59
522.89	27885.14
523.07	27931.95
523.24	28334.53
523.41	28121.54
523.58	27910.89
523.75	28308.78
523.92	27953.02
524.10	28627.09
524.27	28386.02
524.44	28451.55
524.61	29008.60
524.78	28617.73
524.96	28507.72
525.13	28636.45
525.30	28954.77
525.47	29020.30
525.64	29142.01
525.81	29076.48
525.98	28978.17
526.16	28879.87
526.33	28938.38
526.50	29113.92
526.67	29392.45
526.84	29252.02
527.01	29511.81
527.18	29261.38
527.36	29151.37
527.53	28854.12
527.70	29467.34
527.87	29450.96
528.04	29322.23
528.21	29619.48
528.38	29591.39
528.55	29659.27
528.72	29649.91
528.89	29694.38
529.07	29469.69
529.24	29642.88
529.41	29858.21
529.58	29790.34
529.75	29818.42
529.92	29816.08
530.09	29846.51
530.26	29525.86
530.43	29977.58
530.60	29830.13
530.77	29818.42
530.94	30710.17
531.11	30590.80
531.28	30307.60
531.46	30260.79
531.63	30387.18
531.80	30466.75
531.97	30134.40
532.14	30506.54
532.31	30164.82
532.48	30630.59
532.65	30815.49
532.82	30525.27
532.99	30836.56
533.16	30766.34
533.33	30616.55
533.50	31005.08
533.67	30761.66
533.84	30745.28
534.01	30948.90
534.18	30927.84
534.35	31482.55
534.52	31496.59
534.69	30986.35
534.86	31454.46
535.03	30590.80
535.20	30953.58
535.37	31496.59
535.54	31356.16
535.71	31583.19
535.88	31468.50
536.05	31346.79
536.22	31534.04
536.38	31599.57
536.55	31482.55
536.72	31770.43
536.89	32081.72
537.06	31875.76
537.23	32060.66
537.40	31892.14
537.57	32081.72
537.74	32009.17
537.91	31777.45
538.08	31796.18
538.25	31875.76
538.42	31887.46
538.59	32353.23
538.75	31896.82
538.92	31960.02
539.09	32582.60
539.26	32294.71
539.43	31725.96
539.60	32378.97
539.77	32369.61
539.94	32896.23
540.11	32790.91
540.28	32854.10
540.44	32395.35
540.61	32767.50
540.78	32676.22
540.95	32863.46
541.12	32865.80
541.29	32872.82
541.46	32893.89
541.62	33514.13
541.79	33612.43
541.96	32971.13
542.13	33008.58
542.30	33156.03
542.47	33589.03
542.63	33188.80
542.80	33556.26
542.97	33745.84
543.14	33731.80
543.31	34110.97
543.48	33619.46
543.64	33977.56
543.81	33736.48
543.98	33521.15
544.15	33617.11
544.32	33975.22
544.48	34270.12
544.65	34227.99
544.82	34323.96
544.99	33921.38
545.16	34382.47
545.32	34096.92
545.49	34391.83
545.66	34932.50
545.83	35143.14
546.00	34684.40
546.16	34799.08
546.33	34164.80
546.50	34354.38
546.67	34157.78
546.83	33542.22
547.00	33984.58
547.17	33762.23
547.34	34227.99
547.50	34543.97
547.67	34508.86
547.84	34162.46
548.00	34895.05
548.17	34993.35
548.34	34382.47
548.51	34394.17
548.67	34508.86
548.84	34869.30
549.01	34417.58
549.18	34733.55
549.34	34937.18
549.51	34670.36
549.68	34883.34
549.84	34778.02
550.01	34895.05
550.18	34293.53
550.34	34520.56
550.51	34902.07
550.68	34899.73
550.84	34616.52
551.01	35063.57
551.18	34778.02
551.34	34719.51
551.51	34920.79
551.68	34962.92
551.84	34932.50
552.01	34726.53
552.18	34895.05
552.34	35215.70
552.51	35400.60
552.68	35325.71
552.84	34916.11
553.01	35180.59
553.18	35243.79
553.34	35498.91
553.51	35290.60
553.67	35356.13
553.84	35583.16
554.01	35955.31
554.17	35367.84
554.34	35487.20
554.51	35562.10
554.67	35803.17
554.84	35463.80
555.00	35222.72
555.17	35096.33
555.33	35292.94
555.50	35697.85
555.67	35686.15
555.83	35241.45
556.00	35321.02
556.16	35618.27
556.33	35880.41
556.50	35915.52
556.66	35604.23
556.83	35269.53
556.99	35693.17
557.16	35725.94
557.32	36172.98
557.49	35775.09
557.65	35288.26
557.82	36109.78
557.98	35566.78
558.15	35681.47
558.32	36400.01
558.48	35941.27
558.65	36357.88
558.81	36229.15
558.98	36116.81
559.14	36016.16
559.31	36079.36
559.47	36210.43
559.64	36261.92
559.80	36322.77
559.97	36313.41
560.13	35988.08
560.30	36051.27
560.46	36198.73
560.63	36673.85
560.79	36797.90
560.96	36559.17
561.12	35927.22
561.29	36282.98
561.45	36271.28
561.61	36130.85
561.78	36109.78
561.94	36837.69
562.11	36601.30
562.27	36694.92
562.44	36271.28
562.60	36563.85
562.77	36421.08
562.93	36833.01
563.10	36753.43
563.26	36369.58
563.42	36947.70
563.59	36584.91
563.75	36491.29
563.92	37069.40
564.08	36821.31
564.24	36608.32
564.41	36383.63
564.57	36783.86
564.74	36577.89
564.90	36935.99
565.07	36933.65
565.23	36896.20
565.39	36898.55
565.56	36959.40
565.72	36671.51
565.88	37141.96
566.05	37148.98
566.21	36645.77
566.38	36732.37
566.54	36622.36
566.70	37188.77
566.87	37134.94
567.03	36959.40
567.19	37354.95
567.36	36919.61
567.52	36865.78
567.68	37055.36
567.85	36758.11
568.01	37249.63
568.17	37041.32
568.34	37088.13
568.50	37434.53
568.66	37738.80
568.83	37471.98
568.99	37064.72
569.15	36898.55
569.32	37282.39
569.48	36774.50
569.64	37488.36
569.81	36938.33
569.97	36858.76
570.13	37277.71
570.30	36734.71
570.46	36814.29
570.62	37191.11
570.78	37043.66
570.95	36858.76
571.11	36945.36
571.27	36664.49
571.43	37043.66
571.60	36861.10
571.76	37001.53
571.92	37266.01
572.09	37654.54
572.25	37432.19
572.41	37394.74
572.57	37584.32
572.74	37745.82
572.90	37083.45
573.06	37350.27
573.22	37008.55
573.38	37247.29
573.55	37085.79
573.71	37088.13
573.87	37132.60
574.03	37329.20
574.20	37523.47
574.36	37537.51
574.52	37392.40
574.68	37216.86
574.84	37638.15
575.01	37261.33
575.17	37268.35
575.33	37420.48
575.49	37467.30
575.65	37464.96
575.82	37706.03
575.98	37294.10
576.14	37556.24
576.30	37631.13
576.46	37750.50
576.62	37116.22
576.79	37511.77
576.95	37181.75
577.11	37801.99
577.27	37865.19
577.43	37745.82
577.59	37280.05
577.75	37266.01
577.92	37223.88
578.08	37387.72
578.24	37464.96
578.40	37598.37
578.56	37771.57
578.72	37453.25
578.88	37921.36
579.04	37801.99
579.21	37453.25
579.37	37385.38
579.53	37778.59
579.69	37666.24
579.85	37989.24
580.01	37902.64
580.17	37691.99
580.33	37776.25
580.49	37930.72
580.65	37944.76
580.82	37518.79
580.98	37759.86
581.14	37727.10
581.30	38103.92
581.46	37684.97
581.62	37624.11
581.78	37378.36
581.94	37701.35
582.10	37085.79
582.26	37598.37
582.42	37481.34
582.58	37593.68
582.74	37596.03
582.90	37563.26
583.06	37848.80
583.22	37640.50
583.38	37610.07
583.54	37294.10
583.70	37628.79
583.86	37691.99
584.02	37666.24
584.18	37794.97
584.34	37902.64
584.50	37649.86
584.66	37691.99
584.82	37930.72
584.98	37993.92
585.14	37280.05
585.30	37958.81
585.46	37687.31
585.62	37794.97
585.78	37586.66
585.94	37855.82
586.10	38134.35
586.26	38087.54
586.42	38003.28
586.58	37504.74
586.74	37888.59
586.90	37476.66
587.06	37745.82
587.22	38139.03
587.38	37844.12
587.54	38181.16
587.70	38089.88
587.86	37996.26
588.02	37961.15
588.18	37811.35
588.34	38122.65
588.49	37926.04
588.65	38024.34
588.81	37923.70
588.97	37778.59
589.13	38047.75
589.29	38164.78
589.45	37790.29
589.61	38017.32
589.77	38239.67
589.93	38143.71
