SpectraSuite Data File
++++++++++++++++++++++++++++++++++++
Date: Thu Oct 24 13:21:24 EDT 2013
User: stostad
Dark Spectrum Present: No
Reference Spectrum Present: No
Number of Sampled Component Spectra: 1
Spectrometers: USB2+H05261
Integration Time (usec): 100000 (USB2+H05261)
Spectra Averaged: 1 (USB2+H05261)
Boxcar Smoothing: 0 (USB2+H05261)
Correct for Electrical Dark: No (USB2+H05261)
Strobe/Lamp Enabled: No (USB2+H05261)
Correct for Detector Non-linearity: No (USB2+H05261)
Correct for Stray Light: No (USB2+H05261)
Number of Pixels in Processed Spectrum: 2048
>>>>>Begin Processed Spectral Data<<<<<
365.73	578.11
365.92	578.11
366.12	578.11
366.32	465.77
366.52	482.15
366.72	482.15
366.91	475.13
367.11	477.47
367.31	510.24
367.51	430.66
367.70	451.72
367.90	449.38
368.10	435.34
368.30	496.19
368.49	477.47
368.69	493.85
368.89	470.45
369.09	526.62
369.28	510.24
369.48	477.47
369.68	573.43
369.87	582.79
370.07	531.30
370.27	517.26
370.47	608.54
370.66	903.45
370.86	983.02
371.06	994.73
371.25	978.34
371.45	973.66
371.65	1020.47
371.84	884.72
372.04	968.98
372.24	1046.22
372.44	1029.84
372.63	1001.75
372.83	1029.84
373.03	1046.22
373.22	1055.58
373.42	1060.26
373.62	1111.75
373.81	1132.82
374.01	1060.26
374.21	1196.01
374.40	1144.52
374.60	1060.26
374.79	1132.82
374.99	1121.12
375.19	1146.86
375.38	1083.67
375.58	1095.37
375.78	1163.25
375.97	1090.69
376.17	1144.52
376.37	1191.33
376.56	1132.82
376.76	1196.01
376.95	1158.57
377.15	1076.65
377.35	1165.59
377.54	1277.93
377.74	1231.12
377.93	1184.31
378.13	1142.18
378.33	1174.95
378.52	1284.95
378.72	1238.14
378.91	1203.04
379.11	1294.32
379.31	1177.29
379.50	1259.21
379.70	1256.87
379.89	1221.76
380.09	1233.46
380.28	1282.61
380.48	1329.42
380.68	1231.12
380.87	1186.65
381.07	1254.53
381.26	1289.64
381.46	1287.29
381.65	1350.49
381.85	1324.74
382.04	1369.21
382.24	1355.17
382.43	1310.70
382.63	1303.68
382.83	1341.13
383.02	1404.32
383.22	1259.21
383.41	1313.04
383.61	1434.75
383.80	1329.42
384.00	1425.39
384.19	1366.87
384.39	1385.60
384.58	1385.60
384.78	1397.30
384.97	1483.90
385.17	1540.07
385.36	1465.18
385.56	1385.60
385.75	1521.35
385.95	1437.09
386.14	1458.15
386.34	1528.37
386.53	1469.86
386.72	1490.92
386.92	1521.35
387.11	1490.92
387.31	1458.15
387.50	1458.15
387.70	1511.99
387.89	1537.73
388.09	1444.11
388.28	1549.43
388.48	1577.52
388.67	1568.16
388.86	1575.18
389.06	1610.29
389.25	1607.95
389.45	1586.88
389.64	1554.12
389.84	1675.82
390.03	1579.86
390.22	1696.89
390.42	1675.82
390.61	1673.48
390.81	1636.03
391.00	1708.59
391.19	1762.42
391.39	1657.10
391.58	1706.25
391.78	1715.61
391.97	1661.78
392.16	1699.23
392.36	1797.53
392.55	1741.36
392.75	1739.02
392.94	1799.87
393.13	1771.79
393.33	1776.47
393.52	1762.42
393.71	1799.87
393.91	1818.60
394.10	1790.51
394.29	1879.45
394.49	1797.53
394.68	1863.07
394.88	1909.88
395.07	1856.04
395.26	1842.00
395.46	1865.41
395.65	1928.60
395.84	1919.24
396.04	2001.16
396.23	2057.33
396.42	1935.62
396.62	1973.07
396.81	1963.71
397.00	2003.50
397.19	2057.33
397.39	2029.24
397.58	2005.84
397.77	2010.52
397.97	2090.10
398.16	2066.69
398.35	2087.76
398.55	1977.75
398.74	2113.50
398.93	2146.27
399.12	2120.53
399.32	2015.20
399.51	2071.37
399.70	2134.57
399.90	2186.06
400.09	2221.17
400.28	2221.17
400.47	2169.68
400.67	2235.21
400.86	2260.96
401.05	2289.04
401.24	2291.38
401.44	2296.07
401.63	2354.58
401.82	2389.69
402.01	2345.22
402.21	2452.88
402.40	2368.62
402.59	2448.20
402.78	2396.71
402.97	2450.54
403.17	2523.10
403.36	2441.18
403.55	2434.16
403.74	2525.44
403.93	2572.25
404.13	2544.16
404.32	2520.76
404.51	2588.63
404.70	2581.61
404.89	2516.08
405.09	2637.78
405.28	2637.78
405.47	2759.49
405.66	2668.21
405.85	2665.87
406.05	2677.57
406.24	2806.30
406.43	2820.35
406.62	2773.53
406.81	2843.75
407.00	2801.62
407.20	2794.60
407.39	2696.30
407.58	2782.90
407.77	2923.33
407.96	2918.65
408.15	2923.33
408.34	2850.77
408.54	3047.38
408.73	2796.94
408.92	2953.76
409.11	3019.29
409.30	3096.53
409.49	3000.57
409.68	3110.57
409.87	3080.14
410.07	3141.00
410.26	3194.83
410.45	3234.62
410.64	3251.00
410.83	3318.88
411.02	3258.03
411.21	3227.60
411.40	3400.80
411.59	3321.22
411.78	3251.00
411.98	3384.41
412.17	3524.85
412.36	3471.01
412.55	3496.76
412.74	3545.91
412.93	3487.40
413.12	3428.88
413.31	3517.83
413.50	3712.09
413.69	3581.02
413.88	3648.90
414.07	3712.09
414.26	3768.26
414.45	3742.52
414.64	3700.39
414.83	3707.41
415.02	3885.29
415.22	3892.31
415.41	3990.61
415.60	3934.44
415.79	3925.08
415.98	4053.81
416.17	4138.07
416.36	4102.96
416.55	4016.36
416.74	4175.52
416.93	4128.70
417.12	4215.30
417.31	4248.07
417.50	4252.75
417.69	4219.99
417.88	4397.87
418.07	4184.88
418.26	4315.95
418.45	4397.87
418.64	4498.51
418.83	4484.47
419.02	4552.34
419.21	4531.28
419.39	4514.89
419.58	4423.61
419.77	4393.19
419.96	4479.79
420.15	4610.86
420.34	4564.04
420.53	4655.33
420.72	4594.47
420.91	4795.76
421.10	4610.86
421.29	4847.25
421.48	4727.88
421.67	4643.62
421.86	4550.00
422.05	4791.08
422.24	4929.17
422.43	4791.08
422.61	4880.02
422.80	4929.17
422.99	4905.76
423.18	4912.78
423.37	5041.51
423.56	5043.85
423.75	4908.10
423.94	4751.29
424.13	4596.81
424.32	4772.35
424.50	4882.36
424.69	5095.35
424.88	4875.34
425.07	4861.29
425.26	4959.60
425.45	4933.85
425.64	4772.35
425.83	4943.21
426.01	5050.88
426.20	5109.39
426.39	4936.19
426.58	5041.51
426.77	4987.68
426.96	4980.66
427.15	5296.63
427.33	5121.09
427.52	5109.39
427.71	5205.35
427.90	5224.08
428.09	5308.34
428.28	5268.55
428.46	5383.23
428.65	5355.15
428.84	5444.09
429.03	5378.55
429.22	5303.65
429.40	5455.79
429.59	5296.63
429.78	5357.49
429.97	5245.14
430.16	5369.19
430.34	5420.68
430.53	5645.37
430.72	5638.35
430.91	5596.22
431.10	5600.90
431.28	5694.52
431.47	5640.69
431.66	5694.52
431.85	5568.13
432.03	5701.54
432.22	5870.06
432.41	5804.53
432.60	5753.04
432.79	5863.04
432.97	5970.71
433.16	5846.66
433.35	5844.32
433.54	5973.05
433.72	5921.56
433.91	5970.71
434.10	5982.41
434.28	5961.34
434.47	6010.50
434.66	6169.65
434.85	6181.35
435.03	6106.46
435.22	6274.98
435.41	6497.33
435.59	6438.81
435.78	6354.55
435.97	6464.56
436.16	6310.08
436.34	6368.60
436.53	6384.98
436.72	6401.37
436.90	6289.02
437.09	6675.21
437.28	6214.12
437.46	6265.61
437.65	6462.22
437.84	6511.37
438.02	6558.18
438.21	6684.57
438.40	6492.65
438.58	6806.28
438.77	6878.83
438.96	6808.62
439.14	6874.15
439.33	6773.51
439.52	7019.27
439.70	6888.20
439.89	7311.83
440.08	7246.30
440.26	7290.77
440.45	7056.72
440.63	7272.04
440.82	7438.22
441.01	7222.89
441.19	7391.41
441.38	7421.84
441.57	7358.64
441.75	7501.42
441.94	7758.88
442.12	7665.25
442.31	7604.40
442.50	7658.23
442.68	7733.13
442.87	7702.70
443.05	7896.97
443.24	7974.21
443.43	7934.42
443.61	7791.64
443.80	8264.43
443.98	7569.29
444.17	7543.55
444.35	7866.54
444.54	7981.23
444.73	7817.39
444.91	8030.38
445.10	8060.80
445.28	7981.23
445.47	8084.21
445.65	8009.31
445.84	7992.93
446.02	8135.70
446.21	8025.70
446.39	7971.86
446.58	8121.66
446.77	8187.19
446.95	7705.04
447.14	8297.20
447.32	8297.20
447.51	8093.57
447.69	8149.75
447.88	8152.09
448.06	8264.43
448.25	8322.94
448.43	8203.58
448.62	8170.81
448.80	8252.73
448.99	8180.17
449.17	8124.00
449.36	8322.94
449.54	8477.42
449.73	8500.83
449.91	8617.85
450.10	8592.11
450.28	8575.72
450.46	8772.33
450.65	8699.77
450.83	8805.10
451.02	8709.13
451.20	8924.46
451.39	8751.26
451.57	8634.24
451.76	8795.73
451.94	8924.46
452.13	8924.46
452.31	8872.97
452.49	8809.78
452.68	9001.70
452.86	8842.54
453.05	8997.02
453.23	9078.94
453.42	9062.55
453.60	8915.10
453.78	9013.40
453.97	9186.60
454.15	9128.09
454.34	9053.19
454.52	9252.14
454.70	9273.20
454.89	9252.14
455.07	9310.65
455.26	9418.32
455.44	9406.61
455.62	9406.61
455.81	9385.55
455.99	9504.92
456.17	9628.96
456.36	9631.30
456.54	9586.83
456.73	9596.20
456.91	9865.36
457.09	9809.19
457.28	9989.41
457.46	9863.02
457.64	10115.80
457.83	9914.51
458.01	9806.84
458.19	10298.36
458.38	10171.97
458.56	10317.08
458.74	10120.48
458.93	10178.99
459.11	10136.86
459.29	10480.92
459.48	10186.01
459.66	10230.48
459.84	10244.52
460.03	10630.71
460.21	10516.03
460.39	10548.79
460.57	10434.11
460.76	10609.65
460.94	10672.84
461.12	10623.69
461.31	10654.12
461.49	10574.54
461.67	10621.35
461.85	10768.80
462.04	10619.01
462.22	11169.04
462.40	11068.39
462.59	11019.24
462.77	10932.64
462.95	10834.34
463.13	10995.84
463.32	11070.73
463.50	10977.11
463.68	10981.79
463.86	11047.33
464.05	11119.89
464.23	10925.62
464.41	11379.68
464.59	10881.15
464.78	11646.51
464.96	11403.09
465.14	11311.81
465.32	11424.15
465.50	11218.19
465.69	11248.61
465.87	11620.76
466.05	11412.45
466.23	11307.13
466.41	11651.19
466.60	11730.76
466.78	11702.68
466.96	11810.34
467.14	11543.52
467.32	11510.75
467.51	11934.39
467.69	11492.03
467.87	11695.66
468.05	11892.26
468.23	11754.17
468.41	11749.49
468.60	11747.15
468.78	11775.24
468.96	11997.59
469.14	12191.85
469.32	11908.65
469.50	11845.45
469.69	12278.45
469.87	12339.30
470.05	12339.30
470.23	12484.42
470.41	12346.33
470.59	12411.86
470.77	12297.17
470.95	12664.64
471.14	12638.89
471.32	12451.65
471.50	12732.51
471.68	12786.35
471.86	12514.84
472.04	13004.02
472.22	13027.42
472.40	12982.95
472.58	12945.50
472.77	13064.87
472.95	13317.65
473.13	13460.42
473.31	12877.63
473.49	13238.07
473.67	13151.47
473.85	13462.76
474.03	13902.78
474.21	13540.00
474.39	13657.03
474.57	13760.01
474.75	14211.73
474.93	14080.66
475.12	13862.99
475.30	14237.48
475.48	14054.92
475.66	14312.38
475.84	14038.53
476.02	14583.88
476.20	14473.87
476.38	14586.22
476.56	14960.70
476.74	14726.65
476.92	14604.94
477.10	14782.82
477.28	14857.72
477.46	15054.33
477.64	15459.24
477.82	15424.13
478.00	15733.08
478.18	15721.38
478.36	15770.53
478.54	15932.03
478.72	16046.71
478.90	16233.96
479.08	16194.17
479.26	16446.94
479.44	16528.86
479.62	16681.00
479.80	16926.75
479.98	16788.66
480.16	17305.92
480.34	17102.29
480.52	17355.07
480.70	17364.43
480.88	17448.69
481.06	17612.53
481.24	17657.00
481.41	17783.39
481.59	18038.51
481.77	18380.23
481.95	18068.94
482.13	18015.10
482.31	18375.55
482.49	18658.75
482.67	18838.97
482.85	19213.46
483.03	19183.03
483.21	19229.84
483.39	19524.75
483.57	19396.02
483.74	19634.75
483.92	19950.73
484.10	19723.69
484.28	20622.46
484.46	20608.42
484.64	20718.42
484.82	20343.94
485.00	20549.90
485.18	21406.54
485.35	21568.04
485.53	21001.63
485.71	21542.29
485.89	22040.82
486.07	21717.83
486.25	21647.61
486.43	22017.42
486.61	22244.45
486.78	22490.21
486.96	22431.69
487.14	22656.39
487.32	23035.55
487.50	23126.83
487.68	23056.62
487.85	23562.17
488.03	23915.59
488.21	24128.58
488.39	24074.75
488.57	23978.79
488.75	24264.33
488.92	24360.30
489.10	24790.95
489.28	24884.58
489.46	25572.69
489.64	25376.09
489.81	25516.52
489.99	25301.19
490.17	25757.60
490.35	26075.91
490.53	26146.12
490.70	26190.59
490.88	26160.17
491.06	26965.31
491.24	26712.53
491.41	27197.02
491.59	27150.21
491.77	27402.99
491.95	27669.81
492.13	27618.32
492.30	27538.74
492.48	27728.33
492.66	27831.31
492.84	28397.72
493.01	28491.34
493.19	28360.27
493.37	28830.72
493.54	28664.54
493.72	28893.91
493.90	28779.23
494.08	29422.87
494.25	29823.11
494.43	29450.96
494.61	29982.26
494.79	29993.97
494.96	30263.13
495.14	30377.81
495.32	30419.94
495.49	30885.71
495.67	30731.23
495.85	31049.55
496.02	31129.12
496.20	31068.27
496.38	31583.19
496.55	31812.56
496.73	32439.82
496.91	31971.72
497.09	32320.46
497.26	32203.43
497.44	32191.73
497.62	32404.72
497.79	32926.66
497.97	32730.05
498.14	33237.95
498.32	33610.09
498.50	33928.41
498.67	33254.33
498.85	33462.64
499.03	33834.78
499.20	33872.23
499.38	34132.03
499.56	34220.97
499.73	34007.98
499.91	34651.63
500.08	34930.16
500.26	34443.32
500.44	34820.15
500.61	34955.90
500.79	35276.55
500.97	35363.15
501.14	35840.62
501.32	35211.02
501.49	35309.32
501.67	35812.54
501.84	36016.16
502.02	36037.23
502.20	36301.71
502.37	36130.85
502.55	36053.61
502.72	36226.81
502.90	36137.87
503.07	36304.05
503.25	36456.18
503.43	36390.65
503.60	37008.55
503.78	37167.71
503.95	37308.14
504.13	37088.13
504.30	37663.90
504.48	37387.72
504.65	37811.35
504.83	38220.95
505.01	38328.61
505.18	38499.47
505.36	38506.49
505.53	38038.39
505.71	38754.59
505.88	38656.29
506.06	38550.96
506.23	38705.44
506.41	39098.65
506.58	39012.05
506.76	39161.84
506.93	39440.37
507.11	39339.72
507.28	39749.32
507.46	39536.33
507.63	39966.99
507.81	40215.08
507.98	39402.92
508.16	39592.50
508.33	39667.40
508.50	40002.10
508.68	40318.07
508.85	40388.28
509.03	40442.12
509.20	40463.18
509.38	40767.45
509.55	41010.87
509.73	40765.11
509.90	41195.77
510.08	41375.99
510.25	41132.57
510.42	41434.50
510.60	41572.60
510.77	41869.84
510.95	42183.48
511.12	41720.05
511.30	41937.72
511.47	42253.69
511.64	42195.18
511.82	42183.48
511.99	42309.86
512.17	42092.19
512.34	42508.81
512.51	42841.17
512.69	42857.55
512.86	43449.70
513.04	43667.37
513.21	42911.38
513.38	42909.04
513.56	43409.92
513.73	43435.66
513.90	43852.28
514.08	43732.91
514.25	43775.04
514.43	43817.17
514.60	43992.71
514.77	44105.06
514.95	44147.18
515.12	44250.17
515.29	44151.87
515.47	44406.98
515.64	44807.22
515.81	44755.72
515.99	44914.88
516.16	44957.01
516.33	45104.46
516.51	45256.60
516.68	45015.52
516.85	45296.39
517.03	45680.24
517.20	45500.01
517.37	45827.69
517.54	45338.52
517.72	45509.38
517.89	45610.02
518.06	46099.19
518.24	46078.13
518.41	45888.54
518.58	45900.25
518.75	45574.91
518.93	46347.29
519.10	46038.34
519.27	46546.23
519.45	46497.08
519.62	46401.12
519.79	46597.73
519.96	46637.51
520.14	46724.11
520.31	46539.21
520.48	46843.48
520.65	46941.78
520.83	47222.65
521.00	47606.50
521.17	47278.82
521.34	47117.32
521.52	47704.80
521.69	47365.42
521.86	47456.70
522.03	47973.96
522.20	48030.13
522.38	48168.22
522.55	48046.52
522.72	48191.63
522.89	48065.24
523.07	48729.95
523.24	48013.75
523.41	48449.09
523.58	48198.65
523.75	48416.32
523.92	48175.25
524.10	48917.20
524.27	49181.68
524.44	48928.90
524.61	48938.26
524.78	48933.58
524.96	49151.25
525.13	49191.04
525.30	49799.58
525.47	49572.55
525.64	49272.96
525.81	49207.42
525.98	49546.80
526.16	49059.97
526.33	49684.89
526.50	50042.99
526.67	49944.69
526.84	50155.34
527.01	49834.69
527.18	50302.79
527.36	49914.26
527.53	50272.37
527.70	50497.06
527.87	50611.74
528.04	50279.39
528.21	50567.27
528.38	50349.60
528.55	50855.16
528.72	50433.86
528.89	50520.46
529.07	50628.13
529.24	50218.53
529.41	51056.45
529.58	50864.52
529.75	50838.78
529.92	51002.61
530.09	50855.16
530.26	50951.12
530.43	50766.22
530.60	50986.23
530.77	50827.07
530.94	51175.81
531.11	51208.58
531.28	51456.68
531.46	51566.68
531.63	51395.82
531.80	51433.27
531.97	51540.94
532.14	51906.06
532.31	51334.97
532.48	52060.54
532.65	52079.26
532.82	51718.82
532.99	51868.61
533.16	51660.30
533.33	52198.63
533.50	52376.51
533.67	52041.81
533.84	52107.35
534.01	52247.78
534.18	52074.58
534.35	52875.04
534.52	52210.33
534.69	52491.19
534.86	52229.05
535.03	52425.66
535.20	52638.65
535.37	52694.82
535.54	52921.85
535.71	52669.08
535.88	53031.86
536.05	52750.99
536.22	52800.15
536.38	52736.95
536.55	52837.59
536.72	53240.17
536.89	53221.44
537.06	53296.34
537.23	53464.86
537.40	53073.99
537.57	53343.15
537.74	53240.17
537.91	53616.99
538.08	53291.66
538.25	53212.08
538.42	53399.32
538.59	53521.03
538.75	53249.53
538.92	53616.99
539.09	53773.81
539.26	53506.99
539.43	53729.34
539.60	53497.62
539.77	53567.84
539.94	54358.94
540.11	53998.50
540.28	54389.37
540.44	53858.07
540.61	54094.46
540.78	54066.38
540.95	54106.16
541.12	54185.74
541.29	53961.05
541.46	54075.74
541.62	54361.28
541.79	54340.22
541.96	54092.12
542.13	54258.30
542.30	54293.41
542.47	54351.92
542.63	54536.82
542.80	54590.66
542.97	54988.55
543.14	55011.95
543.31	55173.45
543.48	54667.89
543.64	55313.88
543.81	55192.17
543.98	54972.16
544.15	54948.76
544.32	55126.64
544.48	55419.20
544.65	55206.22
544.82	55103.23
544.99	54948.76
545.16	55182.81
545.32	55302.18
545.49	55498.78
545.66	55620.49
545.83	55634.53
546.00	56041.79
546.16	55456.65
546.33	55599.43
546.50	55564.32
546.67	55374.73
546.83	55224.94
547.00	55463.67
547.17	55281.11
547.34	55531.55
547.50	55547.93
547.67	55852.20
547.84	55999.66
548.00	55969.23
548.17	56041.79
548.34	55889.65
548.51	55805.39
548.67	55931.78
548.84	56023.06
549.01	55875.61
549.18	55962.21
549.34	55765.60
549.51	55899.01
549.68	56175.20
549.84	55976.25
550.01	55999.66
550.18	55781.99
550.34	55952.85
550.51	56039.45
550.68	56039.45
550.84	55997.32
551.01	56336.69
551.18	56095.62
551.34	55936.46
551.51	55973.91
551.68	56310.95
551.84	55987.95
552.01	56058.17
552.18	56477.13
552.34	56427.98
552.51	56542.66
552.68	56250.09
552.84	56416.27
553.01	56692.46
553.18	56446.70
553.34	56701.82
553.51	56420.95
553.67	56516.92
553.84	57045.88
554.01	57013.11
554.17	56809.48
554.34	56884.38
554.51	56842.25
554.67	56762.67
554.84	56633.94
555.00	56699.48
555.17	56722.88
555.33	56903.10
555.50	56505.21
555.67	56825.87
555.83	57071.62
556.00	56996.73
556.16	56942.89
556.33	56947.57
556.50	57020.13
556.66	57109.07
556.83	56772.03
556.99	57085.67
557.16	57336.10
557.32	57301.00
557.49	57532.71
557.65	57099.71
557.82	57179.29
557.98	57130.14
558.15	57055.24
558.32	57216.74
558.48	57345.47
558.65	57361.85
558.81	57394.62
558.98	57453.13
559.14	57490.58
559.31	57301.00
559.47	57521.01
559.64	57429.72
559.80	57375.89
559.97	57340.78
560.13	57265.89
560.30	57546.75
560.46	57654.42
560.63	57673.14
560.79	57893.15
560.96	57733.99
561.12	57689.52
561.29	57640.37
561.45	57570.16
561.61	57712.93
561.78	57502.28
561.94	57858.04
562.11	57900.17
562.27	57743.36
562.44	57560.79
562.60	57593.56
562.77	57247.16
562.93	57628.67
563.10	57900.17
563.26	57563.14
563.42	57895.49
563.59	57771.44
563.75	57822.93
563.92	57785.49
564.08	57815.91
564.24	57874.43
564.41	57836.98
564.57	57794.85
564.74	57729.31
564.90	57773.78
565.07	57930.60
565.23	57762.08
565.39	57991.45
565.56	58199.76
565.72	58017.20
565.88	57862.72
566.05	58108.48
566.21	57970.39
566.38	57858.04
566.54	57836.98
566.70	58176.36
566.87	58244.23
567.03	58003.16
567.19	58468.92
567.36	58288.70
567.52	58059.33
567.68	58033.58
567.85	58218.49
568.01	58237.21
568.17	58159.97
568.34	58251.25
568.50	58354.24
568.66	58117.84
568.83	58274.66
568.99	58375.30
569.15	58237.21
569.32	58255.93
569.48	58183.38
569.64	58134.23
569.81	57982.09
569.97	58169.33
570.13	58321.47
570.30	57986.77
570.46	58234.87
570.62	58344.87
570.78	57961.03
570.95	58141.25
571.11	58384.66
571.27	58379.98
571.43	58108.48
571.60	58258.27
571.76	58209.12
571.92	58356.58
572.09	58408.07
572.25	58604.67
572.41	58660.85
572.57	58337.85
572.74	58501.69
572.90	58248.91
573.06	58197.42
573.22	58155.29
573.38	58337.85
573.55	58337.85
573.71	58651.48
573.87	58487.65
574.03	58220.83
574.20	58684.25
574.36	58410.41
574.52	58347.21
574.68	58670.21
574.84	58642.12
575.01	58585.95
575.17	58731.06
575.33	58438.50
575.49	58365.94
575.65	58576.59
575.82	58485.31
575.98	58651.48
576.14	58536.80
576.30	58663.19
576.46	58312.11
576.62	58482.97
576.79	58464.24
576.95	58232.53
577.11	58644.46
577.27	58728.72
577.43	58789.58
577.59	58656.17
577.75	58459.56
577.92	58204.44
578.08	58604.67
578.24	58464.24
578.40	58576.59
578.56	58658.51
578.72	58642.12
578.88	58843.41
579.04	58848.09
579.21	58873.84
579.37	58749.79
579.53	58740.42
579.69	58595.31
579.85	58740.42
580.01	58990.86
580.17	58431.47
580.33	58721.70
580.49	58721.70
580.65	58810.64
580.82	58632.76
580.98	58724.04
581.14	58707.66
581.30	58871.49
581.46	58791.92
581.62	58915.96
581.78	58667.87
581.94	58745.11
582.10	58562.54
582.26	58873.84
582.42	58705.32
582.58	58794.26
582.74	58890.22
582.90	58770.85
583.06	58740.42
583.22	58777.87
583.38	58824.68
583.54	58656.17
583.70	58763.83
583.86	58735.74
584.02	58796.60
584.18	58930.01
584.34	58745.11
584.50	58890.22
584.66	58815.32
584.82	58794.26
584.98	59079.80
585.14	58644.46
585.30	58866.81
585.46	58843.41
585.62	58658.51
585.78	59049.38
585.94	58679.57
586.10	58958.09
586.26	59079.80
586.42	58862.13
586.58	58801.28
586.74	58768.51
586.90	58749.79
587.06	58904.26
587.22	59049.38
587.38	58852.77
587.54	59187.47
587.70	59332.58
587.86	59091.51
588.02	59166.40
588.18	59061.08
