SpectraSuite Data File
++++++++++++++++++++++++++++++++++++
Date: Thu Oct 24 13:21:26 EDT 2013
User: stostad
Dark Spectrum Present: No
Reference Spectrum Present: No
Number of Sampled Component Spectra: 1
Spectrometers: USB2+H05261
Integration Time (usec): 100000 (USB2+H05261)
Spectra Averaged: 1 (USB2+H05261)
Boxcar Smoothing: 0 (USB2+H05261)
Correct for Electrical Dark: No (USB2+H05261)
Strobe/Lamp Enabled: No (USB2+H05261)
Correct for Detector Non-linearity: No (USB2+H05261)
Correct for Stray Light: No (USB2+H05261)
Number of Pixels in Processed Spectrum: 2048
>>>>>Begin Processed Spectral Data<<<<<
365.73	585.13
365.92	585.13
366.12	585.13
366.32	512.58
366.52	433.00
366.72	486.83
366.91	463.43
367.11	498.53
367.31	421.30
367.51	461.09
367.70	383.85
367.90	486.83
368.10	484.49
368.30	442.36
368.49	440.02
368.69	472.79
368.89	470.45
369.09	428.32
369.28	454.06
369.48	543.00
369.68	531.30
369.87	540.66
370.07	512.58
370.27	528.96
370.47	688.12
370.66	877.70
370.86	882.38
371.06	971.32
371.25	1025.15
371.45	1025.15
371.65	1001.75
371.84	973.66
372.04	961.96
372.24	985.37
372.44	1015.79
372.63	1043.88
372.83	985.37
373.03	1095.37
373.22	1057.92
373.42	1062.60
373.62	1177.29
373.81	1086.01
374.01	1146.86
374.21	1128.14
374.40	1144.52
374.60	1221.76
374.79	1196.01
374.99	1294.32
375.19	1146.86
375.38	1116.44
375.58	1095.37
375.78	1212.40
375.97	1196.01
376.17	1170.27
376.37	1177.29
376.56	1186.65
376.76	1177.29
376.95	1186.65
377.15	1200.69
377.35	1219.42
377.54	1207.72
377.74	1238.14
377.93	1163.25
378.13	1233.46
378.33	1268.57
378.52	1160.91
378.72	1270.91
378.91	1324.74
379.11	1249.85
379.31	1301.34
379.50	1203.04
379.70	1310.70
379.89	1275.59
380.09	1256.87
380.28	1320.06
380.48	1275.59
380.68	1404.32
380.87	1327.08
381.07	1299.00
381.26	1338.79
381.46	1315.38
381.65	1348.15
381.85	1306.02
382.04	1284.95
382.24	1380.92
382.43	1394.96
382.63	1451.13
382.83	1273.25
383.02	1432.41
383.22	1528.37
383.41	1481.56
383.61	1467.52
383.80	1490.92
384.00	1322.40
384.19	1441.77
384.39	1364.53
384.58	1448.79
384.78	1455.81
384.97	1462.83
385.17	1479.22
385.36	1427.73
385.56	1497.94
385.75	1467.52
385.95	1504.96
386.14	1589.22
386.34	1565.82
386.53	1474.54
386.72	1577.52
386.92	1432.41
387.11	1579.86
387.31	1621.99
387.50	1528.37
387.70	1636.03
387.89	1612.63
388.09	1582.20
388.28	1614.97
388.48	1640.72
388.67	1591.56
388.86	1614.97
389.06	1650.08
389.25	1577.52
389.45	1671.14
389.64	1556.46
389.84	1680.50
390.03	1696.89
390.22	1696.89
390.42	1774.13
390.61	1760.08
390.81	1696.89
391.00	1734.34
391.19	1736.68
391.39	1708.59
391.58	1769.44
391.78	1797.53
391.97	1753.06
392.16	1783.49
392.36	1856.04
392.55	1825.62
392.75	1806.89
392.94	1790.51
393.13	1830.30
393.33	1874.77
393.52	1877.11
393.71	1872.43
393.91	1898.17
394.10	1886.47
394.29	1949.67
394.49	1902.86
394.68	1942.64
394.88	1919.24
395.07	1944.99
395.26	2045.63
395.46	1998.82
395.65	2001.16
395.84	1991.80
396.04	2003.50
396.23	2022.22
396.42	1994.14
396.62	2087.76
396.81	2040.95
397.00	2104.14
397.19	2106.48
397.39	2040.95
397.58	2148.61
397.77	2134.57
397.97	2150.95
398.16	2179.04
398.35	2141.59
398.55	2143.93
398.74	2256.28
398.93	2193.08
399.12	2267.98
399.32	2162.66
399.51	2155.63
399.70	2389.69
399.90	2249.25
400.09	2275.00
400.28	2293.72
400.47	2317.13
400.67	2296.07
400.86	2331.17
401.05	2441.18
401.24	2310.11
401.44	2399.05
401.63	2373.30
401.82	2401.39
402.01	2436.50
402.21	2445.86
402.40	2464.58
402.59	2445.86
402.78	2558.21
402.97	2586.29
403.17	2593.31
403.36	2565.23
403.55	2626.08
403.74	2602.68
403.93	2722.04
404.13	2691.62
404.32	2668.21
404.51	2841.41
404.70	2729.06
404.89	2668.21
405.09	2642.46
405.28	2700.98
405.47	2810.98
405.66	2832.05
405.85	2752.47
406.05	2764.17
406.24	2942.05
406.43	2906.95
406.62	2857.79
406.81	2843.75
407.00	2848.43
407.20	2876.52
407.39	3000.57
407.58	3035.67
407.77	3026.31
407.96	3009.93
408.15	2953.76
408.34	2925.67
408.54	2998.23
408.73	3138.66
408.92	3009.93
409.11	3101.21
409.30	3150.36
409.49	3105.89
409.68	3084.83
409.87	3173.77
410.07	3136.32
410.26	3243.98
410.45	3222.92
410.64	3339.94
410.83	3281.43
411.02	3363.35
411.21	3468.67
411.40	3267.39
411.59	3431.23
411.78	3414.84
411.98	3433.57
412.17	3478.04
412.36	3552.93
412.55	3623.15
412.74	3660.60
412.93	3604.42
413.12	3648.90
413.31	3751.88
413.50	3674.64
413.69	3616.13
413.88	3838.48
414.07	3847.84
414.26	3936.78
414.45	3971.89
414.64	3852.52
414.83	3948.48
415.02	3911.04
415.22	4032.74
415.41	4112.32
415.60	4042.11
415.79	4187.22
415.98	4102.96
416.17	4091.26
416.36	4201.26
416.55	4294.88
416.74	4311.27
416.93	4224.67
417.12	4290.20
417.31	4393.19
417.50	4393.19
417.69	4535.96
417.88	4465.74
418.07	4418.93
418.26	4491.49
418.45	4428.29
418.64	4643.62
418.83	4755.97
419.02	4603.83
419.21	4674.05
419.39	4727.88
419.58	4758.31
419.77	4603.83
419.96	4802.78
420.15	4816.82
420.34	4692.77
420.53	4716.18
420.72	4868.31
420.91	4697.46
421.10	4844.91
421.29	4767.67
421.48	4877.68
421.67	5011.09
421.86	4922.15
422.05	4987.68
422.24	4875.34
422.43	4954.91
422.61	5170.24
422.80	5156.20
422.99	5097.69
423.18	5160.88
423.37	5266.21
423.56	5181.95
423.75	5095.35
423.94	5076.62
424.13	4751.29
424.32	5025.13
424.50	5057.90
424.69	5270.89
424.88	5329.40
425.07	5142.16
425.26	5125.77
425.45	5188.97
425.64	5240.46
425.83	5149.18
426.01	5064.92
426.20	5212.37
426.39	5144.50
426.58	5156.20
426.77	5207.69
426.96	5231.10
427.15	5156.20
427.33	5432.38
427.52	5195.99
427.71	5387.91
427.90	5284.93
428.09	5392.59
428.28	5455.79
428.46	5397.28
428.65	5458.13
428.84	5701.54
429.03	5509.62
429.22	5551.75
429.40	5561.11
429.59	5563.45
429.78	5427.70
429.97	5427.70
430.16	5530.69
430.34	5722.61
430.53	5764.74
430.72	5834.96
430.91	5776.44
431.10	5724.95
431.28	5860.70
431.47	5916.87
431.66	5968.37
431.85	5937.94
432.03	6008.16
432.22	6057.31
432.41	6031.56
432.60	6015.18
432.79	6040.92
432.97	6193.06
433.16	6164.97
433.35	6090.07
433.54	6097.10
433.72	6293.70
433.91	6195.40
434.10	6197.74
434.28	6155.61
434.47	6188.38
434.66	6478.60
434.85	6499.67
435.03	6539.46
435.22	6504.35
435.41	6949.05
435.59	6864.79
435.78	6766.49
435.97	6558.18
436.16	6614.35
436.34	6574.56
436.53	6523.07
436.72	6640.10
436.90	6567.54
437.09	6665.85
437.28	6565.20
437.46	6761.81
437.65	6626.06
437.84	6970.12
438.02	6752.45
438.21	6857.77
438.40	6668.19
438.58	6927.99
438.77	7133.95
438.96	6906.92
439.14	7054.37
439.33	7302.47
439.52	7274.38
439.70	7232.26
439.89	7353.96
440.08	7543.55
440.26	7297.79
440.45	7590.36
440.63	7552.91
440.82	7669.94
441.01	7599.72
441.19	7665.25
441.38	7810.37
441.57	7826.75
441.75	7906.33
441.94	7808.03
442.12	7929.74
442.31	8013.99
442.50	7957.82
442.68	8063.15
442.87	7871.22
443.05	8051.44
443.24	8259.75
443.43	8065.49
443.61	8126.34
443.80	8582.74
443.98	8018.68
444.17	8088.89
444.35	8070.17
444.54	8248.05
444.73	8329.97
444.91	8318.26
445.10	8252.73
445.28	8159.11
445.47	8189.53
445.65	8278.47
445.84	8301.88
446.02	8552.32
446.21	8592.11
446.39	8493.80
446.58	8280.82
446.77	8517.21
446.95	8526.57
447.14	8446.99
447.32	8603.81
447.51	8404.86
447.69	8432.95
447.88	8667.00
448.06	8425.93
448.25	8549.98
448.43	8549.98
448.62	8617.85
448.80	8718.50
448.99	8636.58
449.17	8828.50
449.36	8706.79
449.54	8730.20
449.73	8929.14
449.91	8968.93
450.10	8751.26
450.28	9121.07
450.46	8968.93
450.65	9008.72
450.83	8945.53
451.02	8875.31
451.20	9233.41
451.39	9116.39
451.57	9193.62
451.76	8945.53
451.94	9057.87
452.13	9441.72
452.31	9523.64
452.49	9165.54
452.68	9366.82
452.86	9359.80
453.05	9315.33
453.23	9432.36
453.42	9305.97
453.60	9504.92
453.78	9516.62
453.97	9383.21
454.15	9439.38
454.34	9469.81
454.52	9891.10
454.70	9549.39
454.89	9507.26
455.07	9640.67
455.26	9736.63
455.44	9973.02
455.62	9696.84
455.81	9912.17
455.99	10064.30
456.17	9928.55
456.36	9947.28
456.54	10122.82
456.73	10478.58
456.91	10471.56
457.09	10195.37
457.28	10373.25
457.46	10239.84
457.64	10310.06
457.83	10377.94
458.01	10263.25
458.19	10562.84
458.38	10525.39
458.56	10480.92
458.74	10509.01
458.93	10665.82
459.11	10677.52
459.29	10647.10
459.48	10736.04
459.66	10630.71
459.84	10644.76
460.03	10806.25
460.21	10803.91
460.39	10853.06
460.57	10939.66
460.76	11197.12
460.94	10956.05
461.12	11070.73
461.31	11124.57
461.49	11145.63
461.67	11110.52
461.85	11335.21
462.04	11140.95
462.22	11494.37
462.40	11611.40
462.59	11393.73
462.77	11213.51
462.95	11749.49
463.13	11283.72
463.32	11452.24
463.50	11576.29
463.68	11302.45
463.86	11754.17
464.05	11220.53
464.23	11438.20
464.41	11639.48
464.59	11386.71
464.78	11920.35
464.96	11918.01
465.14	11613.74
465.32	11871.20
465.50	11861.84
465.69	11901.62
465.87	12086.53
466.05	12072.48
466.23	11906.31
466.41	11974.18
466.60	12091.21
466.78	11934.39
466.96	11934.39
467.14	12074.82
467.32	12044.40
467.51	12273.77
467.69	11932.05
467.87	12362.71
468.05	12255.04
468.23	11929.71
468.41	12266.75
468.60	12241.00
468.78	12592.08
468.96	12400.16
469.14	12751.24
469.32	12802.73
469.50	12496.12
469.69	12732.51
469.87	12702.09
470.05	12863.58
470.23	12882.31
470.41	12809.75
470.59	12933.80
470.77	12957.21
470.95	12671.66
471.14	13153.81
471.32	12901.03
471.50	13348.08
471.68	13207.64
471.86	13397.23
472.04	13476.80
472.22	13790.44
472.40	13579.79
472.58	13390.20
472.77	13605.53
472.95	13713.20
473.13	14291.31
473.31	13902.78
473.49	13984.70
473.67	13799.80
473.85	14127.47
474.03	14349.82
474.21	14221.10
474.39	14513.66
474.57	14272.59
474.75	14539.41
474.93	14558.13
475.12	14677.50
475.30	14726.65
475.48	14824.95
475.66	15047.30
475.84	14874.10
476.02	15304.76
476.20	15012.20
476.38	15272.00
476.56	15515.41
476.74	15550.52
476.92	15269.66
477.10	15737.76
477.28	15800.96
477.46	15728.40
477.64	15857.13
477.82	16140.33
478.00	16210.55
478.18	16217.57
478.36	16730.15
478.54	16713.77
478.72	16863.56
478.90	17135.06
479.08	17060.16
479.26	17441.67
479.44	17135.06
479.62	17727.22
479.80	17539.97
479.98	17549.34
480.16	18129.79
480.34	17752.96
480.52	17823.18
480.70	17968.29
480.88	18298.31
481.06	18424.70
481.24	18443.42
481.41	18618.96
481.59	18555.77
481.77	19145.58
481.95	19267.29
482.13	19199.41
482.31	19204.10
482.49	19672.20
482.67	19807.95
482.85	19992.86
483.03	20032.65
483.21	20343.94
483.39	20350.96
483.57	20112.22
483.74	20435.22
483.92	20910.35
484.10	20566.29
484.28	21479.10
484.46	21572.72
484.64	21682.72
484.82	21586.76
485.00	21708.47
485.18	22017.42
485.35	22272.54
485.53	22324.03
485.71	22361.48
485.89	22750.01
486.07	22651.70
486.25	22691.49
486.43	22963.00
486.61	23222.80
486.78	23695.58
486.96	23403.02
487.14	23950.70
487.32	23950.70
487.50	24081.77
487.68	24224.54
487.85	24533.50
488.03	24987.56
488.21	24978.20
488.39	24819.04
488.57	24879.89
488.75	25441.62
488.92	25823.13
489.10	26029.10
489.28	25874.62
489.46	26466.78
489.64	26237.41
489.81	26822.54
489.99	26595.51
490.17	26764.03
490.35	27129.15
490.53	27388.95
490.70	27599.60
490.88	27599.60
491.06	27648.75
491.24	28046.64
491.41	28002.17
491.59	28287.71
491.77	28489.00
491.95	28870.51
492.13	28856.46
492.30	28898.59
492.48	28772.21
492.66	28961.79
492.84	29338.62
493.01	29865.24
493.19	29881.62
493.37	30188.23
493.54	30155.46
493.72	30253.76
493.90	30417.60
494.08	30637.61
494.25	31229.77
494.43	31000.40
494.61	31260.20
494.79	31290.62
494.96	31129.12
495.14	31592.55
495.32	31924.91
495.49	32013.85
495.67	32484.30
495.85	32203.43
496.02	32589.62
496.20	32479.61
496.38	32727.71
496.55	33298.80
496.73	33731.80
496.91	33612.43
497.09	33717.76
497.26	33476.68
497.44	34017.35
497.62	34237.36
497.79	34630.57
497.97	33982.24
498.14	34726.53
498.32	34960.58
498.50	34923.13
498.67	34932.50
498.85	35042.50
499.03	35409.96
499.20	35718.92
499.38	35580.82
499.56	35983.40
499.73	35777.43
499.91	36151.91
500.08	36570.87
500.26	36105.10
500.44	36514.70
500.61	36598.96
500.79	36730.03
500.97	37132.60
501.14	37394.74
501.32	37170.05
501.49	37029.62
501.67	37399.42
501.84	37455.59
502.02	37464.96
502.20	37823.06
502.37	38321.59
502.55	37703.69
502.72	37982.21
502.90	38160.09
503.07	38237.33
503.25	38532.24
503.43	38223.29
503.60	38583.73
503.78	39014.39
503.95	38759.27
504.13	38862.26
504.30	38820.13
504.48	38686.71
504.65	39070.56
504.83	39381.85
505.01	39934.22
505.18	39618.25
505.36	40062.95
505.53	40311.05
505.71	40161.25
505.88	39842.94
506.06	40088.70
506.23	40617.66
506.41	40706.60
506.58	40554.46
506.76	40816.60
506.93	41209.81
507.11	40961.72
507.28	41289.39
507.46	40919.59
507.63	41549.19
507.81	41560.89
507.98	41015.55
508.16	40830.65
508.33	41497.70
508.50	42206.88
508.68	42066.45
508.85	42206.88
509.03	42045.38
509.20	42216.24
509.38	42476.04
509.55	42969.90
509.73	43072.88
509.90	43297.57
510.08	42923.08
510.25	43014.37
510.42	43463.75
510.60	43405.23
510.77	43814.83
510.95	44060.58
511.12	43583.12
511.30	44133.14
511.47	44233.78
511.64	43758.66
511.82	44137.82
511.99	43728.23
512.17	44552.10
512.34	44582.52
512.51	44889.13
512.69	44797.85
512.86	44854.03
513.04	45158.30
513.21	45258.94
513.38	44959.35
513.56	45165.32
513.73	45162.98
513.90	45680.24
514.08	45741.09
514.25	45804.28
514.43	45935.35
514.60	46167.07
514.77	45258.94
514.95	46307.50
515.12	45925.99
515.29	46078.13
515.47	46583.68
515.64	46717.09
515.81	46567.30
515.99	46614.11
516.16	46525.17
516.33	46642.20
516.51	47098.60
516.68	46859.87
516.85	46705.39
517.03	46920.72
517.20	47234.35
517.37	47229.67
517.54	47292.86
517.72	47084.56
517.89	47021.36
518.06	47662.67
518.24	47742.25
518.41	47988.00
518.58	47856.93
518.75	47147.75
518.93	47758.63
519.10	48163.54
519.27	48334.40
519.45	48037.16
519.62	48294.61
519.79	48313.34
519.96	48615.27
520.14	48964.01
520.31	48582.50
520.48	48603.56
520.65	48781.45
520.83	48968.69
521.00	49279.98
521.17	48947.62
521.34	49130.19
521.52	48797.83
521.69	49036.56
521.86	49160.61
522.03	49319.77
522.20	50101.51
522.38	50033.63
522.55	50358.97
522.72	49720.00
522.89	49516.37
523.07	50347.26
523.24	49801.92
523.41	50094.49
523.58	50270.03
523.75	50707.71
523.92	50520.46
524.10	50871.54
524.27	50873.88
524.44	50623.45
524.61	50862.18
524.78	50356.63
524.96	50686.64
525.13	50843.46
525.30	51365.40
525.47	51386.46
525.64	51026.02
525.81	51206.24
525.98	51290.50
526.16	51154.75
526.33	51405.19
526.50	51627.54
526.67	51351.35
526.84	51840.53
527.01	51583.07
527.18	51622.86
527.36	51985.64
527.53	51608.81
527.70	52383.53
527.87	51847.55
528.04	51810.10
528.21	52081.60
528.38	52121.39
528.55	52521.62
528.72	52041.81
528.89	52158.84
529.07	52130.75
529.24	52266.50
529.41	52530.98
529.58	52538.01
529.75	52528.64
529.92	52783.76
530.09	52863.34
530.26	52317.99
530.43	52411.62
530.60	52453.75
530.77	52729.93
530.94	52849.30
531.11	52830.57
531.28	52992.07
531.46	53193.36
531.63	53205.06
531.80	53020.16
531.97	53249.53
532.14	53205.06
532.31	53338.47
532.48	53460.18
532.65	53532.73
532.82	53490.60
532.99	53546.78
533.16	53249.53
533.33	53270.59
533.50	53925.94
533.67	53663.80
533.84	53567.84
534.01	53778.49
534.18	53904.88
534.35	53996.16
534.52	53961.05
534.69	54152.97
534.86	54049.99
535.03	53684.87
535.20	53792.53
535.37	54031.27
535.54	54382.35
535.71	54241.92
535.88	54426.82
536.05	54316.81
536.22	54195.10
536.38	54277.02
536.55	54176.38
536.72	54614.06
536.89	54593.00
537.06	54679.60
537.23	54721.72
537.40	54401.07
537.57	54752.15
537.74	54782.58
537.91	55011.95
538.08	54670.23
538.25	54684.28
538.42	54899.61
538.59	54915.99
538.75	54756.83
538.92	54941.74
539.09	55253.03
539.26	54967.48
539.43	55241.32
539.60	54986.21
539.77	55018.97
539.94	55576.02
540.11	55145.36
540.28	55405.16
540.44	55515.17
540.61	55660.28
540.78	55192.17
540.95	55281.11
541.12	55412.18
541.29	55267.07
541.46	55421.55
541.62	55994.98
541.79	55913.06
541.96	55517.51
542.13	55332.60
542.30	55636.87
542.47	55667.30
542.63	55887.31
542.80	56088.60
542.97	56252.44
543.14	56381.16
543.31	56259.46
543.48	56182.22
543.64	56734.59
543.81	56355.42
543.98	56460.74
544.15	56559.05
544.32	56437.34
544.48	56795.44
544.65	56498.19
544.82	56519.26
544.99	56549.68
545.16	56615.22
545.32	56865.66
545.49	56760.33
545.66	56980.34
545.83	56755.65
546.00	56945.23
546.16	56931.19
546.33	56872.68
546.50	56694.80
546.67	56884.38
546.83	56264.14
547.00	56514.58
547.17	56694.80
547.34	56685.43
547.50	57090.35
547.67	57331.42
547.84	57193.33
548.00	57111.41
548.17	57279.93
548.34	56996.73
548.51	57181.63
548.67	57132.48
548.84	57111.41
549.01	57209.71
549.18	57422.70
549.34	57214.40
549.51	57399.30
549.68	57312.70
549.84	57329.08
550.01	57284.61
550.18	57176.95
550.34	57141.84
550.51	57380.57
550.68	57535.05
550.84	57326.74
551.01	57415.68
551.18	57347.81
551.34	57132.48
551.51	57563.14
551.68	57771.44
551.84	57399.30
552.01	57375.89
552.18	57549.09
552.34	57701.23
552.51	57766.76
552.68	57769.10
552.84	57813.57
553.01	58028.90
553.18	57900.17
553.34	57773.78
553.51	57872.09
553.67	57907.19
553.84	57991.45
554.01	58340.19
554.17	58021.88
554.34	58260.62
554.51	58169.33
554.67	58237.21
554.84	57949.32
555.00	57916.56
555.17	57848.68
555.33	57979.75
555.50	58115.50
555.67	58188.06
555.83	58089.76
556.00	58122.52
556.16	58370.62
556.33	58150.61
556.50	58291.04
556.66	58293.38
556.83	58068.69
556.99	58361.26
557.16	58527.44
557.32	58649.14
557.49	58536.80
557.65	58394.03
557.82	58419.77
557.98	58468.92
558.15	58358.92
558.32	58370.62
558.48	58492.33
558.65	58681.91
558.81	58674.89
558.98	58681.91
559.14	58686.59
559.31	58522.76
559.47	58342.53
559.64	58864.47
559.80	58557.86
559.97	58688.93
560.13	58431.47
560.30	58656.17
560.46	58745.11
560.63	59072.78
560.79	59049.38
560.96	58974.48
561.12	58728.72
561.29	58632.76
561.45	58948.73
561.61	58817.66
561.78	58899.58
561.94	58862.13
562.11	59264.70
562.27	59124.27
562.44	59159.38
562.60	58911.28
562.77	59044.69
562.93	58787.24
563.10	59171.08
563.26	58922.99
563.42	58983.84
563.59	58812.98
563.75	59236.62
563.92	59187.47
564.08	58885.54
564.24	58944.05
564.41	58878.52
564.57	59131.29
564.74	58993.20
564.90	59276.41
565.07	59128.95
565.23	59487.06
565.39	59327.90
565.56	59522.16
565.72	59231.94
565.88	59253.00
566.05	59199.17
566.21	59147.68
566.38	59185.13
566.54	59070.44
566.70	59428.54
566.87	59398.12
567.03	59267.05
567.19	59671.96
567.36	59447.27
567.52	59323.22
567.68	59437.90
567.85	59133.63
568.01	59494.08
568.17	59365.35
568.34	59381.73
568.50	59285.77
568.66	59325.56
568.83	59625.15
568.99	59253.00
569.15	59538.55
569.32	59587.70
569.48	59126.61
569.64	59365.35
569.81	59302.15
569.97	59341.94
570.13	59381.73
570.30	59529.19
570.46	59421.52
570.62	59653.23
570.78	59475.35
570.95	59480.03
571.11	59625.15
571.27	59348.96
571.43	59391.09
571.60	59622.81
571.76	59313.86
571.92	59578.34
572.09	59669.62
572.25	59728.13
572.41	59585.36
572.57	59735.15
572.74	60006.65
572.90	59554.93
573.06	59861.54
573.22	59639.19
573.38	59709.41
573.55	59683.66
573.71	59922.40
573.87	59812.39
574.03	59650.89
574.20	59824.09
574.36	59859.20
574.52	59639.19
574.68	59877.93
574.84	59999.63
575.01	59772.60
575.17	60053.47
575.33	59903.67
575.49	59856.86
575.65	59854.52
575.82	59814.73
575.98	59688.34
576.14	59976.23
576.30	59805.37
576.46	59728.13
576.62	59686.00
576.79	59793.67
576.95	59660.26
577.11	59648.55
577.27	59756.22
577.43	59985.59
577.59	59980.91
577.75	59777.28
577.92	59772.60
578.08	59826.43
578.24	59763.24
578.40	59636.85
578.56	59915.37
578.72	59746.86
578.88	60102.62
579.04	60299.22
579.21	60055.81
579.37	60076.87
579.53	60114.32
579.69	59852.18
579.85	59964.52
580.01	60041.76
580.17	59906.01
580.33	60095.60
580.49	59877.93
580.65	59910.69
580.82	59784.30
580.98	60076.87
581.14	59922.40
581.30	59901.33
581.46	60104.96
581.62	60126.02
581.78	59990.27
581.94	60004.31
582.10	59753.88
582.26	60016.02
582.42	60147.09
582.58	59985.59
582.74	60086.23
582.90	60154.11
583.06	60191.56
583.22	59877.93
583.38	59943.46
583.54	59824.09
583.70	59821.75
583.86	60062.83
584.02	59873.24
584.18	60121.34
584.34	60104.96
584.50	60287.52
584.66	59908.35
584.82	60102.62
584.98	60200.92
585.14	60175.17
585.30	59959.84
585.46	60069.85
585.62	60016.02
585.78	60067.51
585.94	60165.81
586.10	60025.38
586.26	60214.96
586.42	60287.52
586.58	59943.46
586.74	59943.46
586.90	59992.61
587.06	60097.94
587.22	60449.02
587.38	60245.39
587.54	60449.02
587.70	60460.72
587.86	60320.29
588.02	60224.32
