SpectraSuite Data File
++++++++++++++++++++++++++++++++++++
Date: Thu Oct 24 13:21:31 EDT 2013
User: stostad
Dark Spectrum Present: No
Reference Spectrum Present: No
Number of Sampled Component Spectra: 1
Spectrometers: USB2+H05261
Integration Time (usec): 100000 (USB2+H05261)
Spectra Averaged: 1 (USB2+H05261)
Boxcar Smoothing: 0 (USB2+H05261)
Correct for Electrical Dark: No (USB2+H05261)
Strobe/Lamp Enabled: No (USB2+H05261)
Correct for Detector Non-linearity: No (USB2+H05261)
Correct for Stray Light: No (USB2+H05261)
Number of Pixels in Processed Spectrum: 2048
>>>>>Begin Processed Spectral Data<<<<<
365.73	557.05
365.92	557.05
366.12	557.05
366.32	500.87
366.52	465.77
366.72	491.51
366.91	472.79
367.11	461.09
367.31	484.49
367.51	521.94
367.70	421.30
367.90	489.17
368.10	458.74
368.30	411.93
368.49	440.02
368.69	451.72
368.89	442.36
369.09	489.17
369.28	557.05
369.48	465.77
369.68	524.28
369.87	514.92
370.07	540.66
370.27	587.47
370.47	697.48
370.66	1153.88
370.86	1046.22
371.06	1256.87
371.25	1177.29
371.45	1107.07
371.65	1221.76
371.84	1172.61
372.04	1144.52
372.24	1188.99
372.44	1247.51
372.63	1219.42
372.83	1273.25
373.03	1221.76
373.22	1308.36
373.42	1282.61
373.62	1341.13
373.81	1280.27
374.01	1352.83
374.21	1366.87
374.40	1282.61
374.60	1366.87
374.79	1341.13
374.99	1345.81
375.19	1406.66
375.38	1418.36
375.58	1336.45
375.78	1383.26
375.97	1362.19
376.17	1455.81
376.37	1383.26
376.56	1441.77
376.76	1488.58
376.95	1322.40
377.15	1481.56
377.35	1409.00
377.54	1437.09
377.74	1460.49
377.93	1465.18
378.13	1516.67
378.33	1462.83
378.52	1486.24
378.72	1483.90
378.91	1575.18
379.11	1636.03
379.31	1479.22
379.50	1572.84
379.70	1570.50
379.89	1535.39
380.09	1584.54
380.28	1547.09
380.48	1561.14
380.68	1591.56
380.87	1652.42
381.07	1589.22
381.26	1657.10
381.46	1668.80
381.65	1675.82
381.85	1605.61
382.04	1575.18
382.24	1687.53
382.43	1701.57
382.63	1760.08
382.83	1762.42
383.02	1706.25
383.22	1743.70
383.41	1781.15
383.61	1790.51
383.80	1788.17
384.00	1762.42
384.19	1884.13
384.39	1842.00
384.58	1764.76
384.78	1741.36
384.97	1802.21
385.17	1837.32
385.36	1769.44
385.56	1820.94
385.75	1884.13
385.95	1834.98
386.14	1834.98
386.34	1813.92
386.53	1905.20
386.72	1902.86
386.92	1933.28
387.11	2057.33
387.31	2015.20
387.50	1919.24
387.70	1952.01
387.89	1975.41
388.09	1968.39
388.28	2015.20
388.48	2094.78
388.67	1984.77
388.86	2122.87
389.06	2120.53
389.25	2052.65
389.45	2106.48
389.64	2106.48
389.84	2054.99
390.03	2127.55
390.22	2099.46
390.42	2160.31
390.61	2122.87
390.81	2225.85
391.00	2300.75
391.19	2162.66
391.39	2211.81
391.58	2155.63
391.78	2176.70
391.97	2300.75
392.16	2239.89
392.36	2279.68
392.55	2324.15
392.75	2317.13
392.94	2293.72
393.13	2317.13
393.33	2251.60
393.52	2452.88
393.71	2445.86
393.91	2513.74
394.10	2373.30
394.29	2509.05
394.49	2422.45
394.68	2399.05
394.88	2537.14
395.07	2527.78
395.26	2616.72
395.46	2473.95
395.65	2574.59
395.84	2644.81
396.04	2691.62
396.23	2691.62
396.42	2576.93
396.62	2630.76
396.81	2665.87
397.00	2647.15
397.19	2722.04
397.39	2595.65
397.58	2628.42
397.77	2761.83
397.97	2853.11
398.16	2834.39
398.35	2864.82
398.55	2724.38
398.74	2827.37
398.93	2818.00
399.12	2867.16
399.32	2871.84
399.51	2951.42
399.70	3023.97
399.90	2892.90
400.09	2935.03
400.28	2958.44
400.47	3019.29
400.67	3056.74
400.86	3040.36
401.05	3026.31
401.24	3101.21
401.44	3045.04
401.63	3199.51
401.82	3286.11
402.01	3108.23
402.21	3047.38
402.40	3190.15
402.59	3262.71
402.78	3293.13
402.97	3218.24
403.17	3206.53
403.36	3288.45
403.55	3379.73
403.74	3541.23
403.93	3478.04
404.13	3433.57
404.32	3393.78
404.51	3499.10
404.70	3463.99
404.89	3517.83
405.09	3555.27
405.28	3485.06
405.47	3440.59
405.66	3768.26
405.85	3623.15
406.05	3676.98
406.24	3627.83
406.43	3705.07
406.62	3747.20
406.81	3733.15
407.00	3765.92
407.20	3644.21
407.39	3786.99
407.58	3896.99
407.77	3929.76
407.96	3915.72
408.15	3831.46
408.34	3812.73
408.54	3922.74
408.73	3929.76
408.92	4063.17
409.11	4046.79
409.30	4091.26
409.49	4032.74
409.68	4145.09
409.87	4086.58
410.07	4283.18
410.26	4142.75
410.45	4217.65
410.64	4241.05
410.83	4262.12
411.02	4428.29
411.21	4442.34
411.40	4423.61
411.59	4409.57
411.78	4550.00
411.98	4505.53
412.17	4758.31
412.36	4657.67
412.55	4615.54
412.74	4741.93
412.93	4807.46
413.12	4676.39
413.31	4823.84
413.50	4807.46
413.69	4889.38
413.88	4945.55
414.07	4987.68
414.26	5018.11
414.45	5074.28
414.64	5074.28
414.83	5062.58
415.02	5249.82
415.22	5186.63
415.41	5263.86
415.60	5383.23
415.79	5507.28
415.98	5458.13
416.17	5310.68
416.36	5364.51
416.55	5497.92
416.74	5600.90
416.93	5518.98
417.12	5488.56
417.31	5731.97
417.50	5776.44
417.69	5863.04
417.88	5944.96
418.07	5790.49
418.26	5898.15
418.45	5870.06
418.64	6036.24
418.83	6122.84
419.02	5989.43
419.21	6134.54
419.39	6113.48
419.58	6104.12
419.77	6012.84
419.96	6270.30
420.15	6211.78
420.34	6134.54
420.53	6171.99
420.72	6188.38
420.91	6162.63
421.10	6473.92
421.29	6396.68
421.48	6256.25
421.67	6347.53
421.86	6342.85
422.05	6434.13
422.24	6431.79
422.43	6684.57
422.61	6595.63
422.80	6665.85
422.99	6640.10
423.18	6509.03
423.37	6710.32
423.56	6527.75
423.75	6612.01
423.94	6499.67
424.13	6164.97
424.32	6265.61
424.50	6801.60
424.69	6759.47
424.88	6855.43
425.07	6757.13
425.26	6443.49
425.45	6654.14
425.64	6633.08
425.83	6740.74
426.01	6668.19
426.20	6677.55
426.39	6682.23
426.58	6846.07
426.77	6707.98
426.96	6782.87
427.15	6930.33
427.33	7068.42
427.52	6923.30
427.71	7173.74
427.90	6958.41
428.09	7061.40
428.28	7187.79
428.46	7290.77
428.65	6953.73
428.84	7377.37
429.03	7360.98
429.22	7225.23
429.40	7428.86
429.59	7119.91
429.78	7162.04
429.97	7133.95
430.16	7445.24
430.34	7639.51
430.53	7705.04
430.72	7564.61
430.91	7494.40
431.10	7520.14
431.28	7679.30
431.47	7733.13
431.66	7777.60
431.85	7772.92
432.03	7885.26
432.22	7808.03
432.41	8074.85
432.60	7960.16
432.79	8046.76
432.97	8006.97
433.16	8114.64
433.35	7920.37
433.54	8262.09
433.72	8107.62
433.91	8126.34
434.10	8334.65
434.28	8056.12
434.47	8285.50
434.66	8283.16
434.85	8367.42
435.03	8512.53
435.22	8528.91
435.41	8847.22
435.59	8732.54
435.78	8802.75
435.97	8697.43
436.16	8510.19
436.34	8671.68
436.53	8709.13
436.72	8659.98
436.90	8549.98
437.09	8755.94
437.28	8545.30
437.46	8865.95
437.65	8821.48
437.84	9027.45
438.02	8999.36
438.21	8821.48
438.40	8945.53
438.58	9221.71
438.77	9242.78
438.96	9303.63
439.14	9415.98
439.33	9521.30
439.52	9504.92
439.70	9528.32
439.89	9713.22
440.08	9783.44
440.26	9844.29
440.45	9619.60
440.63	9703.86
440.82	10204.74
441.01	9860.68
441.19	10125.16
441.38	10305.38
441.57	10183.67
441.75	10305.38
441.94	10516.03
442.12	10448.15
442.31	10520.71
442.50	10759.44
442.68	10544.11
442.87	10616.67
443.05	10951.37
443.24	10792.21
443.43	10574.54
443.61	10855.40
443.80	10984.13
443.98	10583.90
444.17	10464.54
444.35	10724.33
444.54	11101.16
444.73	10813.28
444.91	11136.27
445.10	11201.80
445.28	11019.24
445.47	10878.81
445.65	10956.05
445.84	11016.90
446.02	11225.21
446.21	11257.98
446.39	10963.07
446.58	11250.96
446.77	11147.97
446.95	11080.10
447.14	11117.54
447.32	11201.80
447.51	11178.40
447.69	11096.48
447.88	11236.91
448.06	11302.45
448.25	11255.64
448.43	11337.56
448.62	11393.73
448.80	11466.28
448.99	11351.60
449.17	11534.16
449.36	11623.10
449.54	11637.14
449.73	11714.38
449.91	12016.31
450.10	11829.07
450.28	11749.49
450.46	11995.25
450.65	11845.45
450.83	11702.68
451.02	11857.15
451.20	12180.15
451.39	12154.40
451.57	12123.98
451.76	11864.18
451.94	11908.65
452.13	12372.07
452.31	12535.91
452.49	12100.57
452.68	12402.50
452.86	12507.82
453.05	12367.39
453.23	12643.57
453.42	12056.10
453.60	12428.24
453.78	12456.33
453.97	12500.80
454.15	12332.28
454.34	12521.87
454.52	12758.26
454.70	12795.71
454.89	12418.88
455.07	12875.29
455.26	12891.67
455.44	13139.77
455.62	12980.61
455.81	12987.63
455.99	13392.55
456.17	13207.64
456.36	13064.87
456.54	13413.61
456.73	13500.21
456.91	13617.24
457.09	13565.74
457.28	13783.41
457.46	13666.39
457.64	14029.17
457.83	13930.87
458.01	13563.40
458.19	14150.88
458.38	13785.76
458.56	14094.71
458.74	14094.71
458.93	14146.20
459.11	14167.26
459.29	14384.93
459.48	14284.29
459.66	14445.79
459.84	14391.95
460.03	14628.35
460.21	14679.84
460.39	14672.82
460.57	14705.59
460.76	14590.90
460.94	14764.10
461.12	15105.82
461.31	14663.46
461.49	14803.89
461.67	14675.16
461.85	14963.04
462.04	14904.53
462.22	15557.54
462.40	15243.91
462.59	14977.09
462.77	14953.68
462.95	15377.32
463.13	15213.48
463.32	15508.39
463.50	15470.94
463.68	15503.71
463.86	15763.51
464.05	15201.78
464.23	15269.66
464.41	15597.33
464.59	15382.00
464.78	16030.33
464.96	15669.89
465.14	15576.27
465.32	15882.88
465.50	15719.04
465.69	15747.12
465.87	15854.79
466.05	16077.14
466.23	15981.18
466.41	15999.90
466.60	16468.01
466.78	15786.91
466.96	16067.78
467.14	16060.76
467.32	16168.42
467.51	16505.46
467.69	16042.03
467.87	16437.58
468.05	16341.62
468.23	16421.20
468.41	16465.67
468.60	16723.13
468.78	16629.51
468.96	16435.24
469.14	16620.14
469.32	16919.73
469.50	16744.19
469.69	16856.54
469.87	16844.84
470.05	17315.28
470.23	17111.66
470.41	17165.49
470.59	17542.32
470.77	17469.76
470.95	17713.17
471.14	17827.86
471.32	17577.42
471.50	17830.20
471.68	17741.26
471.86	17694.45
472.04	18106.38
472.22	18553.43
472.40	17902.76
472.58	18450.44
472.77	18494.91
472.95	18747.69
473.13	19241.54
473.31	18246.82
473.49	18782.80
473.67	18621.30
473.85	18850.67
474.03	19360.91
474.21	19096.43
474.39	19655.82
474.57	19075.37
474.75	19613.69
474.93	19969.45
475.12	19728.38
475.30	19871.15
475.48	19850.08
475.66	19777.53
475.84	20063.07
476.02	20233.93
476.20	20416.49
476.38	20793.32
476.56	20971.20
476.74	20835.45
476.92	20879.92
477.10	20755.87
477.28	21500.16
477.46	21326.96
477.64	21362.07
477.82	21724.85
478.00	22281.90
478.18	22043.17
478.36	22239.77
478.54	22604.89
478.72	22459.78
478.90	22635.32
479.08	23295.35
479.26	23307.05
479.44	23363.23
479.62	23690.90
479.80	23819.63
479.98	23648.77
480.16	24421.15
480.34	24034.96
480.52	24442.21
480.70	24278.38
480.88	24444.56
481.06	24437.53
481.24	24676.27
481.41	24982.88
481.59	25474.39
481.77	25532.90
481.95	25928.45
482.13	26015.05
482.31	25689.72
482.49	26920.84
482.67	26448.05
482.85	26703.17
483.03	27016.80
483.21	27332.78
483.39	27559.81
483.57	27190.00
483.74	27955.36
483.92	27852.38
484.10	28119.20
484.28	28718.37
484.46	28762.84
484.64	29434.58
484.82	28978.17
485.00	29289.46
485.18	30073.54
485.35	30171.85
485.53	29942.47
485.71	30511.22
485.89	30871.67
486.07	30841.24
486.25	30307.60
486.43	31094.02
486.61	31592.55
486.78	31718.94
486.96	31938.95
487.14	32280.67
487.32	32610.68
487.50	32545.15
487.68	32620.05
487.85	32938.36
488.03	33530.51
488.21	33982.24
488.39	34057.14
488.57	33942.45
488.75	33977.56
488.92	34431.62
489.10	35281.24
489.28	35487.20
489.46	35608.91
489.64	35332.73
489.81	36058.29
489.99	36215.11
490.17	36449.16
490.35	36666.83
490.53	36711.30
490.70	37074.09
490.88	36935.99
491.06	37376.01
491.24	37605.39
491.41	37916.68
491.59	38174.14
491.77	38373.08
491.95	39239.08
492.13	38761.61
492.30	39302.28
492.48	39157.16
492.66	39578.46
492.84	39611.23
493.01	40142.53
493.19	40306.37
493.37	40399.99
493.54	40793.20
493.72	41015.55
493.90	41015.55
494.08	41588.98
494.25	41839.42
494.43	41947.08
494.61	42223.26
494.79	41729.41
494.96	41982.19
495.14	42909.04
495.32	42871.59
495.49	42934.79
495.67	43367.79
495.85	43796.10
496.02	44081.65
496.20	43856.96
496.38	44018.46
496.55	44287.62
496.73	45191.06
496.91	44666.78
497.09	45258.94
497.26	45516.40
497.44	45123.19
497.62	45275.32
497.79	46038.34
497.97	45958.76
498.14	46466.66
498.32	46447.93
498.50	46773.27
498.67	46796.67
498.85	47084.56
499.03	47213.29
499.20	47140.73
499.38	47899.06
499.56	47508.19
499.73	47461.38
499.91	47763.31
500.08	48142.48
500.26	48051.20
500.44	47927.15
500.61	48650.38
500.79	48385.89
500.97	48933.58
501.14	49366.58
501.32	49078.69
501.49	48966.35
501.67	49172.31
501.84	49577.23
502.02	49698.94
502.20	49530.42
502.37	49991.50
502.55	50066.40
502.72	50054.70
502.90	50000.86
503.07	50026.61
503.25	50396.42
503.43	50506.42
503.60	50925.38
503.78	50913.67
503.95	50686.64
504.13	50976.87
504.30	51316.25
504.48	51178.15
504.65	51842.87
504.83	52051.17
505.01	51765.63
505.18	51870.95
505.36	52296.93
505.53	51859.25
505.71	52006.70
505.88	52423.32
506.06	52479.49
506.23	52533.32
506.41	52240.76
506.58	52428.00
506.76	52875.04
506.93	52802.49
507.11	52893.77
507.28	53043.56
507.46	53251.87
507.63	53499.97
507.81	53588.91
507.98	53354.85
508.16	53387.62
508.33	53385.28
508.50	54000.84
508.68	54185.74
508.85	54167.02
509.03	54021.90
509.20	54218.51
509.38	53989.14
509.55	54403.41
509.73	54422.14
509.90	54883.22
510.08	54419.80
510.25	54897.27
510.42	54681.94
510.60	54871.52
510.77	55009.61
510.95	55091.53
511.12	54777.90
511.30	55215.58
511.47	55664.96
511.64	55278.77
511.82	55828.80
511.99	55468.36
512.17	55749.22
512.34	55739.86
512.51	55875.61
512.69	55751.56
512.86	56074.55
513.04	56303.93
513.21	55999.66
513.38	56222.01
513.56	56168.18
513.73	56217.33
513.90	56126.05
514.08	56343.72
514.25	56617.56
514.43	56559.05
514.60	56610.54
514.77	56505.21
514.95	56734.59
515.12	56706.50
515.29	56692.46
515.47	57256.53
515.64	57394.62
515.81	57172.27
515.99	57090.35
516.16	57291.63
516.33	57258.87
516.51	57506.96
516.68	57483.56
516.85	57607.61
517.03	57766.76
517.20	57925.92
517.37	57712.93
517.54	57715.27
517.72	57535.05
517.89	57834.64
518.06	58143.59
518.24	57968.05
518.41	57949.32
518.58	58061.67
518.75	57874.43
518.93	58183.38
519.10	58082.73
519.27	58340.19
519.45	58419.77
519.62	58478.28
519.79	58497.01
519.96	58604.67
520.14	58632.76
520.31	58262.96
520.48	58733.40
520.65	58635.10
520.83	59075.12
521.00	58972.14
521.17	58899.58
521.34	59107.89
521.52	58993.20
521.69	58920.65
521.86	59451.95
522.03	59227.26
522.20	59260.02
522.38	59531.53
522.55	59475.35
522.72	59522.16
522.89	59447.27
523.07	59838.14
523.24	59524.50
523.41	59819.41
523.58	59370.03
523.75	59742.17
523.92	59770.26
524.10	59891.97
524.27	59873.24
524.44	59838.14
524.61	60107.30
524.78	60016.02
524.96	60111.98
525.13	60175.17
525.30	60552.00
525.47	60416.25
525.64	60320.29
525.81	60449.02
525.98	60552.00
526.16	60383.48
526.33	60381.14
526.50	60870.31
526.67	60540.30
526.84	60757.97
527.01	60619.88
527.18	60889.04
527.36	60959.25
527.53	60631.58
527.70	61155.86
527.87	60917.12
528.04	60811.80
528.21	61312.67
528.38	60996.70
528.55	61357.14
528.72	61048.19
528.89	61179.26
529.07	61155.86
529.24	60940.53
529.41	61418.00
529.58	61368.85
529.75	61293.95
529.92	61495.24
530.09	61235.44
530.26	61387.57
530.43	61382.89
530.60	61429.70
530.77	61467.15
530.94	61462.47
531.11	61811.21
531.28	61848.66
531.46	61687.16
531.63	61691.84
531.80	61764.40
531.97	61591.20
532.14	61846.32
532.31	61853.34
532.48	62106.12
532.65	62199.74
532.82	61986.75
532.99	62099.09
533.16	61902.49
533.33	62169.31
533.50	62199.74
533.67	62234.84
533.84	62085.05
534.01	62276.97
534.18	62384.64
534.35	62567.20
534.52	62429.11
534.69	62452.51
534.86	62384.64
535.03	62276.97
535.20	62571.88
535.37	62724.02
535.54	62660.82
535.71	62578.90
535.88	62759.12
536.05	62749.76
536.22	62719.34
536.38	62663.16
536.55	62742.74
536.72	62941.69
536.89	62939.35
537.06	62782.53
537.23	63037.65
537.40	63058.71
537.57	62831.68
537.74	62824.66
537.91	63187.44
538.08	63145.31
538.25	62944.03
538.42	63243.62
538.59	63337.24
538.75	63236.59
538.92	63203.83
539.09	63341.92
539.26	63267.02
539.43	63433.20
539.60	63290.43
539.77	63320.85
539.94	63526.82
540.11	63821.73
540.28	63540.86
540.44	63807.68
540.61	63456.60
540.78	63529.16
540.95	63547.89
541.12	63573.63
541.29	63744.49
541.46	63721.08
541.62	63877.90
541.79	63746.83
541.96	63571.29
542.13	63709.38
542.30	63877.90
542.47	63863.86
542.63	64044.08
542.80	64142.38
542.97	64282.81
543.14	64463.03
543.31	64336.65
543.48	64381.12
543.64	64633.89
543.81	64460.69
543.98	64402.18
544.15	64296.86
544.32	64348.35
544.48	64542.61
544.65	64423.25
544.82	64500.48
544.99	64374.09
545.16	64491.12
545.32	64584.74
545.49	64699.43
545.66	64886.67
545.83	64842.20
546.00	65104.34
546.16	64935.82
546.33	64879.65
546.50	64676.02
546.67	64591.76
546.83	64432.61
547.00	64617.51
547.17	64584.74
547.34	64673.68
547.50	64870.29
547.67	65148.81
547.84	65031.78
548.00	65186.26
548.17	65176.90
548.34	65029.44
548.51	65120.73
548.67	65045.83
548.84	65041.15
549.01	65111.36
549.18	65291.58
549.34	65139.45
549.51	65336.05
549.68	65319.67
549.84	65209.67
550.01	65200.30
550.18	65151.15
550.34	65317.33
550.51	65329.03
550.68	65450.74
550.84	65251.80
551.01	65535.00
551.18	65382.87
551.34	65293.92
551.51	65399.25
551.68	65535.00
551.84	65359.46
552.01	65343.08
552.18	65476.49
552.34	65490.53
552.51	65535.00
552.68	65535.00
552.84	65532.66
553.01	65535.00
553.18	65535.00
553.34	65535.00
553.51	65535.00
553.67	65535.00
553.84	65535.00
554.01	65535.00
554.17	65535.00
554.34	65535.00
554.51	65535.00
554.67	65535.00
554.84	65535.00
555.00	65535.00
555.17	65535.00
555.33	65535.00
555.50	65535.00
555.67	65535.00
555.83	65535.00
556.00	65535.00
556.16	65535.00
556.33	65535.00
556.50	65535.00
556.66	65535.00
556.83	65535.00
556.99	65535.00
557.16	65535.00
557.32	65535.00
557.49	65535.00
557.65	65535.00
557.82	65535.00
557.98	65535.00
558.15	65535.00
558.32	65535.00
558.48	65535.00
558.65	65535.00
558.81	65535.00
558.98	65535.00
559.14	65535.00
559.31	65535.00
559.47	65535.00
559.64	65535.00
559.80	65535.00
559.97	65535.00
560.13	65535.00
560.30	65535.00
560.46	65535.00
560.63	65535.00
560.79	65535.00
560.96	65535.00
561.12	65535.00
561.29	65535.00
561.45	65535.00
561.61	65535.00
561.78	65535.00
561.94	65535.00
562.11	65535.00
562.27	65535.00
562.44	65535.00
562.60	65535.00
562.77	65535.00
562.93	65535.00
563.10	65535.00
563.26	65535.00
563.42	65535.00
563.59	65535.00
563.75	65535.00
563.92	65535.00
564.08	65535.00
564.24	65535.00
564.41	65535.00
564.57	65535.00
564.74	65535.00
564.90	65535.00
565.07	65535.00
565.23	65535.00
565.39	65535.00
565.56	65535.00
565.72	65535.00
565.88	65535.00
566.05	65535.00
566.21	65535.00
566.38	65535.00
566.54	65535.00
566.70	65535.00
566.87	65535.00
567.03	65535.00
567.19	65535.00
567.36	65535.00
567.52	65535.00
567.68	65535.00
567.85	65535.00
568.01	65535.00
568.17	65535.00
568.34	65535.00
568.50	65535.00
568.66	65535.00
568.83	65535.00
568.99	65535.00
569.15	65535.00
569.32	65535.00
569.48	65535.00
569.64	65535.00
569.81	65535.00
569.97	65535.00
570.13	65535.00
570.30	65535.00
570.46	65535.00
570.62	65535.00
570.78	65535.00
570.95	65535.00
571.11	65535.00
571.27	65535.00
571.43	65535.00
571.60	65535.00
571.76	65535.00
571.92	65535.00
572.09	65535.00
572.25	65535.00
572.41	65535.00
572.57	65535.00
572.74	65535.00
572.90	65535.00
573.06	65535.00
573.22	65535.00
573.38	65535.00
573.55	65535.00
573.71	65535.00
573.87	65535.00
574.03	65535.00
574.20	65535.00
574.36	65535.00
574.52	65535.00
574.68	65535.00
574.84	65535.00
575.01	65535.00
575.17	65535.00
575.33	65535.00
575.49	65535.00
575.65	65535.00
575.82	65535.00
575.98	65535.00
576.14	65535.00
576.30	65535.00
576.46	65535.00
576.62	65535.00
576.79	65535.00
576.95	65535.00
577.11	65535.00
577.27	65535.00
577.43	65535.00
577.59	65535.00
577.75	65535.00
577.92	65535.00
578.08	65535.00
578.24	65535.00
578.40	65535.00
578.56	65535.00
578.72	65535.00
578.88	65535.00
579.04	65535.00
579.21	65535.00
579.37	65535.00
579.53	65535.00
579.69	65535.00
579.85	65535.00
580.01	65535.00
580.17	65535.00
580.33	65535.00
580.49	65535.00
580.65	65535.00
580.82	65535.00
580.98	65535.00
581.14	65535.00
581.30	65535.00
581.46	65535.00
581.62	65535.00
581.78	65535.00
581.94	65535.00
582.10	65535.00
582.26	65535.00
582.42	65535.00
582.58	65535.00
582.74	65535.00
582.90	65535.00
583.06	65535.00
583.22	65535.00
583.38	65535.00
583.54	65535.00
583.70	65535.00
583.86	65535.00
584.02	65535.00
584.18	65535.00
584.34	65535.00
584.50	65535.00
584.66	65535.00
584.82	65535.00
584.98	65535.00
585.14	65535.00
585.30	65535.00
585.46	65535.00
585.62	65535.00
585.78	65535.00
585.94	65535.00
586.10	65535.00
586.26	65535.00
586.42	65535.00
586.58	65535.00
586.74	65535.00
586.90	65535.00
587.06	65535.00
