SpectraSuite Data File
++++++++++++++++++++++++++++++++++++
Date: Thu Oct 24 13:21:22 EDT 2013
User: stostad
Dark Spectrum Present: No
Reference Spectrum Present: No
Number of Sampled Component Spectra: 1
Spectrometers: USB2+H05261
Integration Time (usec): 100000 (USB2+H05261)
Spectra Averaged: 1 (USB2+H05261)
Boxcar Smoothing: 0 (USB2+H05261)
Correct for Electrical Dark: No (USB2+H05261)
Strobe/Lamp Enabled: No (USB2+H05261)
Correct for Detector Non-linearity: No (USB2+H05261)
Correct for Stray Light: No (USB2+H05261)
Number of Pixels in Processed Spectrum: 2048
>>>>>Begin Processed Spectral Data<<<<<
365.73	521.94
365.92	521.94
366.12	521.94
366.32	437.68
366.52	463.43
366.72	512.58
366.91	416.62
367.11	433.00
367.31	388.53
367.51	496.19
367.70	449.38
367.90	503.22
368.10	440.02
368.30	435.34
368.49	372.15
368.69	500.87
368.89	486.83
369.09	444.70
369.28	500.87
369.48	531.30
369.68	482.15
369.87	482.15
370.07	524.28
370.27	573.43
370.47	638.97
370.66	882.38
370.86	933.87
371.06	912.81
371.25	976.00
371.45	884.72
371.65	947.92
371.84	924.51
372.04	952.60
372.24	987.71
372.44	922.17
372.63	931.53
372.83	952.60
373.03	997.07
373.22	999.41
373.42	1053.24
373.62	1078.99
373.81	1022.81
374.01	990.05
374.21	1093.03
374.40	1062.60
374.60	1013.45
374.79	1015.79
374.99	1008.77
375.19	1165.59
375.38	1107.07
375.58	1020.47
375.78	1114.10
375.97	1095.37
376.17	1046.22
376.37	1118.78
376.56	1064.94
376.76	1107.07
376.95	1093.03
377.15	992.39
377.35	1123.46
377.54	1083.67
377.74	1069.62
377.93	1160.91
378.13	1135.16
378.33	1160.91
378.52	1114.10
378.72	1170.27
378.91	1151.54
379.11	1104.73
379.31	1109.41
379.50	1188.99
379.70	1135.16
379.89	1123.46
380.09	1041.54
380.28	1132.82
380.48	1219.42
380.68	1142.18
380.87	1167.93
381.07	1193.67
381.26	1219.42
381.46	1282.61
381.65	1291.98
381.85	1224.10
382.04	1252.19
382.24	1184.31
382.43	1200.69
382.63	1193.67
382.83	1198.35
383.02	1245.16
383.22	1338.79
383.41	1261.55
383.61	1231.12
383.80	1280.27
384.00	1263.89
384.19	1291.98
384.39	1277.93
384.58	1404.32
384.78	1277.93
384.97	1322.40
385.17	1268.57
385.36	1310.70
385.56	1472.20
385.75	1383.26
385.95	1308.36
386.14	1301.34
386.34	1284.95
386.53	1324.74
386.72	1310.70
386.92	1390.28
387.11	1474.54
387.31	1308.36
387.50	1427.73
387.70	1451.13
387.89	1394.96
388.09	1469.86
388.28	1390.28
388.48	1519.01
388.67	1490.92
388.86	1521.35
389.06	1448.79
389.25	1500.28
389.45	1418.36
389.64	1481.56
389.84	1533.05
390.03	1533.05
390.22	1521.35
390.42	1432.41
390.61	1493.26
390.81	1490.92
391.00	1558.80
391.19	1563.48
391.39	1612.63
391.58	1586.88
391.78	1544.75
391.97	1647.74
392.16	1526.03
392.36	1523.69
392.55	1643.06
392.75	1638.38
392.94	1551.78
393.13	1706.25
393.33	1605.61
393.52	1591.56
393.71	1565.82
393.91	1511.99
394.10	1607.95
394.29	1746.04
394.49	1575.18
394.68	1694.55
394.88	1699.23
395.07	1764.76
395.26	1776.47
395.46	1579.86
395.65	1802.21
395.84	1753.06
396.04	1788.17
396.23	1732.00
396.42	1851.36
396.62	1804.55
396.81	1872.43
397.00	1760.08
397.19	1825.62
397.39	1813.92
397.58	1797.53
397.77	1849.02
397.97	1834.98
398.16	1898.17
398.35	1905.20
398.55	1816.26
398.74	1940.30
398.93	1984.77
399.12	1996.48
399.32	2017.54
399.51	1956.69
399.70	1886.47
399.90	2003.50
400.09	2073.71
400.28	1987.11
400.47	2057.33
400.67	2094.78
400.86	2043.29
401.05	2069.03
401.24	2045.63
401.44	2146.27
401.63	2069.03
401.82	2090.10
402.01	2099.46
402.21	2080.74
402.40	2228.19
402.59	2141.59
402.78	2169.68
402.97	2253.94
403.17	2146.27
403.36	2314.79
403.55	2237.55
403.74	2289.04
403.93	2366.28
404.13	2284.36
404.32	2307.77
404.51	2218.83
404.70	2455.22
404.89	2286.70
405.09	2340.54
405.28	2249.25
405.47	2382.67
405.66	2434.16
405.85	2457.56
406.05	2368.62
406.24	2523.10
406.43	2473.95
406.62	2513.74
406.81	2497.35
407.00	2581.61
407.20	2406.07
407.39	2574.59
407.58	2546.50
407.77	2555.86
407.96	2616.72
408.15	2745.45
408.34	2623.74
408.54	2733.75
408.73	2698.64
408.92	2628.42
409.11	2616.72
409.30	2764.17
409.49	2771.19
409.68	2686.94
409.87	2616.72
410.07	2827.37
410.26	2855.45
410.45	2780.56
410.64	2925.67
410.83	2970.14
411.02	2937.37
411.21	2913.97
411.40	2902.26
411.59	2967.80
411.78	3033.33
411.98	3014.61
412.17	2953.76
412.36	3049.72
412.55	3169.09
412.74	3122.27
412.93	3119.93
413.12	3178.45
413.31	3318.88
413.50	3304.84
413.69	3103.55
413.88	3302.50
414.07	3269.73
414.26	3276.75
414.45	3365.69
414.64	3419.52
414.83	3426.54
415.02	3323.56
415.22	3496.76
415.41	3550.59
415.60	3545.91
415.79	3585.70
415.98	3597.40
416.17	3602.08
416.36	3557.61
416.55	3637.19
416.74	3693.37
416.93	3658.26
417.12	3796.35
417.31	3749.54
417.50	3794.01
417.69	3721.45
417.88	3904.01
418.07	3824.44
418.26	3831.46
418.45	3896.99
418.64	4173.18
418.83	3882.95
419.02	3861.88
419.21	4084.23
419.39	3990.61
419.58	4107.64
419.77	3861.88
419.96	4044.45
420.15	4229.35
420.34	4007.00
420.53	4084.23
420.72	4215.30
420.91	4187.22
421.10	4114.66
421.29	4276.16
421.48	4308.93
421.67	4388.50
421.86	4304.25
422.05	4133.39
422.24	4241.05
422.43	4243.39
422.61	4372.12
422.80	4470.42
422.99	4493.83
423.18	4322.97
423.37	4500.85
423.56	4292.54
423.75	4430.63
423.94	4241.05
424.13	4168.49
424.32	4224.67
424.50	4374.46
424.69	4545.32
424.88	4423.61
425.07	4435.32
425.26	4348.72
425.45	4407.23
425.64	4472.76
425.83	4477.44
426.01	4390.84
426.20	4404.89
426.39	4432.97
426.58	4409.57
426.77	4437.66
426.96	4517.23
427.15	4493.83
427.33	4564.04
427.52	4550.00
427.71	4704.48
427.90	4685.75
428.09	4561.70
428.28	4716.18
428.46	4636.60
428.65	4730.22
428.84	4903.42
429.03	4933.85
429.22	4772.35
429.40	4922.15
429.59	4873.00
429.78	4713.84
429.97	4674.05
430.16	4748.95
430.34	4947.89
430.53	4870.65
430.72	4931.51
430.91	4837.89
431.10	4987.68
431.28	5069.60
431.47	5125.77
431.66	5184.29
431.85	5125.77
432.03	5034.49
432.22	5149.18
432.41	5085.98
432.60	5093.01
432.79	5139.82
432.97	5322.38
433.16	5380.89
433.35	5313.02
433.54	5273.23
433.72	5247.48
433.91	5268.55
434.10	5327.06
434.28	5167.90
434.47	5425.36
434.66	5444.09
434.85	5432.38
435.03	5610.26
435.22	5593.88
435.41	6005.81
435.59	5699.20
435.78	5699.20
435.97	5682.82
436.16	5631.33
436.34	5392.59
436.53	5678.14
436.72	5790.49
436.90	5579.84
437.09	5638.35
437.28	5799.85
437.46	5708.57
437.65	5729.63
437.84	5731.97
438.02	5774.10
438.21	5839.64
438.40	5818.57
438.58	6092.41
438.77	6174.33
438.96	6024.54
439.14	6005.81
439.33	6272.64
439.52	6097.10
439.70	6274.98
439.89	6214.12
440.08	6466.90
440.26	6410.73
440.45	6197.74
440.63	6291.36
440.82	6431.79
441.01	6417.75
441.19	6506.69
441.38	6717.34
441.57	6586.27
441.75	6548.82
441.94	6733.72
442.12	6825.00
442.31	6911.60
442.50	6806.28
442.68	6890.54
442.87	6787.55
443.05	6998.20
443.24	6909.26
443.43	7009.90
443.61	6988.84
443.80	7124.59
443.98	6899.90
444.17	6778.19
444.35	6883.52
444.54	7014.59
444.73	7035.65
444.91	7019.27
445.10	7220.55
445.28	7138.63
445.47	6951.39
445.65	7119.91
445.84	7211.19
446.02	7218.21
446.21	7239.28
446.39	7183.10
446.58	7159.70
446.77	7276.73
446.95	7021.61
447.14	7220.55
447.32	7360.98
447.51	7255.66
447.69	7148.00
447.88	7075.44
448.06	7414.82
448.25	7295.45
448.43	7213.53
448.62	7229.91
448.80	7131.61
448.99	7269.70
449.17	7452.27
449.36	7304.81
449.54	7655.89
449.73	7494.40
449.91	7662.91
450.10	7700.36
450.28	7536.52
450.46	7765.90
450.65	7489.71
450.83	7648.87
451.02	7662.91
451.20	7707.38
451.39	7765.90
451.57	7824.41
451.76	7705.04
451.94	7852.50
452.13	8025.70
452.31	7758.88
452.49	7903.99
452.68	7906.33
452.86	7948.46
453.05	7967.18
453.23	8044.42
453.42	7906.33
453.60	7896.97
453.78	8028.04
453.97	8138.04
454.15	8053.78
454.34	7798.66
454.52	8269.11
454.70	8336.99
454.89	8231.66
455.07	8131.02
455.26	8379.12
455.44	8510.19
455.62	8339.33
455.81	8482.10
455.99	8411.89
456.17	8308.90
456.36	8334.65
456.54	8608.49
456.73	8655.30
456.91	8872.97
457.09	8613.17
457.28	8800.41
457.46	8723.18
457.64	8863.61
457.83	8748.92
458.01	8833.18
458.19	9015.74
458.38	8945.53
458.56	8800.41
458.74	8926.80
458.93	8964.25
459.11	9060.21
459.29	8863.61
459.48	9128.09
459.66	8882.33
459.84	9104.68
460.03	9312.99
460.21	9135.11
460.39	8884.67
460.57	9153.84
460.76	9165.54
460.94	9504.92
461.12	9458.10
461.31	9408.95
461.49	9425.34
461.67	9310.65
461.85	9518.96
462.04	9334.06
462.22	9909.83
462.40	9465.13
462.59	9635.99
462.77	9657.05
462.95	9687.48
463.13	9504.92
463.32	9650.03
463.50	9867.70
463.68	9816.21
463.86	9947.28
464.05	9699.18
464.23	9762.37
464.41	10171.97
464.59	9837.27
464.78	10232.82
464.96	9926.21
465.14	9703.86
465.32	9961.32
465.50	10092.39
465.69	9900.47
465.87	10001.11
466.05	10024.51
466.23	9923.87
466.41	10164.95
466.60	10141.54
466.78	10132.18
466.96	10260.91
467.14	10120.48
467.32	10209.42
467.51	10281.97
467.69	10209.42
467.87	10312.40
468.05	10408.36
468.23	10193.03
468.41	10387.30
468.60	10354.53
468.78	10457.51
468.96	10457.51
469.14	10705.61
469.32	10590.92
469.50	10431.77
469.69	10782.85
469.87	10902.22
470.05	10710.29
470.23	10740.72
470.41	10750.08
470.59	10993.50
470.77	10803.91
470.95	11026.26
471.14	11353.94
471.32	10895.19
471.50	11318.83
471.68	11059.03
471.86	11084.78
472.04	11424.15
472.22	11440.54
472.40	11096.48
472.58	11534.16
472.77	11548.20
472.95	11597.35
473.13	12163.76
473.31	11506.07
473.49	11859.49
473.67	11639.48
473.85	11653.53
474.03	11985.88
474.21	12006.95
474.39	11889.92
474.57	12023.33
474.75	12266.75
474.93	12308.88
475.12	12430.59
475.30	12414.20
475.48	12383.77
475.66	12566.34
475.84	12453.99
476.02	12809.75
476.20	12716.13
476.38	12741.88
476.56	12987.63
476.74	13107.00
476.92	13025.08
477.10	12765.28
477.28	13104.66
477.46	13376.16
477.64	13378.50
477.82	13448.72
478.00	13717.88
478.18	13696.82
478.36	13729.58
478.54	14019.81
478.72	14092.37
478.90	14083.00
479.08	14560.47
479.26	14464.51
479.44	14356.85
479.62	14499.62
479.80	14752.40
479.98	14651.75
480.16	15014.54
480.34	14761.76
480.52	15103.48
480.70	15262.63
480.88	15073.05
481.06	15522.43
481.24	15183.06
481.41	15573.92
481.59	16135.65
481.77	15925.00
481.95	15941.39
482.13	16217.57
482.31	16128.63
482.49	16383.75
482.67	16592.06
482.85	16395.45
483.03	16842.50
483.21	16861.22
483.39	17195.92
483.57	16826.11
483.74	17174.85
483.92	17268.47
484.10	17053.14
484.28	17425.29
484.46	18054.89
484.64	18345.12
484.82	18092.34
485.00	18277.24
485.18	18492.57
485.35	18567.47
485.53	18551.09
485.71	18883.44
485.89	19075.37
486.07	18895.14
486.25	18993.45
486.43	19344.53
486.61	19269.63
486.78	19569.22
486.96	19721.35
487.14	20020.94
487.32	19953.07
487.50	20072.43
487.68	20215.21
487.85	20685.65
488.03	20517.14
488.21	20938.43
488.39	21259.09
488.57	21071.84
488.75	20968.86
488.92	21425.26
489.10	21467.39
489.28	21668.68
489.46	21872.31
489.64	22005.72
489.81	22541.70
489.99	22321.69
490.17	22300.62
490.35	22705.54
490.53	23159.60
490.70	23204.07
490.88	23068.32
491.06	23358.55
491.24	23325.78
491.41	23777.50
491.59	23578.56
491.77	23878.15
491.95	24133.26
492.13	24329.87
492.30	24240.93
492.48	24224.54
492.66	24245.61
492.84	24439.87
493.01	25032.03
493.19	24898.62
493.37	25191.19
493.54	24826.06
493.72	25488.43
493.90	25289.49
494.08	25429.92
494.25	25823.13
494.43	25804.41
494.61	26286.56
494.79	26251.45
494.96	26206.98
495.14	26536.99
495.32	26932.54
495.49	26766.37
495.67	26698.49
495.85	26838.92
496.02	27012.12
496.20	27225.11
496.38	27234.47
496.55	27515.34
496.73	27992.81
496.91	27740.03
497.09	28081.75
497.26	28481.98
497.44	28102.81
497.62	28287.71
497.79	29024.98
497.97	28884.55
498.14	29118.60
498.32	28999.24
498.50	29553.94
498.67	29329.25
498.85	29343.30
499.03	29773.95
499.20	29825.45
499.38	29448.62
499.56	29874.60
499.73	30015.03
499.91	29771.61
500.08	29839.49
500.26	30312.28
500.44	30459.73
500.61	30672.72
500.79	30644.63
500.97	30448.03
501.14	31075.29
501.32	31292.96
501.49	30958.27
501.67	31419.35
501.84	31585.53
502.02	31637.02
502.20	31494.25
502.37	31573.83
502.55	31615.96
502.72	31552.76
502.90	31971.72
503.07	31915.54
503.25	32376.63
503.43	31751.71
503.60	32421.10
503.78	32575.58
503.95	32503.02
504.13	32465.57
504.30	33029.64
504.48	32727.71
504.65	33048.36
504.83	33046.02
505.01	32903.25
505.18	33088.15
505.36	33546.90
505.53	33350.29
505.71	33303.48
505.88	33528.17
506.06	33635.84
506.23	33556.26
506.41	34007.98
506.58	33897.98
506.76	34106.29
506.93	34176.50
507.11	34323.96
507.28	34469.07
507.46	34738.23
507.63	34558.01
507.81	34785.04
507.98	34340.34
508.16	34614.18
508.33	34504.18
508.50	34948.88
508.68	35253.15
508.85	35290.60
509.03	35168.89
509.20	35407.62
509.38	35262.51
509.55	35431.03
509.73	35931.90
509.90	36254.90
510.08	35903.82
510.25	36327.45
510.42	36280.64
510.60	36378.95
510.77	36130.85
510.95	36835.35
511.12	36259.58
511.30	36676.19
511.47	36905.57
511.64	36807.26
511.82	37027.28
511.99	36643.43
512.17	36968.76
512.34	36980.46
512.51	37572.62
512.69	37530.49
512.86	37750.50
513.04	37799.65
513.21	37738.80
513.38	37596.03
513.56	37921.36
513.73	37785.61
513.90	38508.83
514.08	37963.49
514.25	38663.31
514.43	38717.14
514.60	39028.43
514.77	38635.22
514.95	38937.15
515.12	38127.33
515.29	38637.56
515.47	39112.69
515.64	39072.90
515.81	39019.07
515.99	39269.51
516.16	39208.65
516.33	39742.30
516.51	39709.53
516.68	39718.89
516.85	40020.82
517.03	39763.36
517.20	39849.96
517.37	39496.54
517.54	39735.27
517.72	40163.59
517.89	39716.55
518.06	40182.32
518.24	40329.77
518.41	40271.26
518.58	40175.30
518.75	40034.86
518.93	40306.37
519.10	40315.73
519.27	40678.51
519.45	40664.47
519.62	40830.65
519.79	40811.92
519.96	41153.64
520.14	41148.96
520.31	40631.70
520.48	40921.93
520.65	41181.73
520.83	42155.39
521.00	42017.30
521.17	41612.38
521.34	42099.22
521.52	41816.01
521.69	41460.25
521.86	41982.19
522.03	42012.62
522.20	42377.74
522.38	42270.08
522.55	42270.08
522.72	42337.95
522.89	42700.73
523.07	42700.73
523.24	42719.46
523.41	42731.16
523.58	42424.55
523.75	43199.27
523.92	42841.17
524.10	43136.07
524.27	43328.00
524.44	43119.69
524.61	43346.72
524.78	43325.66
524.96	43180.54
525.13	43419.28
525.30	44226.76
525.47	43936.54
525.64	43648.65
525.81	43653.33
525.98	44194.00
526.16	43241.40
526.33	43981.01
526.50	44699.55
526.67	43730.57
526.84	44390.60
527.01	44179.95
527.18	44559.12
527.36	44753.38
527.53	44516.99
527.70	44301.66
527.87	44825.94
528.04	44538.05
528.21	44898.50
528.38	44893.82
528.55	45448.52
528.72	45071.70
528.89	45102.12
529.07	45097.44
529.24	44868.07
529.41	45076.38
529.58	45614.70
529.75	45467.25
529.92	45661.51
530.09	45722.37
530.26	44961.69
530.43	45420.44
530.60	45530.44
530.77	45322.13
530.94	46007.91
531.11	45193.40
531.28	46115.58
531.46	46316.86
531.63	45858.12
531.80	45680.24
531.97	45647.47
532.14	46649.22
532.31	46085.15
532.48	46000.89
532.65	46602.41
532.82	46358.99
532.99	46492.40
533.16	46382.40
533.33	46670.28
533.50	46841.14
533.67	46761.56
533.84	46204.52
534.01	46946.47
534.18	46770.93
534.35	47112.64
534.52	47419.25
534.69	47517.56
534.86	47133.71
535.03	46450.27
535.20	46967.53
535.37	47257.76
535.54	47452.02
535.71	47440.32
535.88	47686.07
536.05	47147.75
536.22	47547.98
536.38	47459.04
536.55	47707.14
536.72	47917.79
536.89	48034.81
537.06	47716.50
537.23	48308.66
537.40	48128.44
537.57	47988.00
537.74	47896.72
537.91	48486.54
538.08	47927.15
538.25	47782.04
538.42	48332.06
538.59	48425.68
538.75	48381.21
538.92	48619.95
539.09	48575.48
539.26	48514.62
539.43	48217.38
539.60	48701.87
539.77	48671.44
539.94	49095.08
540.11	48919.54
540.28	49078.69
540.44	49078.69
540.61	48753.36
540.78	48849.32
540.95	48554.41
541.12	49158.27
541.29	49013.16
541.46	49272.96
541.62	49542.12
541.79	49591.27
541.96	49198.06
542.13	49219.13
542.30	49345.51
542.47	49256.57
542.63	49406.37
542.80	49614.68
542.97	50183.43
543.14	50035.97
543.31	50403.44
543.48	49780.85
543.64	50550.89
543.81	50607.06
543.98	50230.24
544.15	50298.11
544.32	50499.40
544.48	50384.71
544.65	50234.92
544.82	50454.93
544.99	50307.47
545.16	50384.71
545.32	50480.67
545.49	50696.00
545.66	51019.00
545.83	51016.66
546.00	51353.69
546.16	50571.96
546.33	51124.32
546.50	50597.70
546.67	50667.92
546.83	50497.06
547.00	50761.54
547.17	50728.77
547.34	50784.94
547.50	50925.38
547.67	51489.45
547.84	51292.84
548.00	51505.83
548.17	51480.08
548.34	51171.13
548.51	51414.55
548.67	51353.69
548.84	50993.25
549.01	51243.69
549.18	51262.41
549.34	51477.74
549.51	51297.52
549.68	51194.54
549.84	51466.04
550.01	51452.00
550.18	51009.64
550.34	51241.35
550.51	51065.81
550.68	51320.93
550.84	51454.34
551.01	51779.67
551.18	51166.45
551.34	51508.17
551.51	51679.03
551.68	51718.82
551.84	51810.10
552.01	51395.82
552.18	51690.73
552.34	51913.08
552.51	52067.56
552.68	52142.45
552.84	51924.78
553.01	52477.15
553.18	51643.92
553.34	51821.80
553.51	51882.66
553.67	52018.41
553.84	52212.67
554.01	52514.60
554.17	52533.32
554.34	52456.09
554.51	52561.41
554.67	52821.21
554.84	52360.12
555.00	52140.11
555.17	51786.69
555.33	52392.89
555.50	52477.15
555.67	52163.52
555.83	52603.54
556.00	52523.96
556.16	52545.03
556.33	52526.30
556.50	52397.57
556.66	52729.93
556.83	52371.83
556.99	52486.51
557.16	52863.34
557.32	52849.30
557.49	52949.94
557.65	52870.36
557.82	52734.61
557.98	52779.08
558.15	53052.92
558.32	52910.15
558.48	52673.76
558.65	52846.96
558.81	52935.90
558.98	52844.62
559.14	52879.72
559.31	52729.93
559.47	52973.34
559.64	52872.70
559.80	52994.41
559.97	52963.98
560.13	52912.49
560.30	52851.64
560.46	53123.14
560.63	52994.41
560.79	53392.30
560.96	53354.85
561.12	53375.92
561.29	53279.96
561.45	53153.57
561.61	53272.93
561.78	53286.98
561.94	53565.50
562.11	53675.51
562.27	53593.59
562.44	53846.36
562.60	53331.45
562.77	53434.43
562.93	53125.48
563.10	53532.73
563.26	52935.90
563.42	53687.21
563.59	53296.34
563.75	53275.27
563.92	53605.29
564.08	53600.61
564.24	53462.52
564.41	53535.07
564.57	53509.33
564.74	53427.41
564.90	53483.58
565.07	53343.15
565.23	53649.76
565.39	53633.38
565.56	53982.12
565.72	53844.02
565.88	53694.23
566.05	53886.15
566.21	53411.02
566.38	53628.69
566.54	53633.38
566.70	53944.67
566.87	53844.02
567.03	53682.53
567.19	54197.44
567.36	53876.79
567.52	53687.21
567.68	53722.32
567.85	53890.83
568.01	53844.02
568.17	53689.55
568.34	53902.54
568.50	53792.53
568.66	53820.62
568.83	54017.22
568.99	53818.28
569.15	53631.04
569.32	53961.05
569.48	53509.33
569.64	54031.27
569.81	53829.98
569.97	53663.80
570.13	53975.09
570.30	53888.49
570.46	53771.47
570.62	53764.45
570.78	54045.31
570.95	53663.80
571.11	54167.02
571.27	53902.54
571.43	53673.16
571.60	53764.45
571.76	54010.20
571.92	54040.63
572.09	54047.65
572.25	54333.20
572.41	54277.02
572.57	54174.04
572.74	54555.55
572.90	53963.39
573.06	54047.65
573.22	54099.14
573.38	54253.62
573.55	54131.91
573.71	54085.10
573.87	54335.54
574.03	54089.78
574.20	54150.63
574.36	54335.54
574.52	54190.42
574.68	54031.27
574.84	54244.26
575.01	54277.02
575.17	54564.91
575.33	54138.93
575.49	54085.10
575.65	54518.10
575.82	54475.97
575.98	54623.42
576.14	54262.98
576.30	54492.35
576.46	54377.67
576.62	54190.42
576.79	54057.01
576.95	54333.20
577.11	54227.87
577.27	54482.99
577.43	54314.47
577.59	54197.44
577.75	54389.37
577.92	54017.22
578.08	54185.74
578.24	53883.81
578.40	54342.56
578.56	54258.30
578.72	54167.02
578.88	54695.98
579.04	54688.96
579.21	54122.55
579.37	54340.22
579.53	54656.19
579.69	54370.64
579.85	54827.05
580.01	54482.99
580.17	54506.40
580.33	54724.07
580.49	54653.85
580.65	54724.07
580.82	54784.92
580.98	54609.38
581.14	54443.20
581.30	54810.67
581.46	54616.40
581.62	54267.66
581.78	54546.18
581.94	54475.97
582.10	54443.20
582.26	54681.94
582.42	54356.60
582.58	54279.36
582.74	54614.06
582.90	54848.11
583.06	54480.65
583.22	54403.41
583.38	54497.03
583.54	54422.14
583.70	54300.43
583.86	54752.15
584.02	54436.18
584.18	54719.38
584.34	54780.24
584.50	54731.09
584.66	54628.10
584.82	54562.57
584.98	54679.60
585.14	54667.89
585.30	54417.46
585.46	54480.65
585.62	54298.09
585.78	54766.20
585.94	54735.77
586.10	54827.05
586.26	54796.62
586.42	54761.51
586.58	54782.58
586.74	54574.27
586.90	54450.22
587.06	54504.06
587.22	54967.48
587.38	54513.42
587.54	55103.23
587.70	55100.89
587.86	54967.48
588.02	55131.32
588.18	54728.75
588.34	54930.03
588.49	54775.56
588.65	54768.54
