SpectraSuite Data File
++++++++++++++++++++++++++++++++++++
Date: Thu Oct 24 13:21:38 EDT 2013
User: stostad
Dark Spectrum Present: No
Reference Spectrum Present: No
Number of Sampled Component Spectra: 1
Spectrometers: USB2+H05261
Integration Time (usec): 100000 (USB2+H05261)
Spectra Averaged: 1 (USB2+H05261)
Boxcar Smoothing: 0 (USB2+H05261)
Correct for Electrical Dark: No (USB2+H05261)
Strobe/Lamp Enabled: No (USB2+H05261)
Correct for Detector Non-linearity: No (USB2+H05261)
Correct for Stray Light: No (USB2+H05261)
Number of Pixels in Processed Spectrum: 2048
>>>>>Begin Processed Spectral Data<<<<<
365.73	514.92
365.92	514.92
366.12	514.92
366.32	496.19
366.52	440.02
366.72	463.43
366.91	533.64
367.11	461.09
367.31	468.11
367.51	468.11
367.70	475.13
367.90	498.53
368.10	538.32
368.30	479.81
368.49	510.24
368.69	512.58
368.89	482.15
369.09	491.51
369.28	510.24
369.48	489.17
369.68	528.96
369.87	526.62
370.07	540.66
370.27	610.88
370.47	727.91
370.66	1212.40
370.86	1313.04
371.06	1245.16
371.25	1343.47
371.45	1397.30
371.65	1327.08
371.84	1378.58
372.04	1409.00
372.24	1425.39
372.44	1357.51
372.63	1385.60
372.83	1514.33
373.03	1423.05
373.22	1455.81
373.42	1483.90
373.62	1472.20
373.81	1483.90
374.01	1500.28
374.21	1565.82
374.40	1519.01
374.60	1528.37
374.79	1596.25
374.99	1575.18
375.19	1652.42
375.38	1549.43
375.58	1582.20
375.78	1629.01
375.97	1586.88
376.17	1659.44
376.37	1668.80
376.56	1556.46
376.76	1647.74
376.95	1687.53
377.15	1727.32
377.35	1687.53
377.54	1736.68
377.74	1706.25
377.93	1638.38
378.13	1668.80
378.33	1788.17
378.52	1706.25
378.72	1790.51
378.91	1781.15
379.11	1767.10
379.31	1823.28
379.50	1727.32
379.70	1849.02
379.89	1792.85
380.09	1739.02
380.28	1909.88
380.48	1912.22
380.68	1858.39
380.87	1949.67
381.07	1944.99
381.26	1912.22
381.46	1914.56
381.65	1886.47
381.85	1849.02
382.04	1912.22
382.24	1909.88
382.43	2024.56
382.63	2008.18
382.83	1952.01
383.02	1966.05
383.22	1973.07
383.41	1933.28
383.61	1996.48
383.80	1926.26
384.00	1968.39
384.19	2129.89
384.39	2015.20
384.58	2134.57
384.78	2188.40
384.97	2040.95
385.17	2057.33
385.36	2157.97
385.56	2157.97
385.75	2153.29
385.95	2207.13
386.14	2293.72
386.34	2169.68
386.53	2211.81
386.72	2181.38
386.92	2230.53
387.11	2190.74
387.31	2272.66
387.50	2340.54
387.70	2326.49
387.89	2232.87
388.09	2239.89
388.28	2368.62
388.48	2366.28
388.67	2345.22
388.86	2438.84
389.06	2401.39
389.25	2363.94
389.45	2282.02
389.64	2394.37
389.84	2464.58
390.03	2478.63
390.22	2438.84
390.42	2518.42
390.61	2466.92
390.81	2487.99
391.00	2602.68
391.19	2527.78
391.39	2544.16
391.58	2579.27
391.78	2651.83
391.97	2623.74
392.16	2551.18
392.36	2670.55
392.55	2729.06
392.75	2766.51
392.94	2717.36
393.13	2647.15
393.33	2708.00
393.52	2841.41
393.71	2799.28
393.91	2825.03
394.10	2757.15
394.29	2995.89
394.49	2883.54
394.68	2909.29
394.88	2911.63
395.07	2949.08
395.26	2869.50
395.46	2958.44
395.65	2928.01
395.84	2906.95
396.04	3126.96
396.23	3112.91
396.42	3059.08
396.62	3143.34
396.81	3155.04
397.00	3208.87
397.19	3215.90
397.39	3251.00
397.58	3143.34
397.77	3080.14
397.97	3337.60
398.16	3286.11
398.35	3330.58
398.55	3288.45
398.74	3351.65
398.93	3414.84
399.12	3407.82
399.32	3281.43
399.51	3337.60
399.70	3482.72
399.90	3407.82
400.09	3510.80
400.28	3440.59
400.47	3513.14
400.67	3655.92
400.86	3463.99
401.05	3564.64
401.24	3634.85
401.44	3684.00
401.63	3735.50
401.82	3768.26
402.01	3742.52
402.21	3599.74
402.40	3810.39
402.59	3749.54
402.78	3845.50
402.97	3791.67
403.17	3913.38
403.36	3904.01
403.55	3829.12
403.74	4009.34
403.93	4002.32
404.13	4032.74
404.32	3943.80
404.51	4109.98
404.70	4196.58
404.89	4070.19
405.09	4238.71
405.28	4163.81
405.47	4222.33
405.66	4154.45
405.85	4241.05
406.05	4276.16
406.24	4435.32
406.43	4362.76
406.62	4477.44
406.81	4564.04
407.00	4208.28
407.20	4311.27
407.39	4472.76
407.58	4479.79
407.77	4599.15
407.96	4667.03
408.15	4519.57
408.34	4557.02
408.54	4737.24
408.73	4407.23
408.92	4620.22
409.11	4819.16
409.30	4762.99
409.49	4882.36
409.68	4873.00
409.87	4786.40
410.07	4994.70
410.26	4877.68
410.45	4922.15
410.64	4936.19
410.83	5067.26
411.02	5195.99
411.21	5247.48
411.40	4997.04
411.59	5193.65
411.78	5214.71
411.98	5228.76
412.17	5366.85
412.36	5348.12
412.55	5446.43
412.74	5511.96
412.93	5479.19
413.12	5408.98
413.31	5535.37
413.50	5600.90
413.69	5717.93
413.88	5898.15
414.07	5813.89
414.26	5867.72
414.45	6108.80
414.64	5823.25
414.83	5961.34
415.02	5877.09
415.22	6115.82
415.41	6031.56
415.60	6157.95
415.79	6324.13
415.98	6195.40
416.17	6235.19
416.36	6174.33
416.55	6310.08
416.74	6518.39
416.93	6438.81
417.12	6509.03
417.31	6480.94
417.50	6712.66
417.69	6806.28
417.88	6820.32
418.07	6736.06
418.26	6794.58
418.45	6705.63
418.64	7246.30
418.83	6892.88
419.02	7052.03
419.21	7145.66
419.39	7258.00
419.58	7140.97
419.77	6979.48
419.96	7236.94
420.15	7225.23
420.34	7204.17
420.53	7197.15
420.72	7424.18
420.91	7555.25
421.10	7426.52
421.29	7391.41
421.48	7239.28
421.67	7470.99
421.86	7524.82
422.05	7529.50
422.24	7557.59
422.43	7644.19
422.61	7468.65
422.80	7810.37
422.99	7779.94
423.18	7728.45
423.37	7761.22
423.56	7887.61
423.75	7845.48
423.94	7700.36
424.13	7117.57
424.32	7337.58
424.50	7925.05
424.69	7885.26
424.88	7915.69
425.07	7899.31
425.26	7691.00
425.45	7864.20
425.64	7815.05
425.83	7793.98
426.01	7859.52
426.20	7995.27
426.39	7871.22
426.58	7948.46
426.77	7864.20
426.96	8032.72
427.15	7939.10
427.33	8294.86
427.52	8049.10
427.71	8266.77
427.90	8152.09
428.09	8264.43
428.28	8414.23
428.46	8404.86
428.65	8395.50
428.84	8592.11
429.03	8517.21
429.22	8542.96
429.40	8606.15
429.59	8692.75
429.78	8608.49
429.97	8187.19
430.16	8620.19
430.34	8828.50
430.53	8624.87
430.72	8730.20
430.91	9039.15
431.10	8645.94
431.28	8938.51
431.47	9048.51
431.66	9121.07
431.85	8952.55
432.03	9233.41
432.22	9235.75
432.41	9252.14
432.60	9205.33
432.79	9378.53
432.97	9324.69
433.16	9572.79
433.35	9390.23
433.54	9394.91
433.72	9614.92
433.91	9481.51
434.10	9432.36
434.28	9633.64
434.47	9771.74
434.66	9703.86
434.85	9830.25
435.03	9970.68
435.22	10094.73
435.41	10471.56
435.59	10111.11
435.78	10232.82
435.97	10141.54
436.16	10045.58
436.34	10038.56
436.53	10190.69
436.72	10228.14
436.90	9909.83
437.09	10401.34
437.28	10202.40
437.46	10246.87
437.65	10436.45
437.84	10459.85
438.02	10408.36
438.21	10523.05
438.40	10473.90
438.58	11012.22
438.77	10860.09
438.96	10808.59
439.14	11283.72
439.33	11213.51
439.52	11033.29
439.70	11262.66
439.89	11431.18
440.08	11475.65
440.26	11468.62
440.45	11466.28
440.63	11742.47
440.82	11700.34
441.01	11707.36
441.19	11847.79
441.38	12049.08
441.57	11997.59
441.75	12184.83
441.94	12456.33
442.12	12334.62
442.31	12334.62
442.50	12407.18
442.68	12297.17
442.87	12430.59
443.05	12877.63
443.24	12681.02
443.43	12704.43
443.61	12671.66
443.80	13036.78
443.98	12498.46
444.17	12264.41
444.35	12622.51
444.54	12952.52
444.73	12973.59
444.91	12727.83
445.10	13034.44
445.28	13266.16
445.47	12915.08
445.65	12769.96
445.84	13198.28
446.02	13254.45
446.21	13125.72
446.39	13092.96
446.58	13228.71
446.77	13165.51
446.95	12851.88
447.14	13137.43
447.32	13242.75
447.51	13217.01
447.69	12999.34
447.88	13273.18
448.06	13427.65
448.25	13111.68
448.43	13254.45
448.62	13369.14
448.80	13301.26
448.99	13881.72
449.17	13329.35
449.36	13582.13
449.54	13785.76
449.73	13928.53
449.91	13998.74
450.10	13872.36
450.28	14263.22
450.46	14286.63
450.65	14174.28
450.83	14193.01
451.02	14036.19
451.20	14298.33
451.39	14132.15
451.57	14328.76
451.76	14174.28
451.94	14108.75
452.13	14406.00
452.31	14457.49
452.49	14256.20
452.68	14738.35
452.86	14740.69
453.05	14508.98
453.23	14853.04
453.42	14672.82
453.60	14389.61
453.78	14972.41
453.97	15192.42
454.15	14719.63
454.34	14794.53
454.52	15026.24
454.70	15276.68
454.89	15227.53
455.07	15307.10
455.26	15417.11
455.44	15723.72
455.62	15482.64
455.81	15433.49
455.99	15630.10
456.17	15749.46
456.36	15653.50
456.54	16147.36
456.73	16257.36
456.91	16343.96
457.09	16233.96
457.28	16484.39
457.46	15967.13
457.64	16556.95
457.83	16655.25
458.01	16210.55
458.19	16699.72
458.38	16360.34
458.56	16901.01
458.74	16673.98
458.93	16879.94
459.11	16690.36
459.29	16779.30
459.48	16996.97
459.66	17020.38
459.84	16957.18
460.03	17106.98
460.21	17488.48
460.39	17404.22
460.57	17123.36
460.76	17507.21
460.94	17420.61
461.12	17584.44
461.31	17425.29
461.49	17745.94
461.67	17514.23
461.85	17652.32
462.04	17563.38
462.22	18174.26
462.40	18012.76
462.59	18066.60
462.77	18143.83
462.95	18328.74
463.13	18078.30
463.32	18354.48
463.50	18307.67
463.68	18317.03
463.86	18438.74
464.05	18326.39
464.23	18560.45
464.41	18752.37
464.59	18377.89
464.78	19016.85
464.96	18670.45
465.14	18625.98
465.32	18981.74
465.50	18862.38
465.69	19314.10
465.87	18855.36
466.05	19066.00
466.23	18970.04
466.41	19475.60
466.60	19576.24
466.78	19056.64
466.96	19119.84
467.14	19225.16
467.32	19377.30
467.51	19564.54
467.69	19124.52
467.87	19524.75
468.05	19697.95
468.23	19199.41
468.41	19662.84
468.60	19868.81
468.78	19550.49
468.96	19789.23
469.14	20212.87
469.32	20786.30
469.50	19744.76
469.69	20257.34
469.87	20341.60
470.05	20315.85
470.23	20594.37
470.41	20636.50
470.59	20886.94
470.77	21111.63
470.95	20680.97
471.14	21352.71
471.32	20603.74
471.50	21132.70
471.68	21083.55
471.86	21357.39
472.04	21383.13
472.22	21923.80
472.40	21546.97
472.58	21703.79
472.77	21778.68
472.95	21907.41
473.13	22539.36
473.31	22253.81
473.49	22429.35
473.67	22078.27
473.85	22581.49
474.03	23016.83
474.21	22829.59
474.39	23192.37
474.57	22726.60
474.75	23351.52
474.93	23749.42
475.12	23782.18
475.30	23807.93
475.48	23723.67
475.66	23796.23
475.84	24018.58
476.02	24191.78
476.20	24430.51
476.38	24699.67
476.56	25109.27
476.74	25135.01
476.92	24922.02
477.10	24812.02
477.28	25406.52
477.46	25659.29
477.64	25645.25
477.82	26080.59
478.00	26698.49
478.18	26511.25
478.36	26618.91
478.54	26958.29
478.72	27014.46
478.90	27124.47
479.08	27639.39
479.26	27543.42
479.44	28004.51
479.62	28458.57
479.80	28629.43
479.98	28437.51
480.16	29167.76
480.34	28800.29
480.52	29617.14
480.70	29165.42
480.88	29244.99
481.06	29584.37
481.24	29816.08
481.41	30197.59
481.59	30141.42
481.77	30712.51
481.95	31002.74
482.13	31412.33
482.31	30714.85
482.49	32119.17
482.67	31615.96
482.85	32128.53
483.03	32496.00
483.21	32814.31
483.39	33324.55
483.57	32723.03
483.74	33347.95
483.92	33523.49
484.10	33612.43
484.28	34448.00
484.46	34735.89
484.64	35302.30
484.82	34845.90
485.00	35386.56
485.18	35864.03
485.35	36299.37
485.53	36577.89
485.71	36788.54
485.89	36989.83
486.07	37172.39
486.25	36802.58
486.43	36821.31
486.61	37773.91
486.78	37947.11
486.96	38139.03
487.14	38810.76
487.32	38593.09
487.50	39292.91
487.68	39349.09
487.85	39959.97
488.03	40287.64
488.21	40942.99
488.39	40367.22
488.57	40617.66
488.75	41326.84
488.92	41270.67
489.10	42094.53
489.28	41837.08
489.46	42511.15
489.64	42646.90
489.81	42944.15
489.99	43257.78
490.17	43751.63
490.35	43863.98
490.53	44399.96
490.70	44669.12
490.88	44360.17
491.06	44781.47
491.24	45041.27
491.41	45336.18
491.59	45670.87
491.77	45853.44
491.95	46146.00
492.13	46415.16
492.30	46251.33
492.48	46745.18
492.66	47320.95
492.84	46820.08
493.01	47533.94
493.19	47707.14
493.37	48409.30
493.54	48261.85
493.72	48903.15
493.90	48587.18
494.08	49537.44
494.25	49237.85
494.43	49282.32
494.61	49525.74
494.79	49862.77
494.96	49790.22
495.14	49844.05
495.32	50768.56
495.49	50478.33
495.67	50632.81
495.85	50997.93
496.02	51442.63
496.20	51360.72
496.38	51213.26
496.55	51625.20
496.73	52472.47
496.91	52336.72
497.09	52252.46
497.26	52594.18
497.44	52563.75
497.62	52809.51
497.79	53485.92
497.97	53099.73
498.14	53537.41
498.32	53773.81
498.50	53698.91
498.67	54049.99
498.85	53965.73
499.03	53944.67
499.20	54143.61
499.38	54270.00
499.56	54780.24
499.73	54607.04
499.91	54562.57
500.08	54986.21
500.26	54885.56
500.44	55054.08
500.61	55573.68
500.79	54951.10
500.97	55449.63
501.14	55730.50
501.32	55838.16
501.49	55578.36
501.67	55990.30
501.84	56170.52
502.02	56144.77
502.20	56310.95
502.37	56481.81
502.55	56303.93
502.72	56425.64
502.90	56477.13
503.07	56509.89
503.25	56594.15
503.43	56561.39
503.60	56999.07
503.78	56868.00
503.95	56804.80
504.13	57183.97
504.30	57329.08
504.48	57347.81
504.65	57609.95
504.83	57633.35
505.01	57687.18
505.18	57439.09
505.36	57949.32
505.53	57956.35
505.71	58080.39
505.88	57935.28
506.06	58204.44
506.23	58433.81
506.41	58298.06
506.58	58295.72
506.76	58475.94
506.93	58557.86
507.11	58646.80
507.28	58810.64
507.46	58688.93
507.63	58897.24
507.81	58969.80
507.98	58899.58
508.16	59056.40
508.33	59201.51
508.50	59491.74
508.68	59529.19
508.85	59693.02
509.03	59531.53
509.20	59653.23
509.38	59608.76
509.55	59767.92
509.73	60062.83
509.90	60172.83
510.08	60013.68
510.25	59929.42
510.42	60048.78
510.60	60161.13
510.77	60418.59
510.95	60446.68
511.12	60285.18
511.30	60198.58
511.47	60654.98
511.64	60657.32
511.82	60835.20
511.99	60619.88
512.17	60783.71
512.34	60757.97
512.51	61221.39
512.69	61249.48
512.86	61298.63
513.04	61284.59
513.21	61343.10
513.38	61034.15
513.56	61394.59
513.73	61312.67
513.90	61649.71
514.08	61530.34
514.25	61813.55
514.43	61743.33
514.60	61853.34
514.77	61626.31
514.95	61806.53
515.12	61799.50
515.29	62120.16
515.47	62092.07
515.64	62284.00
515.81	62213.78
515.99	62106.12
516.16	62401.02
516.33	62262.93
516.51	62653.80
516.68	62433.79
516.85	62550.82
517.03	62695.93
517.20	62901.90
517.37	62789.55
517.54	62745.08
517.72	62707.63
517.89	62604.65
518.06	63054.03
518.24	62894.88
518.41	63084.46
518.58	62979.14
518.75	62864.45
518.93	63063.39
519.10	63166.38
519.27	63260.00
519.45	63238.93
519.62	63484.69
519.79	63522.14
519.96	63327.87
520.14	63618.10
520.31	63524.48
520.48	63753.85
520.65	63491.71
520.83	63772.58
521.00	63863.86
521.17	63791.30
521.34	64011.31
521.52	64034.72
521.69	64041.74
521.86	64055.78
522.03	64205.58
522.20	64341.33
522.38	64514.53
522.55	64453.67
522.72	64413.88
522.89	64451.33
523.07	64640.92
523.24	64451.33
523.41	64720.49
523.58	64544.95
523.75	64708.79
523.92	64886.67
524.10	64968.59
524.27	65008.38
524.44	64928.80
524.61	64870.29
524.78	64959.23
524.96	64989.66
525.13	65052.85
525.30	65221.37
525.47	65303.29
525.64	65317.33
525.81	65195.62
525.98	65326.69
526.16	65165.20
526.33	65307.97
526.50	65509.25
526.67	65352.44
526.84	65535.00
527.01	65535.00
527.18	65511.59
527.36	65535.00
527.53	65535.00
527.70	65535.00
527.87	65535.00
528.04	65535.00
528.21	65535.00
528.38	65535.00
528.55	65535.00
528.72	65535.00
528.89	65535.00
529.07	65535.00
529.24	65535.00
529.41	65535.00
529.58	65535.00
529.75	65535.00
529.92	65535.00
530.09	65535.00
530.26	65535.00
530.43	65535.00
530.60	65535.00
530.77	65535.00
530.94	65535.00
531.11	65535.00
531.28	65535.00
531.46	65535.00
531.63	65535.00
531.80	65535.00
531.97	65535.00
532.14	65535.00
532.31	65535.00
532.48	65535.00
532.65	65535.00
532.82	65535.00
532.99	65535.00
533.16	65535.00
533.33	65535.00
533.50	65535.00
533.67	65535.00
533.84	65535.00
534.01	65535.00
534.18	65535.00
534.35	65535.00
534.52	65535.00
534.69	65535.00
534.86	65535.00
535.03	65535.00
535.20	65535.00
535.37	65535.00
535.54	65535.00
535.71	65535.00
535.88	65535.00
536.05	65535.00
536.22	65535.00
536.38	65535.00
536.55	65535.00
536.72	65535.00
536.89	65535.00
537.06	65535.00
537.23	65535.00
537.40	65535.00
537.57	65535.00
537.74	65535.00
537.91	65535.00
538.08	65535.00
538.25	65535.00
538.42	65535.00
538.59	65535.00
538.75	65535.00
538.92	65535.00
539.09	65535.00
539.26	65535.00
539.43	65535.00
539.60	65535.00
539.77	65535.00
539.94	65535.00
540.11	65535.00
540.28	65535.00
540.44	65535.00
540.61	65535.00
540.78	65535.00
540.95	65535.00
541.12	65535.00
541.29	65535.00
541.46	65535.00
541.62	65535.00
541.79	65535.00
541.96	65535.00
542.13	65535.00
542.30	65535.00
542.47	65535.00
542.63	65535.00
542.80	65535.00
542.97	65535.00
543.14	65535.00
543.31	65535.00
543.48	65535.00
543.64	65535.00
543.81	65535.00
543.98	65535.00
544.15	65535.00
544.32	65535.00
544.48	65535.00
544.65	65535.00
544.82	65535.00
544.99	65535.00
545.16	65535.00
545.32	65535.00
545.49	65535.00
545.66	65535.00
545.83	65535.00
546.00	65535.00
546.16	65535.00
546.33	65535.00
546.50	65535.00
546.67	65535.00
546.83	65535.00
547.00	65535.00
547.17	65535.00
547.34	65535.00
547.50	65535.00
547.67	65535.00
547.84	65535.00
548.00	65535.00
548.17	65535.00
548.34	65535.00
548.51	65535.00
548.67	65535.00
548.84	65535.00
549.01	65535.00
549.18	65535.00
549.34	65535.00
549.51	65535.00
549.68	65535.00
549.84	65535.00
550.01	65535.00
550.18	65535.00
550.34	65535.00
550.51	65535.00
550.68	65535.00
550.84	65535.00
551.01	65535.00
551.18	65535.00
551.34	65535.00
551.51	65535.00
551.68	65535.00
551.84	65535.00
552.01	65535.00
552.18	65535.00
552.34	65535.00
552.51	65535.00
552.68	65535.00
552.84	65535.00
553.01	65535.00
553.18	65535.00
553.34	65535.00
553.51	65535.00
553.67	65535.00
553.84	65535.00
554.01	65535.00
554.17	65535.00
554.34	65535.00
554.51	65535.00
554.67	65535.00
554.84	65535.00
555.00	65535.00
555.17	65535.00
555.33	65535.00
555.50	65535.00
555.67	65535.00
555.83	65535.00
556.00	65535.00
556.16	65535.00
556.33	65535.00
556.50	65535.00
556.66	65535.00
556.83	65535.00
556.99	65535.00
557.16	65535.00
557.32	65535.00
557.49	65535.00
557.65	65535.00
557.82	65535.00
557.98	65535.00
558.15	65535.00
558.32	65535.00
558.48	65535.00
558.65	65535.00
558.81	65535.00
558.98	65535.00
559.14	65535.00
559.31	65535.00
559.47	65535.00
559.64	65535.00
559.80	65535.00
559.97	65535.00
560.13	65535.00
560.30	65535.00
560.46	65535.00
560.63	65535.00
560.79	65535.00
560.96	65535.00
561.12	65535.00
561.29	65535.00
561.45	65535.00
561.61	65535.00
561.78	65535.00
561.94	65535.00
562.11	65535.00
562.27	65535.00
562.44	65535.00
562.60	65535.00
562.77	65535.00
562.93	65535.00
563.10	65535.00
563.26	65535.00
563.42	65535.00
563.59	65535.00
563.75	65535.00
563.92	65535.00
564.08	65535.00
564.24	65535.00
564.41	65535.00
564.57	65535.00
564.74	65535.00
564.90	65535.00
565.07	65535.00
565.23	65535.00
565.39	65535.00
565.56	65535.00
565.72	65535.00
565.88	65535.00
566.05	65535.00
566.21	65535.00
566.38	65535.00
566.54	65535.00
566.70	65535.00
566.87	65535.00
567.03	65535.00
567.19	65535.00
567.36	65535.00
567.52	65535.00
567.68	65535.00
567.85	65535.00
568.01	65535.00
568.17	65535.00
568.34	65535.00
568.50	65535.00
568.66	65535.00
568.83	65535.00
568.99	65535.00
569.15	65535.00
569.32	65535.00
569.48	65535.00
569.64	65535.00
569.81	65535.00
569.97	65535.00
570.13	65535.00
570.30	65535.00
570.46	65535.00
570.62	65535.00
570.78	65535.00
570.95	65535.00
571.11	65535.00
571.27	65535.00
571.43	65535.00
571.60	65535.00
571.76	65535.00
571.92	65535.00
572.09	65535.00
572.25	65535.00
572.41	65535.00
572.57	65535.00
572.74	65535.00
572.90	65535.00
573.06	65535.00
573.22	65535.00
573.38	65535.00
573.55	65535.00
573.71	65535.00
573.87	65535.00
574.03	65535.00
574.20	65535.00
574.36	65535.00
574.52	65535.00
574.68	65535.00
574.84	65535.00
575.01	65535.00
575.17	65535.00
575.33	65535.00
575.49	65535.00
575.65	65535.00
575.82	65535.00
575.98	65535.00
576.14	65535.00
576.30	65535.00
576.46	65535.00
576.62	65535.00
576.79	65535.00
576.95	65535.00
577.11	65535.00
577.27	65535.00
577.43	65535.00
577.59	65535.00
577.75	65535.00
577.92	65535.00
578.08	65535.00
578.24	65535.00
578.40	65535.00
578.56	65535.00
578.72	65535.00
578.88	65535.00
579.04	65535.00
579.21	65535.00
579.37	65535.00
579.53	65535.00
579.69	65535.00
579.85	65535.00
580.01	65535.00
580.17	65535.00
580.33	65535.00
580.49	65535.00
580.65	65535.00
580.82	65535.00
580.98	65535.00
581.14	65535.00
581.30	65535.00
581.46	65535.00
581.62	65535.00
581.78	65535.00
581.94	65535.00
582.10	65535.00
582.26	65535.00
582.42	65535.00
582.58	65535.00
582.74	65535.00
582.90	65535.00
583.06	65535.00
583.22	65535.00
583.38	65535.00
583.54	65535.00
583.70	65535.00
583.86	65535.00
584.02	65535.00
584.18	65535.00
584.34	65535.00
584.50	65535.00
584.66	65535.00
584.82	65535.00
584.98	65535.00
585.14	65535.00
585.30	65535.00
585.46	65535.00
585.62	65535.00
585.78	65535.00
585.94	65535.00
586.10	65535.00
586.26	65535.00
586.42	65535.00
586.58	65535.00
586.74	65535.00
586.90	65535.00
