SpectraSuite Data File
++++++++++++++++++++++++++++++++++++
Date: Thu Oct 24 13:21:30 EDT 2013
User: stostad
Dark Spectrum Present: No
Reference Spectrum Present: No
Number of Sampled Component Spectra: 1
Spectrometers: USB2+H05261
Integration Time (usec): 100000 (USB2+H05261)
Spectra Averaged: 1 (USB2+H05261)
Boxcar Smoothing: 0 (USB2+H05261)
Correct for Electrical Dark: No (USB2+H05261)
Strobe/Lamp Enabled: No (USB2+H05261)
Correct for Detector Non-linearity: No (USB2+H05261)
Correct for Stray Light: No (USB2+H05261)
Number of Pixels in Processed Spectrum: 2048
>>>>>Begin Processed Spectral Data<<<<<
365.73	557.05
365.92	557.05
366.12	557.05
366.32	519.60
366.52	465.77
366.72	451.72
366.91	440.02
367.11	514.92
367.31	528.96
367.51	486.83
367.70	416.62
367.90	435.34
368.10	486.83
368.30	496.19
368.49	418.96
368.69	486.83
368.89	472.79
369.09	433.00
369.28	507.90
369.48	599.18
369.68	475.13
369.87	489.17
370.07	519.60
370.27	589.82
370.47	688.12
370.66	1046.22
370.86	1001.75
371.06	1060.26
371.25	1128.14
371.45	1053.24
371.65	1158.57
371.84	1111.75
372.04	1149.20
372.24	1184.31
372.44	1165.59
372.63	1184.31
372.83	1221.76
373.03	1277.93
373.22	1217.08
373.42	1263.89
373.62	1188.99
373.81	1226.44
374.01	1301.34
374.21	1242.82
374.40	1315.38
374.60	1282.61
374.79	1334.11
374.99	1313.04
375.19	1310.70
375.38	1334.11
375.58	1313.04
375.78	1397.30
375.97	1320.06
376.17	1413.68
376.37	1364.53
376.56	1359.85
376.76	1383.26
376.95	1369.21
377.15	1500.28
377.35	1387.94
377.54	1371.55
377.74	1390.28
377.93	1420.71
378.13	1376.24
378.33	1448.79
378.52	1416.02
378.72	1418.36
378.91	1488.58
379.11	1444.11
379.31	1488.58
379.50	1446.45
379.70	1404.32
379.89	1565.82
380.09	1481.56
380.28	1526.03
380.48	1556.46
380.68	1519.01
380.87	1533.05
381.07	1572.84
381.26	1598.59
381.46	1593.90
381.65	1612.63
381.85	1497.94
382.04	1514.33
382.24	1621.99
382.43	1565.82
382.63	1612.63
382.83	1607.95
383.02	1612.63
383.22	1650.08
383.41	1584.54
383.61	1668.80
383.80	1694.55
384.00	1650.08
384.19	1778.81
384.39	1570.50
384.58	1706.25
384.78	1682.85
384.97	1748.38
385.17	1769.44
385.36	1631.35
385.56	1654.76
385.75	1647.74
385.95	1785.83
386.14	1720.29
386.34	1856.04
386.53	1708.59
386.72	1797.53
386.92	1778.81
387.11	1877.11
387.31	1776.47
387.50	1851.36
387.70	1860.73
387.89	1884.13
388.09	1898.17
388.28	1891.15
388.48	1916.90
388.67	1998.82
388.86	1926.26
389.06	1909.88
389.25	1982.43
389.45	1966.05
389.64	1959.03
389.84	1982.43
390.03	2045.63
390.22	2043.29
390.42	2101.80
390.61	1998.82
390.81	2001.16
391.00	2038.61
391.19	2092.44
391.39	2062.01
391.58	2150.95
391.78	2141.59
391.97	2141.59
392.16	2050.31
392.36	2207.13
392.55	2108.82
392.75	2300.75
392.94	2106.48
393.13	2183.72
393.33	2169.68
393.52	2225.85
393.71	2202.44
393.91	2237.55
394.10	2228.19
394.29	2303.09
394.49	2375.64
394.68	2312.45
394.88	2305.43
395.07	2431.82
395.26	2331.17
395.46	2385.01
395.65	2436.50
395.84	2452.88
396.04	2455.22
396.23	2483.31
396.42	2424.80
396.62	2502.03
396.81	2483.31
397.00	2410.75
397.19	2544.16
397.39	2555.86
397.58	2485.65
397.77	2387.35
397.97	2614.38
398.16	2562.89
398.35	2670.55
398.55	2675.23
398.74	2605.02
398.93	2647.15
399.12	2665.87
399.32	2576.93
399.51	2717.36
399.70	2698.64
399.90	2693.96
400.09	2860.13
400.28	2848.43
400.47	2757.15
400.67	2848.43
400.86	2853.11
401.05	2780.56
401.24	2836.73
401.44	2958.44
401.63	2951.42
401.82	2785.24
402.01	2906.95
402.21	2911.63
402.40	2993.55
402.59	3005.25
402.78	2942.05
402.97	2995.89
403.17	3023.97
403.36	3049.72
403.55	3136.32
403.74	3225.26
403.93	3108.23
404.13	3178.45
404.32	3187.81
404.51	3353.99
404.70	3211.22
404.89	3185.47
405.09	3398.46
405.28	3382.07
405.47	3332.92
405.66	3468.67
405.85	3419.52
406.05	3386.76
406.24	3393.78
406.43	3311.86
406.62	3566.98
406.81	3552.93
407.00	3396.12
407.20	3417.18
407.39	3375.05
407.58	3559.95
407.77	3592.72
407.96	3672.30
408.15	3576.34
408.34	3550.59
408.54	3735.50
408.73	3810.39
408.92	3789.33
409.11	3810.39
409.30	3817.41
409.49	3782.31
409.68	3861.88
409.87	3824.44
410.07	4023.38
410.26	3896.99
410.45	4051.47
410.64	3920.40
410.83	3992.95
411.02	4058.49
411.21	4145.09
411.40	4023.38
411.59	4358.08
411.78	4236.37
411.98	4259.78
412.17	4121.68
412.36	4266.80
412.55	4248.07
412.74	4500.85
412.93	4451.70
413.12	4320.63
413.31	4664.69
413.50	4482.13
413.69	4622.56
413.88	4594.47
414.07	4788.74
414.26	4615.54
414.45	4706.82
414.64	4751.29
414.83	4880.02
415.02	4894.06
415.22	4837.89
415.41	4908.10
415.60	4844.91
415.79	4830.87
415.98	5130.45
416.17	5256.84
416.36	5139.82
416.55	5027.47
416.74	5219.39
416.93	5249.82
417.12	5296.63
417.31	5268.55
417.50	5151.52
417.69	5547.07
417.88	5411.32
418.07	5373.87
418.26	5455.79
418.45	5486.22
418.64	5636.01
418.83	5593.88
419.02	5586.86
419.21	5844.32
419.39	5734.31
419.58	5596.22
419.77	5582.18
419.96	5816.23
420.15	5860.70
420.34	5884.11
420.53	5884.11
420.72	5949.64
420.91	5961.34
421.10	6040.92
421.29	5867.72
421.48	5867.72
421.67	5951.98
421.86	6076.03
422.05	5940.28
422.24	6064.33
422.43	6087.73
422.61	6111.14
422.80	6153.27
422.99	6167.31
423.18	6078.37
423.37	6324.13
423.56	6270.30
423.75	6167.31
423.94	6148.59
424.13	5806.87
424.32	5778.78
424.50	6272.64
424.69	6307.74
424.88	6312.42
425.07	6157.95
425.26	6134.54
425.45	6214.12
425.64	6122.84
425.83	6193.06
426.01	6246.89
426.20	6333.49
426.39	6469.24
426.58	6279.66
426.77	6420.09
426.96	6363.92
427.15	6310.08
427.33	6476.26
427.52	6389.66
427.71	6436.47
427.90	6576.91
428.09	6518.39
428.28	6696.27
428.46	6658.82
428.65	6729.04
428.84	6832.02
429.03	6822.66
429.22	6637.76
429.40	6675.21
429.59	6864.79
429.78	6668.19
429.97	6417.75
430.16	6867.13
430.34	6956.07
430.53	7169.06
430.72	7035.65
430.91	7042.67
431.10	7084.80
431.28	7218.21
431.47	7222.89
431.66	7246.30
431.85	7049.69
432.03	7232.26
432.22	7391.41
432.41	7353.96
432.60	7335.24
432.79	7461.63
432.97	7356.30
433.16	7489.71
433.35	7559.93
433.54	7602.06
433.72	7517.80
433.91	7581.00
434.10	7681.64
434.28	7489.71
434.47	7793.98
434.66	7686.32
434.85	7749.51
435.03	7964.84
435.22	8084.21
435.41	8128.68
435.59	8109.96
435.78	8304.22
435.97	7976.55
436.16	8102.93
436.34	7997.61
436.53	7971.86
436.72	8198.90
436.90	7960.16
437.09	8269.11
437.28	7962.50
437.46	8030.38
437.65	8306.56
437.84	8313.58
438.02	8454.02
438.21	8479.76
438.40	8149.75
438.58	8669.34
438.77	8730.20
438.96	8674.03
439.14	8744.24
439.33	8823.82
439.52	8884.67
439.70	8793.39
439.89	8971.27
440.08	9067.24
440.26	8994.68
440.45	9034.47
440.63	9029.79
440.82	9530.66
441.01	9291.93
441.19	9357.46
441.38	9343.42
441.57	9643.01
441.75	9561.09
441.94	9696.84
442.12	9944.94
442.31	9769.40
442.50	9715.56
442.68	9643.01
442.87	9813.87
443.05	10097.07
443.24	10097.07
443.43	10008.13
443.61	10104.09
443.80	10195.37
443.98	9778.76
444.17	9561.09
444.35	9947.28
444.54	10319.42
444.73	10218.78
444.91	10246.87
445.10	10068.98
445.28	10342.83
445.47	10218.78
445.65	10368.57
445.84	10331.12
446.02	10380.28
446.21	10258.57
446.39	10296.02
446.58	10544.11
446.77	10115.80
446.95	10157.92
447.14	10410.70
447.32	10427.09
447.51	10286.65
447.69	10494.96
447.88	10286.65
448.06	10307.72
448.25	10296.02
448.43	10354.53
448.62	10602.63
448.80	10490.28
448.99	10635.39
449.17	10651.78
449.36	10607.31
449.54	10782.85
449.73	10923.28
449.91	11110.52
450.10	10841.36
450.28	11143.29
450.46	11091.80
450.65	10967.75
450.83	11222.87
451.02	11265.00
451.20	11321.17
451.39	11272.02
451.57	11162.01
451.76	11054.35
451.94	11311.81
452.13	11496.71
452.31	11328.19
452.49	11272.02
452.68	11279.04
452.86	11356.28
453.05	11510.75
453.23	11538.84
453.42	11325.85
453.60	11419.47
453.78	11754.17
453.97	11686.29
454.15	11435.86
454.34	11461.60
454.52	12009.29
454.70	12042.06
454.89	11857.15
455.07	11873.54
455.26	11990.56
455.44	12084.19
455.62	12194.19
455.81	12126.32
455.99	12372.07
456.17	12166.10
456.36	12294.83
456.54	12313.56
456.73	12486.76
456.91	12650.60
457.09	12559.31
457.28	12861.24
457.46	12681.02
457.64	12753.58
457.83	12929.12
458.01	12737.20
458.19	12938.48
458.38	12816.77
458.56	13027.42
458.74	12985.29
458.93	13170.19
459.11	12980.61
459.29	13221.69
459.48	13212.32
459.66	13221.69
459.84	13355.10
460.03	13397.23
460.21	13458.08
460.39	13245.09
460.57	13432.33
460.76	13645.32
460.94	13420.63
461.12	13703.84
461.31	13678.09
461.49	13696.82
461.67	13474.46
461.85	13865.33
462.04	13757.67
462.22	13996.40
462.40	14026.83
462.59	14174.28
462.77	14148.54
462.95	14150.88
463.13	13973.00
463.32	14008.11
463.50	14295.99
463.68	14111.09
463.86	14338.12
464.05	14113.43
464.23	14169.60
464.41	14532.39
464.59	14497.28
464.78	14839.00
464.96	14647.07
465.14	14338.12
465.32	14813.25
465.50	14932.62
465.69	14895.17
465.87	14960.70
466.05	14899.85
466.23	14775.80
466.41	14857.72
466.60	15012.20
466.78	14939.64
466.96	14754.74
467.14	14991.13
467.32	15115.18
467.51	15314.13
467.69	14686.86
467.87	15094.11
468.05	15426.47
468.23	15262.63
468.41	15447.54
468.60	15428.81
468.78	15543.50
468.96	15272.00
469.14	15777.55
469.32	15892.24
469.50	15424.13
469.69	15786.91
469.87	15637.12
470.05	15892.24
470.23	15932.03
470.41	16095.86
470.59	16414.18
470.77	15880.53
470.95	15955.43
471.14	16552.27
471.32	16128.63
471.50	16463.33
471.68	16432.90
471.86	16594.40
472.04	16755.90
472.22	17034.42
472.40	16912.71
472.58	16566.31
472.77	16791.00
472.95	17092.93
473.13	17736.58
473.31	17137.40
473.49	17355.07
473.67	17209.96
473.85	17310.60
474.03	17444.01
474.21	17586.79
474.39	17799.77
474.57	17811.48
474.75	18080.64
474.93	18270.22
475.12	18256.18
475.30	18321.71
475.48	18097.02
475.66	18382.57
475.84	18321.71
476.02	18679.82
476.20	19040.26
476.38	18953.66
476.56	19140.90
476.74	19398.36
476.92	19246.23
477.10	19197.07
477.28	19538.79
477.46	19688.59
477.64	19948.39
477.82	19861.79
478.00	20512.46
478.18	20320.53
478.36	20643.52
478.54	20957.16
478.72	20987.58
478.90	21188.87
479.08	21626.55
479.26	21612.51
479.44	21394.84
479.62	21713.15
479.80	21965.93
479.98	22078.27
480.16	22579.15
480.34	22113.38
480.52	22623.62
480.70	22387.22
480.88	22185.94
481.06	22845.97
481.24	23026.19
481.41	23138.54
481.59	23571.54
481.77	23590.26
481.95	23854.74
482.13	24189.44
482.31	23597.28
482.49	24620.10
482.67	24290.08
482.85	24830.74
483.03	25242.68
483.21	25200.55
483.39	25336.30
483.57	25390.13
483.74	25322.26
483.92	26031.44
484.10	25811.43
484.28	26604.87
484.46	26831.90
484.64	27075.32
484.82	27058.93
485.00	27257.88
485.18	27157.24
485.35	27908.55
485.53	28191.75
485.71	27981.10
485.89	28079.41
486.07	28474.96
486.25	28765.18
486.43	28678.58
486.61	29226.27
486.78	29256.70
486.96	29888.64
487.14	29802.04
487.32	29909.71
487.50	30361.43
487.68	30281.85
487.85	30518.25
488.03	30754.64
488.21	31189.98
488.39	31215.72
488.57	31697.88
488.75	31796.18
488.92	31917.89
489.10	32627.07
489.28	32554.51
489.46	32851.76
489.64	32678.56
489.81	33102.20
489.99	33394.76
490.17	33949.47
490.35	33942.45
490.53	34281.83
490.70	34363.75
490.88	33867.55
491.06	34616.52
491.24	34639.93
491.41	34920.79
491.59	35211.02
491.77	35531.67
491.95	35971.69
492.13	35882.75
492.30	36423.42
492.48	36161.28
492.66	36493.63
492.84	36327.45
493.01	37170.05
493.19	37191.11
493.37	37471.98
493.54	37422.83
493.72	37804.33
493.90	37846.46
494.08	38403.51
494.25	38565.01
494.43	38607.14
494.61	38785.02
494.79	38733.53
494.96	38857.57
495.14	39541.01
495.32	39821.87
495.49	39828.90
495.67	39807.83
495.85	40390.62
496.02	40596.59
496.20	40788.52
496.38	41303.43
496.55	41214.49
496.73	41766.86
496.91	41698.98
497.09	41453.23
497.26	41755.16
497.44	41940.06
497.62	42103.90
497.79	42607.11
497.97	42747.54
498.14	43419.28
498.32	43559.71
498.50	43189.91
498.67	43384.17
498.85	43498.86
499.03	43672.06
499.20	44055.90
499.38	44196.34
499.56	44619.97
499.73	44273.57
499.91	44425.71
500.08	45188.72
500.26	44868.07
500.44	45078.72
500.61	44938.29
500.79	45088.08
500.97	45598.32
501.14	45989.19
501.32	46000.89
501.49	45890.88
501.67	46094.51
501.84	46176.43
502.02	46639.86
502.20	46527.51
502.37	46522.83
502.55	46164.73
502.72	46616.45
502.90	47117.32
503.07	46761.56
503.25	47412.23
503.43	47248.39
503.60	47653.31
503.78	47971.62
503.95	47470.75
504.13	47863.96
504.30	47849.91
504.48	48114.39
504.65	48271.21
504.83	48292.27
505.01	48931.24
505.18	48678.46
505.36	48734.63
505.53	48715.91
505.71	49095.08
505.88	49088.06
506.06	48985.07
506.23	49268.28
506.41	49530.42
506.58	49551.48
506.76	49944.69
506.93	50373.01
507.11	49656.81
507.28	50110.87
507.46	50305.13
507.63	50719.41
507.81	50586.00
507.98	50047.68
508.16	50344.92
508.33	50511.10
508.50	51077.51
508.68	51126.66
508.85	51344.33
509.03	51136.02
509.20	51068.15
509.38	51440.29
509.55	51728.18
509.73	51547.96
509.90	51852.23
510.08	51976.28
510.25	51777.33
510.42	52116.71
510.60	52128.41
510.77	52329.70
510.95	52357.78
511.12	52598.86
511.30	52376.51
511.47	52706.52
511.64	52669.08
511.82	52875.04
511.99	52648.01
512.17	52905.47
512.34	52994.41
512.51	53151.23
512.69	53717.64
512.86	53258.89
513.04	53415.71
513.21	53633.38
513.38	53305.70
513.56	53378.26
513.73	53731.68
513.90	53986.80
514.08	54117.87
514.25	53939.99
514.43	54321.49
514.60	54007.86
514.77	54028.93
514.95	54183.40
515.12	54019.56
515.29	54211.49
515.47	54342.56
515.64	54726.41
515.81	54672.57
515.99	54763.85
516.16	54876.20
516.33	54976.84
516.51	55002.59
516.68	55171.11
516.85	55131.32
517.03	55536.23
517.20	55365.37
517.37	55248.35
517.54	55409.84
517.72	55253.03
517.89	55253.03
518.06	55409.84
518.24	55599.43
518.41	55552.62
518.58	55604.11
518.75	55601.77
518.93	55597.09
519.10	55412.18
519.27	55899.01
519.45	56156.47
519.62	56179.88
519.79	56142.43
519.96	56217.33
520.14	56418.61
520.31	56275.84
520.48	56563.73
520.65	56214.99
520.83	56605.86
521.00	56788.42
521.17	56685.43
521.34	56671.39
521.52	56856.29
521.69	56982.68
521.86	56697.14
522.03	56994.39
522.20	57073.96
522.38	57059.92
522.55	57261.21
522.72	57230.78
522.89	57322.06
523.07	57240.14
523.24	57368.87
523.41	57738.68
523.58	57254.18
523.75	57722.29
523.92	57705.91
524.10	57722.29
524.27	57883.79
524.44	57682.50
524.61	57895.49
524.78	57836.98
524.96	58017.20
525.13	57921.24
525.30	58106.14
525.47	58246.57
525.64	58183.38
525.81	58092.10
525.98	58361.26
526.16	58045.29
526.33	58384.66
526.50	58487.65
526.67	58457.22
526.84	58628.08
527.01	58398.71
527.18	58562.54
527.36	58576.59
527.53	58286.36
527.70	59105.55
527.87	58997.88
528.04	58686.59
528.21	59105.55
528.38	58829.37
528.55	59264.70
528.72	58962.78
528.89	59178.10
529.07	58983.84
529.24	58937.03
529.41	59332.58
529.58	59030.65
529.75	59150.02
529.92	59114.91
530.09	59248.32
530.26	59131.29
530.43	59388.75
530.60	59091.51
530.77	59449.61
530.94	59536.21
531.11	59592.38
531.28	59618.13
531.46	59517.48
531.63	59721.11
531.80	59742.17
531.97	59800.69
532.14	59854.52
532.31	59746.86
532.48	59796.01
532.65	60158.79
532.82	59721.11
532.99	59920.05
533.16	59999.63
533.33	60074.53
533.50	59889.63
533.67	60041.76
533.84	59917.71
534.01	60158.79
534.18	60231.35
534.35	60601.15
534.52	60289.86
534.69	60397.52
534.86	60278.16
535.03	60339.01
535.20	60449.02
535.37	60491.15
535.54	60727.54
535.71	60467.74
535.88	60729.88
536.05	60535.62
536.22	60636.26
536.38	60732.22
536.55	60676.05
536.72	60788.39
536.89	60952.23
537.06	60994.36
537.23	61106.71
537.40	61130.11
537.57	61034.15
537.74	60987.34
537.91	60999.04
538.08	60938.19
538.25	60889.04
538.42	61162.88
538.59	61303.31
538.75	61205.01
538.92	61186.28
539.09	61338.42
539.26	61027.13
539.43	61102.03
539.60	61284.59
539.77	61434.38
539.94	61605.24
540.11	61490.55
540.28	61619.28
540.44	61525.66
540.61	61490.55
540.78	61598.22
540.95	61256.50
541.12	61511.62
541.29	61766.74
541.46	61794.82
541.62	61872.06
541.79	61670.78
541.96	61790.14
542.13	61694.18
542.30	61752.69
542.47	61783.12
542.63	61820.57
542.80	62138.88
542.97	62274.63
543.14	62248.89
543.31	62377.62
543.48	62260.59
543.64	62443.15
543.81	62225.48
543.98	62330.81
544.15	62227.82
544.32	62499.33
544.48	62513.37
544.65	62499.33
544.82	62459.54
544.99	62464.22
545.16	62525.07
545.32	62372.94
545.49	62742.74
545.66	62876.15
545.83	62824.66
546.00	62822.32
546.16	62773.17
546.33	62787.21
546.50	62635.08
546.67	62773.17
546.83	62447.83
547.00	62417.41
547.17	62553.16
547.34	62754.44
547.50	62784.87
547.67	63248.30
547.84	63096.16
548.00	63042.33
548.17	63241.28
548.34	63000.20
548.51	63147.65
548.67	63166.38
548.84	62953.39
549.01	63117.23
549.18	63168.72
549.34	63119.57
549.51	63185.10
549.68	63187.44
549.84	63175.74
550.01	63283.40
550.18	63047.01
550.34	63119.57
550.51	63302.13
550.68	63295.11
550.84	63185.10
551.01	63419.16
551.18	63121.91
551.34	63187.44
551.51	63355.96
551.68	63409.79
551.84	63355.96
552.01	63393.41
552.18	63662.57
552.34	63384.05
552.51	63627.46
552.68	63604.06
552.84	63735.13
553.01	63917.69
553.18	63842.79
553.34	63758.53
553.51	63517.46
553.67	63714.06
553.84	63838.11
554.01	63978.54
554.17	64032.38
554.34	63894.28
554.51	63861.52
554.67	63938.75
554.84	63854.50
555.00	63681.30
555.17	63587.67
555.33	63866.20
555.50	63976.20
555.67	64114.29
555.83	63922.37
556.00	64102.59
556.16	64240.68
556.33	64076.85
556.50	63948.12
556.66	64238.34
556.83	63793.64
556.99	64144.72
557.16	64484.10
557.32	64451.33
557.49	64451.33
557.65	64268.77
557.82	64264.09
557.98	64266.43
558.15	63941.10
558.32	64228.98
558.48	64278.13
558.65	64343.67
558.81	64294.52
558.98	64392.82
559.14	64409.20
559.31	64383.46
559.47	64355.37
559.64	64467.72
559.80	64423.25
559.97	64533.25
560.13	64362.39
560.30	64573.04
560.46	64577.72
560.63	64645.60
560.79	64720.49
560.96	64764.96
561.12	64446.65
561.29	64479.42
561.45	64577.72
561.61	64629.21
561.78	64746.24
561.94	64657.30
562.11	64877.31
562.27	64760.28
562.44	64800.07
562.60	64823.48
562.77	64694.75
562.93	64877.31
563.10	64795.39
563.26	64608.15
563.42	65006.04
563.59	64732.20
563.75	64767.30
563.92	65027.10
564.08	64931.14
564.24	64844.54
564.41	64753.26
564.57	64795.39
564.74	64877.31
564.90	64928.80
565.07	64935.82
565.23	65106.68
565.39	64987.31
565.56	65303.29
565.72	64800.07
565.88	65029.44
566.05	64910.08
566.21	64945.18
566.38	64802.41
566.54	64938.16
566.70	65183.92
566.87	65181.58
567.03	65223.71
567.19	65415.63
567.36	65272.86
567.52	65120.73
567.68	65258.82
567.85	64849.22
568.01	65233.07
568.17	65020.08
568.34	65329.03
568.50	65214.35
568.66	65202.64
568.83	65242.43
568.99	65188.60
569.15	65272.86
569.32	65151.15
569.48	65017.74
569.64	65144.13
569.81	65094.98
569.97	65064.55
570.13	65174.56
570.30	65048.17
570.46	65352.44
570.62	65242.43
570.78	65172.22
570.95	65291.58
571.11	65254.14
571.27	65200.30
571.43	65235.41
571.60	65256.48
571.76	65265.84
571.92	65406.27
572.09	65532.66
572.25	65535.00
572.41	65455.42
572.57	65406.27
572.74	65432.02
572.90	65176.90
573.06	65310.31
573.22	65300.95
573.38	65329.03
573.55	65535.00
573.71	65535.00
573.87	65535.00
574.03	65392.23
574.20	65535.00
574.36	65525.64
574.52	65530.32
574.68	65340.74
574.84	65420.31
575.01	65523.30
575.17	65429.68
575.33	65406.27
575.49	65471.81
575.65	65535.00
575.82	65535.00
575.98	65535.00
576.14	65535.00
576.30	65535.00
576.46	65535.00
576.62	65410.95
576.79	65378.18
576.95	65450.74
577.11	65422.65
577.27	65535.00
577.43	65490.53
577.59	65535.00
577.75	65535.00
577.92	65535.00
578.08	65535.00
578.24	65502.23
578.40	65535.00
578.56	65535.00
578.72	65535.00
578.88	65535.00
579.04	65535.00
579.21	65535.00
579.37	65535.00
579.53	65535.00
579.69	65535.00
579.85	65535.00
580.01	65535.00
580.17	65535.00
580.33	65535.00
580.49	65535.00
580.65	65535.00
580.82	65535.00
580.98	65535.00
581.14	65535.00
581.30	65535.00
581.46	65535.00
581.62	65535.00
581.78	65535.00
581.94	65535.00
582.10	65535.00
582.26	65535.00
582.42	65535.00
582.58	65535.00
582.74	65535.00
582.90	65535.00
583.06	65535.00
583.22	65535.00
583.38	65535.00
583.54	65535.00
583.70	65535.00
583.86	65535.00
584.02	65535.00
584.18	65535.00
584.34	65535.00
584.50	65535.00
584.66	65535.00
584.82	65535.00
584.98	65535.00
585.14	65535.00
585.30	65535.00
585.46	65535.00
585.62	65535.00
585.78	65535.00
585.94	65535.00
586.10	65535.00
586.26	65535.00
586.42	65535.00
586.58	65535.00
586.74	65535.00
586.90	65535.00
587.06	65535.00
587.22	65535.00
