SpectraSuite Data File
++++++++++++++++++++++++++++++++++++
Date: Thu Oct 24 13:21:00 EDT 2013
User: stostad
Dark Spectrum Present: No
Reference Spectrum Present: No
Number of Sampled Component Spectra: 1
Spectrometers: USB2+H05261
Integration Time (usec): 100000 (USB2+H05261)
Spectra Averaged: 1 (USB2+H05261)
Boxcar Smoothing: 0 (USB2+H05261)
Correct for Electrical Dark: No (USB2+H05261)
Strobe/Lamp Enabled: No (USB2+H05261)
Correct for Detector Non-linearity: No (USB2+H05261)
Correct for Stray Light: No (USB2+H05261)
Number of Pixels in Processed Spectrum: 2048
>>>>>Begin Processed Spectral Data<<<<<
365.73	547.69
365.92	547.69
366.12	547.69
366.32	552.37
366.52	465.77
366.72	465.77
366.91	484.49
367.11	461.09
367.31	461.09
367.51	475.13
367.70	482.15
367.90	461.09
368.10	444.70
368.30	430.66
368.49	491.51
368.69	449.38
368.89	437.68
369.09	430.66
369.28	491.51
369.48	512.58
369.68	510.24
369.87	458.74
370.07	528.96
370.27	585.13
370.47	526.62
370.66	479.81
370.86	491.51
371.06	662.37
371.25	631.94
371.45	592.16
371.65	566.41
371.84	547.69
372.04	571.09
372.24	606.20
372.44	552.37
372.63	559.39
372.83	650.67
373.03	645.99
373.22	620.24
373.42	631.94
373.62	599.18
373.81	678.76
374.01	610.88
374.21	641.31
374.40	667.05
374.60	660.03
374.79	613.22
374.99	624.92
375.19	643.65
375.38	671.73
375.58	723.23
375.78	603.86
375.97	620.24
376.17	685.78
376.37	596.84
376.56	613.22
376.76	608.54
376.95	613.22
377.15	613.22
377.35	624.92
377.54	580.45
377.74	676.41
377.93	669.39
378.13	580.45
378.33	657.69
378.52	608.54
378.72	636.63
378.91	671.73
379.11	578.11
379.31	657.69
379.50	575.77
379.70	636.63
379.89	613.22
380.09	617.90
380.28	638.97
380.48	608.54
380.68	613.22
380.87	573.43
381.07	620.24
381.26	667.05
381.46	580.45
381.65	608.54
381.85	599.18
382.04	519.60
382.24	557.05
382.43	645.99
382.63	667.05
382.83	641.31
383.02	599.18
383.22	622.58
383.41	608.54
383.61	601.52
383.80	617.90
384.00	589.82
384.19	606.20
384.39	585.13
384.58	669.39
384.78	669.39
384.97	669.39
385.17	650.67
385.36	552.37
385.56	643.65
385.75	599.18
385.95	585.13
386.14	645.99
386.34	617.90
386.53	692.80
386.72	589.82
386.92	603.86
387.11	685.78
387.31	631.94
387.50	592.16
387.70	545.34
387.89	615.56
388.09	606.20
388.28	622.58
388.48	524.28
388.67	613.22
388.86	631.94
389.06	596.84
389.25	627.26
389.45	641.31
389.64	655.35
389.84	617.90
390.03	582.79
390.22	699.82
390.42	629.60
390.61	648.33
390.81	641.31
391.00	645.99
391.19	624.92
391.39	685.78
391.58	608.54
391.78	594.50
391.97	617.90
392.16	545.34
392.36	669.39
392.55	617.90
392.75	678.76
392.94	653.01
393.13	627.26
393.33	571.09
393.52	599.18
393.71	650.67
393.91	608.54
394.10	657.69
394.29	660.03
394.49	594.50
394.68	664.71
394.88	606.20
395.07	629.60
395.26	550.03
395.46	587.47
395.65	620.24
395.84	636.63
396.04	690.46
396.23	585.13
396.42	564.07
396.62	631.94
396.81	629.60
397.00	578.11
397.19	582.79
397.39	622.58
397.58	634.29
397.77	627.26
397.97	585.13
398.16	650.67
398.35	671.73
398.55	587.47
398.74	678.76
398.93	699.82
399.12	695.14
399.32	711.52
399.51	594.50
399.70	578.11
399.90	610.88
400.09	697.48
400.28	599.18
400.47	568.75
400.67	655.35
400.86	695.14
401.05	589.82
401.24	585.13
401.44	638.97
401.63	608.54
401.82	582.79
402.01	662.37
402.21	641.31
402.40	585.13
402.59	594.50
402.78	613.22
402.97	634.29
403.17	594.50
403.36	641.31
403.55	566.41
403.74	657.69
403.93	692.80
404.13	727.91
404.32	657.69
404.51	683.44
404.70	709.18
404.89	613.22
405.09	702.16
405.28	613.22
405.47	603.86
405.66	603.86
405.85	566.41
406.05	603.86
406.24	559.39
406.43	692.80
406.62	554.71
406.81	638.97
407.00	725.57
407.20	641.31
407.39	624.92
407.58	571.09
407.77	643.65
407.96	613.22
408.15	660.03
408.34	645.99
408.54	585.13
408.73	641.31
408.92	589.82
409.11	585.13
409.30	653.01
409.49	592.16
409.68	615.56
409.87	573.43
410.07	634.29
410.26	624.92
410.45	662.37
410.64	643.65
410.83	624.92
411.02	571.09
411.21	582.79
411.40	718.54
411.59	610.88
411.78	603.86
411.98	624.92
412.17	615.56
412.36	594.50
412.55	589.82
412.74	592.16
412.93	636.63
413.12	519.60
413.31	627.26
413.50	676.41
413.69	601.52
413.88	622.58
414.07	603.86
414.26	650.67
414.45	653.01
414.64	615.56
414.83	657.69
415.02	596.84
415.22	636.63
415.41	634.29
415.60	655.35
415.79	617.90
415.98	671.73
416.17	631.94
416.36	615.56
416.55	655.35
416.74	580.45
416.93	620.24
417.12	641.31
417.31	608.54
417.50	660.03
417.69	655.35
417.88	578.11
418.07	636.63
418.26	599.18
418.45	568.75
418.64	610.88
418.83	624.92
419.02	641.31
419.21	645.99
419.39	690.46
419.58	582.79
419.77	634.29
419.96	746.63
420.15	688.12
420.34	582.79
420.53	676.41
420.72	662.37
420.91	695.14
421.10	624.92
421.29	645.99
421.48	638.97
421.67	667.05
421.86	615.56
422.05	636.63
422.24	655.35
422.43	608.54
422.61	671.73
422.80	613.22
422.99	690.46
423.18	608.54
423.37	566.41
423.56	631.94
423.75	643.65
423.94	610.88
424.13	617.90
424.32	650.67
424.50	676.41
424.69	620.24
424.88	669.39
425.07	617.90
425.26	631.94
425.45	697.48
425.64	629.60
425.83	580.45
426.01	627.26
426.20	631.94
426.39	650.67
426.58	617.90
426.77	606.20
426.96	634.29
427.15	653.01
427.33	645.99
427.52	685.78
427.71	594.50
427.90	596.84
428.09	622.58
428.28	540.66
428.46	631.94
428.65	657.69
428.84	692.80
429.03	620.24
429.22	638.97
429.40	655.35
429.59	617.90
429.78	657.69
429.97	547.69
430.16	587.47
430.34	638.97
430.53	615.56
430.72	655.35
430.91	603.86
431.10	622.58
431.28	645.99
431.47	627.26
431.66	620.24
431.85	606.20
432.03	631.94
432.22	662.37
432.41	629.60
432.60	603.86
432.79	624.92
432.97	608.54
433.16	655.35
433.35	622.58
433.54	631.94
433.72	662.37
433.91	683.44
434.10	566.41
434.28	662.37
434.47	669.39
434.66	662.37
434.85	664.71
435.03	837.91
435.22	952.60
435.41	1139.84
435.59	1055.58
435.78	976.00
435.97	903.45
436.16	795.78
436.34	674.07
436.53	737.27
436.72	667.05
436.90	594.50
437.09	734.93
437.28	624.92
437.46	669.39
437.65	648.33
437.84	655.35
438.02	606.20
438.21	631.94
438.40	671.73
438.58	660.03
438.77	671.73
438.96	662.37
439.14	643.65
439.33	711.52
439.52	699.82
439.70	543.00
439.89	636.63
440.08	720.88
440.26	596.84
440.45	575.77
440.63	718.54
440.82	634.29
441.01	585.13
441.19	594.50
441.38	622.58
441.57	641.31
441.75	732.59
441.94	692.80
442.12	641.31
442.31	671.73
442.50	571.09
442.68	573.43
442.87	608.54
443.05	601.52
443.24	671.73
443.43	622.58
443.61	648.33
443.80	695.14
443.98	713.86
444.17	674.07
444.35	631.94
444.54	629.60
444.73	641.31
444.91	627.26
445.10	587.47
445.28	620.24
445.47	578.11
445.65	617.90
445.84	676.41
446.02	615.56
446.21	718.54
446.39	622.58
446.58	608.54
446.77	629.60
446.95	624.92
447.14	627.26
447.32	629.60
447.51	603.86
447.69	650.67
447.88	690.46
448.06	706.84
448.25	603.86
448.43	648.33
448.62	624.92
448.80	645.99
448.99	669.39
449.17	662.37
449.36	547.69
449.54	674.07
449.73	582.79
449.91	622.58
450.10	664.71
450.28	688.12
450.46	648.33
450.65	667.05
450.83	589.82
451.02	622.58
451.20	631.94
451.39	650.67
451.57	664.71
451.76	629.60
451.94	557.05
452.13	655.35
452.31	683.44
452.49	676.41
452.68	564.07
452.86	667.05
453.05	683.44
453.23	599.18
453.42	713.86
453.60	601.52
453.78	615.56
453.97	538.32
454.15	660.03
454.34	711.52
454.52	695.14
454.70	645.99
454.89	641.31
455.07	559.39
455.26	615.56
455.44	676.41
455.62	643.65
455.81	608.54
455.99	716.20
456.17	674.07
456.36	643.65
456.54	608.54
456.73	692.80
456.91	718.54
457.09	662.37
457.28	657.69
457.46	702.16
457.64	653.01
457.83	610.88
458.01	622.58
458.19	718.54
458.38	610.88
458.56	636.63
458.74	568.75
458.93	571.09
459.11	620.24
459.29	669.39
459.48	653.01
459.66	695.14
459.84	657.69
460.03	706.84
460.21	664.71
460.39	643.65
460.57	727.91
460.76	655.35
460.94	634.29
461.12	664.71
461.31	627.26
461.49	617.90
461.67	674.07
461.85	629.60
462.04	599.18
462.22	933.87
462.40	669.39
462.59	655.35
462.77	660.03
462.95	667.05
463.13	622.58
463.32	655.35
463.50	582.79
463.68	636.63
463.86	650.67
464.05	571.09
464.23	653.01
464.41	629.60
464.59	594.50
464.78	674.07
464.96	667.05
465.14	634.29
465.32	585.13
465.50	678.76
465.69	655.35
465.87	585.13
466.05	674.07
466.23	554.71
466.41	650.67
466.60	603.86
466.78	589.82
466.96	568.75
467.14	634.29
467.32	674.07
467.51	718.54
467.69	578.11
467.87	629.60
468.05	627.26
468.23	662.37
468.41	683.44
468.60	608.54
468.78	653.01
468.96	676.41
469.14	617.90
469.32	638.97
469.50	592.16
469.69	645.99
469.87	704.50
470.05	683.44
470.23	678.76
470.41	617.90
470.59	671.73
470.77	660.03
470.95	620.24
471.14	594.50
471.32	557.05
471.50	596.84
471.68	667.05
471.86	627.26
472.04	603.86
472.22	683.44
472.40	704.50
472.58	662.37
472.77	594.50
472.95	638.97
473.13	709.18
473.31	643.65
473.49	674.07
473.67	638.97
473.85	634.29
474.03	683.44
474.21	636.63
474.39	629.60
474.57	655.35
474.75	582.79
474.93	557.05
475.12	589.82
475.30	641.31
475.48	603.86
475.66	657.69
475.84	636.63
476.02	683.44
476.20	631.94
476.38	674.07
476.56	669.39
476.74	606.20
476.92	620.24
477.10	631.94
477.28	674.07
477.46	678.76
477.64	667.05
477.82	592.16
478.00	657.69
478.18	688.12
478.36	643.65
478.54	613.22
478.72	606.20
478.90	622.58
479.08	660.03
479.26	627.26
479.44	582.79
479.62	571.09
479.80	624.92
479.98	627.26
480.16	653.01
480.34	601.52
480.52	617.90
480.70	660.03
480.88	636.63
481.06	627.26
481.24	617.90
481.41	629.60
481.59	655.35
481.77	662.37
481.95	685.78
482.13	664.71
482.31	645.99
482.49	676.41
482.67	732.59
482.85	699.82
483.03	662.37
483.21	688.12
483.39	667.05
483.57	671.73
483.74	692.80
483.92	648.33
484.10	648.33
484.28	669.39
484.46	657.69
484.64	692.80
484.82	718.54
485.00	653.01
485.18	720.88
485.35	725.57
485.53	702.16
485.71	800.46
485.89	770.04
486.07	704.50
486.25	723.23
486.43	660.03
486.61	676.41
486.78	713.86
486.96	706.84
487.14	699.82
487.32	713.86
487.50	732.59
487.68	798.12
487.85	690.46
488.03	725.57
488.21	727.91
488.39	685.78
488.57	748.97
488.75	695.14
488.92	821.53
489.10	713.86
489.28	755.99
489.46	706.84
489.64	667.05
489.81	753.65
489.99	716.20
490.17	681.10
490.35	648.33
490.53	706.84
490.70	603.86
490.88	674.07
491.06	688.12
491.24	688.12
491.41	723.23
491.59	777.06
491.77	732.59
491.95	734.93
492.13	683.44
492.30	622.58
492.48	631.94
492.66	709.18
492.84	765.36
493.01	671.73
493.19	676.41
493.37	650.67
493.54	716.20
493.72	716.20
493.90	678.76
494.08	702.16
494.25	709.18
494.43	683.44
494.61	734.93
494.79	645.99
494.96	610.88
495.14	739.61
495.32	681.10
495.49	685.78
495.67	629.60
495.85	660.03
496.02	674.07
496.20	657.69
496.38	667.05
496.55	704.50
496.73	725.57
496.91	699.82
497.09	734.93
497.26	706.84
497.44	723.23
497.62	669.39
497.79	653.01
497.97	678.76
498.14	697.48
498.32	678.76
498.50	683.44
498.67	645.99
498.85	662.37
499.03	671.73
499.20	653.01
499.38	629.60
499.56	695.14
499.73	676.41
499.91	688.12
500.08	727.91
500.26	718.54
500.44	655.35
500.61	671.73
500.79	681.10
500.97	653.01
501.14	725.57
501.32	662.37
501.49	688.12
501.67	713.86
501.84	660.03
502.02	650.67
502.20	674.07
502.37	624.92
502.55	613.22
502.72	641.31
502.90	669.39
503.07	711.52
503.25	683.44
503.43	695.14
503.60	657.69
503.78	615.56
503.95	664.71
504.13	615.56
504.30	702.16
504.48	711.52
504.65	683.44
504.83	671.73
505.01	613.22
505.18	543.00
505.36	657.69
505.53	645.99
505.71	711.52
505.88	552.37
506.06	688.12
506.23	643.65
506.41	641.31
506.58	643.65
506.76	615.56
506.93	643.65
507.11	664.71
507.28	688.12
507.46	608.54
507.63	634.29
507.81	617.90
507.98	753.65
508.16	627.26
508.33	653.01
508.50	615.56
508.68	671.73
508.85	695.14
509.03	650.67
509.20	571.09
509.38	599.18
509.55	650.67
509.73	692.80
509.90	674.07
510.08	608.54
510.25	615.56
510.42	660.03
510.60	667.05
510.77	657.69
510.95	697.48
511.12	620.24
511.30	685.78
511.47	573.43
511.64	671.73
511.82	667.05
511.99	683.44
512.17	547.69
512.34	711.52
512.51	667.05
512.69	669.39
512.86	667.05
513.04	636.63
513.21	610.88
513.38	690.46
513.56	634.29
513.73	683.44
513.90	697.48
514.08	667.05
514.25	662.37
514.43	692.80
514.60	664.71
514.77	657.69
514.95	641.31
515.12	667.05
515.29	685.78
515.47	613.22
515.64	683.44
515.81	660.03
515.99	634.29
516.16	692.80
516.33	660.03
516.51	645.99
516.68	645.99
516.85	676.41
517.03	617.90
517.20	699.82
517.37	601.52
517.54	671.73
517.72	667.05
517.89	641.31
518.06	664.71
518.24	772.38
518.41	734.93
518.58	638.97
518.75	622.58
518.93	645.99
519.10	645.99
519.27	650.67
519.45	643.65
519.62	629.60
519.79	624.92
519.96	660.03
520.14	681.10
520.31	622.58
520.48	578.11
520.65	692.80
520.83	655.35
521.00	601.52
521.17	704.50
521.34	594.50
521.52	690.46
521.69	634.29
521.86	655.35
522.03	636.63
522.20	695.14
522.38	620.24
522.55	631.94
522.72	629.60
522.89	664.71
523.07	660.03
523.24	650.67
523.41	634.29
523.58	631.94
523.75	596.84
523.92	641.31
524.10	650.67
524.27	589.82
524.44	685.78
524.61	685.78
524.78	629.60
524.96	695.14
525.13	676.41
525.30	594.50
525.47	664.71
525.64	716.20
525.81	664.71
525.98	660.03
526.16	653.01
526.33	634.29
526.50	615.56
526.67	629.60
526.84	594.50
527.01	543.00
527.18	533.64
527.36	634.29
527.53	662.37
527.70	685.78
527.87	690.46
528.04	730.25
528.21	716.20
528.38	692.80
528.55	690.46
528.72	699.82
528.89	699.82
529.07	610.88
529.24	709.18
529.41	664.71
529.58	620.24
529.75	622.58
529.92	615.56
530.09	617.90
530.26	610.88
530.43	631.94
530.60	653.01
530.77	669.39
530.94	650.67
531.11	683.44
531.28	641.31
531.46	688.12
531.63	645.99
531.80	753.65
531.97	645.99
532.14	676.41
532.31	685.78
532.48	681.10
532.65	650.67
532.82	676.41
532.99	664.71
533.16	713.86
533.33	720.88
533.50	657.69
533.67	720.88
533.84	713.86
534.01	709.18
534.18	641.31
534.35	695.14
534.52	702.16
534.69	711.52
534.86	650.67
535.03	681.10
535.20	631.94
535.37	674.07
535.54	669.39
535.71	692.80
535.88	798.12
536.05	627.26
536.22	660.03
536.38	676.41
536.55	709.18
536.72	695.14
536.89	730.25
537.06	734.93
537.23	744.29
537.40	772.38
537.57	704.50
537.74	763.01
537.91	692.80
538.08	737.27
538.25	760.67
538.42	737.27
538.59	800.46
538.75	784.08
538.92	744.29
539.09	821.53
539.26	828.55
539.43	812.17
539.60	805.14
539.77	858.98
539.94	884.72
540.11	931.53
540.28	987.71
540.44	973.66
540.61	978.34
540.78	1013.45
540.95	1053.24
541.12	1181.97
541.29	1217.08
541.46	1329.42
541.62	1296.66
541.79	1327.08
541.96	1303.68
542.13	1359.85
542.30	1294.32
542.47	1228.78
542.63	1324.74
542.80	1193.67
542.97	1228.78
543.14	1226.44
543.31	1186.65
543.48	1191.33
543.64	1219.42
543.81	1188.99
543.98	1184.31
544.15	1198.35
544.32	1212.40
544.48	1160.91
544.65	1266.23
544.82	1153.88
544.99	1193.67
545.16	1249.85
545.32	1249.85
545.49	1638.38
545.66	1963.71
545.83	2172.02
546.00	1940.30
546.16	1715.61
546.33	1444.11
546.50	1313.04
546.67	1303.68
546.83	1081.33
547.00	1043.88
547.17	924.51
547.34	992.39
547.50	933.87
547.67	940.90
547.84	898.77
548.00	978.34
548.17	912.81
548.34	858.98
548.51	952.60
548.67	905.79
548.84	891.74
549.01	833.23
549.18	887.06
549.34	873.02
549.51	826.21
549.68	919.83
549.84	870.68
550.01	800.46
550.18	950.26
550.34	842.59
550.51	830.89
550.68	823.87
550.84	795.78
551.01	868.34
551.18	835.57
551.34	744.29
551.51	807.48
551.68	777.06
551.84	758.33
552.01	711.52
552.18	737.27
552.34	770.04
552.51	758.33
552.68	770.04
552.84	784.08
553.01	760.67
553.18	807.48
553.34	690.46
553.51	669.39
553.67	699.82
553.84	802.80
554.01	669.39
554.17	760.67
554.34	667.05
554.51	650.67
554.67	727.91
554.84	716.20
555.00	748.97
555.17	671.73
555.33	716.20
555.50	704.50
555.67	748.97
555.83	685.78
556.00	704.50
556.16	741.95
556.33	718.54
556.50	695.14
556.66	671.73
556.83	695.14
556.99	624.92
557.16	606.20
557.32	648.33
557.49	629.60
557.65	662.37
557.82	704.50
557.98	709.18
558.15	575.77
558.32	636.63
558.48	613.22
558.65	725.57
558.81	720.88
558.98	645.99
559.14	697.48
559.31	615.56
559.47	667.05
559.64	692.80
559.80	622.58
559.97	690.46
560.13	699.82
560.30	671.73
560.46	603.86
560.63	587.47
560.79	704.50
560.96	641.31
561.12	704.50
561.29	650.67
561.45	716.20
561.61	683.44
561.78	758.33
561.94	678.76
562.11	688.12
562.27	599.18
562.44	624.92
562.60	561.73
562.77	723.23
562.93	692.80
563.10	702.16
563.26	636.63
563.42	645.99
563.59	676.41
563.75	685.78
563.92	699.82
564.08	645.99
564.24	643.65
564.41	648.33
564.57	629.60
564.74	601.52
564.90	653.01
565.07	720.88
565.23	629.60
565.39	624.92
565.56	603.86
565.72	648.33
565.88	629.60
566.05	660.03
566.21	634.29
566.38	664.71
566.54	648.33
566.70	561.73
566.87	645.99
567.03	660.03
567.19	681.10
567.36	596.84
567.52	629.60
567.68	713.86
567.85	716.20
568.01	648.33
568.17	631.94
568.34	613.22
568.50	692.80
568.66	645.99
568.83	704.50
568.99	650.67
569.15	664.71
569.32	669.39
569.48	741.95
569.64	692.80
569.81	585.13
569.97	655.35
570.13	681.10
570.30	688.12
570.46	657.69
570.62	669.39
570.78	697.48
570.95	615.56
571.11	660.03
571.27	692.80
571.43	650.67
571.60	676.41
571.76	664.71
571.92	648.33
572.09	655.35
572.25	702.16
572.41	655.35
572.57	667.05
572.74	685.78
572.90	603.86
573.06	629.60
573.22	695.14
573.38	697.48
573.55	688.12
573.71	671.73
573.87	629.60
574.03	629.60
574.20	678.76
574.36	702.16
574.52	655.35
574.68	657.69
574.84	692.80
575.01	589.82
575.17	599.18
575.33	657.69
575.49	711.52
575.65	688.12
575.82	699.82
575.98	713.86
576.14	641.31
576.30	763.01
576.46	866.00
576.62	866.00
576.79	882.38
576.95	847.27
577.11	809.83
577.27	774.72
577.43	718.54
577.59	802.80
577.75	795.78
577.92	650.67
578.08	634.29
578.24	711.52
578.40	730.25
578.56	751.31
578.72	889.40
578.88	866.00
579.04	896.43
579.21	819.19
579.37	802.80
579.53	725.57
579.69	774.72
579.85	774.72
580.01	793.44
580.17	774.72
580.33	793.44
580.49	702.16
580.65	695.14
580.82	777.06
580.98	732.59
581.14	753.65
581.30	772.38
581.46	713.86
581.62	730.25
581.78	697.48
581.94	739.61
582.10	704.50
582.26	732.59
582.42	767.70
582.58	758.33
582.74	800.46
582.90	706.84
583.06	781.74
583.22	702.16
583.38	774.72
583.54	786.42
583.70	849.61
583.86	805.14
584.02	784.08
584.18	800.46
584.34	774.72
584.50	821.53
584.66	753.65
584.82	767.70
584.98	819.19
585.14	777.06
585.30	744.29
585.46	837.91
585.62	746.63
585.78	744.29
585.94	737.27
586.10	688.12
586.26	805.14
586.42	760.67
586.58	760.67
586.74	805.14
586.90	924.51
587.06	842.59
587.22	896.43
587.38	880.04
587.54	919.83
587.70	844.93
587.86	781.74
588.02	763.01
588.18	805.14
588.34	702.16
588.49	793.44
588.65	727.91
588.81	723.23
588.97	784.08
589.13	737.27
589.29	753.65
589.45	678.76
589.61	688.12
589.77	772.38
589.93	809.83
590.08	751.31
590.24	774.72
590.40	653.01
590.56	716.20
590.72	737.27
590.88	711.52
591.04	685.78
591.20	746.63
591.35	739.61
591.51	725.57
591.67	704.50
591.83	791.10
591.99	758.33
592.15	751.31
592.31	866.00
592.46	793.44
592.62	798.12
592.78	837.91
592.94	826.21
593.10	760.67
593.26	807.48
593.41	809.83
593.57	760.67
593.73	741.95
593.89	770.04
594.05	788.76
594.20	688.12
594.36	779.40
594.52	723.23
594.68	655.35
594.84	667.05
594.99	730.25
595.15	746.63
595.31	713.86
595.47	763.01
595.62	725.57
595.78	681.10
595.94	674.07
596.10	725.57
596.25	751.31
596.41	669.39
596.57	741.95
596.73	690.46
596.88	713.86
597.04	620.24
597.20	702.16
597.36	772.38
597.51	758.33
597.67	660.03
597.83	699.82
597.99	730.25
598.14	772.38
598.30	683.44
598.46	683.44
598.61	720.88
598.77	692.80
598.93	765.36
599.09	758.33
599.24	734.93
599.40	739.61
599.56	777.06
599.71	748.97
599.87	737.27
600.03	788.76
600.18	730.25
600.34	641.31
600.50	624.92
600.65	660.03
600.81	711.52
600.97	653.01
601.12	683.44
601.28	732.59
601.44	662.37
601.59	662.37
601.75	718.54
601.91	695.14
602.06	711.52
602.22	758.33
602.37	734.93
602.53	727.91
602.69	653.01
602.84	664.71
603.00	713.86
603.16	674.07
603.31	624.92
603.47	683.44
603.62	690.46
603.78	760.67
603.94	737.27
604.09	692.80
604.25	732.59
604.40	606.20
604.56	669.39
604.71	620.24
604.87	704.50
605.03	664.71
605.18	669.39
605.34	692.80
605.49	699.82
605.65	678.76
605.80	636.63
605.96	723.23
606.12	671.73
606.27	681.10
606.43	734.93
606.58	690.46
606.74	641.31
606.89	702.16
607.05	662.37
607.20	692.80
607.36	800.46
607.51	725.57
607.67	683.44
607.82	737.27
607.98	744.29
608.13	784.08
608.29	674.07
608.44	741.95
608.60	767.70
608.75	844.93
608.91	763.01
609.06	844.93
609.22	887.06
609.37	849.61
609.53	866.00
609.68	894.08
609.84	952.60
