SpectraSuite Data File
++++++++++++++++++++++++++++++++++++
Date: Thu Oct 24 13:21:02 EDT 2013
User: stostad
Dark Spectrum Present: No
Reference Spectrum Present: No
Number of Sampled Component Spectra: 1
Spectrometers: USB2+H05261
Integration Time (usec): 100000 (USB2+H05261)
Spectra Averaged: 1 (USB2+H05261)
Boxcar Smoothing: 0 (USB2+H05261)
Correct for Electrical Dark: No (USB2+H05261)
Strobe/Lamp Enabled: No (USB2+H05261)
Correct for Detector Non-linearity: No (USB2+H05261)
Correct for Stray Light: No (USB2+H05261)
Number of Pixels in Processed Spectrum: 2048
>>>>>Begin Processed Spectral Data<<<<<
365.73	531.30
365.92	531.30
366.12	531.30
366.32	521.94
366.52	463.43
366.72	493.85
366.91	463.43
367.11	484.49
367.31	428.32
367.51	447.04
367.70	465.77
367.90	423.64
368.10	411.93
368.30	500.87
368.49	491.51
368.69	463.43
368.89	496.19
369.09	454.06
369.28	496.19
369.48	491.51
369.68	575.77
369.87	613.22
370.07	543.00
370.27	566.41
370.47	601.52
370.66	587.47
370.86	489.17
371.06	571.09
371.25	587.47
371.45	580.45
371.65	610.88
371.84	510.24
372.04	599.18
372.24	610.88
372.44	627.26
372.63	594.50
372.83	587.47
373.03	580.45
373.22	624.92
373.42	695.14
373.62	648.33
373.81	599.18
374.01	617.90
374.21	638.97
374.40	634.29
374.60	564.07
374.79	657.69
374.99	653.01
375.19	596.84
375.38	704.50
375.58	627.26
375.78	657.69
375.97	582.79
376.17	617.90
376.37	683.44
376.56	615.56
376.76	655.35
376.95	578.11
377.15	608.54
377.35	690.46
377.54	517.26
377.74	589.82
377.93	610.88
378.13	627.26
378.33	688.12
378.52	662.37
378.72	571.09
378.91	585.13
379.11	683.44
379.31	617.90
379.50	543.00
379.70	648.33
379.89	557.05
380.09	575.77
380.28	573.43
380.48	596.84
380.68	629.60
380.87	608.54
381.07	634.29
381.26	578.11
381.46	711.52
381.65	510.24
381.85	561.73
382.04	669.39
382.24	575.77
382.43	573.43
382.63	655.35
382.83	582.79
383.02	589.82
383.22	622.58
383.41	517.26
383.61	660.03
383.80	641.31
384.00	699.82
384.19	638.97
384.39	624.92
384.58	533.64
384.78	620.24
384.97	622.58
385.17	608.54
385.36	559.39
385.56	606.20
385.75	610.88
385.95	603.86
386.14	627.26
386.34	617.90
386.53	638.97
386.72	585.13
386.92	634.29
387.11	643.65
387.31	594.50
387.50	653.01
387.70	571.09
387.89	615.56
388.09	599.18
388.28	613.22
388.48	629.60
388.67	641.31
388.86	601.52
389.06	603.86
389.25	634.29
389.45	578.11
389.64	645.99
389.84	671.73
390.03	617.90
390.22	596.84
390.42	561.73
390.61	608.54
390.81	571.09
391.00	545.34
391.19	589.82
391.39	613.22
391.58	674.07
391.78	599.18
391.97	657.69
392.16	636.63
392.36	671.73
392.55	671.73
392.75	620.24
392.94	573.43
393.13	653.01
393.33	606.20
393.52	613.22
393.71	596.84
393.91	627.26
394.10	610.88
394.29	638.97
394.49	634.29
394.68	636.63
394.88	540.66
395.07	662.37
395.26	575.77
395.46	617.90
395.65	585.13
395.84	634.29
396.04	653.01
396.23	676.41
396.42	610.88
396.62	634.29
396.81	564.07
397.00	671.73
397.19	601.52
397.39	617.90
397.58	603.86
397.77	580.45
397.97	681.10
398.16	631.94
398.35	685.78
398.55	606.20
398.74	603.86
398.93	610.88
399.12	678.76
399.32	674.07
399.51	662.37
399.70	620.24
399.90	627.26
400.09	606.20
400.28	720.88
400.47	587.47
400.67	657.69
400.86	629.60
401.05	643.65
401.24	610.88
401.44	706.84
401.63	704.50
401.82	587.47
402.01	620.24
402.21	641.31
402.40	653.01
402.59	662.37
402.78	664.71
402.97	554.71
403.17	615.56
403.36	592.16
403.55	655.35
403.74	660.03
403.93	617.90
404.13	725.57
404.32	638.97
404.51	704.50
404.70	723.23
404.89	634.29
405.09	622.58
405.28	636.63
405.47	601.52
405.66	594.50
405.85	613.22
406.05	662.37
406.24	617.90
406.43	634.29
406.62	608.54
406.81	603.86
407.00	627.26
407.20	585.13
407.39	608.54
407.58	629.60
407.77	645.99
407.96	631.94
408.15	610.88
408.34	657.69
408.54	645.99
408.73	554.71
408.92	601.52
409.11	657.69
409.30	699.82
409.49	664.71
409.68	627.26
409.87	582.79
410.07	550.03
410.26	622.58
410.45	631.94
410.64	608.54
410.83	699.82
411.02	624.92
411.21	627.26
411.40	699.82
411.59	645.99
411.78	589.82
411.98	643.65
412.17	641.31
412.36	613.22
412.55	620.24
412.74	631.94
412.93	620.24
413.12	573.43
413.31	603.86
413.50	631.94
413.69	650.67
413.88	613.22
414.07	697.48
414.26	650.67
414.45	610.88
414.64	610.88
414.83	650.67
415.02	622.58
415.22	627.26
415.41	653.01
415.60	578.11
415.79	695.14
415.98	629.60
416.17	606.20
416.36	667.05
416.55	669.39
416.74	638.97
416.93	641.31
417.12	690.46
417.31	664.71
417.50	643.65
417.69	641.31
417.88	594.50
418.07	638.97
418.26	641.31
418.45	610.88
418.64	601.52
418.83	678.76
419.02	608.54
419.21	610.88
419.39	695.14
419.58	641.31
419.77	620.24
419.96	674.07
420.15	725.57
420.34	627.26
420.53	578.11
420.72	622.58
420.91	617.90
421.10	596.84
421.29	634.29
421.48	610.88
421.67	746.63
421.86	603.86
422.05	636.63
422.24	648.33
422.43	631.94
422.61	629.60
422.80	599.18
422.99	575.77
423.18	631.94
423.37	624.92
423.56	617.90
423.75	599.18
423.94	587.47
424.13	622.58
424.32	688.12
424.50	674.07
424.69	674.07
424.88	657.69
425.07	603.86
425.26	594.50
425.45	627.26
425.64	678.76
425.83	622.58
426.01	648.33
426.20	564.07
426.39	650.67
426.58	573.43
426.77	653.01
426.96	676.41
427.15	561.73
427.33	650.67
427.52	674.07
427.71	648.33
427.90	599.18
428.09	603.86
428.28	578.11
428.46	648.33
428.65	669.39
428.84	533.64
429.03	653.01
429.22	650.67
429.40	671.73
429.59	627.26
429.78	634.29
429.97	622.58
430.16	617.90
430.34	641.31
430.53	610.88
430.72	636.63
430.91	662.37
431.10	552.37
431.28	617.90
431.47	681.10
431.66	580.45
431.85	678.76
432.03	608.54
432.22	669.39
432.41	624.92
432.60	615.56
432.79	631.94
432.97	650.67
433.16	592.16
433.35	622.58
433.54	594.50
433.72	655.35
433.91	636.63
434.10	573.43
434.28	620.24
434.47	685.78
434.66	631.94
434.85	636.63
435.03	854.30
435.22	1011.11
435.41	1093.03
435.59	1104.73
435.78	1039.20
435.97	868.34
436.16	784.08
436.34	695.14
436.53	720.88
436.72	629.60
436.90	704.50
437.09	645.99
437.28	650.67
437.46	585.13
437.65	641.31
437.84	601.52
438.02	678.76
438.21	608.54
438.40	606.20
438.58	608.54
438.77	615.56
438.96	594.50
439.14	636.63
439.33	648.33
439.52	645.99
439.70	624.92
439.89	653.01
440.08	669.39
440.26	657.69
440.45	685.78
440.63	664.71
440.82	678.76
441.01	617.90
441.19	608.54
441.38	615.56
441.57	641.31
441.75	627.26
441.94	622.58
442.12	676.41
442.31	657.69
442.50	641.31
442.68	669.39
442.87	662.37
443.05	631.94
443.24	580.45
443.43	603.86
443.61	706.84
443.80	594.50
443.98	653.01
444.17	650.67
444.35	571.09
444.54	638.97
444.73	676.41
444.91	695.14
445.10	645.99
445.28	617.90
445.47	645.99
445.65	622.58
445.84	662.37
446.02	720.88
446.21	678.76
446.39	655.35
446.58	603.86
446.77	622.58
446.95	648.33
447.14	657.69
447.32	683.44
447.51	662.37
447.69	727.91
447.88	683.44
448.06	613.22
448.25	657.69
448.43	624.92
448.62	615.56
448.80	650.67
448.99	711.52
449.17	631.94
449.36	669.39
449.54	732.59
449.73	650.67
449.91	613.22
450.10	608.54
450.28	711.52
450.46	702.16
450.65	669.39
450.83	592.16
451.02	592.16
451.20	655.35
451.39	662.37
451.57	662.37
451.76	622.58
451.94	641.31
452.13	692.80
452.31	688.12
452.49	664.71
452.68	573.43
452.86	594.50
453.05	638.97
453.23	643.65
453.42	592.16
453.60	727.91
453.78	671.73
453.97	645.99
454.15	732.59
454.34	671.73
454.52	648.33
454.70	653.01
454.89	596.84
455.07	620.24
455.26	627.26
455.44	650.67
455.62	608.54
455.81	627.26
455.99	585.13
456.17	662.37
456.36	643.65
456.54	592.16
456.73	636.63
456.91	669.39
457.09	697.48
457.28	608.54
457.46	624.92
457.64	681.10
457.83	650.67
458.01	617.90
458.19	627.26
458.38	685.78
458.56	594.50
458.74	599.18
458.93	636.63
459.11	753.65
459.29	645.99
459.48	613.22
459.66	774.72
459.84	657.69
460.03	737.27
460.21	617.90
460.39	655.35
460.57	678.76
460.76	664.71
460.94	678.76
461.12	678.76
461.31	660.03
461.49	669.39
461.67	587.47
461.85	620.24
462.04	603.86
462.22	931.53
462.40	608.54
462.59	643.65
462.77	606.20
462.95	587.47
463.13	564.07
463.32	676.41
463.50	653.01
463.68	685.78
463.86	589.82
464.05	641.31
464.23	678.76
464.41	655.35
464.59	648.33
464.78	606.20
464.96	596.84
465.14	655.35
465.32	678.76
465.50	671.73
465.69	746.63
465.87	653.01
466.05	636.63
466.23	580.45
466.41	624.92
466.60	669.39
466.78	699.82
466.96	681.10
467.14	650.67
467.32	629.60
467.51	674.07
467.69	578.11
467.87	741.95
468.05	669.39
468.23	641.31
468.41	631.94
468.60	627.26
468.78	631.94
468.96	688.12
469.14	671.73
469.32	620.24
469.50	578.11
469.69	613.22
469.87	643.65
470.05	561.73
470.23	638.97
470.41	683.44
470.59	610.88
470.77	664.71
470.95	697.48
471.14	594.50
471.32	674.07
471.50	634.29
471.68	620.24
471.86	608.54
472.04	671.73
472.22	655.35
472.40	603.86
472.58	620.24
472.77	617.90
472.95	617.90
473.13	713.86
473.31	655.35
473.49	596.84
473.67	622.58
473.85	634.29
474.03	634.29
474.21	638.97
474.39	706.84
474.57	748.97
474.75	636.63
474.93	622.58
475.12	615.56
475.30	622.58
475.48	676.41
475.66	648.33
475.84	634.29
476.02	627.26
476.20	711.52
476.38	641.31
476.56	641.31
476.74	631.94
476.92	631.94
477.10	653.01
477.28	573.43
477.46	610.88
477.64	683.44
477.82	603.86
478.00	603.86
478.18	601.52
478.36	643.65
478.54	657.69
478.72	599.18
478.90	636.63
479.08	662.37
479.26	716.20
479.44	681.10
479.62	631.94
479.80	653.01
479.98	603.86
480.16	634.29
480.34	730.25
480.52	657.69
480.70	690.46
480.88	671.73
481.06	638.97
481.24	592.16
481.41	688.12
481.59	653.01
481.77	664.71
481.95	636.63
482.13	704.50
482.31	660.03
482.49	653.01
482.67	608.54
482.85	620.24
483.03	638.97
483.21	716.20
483.39	650.67
483.57	699.82
483.74	784.08
483.92	685.78
484.10	671.73
484.28	683.44
484.46	704.50
484.64	688.12
484.82	683.44
485.00	617.90
485.18	695.14
485.35	730.25
485.53	643.65
485.71	765.36
485.89	638.97
486.07	753.65
486.25	704.50
486.43	692.80
486.61	737.27
486.78	781.74
486.96	657.69
487.14	603.86
487.32	622.58
487.50	713.86
487.68	699.82
487.85	723.23
488.03	713.86
488.21	739.61
488.39	667.05
488.57	725.57
488.75	746.63
488.92	734.93
489.10	674.07
489.28	678.76
489.46	610.88
489.64	730.25
489.81	655.35
489.99	720.88
490.17	725.57
490.35	676.41
490.53	699.82
490.70	655.35
490.88	748.97
491.06	692.80
491.24	688.12
491.41	725.57
491.59	711.52
491.77	655.35
491.95	634.29
492.13	660.03
492.30	685.78
492.48	669.39
492.66	645.99
492.84	645.99
493.01	718.54
493.19	636.63
493.37	793.44
493.54	688.12
493.72	664.71
493.90	653.01
494.08	692.80
494.25	702.16
494.43	627.26
494.61	650.67
494.79	662.37
494.96	683.44
495.14	681.10
495.32	692.80
495.49	629.60
495.67	678.76
495.85	732.59
496.02	664.71
496.20	683.44
496.38	641.31
496.55	669.39
496.73	709.18
496.91	657.69
497.09	669.39
497.26	702.16
497.44	748.97
497.62	641.31
497.79	660.03
497.97	690.46
498.14	667.05
498.32	720.88
498.50	615.56
498.67	617.90
498.85	645.99
499.03	711.52
499.20	685.78
499.38	685.78
499.56	650.67
499.73	718.54
499.91	704.50
500.08	645.99
500.26	737.27
500.44	711.52
500.61	681.10
500.79	596.84
500.97	678.76
501.14	695.14
501.32	695.14
501.49	741.95
501.67	669.39
501.84	664.71
502.02	699.82
502.20	711.52
502.37	594.50
502.55	706.84
502.72	695.14
502.90	634.29
503.07	653.01
503.25	683.44
503.43	564.07
503.60	620.24
503.78	601.52
503.95	631.94
504.13	634.29
504.30	669.39
504.48	667.05
504.65	610.88
504.83	636.63
505.01	692.80
505.18	692.80
505.36	641.31
505.53	636.63
505.71	629.60
505.88	648.33
506.06	676.41
506.23	692.80
506.41	531.30
506.58	706.84
506.76	599.18
506.93	596.84
507.11	617.90
507.28	671.73
507.46	587.47
507.63	634.29
507.81	615.56
507.98	641.31
508.16	671.73
508.33	706.84
508.50	645.99
508.68	650.67
508.85	671.73
509.03	629.60
509.20	650.67
509.38	662.37
509.55	657.69
509.73	594.50
509.90	692.80
510.08	674.07
510.25	667.05
510.42	585.13
510.60	561.73
510.77	706.84
510.95	617.90
511.12	608.54
511.30	592.16
511.47	662.37
511.64	671.73
511.82	575.77
511.99	613.22
512.17	627.26
512.34	624.92
512.51	641.31
512.69	664.71
512.86	627.26
513.04	655.35
513.21	629.60
513.38	643.65
513.56	674.07
513.73	674.07
513.90	638.97
514.08	596.84
514.25	699.82
514.43	624.92
514.60	650.67
514.77	688.12
514.95	667.05
515.12	674.07
515.29	688.12
515.47	734.93
515.64	634.29
515.81	660.03
515.99	692.80
516.16	568.75
516.33	643.65
516.51	664.71
516.68	650.67
516.85	610.88
517.03	636.63
517.20	615.56
517.37	660.03
517.54	678.76
517.72	669.39
517.89	695.14
518.06	727.91
518.24	683.44
518.41	678.76
518.58	594.50
518.75	667.05
518.93	589.82
519.10	713.86
519.27	641.31
519.45	671.73
519.62	678.76
519.79	603.86
519.96	650.67
520.14	713.86
520.31	650.67
520.48	645.99
520.65	685.78
520.83	674.07
521.00	641.31
521.17	688.12
521.34	627.26
521.52	617.90
521.69	650.67
521.86	711.52
522.03	638.97
522.20	681.10
522.38	678.76
522.55	667.05
522.72	547.69
522.89	580.45
523.07	718.54
523.24	638.97
523.41	643.65
523.58	622.58
523.75	688.12
523.92	636.63
524.10	629.60
524.27	671.73
524.44	634.29
524.61	730.25
524.78	629.60
524.96	711.52
525.13	636.63
525.30	718.54
525.47	748.97
525.64	617.90
525.81	631.94
525.98	667.05
526.16	669.39
526.33	631.94
526.50	678.76
526.67	650.67
526.84	629.60
527.01	606.20
527.18	650.67
527.36	585.13
527.53	650.67
527.70	688.12
527.87	617.90
528.04	653.01
528.21	606.20
528.38	660.03
528.55	676.41
528.72	610.88
528.89	681.10
529.07	627.26
529.24	622.58
529.41	681.10
529.58	695.14
529.75	667.05
529.92	671.73
530.09	606.20
530.26	599.18
530.43	697.48
530.60	603.86
530.77	622.58
530.94	732.59
531.11	662.37
531.28	681.10
531.46	676.41
531.63	650.67
531.80	681.10
531.97	617.90
532.14	706.84
532.31	664.71
532.48	648.33
532.65	653.01
532.82	688.12
532.99	648.33
533.16	643.65
533.33	674.07
533.50	645.99
533.67	599.18
533.84	690.46
534.01	690.46
534.18	711.52
534.35	641.31
534.52	699.82
534.69	709.18
534.86	744.29
535.03	711.52
535.20	699.82
535.37	613.22
535.54	613.22
535.71	720.88
535.88	739.61
536.05	664.71
536.22	634.29
536.38	662.37
536.55	755.99
536.72	713.86
536.89	713.86
537.06	688.12
537.23	669.39
537.40	718.54
537.57	758.33
537.74	681.10
537.91	760.67
538.08	760.67
538.25	741.95
538.42	690.46
538.59	760.67
538.75	823.87
538.92	753.65
539.09	720.88
539.26	697.48
539.43	772.38
539.60	812.17
539.77	870.68
539.94	854.30
540.11	858.98
540.28	894.08
540.44	861.32
540.61	922.17
540.78	987.71
540.95	1013.45
541.12	1158.57
541.29	1123.46
541.46	1259.21
541.62	1308.36
541.79	1219.42
541.96	1245.16
542.13	1322.40
542.30	1207.72
542.47	1217.08
542.63	1219.42
542.80	1135.16
542.97	1238.14
543.14	1205.38
543.31	1163.25
543.48	1165.59
543.64	1217.08
543.81	1193.67
543.98	1146.86
544.15	1214.74
544.32	1174.95
544.48	1097.71
544.65	1100.05
544.82	1198.35
544.99	1139.84
545.16	1132.82
545.32	1268.57
545.49	1448.79
545.66	1874.77
545.83	2059.67
546.00	1851.36
546.16	1647.74
546.33	1399.64
546.50	1322.40
546.67	1217.08
546.83	1027.50
547.00	943.24
547.17	980.68
547.34	908.13
547.50	894.08
547.67	896.43
547.84	887.06
548.00	940.90
548.17	924.51
548.34	915.15
548.51	926.85
548.67	898.77
548.84	910.47
549.01	936.21
549.18	938.55
549.34	833.23
549.51	931.53
549.68	915.15
549.84	873.02
550.01	837.91
550.18	887.06
550.34	807.48
550.51	842.59
550.68	858.98
550.84	807.48
551.01	765.36
551.18	847.27
551.34	781.74
551.51	653.01
551.68	741.95
551.84	791.10
552.01	716.20
552.18	725.57
552.34	837.91
552.51	641.31
552.68	751.31
552.84	695.14
553.01	709.18
553.18	753.65
553.34	770.04
553.51	683.44
553.67	746.63
553.84	718.54
554.01	741.95
554.17	737.27
554.34	674.07
554.51	622.58
554.67	737.27
554.84	716.20
555.00	631.94
555.17	709.18
555.33	713.86
555.50	664.71
555.67	695.14
555.83	695.14
556.00	674.07
556.16	763.01
556.33	676.41
556.50	648.33
556.66	697.48
556.83	737.27
556.99	688.12
557.16	751.31
557.32	660.03
557.49	681.10
557.65	681.10
557.82	674.07
557.98	617.90
558.15	613.22
558.32	648.33
558.48	669.39
558.65	636.63
558.81	690.46
558.98	653.01
559.14	631.94
559.31	674.07
559.47	587.47
559.64	671.73
559.80	648.33
559.97	681.10
560.13	603.86
560.30	720.88
560.46	664.71
560.63	603.86
560.79	688.12
560.96	620.24
561.12	662.37
561.29	713.86
561.45	643.65
561.61	667.05
561.78	765.36
561.94	664.71
562.11	671.73
562.27	606.20
562.44	594.50
562.60	589.82
562.77	636.63
562.93	711.52
563.10	725.57
563.26	711.52
563.42	681.10
563.59	702.16
563.75	610.88
563.92	662.37
564.08	643.65
564.24	681.10
564.41	676.41
564.57	678.76
564.74	641.31
564.90	669.39
565.07	624.92
565.23	601.52
565.39	671.73
565.56	634.29
565.72	601.52
565.88	690.46
566.05	631.94
566.21	690.46
566.38	613.22
566.54	685.78
566.70	650.67
566.87	622.58
567.03	648.33
567.19	685.78
567.36	739.61
567.52	690.46
567.68	683.44
567.85	676.41
568.01	678.76
568.17	676.41
568.34	695.14
568.50	744.29
568.66	669.39
568.83	685.78
568.99	650.67
569.15	653.01
569.32	592.16
569.48	695.14
569.64	601.52
569.81	653.01
569.97	624.92
570.13	664.71
570.30	683.44
570.46	695.14
570.62	657.69
570.78	627.26
570.95	667.05
571.11	732.59
571.27	676.41
571.43	692.80
571.60	667.05
571.76	596.84
571.92	629.60
572.09	653.01
572.25	648.33
572.41	617.90
572.57	655.35
572.74	753.65
572.90	638.97
573.06	734.93
573.22	688.12
573.38	657.69
573.55	655.35
573.71	636.63
573.87	662.37
574.03	683.44
574.20	697.48
574.36	706.84
574.52	669.39
574.68	655.35
574.84	641.31
575.01	603.86
575.17	634.29
575.33	664.71
575.49	664.71
575.65	685.78
575.82	751.31
575.98	669.39
576.14	631.94
576.30	655.35
576.46	770.04
576.62	851.96
576.79	945.58
576.95	844.93
577.11	767.70
577.27	784.08
577.43	744.29
577.59	758.33
577.75	770.04
577.92	645.99
578.08	653.01
578.24	720.88
578.40	725.57
578.56	744.29
578.72	880.04
578.88	887.06
579.04	793.44
579.21	816.85
579.37	753.65
579.53	690.46
579.69	819.19
579.85	880.04
580.01	819.19
580.17	744.29
580.33	748.97
580.49	713.86
580.65	716.20
580.82	774.72
580.98	711.52
581.14	748.97
581.30	734.93
581.46	702.16
581.62	638.97
581.78	638.97
581.94	807.48
582.10	758.33
582.26	809.83
582.42	645.99
582.58	774.72
582.74	727.91
582.90	784.08
583.06	765.36
583.22	730.25
583.38	774.72
583.54	732.59
583.70	800.46
583.86	842.59
584.02	791.10
584.18	788.76
584.34	739.61
584.50	704.50
584.66	744.29
584.82	765.36
584.98	763.01
585.14	760.67
585.30	748.97
585.46	711.52
585.62	711.52
585.78	751.31
585.94	746.63
586.10	732.59
586.26	709.18
586.42	800.46
586.58	746.63
586.74	882.38
586.90	891.74
587.06	873.02
587.22	910.47
587.38	903.45
587.54	807.48
587.70	779.40
587.86	835.57
588.02	814.51
588.18	723.23
588.34	725.57
588.49	716.20
588.65	690.46
588.81	737.27
588.97	772.38
589.13	641.31
589.29	702.16
589.45	711.52
589.61	660.03
589.77	671.73
589.93	748.97
590.08	770.04
590.24	741.95
590.40	732.59
590.56	770.04
590.72	697.48
590.88	744.29
591.04	727.91
591.20	732.59
591.35	732.59
591.51	732.59
591.67	765.36
591.83	772.38
591.99	795.78
592.15	772.38
592.31	763.01
592.46	779.40
592.62	863.66
592.78	791.10
592.94	720.88
593.10	844.93
593.26	802.80
593.41	786.42
593.57	821.53
593.73	760.67
593.89	695.14
594.05	758.33
594.20	681.10
594.36	788.76
594.52	702.16
594.68	760.67
594.84	786.42
594.99	704.50
595.15	723.23
595.31	685.78
595.47	767.70
595.62	746.63
595.78	713.86
595.94	669.39
596.10	732.59
596.25	737.27
596.41	709.18
596.57	648.33
596.73	685.78
596.88	709.18
597.04	704.50
597.20	678.76
597.36	685.78
597.51	634.29
597.67	706.84
597.83	706.84
597.99	608.54
598.14	683.44
598.30	723.23
598.46	671.73
598.61	741.95
598.77	718.54
598.93	744.29
599.09	748.97
599.24	727.91
599.40	732.59
599.56	718.54
599.71	702.16
599.87	739.61
600.03	730.25
600.18	751.31
600.34	812.17
600.50	699.82
600.65	699.82
600.81	643.65
600.97	716.20
601.12	655.35
601.28	613.22
601.44	622.58
601.59	732.59
601.75	711.52
601.91	650.67
602.06	617.90
602.22	781.74
602.37	699.82
602.53	697.48
602.69	713.86
602.84	734.93
603.00	704.50
603.16	725.57
603.31	706.84
603.47	671.73
603.62	636.63
603.78	653.01
603.94	725.57
604.09	772.38
604.25	690.46
604.40	660.03
604.56	643.65
604.71	674.07
604.87	655.35
605.03	662.37
605.18	746.63
605.34	741.95
605.49	697.48
605.65	704.50
605.80	688.12
605.96	704.50
606.12	683.44
606.27	755.99
606.43	599.18
606.58	695.14
606.74	709.18
606.89	718.54
607.05	751.31
607.20	741.95
607.36	645.99
607.51	660.03
607.67	692.80
607.82	730.25
607.98	763.01
608.13	725.57
608.29	669.39
608.44	781.74
608.60	753.65
608.75	795.78
608.91	781.74
609.06	779.40
609.22	819.19
609.37	922.17
609.53	868.34
609.68	936.21
609.84	889.40
