SpectraSuite Data File
++++++++++++++++++++++++++++++++++++
Date: Thu Oct 24 13:21:16 EDT 2013
User: stostad
Dark Spectrum Present: No
Reference Spectrum Present: No
Number of Sampled Component Spectra: 1
Spectrometers: USB2+H05261
Integration Time (usec): 100000 (USB2+H05261)
Spectra Averaged: 1 (USB2+H05261)
Boxcar Smoothing: 0 (USB2+H05261)
Correct for Electrical Dark: No (USB2+H05261)
Strobe/Lamp Enabled: No (USB2+H05261)
Correct for Detector Non-linearity: No (USB2+H05261)
Correct for Stray Light: No (USB2+H05261)
Number of Pixels in Processed Spectrum: 2048
>>>>>Begin Processed Spectral Data<<<<<
365.73	594.50
365.92	594.50
366.12	594.50
366.32	435.34
366.52	491.51
366.72	517.26
366.91	477.47
367.11	503.22
367.31	533.64
367.51	435.34
367.70	430.66
367.90	458.74
368.10	475.13
368.30	433.00
368.49	421.30
368.69	458.74
368.89	470.45
369.09	514.92
369.28	535.98
369.48	461.09
369.68	493.85
369.87	580.45
370.07	540.66
370.27	582.79
370.47	603.86
370.66	732.59
370.86	760.67
371.06	763.01
371.25	837.91
371.45	798.12
371.65	786.42
371.84	786.42
372.04	814.51
372.24	835.57
372.44	847.27
372.63	793.44
372.83	837.91
373.03	875.36
373.22	842.59
373.42	851.96
373.62	856.64
373.81	877.70
374.01	887.06
374.21	936.21
374.40	882.38
374.60	842.59
374.79	945.58
374.99	945.58
375.19	910.47
375.38	847.27
375.58	866.00
375.78	933.87
375.97	950.26
376.17	919.83
376.37	898.77
376.56	933.87
376.76	847.27
376.95	929.19
377.15	1006.43
377.35	964.30
377.54	940.90
377.74	938.55
377.93	898.77
378.13	973.66
378.33	957.28
378.52	912.81
378.72	973.66
378.91	952.60
379.11	1018.13
379.31	954.94
379.50	983.02
379.70	971.32
379.89	997.07
380.09	997.07
380.28	983.02
380.48	964.30
380.68	994.73
380.87	940.90
381.07	961.96
381.26	1018.13
381.46	961.96
381.65	954.94
381.85	1004.09
382.04	1013.45
382.24	1006.43
382.43	980.68
382.63	1013.45
382.83	1039.20
383.02	1074.31
383.22	983.02
383.41	992.39
383.61	976.00
383.80	1097.71
384.00	1041.54
384.19	1081.33
384.39	1071.97
384.58	1053.24
384.78	1069.62
384.97	1118.78
385.17	1074.31
385.36	1041.54
385.56	1046.22
385.75	1067.28
385.95	1104.73
386.14	1062.60
386.34	1081.33
386.53	1135.16
386.72	1160.91
386.92	1142.18
387.11	1156.22
387.31	1102.39
387.50	1050.90
387.70	1093.03
387.89	1158.57
388.09	1184.31
388.28	1046.22
388.48	1123.46
388.67	1132.82
388.86	1139.84
389.06	1226.44
389.25	1153.88
389.45	1191.33
389.64	1170.27
389.84	1261.55
390.03	1242.82
390.22	1256.87
390.42	1181.97
390.61	1165.59
390.81	1132.82
391.00	1139.84
391.19	1156.22
391.39	1266.23
391.58	1240.48
391.78	1254.53
391.97	1238.14
392.16	1275.59
392.36	1207.72
392.55	1256.87
392.75	1259.21
392.94	1245.16
393.13	1306.02
393.33	1245.16
393.52	1331.76
393.71	1301.34
393.91	1259.21
394.10	1289.64
394.29	1287.29
394.49	1315.38
394.68	1336.45
394.88	1404.32
395.07	1310.70
395.26	1350.49
395.46	1334.11
395.65	1404.32
395.84	1416.02
396.04	1444.11
396.23	1366.87
396.42	1371.55
396.62	1430.07
396.81	1441.77
397.00	1390.28
397.19	1406.66
397.39	1394.96
397.58	1401.98
397.77	1472.20
397.97	1509.65
398.16	1462.83
398.35	1537.73
398.55	1423.05
398.74	1437.09
398.93	1502.62
399.12	1619.65
399.32	1514.33
399.51	1537.73
399.70	1526.03
399.90	1533.05
400.09	1528.37
400.28	1605.61
400.47	1685.19
400.67	1521.35
400.86	1528.37
401.05	1575.18
401.24	1621.99
401.44	1629.01
401.63	1647.74
401.82	1696.89
402.01	1458.15
402.21	1582.20
402.40	1582.20
402.59	1643.06
402.78	1722.63
402.97	1685.19
403.17	1694.55
403.36	1692.21
403.55	1729.66
403.74	1746.04
403.93	1781.15
404.13	1820.94
404.32	1760.08
404.51	1799.87
404.70	1820.94
404.89	1844.34
405.09	1816.26
405.28	1888.81
405.47	1839.66
405.66	1804.55
405.85	1832.64
406.05	1839.66
406.24	1842.00
406.43	1914.56
406.62	1991.80
406.81	1961.37
407.00	1909.88
407.20	1898.17
407.39	1856.04
407.58	1954.35
407.77	1933.28
407.96	1989.46
408.15	2050.31
408.34	1989.46
408.54	2050.31
408.73	2059.67
408.92	2076.06
409.11	2115.84
409.30	2094.78
409.49	2134.57
409.68	2141.59
409.87	2122.87
410.07	2111.16
410.26	2069.03
410.45	2125.21
410.64	2090.10
410.83	2139.25
411.02	2223.51
411.21	2298.41
411.40	2176.70
411.59	2174.36
411.78	2118.18
411.98	2246.91
412.17	2246.91
412.36	2279.68
412.55	2349.90
412.74	2394.37
412.93	2307.77
413.12	2338.20
413.31	2408.41
413.50	2466.92
413.69	2434.16
413.88	2518.42
414.07	2562.89
414.26	2630.76
414.45	2392.03
414.64	2527.78
414.83	2480.97
415.02	2525.44
415.22	2527.78
415.41	2677.57
415.60	2595.65
415.79	2626.08
415.98	2675.23
416.17	2700.98
416.36	2717.36
416.55	2740.77
416.74	2672.89
416.93	2551.18
417.12	2679.91
417.31	2752.47
417.50	2836.73
417.69	2946.73
417.88	2843.75
418.07	2918.65
418.26	2843.75
418.45	2855.45
418.64	2925.67
418.83	2871.84
419.02	2965.46
419.21	2970.14
419.39	2918.65
419.58	2944.39
419.77	2874.18
419.96	2960.78
420.15	2998.23
420.34	2935.03
420.53	3009.93
420.72	3073.12
420.91	3038.02
421.10	3309.52
421.29	3012.27
421.48	3030.99
421.67	3087.17
421.86	3098.87
422.05	3204.19
422.24	3054.40
422.43	3047.38
422.61	3169.09
422.80	3309.52
422.99	3197.17
423.18	3243.98
423.37	3159.72
423.56	3234.62
423.75	3204.19
423.94	3164.40
424.13	2899.92
424.32	3213.56
424.50	3215.90
424.69	3265.05
424.88	3176.11
425.07	3300.16
425.26	3101.21
425.45	3316.54
425.64	3248.66
425.83	3307.18
426.01	3255.69
426.20	3288.45
426.39	3187.81
426.58	3253.34
426.77	3251.00
426.96	3262.71
427.15	3344.63
427.33	3454.63
427.52	3339.94
427.71	3426.54
427.90	3442.93
428.09	3478.04
428.28	3543.57
428.46	3576.34
428.65	3501.44
428.84	3524.85
429.03	3487.40
429.22	3349.31
429.40	3463.99
429.59	3487.40
429.78	3438.25
429.97	3339.94
430.16	3454.63
430.34	3529.53
430.53	3562.30
430.72	3595.06
430.91	3447.61
431.10	3590.38
431.28	3691.02
431.47	3552.93
431.66	3716.77
431.85	3660.60
432.03	3634.85
432.22	3775.28
432.41	3686.34
432.60	3583.36
432.79	3714.43
432.97	3747.20
433.16	3791.67
433.35	3686.34
433.54	3775.28
433.72	3833.80
433.91	3801.03
434.10	3894.65
434.28	3812.73
434.47	3864.22
434.66	3911.04
434.85	3976.57
435.03	4140.41
435.22	4269.14
435.41	4381.48
435.59	4325.31
435.78	4297.22
435.97	4215.30
436.16	3997.64
436.34	4011.68
436.53	3985.93
436.72	4283.18
436.90	3978.91
437.09	4168.49
437.28	3969.55
437.46	4133.39
437.65	4156.79
437.84	4138.07
438.02	4271.48
438.21	4051.47
438.40	4180.20
438.58	4229.35
438.77	4369.78
438.96	4381.48
439.14	4580.43
439.33	4416.59
439.52	4432.97
439.70	4395.53
439.89	4524.26
440.08	4468.08
440.26	4697.46
440.45	4505.53
440.63	4671.71
440.82	4807.46
441.01	4812.14
441.19	4608.51
441.38	4730.22
441.57	4837.89
441.75	4882.36
441.94	4807.46
442.12	4844.91
442.31	4828.53
442.50	4908.10
442.68	4748.95
442.87	4889.38
443.05	4858.95
443.24	5107.05
443.43	5081.30
443.61	5116.41
443.80	5025.13
443.98	4908.10
444.17	4905.76
444.35	4968.96
444.54	5067.26
444.73	4983.00
444.91	4954.91
445.10	5025.13
445.28	5149.18
445.47	5006.41
445.65	5018.11
445.84	5114.07
446.02	5085.98
446.21	5128.11
446.39	5125.77
446.58	5050.88
446.77	4968.96
446.95	4924.49
447.14	5121.09
447.32	5224.08
447.51	5097.69
447.69	5158.54
447.88	5050.88
448.06	5221.74
448.25	5095.35
448.43	5130.45
448.62	5203.01
448.80	5238.12
448.99	5142.16
449.17	5266.21
449.36	5249.82
449.54	5305.99
449.73	5441.75
449.91	5556.43
450.10	5434.72
450.28	5322.38
450.46	5387.91
450.65	5399.62
450.83	5467.49
451.02	5387.91
451.20	5675.80
451.39	5537.71
451.57	5540.05
451.76	5289.61
451.94	5455.79
452.13	5558.77
452.31	5584.52
452.49	5451.11
452.68	5696.86
452.86	5603.24
453.05	5682.82
453.23	5650.05
453.42	5664.10
453.60	5694.52
453.78	5617.29
453.97	5467.49
454.15	5610.26
454.34	5493.24
454.52	5561.11
454.70	5652.39
454.89	5987.09
455.07	5900.49
455.26	5856.02
455.44	5685.16
455.62	5884.11
455.81	5832.62
455.99	6045.60
456.17	5860.70
456.36	5996.45
456.54	5881.77
456.73	6125.18
456.91	6263.27
457.09	6129.86
457.28	6134.54
457.46	6106.46
457.64	6277.32
457.83	6204.76
458.01	6181.35
458.19	6462.22
458.38	6251.57
458.56	6094.76
458.74	6354.55
458.93	6094.76
459.11	6176.67
459.29	6331.15
459.48	6569.88
459.66	6354.55
459.84	6342.85
460.03	6420.09
460.21	6384.98
460.39	6511.37
460.57	6609.67
460.76	6504.35
460.94	6623.72
461.12	6520.73
461.31	6576.91
461.49	6403.71
461.67	6574.56
461.85	6733.72
462.04	6431.79
462.22	6883.52
462.40	6780.53
462.59	6817.98
462.77	6853.09
462.95	6799.26
463.13	6850.75
463.32	6712.66
463.50	6820.32
463.68	6874.15
463.86	6937.35
464.05	6649.46
464.23	6927.99
464.41	6813.30
464.59	6745.42
464.78	7192.47
464.96	6888.20
465.14	6932.67
465.32	6960.75
465.50	6970.12
465.69	7178.42
465.87	7131.61
466.05	7054.37
466.23	7012.24
466.41	7176.08
466.60	7375.03
466.78	7122.25
466.96	7087.14
467.14	7075.44
467.32	7218.21
467.51	7021.61
467.69	7159.70
467.87	7253.32
468.05	7358.64
468.23	7248.64
468.41	7250.98
468.60	7265.02
468.78	7412.48
468.96	7353.96
469.14	7536.52
469.32	7543.55
469.50	7403.11
469.69	7611.42
469.87	7499.08
470.05	7618.44
470.23	7700.36
470.41	7445.24
470.59	7433.54
470.77	7606.74
470.95	7658.23
471.14	7583.34
471.32	7662.91
471.50	7698.02
471.68	7688.66
471.86	7658.23
472.04	7906.33
472.22	8255.07
472.40	8002.29
472.58	7941.44
472.77	7971.86
472.95	8107.62
473.13	8322.94
473.31	8093.57
473.49	8121.66
473.67	8042.08
473.85	8339.33
474.03	8390.82
474.21	8367.42
474.39	8439.97
474.57	8154.43
474.75	8404.86
474.93	8641.26
475.12	8559.34
475.30	8557.00
475.48	8571.04
475.66	8559.34
475.84	8643.60
476.02	8809.78
476.20	8734.88
476.38	8819.14
476.56	9027.45
476.74	9191.28
476.92	9062.55
477.10	8791.05
477.28	9198.31
477.46	9083.62
477.64	9287.25
477.82	9394.91
478.00	9401.93
478.18	9425.34
478.36	9362.14
478.54	9724.93
478.72	9757.69
478.90	9820.89
479.08	9753.01
479.26	9750.67
479.44	9769.40
479.62	10197.71
479.80	9973.02
479.98	10260.91
480.16	10483.26
480.34	10377.94
480.52	10518.37
480.70	10583.90
480.88	10581.56
481.06	10640.08
481.24	10553.48
481.41	10691.57
481.59	10827.32
481.77	10839.02
481.95	11035.63
482.13	10904.56
482.31	11119.89
482.49	11229.89
482.67	11339.90
482.85	11421.81
483.03	11585.65
483.21	11473.31
483.39	11473.31
483.57	11634.80
483.74	11918.01
483.92	11845.45
484.10	11908.65
484.28	12168.45
484.46	12484.42
484.64	12566.34
484.82	12308.88
485.00	12432.93
485.18	12465.69
485.35	12905.71
485.53	12877.63
485.71	12929.12
485.89	13146.79
486.07	13076.57
486.25	12971.25
486.43	13029.76
486.61	13261.48
486.78	13383.18
486.96	13338.71
487.14	13771.71
487.32	13839.59
487.50	13774.05
487.68	14068.96
487.85	14036.19
488.03	14139.18
488.21	14274.93
488.39	14462.17
488.57	14286.63
488.75	14579.20
488.92	14878.79
489.10	14913.89
489.28	14548.77
489.46	14874.10
489.64	14956.02
489.81	15293.06
489.99	15290.72
490.17	15515.41
490.35	15400.72
490.53	15695.63
490.70	15704.99
490.88	15630.10
491.06	16123.95
491.24	15822.02
491.41	16004.58
491.59	16269.06
491.77	16336.94
491.95	16283.11
492.13	16042.03
492.30	16510.14
492.48	16636.53
492.66	16720.79
492.84	16575.67
493.01	16924.41
493.19	16854.20
493.37	17179.53
493.54	16805.05
493.72	17097.61
493.90	17247.41
494.08	17589.13
494.25	17490.82
494.43	17778.71
494.61	17582.10
494.79	17652.32
494.96	17937.87
495.14	17713.17
495.32	18321.71
495.49	18190.64
495.67	18593.22
495.85	18586.19
496.02	18272.56
496.20	18487.89
496.38	18462.15
496.55	18855.36
496.73	19157.28
496.91	19154.94
497.09	19009.83
497.26	19241.54
497.44	19269.63
497.62	19384.32
497.79	19508.37
497.97	19658.16
498.14	19957.75
498.32	19646.46
498.50	19627.73
498.67	19997.54
498.85	19920.30
499.03	20114.56
499.20	20037.33
499.38	20273.72
499.56	20390.75
499.73	20386.07
499.91	20435.22
500.08	20442.24
500.26	20512.46
500.44	20383.73
500.61	20856.51
500.79	20793.32
500.97	20917.37
501.14	21266.11
501.32	21165.46
501.49	21303.56
501.67	20908.01
501.84	21350.37
502.02	21495.48
502.20	21366.75
502.37	21553.99
502.55	21303.56
502.72	21448.67
502.90	21806.77
503.07	21516.54
503.25	21708.47
503.43	21542.29
503.60	22143.81
503.78	21874.65
503.95	21844.22
504.13	21951.88
504.30	22045.51
504.48	22089.98
504.65	22230.41
504.83	22541.70
505.01	22499.57
505.18	22309.99
505.36	22740.64
505.53	22642.34
505.71	22586.17
505.88	22705.54
506.06	22864.69
506.23	22782.77
506.41	23138.54
506.58	22831.93
506.76	23168.96
506.93	23243.86
507.11	23201.73
507.28	23314.08
507.46	23585.58
507.63	23611.32
507.81	23828.99
507.98	23108.11
508.16	23433.44
508.33	23616.01
508.50	23681.54
508.68	24049.00
508.85	24086.45
509.03	23889.85
509.20	24044.32
509.38	24154.33
509.55	24383.70
509.73	24355.61
509.90	24430.51
510.08	24519.45
510.25	24570.94
510.42	24467.96
510.60	24531.15
510.77	24709.04
510.95	24889.26
511.12	24814.36
511.30	24699.67
511.47	24966.49
511.64	25125.65
511.82	25322.26
511.99	24812.02
512.17	25043.73
512.34	25090.54
512.51	24947.77
512.69	25315.23
512.86	25488.43
513.04	26082.93
513.21	25783.34
513.38	25614.82
513.56	25720.15
513.73	25507.16
513.90	25961.22
514.08	26047.82
514.25	26281.88
514.43	26169.53
514.60	26040.80
514.77	25858.24
514.95	26307.62
515.12	25827.81
515.29	26092.29
515.47	26487.84
515.64	26700.83
515.81	26593.17
515.99	26480.82
516.16	26925.52
516.33	26665.72
516.51	27068.30
516.68	26965.31
516.85	27061.27
517.03	26834.24
517.20	27154.90
517.37	27269.58
517.54	27175.96
517.72	26803.82
517.89	27225.11
518.06	27555.13
518.24	27264.90
518.41	27323.41
518.58	27400.65
518.75	27241.50
518.93	27344.48
519.10	27262.56
519.27	27821.95
519.45	27583.21
519.62	28088.77
519.79	27938.97
519.96	27730.67
520.14	27985.79
520.31	27655.77
520.48	27997.49
520.65	27885.14
520.83	28531.13
521.00	28048.98
521.17	28177.71
521.34	28184.73
521.52	28177.71
521.69	28175.37
521.86	28334.53
522.03	28606.03
522.20	28594.32
522.38	28905.62
522.55	29137.33
522.72	28701.99
522.89	28800.29
523.07	29015.62
523.24	28533.47
523.41	29057.75
523.58	29174.78
523.75	28978.17
523.92	29130.31
524.10	29125.63
524.27	29371.38
524.44	29535.22
524.61	29125.63
524.78	29434.58
524.96	29216.91
525.13	29460.32
525.30	30110.99
525.47	29869.92
525.64	29516.50
525.81	29750.55
525.98	29296.49
526.16	29528.20
526.33	30122.69
526.50	30103.97
526.67	29867.58
526.84	30361.43
527.01	30223.34
527.18	30483.14
527.36	30513.56
527.53	30110.99
527.70	30316.96
527.87	30625.91
528.04	30590.80
528.21	30473.78
528.38	30314.62
528.55	30904.43
528.72	30366.11
528.89	30639.95
529.07	30471.43
529.24	30698.47
529.41	31019.12
529.58	30874.01
529.75	30782.73
529.92	31094.02
530.09	31061.25
530.26	30969.97
530.43	31189.98
530.60	31119.76
530.77	31197.00
530.94	31363.18
531.11	31482.55
531.28	31264.88
531.46	31580.85
531.63	31522.34
531.80	31519.99
531.97	31550.42
532.14	31484.89
532.31	31573.83
532.48	31854.69
532.65	31838.31
532.82	31393.61
532.99	31681.49
533.16	31981.08
533.33	32002.14
533.50	32217.47
533.67	31786.82
533.84	31637.02
534.01	31878.10
534.18	31747.03
534.35	32353.23
534.52	32343.86
534.69	32451.53
534.86	32161.30
535.03	32165.98
535.20	32154.28
535.37	32203.43
535.54	32858.78
535.71	32381.31
535.88	32362.59
536.05	32783.88
536.22	32856.44
536.38	32610.68
536.55	32879.85
536.72	32711.33
536.89	32748.78
537.06	33099.86
537.23	32987.51
537.40	32779.20
537.57	32608.34
537.74	32608.34
537.91	32753.46
538.08	33256.67
538.25	32844.74
538.42	33111.56
538.59	33373.70
538.75	32765.16
538.92	33347.95
539.09	33429.87
539.26	33039.00
539.43	33275.40
539.60	33610.09
539.77	33621.80
539.94	33790.31
540.11	33638.18
540.28	34057.14
540.44	33521.15
540.61	33734.14
540.78	33830.10
540.95	33996.28
541.12	33900.32
541.29	33820.74
541.46	33991.60
541.62	34328.64
541.79	34469.07
541.96	34087.56
542.13	34242.04
542.30	34466.73
542.47	34204.59
542.63	34169.48
542.80	34396.51
542.97	34604.82
543.14	34684.40
543.31	34705.46
543.48	35117.40
543.64	35157.19
543.81	34813.13
543.98	34717.17
544.15	35196.98
544.32	35089.31
544.48	35620.61
544.65	35332.73
544.82	35028.46
544.99	35241.45
545.16	34962.92
545.32	35077.61
545.49	35508.27
545.66	36023.19
545.83	36397.67
546.00	36149.57
546.16	35924.88
546.33	35913.18
546.50	35526.99
546.67	35959.99
546.83	35021.44
547.00	35206.34
547.17	35049.52
547.34	35091.65
547.50	35592.53
547.67	35611.25
547.84	35515.29
548.00	36137.87
548.17	36135.53
548.34	35625.29
548.51	36102.76
548.67	35924.88
548.84	35597.21
549.01	35337.41
549.18	35566.78
549.34	36109.78
549.51	35934.24
549.68	35903.82
549.84	35976.37
550.01	35697.85
550.18	35672.10
550.34	35962.33
550.51	35938.93
550.68	35988.08
550.84	35723.60
551.01	36194.04
551.18	35651.04
551.34	35990.42
551.51	35749.34
551.68	35653.38
551.84	36346.18
552.01	35831.26
552.18	36355.54
552.34	36467.89
552.51	36458.52
552.68	36114.47
552.84	36641.09
553.01	36046.59
553.18	36692.58
553.34	36259.58
553.51	36091.06
553.67	36566.19
553.84	36996.85
554.01	36779.18
554.17	36449.16
554.34	36172.98
554.51	36627.04
554.67	37184.09
554.84	36528.74
555.00	36189.36
555.17	36620.02
555.33	36439.80
555.50	36453.84
555.67	36425.76
555.83	36783.86
556.00	36690.24
556.16	37043.66
556.33	37167.71
556.50	36446.82
556.66	37113.87
556.83	36739.39
556.99	37223.88
557.16	37481.34
557.32	36961.74
557.49	37130.26
557.65	37008.55
557.82	37174.73
557.98	37216.86
558.15	36634.06
558.32	37364.31
558.48	37111.53
558.65	37448.57
558.81	37525.81
558.98	37008.55
559.14	37263.67
559.31	37373.67
559.47	37455.59
559.64	37090.47
559.80	37509.43
559.97	37254.31
560.13	37258.99
560.30	36830.67
560.46	37488.36
560.63	37247.29
560.79	37549.21
560.96	37736.46
561.12	37434.53
561.29	37563.26
561.45	37722.41
561.61	37530.49
561.78	37273.03
561.94	37766.88
562.11	37703.69
562.27	37619.43
562.44	37729.44
562.60	37935.40
562.77	37916.68
562.93	37670.92
563.10	37654.54
563.26	37273.03
563.42	37743.48
563.59	37439.21
563.75	37748.16
563.92	37851.14
564.08	37893.27
564.24	37855.82
564.41	38022.00
564.57	37816.04
564.74	37701.35
564.90	37862.85
565.07	38064.13
565.23	37909.66
565.39	38031.36
565.56	38078.18
565.72	38080.52
565.88	38068.81
566.05	38202.22
566.21	37626.45
566.38	37507.08
566.54	37680.28
566.70	37879.23
566.87	38305.21
567.03	38583.73
567.19	38424.57
567.36	38415.21
567.52	38092.22
567.68	37706.03
567.85	37635.81
568.01	38183.50
568.17	38059.45
568.34	38169.46
568.50	37830.08
568.66	38314.57
568.83	38667.99
568.99	38447.98
569.15	37919.02
569.32	37837.10
569.48	37897.95
569.64	38593.09
569.81	38176.48
569.97	38071.15
570.13	38012.64
570.30	38508.83
570.46	38471.39
570.62	38176.48
570.78	38293.50
570.95	37982.21
571.11	38188.18
571.27	38272.44
571.43	38309.89
571.60	38014.98
571.76	38164.78
571.92	38337.98
572.09	38785.02
572.25	38541.60
572.41	38651.61
572.57	38841.19
572.74	38911.41
572.90	38244.35
573.06	38946.51
573.22	38352.02
573.38	38728.84
573.55	38082.86
573.71	39091.63
573.87	38366.06
574.03	38206.90
574.20	38501.81
574.36	38195.20
574.52	38679.69
574.68	38611.82
574.84	38932.47
575.01	38775.66
575.17	38665.65
575.33	38438.62
575.49	38192.86
575.65	38918.43
575.82	39084.61
575.98	38838.85
576.14	39466.11
576.30	38773.31
576.46	38745.23
576.62	38646.93
576.79	38349.68
576.95	38775.66
577.11	38567.35
577.27	38925.45
577.43	39075.24
577.59	38899.70
577.75	38925.45
577.92	38478.41
578.08	38366.06
578.24	38960.56
578.40	38778.00
578.56	39136.10
578.72	38960.56
578.88	38787.36
579.04	39276.53
579.21	39091.63
579.37	38906.73
579.53	39117.37
579.69	38670.33
579.85	38976.94
580.01	38850.55
580.17	39028.43
580.33	39185.25
580.49	39227.38
580.65	38707.78
580.82	38869.28
580.98	38866.94
581.14	38794.38
581.30	39089.29
581.46	38700.76
581.62	38473.73
581.78	38738.21
581.94	38827.15
582.10	38342.66
582.26	39161.84
582.42	38478.41
582.58	38621.18
582.74	38700.76
582.90	38895.02
583.06	38700.76
583.22	38871.62
583.38	39096.31
583.54	38752.25
583.70	38305.21
583.86	39108.01
584.02	38511.17
584.18	39309.30
584.34	38827.15
584.50	38972.26
584.66	38728.84
584.82	38469.04
584.98	39178.23
585.14	38850.55
585.30	39084.61
585.46	39016.73
585.62	39206.31
585.78	39229.72
585.94	39285.89
586.10	39260.15
586.26	39770.38
586.42	39246.10
586.58	38998.01
586.74	38852.89
586.90	39124.40
587.06	39260.15
587.22	39171.21
587.38	38974.60
587.54	39449.73
587.70	39278.87
587.86	39063.54
588.02	39508.24
588.18	39157.16
588.34	39065.88
588.49	39035.45
588.65	38836.51
588.81	38962.90
588.97	39185.25
589.13	39203.97
589.29	39363.13
589.45	39419.30
589.61	39503.56
589.77	39700.17
