SpectraSuite Data File
++++++++++++++++++++++++++++++++++++
Date: Thu Oct 24 13:21:08 EDT 2013
User: stostad
Dark Spectrum Present: No
Reference Spectrum Present: No
Number of Sampled Component Spectra: 1
Spectrometers: USB2+H05261
Integration Time (usec): 100000 (USB2+H05261)
Spectra Averaged: 1 (USB2+H05261)
Boxcar Smoothing: 0 (USB2+H05261)
Correct for Electrical Dark: No (USB2+H05261)
Strobe/Lamp Enabled: No (USB2+H05261)
Correct for Detector Non-linearity: No (USB2+H05261)
Correct for Stray Light: No (USB2+H05261)
Number of Pixels in Processed Spectrum: 2048
>>>>>Begin Processed Spectral Data<<<<<
365.73	571.09
365.92	571.09
366.12	571.09
366.32	477.47
366.52	482.15
366.72	493.85
366.91	498.53
367.11	458.74
367.31	442.36
367.51	449.38
367.70	444.70
367.90	449.38
368.10	461.09
368.30	463.43
368.49	484.49
368.69	554.71
368.89	512.58
369.09	397.89
369.28	437.68
369.48	517.26
369.68	437.68
369.87	559.39
370.07	564.07
370.27	557.05
370.47	561.73
370.66	610.88
370.86	690.46
371.06	704.50
371.25	706.84
371.45	697.48
371.65	711.52
371.84	723.23
372.04	711.52
372.24	706.84
372.44	800.46
372.63	770.04
372.83	802.80
373.03	755.99
373.22	781.74
373.42	748.97
373.62	748.97
373.81	814.51
374.01	821.53
374.21	882.38
374.40	791.10
374.60	798.12
374.79	823.87
374.99	856.64
375.19	898.77
375.38	795.78
375.58	795.78
375.78	840.25
375.97	812.17
376.17	798.12
376.37	800.46
376.56	767.70
376.76	830.89
376.95	854.30
377.15	777.06
377.35	870.68
377.54	816.85
377.74	744.29
377.93	847.27
378.13	791.10
378.33	856.64
378.52	823.87
378.72	837.91
378.91	842.59
379.11	706.84
379.31	858.98
379.50	837.91
379.70	856.64
379.89	826.21
380.09	819.19
380.28	889.40
380.48	880.04
380.68	945.58
380.87	861.32
381.07	870.68
381.26	851.96
381.46	861.32
381.65	863.66
381.85	821.53
382.04	898.77
382.24	840.25
382.43	898.77
382.63	959.62
382.83	905.79
383.02	896.43
383.22	912.81
383.41	835.57
383.61	1004.09
383.80	943.24
384.00	919.83
384.19	901.11
384.39	868.34
384.58	973.66
384.78	863.66
384.97	830.89
385.17	924.51
385.36	870.68
385.56	917.49
385.75	896.43
385.95	931.53
386.14	964.30
386.34	933.87
386.53	940.90
386.72	880.04
386.92	1043.88
387.11	1022.81
387.31	959.62
387.50	894.08
387.70	924.51
387.89	959.62
388.09	973.66
388.28	1048.56
388.48	891.74
388.67	968.98
388.86	973.66
389.06	990.05
389.25	950.26
389.45	964.30
389.64	978.34
389.84	968.98
390.03	1062.60
390.22	1034.52
390.42	947.92
390.61	964.30
390.81	1036.86
391.00	1043.88
391.19	980.68
391.39	1057.92
391.58	1018.13
391.78	1048.56
391.97	1050.90
392.16	987.71
392.36	1132.82
392.55	1013.45
392.75	1025.15
392.94	1055.58
393.13	1029.84
393.33	1064.94
393.52	1104.73
393.71	1121.12
393.91	1109.41
394.10	1083.67
394.29	1046.22
394.49	1034.52
394.68	1114.10
394.88	1093.03
395.07	978.34
395.26	1039.20
395.46	1160.91
395.65	1181.97
395.84	1149.20
396.04	1104.73
396.23	1107.07
396.42	1090.69
396.62	1177.29
396.81	1125.80
397.00	1095.37
397.19	1081.33
397.39	1153.88
397.58	1191.33
397.77	1193.67
397.97	1184.31
398.16	1172.61
398.35	1142.18
398.55	1146.86
398.74	1158.57
398.93	1259.21
399.12	1165.59
399.32	1156.22
399.51	1240.48
399.70	1249.85
399.90	1217.08
400.09	1233.46
400.28	1256.87
400.47	1233.46
400.67	1252.19
400.86	1273.25
401.05	1242.82
401.24	1322.40
401.44	1226.44
401.63	1289.64
401.82	1224.10
402.01	1240.48
402.21	1135.16
402.40	1282.61
402.59	1399.64
402.78	1284.95
402.97	1207.72
403.17	1308.36
403.36	1331.76
403.55	1401.98
403.74	1343.47
403.93	1437.09
404.13	1371.55
404.32	1359.85
404.51	1320.06
404.70	1413.68
404.89	1376.24
405.09	1465.18
405.28	1383.26
405.47	1378.58
405.66	1416.02
405.85	1444.11
406.05	1493.26
406.24	1514.33
406.43	1458.15
406.62	1495.60
406.81	1481.56
407.00	1462.83
407.20	1500.28
407.39	1455.81
407.58	1572.84
407.77	1514.33
407.96	1584.54
408.15	1511.99
408.34	1465.18
408.54	1509.65
408.73	1537.73
408.92	1596.25
409.11	1563.48
409.30	1645.40
409.49	1600.93
409.68	1694.55
409.87	1638.38
410.07	1638.38
410.26	1565.82
410.45	1636.03
410.64	1657.10
410.83	1621.99
411.02	1621.99
411.21	1661.78
411.40	1753.06
411.59	1720.29
411.78	1699.23
411.98	1696.89
412.17	1739.02
412.36	1760.08
412.55	1816.26
412.74	1710.93
412.93	1710.93
413.12	1750.72
413.31	1851.36
413.50	1795.19
413.69	1757.74
413.88	1940.30
414.07	1832.64
414.26	1816.26
414.45	1849.02
414.64	1881.79
414.83	1886.47
415.02	1916.90
415.22	1933.28
415.41	1898.17
415.60	1959.03
415.79	2008.18
415.98	1914.56
416.17	1949.67
416.36	2150.95
416.55	1963.71
416.74	1975.41
416.93	2010.52
417.12	1984.77
417.31	2052.65
417.50	1989.46
417.69	2179.04
417.88	2134.57
418.07	2064.35
418.26	2111.16
418.45	2113.50
418.64	2179.04
418.83	2209.47
419.02	2186.06
419.21	2162.66
419.39	2155.63
419.58	2197.76
419.77	2155.63
419.96	2324.15
420.15	2270.32
420.34	2228.19
420.53	2277.34
420.72	2223.51
420.91	2186.06
421.10	2300.75
421.29	2258.62
421.48	2396.71
421.67	2317.13
421.86	2225.85
422.05	2249.25
422.24	2244.57
422.43	2307.77
422.61	2338.20
422.80	2401.39
422.99	2300.75
423.18	2340.54
423.37	2399.05
423.56	2335.85
423.75	2275.00
423.94	2333.51
424.13	2298.41
424.32	2312.45
424.50	2516.08
424.69	2389.69
424.88	2370.96
425.07	2450.54
425.26	2361.60
425.45	2310.11
425.64	2202.44
425.83	2314.79
426.01	2263.30
426.20	2389.69
426.39	2438.84
426.58	2363.94
426.77	2410.75
426.96	2459.90
427.15	2307.77
427.33	2441.18
427.52	2420.11
427.71	2445.86
427.90	2497.35
428.09	2455.22
428.28	2457.56
428.46	2380.32
428.65	2363.94
428.84	2534.80
429.03	2595.65
429.22	2590.97
429.40	2485.65
429.59	2548.84
429.78	2478.63
429.97	2434.16
430.16	2495.01
430.34	2574.59
430.53	2581.61
430.72	2506.71
430.91	2569.91
431.10	2586.29
431.28	2731.41
431.47	2740.77
431.66	2633.10
431.85	2558.21
432.03	2663.53
432.22	2803.96
432.41	2712.68
432.60	2780.56
432.79	2801.62
432.97	2696.30
433.16	2715.02
433.35	2729.06
433.54	2818.00
433.72	2752.47
433.91	2736.09
434.10	2752.47
434.28	2691.62
434.47	2913.97
434.66	2764.17
434.85	2883.54
435.03	2956.10
435.22	3119.93
435.41	3407.82
435.59	3260.37
435.78	3201.85
435.97	3054.40
436.16	3005.25
436.34	2923.33
436.53	2967.80
436.72	2991.20
436.90	3007.59
437.09	3005.25
437.28	2904.60
437.46	2995.89
437.65	2892.90
437.84	3073.12
438.02	3033.33
438.21	3089.51
438.40	2951.42
438.58	3094.19
438.77	3194.83
438.96	3126.96
439.14	3098.87
439.33	3075.46
439.52	3194.83
439.70	3152.70
439.89	3225.26
440.08	3157.38
440.26	3129.30
440.45	3124.62
440.63	3311.86
440.82	3384.41
441.01	3349.31
441.19	3316.54
441.38	3391.44
441.57	3314.20
441.75	3384.41
441.94	3382.07
442.12	3421.86
442.31	3417.18
442.50	3370.37
442.68	3508.46
442.87	3471.01
443.05	3557.61
443.24	3489.74
443.43	3454.63
443.61	3606.77
443.80	3639.53
443.98	3346.97
444.17	3398.46
444.35	3515.48
444.54	3482.72
444.73	3494.42
444.91	3494.42
445.10	3623.15
445.28	3478.04
445.47	3524.85
445.65	3541.23
445.84	3623.15
446.02	3569.32
446.21	3679.32
446.39	3566.98
446.58	3606.77
446.77	3618.47
446.95	3501.44
447.14	3571.66
447.32	3482.72
447.51	3531.87
447.69	3646.55
447.88	3590.38
448.06	3655.92
448.25	3559.95
448.43	3700.39
448.62	3604.42
448.80	3653.58
448.99	3597.40
449.17	3590.38
449.36	3604.42
449.54	3763.58
449.73	3770.60
449.91	3913.38
450.10	3864.22
450.28	3946.14
450.46	3887.63
450.65	3880.61
450.83	3840.82
451.02	3786.99
451.20	3749.54
451.39	3824.44
451.57	3826.78
451.76	3798.69
451.94	3847.84
452.13	4100.62
452.31	3887.63
452.49	3950.82
452.68	3943.80
452.86	4025.72
453.05	3822.09
453.23	3878.27
453.42	3967.21
453.60	3794.01
453.78	4124.02
453.97	3946.14
454.15	3946.14
454.34	3939.12
454.52	4025.72
454.70	3941.46
454.89	4051.47
455.07	4084.23
455.26	3992.95
455.44	4091.26
455.62	3967.21
455.81	4121.68
455.99	4084.23
456.17	4128.70
456.36	4175.52
456.54	4236.37
456.73	4264.46
456.91	4189.56
457.09	4339.35
457.28	4203.60
457.46	4262.12
457.64	4346.37
457.83	4264.46
458.01	4320.63
458.19	4388.50
458.38	4287.86
458.56	4404.89
458.74	4360.42
458.93	4435.32
459.11	4472.76
459.29	4358.08
459.48	4458.72
459.66	4517.23
459.84	4451.70
460.03	4667.03
460.21	4500.85
460.39	4524.26
460.57	4545.32
460.76	4596.81
460.94	4454.04
461.12	4634.26
461.31	4346.37
461.49	4603.83
461.67	4582.77
461.85	4615.54
462.04	4538.30
462.22	4933.85
462.40	4706.82
462.59	4650.64
462.77	4526.60
462.95	4601.49
463.13	4688.09
463.32	4601.49
463.50	4636.60
463.68	4608.51
463.86	4723.20
464.05	4655.33
464.23	4615.54
464.41	4858.95
464.59	4596.81
464.78	4737.24
464.96	4767.67
465.14	4706.82
465.32	4835.55
465.50	4847.25
465.69	4858.95
465.87	4826.18
466.05	4830.87
466.23	4854.27
466.41	4807.46
466.60	5041.51
466.78	4870.65
466.96	4802.78
467.14	4762.99
467.32	4877.68
467.51	4990.02
467.69	4933.85
467.87	4931.51
468.05	5029.81
468.23	4926.83
468.41	4795.76
468.60	4994.70
468.78	4954.91
468.96	5172.58
469.14	5081.30
469.32	5266.21
469.50	5008.75
469.69	5156.20
469.87	5203.01
470.05	5118.75
470.23	5338.76
470.41	5266.21
470.59	5268.55
470.77	5266.21
470.95	5135.14
471.14	5294.29
471.32	5186.63
471.50	5453.45
471.68	5242.80
471.86	5380.89
472.04	5369.19
472.22	5425.36
472.40	5408.98
472.58	5451.11
472.77	5453.45
472.95	5544.73
473.13	5596.22
473.31	5469.83
473.49	5540.05
473.67	5561.11
473.85	5734.31
474.03	5636.01
474.21	5645.37
474.39	5692.18
474.57	5699.20
474.75	5715.59
474.93	5806.87
475.12	5767.08
475.30	5881.77
475.48	5937.94
475.66	5846.66
475.84	5837.30
476.02	5900.49
476.20	5961.34
476.38	6047.94
476.56	6291.36
476.74	6188.38
476.92	6174.33
477.10	6312.42
477.28	6153.27
477.46	6333.49
477.64	6272.64
477.82	6274.98
478.00	6574.56
478.18	6523.07
478.36	6551.16
478.54	6583.93
478.72	6562.86
478.90	6696.27
479.08	6616.69
479.26	6696.27
479.44	6609.67
479.62	6920.96
479.80	6799.26
479.98	6946.71
480.16	6944.37
480.34	7026.29
480.52	6986.50
480.70	7073.10
480.88	6965.43
481.06	7056.72
481.24	7098.84
481.41	7302.47
481.59	7414.82
481.77	7562.27
481.95	7468.65
482.13	7454.61
482.31	7595.04
482.49	7541.21
482.67	7641.85
482.85	7712.07
483.03	7765.90
483.21	8063.15
483.39	7840.79
483.57	7761.22
483.74	7971.86
483.92	7772.92
484.10	8109.96
484.28	8252.73
484.46	8201.24
484.64	8493.80
484.82	8095.91
485.00	8311.24
485.18	8477.42
485.35	8812.12
485.53	8772.33
485.71	8594.45
485.89	8629.56
486.07	8667.00
486.25	8936.17
486.43	8812.12
486.61	8861.27
486.78	8964.25
486.96	9111.71
487.14	9006.38
487.32	9153.84
487.50	9177.24
487.68	9411.29
487.85	9500.23
488.03	9671.09
488.21	9533.00
488.39	9362.14
488.57	9605.56
488.75	9399.59
488.92	9816.21
489.10	9823.23
489.28	9921.53
489.46	9989.41
489.64	10071.33
489.81	10047.92
489.99	9947.28
490.17	10153.24
490.35	10478.58
490.53	10464.54
490.70	10312.40
490.88	10544.11
491.06	10387.30
491.24	10579.22
491.41	10686.89
491.59	10705.61
491.77	10820.30
491.95	10729.02
492.13	10899.87
492.30	11023.92
492.48	10897.53
492.66	10986.47
492.84	11049.67
493.01	11222.87
493.19	11213.51
493.37	11290.74
493.54	11300.11
493.72	11386.71
493.90	11386.71
494.08	11613.74
494.25	11906.31
494.43	11541.18
494.61	11948.43
494.79	11742.47
494.96	11768.21
495.14	11735.45
495.32	11850.13
495.49	12098.23
495.67	11906.31
495.85	12233.98
496.02	12112.27
496.20	12226.96
496.38	12210.57
496.55	12269.09
496.73	12566.34
496.91	12367.39
497.09	12833.16
497.26	12723.15
497.44	12645.91
497.62	12753.58
497.79	13055.51
497.97	12662.30
498.14	12901.03
498.32	12788.69
498.50	12835.50
498.67	13149.13
498.85	12917.42
499.03	13245.09
499.20	13177.22
499.38	13275.52
499.56	12989.97
499.73	13572.77
499.91	13472.12
500.08	13521.27
500.26	13338.71
500.44	13507.23
500.61	13488.51
500.79	13755.33
500.97	13682.77
501.14	13650.00
501.32	13771.71
501.49	13769.37
501.67	14099.39
501.84	13965.98
502.02	14090.02
502.20	14068.96
502.37	13657.03
502.55	13963.64
502.72	14141.52
502.90	14356.85
503.07	13930.87
503.25	14424.72
503.43	14300.67
503.60	14251.52
503.78	14291.31
503.95	14279.61
504.13	14398.98
504.30	14597.92
504.48	14630.69
504.65	14677.50
504.83	14834.32
505.01	14731.33
505.18	14904.53
505.36	15021.56
505.53	14743.03
505.71	14665.80
505.88	14995.81
506.06	14747.72
506.23	14956.02
506.41	15061.35
506.58	15136.24
506.76	15030.92
506.93	15194.76
507.11	14937.30
507.28	15183.06
507.46	15269.66
507.63	15489.67
507.81	15571.58
507.98	15407.75
508.16	15274.34
508.33	15466.26
508.50	15704.99
508.68	15690.95
508.85	15807.98
509.03	15800.96
509.20	15999.90
509.38	15913.30
509.55	15903.94
509.73	16093.52
509.90	16027.99
510.08	15833.72
510.25	16056.08
510.42	15936.71
510.60	15861.81
510.77	16219.91
510.95	16116.93
511.12	16168.42
511.30	16358.00
511.47	16496.10
511.64	16374.39
511.82	16566.31
511.99	16156.72
512.17	16620.14
512.34	16547.59
512.51	16470.35
512.69	16669.30
512.86	16566.31
513.04	16910.37
513.21	16535.88
513.38	16673.98
513.56	16514.82
513.73	16819.09
513.90	17261.45
514.08	16985.27
514.25	17254.43
514.43	16954.84
514.60	17151.45
514.77	17071.87
514.95	17392.52
515.12	17425.29
515.29	16999.31
515.47	17378.48
515.64	17493.16
515.81	17427.63
515.99	17362.09
516.16	17376.14
516.33	17380.82
516.51	17507.21
516.68	17694.45
516.85	17551.68
517.03	17549.34
517.20	17626.57
517.37	17635.94
517.54	17453.37
517.72	17657.00
517.89	17811.48
518.06	18047.87
518.24	18094.68
518.41	17701.47
518.58	17933.18
518.75	17912.12
518.93	17956.59
519.10	17886.37
519.27	17914.46
519.45	17862.97
519.62	17867.65
519.79	17996.38
519.96	18300.65
520.14	17991.70
520.31	18218.73
520.48	18284.26
520.65	18347.46
520.83	18408.31
521.00	18611.94
521.17	18459.81
521.34	18340.44
521.52	18483.21
521.69	18661.09
521.86	18684.50
522.03	18424.70
522.20	18651.73
522.38	18909.19
522.55	18684.50
522.72	18853.02
522.89	18789.82
523.07	18960.68
523.24	18478.53
523.41	18766.42
523.58	18958.34
523.75	19044.94
523.92	19089.41
524.10	19002.81
524.27	18939.62
524.44	19204.10
524.61	19026.21
524.78	19229.84
524.96	19143.24
525.13	19178.35
525.30	19470.92
525.47	19503.68
525.64	19281.33
525.81	19339.85
525.98	19606.67
526.16	19627.73
526.33	19700.29
526.50	19637.09
526.67	19330.48
526.84	19517.73
527.01	19454.53
527.18	19810.29
527.36	19447.51
527.53	19601.99
527.70	19885.19
527.87	19850.08
528.04	19754.12
528.21	19992.86
528.38	19714.33
528.55	19908.60
528.72	19793.91
528.89	19889.87
529.07	19915.62
529.24	20027.96
529.41	20119.24
529.58	20147.33
529.75	20460.96
529.92	20245.63
530.09	20208.19
530.26	20105.20
530.43	20065.41
530.60	20032.65
530.77	20327.55
530.94	20350.96
531.11	20278.40
531.28	20477.35
531.46	20512.46
531.63	20540.54
531.80	20510.11
531.97	20327.55
532.14	20470.33
532.31	20479.69
532.48	20386.07
532.65	20732.47
532.82	20521.82
532.99	20826.09
533.16	20521.82
533.33	20732.47
533.50	20734.81
533.67	20580.33
533.84	20783.96
534.01	20790.98
534.18	20559.27
534.35	20891.62
534.52	21010.99
534.69	20996.95
534.86	20809.70
535.03	20627.14
535.20	20620.12
535.37	21294.19
535.54	21111.63
535.71	21231.00
535.88	21116.31
536.05	21305.90
536.22	21188.87
536.38	21366.75
536.55	20973.54
536.72	21284.83
536.89	21205.25
537.06	21633.57
537.23	21284.83
537.40	21614.85
537.57	21380.79
537.74	21378.45
537.91	21539.95
538.08	21778.68
538.25	21165.46
538.42	21497.82
538.59	21876.99
538.75	21436.97
538.92	21631.23
539.09	21664.00
539.26	21738.90
539.43	21530.59
539.60	21736.56
539.77	21818.47
539.94	21797.41
540.11	21867.63
540.28	22024.44
540.44	22242.11
540.61	22026.78
540.78	22008.06
540.95	22209.34
541.12	22492.55
541.29	22155.51
541.46	22647.02
541.62	22377.86
541.79	22520.63
541.96	21986.99
542.13	22422.33
542.30	22703.20
542.47	22445.74
542.63	22679.79
542.80	22597.87
542.97	22712.56
543.14	22862.35
543.31	22810.86
543.48	22803.84
543.64	22920.87
543.81	23157.26
543.98	23232.16
544.15	22965.34
544.32	22731.28
544.48	23218.11
544.65	22820.22
544.82	23037.89
544.99	22932.57
545.16	22998.10
545.32	23183.01
545.49	23651.11
545.66	23836.02
545.83	23999.85
546.00	24173.05
546.16	23550.47
546.33	23592.60
546.50	23276.63
546.67	23248.54
546.83	23133.86
547.00	23349.18
547.17	22944.27
547.34	22909.16
547.50	23133.86
547.67	23227.48
547.84	23302.37
548.00	23206.41
548.17	23419.40
548.34	23194.71
548.51	23550.47
548.67	23220.45
548.84	23002.78
549.01	23026.19
549.18	23304.71
549.34	23232.16
549.51	23494.30
549.68	23520.04
549.84	23276.63
550.01	23550.47
550.18	23225.14
550.34	23267.27
550.51	23276.63
550.68	23393.65
550.84	23070.66
551.01	23660.48
551.18	23337.48
551.34	23206.41
551.51	22972.36
551.68	23304.71
551.84	23372.59
552.01	23140.88
552.18	23541.11
552.34	23442.81
552.51	23878.15
552.68	23559.83
552.84	23585.58
553.01	23917.93
553.18	23686.22
553.34	23634.73
553.51	23557.49
553.67	23658.14
553.84	23796.23
554.01	23861.76
554.17	23800.91
554.34	23950.70
554.51	23484.94
554.67	23662.82
554.84	23723.67
555.00	23789.20
555.17	23365.57
555.33	24049.00
555.50	23637.07
555.67	23470.89
555.83	23742.39
556.00	23906.23
556.16	23917.93
556.33	24144.97
556.50	23971.77
556.66	23887.51
556.83	23714.31
556.99	23983.47
557.16	24191.78
557.32	24086.45
557.49	23934.32
557.65	23995.17
557.82	23931.98
557.98	23920.28
558.15	23924.96
558.32	24348.59
558.48	24194.12
558.65	24081.77
558.81	24180.07
558.98	24102.84
559.14	24121.56
559.31	23798.57
559.47	24051.34
559.64	24240.93
559.80	23999.85
559.97	24060.71
560.13	23683.88
560.30	24020.92
560.46	23969.43
560.63	24163.69
560.79	24217.52
560.96	24325.19
561.12	24444.56
561.29	24189.44
561.45	24229.23
561.61	24694.99
561.78	24327.53
561.94	24290.08
562.11	24823.72
562.27	24496.05
562.44	24620.10
562.60	24112.20
562.77	24390.72
562.93	24800.32
563.10	24620.10
563.26	24346.25
563.42	24819.04
563.59	24437.53
563.75	24526.47
563.92	24283.06
564.08	24479.66
564.24	24435.19
564.41	24538.18
564.57	24552.22
564.74	24533.50
564.90	24702.01
565.07	24589.67
565.23	24362.64
565.39	24423.49
565.56	24643.50
565.72	24210.50
565.88	24652.86
566.05	24545.20
566.21	24437.53
566.38	24271.36
566.54	24533.50
566.70	24664.57
566.87	24779.25
567.03	24727.76
567.19	24769.89
567.36	24903.30
567.52	24694.99
567.68	24505.41
567.85	24645.84
568.01	24566.26
568.17	24594.35
568.34	25036.71
568.50	24577.97
568.66	24774.57
568.83	24519.45
568.99	24575.62
569.15	24641.16
569.32	24290.08
569.48	24533.50
569.64	24252.63
569.81	25055.43
569.97	24657.54
570.13	24446.90
570.30	24554.56
570.46	24437.53
570.62	24636.48
570.78	24610.73
570.95	24601.37
571.11	25214.59
571.27	24531.15
571.43	24507.75
571.60	24608.39
571.76	24690.31
571.92	24760.53
572.09	24484.34
572.25	24702.01
572.41	24929.05
572.57	25022.67
572.74	25385.45
572.90	24748.82
573.06	24886.92
573.22	24786.27
573.38	24727.76
573.55	24687.97
573.71	24720.74
573.87	24982.88
574.03	24472.64
574.20	24837.76
574.36	24886.92
574.52	24650.52
574.68	24725.42
574.84	24884.58
575.01	25032.03
575.17	24952.45
575.33	24805.00
575.49	24716.06
575.65	24896.28
575.82	25085.86
575.98	25046.07
576.14	25027.35
576.30	25097.56
576.46	25036.71
576.62	24996.92
576.79	25191.19
576.95	24971.18
577.11	25113.95
577.27	25277.79
577.43	24973.52
577.59	25069.48
577.75	24861.17
577.92	24568.60
578.08	25172.46
578.24	25137.35
578.40	25017.99
578.56	25067.14
578.72	25207.57
578.88	25406.52
579.04	24978.20
579.21	25282.47
579.37	24992.24
579.53	24996.92
579.69	25308.21
579.85	24830.74
580.01	25017.99
580.17	25179.48
580.33	25245.02
580.49	25151.40
580.65	25025.01
580.82	25076.50
580.98	25078.84
581.14	24966.49
581.30	25109.27
581.46	24985.22
581.62	25170.12
581.78	25151.40
581.94	24671.59
582.10	24821.38
582.26	25074.16
582.42	25263.74
582.58	25266.08
582.74	24814.36
582.90	25270.76
583.06	24709.04
583.22	25228.63
583.38	25142.03
583.54	24973.52
583.70	25156.08
583.86	25362.04
584.02	25345.66
584.18	25397.15
584.34	24961.81
584.50	25308.21
584.66	24833.08
584.82	24900.96
584.98	25142.03
585.14	25074.16
585.30	25282.47
585.46	24915.00
585.62	24643.50
585.78	25202.89
585.94	25490.77
586.10	24980.54
586.26	25027.35
586.42	25305.87
586.58	25315.23
586.74	25092.88
586.90	25266.08
587.06	25296.51
587.22	25404.17
587.38	25193.53
587.54	25399.49
587.70	25165.44
587.86	25289.49
588.02	25453.33
588.18	25500.14
588.34	25273.10
588.49	25174.80
588.65	24793.29
588.81	24898.62
588.97	25118.63
589.13	25158.42
589.29	25446.30
589.45	25289.49
589.61	25411.20
589.77	25338.64
589.93	25546.95
590.08	25071.82
590.24	25191.19
590.40	24870.53
590.56	25006.28
590.72	25116.29
