SpectraSuite Data File
++++++++++++++++++++++++++++++++++++
Date: Thu Oct 24 13:21:05 EDT 2013
User: stostad
Dark Spectrum Present: No
Reference Spectrum Present: No
Number of Sampled Component Spectra: 1
Spectrometers: USB2+H05261
Integration Time (usec): 100000 (USB2+H05261)
Spectra Averaged: 1 (USB2+H05261)
Boxcar Smoothing: 0 (USB2+H05261)
Correct for Electrical Dark: No (USB2+H05261)
Strobe/Lamp Enabled: No (USB2+H05261)
Correct for Detector Non-linearity: No (USB2+H05261)
Correct for Stray Light: No (USB2+H05261)
Number of Pixels in Processed Spectrum: 2048
>>>>>Begin Processed Spectral Data<<<<<
365.73	559.39
365.92	559.39
366.12	559.39
366.32	423.64
366.52	519.60
366.72	477.47
366.91	491.51
367.11	463.43
367.31	479.81
367.51	437.68
367.70	498.53
367.90	397.89
368.10	475.13
368.30	491.51
368.49	496.19
368.69	519.60
368.89	540.66
369.09	437.68
369.28	484.49
369.48	458.74
369.68	561.73
369.87	526.62
370.07	500.87
370.27	648.33
370.47	613.22
370.66	578.11
370.86	709.18
371.06	725.57
371.25	706.84
371.45	716.20
371.65	746.63
371.84	653.01
372.04	760.67
372.24	645.99
372.44	812.17
372.63	746.63
372.83	706.84
373.03	713.86
373.22	767.70
373.42	760.67
373.62	770.04
373.81	784.08
374.01	777.06
374.21	770.04
374.40	767.70
374.60	734.93
374.79	711.52
374.99	784.08
375.19	737.27
375.38	819.19
375.58	840.25
375.78	828.55
375.97	746.63
376.17	784.08
376.37	763.01
376.56	861.32
376.76	730.25
376.95	851.96
377.15	737.27
377.35	821.53
377.54	760.67
377.74	758.33
377.93	791.10
378.13	802.80
378.33	847.27
378.52	816.85
378.72	849.61
378.91	823.87
379.11	795.78
379.31	826.21
379.50	842.59
379.70	793.44
379.89	786.42
380.09	858.98
380.28	791.10
380.48	873.02
380.68	802.80
380.87	788.76
381.07	788.76
381.26	882.38
381.46	830.89
381.65	807.48
381.85	805.14
382.04	875.36
382.24	847.27
382.43	774.72
382.63	807.48
382.83	821.53
383.02	840.25
383.22	819.19
383.41	784.08
383.61	833.23
383.80	880.04
384.00	840.25
384.19	866.00
384.39	854.30
384.58	891.74
384.78	924.51
384.97	821.53
385.17	905.79
385.36	894.08
385.56	905.79
385.75	856.64
385.95	849.61
386.14	908.13
386.34	891.74
386.53	924.51
386.72	912.81
386.92	901.11
387.11	905.79
387.31	891.74
387.50	933.87
387.70	929.19
387.89	931.53
388.09	875.36
388.28	933.87
388.48	908.13
388.67	985.37
388.86	851.96
389.06	910.47
389.25	898.77
389.45	966.64
389.64	992.39
389.84	915.15
390.03	884.72
390.22	1020.47
390.42	959.62
390.61	891.74
390.81	929.19
391.00	945.58
391.19	952.60
391.39	950.26
391.58	912.81
391.78	961.96
391.97	1013.45
392.16	954.94
392.36	973.66
392.55	1029.84
392.75	994.73
392.94	896.43
393.13	947.92
393.33	1027.50
393.52	980.68
393.71	966.64
393.91	1032.18
394.10	1043.88
394.29	929.19
394.49	1011.11
394.68	1032.18
394.88	990.05
395.07	1011.11
395.26	964.30
395.46	1069.62
395.65	1107.07
395.84	1074.31
396.04	1053.24
396.23	1053.24
396.42	1018.13
396.62	1064.94
396.81	1015.79
397.00	1020.47
397.19	1062.60
397.39	1062.60
397.58	1053.24
397.77	1022.81
397.97	1053.24
398.16	1048.56
398.35	1093.03
398.55	1076.65
398.74	1067.28
398.93	1174.95
399.12	1149.20
399.32	1069.62
399.51	1165.59
399.70	1163.25
399.90	1109.41
400.09	1144.52
400.28	1146.86
400.47	1149.20
400.67	1111.75
400.86	1111.75
401.05	1217.08
401.24	1151.54
401.44	1242.82
401.63	1121.12
401.82	1109.41
402.01	1207.72
402.21	1179.63
402.40	1193.67
402.59	1093.03
402.78	1172.61
402.97	1238.14
403.17	1238.14
403.36	1181.97
403.55	1273.25
403.74	1249.85
403.93	1348.15
404.13	1376.24
404.32	1315.38
404.51	1254.53
404.70	1259.21
404.89	1308.36
405.09	1343.47
405.28	1203.04
405.47	1301.34
405.66	1273.25
405.85	1289.64
406.05	1299.00
406.24	1273.25
406.43	1341.13
406.62	1345.81
406.81	1303.68
407.00	1320.06
407.20	1324.74
407.39	1373.89
407.58	1392.62
407.77	1329.42
407.96	1416.02
408.15	1425.39
408.34	1416.02
408.54	1390.28
408.73	1460.49
408.92	1401.98
409.11	1451.13
409.30	1434.75
409.49	1434.75
409.68	1413.68
409.87	1455.81
410.07	1364.53
410.26	1448.79
410.45	1460.49
410.64	1467.52
410.83	1397.30
411.02	1479.22
411.21	1551.78
411.40	1537.73
411.59	1528.37
411.78	1437.09
411.98	1455.81
412.17	1575.18
412.36	1577.52
412.55	1563.48
412.74	1614.97
412.93	1582.20
413.12	1516.67
413.31	1500.28
413.50	1586.88
413.69	1598.59
413.88	1629.01
414.07	1666.46
414.26	1661.78
414.45	1666.46
414.64	1685.19
414.83	1806.89
415.02	1687.53
415.22	1703.91
415.41	1713.27
415.60	1687.53
415.79	1739.02
415.98	1701.57
416.17	1816.26
416.36	1795.19
416.55	1776.47
416.74	1799.87
416.93	1757.74
417.12	1776.47
417.31	1926.26
417.50	1769.44
417.69	1830.30
417.88	1851.36
418.07	1769.44
418.26	1888.81
418.45	1940.30
418.64	1928.60
418.83	1877.11
419.02	1956.69
419.21	1884.13
419.39	1900.52
419.58	1898.17
419.77	1944.99
419.96	1914.56
420.15	1973.07
420.34	1975.41
420.53	1914.56
420.72	2031.58
420.91	1952.01
421.10	1996.48
421.29	1944.99
421.48	1959.03
421.67	2001.16
421.86	1959.03
422.05	2031.58
422.24	2012.86
422.43	2031.58
422.61	1959.03
422.80	1923.92
422.99	2033.93
423.18	2069.03
423.37	2094.78
423.56	2045.63
423.75	2029.24
423.94	1987.11
424.13	1886.47
424.32	1954.35
424.50	2073.71
424.69	2113.50
424.88	2111.16
425.07	2139.25
425.26	2047.97
425.45	2057.33
425.64	1926.26
425.83	2054.99
426.01	2078.40
426.20	2097.12
426.39	2038.61
426.58	2090.10
426.77	2052.65
426.96	2122.87
427.15	2136.91
427.33	2122.87
427.52	2129.89
427.71	2076.06
427.90	2122.87
428.09	2200.10
428.28	2200.10
428.46	2073.71
428.65	2186.06
428.84	2193.08
429.03	2195.42
429.22	2104.14
429.40	2160.31
429.59	2174.36
429.78	2092.44
429.97	2174.36
430.16	2157.97
430.34	2162.66
430.53	2228.19
430.72	2298.41
430.91	2267.98
431.10	2345.22
431.28	2202.44
431.47	2305.43
431.66	2265.64
431.85	2246.91
432.03	2335.85
432.22	2345.22
432.41	2251.60
432.60	2319.47
432.79	2366.28
432.97	2291.38
433.16	2310.11
433.35	2349.90
433.54	2417.77
433.72	2354.58
433.91	2438.84
434.10	2368.62
434.28	2408.41
434.47	2431.82
434.66	2441.18
434.85	2420.11
435.03	2588.63
435.22	2656.51
435.41	2930.35
435.59	2878.86
435.78	2803.96
435.97	2733.75
436.16	2668.21
436.34	2581.61
436.53	2588.63
436.72	2534.80
436.90	2504.37
437.09	2576.93
437.28	2499.69
437.46	2546.50
437.65	2590.97
437.84	2663.53
438.02	2626.08
438.21	2567.57
438.40	2516.08
438.58	2595.65
438.77	2649.49
438.96	2675.23
439.14	2642.46
439.33	2752.47
439.52	2764.17
439.70	2810.98
439.89	2757.15
440.08	2813.32
440.26	2810.98
440.45	2822.69
440.63	2832.05
440.82	2876.52
441.01	2836.73
441.19	2801.62
441.38	2705.66
441.57	2818.00
441.75	2953.76
441.94	2928.01
442.12	2846.09
442.31	2960.78
442.50	2920.99
442.68	2977.16
442.87	2977.16
443.05	2944.39
443.24	2995.89
443.43	3063.76
443.61	3005.25
443.80	3056.74
443.98	2935.03
444.17	2818.00
444.35	2913.97
444.54	3038.02
444.73	3084.83
444.91	3040.36
445.10	3068.44
445.28	3009.93
445.47	3014.61
445.65	3047.38
445.84	3042.70
446.02	3061.42
446.21	3038.02
446.39	2981.84
446.58	3124.62
446.77	3110.57
446.95	3016.95
447.14	3098.87
447.32	3136.32
447.51	3077.80
447.69	3023.97
447.88	3030.99
448.06	3098.87
448.25	3136.32
448.43	3169.09
448.62	3035.67
448.80	3119.93
448.99	3103.55
449.17	3131.64
449.36	3110.57
449.54	3164.40
449.73	3192.49
449.91	3152.70
450.10	3262.71
450.28	3204.19
450.46	3276.75
450.65	3281.43
450.83	3414.84
451.02	3243.98
451.20	3283.77
451.39	3314.20
451.57	3274.41
451.76	3190.15
451.94	3222.92
452.13	3150.36
452.31	3346.97
452.49	3215.90
452.68	3321.22
452.86	3361.01
453.05	3344.63
453.23	3262.71
453.42	3309.52
453.60	3248.66
453.78	3407.82
453.97	3358.67
454.15	3365.69
454.34	3314.20
454.52	3447.61
454.70	3417.18
454.89	3379.73
455.07	3510.80
455.26	3520.17
455.44	3353.99
455.62	3487.40
455.81	3475.70
455.99	3471.01
456.17	3466.33
456.36	3506.12
456.54	3562.30
456.73	3634.85
456.91	3616.13
457.09	3679.32
457.28	3714.43
457.46	3517.83
457.64	3632.51
457.83	3576.34
458.01	3578.68
458.19	3693.37
458.38	3646.55
458.56	3772.94
458.74	3632.51
458.93	3777.62
459.11	3684.00
459.29	3714.43
459.48	3777.62
459.66	3735.50
459.84	3819.75
460.03	3873.59
460.21	3782.31
460.39	3901.67
460.57	3829.12
460.76	3831.46
460.94	3999.98
461.12	3962.53
461.31	3693.37
461.49	3885.29
461.67	3840.82
461.85	3838.48
462.04	3831.46
462.22	4259.78
462.40	3899.33
462.59	4002.32
462.77	3955.51
462.95	3908.69
463.13	3978.91
463.32	3976.57
463.50	3932.10
463.68	3934.44
463.86	4021.04
464.05	3981.25
464.23	4018.70
464.41	3901.67
464.59	3896.99
464.78	4053.81
464.96	4114.66
465.14	4070.19
465.32	4095.94
465.50	4095.94
465.69	4152.11
465.87	4215.30
466.05	4014.02
466.23	4131.05
466.41	4063.17
466.60	4248.07
466.78	4086.58
466.96	4156.79
467.14	4255.09
467.32	4222.33
467.51	4341.69
467.69	4222.33
467.87	4353.40
468.05	4219.99
468.23	4128.70
468.41	4138.07
468.60	4159.13
468.78	4217.65
468.96	4184.88
469.14	4329.99
469.32	4306.59
469.50	4269.14
469.69	4351.06
469.87	4329.99
470.05	4442.34
470.23	4486.81
470.41	4308.93
470.59	4376.80
470.77	4344.03
470.95	4311.27
471.14	4498.51
471.32	4325.31
471.50	4477.44
471.68	4559.36
471.86	4547.66
472.04	4482.13
472.22	4624.90
472.40	4535.96
472.58	4451.70
472.77	4629.58
472.95	4685.75
473.13	4774.69
473.31	4545.32
473.49	4762.99
473.67	4547.66
473.85	4664.69
474.03	4781.71
474.21	4755.97
474.39	4847.25
474.57	4800.44
474.75	4882.36
474.93	4868.31
475.12	4961.94
475.30	4840.23
475.48	4924.49
475.66	4873.00
475.84	4968.96
476.02	4814.48
476.20	5181.95
476.38	5100.03
476.56	5156.20
476.74	5090.67
476.92	5146.84
477.10	4973.64
477.28	5205.35
477.46	5380.89
477.64	5427.70
477.82	5313.02
478.00	5425.36
478.18	5535.37
478.36	5357.49
478.54	5619.63
478.72	5408.98
478.90	5446.43
479.08	5657.07
479.26	5621.97
479.44	5659.42
479.62	5645.37
479.80	5783.46
479.98	5708.57
480.16	5860.70
480.34	5879.43
480.52	6024.54
480.70	5841.98
480.88	5900.49
481.06	6033.90
481.24	5930.92
481.41	6099.44
481.59	6160.29
481.77	6141.57
481.95	6221.14
482.13	6174.33
482.31	6251.57
482.49	6319.45
482.67	6335.83
482.85	6363.92
483.03	6448.18
483.21	6469.24
483.39	6408.39
483.57	6516.05
483.74	6612.01
483.92	6801.60
484.10	6626.06
484.28	6689.25
484.46	6888.20
484.64	6848.41
484.82	6920.96
485.00	6789.89
485.18	7108.21
485.35	7140.97
485.53	7129.27
485.71	7218.21
485.89	7129.27
486.07	7192.47
486.25	7365.67
486.43	7370.35
486.61	7356.30
486.78	7428.86
486.96	7623.12
487.14	7480.35
487.32	7630.15
487.50	7756.54
487.68	7719.09
487.85	7871.22
488.03	7971.86
488.21	8032.72
488.39	7950.80
488.57	7922.71
488.75	8002.29
488.92	8222.30
489.10	8154.43
489.28	8070.17
489.46	8369.76
489.64	8285.50
489.81	8512.53
489.99	8423.59
490.17	8592.11
490.35	8657.64
490.53	8730.20
490.70	8568.70
490.88	8430.61
491.06	8842.54
491.24	8662.32
491.41	8697.43
491.59	8723.18
491.77	8769.99
491.95	8903.40
492.13	9013.40
492.30	8968.93
492.48	8971.27
492.66	8994.68
492.84	8957.23
493.01	9362.14
493.19	9263.84
493.37	9277.88
493.54	9320.01
493.72	9294.27
493.90	9282.56
494.08	9727.27
494.25	9373.85
494.43	9650.03
494.61	9788.12
494.79	9586.83
494.96	9783.44
495.14	9544.70
495.32	9872.38
495.49	10071.33
495.67	10001.11
495.85	10036.22
496.02	9963.66
496.20	9982.38
496.38	10312.40
496.55	10139.20
496.73	10366.23
496.91	10314.74
497.09	10239.84
497.26	10293.68
497.44	10328.78
497.62	10279.63
497.79	10530.07
497.97	10628.37
498.14	10553.48
498.32	10719.65
498.50	10714.97
498.67	10726.68
498.85	10902.22
499.03	10808.59
499.20	10909.24
499.38	11000.52
499.56	10810.93
499.73	11138.61
499.91	10960.73
500.08	10951.37
500.26	10942.00
500.44	11204.14
500.61	11131.59
500.79	11152.65
500.97	11321.17
501.14	11328.19
501.32	11218.19
501.49	11222.87
501.67	11269.68
501.84	11541.18
502.02	11304.79
502.20	11506.07
502.37	11260.32
502.55	11447.56
502.72	11651.19
502.90	11417.13
503.07	11555.22
503.25	11796.30
503.43	11576.29
503.60	11667.57
503.78	11868.86
503.95	11637.14
504.13	11700.34
504.30	12011.63
504.48	11868.86
504.65	11978.86
504.83	12114.61
505.01	12222.28
505.18	11992.90
505.36	12032.69
505.53	12042.06
505.71	11976.52
505.88	12116.95
506.06	12168.45
506.23	12297.17
506.41	12224.62
506.58	12276.11
506.76	12074.82
506.93	12428.24
507.11	12458.67
507.28	12498.46
507.46	12348.67
507.63	12556.97
507.81	12669.32
507.98	12308.88
508.16	12578.04
508.33	12519.53
508.50	12697.41
508.68	12800.39
508.85	12856.56
509.03	12798.05
509.20	12833.16
509.38	12901.03
509.55	13027.42
509.73	13186.58
509.90	13200.62
510.08	13172.54
510.25	13088.28
510.42	12940.82
510.60	13149.13
510.77	13109.34
510.95	12830.82
511.12	13004.02
511.30	13273.18
511.47	13507.23
511.64	13427.65
511.82	13188.92
511.99	13366.80
512.17	13444.04
512.34	13348.08
512.51	13327.01
512.69	13743.63
512.86	13668.73
513.04	13551.70
513.21	13678.09
513.38	13511.91
513.56	13841.93
513.73	13909.80
513.90	13792.78
514.08	13757.67
514.25	14033.85
514.43	13886.40
514.60	14181.31
514.77	13984.70
514.95	13865.33
515.12	14043.21
515.29	14139.18
515.47	14101.73
515.64	14237.48
515.81	14043.21
515.99	14232.80
516.16	14050.24
516.33	14207.05
516.51	14216.41
516.68	14171.94
516.85	14293.65
517.03	14565.15
517.20	14291.31
517.37	14525.36
517.54	14396.64
517.72	14368.55
517.89	14256.20
518.06	14354.51
518.24	14698.56
518.41	14532.39
518.58	14361.53
518.75	14499.62
518.93	14712.61
519.10	14492.60
519.27	14616.65
519.45	14499.62
519.62	14698.56
519.79	14857.72
519.96	14717.29
520.14	14766.44
520.31	14668.14
520.48	14717.29
520.65	14850.70
520.83	15054.33
521.00	15012.20
521.17	15126.88
521.34	15171.35
521.52	15019.22
521.69	15105.82
521.86	15110.50
522.03	14888.15
522.20	15070.71
522.38	15145.61
522.55	15377.32
522.72	15300.08
522.89	15229.87
523.07	15466.26
523.24	15421.79
523.41	15112.84
523.58	15330.51
523.75	15426.47
523.92	15353.91
524.10	15286.04
524.27	15585.63
524.44	15583.29
524.61	15473.28
524.78	15571.58
524.96	15793.94
525.13	15548.18
525.30	15939.05
525.47	15807.98
525.64	15602.01
525.81	15737.76
525.98	15791.59
526.16	15484.98
526.33	15754.15
526.50	15843.09
526.67	15770.53
526.84	15683.93
527.01	15676.91
527.18	15875.85
527.36	15981.18
527.53	15917.98
527.70	16287.79
527.87	15932.03
528.04	16046.71
528.21	16025.65
528.38	16037.35
528.55	16025.65
528.72	15735.42
528.89	16128.63
529.07	16145.02
529.24	16098.20
529.41	16327.58
529.58	16437.58
529.75	16446.94
529.92	16245.66
530.09	16194.17
530.26	16306.51
530.43	16402.47
530.60	16472.69
530.77	16458.65
530.94	16336.94
531.11	16500.78
531.28	16779.30
531.46	16519.50
531.63	16517.16
531.80	16348.64
531.97	16477.37
532.14	16706.74
532.31	16697.38
532.48	16622.48
532.65	16685.68
532.82	17001.65
532.99	16613.12
533.16	16524.18
533.33	16650.57
533.50	16798.02
533.67	16898.67
533.84	16673.98
534.01	16891.65
534.18	17032.08
534.35	17050.80
534.52	16711.42
534.69	16966.54
534.86	17020.38
535.03	16809.73
535.20	16798.02
535.37	17027.40
535.54	17114.00
535.71	16748.87
535.88	17348.05
536.05	17095.27
536.22	17359.75
536.38	17334.01
536.55	17249.75
536.72	17186.55
536.89	17039.10
537.06	17399.54
537.23	17390.18
537.40	17315.28
537.57	17418.27
537.74	17387.84
537.91	17469.76
538.08	17245.07
538.25	17259.11
538.42	17429.97
538.59	17392.52
538.75	17493.16
538.92	17678.07
539.09	17659.34
539.26	17504.87
539.43	17486.14
539.60	17755.30
539.77	17797.43
539.94	17862.97
540.11	17912.12
540.28	18115.75
540.44	17699.13
540.61	17771.69
540.78	17902.76
540.95	17975.31
541.12	18104.04
541.29	18302.99
541.46	17940.21
541.62	18438.74
541.79	18340.44
541.96	18436.40
542.13	18188.30
542.30	18115.75
542.47	18242.14
542.63	18326.39
542.80	18380.23
542.97	18558.11
543.14	18710.24
543.31	18555.77
543.48	18644.71
543.64	18766.42
543.81	18939.62
543.98	18707.90
544.15	18448.10
544.32	18609.60
544.48	18684.50
544.65	18541.72
544.82	18647.05
544.99	18661.09
545.16	18735.99
545.32	18792.16
545.49	19147.92
545.66	19585.60
545.83	19756.46
546.00	19379.64
546.16	19068.34
546.33	19264.95
546.50	19040.26
546.67	19328.14
546.83	18614.28
547.00	18569.81
547.17	18747.69
547.34	18597.90
547.50	18710.24
547.67	18967.70
547.84	18719.60
548.00	18857.70
548.17	18820.25
548.34	18948.98
548.51	18740.67
548.67	18916.21
548.84	18932.59
549.01	19096.43
549.18	19082.39
549.34	18902.17
549.51	18787.48
549.68	19009.83
549.84	18867.06
550.01	18717.26
550.18	18764.07
550.34	18899.83
550.51	18586.19
550.68	19073.03
550.84	18637.69
551.01	19033.24
551.18	18939.62
551.34	18735.99
551.51	18813.23
551.68	18668.11
551.84	18892.80
552.01	18824.93
552.18	19126.86
552.34	19248.57
552.51	19173.67
552.68	19005.15
552.84	19101.11
553.01	19173.67
553.18	18871.74
553.34	19154.94
553.51	19002.81
553.67	18860.04
553.84	19161.97
554.01	19304.74
554.17	18981.74
554.34	19250.91
554.51	19056.64
554.67	19150.26
554.84	19122.18
555.00	19033.24
555.17	18815.57
555.33	19087.07
555.50	19068.34
555.67	19190.05
555.83	19145.58
556.00	19157.28
556.16	19166.65
556.33	19281.33
556.50	19161.97
556.66	19218.14
556.83	19159.63
556.99	19218.14
557.16	19438.15
557.32	19381.98
557.49	19674.54
557.65	19225.16
557.82	19204.10
557.98	19330.48
558.15	19213.46
558.32	19473.26
558.48	19384.32
558.65	19580.92
558.81	19316.44
558.98	19417.08
559.14	19721.35
559.31	19297.72
559.47	19707.31
559.64	19449.85
559.80	19506.02
559.97	19365.59
560.13	19403.04
560.30	19658.16
560.46	19473.26
560.63	19491.98
560.79	19538.79
560.96	19578.58
561.12	19714.33
561.29	19491.98
561.45	19604.33
561.61	19583.26
561.78	19697.95
561.94	19756.46
562.11	19957.75
562.27	19583.26
562.44	20093.50
562.60	19620.71
562.77	19569.22
562.93	19613.69
563.10	19882.85
563.26	19552.84
563.42	19597.31
563.59	19822.00
563.75	19597.31
563.92	19964.77
564.08	19580.92
564.24	19859.45
564.41	19793.91
564.57	19882.85
564.74	19592.62
564.90	19728.38
565.07	19499.00
565.23	20105.20
565.39	19644.12
565.56	19805.61
565.72	19927.32
565.88	19946.05
566.05	19983.49
566.21	19681.56
566.38	19964.77
566.54	19403.04
566.70	19932.00
566.87	20020.94
567.03	20107.54
567.19	20365.00
567.36	19882.85
567.52	19728.38
567.68	19899.23
567.85	19627.73
568.01	19941.36
568.17	19723.69
568.34	19913.28
568.50	19983.49
568.66	19939.02
568.83	19927.32
568.99	19721.35
569.15	19899.23
569.32	19941.36
569.48	19913.28
569.64	20009.24
569.81	19861.79
569.97	19810.29
570.13	19831.36
570.30	19861.79
570.46	19960.09
570.62	20051.37
570.78	19887.53
570.95	19576.24
571.11	20088.82
571.27	19854.76
571.43	19721.35
571.60	19957.75
571.76	19960.09
571.92	19936.68
572.09	19871.15
572.25	20053.71
572.41	20205.84
572.57	20053.71
572.74	20154.35
572.90	20252.66
573.06	19967.11
573.22	19730.72
573.38	20210.53
573.55	19786.89
573.71	20233.93
573.87	19943.70
574.03	19775.19
574.20	20065.41
574.36	20070.09
574.52	19852.42
574.68	20065.41
574.84	19983.49
575.01	20102.86
575.17	20341.60
575.33	19964.77
575.49	20063.07
575.65	20009.24
575.82	20114.56
575.98	20114.56
576.14	20250.32
576.30	20285.42
576.46	20395.43
576.62	20299.47
576.79	20442.24
576.95	20166.06
577.11	20236.27
577.27	20072.43
577.43	20002.22
577.59	20102.86
577.75	20058.39
577.92	19917.96
578.08	19871.15
578.24	19803.27
578.40	20566.29
578.56	20304.15
578.72	20442.24
578.88	20222.23
579.04	20189.46
579.21	19983.49
579.37	20152.01
579.53	20311.17
579.69	20336.91
579.85	19950.73
580.01	20034.99
580.17	20119.24
580.33	20109.88
580.49	20074.77
580.65	20056.05
580.82	20077.12
580.98	19992.86
581.14	20053.71
581.30	20236.27
581.46	20247.97
581.62	19775.19
581.78	20210.53
581.94	20421.17
582.10	19791.57
582.26	20091.16
582.42	20456.28
582.58	20030.30
582.74	20222.23
582.90	20610.76
583.06	20163.72
583.22	20086.48
583.38	20128.61
583.54	20264.36
583.70	20315.85
583.86	19999.88
584.02	20217.55
584.18	20189.46
584.34	20545.22
584.50	20065.41
584.66	20063.07
584.82	20236.27
584.98	20350.96
585.14	19950.73
585.30	20262.02
585.46	19934.34
585.62	20184.78
585.78	20290.10
585.94	20203.50
586.10	20446.92
586.26	20306.49
586.42	20528.84
586.58	20264.36
586.74	20301.81
586.90	20414.15
587.06	20308.83
587.22	20491.39
587.38	20875.24
587.54	20346.28
587.70	20549.90
587.86	20467.98
588.02	20203.50
588.18	20563.95
588.34	20318.19
588.49	20463.30
588.65	20365.00
588.81	20053.71
588.97	20369.68
589.13	20350.96
589.29	20386.07
589.45	20100.52
589.61	20285.42
589.77	20655.23
589.93	20297.13
590.08	20271.38
590.24	20465.64
590.40	20390.75
590.56	20643.52
590.72	20365.00
590.88	20184.78
591.04	20215.21
591.20	20322.87
591.35	20552.24
