SpectraSuite Data File
++++++++++++++++++++++++++++++++++++
Date: Thu Oct 24 13:21:22 EDT 2013
User: stostad
Dark Spectrum Present: No
Reference Spectrum Present: No
Number of Sampled Component Spectra: 1
Spectrometers: USB2+H05261
Integration Time (usec): 100000 (USB2+H05261)
Spectra Averaged: 1 (USB2+H05261)
Boxcar Smoothing: 0 (USB2+H05261)
Correct for Electrical Dark: No (USB2+H05261)
Strobe/Lamp Enabled: No (USB2+H05261)
Correct for Detector Non-linearity: No (USB2+H05261)
Correct for Stray Light: No (USB2+H05261)
Number of Pixels in Processed Spectrum: 2048
>>>>>Begin Processed Spectral Data<<<<<
365.73	582.79
365.92	582.79
366.12	582.79
366.32	543.00
366.52	498.53
366.72	496.19
366.91	353.42
367.11	477.47
367.31	435.34
367.51	430.66
367.70	418.96
367.90	416.62
368.10	510.24
368.30	491.51
368.49	435.34
368.69	521.94
368.89	580.45
369.09	468.11
369.28	435.34
369.48	496.19
369.68	521.94
369.87	566.41
370.07	552.37
370.27	475.13
370.47	674.07
370.66	823.87
370.86	851.96
371.06	922.17
371.25	887.06
371.45	910.47
371.65	915.15
371.84	994.73
372.04	889.40
372.24	997.07
372.44	957.28
372.63	964.30
372.83	1029.84
373.03	922.17
373.22	910.47
373.42	980.68
373.62	976.00
373.81	980.68
374.01	1008.77
374.21	1067.28
374.40	1011.11
374.60	997.07
374.79	1048.56
374.99	1071.97
375.19	1036.86
375.38	1048.56
375.58	1029.84
375.78	1057.92
375.97	1043.88
376.17	1170.27
376.37	1090.69
376.56	1067.28
376.76	1086.01
376.95	1032.18
377.15	1053.24
377.35	994.73
377.54	1109.41
377.74	1137.50
377.93	1090.69
378.13	1123.46
378.33	1128.14
378.52	1069.62
378.72	1142.18
378.91	1146.86
379.11	1097.71
379.31	1139.84
379.50	1104.73
379.70	1172.61
379.89	1132.82
380.09	1160.91
380.28	1139.84
380.48	1217.08
380.68	1114.10
380.87	1205.38
381.07	1226.44
381.26	1198.35
381.46	1198.35
381.65	1203.04
381.85	1228.78
382.04	1163.25
382.24	1289.64
382.43	1235.80
382.63	1130.48
382.83	1247.51
383.02	1317.72
383.22	1256.87
383.41	1273.25
383.61	1174.95
383.80	1336.45
384.00	1287.29
384.19	1238.14
384.39	1280.27
384.58	1240.48
384.78	1210.06
384.97	1296.66
385.17	1320.06
385.36	1207.72
385.56	1277.93
385.75	1289.64
385.95	1266.23
386.14	1376.24
386.34	1238.14
386.53	1345.81
386.72	1310.70
386.92	1338.79
387.11	1266.23
387.31	1446.45
387.50	1245.16
387.70	1369.21
387.89	1366.87
388.09	1411.34
388.28	1345.81
388.48	1357.51
388.67	1362.19
388.86	1362.19
389.06	1462.83
389.25	1437.09
389.45	1376.24
389.64	1416.02
389.84	1394.96
390.03	1537.73
390.22	1441.77
390.42	1425.39
390.61	1425.39
390.81	1425.39
391.00	1432.41
391.19	1495.60
391.39	1458.15
391.58	1540.07
391.78	1504.96
391.97	1591.56
392.16	1500.28
392.36	1610.29
392.55	1483.90
392.75	1612.63
392.94	1514.33
393.13	1526.03
393.33	1504.96
393.52	1638.38
393.71	1493.26
393.91	1664.12
394.10	1732.00
394.29	1652.42
394.49	1556.46
394.68	1647.74
394.88	1689.87
395.07	1757.74
395.26	1696.89
395.46	1703.91
395.65	1675.82
395.84	1685.19
396.04	1732.00
396.23	1692.21
396.42	1734.34
396.62	1799.87
396.81	1834.98
397.00	1764.76
397.19	1729.66
397.39	1713.27
397.58	1888.81
397.77	1703.91
397.97	1849.02
398.16	1802.21
398.35	1895.83
398.55	1769.44
398.74	1837.32
398.93	1933.28
399.12	1874.77
399.32	1720.29
399.51	1797.53
399.70	1973.07
399.90	1952.01
400.09	1926.26
400.28	1935.62
400.47	1970.73
400.67	1973.07
400.86	2029.24
401.05	1970.73
401.24	2054.99
401.44	1980.09
401.63	2092.44
401.82	2064.35
402.01	2115.84
402.21	2076.06
402.40	2064.35
402.59	2129.89
402.78	2045.63
402.97	2165.00
403.17	2090.10
403.36	2195.42
403.55	2228.19
403.74	2165.00
403.93	2342.88
404.13	2303.09
404.32	2296.07
404.51	2270.32
404.70	2267.98
404.89	2216.49
405.09	2342.88
405.28	2321.81
405.47	2298.41
405.66	2392.03
405.85	2242.23
406.05	2333.51
406.24	2516.08
406.43	2431.82
406.62	2375.64
406.81	2504.37
407.00	2300.75
407.20	2314.79
407.39	2462.24
407.58	2572.25
407.77	2490.33
407.96	2518.42
408.15	2635.44
408.34	2548.84
408.54	2612.04
408.73	2485.65
408.92	2588.63
409.11	2476.29
409.30	2635.44
409.49	2696.30
409.68	2572.25
409.87	2691.62
410.07	2717.36
410.26	2775.88
410.45	2773.53
410.64	2764.17
410.83	2764.17
411.02	2799.28
411.21	2808.64
411.40	2855.45
411.59	2850.77
411.78	2850.77
411.98	2904.60
412.17	2827.37
412.36	3059.08
412.55	3056.74
412.74	3030.99
412.93	3049.72
413.12	3040.36
413.31	3110.57
413.50	3166.74
413.69	3148.02
413.88	3194.83
414.07	3295.47
414.26	3166.74
414.45	3258.03
414.64	3262.71
414.83	3400.80
415.02	3314.20
415.22	3337.60
415.41	3428.88
415.60	3414.84
415.79	3442.93
415.98	3384.41
416.17	3569.32
416.36	3454.63
416.55	3421.86
416.74	3641.87
416.93	3569.32
417.12	3684.00
417.31	3754.22
417.50	3653.58
417.69	3646.55
417.88	3747.20
418.07	3625.49
418.26	3639.53
418.45	3658.26
418.64	3815.07
418.83	3796.35
419.02	3681.66
419.21	3978.91
419.39	3866.56
419.58	3756.56
419.77	3927.42
419.96	4030.40
420.15	3953.16
420.34	3957.85
420.53	3882.95
420.72	4028.06
420.91	3967.21
421.10	4030.40
421.29	4152.11
421.48	4084.23
421.67	4074.87
421.86	4009.34
422.05	4039.76
422.24	4131.05
422.43	4280.84
422.61	4241.05
422.80	4173.18
422.99	4173.18
423.18	4184.88
423.37	4236.37
423.56	4238.71
423.75	4355.74
423.94	4056.15
424.13	3866.56
424.32	4035.08
424.50	4236.37
424.69	4241.05
424.88	4283.18
425.07	4299.56
425.26	4168.49
425.45	4313.61
425.64	4145.09
425.83	4231.69
426.01	4306.59
426.20	4344.03
426.39	4367.44
426.58	4308.93
426.77	4271.48
426.96	4227.01
427.15	4437.66
427.33	4327.65
427.52	4285.52
427.71	4475.10
427.90	4365.10
428.09	4421.27
428.28	4322.97
428.46	4596.81
428.65	4507.87
428.84	4617.88
429.03	4575.75
429.22	4610.86
429.40	4622.56
429.59	4489.15
429.78	4437.66
429.97	4531.28
430.16	4554.68
430.34	4634.26
430.53	4650.64
430.72	4681.07
430.91	4844.91
431.10	4739.58
431.28	4929.17
431.47	5008.75
431.66	4940.87
431.85	4847.25
432.03	4905.76
432.22	5036.83
432.41	5069.60
432.60	4992.36
432.79	4854.27
432.97	4994.70
433.16	5022.79
433.35	4992.36
433.54	5018.11
433.72	5095.35
433.91	5097.69
434.10	5041.51
434.28	5109.39
434.47	5104.71
434.66	5310.68
434.85	5200.67
435.03	5373.87
435.22	5497.92
435.41	5579.84
435.59	5385.57
435.78	5446.43
435.97	5556.43
436.16	5383.23
436.34	5439.40
436.53	5345.78
436.72	5439.40
436.90	5327.06
437.09	5502.60
437.28	5462.81
437.46	5411.32
437.65	5603.24
437.84	5610.26
438.02	5722.61
438.21	5547.07
438.40	5476.85
438.58	5659.42
438.77	5701.54
438.96	5818.57
439.14	5867.72
439.33	5872.40
439.52	5973.05
439.70	5998.79
439.89	6047.94
440.08	6015.18
440.26	5975.39
440.45	6061.99
440.63	6036.24
440.82	6186.04
441.01	6106.46
441.19	6223.48
441.38	6342.85
441.57	6436.47
441.75	6408.39
441.94	6417.75
442.12	6532.44
442.31	6448.18
442.50	6448.18
442.68	6377.96
442.87	6471.58
443.05	6494.99
443.24	6656.48
443.43	6457.54
443.61	6827.34
443.80	6857.77
443.98	6623.72
444.17	6375.62
444.35	6534.78
444.54	6705.63
444.73	6750.10
444.91	6785.21
445.10	6750.10
445.28	6771.17
445.47	6703.29
445.65	6808.62
445.84	6841.39
446.02	6759.47
446.21	6841.39
446.39	6754.79
446.58	6857.77
446.77	6906.92
446.95	6808.62
447.14	6937.35
447.32	7199.49
447.51	6909.26
447.69	6890.54
447.88	6836.70
448.06	7026.29
448.25	6965.43
448.43	7030.97
448.62	6836.70
448.80	7096.50
448.99	7126.93
449.17	7162.04
449.36	6956.07
449.54	7115.23
449.73	7138.63
449.91	7372.69
450.10	7119.91
450.28	7536.52
450.46	7513.12
450.65	7054.37
450.83	7325.88
451.02	7426.52
451.20	7503.76
451.39	7318.86
451.57	7377.37
451.76	7396.09
451.94	7485.03
452.13	7536.52
452.31	7412.48
452.49	7440.56
452.68	7508.44
452.86	7581.00
453.05	7604.40
453.23	7726.11
453.42	7349.28
453.60	7545.89
453.78	7480.35
453.97	7627.81
454.15	7630.15
454.34	7590.36
454.52	7777.60
454.70	7812.71
454.89	7908.67
455.07	7903.99
455.26	7798.66
455.44	7882.92
455.62	7866.54
455.81	8128.68
455.99	8030.38
456.17	8028.04
456.36	8161.45
456.54	8170.81
456.73	8248.05
456.91	8507.85
457.09	8465.72
457.28	8243.37
457.46	8322.94
457.64	8468.06
457.83	8521.89
458.01	8507.85
458.19	8535.93
458.38	8435.29
458.56	8648.28
458.74	8636.58
458.93	8652.96
459.11	8465.72
459.29	8376.78
459.48	8617.85
459.66	8641.26
459.84	8610.83
460.03	9083.62
460.21	8884.67
460.39	8814.46
460.57	8812.12
460.76	8950.21
460.94	8861.27
461.12	8730.20
461.31	8887.01
461.49	8952.55
461.67	8903.40
461.85	8872.97
462.04	9139.79
462.22	9542.36
462.40	9376.19
462.59	9132.77
462.77	9156.18
462.95	9280.22
463.13	9188.94
463.32	9151.49
463.50	9439.38
463.68	9224.05
463.86	9474.49
464.05	9179.58
464.23	9270.86
464.41	9308.31
464.59	9174.90
464.78	9645.35
464.96	9404.27
465.14	9453.42
465.32	9273.20
465.50	9591.52
465.69	9720.24
465.87	9589.17
466.05	9446.40
466.23	9902.81
466.41	9621.94
466.60	9860.68
466.78	9544.70
466.96	9542.36
467.14	9682.80
467.32	9668.75
467.51	9944.94
467.69	9769.40
467.87	9664.07
468.05	9856.00
468.23	9748.33
468.41	9954.30
468.60	10010.47
468.78	10080.69
468.96	10024.51
469.14	10186.01
469.32	10317.08
469.50	10043.24
469.69	10188.35
469.87	10225.80
470.05	10436.45
470.23	10434.11
470.41	10349.85
470.59	10399.00
470.77	10401.34
470.95	10651.78
471.14	10848.38
471.32	10415.38
471.50	10752.42
471.68	10712.63
471.86	10649.44
472.04	10799.23
472.22	11122.23
472.40	10719.65
472.58	10944.34
472.77	11136.27
472.95	11030.94
473.13	11669.91
473.31	11023.92
473.49	11232.23
473.67	11030.94
473.85	11367.98
474.03	11468.62
474.21	11705.02
474.39	11363.30
474.57	11559.91
474.75	11733.11
474.93	11861.84
475.12	11564.59
475.30	12035.03
475.48	11908.65
475.66	11859.49
475.84	11976.52
476.02	12067.80
476.20	12219.94
476.38	12121.63
476.56	12379.09
476.74	12500.80
476.92	12465.69
477.10	12362.71
477.28	12533.57
477.46	12718.47
477.64	12737.20
477.82	12762.94
478.00	13458.08
478.18	13130.41
478.36	13224.03
478.54	13397.23
478.72	13177.22
478.90	13638.30
479.08	13654.69
479.26	13804.48
479.44	13844.27
479.62	13799.80
479.80	14036.19
479.98	14274.93
480.16	14494.94
480.34	14141.52
480.52	14382.59
480.70	14527.71
480.88	14588.56
481.06	14754.74
481.24	14745.38
481.41	14857.72
481.59	15140.93
481.77	15169.01
481.95	15089.43
482.13	15140.93
482.31	15222.84
482.49	15484.98
482.67	15613.71
482.85	15887.56
483.03	16020.97
483.21	16290.13
483.39	16439.92
483.57	16074.80
483.74	16362.69
483.92	16533.54
484.10	16465.67
484.28	17029.74
484.46	16966.54
484.64	17619.55
484.82	17041.44
485.00	17184.21
485.18	17860.63
485.35	17858.29
485.53	17869.99
485.71	18057.23
485.89	18335.76
486.07	18167.24
486.25	18228.09
486.43	18209.37
486.61	18398.95
486.78	19026.21
486.96	19063.66
487.14	19363.25
487.32	18937.27
487.50	19307.08
487.68	19590.28
487.85	19594.96
488.03	20006.90
488.21	19934.34
488.39	19978.81
488.57	20264.36
488.75	20346.28
488.92	20631.82
489.10	20760.55
489.28	20889.28
489.46	20947.79
489.64	20751.19
489.81	21317.60
489.99	21259.09
490.17	21717.83
490.35	21825.50
490.53	21654.64
490.70	22171.89
490.88	21986.99
491.06	22253.81
491.24	22305.31
491.41	22349.78
491.59	22576.81
491.77	22829.59
491.95	23220.45
492.13	23103.43
492.30	22944.27
492.48	23316.42
492.66	23431.10
492.84	23655.79
493.01	23728.35
493.19	23676.86
493.37	23814.95
493.54	23906.23
493.72	24032.62
493.90	24428.17
494.08	24308.80
494.25	24638.82
494.43	24734.78
494.61	24947.77
494.79	24877.55
494.96	24837.76
495.14	24933.73
495.32	25467.37
495.49	25715.47
495.67	25809.09
495.85	25891.01
496.02	25802.07
496.20	25956.54
496.38	26349.75
496.55	26431.67
496.73	26623.59
496.91	26551.04
497.09	26845.94
497.26	26771.05
497.44	26810.84
497.62	27026.17
497.79	27213.41
497.97	26984.04
498.14	27985.79
498.32	28154.30
498.50	28025.57
498.67	28276.01
498.85	28016.21
499.03	27999.83
499.20	28367.29
499.38	28362.61
499.56	28315.80
499.73	28659.86
499.91	28404.74
500.08	29008.60
500.26	28856.46
500.44	29331.59
500.61	29186.48
500.79	29003.92
500.97	29488.41
501.14	29984.60
501.32	29605.44
501.49	29415.85
501.67	29736.51
501.84	29865.24
502.02	30274.83
502.20	30497.18
502.37	30113.33
502.55	30134.40
502.72	30345.05
502.90	30300.58
503.07	30429.30
503.25	30637.61
503.43	30682.08
503.60	30771.02
503.78	30888.05
503.95	30838.90
504.13	30897.41
504.30	31037.84
504.48	31182.96
504.65	31702.56
504.83	31835.97
505.01	32067.68
505.18	31452.12
505.36	32517.06
505.53	31606.59
505.71	31395.95
505.88	32278.33
506.06	31887.46
506.23	32229.18
506.41	32325.14
506.58	32346.20
506.76	32275.99
506.93	32643.45
507.11	32657.49
507.28	33057.73
507.46	32807.29
507.63	32936.02
507.81	33270.72
507.98	32797.93
508.16	33216.88
508.33	33095.18
508.50	33654.56
508.68	33453.28
508.85	33937.77
509.03	33881.60
509.20	33628.82
509.38	34274.80
509.55	34125.01
509.73	34314.59
509.90	34494.82
510.08	34490.13
510.25	34263.10
510.42	34771.00
510.60	34976.97
510.77	34756.96
510.95	35009.73
511.12	34991.01
511.30	35316.34
511.47	35440.39
511.64	35306.98
511.82	35646.36
511.99	35220.38
512.17	35526.99
512.34	35477.84
512.51	35601.89
512.69	35477.84
512.86	36109.78
513.04	36341.50
513.21	35952.97
513.38	36177.66
513.56	36048.93
513.73	36332.14
513.90	36531.08
514.08	36254.90
514.25	36912.59
514.43	36933.65
514.60	36989.83
514.77	36877.48
514.95	36980.46
515.12	36708.96
515.29	37291.76
515.47	37567.94
515.64	37736.46
515.81	37603.05
515.99	37598.37
516.16	37457.93
516.33	37474.32
516.51	37848.80
516.68	37691.99
516.85	37986.89
517.03	37998.60
517.20	37919.02
517.37	37965.83
517.54	38040.73
517.72	38132.01
517.89	38176.48
518.06	38387.13
518.24	38410.53
518.41	38490.11
518.58	38609.48
518.75	37996.26
518.93	38813.10
519.10	38958.22
519.27	38656.29
519.45	38836.51
519.62	39299.94
519.79	39079.92
519.96	39442.71
520.14	39306.96
520.31	39222.70
520.48	39253.12
520.65	39164.18
520.83	39693.15
521.00	39943.58
521.17	39690.80
521.34	39814.85
521.52	39803.15
521.69	39665.06
521.86	39662.72
522.03	39957.63
522.20	40121.46
522.38	40371.90
522.55	40505.31
522.72	40477.22
522.89	40837.67
523.07	40842.35
523.24	40666.81
523.41	41310.46
523.58	40514.67
523.75	41181.73
523.92	41345.56
524.10	41242.58
524.27	41338.54
524.44	41273.01
524.61	41518.76
524.78	41586.64
524.96	41163.00
525.13	41457.91
525.30	41886.23
525.47	41329.18
525.64	41748.14
525.81	42113.26
525.98	41975.17
526.16	41916.65
526.33	42021.98
526.50	42579.03
526.67	41858.14
526.84	42497.11
527.01	42433.91
527.18	41649.83
527.36	42600.09
527.53	42752.23
527.70	42909.04
527.87	42834.14
528.04	42820.10
528.21	42850.53
528.38	43115.01
528.55	42986.28
528.72	43012.02
528.89	42801.38
529.07	43100.97
529.24	43037.77
529.41	43386.51
529.58	43576.09
529.75	42960.53
529.92	43407.58
530.09	42862.23
530.26	43463.75
530.43	43217.99
530.60	43557.37
530.77	43821.85
530.94	44039.52
531.11	43608.86
531.28	43613.54
531.46	43990.37
531.63	43608.86
531.80	43861.64
531.97	43999.73
532.14	44093.35
532.31	44357.83
532.48	44589.55
532.65	44519.33
532.82	44027.82
532.99	44329.75
533.16	44629.34
533.33	45102.12
533.50	45078.72
533.67	44924.24
533.84	44669.12
534.01	44664.44
534.18	44905.52
534.35	45518.74
534.52	45441.50
534.69	45137.23
534.86	44898.50
535.03	45083.40
535.20	44933.60
535.37	45485.97
535.54	45736.41
535.71	45537.46
535.88	45162.98
536.05	45422.78
536.22	45682.58
536.38	46000.89
536.55	45811.31
536.72	45907.27
536.89	46036.00
537.06	45577.25
537.23	46148.34
537.40	46267.71
537.57	46321.54
537.74	46143.66
537.91	46031.32
538.08	46213.88
538.25	46054.72
538.42	46377.72
538.59	46836.46
538.75	46054.72
538.92	46403.46
539.09	46869.23
539.26	46567.30
539.43	46593.04
539.60	46670.28
539.77	46974.55
539.94	47295.21
540.11	47138.39
540.28	46960.51
540.44	47105.62
540.61	46883.27
540.78	47196.90
540.95	47175.84
541.12	47168.82
541.29	47061.15
541.46	47800.76
541.62	48009.07
541.79	47854.59
541.96	47208.61
542.13	47346.70
542.30	47494.15
542.47	47660.33
542.63	47906.08
542.80	47971.62
542.97	48116.73
543.14	48357.81
543.31	48334.40
543.48	48367.17
543.64	48369.51
543.81	48254.82
543.98	48179.93
544.15	48233.76
544.32	48662.08
544.48	48830.60
544.65	48205.67
544.82	48470.15
544.99	48458.45
545.16	48666.76
545.32	48278.23
545.49	48783.79
545.66	49413.39
545.83	49139.55
546.00	49354.88
546.16	49261.26
546.33	49132.53
546.50	48671.44
546.67	49132.53
546.83	48626.97
547.00	48832.94
547.17	48519.31
547.34	49195.72
547.50	48931.24
547.67	49703.62
547.84	49485.95
548.00	49830.01
548.17	49703.62
548.34	49427.43
548.51	49350.20
548.67	49385.30
548.84	49851.07
549.01	49287.00
549.18	49595.95
549.34	49153.59
549.51	49673.19
549.68	49808.94
549.84	49523.40
550.01	49839.37
550.18	49364.24
550.34	49528.08
550.51	49504.67
550.68	49560.84
550.84	49907.24
551.01	50129.59
551.18	50019.59
551.34	49661.49
551.51	49893.20
551.68	50188.11
551.84	49874.48
552.01	49846.39
552.18	49701.28
552.34	50000.86
552.51	50349.60
552.68	50255.98
552.84	50377.69
553.01	50365.99
553.18	50478.33
553.34	50277.05
553.51	50014.91
553.67	50361.31
553.84	50733.45
554.01	50632.81
554.17	50419.82
554.34	50450.25
554.51	50480.67
554.67	50679.62
554.84	50511.10
555.00	50354.29
555.17	50330.88
555.33	50639.83
555.50	50358.97
555.67	50768.56
555.83	50632.81
556.00	51110.28
556.16	51009.64
556.33	50848.14
556.50	50571.96
556.66	50831.75
556.83	50574.30
556.99	50845.80
557.16	51047.08
557.32	51213.26
557.49	51154.75
557.65	51437.95
557.82	51131.34
557.98	50890.27
558.15	51054.11
558.32	50901.97
558.48	50958.14
558.65	51332.63
558.81	51009.64
558.98	51545.62
559.14	51262.41
559.31	51306.88
559.47	51269.43
559.64	51608.81
559.80	51253.05
559.97	51309.22
560.13	50906.65
560.30	51557.32
560.46	51700.09
560.63	51613.49
560.79	51758.61
560.96	51852.23
561.12	51547.96
561.29	51849.89
561.45	51119.64
561.61	51672.01
561.78	51566.68
561.94	51835.84
562.11	51976.28
562.27	52179.90
562.44	51695.41
562.60	51746.90
562.77	52250.12
562.93	51653.28
563.10	52009.04
563.26	51082.19
563.42	51992.66
563.59	51779.67
563.75	51973.94
563.92	51798.40
564.08	51777.33
564.24	52051.17
564.41	51873.29
564.57	52023.09
564.74	51522.21
564.90	52093.30
565.07	52128.41
565.23	51952.87
565.39	51983.30
565.56	52519.28
565.72	52275.87
565.88	52109.69
566.05	52168.20
566.21	51938.83
566.38	52044.15
566.54	51777.33
566.70	52067.56
566.87	52313.31
567.03	52306.29
567.19	52781.42
567.36	52376.51
567.52	52240.76
567.68	52121.39
567.85	52528.64
568.01	52409.28
568.17	52212.67
568.34	52039.47
568.50	52582.48
568.66	52247.78
568.83	52626.95
568.99	52149.48
569.15	52294.59
569.32	52395.23
569.48	52044.15
569.64	52346.08
569.81	52051.17
569.97	52203.31
570.13	52425.66
570.30	52325.02
570.46	52315.65
570.62	52303.95
570.78	52341.40
570.95	52580.13
571.11	52631.63
571.27	52243.10
571.43	52179.90
571.60	52320.34
571.76	52332.04
571.92	52364.81
572.09	52385.87
572.25	52711.20
572.41	52931.22
572.57	52687.80
572.74	52903.13
572.90	52636.31
573.06	52870.36
573.22	52402.25
573.38	52603.54
573.55	52327.36
573.71	52989.73
573.87	52577.79
574.03	52741.63
574.20	52521.62
574.36	52650.35
574.52	52655.03
574.68	52701.84
574.84	52680.78
575.01	52842.27
575.17	52949.94
575.33	52856.32
575.49	52629.29
575.65	52865.68
575.82	52779.08
575.98	53024.84
576.14	53062.29
576.30	53059.94
576.46	52659.71
576.62	52713.55
576.79	52650.35
576.95	52800.15
577.11	53153.57
577.27	52837.59
577.43	52839.93
577.59	53015.47
577.75	53024.84
577.92	52842.27
578.08	52446.72
578.24	52669.08
578.40	53127.82
578.56	52830.57
578.72	52893.77
578.88	52968.66
579.04	53174.63
579.21	52788.44
579.37	52942.92
579.53	53034.20
579.69	52720.57
579.85	52523.96
580.01	52786.10
580.17	53109.10
580.33	52694.82
580.49	53153.57
580.65	53097.39
580.82	53038.88
580.98	53041.22
581.14	52989.73
581.30	53078.67
581.46	53071.65
581.62	52830.57
581.78	53031.86
581.94	52898.45
582.10	52912.49
582.26	53144.20
582.42	53153.57
582.58	52879.72
582.74	53113.78
582.90	53169.95
583.06	53085.69
583.22	53174.63
583.38	53319.74
583.54	52921.85
583.70	52868.02
583.86	53174.63
584.02	53052.92
584.18	53432.09
584.34	53045.90
584.50	53235.48
584.66	53120.80
584.82	52788.44
584.98	53228.46
585.14	53055.26
585.30	52879.72
585.46	53191.01
585.62	52994.41
585.78	53139.52
585.94	53200.38
586.10	53174.63
586.26	53118.46
586.42	53221.44
586.58	53073.99
586.74	53127.82
586.90	53396.98
587.06	52856.32
587.22	53352.51
587.38	53329.11
587.54	53366.55
587.70	53624.01
587.86	53375.92
588.02	53296.34
588.18	53542.10
588.34	53539.75
588.49	53305.70
588.65	53176.97
588.81	53029.52
