SpectraSuite Data File
++++++++++++++++++++++++++++++++++++
Date: Thu Oct 24 13:21:29 EDT 2013
User: stostad
Dark Spectrum Present: No
Reference Spectrum Present: No
Number of Sampled Component Spectra: 1
Spectrometers: USB2+H05261
Integration Time (usec): 100000 (USB2+H05261)
Spectra Averaged: 1 (USB2+H05261)
Boxcar Smoothing: 0 (USB2+H05261)
Correct for Electrical Dark: No (USB2+H05261)
Strobe/Lamp Enabled: No (USB2+H05261)
Correct for Detector Non-linearity: No (USB2+H05261)
Correct for Stray Light: No (USB2+H05261)
Number of Pixels in Processed Spectrum: 2048
>>>>>Begin Processed Spectral Data<<<<<
365.73	528.96
365.92	528.96
366.12	528.96
366.32	491.51
366.52	531.30
366.72	486.83
366.91	503.22
367.11	407.25
367.31	409.59
367.51	496.19
367.70	505.56
367.90	514.92
368.10	423.64
368.30	496.19
368.49	435.34
368.69	552.37
368.89	463.43
369.09	496.19
369.28	533.64
369.48	496.19
369.68	496.19
369.87	526.62
370.07	547.69
370.27	535.98
370.47	676.41
370.66	1013.45
370.86	1034.52
371.06	1015.79
371.25	1043.88
371.45	1149.20
371.65	1142.18
371.84	966.64
372.04	1078.99
372.24	1104.73
372.44	1200.69
372.63	1142.18
372.83	1210.06
373.03	1196.01
373.22	1193.67
373.42	1254.53
373.62	1221.76
373.81	1158.57
374.01	1299.00
374.21	1224.10
374.40	1233.46
374.60	1294.32
374.79	1294.32
374.99	1261.55
375.19	1275.59
375.38	1259.21
375.58	1320.06
375.78	1355.17
375.97	1249.85
376.17	1359.85
376.37	1296.66
376.56	1380.92
376.76	1275.59
376.95	1306.02
377.15	1355.17
377.35	1341.13
377.54	1364.53
377.74	1385.60
377.93	1383.26
378.13	1315.38
378.33	1425.39
378.52	1439.43
378.72	1437.09
378.91	1495.60
379.11	1359.85
379.31	1383.26
379.50	1507.30
379.70	1451.13
379.89	1502.62
380.09	1495.60
380.28	1434.75
380.48	1589.22
380.68	1472.20
380.87	1521.35
381.07	1497.94
381.26	1373.89
381.46	1488.58
381.65	1544.75
381.85	1549.43
382.04	1451.13
382.24	1507.30
382.43	1507.30
382.63	1535.39
382.83	1570.50
383.02	1582.20
383.22	1640.72
383.41	1612.63
383.61	1589.22
383.80	1666.46
384.00	1589.22
384.19	1600.93
384.39	1619.65
384.58	1710.93
384.78	1668.80
384.97	1668.80
385.17	1577.52
385.36	1687.53
385.56	1708.59
385.75	1650.08
385.95	1654.76
386.14	1696.89
386.34	1743.70
386.53	1701.57
386.72	1650.08
386.92	1884.13
387.11	1771.79
387.31	1811.57
387.50	1748.38
387.70	1813.92
387.89	1743.70
388.09	1774.13
388.28	1863.07
388.48	1863.07
388.67	1877.11
388.86	1853.70
389.06	1881.79
389.25	1872.43
389.45	1891.15
389.64	1849.02
389.84	1914.56
390.03	1914.56
390.22	1961.37
390.42	1893.49
390.61	1980.09
390.81	2040.95
391.00	1907.54
391.19	1984.77
391.39	2071.37
391.58	2064.35
391.78	1996.48
391.97	2015.20
392.16	1973.07
392.36	2118.18
392.55	2125.21
392.75	2019.88
392.94	2143.93
393.13	2108.82
393.33	2162.66
393.52	2162.66
393.71	2211.81
393.91	2122.87
394.10	2207.13
394.29	2221.17
394.49	2188.40
394.68	2244.57
394.88	2300.75
395.07	2244.57
395.26	2303.09
395.46	2296.07
395.65	2235.21
395.84	2319.47
396.04	2506.71
396.23	2471.61
396.42	2349.90
396.62	2389.69
396.81	2495.01
397.00	2363.94
397.19	2307.77
397.39	2431.82
397.58	2541.82
397.77	2408.41
397.97	2541.82
398.16	2464.58
398.35	2506.71
398.55	2509.05
398.74	2445.86
398.93	2651.83
399.12	2490.33
399.32	2576.93
399.51	2583.95
399.70	2640.12
399.90	2628.42
400.09	2630.76
400.28	2686.94
400.47	2729.06
400.67	2689.28
400.86	2691.62
401.05	2761.83
401.24	2834.39
401.44	2787.58
401.63	2810.98
401.82	2670.55
402.01	2815.66
402.21	2759.49
402.40	2825.03
402.59	2822.69
402.78	2930.35
402.97	2869.50
403.17	3023.97
403.36	2977.16
403.55	2949.08
403.74	2967.80
403.93	3084.83
404.13	3136.32
404.32	3133.98
404.51	3077.80
404.70	3290.79
404.89	3169.09
405.09	3206.53
405.28	3208.87
405.47	3192.49
405.66	3248.66
405.85	3382.07
406.05	3199.51
406.24	3297.81
406.43	3403.14
406.62	3489.74
406.81	3449.95
407.00	3330.58
407.20	3346.97
407.39	3473.36
407.58	3372.71
407.77	3517.83
407.96	3534.21
408.15	3471.01
408.34	3463.99
408.54	3604.42
408.73	3592.72
408.92	3644.21
409.11	3651.24
409.30	3681.66
409.49	3782.31
409.68	3698.05
409.87	3712.09
410.07	3911.04
410.26	3768.26
410.45	3782.31
410.64	3892.31
410.83	3868.91
411.02	3953.16
411.21	4086.58
411.40	3908.69
411.59	4152.11
411.78	4095.94
411.98	3943.80
412.17	4205.94
412.36	4259.78
412.55	4236.37
412.74	4334.67
412.93	4329.99
413.12	4102.96
413.31	4311.27
413.50	4409.57
413.69	4341.69
413.88	4379.14
414.07	4325.31
414.26	4587.45
414.45	4498.51
414.64	4566.39
414.83	4662.35
415.02	4800.44
415.22	4664.69
415.41	4837.89
415.60	4830.87
415.79	4997.04
415.98	4753.63
416.17	4905.76
416.36	4842.57
416.55	4936.19
416.74	4990.02
416.93	5015.77
417.12	5011.09
417.31	5226.42
417.50	5217.05
417.69	5380.89
417.88	5280.25
418.07	5191.31
418.26	5205.35
418.45	5392.59
418.64	5462.81
418.83	5500.26
419.02	5418.34
419.21	5425.36
419.39	5481.53
419.58	5427.70
419.77	5282.59
419.96	5514.30
420.15	5570.48
420.34	5472.17
420.53	5755.38
420.72	5617.29
420.91	5628.99
421.10	5837.30
421.29	5863.04
421.48	5596.22
421.67	5731.97
421.86	5734.31
422.05	5832.62
422.24	5891.13
422.43	5832.62
422.61	5841.98
422.80	6069.01
422.99	5860.70
423.18	5877.09
423.37	6015.18
423.56	5933.26
423.75	5884.11
423.94	5935.60
424.13	5628.99
424.32	5795.17
424.50	6120.50
424.69	6125.18
424.88	6160.29
425.07	6031.56
425.26	6003.47
425.45	5961.34
425.64	5982.41
425.83	5973.05
426.01	6010.50
426.20	6153.27
426.39	6237.53
426.58	6174.33
426.77	6277.32
426.96	6176.67
427.15	6038.58
427.33	6256.25
427.52	6108.80
427.71	6331.15
427.90	6171.99
428.09	6319.45
428.28	6333.49
428.46	6429.45
428.65	6532.44
428.84	6518.39
429.03	6469.24
429.22	6471.58
429.40	6604.99
429.59	6558.18
429.78	6237.53
429.97	6525.41
430.16	6541.80
430.34	6717.34
430.53	6766.49
430.72	6736.06
430.91	6789.89
431.10	6717.34
431.28	7073.10
431.47	6902.24
431.66	7084.80
431.85	6911.60
432.03	7054.37
432.22	7110.55
432.41	7108.21
432.60	6916.28
432.79	7159.70
432.97	7302.47
433.16	7248.64
433.35	7110.55
433.54	7068.42
433.72	7290.77
433.91	7353.96
434.10	7342.26
434.28	7372.69
434.47	7375.03
434.66	7421.84
434.85	7552.91
435.03	7627.81
435.22	7691.00
435.41	7889.95
435.59	7700.36
435.78	7630.15
435.97	7749.51
436.16	7681.64
436.34	7667.60
436.53	7817.39
436.72	7728.45
436.90	7716.75
437.09	8028.04
437.28	7669.94
437.46	7789.30
437.65	7957.82
437.84	7981.23
438.02	7974.21
438.21	8037.40
438.40	8011.65
438.58	8184.85
438.77	8381.46
438.96	8266.77
439.14	8601.47
439.33	8692.75
439.52	8542.96
439.70	8559.34
439.89	8849.57
440.08	8760.63
440.26	8933.82
440.45	8709.13
440.63	8795.73
440.82	8959.57
441.01	8938.51
441.19	8767.65
441.38	9390.23
441.57	9170.22
441.75	9036.81
441.94	9521.30
442.12	9425.34
442.31	9568.11
442.50	9401.93
442.68	9472.15
442.87	9401.93
443.05	9493.21
443.24	9961.32
443.43	9729.61
443.61	9544.70
443.80	9970.68
443.98	9518.96
444.17	9352.78
444.35	9640.67
444.54	9839.61
444.73	9652.37
444.91	9837.27
445.10	10005.79
445.28	9935.57
445.47	9802.16
445.65	10012.81
445.84	10143.88
446.02	9914.51
446.21	9998.77
446.39	10038.56
446.58	10071.33
446.77	10087.71
446.95	9827.91
447.14	9977.70
447.32	10097.07
447.51	9933.23
447.69	10052.60
447.88	10186.01
448.06	10160.27
448.25	10026.86
448.43	10237.50
448.62	10216.44
448.80	10211.76
448.99	10338.15
449.17	10375.59
449.36	10513.69
449.54	10527.73
449.73	10539.43
449.91	10637.73
450.10	10427.09
450.28	10689.23
450.46	10738.38
450.65	10527.73
450.83	10771.15
451.02	10672.84
451.20	10885.83
451.39	10771.15
451.57	10930.30
451.76	10560.50
451.94	10923.28
452.13	11094.14
452.31	10869.45
452.49	10682.20
452.68	11124.57
452.86	10918.60
453.05	11101.16
453.23	11115.20
453.42	11070.73
453.60	10920.94
453.78	11342.24
453.97	11033.29
454.15	11002.86
454.34	11084.78
454.52	11379.68
454.70	11360.96
454.89	11386.71
455.07	11637.14
455.26	11480.33
455.44	11524.80
455.62	11646.51
455.81	11599.70
455.99	11910.99
456.17	11604.38
456.36	11637.14
456.54	12098.23
456.73	12149.72
456.91	12159.08
457.09	12168.45
457.28	12224.62
457.46	12042.06
457.64	12327.60
457.83	12351.01
458.01	12257.39
458.19	12540.59
458.38	12212.92
458.56	12395.48
458.74	12627.19
458.93	12634.21
459.11	12463.35
459.29	12493.78
459.48	12512.50
459.66	12512.50
459.84	13043.81
460.03	12791.03
460.21	12837.84
460.39	12833.16
460.57	12931.46
460.76	12912.74
460.94	12793.37
461.12	13048.49
461.31	13170.19
461.49	13071.89
461.67	13132.75
461.85	13467.44
462.04	13235.73
462.22	13736.60
462.40	13568.09
462.59	13359.78
462.77	13373.82
462.95	13771.71
463.13	13319.99
463.32	13642.98
463.50	13638.30
463.68	13898.10
463.86	13848.95
464.05	13736.60
464.23	13458.08
464.41	13855.97
464.59	13666.39
464.78	14106.41
464.96	13893.42
465.14	13736.60
465.32	14279.61
465.50	14225.78
465.69	14281.95
465.87	14340.46
466.05	14190.67
466.23	14216.41
466.41	14148.54
466.60	14445.79
466.78	14398.98
466.96	14284.29
467.14	14319.40
467.32	14403.66
467.51	14679.84
467.69	14218.75
467.87	14614.30
468.05	14761.76
468.23	14588.56
468.41	14485.58
468.60	14824.95
468.78	14916.23
468.96	14644.73
469.14	15000.49
469.32	15082.41
469.50	14925.60
469.69	15164.33
469.87	15274.34
470.05	15297.74
470.23	15534.14
470.41	15384.34
470.59	15859.47
470.77	15410.09
470.95	15452.22
471.14	15754.15
471.32	15618.39
471.50	15831.38
471.68	15850.11
471.86	16018.63
472.04	15896.92
472.22	16542.91
472.40	16252.68
472.58	16201.19
472.77	16376.73
472.95	16774.62
473.13	16744.19
473.31	16053.73
473.49	16587.38
473.67	16772.28
473.85	16580.36
474.03	17102.29
474.21	17123.36
474.39	16989.95
474.57	17001.65
474.75	17549.34
474.93	17652.32
475.12	17413.59
475.30	17497.84
475.48	17444.01
475.66	17617.21
475.84	17434.65
476.02	18104.04
476.20	17820.84
476.38	18291.29
476.56	18913.87
476.74	18827.27
476.92	18724.29
477.10	18633.00
477.28	18841.31
477.46	19019.19
477.64	18965.36
477.82	19129.20
478.00	19601.99
478.18	19499.00
478.36	19620.71
478.54	20034.99
478.72	20013.92
478.90	20060.73
479.08	20718.42
479.26	20624.80
479.44	20947.79
479.62	20966.52
479.80	21111.63
479.98	20835.45
480.16	21694.43
480.34	21352.71
480.52	21385.47
480.70	21624.21
480.88	21523.57
481.06	21776.34
481.24	21841.88
481.41	22349.78
481.59	22499.57
481.77	22672.77
481.95	22885.76
482.13	23232.16
482.31	23117.47
482.49	23693.24
482.67	23623.03
482.85	23730.69
483.03	23943.68
483.21	24151.99
483.39	24720.74
483.57	24531.15
483.74	24444.56
483.92	24687.97
484.10	24390.72
484.28	25380.77
484.46	25481.41
484.64	26066.55
484.82	25575.03
485.00	25544.61
485.18	26724.24
485.35	26558.06
485.53	26604.87
485.71	26843.60
485.89	27407.67
486.07	26728.92
486.25	27091.70
486.43	27405.33
486.61	28048.98
486.78	28095.79
486.96	28056.00
487.14	28732.42
487.32	28711.35
487.50	29085.84
487.68	29198.18
487.85	29443.94
488.03	29965.88
488.21	29869.92
488.39	29944.81
488.57	29937.79
488.75	30305.26
488.92	30593.14
489.10	31232.11
489.28	31042.53
489.46	31337.43
489.64	31599.57
489.81	31964.70
489.99	32114.49
490.17	32058.32
490.35	33010.92
490.53	33127.94
490.70	32971.13
490.88	33181.77
491.06	33605.41
491.24	33191.14
491.41	33394.76
491.59	33820.74
491.77	34272.46
491.95	34625.89
492.13	34672.70
492.30	34705.46
492.48	34906.75
492.66	35330.39
492.84	35386.56
493.01	35440.39
493.19	35744.66
493.37	36023.19
493.54	35721.26
493.72	36168.30
493.90	36545.12
494.08	36524.06
494.25	37315.16
494.43	37347.93
494.61	37006.21
494.79	37291.76
494.96	37340.91
495.14	37443.89
495.32	38113.28
495.49	38164.78
495.67	38639.90
495.85	38628.20
496.02	38939.49
496.20	39236.74
496.38	39786.77
496.55	39842.94
496.73	40046.57
496.91	40367.22
497.09	40074.65
497.26	40545.10
497.44	40215.08
497.62	40662.13
497.79	40900.86
497.97	41036.61
498.14	41970.49
498.32	41734.09
498.50	41596.00
498.67	42087.51
498.85	41813.67
499.03	42267.73
499.20	42504.13
499.38	41986.87
499.56	42476.04
499.73	42794.36
499.91	43023.73
500.08	43164.16
500.26	43009.68
500.44	43414.60
500.61	43847.60
500.79	43665.03
500.97	43761.00
501.14	44163.57
501.32	44079.31
501.49	43821.85
501.67	44449.11
501.84	45050.63
502.02	44947.65
502.20	44842.32
502.37	45134.89
502.55	44945.31
502.72	45310.43
502.90	45453.20
503.07	44809.56
503.25	45937.69
503.43	45265.96
503.60	46237.28
503.78	46162.39
503.95	45867.48
504.13	46075.79
504.30	46305.16
504.48	46300.48
504.65	46653.90
504.83	46962.85
505.01	47763.31
505.18	46820.08
505.36	47327.97
505.53	47217.97
505.71	47461.38
505.88	47578.41
506.06	47601.82
506.23	47896.72
506.41	47985.66
506.58	47943.53
506.76	48009.07
506.93	48051.20
507.11	48416.32
507.28	48495.90
507.46	48837.62
507.63	48910.17
507.81	49357.22
507.98	49001.46
508.16	48865.70
508.33	49425.09
508.50	48896.13
508.68	49638.08
508.85	49738.72
509.03	49532.76
509.20	49378.28
509.38	50185.77
509.55	49794.90
509.73	50461.95
509.90	50740.47
510.08	50272.37
510.25	50595.36
510.42	50721.75
510.60	50447.91
510.77	50946.44
510.95	50841.12
511.12	50726.43
511.30	50869.20
511.47	51260.07
511.64	51412.21
511.82	51290.50
511.99	51224.96
512.17	51667.33
512.34	51381.78
512.51	52121.39
512.69	52109.69
512.86	52107.35
513.04	52163.52
513.21	51955.21
513.38	52142.45
513.56	52315.65
513.73	52395.23
513.90	52633.97
514.08	52545.03
514.25	53017.82
514.43	52545.03
514.60	52549.71
514.77	52795.46
514.95	53017.82
515.12	52823.55
515.29	52830.57
515.47	53481.24
515.64	53591.25
515.81	53380.60
515.99	53457.84
516.16	53703.59
516.33	53364.21
516.51	53797.21
516.68	53759.76
516.85	53848.71
517.03	53989.14
517.20	54155.32
517.37	54129.57
517.54	54225.53
517.72	54204.47
517.89	54232.55
518.06	54377.67
518.24	54438.52
518.41	54049.99
518.58	54452.56
518.75	54405.75
518.93	54574.27
519.10	54157.66
519.27	54658.53
519.45	54808.32
519.62	54859.82
519.79	55096.21
519.96	55189.83
520.14	54726.41
520.31	54740.45
520.48	55075.15
520.65	55077.49
520.83	55618.15
521.00	55765.60
521.17	55337.29
521.34	55746.88
521.52	55484.74
521.69	55414.52
521.86	55653.26
522.03	55889.65
522.20	55973.91
522.38	55922.42
522.55	56240.73
522.72	55987.95
522.89	56114.34
523.07	56320.31
523.24	56062.85
523.41	56179.88
523.58	56135.41
523.75	56460.74
523.92	56399.89
524.10	56718.20
524.27	56437.34
524.44	56507.55
524.61	56652.67
524.78	56631.60
524.96	56821.19
525.13	57029.49
525.30	57219.08
525.47	57148.86
525.64	57120.77
525.81	57104.39
525.98	57195.67
526.16	56933.53
526.33	57181.63
526.50	57448.45
526.67	57293.97
526.84	57432.07
527.01	57324.40
527.18	57471.85
527.36	57408.66
527.53	57638.03
527.70	57682.50
527.87	57623.99
528.04	57766.76
528.21	57930.60
528.38	57790.17
528.55	58010.18
528.72	57733.99
528.89	57942.30
529.07	57804.21
529.24	57726.97
529.41	58078.05
529.58	58354.24
529.75	58174.02
529.92	58150.61
530.09	58155.29
530.26	58394.03
530.43	58204.44
530.60	57925.92
530.77	58377.64
530.94	58658.51
531.11	58438.50
531.28	58602.33
531.46	58387.00
531.63	58534.46
531.80	58398.71
531.97	58628.08
532.14	58489.99
532.31	58623.40
532.48	58892.56
532.65	58820.00
532.82	58871.49
532.99	58869.15
533.16	58782.55
533.33	58852.77
533.50	59009.59
533.67	58899.58
533.84	58827.02
534.01	59367.69
534.18	59292.79
534.35	59222.58
534.52	59276.41
534.69	59339.60
534.86	59302.15
535.03	58986.18
535.20	59269.39
535.37	59344.28
535.54	59526.84
535.71	59447.27
535.88	59498.76
536.05	59468.33
536.22	59522.16
536.38	59714.09
536.55	59524.50
536.72	59641.53
536.89	59828.77
537.06	59898.99
537.23	60037.08
537.40	59826.43
537.57	59854.52
537.74	59845.16
537.91	59941.12
538.08	59920.05
538.25	59756.22
538.42	60147.09
538.59	60313.26
538.75	59833.46
538.92	60317.95
539.09	60109.64
539.26	59983.25
539.43	60250.07
539.60	60154.11
539.77	60193.90
539.94	60467.74
540.11	60544.98
540.28	60636.26
540.44	60432.63
540.61	60535.62
540.78	60537.96
540.95	60664.35
541.12	60406.89
541.29	60479.44
541.46	60753.29
541.62	60807.12
541.79	60811.80
541.96	60591.79
542.13	60629.24
542.30	60867.97
542.47	60736.90
542.63	60907.76
542.80	61041.17
542.97	61116.07
543.14	61277.57
543.31	61064.58
543.48	61186.28
543.64	61329.06
543.81	61148.84
543.98	61272.88
544.15	61329.06
544.32	61272.88
544.48	61581.84
544.65	61347.78
544.82	61579.49
544.99	61205.01
545.16	61638.01
545.32	61474.17
545.49	61677.80
545.66	61860.36
545.83	61825.25
546.00	61982.07
546.16	61932.92
546.33	61532.68
546.50	61502.26
546.67	61605.24
546.83	61251.82
547.00	61743.33
547.17	61490.55
547.34	61748.01
547.50	61820.57
547.67	62122.50
547.84	62103.77
548.00	62054.62
548.17	62141.22
548.34	62040.58
548.51	62262.93
548.67	61883.76
548.84	61862.70
549.01	62049.94
549.18	62148.24
549.34	62035.90
549.51	62012.49
549.68	62314.42
549.84	62279.31
550.01	62195.06
550.18	62026.54
550.34	62230.16
550.51	62096.75
550.68	62326.13
550.84	62120.16
551.01	62480.60
551.18	62384.64
551.34	62335.49
551.51	62422.09
551.68	62433.79
551.84	62487.62
552.01	62344.85
552.18	62569.54
552.34	62464.22
552.51	62515.71
552.68	62562.52
552.84	62822.32
553.01	62803.59
553.18	62719.34
553.34	62742.74
553.51	62583.58
553.67	62550.82
553.84	62805.94
554.01	62939.35
554.17	62859.77
554.34	63068.08
554.51	62876.15
554.67	63051.69
554.84	62728.70
555.00	62911.26
555.17	62630.40
555.33	62827.00
555.50	62738.06
555.67	62925.30
555.83	63023.61
556.00	62883.17
556.16	63203.83
556.33	63016.58
556.50	63152.33
556.66	63105.52
556.83	62885.51
556.99	63213.19
557.16	63346.60
557.32	63337.24
557.49	63348.94
557.65	63196.80
557.82	63201.49
557.98	63185.10
558.15	63222.55
558.32	63271.70
558.48	63140.63
558.65	63276.38
558.81	63421.50
558.98	63561.93
559.14	63512.78
559.31	63313.83
559.47	63503.42
559.64	63590.01
559.80	63440.22
559.97	63590.01
560.13	63306.81
560.30	63384.05
560.46	63618.10
560.63	63627.46
560.79	63587.67
560.96	63634.48
561.12	63681.30
561.29	63489.37
561.45	63582.99
561.61	63604.06
561.78	63702.36
561.94	63657.89
562.11	63833.43
562.27	63725.77
562.44	63702.36
562.60	63749.17
562.77	63693.00
562.93	63812.37
563.10	63903.65
563.26	63615.76
563.42	63767.90
563.59	63758.53
563.75	63730.45
563.92	63920.03
564.08	63721.08
564.24	63943.44
564.41	63767.90
564.57	63667.25
564.74	63903.65
564.90	64030.04
565.07	63978.54
565.23	64046.42
565.39	64095.57
565.56	63992.59
565.72	64048.76
565.88	64041.74
566.05	63945.78
566.21	63887.26
566.38	63990.25
566.54	63887.26
566.70	63863.86
566.87	64207.92
567.03	64130.68
567.19	64306.22
567.36	64184.51
567.52	64081.53
567.68	64116.64
567.85	64118.98
568.01	64062.80
568.17	64259.41
568.34	64207.92
568.50	64088.55
568.66	64205.58
568.83	64264.09
568.99	64172.81
569.15	64118.98
569.32	64175.15
569.48	64013.65
569.64	64151.74
569.81	64076.85
569.97	64095.57
570.13	64114.29
570.30	64207.92
570.46	64257.07
570.62	64203.24
570.78	64317.92
570.95	64285.15
571.11	64320.26
571.27	64156.42
571.43	64140.04
571.60	64137.70
571.76	64214.94
571.92	64444.31
572.09	64427.93
572.25	64432.61
572.41	64409.20
572.57	64254.73
572.74	64661.98
572.90	64348.35
573.06	64327.28
573.22	64479.42
573.38	64390.48
573.55	64357.71
573.71	64676.02
573.87	64507.50
574.03	64411.54
574.20	64530.91
574.36	64498.14
574.52	64598.79
574.68	64338.99
574.84	64591.76
575.01	64556.66
575.17	64367.07
575.33	64374.09
575.49	64551.98
575.65	64580.06
575.82	64465.38
575.98	64533.25
576.14	64746.24
576.30	64626.87
576.46	64636.23
576.62	64362.39
576.79	64467.72
576.95	64406.86
577.11	64596.45
577.27	64528.57
577.43	64568.36
577.59	64544.95
577.75	64605.81
577.92	64399.84
578.08	64540.27
578.24	64500.48
578.40	64460.69
578.56	64853.90
578.72	64659.64
578.88	64881.99
579.04	64755.60
579.21	64638.57
579.37	64863.27
579.53	64729.86
579.69	64465.38
579.85	64676.02
580.01	64659.64
580.17	64783.69
580.33	64727.52
580.49	64659.64
580.65	64697.09
580.82	64699.43
580.98	64701.77
581.14	64767.30
581.30	64802.41
581.46	64755.60
581.62	64760.28
581.78	64612.83
581.94	64975.61
582.10	64561.34
582.26	64776.67
582.42	64743.90
582.58	64722.83
582.74	64708.79
582.90	64828.16
583.06	64870.29
583.22	64683.04
583.38	64654.96
583.54	64783.69
583.70	64654.96
583.86	64708.79
584.02	64647.94
584.18	64802.41
584.34	64835.18
584.50	64739.22
584.66	64793.05
584.82	64661.98
584.98	64814.12
585.14	64905.40
585.30	64664.32
585.46	64900.71
585.62	64683.04
585.78	65036.47
585.94	64750.92
586.10	64814.12
586.26	64753.26
586.42	64942.84
586.58	64832.84
586.74	64755.60
586.90	64774.33
587.06	64956.89
587.22	64963.91
587.38	64713.47
