SpectraSuite Data File
++++++++++++++++++++++++++++++++++++
Date: Thu Oct 24 13:21:11 EDT 2013
User: stostad
Dark Spectrum Present: No
Reference Spectrum Present: No
Number of Sampled Component Spectra: 1
Spectrometers: USB2+H05261
Integration Time (usec): 100000 (USB2+H05261)
Spectra Averaged: 1 (USB2+H05261)
Boxcar Smoothing: 0 (USB2+H05261)
Correct for Electrical Dark: No (USB2+H05261)
Strobe/Lamp Enabled: No (USB2+H05261)
Correct for Detector Non-linearity: No (USB2+H05261)
Correct for Stray Light: No (USB2+H05261)
Number of Pixels in Processed Spectrum: 2048
>>>>>Begin Processed Spectral Data<<<<<
365.73	592.16
365.92	592.16
366.12	592.16
366.32	503.22
366.52	489.17
366.72	484.49
366.91	428.32
367.11	500.87
367.31	517.26
367.51	451.72
367.70	514.92
367.90	425.98
368.10	447.04
368.30	475.13
368.49	430.66
368.69	411.93
368.89	430.66
369.09	418.96
369.28	533.64
369.48	458.74
369.68	535.98
369.87	465.77
370.07	496.19
370.27	503.22
370.47	622.58
370.66	692.80
370.86	676.41
371.06	601.52
371.25	809.83
371.45	720.88
371.65	739.61
371.84	737.27
372.04	730.25
372.24	744.29
372.44	755.99
372.63	784.08
372.83	702.16
373.03	781.74
373.22	730.25
373.42	718.54
373.62	744.29
373.81	828.55
374.01	786.42
374.21	779.40
374.40	727.91
374.60	861.32
374.79	751.31
374.99	779.40
375.19	814.51
375.38	837.91
375.58	851.96
375.78	809.83
375.97	894.08
376.17	903.45
376.37	858.98
376.56	767.70
376.76	849.61
376.95	812.17
377.15	809.83
377.35	823.87
377.54	868.34
377.74	781.74
377.93	863.66
378.13	755.99
378.33	926.85
378.52	929.19
378.72	856.64
378.91	868.34
379.11	807.48
379.31	781.74
379.50	842.59
379.70	912.81
379.89	922.17
380.09	819.19
380.28	931.53
380.48	821.53
380.68	795.78
380.87	908.13
381.07	917.49
381.26	870.68
381.46	826.21
381.65	863.66
381.85	868.34
382.04	903.45
382.24	938.55
382.43	938.55
382.63	884.72
382.83	870.68
383.02	903.45
383.22	999.41
383.41	856.64
383.61	842.59
383.80	940.90
384.00	929.19
384.19	901.11
384.39	940.90
384.58	873.02
384.78	894.08
384.97	922.17
385.17	919.83
385.36	1011.11
385.56	814.51
385.75	880.04
385.95	898.77
386.14	992.39
386.34	887.06
386.53	933.87
386.72	957.28
386.92	973.66
387.11	936.21
387.31	926.85
387.50	894.08
387.70	952.60
387.89	987.71
388.09	1043.88
388.28	931.53
388.48	1011.11
388.67	1036.86
388.86	957.28
389.06	959.62
389.25	994.73
389.45	1053.24
389.64	1011.11
389.84	999.41
390.03	1001.75
390.22	978.34
390.42	1029.84
390.61	889.40
390.81	980.68
391.00	1034.52
391.19	1050.90
391.39	966.64
391.58	1008.77
391.78	1053.24
391.97	1013.45
392.16	1064.94
392.36	1057.92
392.55	1029.84
392.75	990.05
392.94	1121.12
393.13	1104.73
393.33	1015.79
393.52	1043.88
393.71	1100.05
393.91	1032.18
394.10	1046.22
394.29	1083.67
394.49	966.64
394.68	1018.13
394.88	1118.78
395.07	1078.99
395.26	1165.59
395.46	1111.75
395.65	1153.88
395.84	1060.26
396.04	1146.86
396.23	1046.22
396.42	1149.20
396.62	1188.99
396.81	1128.14
397.00	1076.65
397.19	1219.42
397.39	1144.52
397.58	1184.31
397.77	1123.46
397.97	1226.44
398.16	1191.33
398.35	1231.12
398.55	1224.10
398.74	1238.14
398.93	1249.85
399.12	1217.08
399.32	1219.42
399.51	1177.29
399.70	1163.25
399.90	1219.42
400.09	1256.87
400.28	1256.87
400.47	1259.21
400.67	1224.10
400.86	1240.48
401.05	1282.61
401.24	1320.06
401.44	1303.68
401.63	1306.02
401.82	1294.32
402.01	1315.38
402.21	1378.58
402.40	1343.47
402.59	1308.36
402.78	1348.15
402.97	1385.60
403.17	1277.93
403.36	1331.76
403.55	1345.81
403.74	1383.26
403.93	1366.87
404.13	1465.18
404.32	1385.60
404.51	1390.28
404.70	1413.68
404.89	1409.00
405.09	1465.18
405.28	1441.77
405.47	1479.22
405.66	1476.88
405.85	1448.79
406.05	1497.94
406.24	1497.94
406.43	1467.52
406.62	1547.09
406.81	1542.41
407.00	1572.84
407.20	1537.73
407.39	1563.48
407.58	1509.65
407.77	1547.09
407.96	1631.35
408.15	1577.52
408.34	1500.28
408.54	1621.99
408.73	1652.42
408.92	1504.96
409.11	1577.52
409.30	1624.33
409.49	1629.01
409.68	1554.12
409.87	1596.25
410.07	1575.18
410.26	1633.69
410.45	1614.97
410.64	1621.99
410.83	1687.53
411.02	1694.55
411.21	1717.95
411.40	1797.53
411.59	1797.53
411.78	1734.34
411.98	1717.95
412.17	1776.47
412.36	1746.04
412.55	1804.55
412.74	1849.02
412.93	1839.66
413.12	1858.39
413.31	1877.11
413.50	1970.73
413.69	1842.00
413.88	1834.98
414.07	1872.43
414.26	1907.54
414.45	1942.64
414.64	1961.37
414.83	1952.01
415.02	2015.20
415.22	2029.24
415.41	1933.28
415.60	1872.43
415.79	2062.01
415.98	2122.87
416.17	1949.67
416.36	1966.05
416.55	2017.54
416.74	2172.02
416.93	2062.01
417.12	2069.03
417.31	2155.63
417.50	2057.33
417.69	2129.89
417.88	2211.81
418.07	2155.63
418.26	2167.34
418.45	2193.08
418.64	2275.00
418.83	2186.06
419.02	2218.83
419.21	2202.44
419.39	2289.04
419.58	2242.23
419.77	2218.83
419.96	2197.76
420.15	2237.55
420.34	2197.76
420.53	2232.87
420.72	2291.38
420.91	2267.98
421.10	2256.28
421.29	2298.41
421.48	2314.79
421.67	2359.26
421.86	2366.28
422.05	2354.58
422.24	2333.51
422.43	2368.62
422.61	2317.13
422.80	2324.15
422.99	2333.51
423.18	2436.50
423.37	2399.05
423.56	2380.32
423.75	2455.22
423.94	2345.22
424.13	2211.81
424.32	2216.49
424.50	2375.64
424.69	2530.12
424.88	2413.09
425.07	2462.24
425.26	2448.20
425.45	2338.20
425.64	2401.39
425.83	2410.75
426.01	2417.77
426.20	2413.09
426.39	2427.14
426.58	2424.80
426.77	2513.74
426.96	2502.03
427.15	2450.54
427.33	2417.77
427.52	2485.65
427.71	2443.52
427.90	2457.56
428.09	2560.55
428.28	2516.08
428.46	2572.25
428.65	2562.89
428.84	2689.28
429.03	2532.46
429.22	2499.69
429.40	2532.46
429.59	2541.82
429.78	2511.39
429.97	2518.42
430.16	2597.99
430.34	2729.06
430.53	2665.87
430.72	2708.00
430.91	2689.28
431.10	2635.44
431.28	2661.19
431.47	2801.62
431.66	2729.06
431.85	2686.94
432.03	2782.90
432.22	2864.82
432.41	2635.44
432.60	2754.81
432.79	2752.47
432.97	2736.09
433.16	2818.00
433.35	2803.96
433.54	2902.26
433.72	2958.44
433.91	2876.52
434.10	2862.48
434.28	2855.45
434.47	2871.84
434.66	2768.85
434.85	2897.58
435.03	3021.63
435.22	3192.49
435.41	3361.01
435.59	3321.22
435.78	3262.71
435.97	3152.70
436.16	3176.11
436.34	2953.76
436.53	3073.12
436.72	3019.29
436.90	2946.73
437.09	2867.16
437.28	2967.80
437.46	2963.12
437.65	3052.06
437.84	3082.49
438.02	3012.27
438.21	3054.40
438.40	3061.42
438.58	3141.00
438.77	3199.51
438.96	3192.49
439.14	3133.98
439.33	3344.63
439.52	3344.63
439.70	3304.84
439.89	3386.76
440.08	3185.47
440.26	3368.03
440.45	3368.03
440.63	3400.80
440.82	3314.20
441.01	3342.28
441.19	3368.03
441.38	3375.05
441.57	3475.70
441.75	3517.83
441.94	3576.34
442.12	3562.30
442.31	3515.48
442.50	3485.06
442.68	3473.36
442.87	3527.19
443.05	3564.64
443.24	3517.83
443.43	3510.80
443.61	3524.85
443.80	3700.39
443.98	3513.14
444.17	3534.21
444.35	3672.30
444.54	3676.98
444.73	3623.15
444.91	3618.47
445.10	3679.32
445.28	3534.21
445.47	3569.32
445.65	3559.95
445.84	3609.11
446.02	3676.98
446.21	3676.98
446.39	3768.26
446.58	3719.11
446.77	3595.06
446.95	3726.13
447.14	3641.87
447.32	3681.66
447.51	3714.43
447.69	3730.81
447.88	3604.42
448.06	3688.68
448.25	3756.56
448.43	3756.56
448.62	3611.45
448.80	3742.52
448.99	3672.30
449.17	3735.50
449.36	3836.14
449.54	3779.97
449.73	3798.69
449.91	3824.44
450.10	3815.07
450.28	4023.38
450.46	3836.14
450.65	3861.88
450.83	3838.48
451.02	3948.48
451.20	3908.69
451.39	3904.01
451.57	3889.97
451.76	3779.97
451.94	4018.70
452.13	4018.70
452.31	4021.04
452.49	4147.43
452.68	3978.91
452.86	3894.65
453.05	3988.27
453.23	3960.19
453.42	4100.62
453.60	4088.92
453.78	3983.59
453.97	4114.66
454.15	4154.45
454.34	4042.11
454.52	4004.66
454.70	4152.11
454.89	4175.52
455.07	4095.94
455.26	4198.92
455.44	4257.43
455.62	4074.87
455.81	4121.68
455.99	4283.18
456.17	4224.67
456.36	4208.28
456.54	4358.08
456.73	4297.22
456.91	4376.80
457.09	4362.76
457.28	4575.75
457.46	4238.71
457.64	4315.95
457.83	4388.50
458.01	4280.84
458.19	4432.97
458.38	4407.23
458.56	4451.70
458.74	4414.25
458.93	4423.61
459.11	4500.85
459.29	4400.21
459.48	4463.40
459.66	4489.15
459.84	4542.98
460.03	4723.20
460.21	4638.94
460.39	4557.02
460.57	4624.90
460.76	4669.37
460.94	4671.71
461.12	4795.76
461.31	4695.11
461.49	4741.93
461.67	4468.08
461.85	4660.01
462.04	4669.37
462.22	5046.20
462.40	4774.69
462.59	4781.71
462.77	4819.16
462.95	4793.42
463.13	4791.08
463.32	4713.84
463.50	4821.50
463.68	4919.81
463.86	5034.49
464.05	4830.87
464.23	4947.89
464.41	4894.06
464.59	4697.46
464.78	4826.18
464.96	4957.25
465.14	4940.87
465.32	4898.74
465.50	4887.04
465.69	4985.34
465.87	4896.40
466.05	5048.54
466.23	4931.51
466.41	4971.30
466.60	5123.43
466.78	5039.17
466.96	5001.72
467.14	4877.68
467.32	5191.31
467.51	5179.61
467.69	4966.62
467.87	5153.86
468.05	5156.20
468.23	5034.49
468.41	4978.32
468.60	5121.09
468.78	5165.56
468.96	5240.46
469.14	5100.03
469.32	5303.65
469.50	5104.71
469.69	5226.42
469.87	5198.33
470.05	5313.02
470.23	5228.76
470.41	5329.40
470.59	5401.96
470.77	5338.76
470.95	5345.78
471.14	5643.03
471.32	5430.04
471.50	5493.24
471.68	5561.11
471.86	5462.81
472.04	5350.46
472.22	5542.39
472.40	5476.85
472.58	5488.56
472.77	5556.43
472.95	5502.60
473.13	5797.51
473.31	5652.39
473.49	5582.18
473.67	5708.57
473.85	5680.48
474.03	5954.32
474.21	5919.21
474.39	5788.14
474.57	5790.49
474.75	5902.83
474.93	5984.75
475.12	6033.90
475.30	5963.68
475.48	5930.92
475.66	5832.62
475.84	5884.11
476.02	6087.73
476.20	6214.12
476.38	6174.33
476.56	6511.37
476.74	6417.75
476.92	6214.12
477.10	6232.85
477.28	6532.44
477.46	6333.49
477.64	6380.30
477.82	6399.02
478.00	6733.72
478.18	6565.20
478.36	6548.82
478.54	6619.04
478.72	6780.53
478.90	6731.38
479.08	6759.47
479.26	6881.18
479.44	6958.41
479.62	7059.06
479.80	6942.03
479.98	6902.24
480.16	7073.10
480.34	7094.16
480.52	7311.83
480.70	7328.22
480.88	7077.78
481.06	7248.64
481.24	7304.81
481.41	7323.54
481.59	7552.91
481.77	7433.54
481.95	7592.70
482.13	7470.99
482.31	7733.13
482.49	7861.86
482.67	7929.74
482.85	7651.21
483.03	8053.78
483.21	7990.59
483.39	7915.69
483.57	8107.62
483.74	7997.61
483.92	8147.40
484.10	8189.53
484.28	8322.94
484.46	8472.74
484.64	8580.40
484.82	8542.96
485.00	8521.89
485.18	8652.96
485.35	8786.37
485.53	8751.26
485.71	8842.54
485.89	9022.77
486.07	8898.72
486.25	8919.78
486.43	9179.58
486.61	8994.68
486.78	9387.89
486.96	9378.53
487.14	9385.55
487.32	9214.69
487.50	9544.70
487.68	9565.77
487.85	9610.24
488.03	9589.17
488.21	9727.27
488.39	9671.09
488.57	9874.72
488.75	9949.62
488.92	10052.60
489.10	9867.70
489.28	10176.65
489.46	10284.31
489.64	10031.54
489.81	10459.85
489.99	10370.91
490.17	10590.92
490.35	10513.69
490.53	10619.01
490.70	10663.48
490.88	10464.54
491.06	10757.10
491.24	10881.15
491.41	11047.33
491.59	10977.11
491.77	10860.09
491.95	11112.86
492.13	11140.95
492.30	11384.37
492.48	11140.95
492.66	11187.76
492.84	11587.99
493.01	11552.88
493.19	11375.00
493.37	11562.25
493.54	11592.67
493.72	11595.01
493.90	11648.85
494.08	11843.11
494.25	11887.58
494.43	11840.77
494.61	12133.34
494.79	11964.82
494.96	11978.86
495.14	12035.03
495.32	12336.96
495.49	12280.79
495.67	12294.83
495.85	12325.26
496.02	12564.00
496.20	12477.40
496.38	12634.21
496.55	12652.94
496.73	13146.79
496.91	12886.99
497.09	12748.90
497.26	12861.24
497.44	13060.19
497.62	12814.43
497.79	13252.11
497.97	13018.06
498.14	13198.28
498.32	12975.93
498.50	13249.77
498.67	13373.82
498.85	13242.75
499.03	13303.60
499.20	13626.60
499.38	13523.62
499.56	13532.98
499.73	13781.07
499.91	13795.12
500.08	13865.33
500.26	13521.27
500.44	13811.50
500.61	13540.00
500.79	13771.71
500.97	14246.84
501.14	14256.20
501.32	14300.67
501.49	14045.55
501.67	14052.58
501.84	14195.35
502.02	14197.69
502.20	14214.07
502.37	14607.28
502.55	14492.60
502.72	14527.71
502.90	14520.68
503.07	14321.74
503.25	14679.84
503.43	14532.39
503.60	14679.84
503.78	14869.42
503.95	14890.49
504.13	14827.29
504.30	14764.10
504.48	14867.08
504.65	15054.33
504.83	14918.57
505.01	15122.20
505.18	14829.63
505.36	15150.29
505.53	14920.92
505.71	15009.86
505.88	15283.70
506.06	15229.87
506.23	15197.10
506.41	15421.79
506.58	15332.85
506.76	15400.72
506.93	15435.83
507.11	15606.69
507.28	15665.21
507.46	15660.52
507.63	15747.12
507.81	15726.06
507.98	15700.31
508.16	15597.33
508.33	15917.98
508.50	15899.26
508.68	15660.52
508.85	16004.58
509.03	15990.54
509.20	16154.38
509.38	16233.96
509.55	16484.39
509.73	16423.54
509.90	16161.40
510.08	16585.04
510.25	16116.93
510.42	16379.07
510.60	16542.91
510.77	16346.30
510.95	16702.06
511.12	16430.56
511.30	16828.45
511.47	16575.67
511.64	16886.97
511.82	16802.71
511.99	16690.36
512.17	17003.99
512.34	16404.81
512.51	17158.47
512.69	16856.54
512.86	16786.32
513.04	16989.95
513.21	16961.86
513.38	17177.19
513.56	17240.39
513.73	17378.48
513.90	17614.87
514.08	17202.94
514.25	17427.63
514.43	17338.69
514.60	17331.67
514.77	17404.22
514.95	17439.33
515.12	17231.02
515.29	17591.47
515.47	17593.81
515.64	17933.18
515.81	18104.04
515.99	17640.62
516.16	17851.27
516.33	18090.00
516.51	17900.42
516.68	17963.61
516.85	18071.28
517.03	18141.49
517.20	17893.40
517.37	18321.71
517.54	18143.83
517.72	18085.32
517.89	18118.09
518.06	17844.24
518.24	18293.63
518.41	17994.04
518.58	18342.78
518.75	18113.41
518.93	18244.48
519.10	18307.67
519.27	18293.63
519.45	18377.89
519.62	18576.83
519.79	18459.81
519.96	18572.15
520.14	18387.25
520.31	18352.14
520.48	18649.39
520.65	18759.39
520.83	18752.37
521.00	18979.40
521.17	18820.25
521.34	18640.03
521.52	18888.12
521.69	18986.43
521.86	19021.53
522.03	18867.06
522.20	18930.25
522.38	19159.63
522.55	19370.27
522.72	19201.76
522.89	19049.62
523.07	19346.87
523.24	19260.27
523.41	19669.86
523.58	19213.46
523.75	19321.12
523.92	19353.89
524.10	19634.75
524.27	19648.80
524.44	19550.49
524.61	19534.11
524.78	19363.25
524.96	19826.68
525.13	19927.32
525.30	19669.86
525.47	20025.62
525.64	19845.40
525.81	19915.62
525.98	19889.87
526.16	19861.79
526.33	19850.08
526.50	20189.46
526.67	19955.41
526.84	20383.73
527.01	19871.15
527.18	19702.63
527.36	20098.18
527.53	20149.67
527.70	20315.85
527.87	20332.23
528.04	19997.54
528.21	20365.00
528.38	20320.53
528.55	20327.55
528.72	20306.49
528.89	20290.10
529.07	20498.41
529.24	20135.63
529.41	20655.23
529.58	20472.67
529.75	20322.87
529.92	20566.29
530.09	20449.26
530.26	20695.02
530.43	20458.62
530.60	20680.97
530.77	20531.18
530.94	20943.11
531.11	20807.36
531.28	20931.41
531.46	20725.44
531.63	21097.59
531.80	20882.26
531.97	20952.48
532.14	20926.73
532.31	21179.51
532.48	21106.95
532.65	21020.35
532.82	20879.92
532.99	20936.09
533.16	20830.77
533.33	21008.65
533.50	20971.20
533.67	21165.46
533.84	21263.77
534.01	21163.12
534.18	21516.54
534.35	21404.20
534.52	21177.17
534.69	21219.30
534.86	21570.38
535.03	20821.41
535.20	21465.05
535.37	21621.87
535.54	21539.95
535.71	21523.57
535.88	21759.96
536.05	21600.80
536.22	21490.80
536.38	21469.73
536.55	21825.50
536.72	21832.52
536.89	21743.58
537.06	21862.94
537.23	21830.18
537.40	22064.23
537.57	21668.68
537.74	22101.68
537.91	21619.53
538.08	21926.14
538.25	21685.06
538.42	21989.33
538.59	22017.42
538.75	21991.67
538.92	22075.93
539.09	22038.48
539.26	22017.42
539.43	22033.80
539.60	22302.96
539.77	22097.00
539.94	22338.07
540.11	22492.55
540.28	22363.82
540.44	22515.95
540.61	22377.86
540.78	22544.04
540.95	22471.48
541.12	22499.57
541.29	22628.30
541.46	22721.92
541.62	23007.47
541.79	22836.61
541.96	22937.25
542.13	22852.99
542.30	23094.07
542.47	23194.71
542.63	22644.68
542.80	23234.50
542.97	23356.21
543.14	23438.12
543.31	23194.71
543.48	23623.03
543.64	23328.12
543.81	23250.88
543.98	23054.28
544.15	23388.97
544.32	23515.36
544.48	23440.47
544.65	23358.55
544.82	23623.03
544.99	23405.36
545.16	23503.66
545.32	23403.02
545.49	24238.59
545.66	24519.45
545.83	24418.81
546.00	24456.26
546.16	23976.45
546.33	23868.78
546.50	23737.71
546.67	23850.06
546.83	23330.46
547.00	23222.80
547.17	23531.75
547.34	23379.61
547.50	23735.37
547.67	23824.31
547.84	23985.81
548.00	23852.40
548.17	24032.62
548.34	23520.04
548.51	23807.93
548.67	23836.02
548.84	23400.68
549.01	23585.58
549.18	23620.69
549.34	23569.19
549.51	23456.85
549.68	23597.28
549.84	23924.96
550.01	23555.15
550.18	23676.86
550.34	23791.55
550.51	24095.82
550.68	23854.74
550.84	23424.08
551.01	23917.93
551.18	23828.99
551.34	23920.28
551.51	23461.53
551.68	24044.32
551.84	24044.32
552.01	23751.76
552.18	23967.09
552.34	23751.76
552.51	23981.13
552.68	23763.46
552.84	23889.85
553.01	24020.92
553.18	23964.75
553.34	24027.94
553.51	23721.33
553.67	24147.31
553.84	24273.70
554.01	24439.87
554.17	23693.24
554.34	24294.76
554.51	23981.13
554.67	24271.36
554.84	23981.13
555.00	23789.20
555.17	24020.92
555.33	24311.14
555.50	23810.27
555.67	24236.25
555.83	24224.54
556.00	24315.83
556.16	24854.15
556.33	24535.84
556.50	24144.97
556.66	24201.14
556.83	24264.33
556.99	24802.66
557.16	24622.44
557.32	24446.90
557.49	24418.81
557.65	24531.15
557.82	24409.45
557.98	24535.84
558.15	24357.96
558.32	24374.34
558.48	24409.45
558.65	24634.14
558.81	24809.68
558.98	24776.91
559.14	24512.43
559.31	24409.45
559.47	24561.58
559.64	24439.87
559.80	24388.38
559.97	24587.33
560.13	24500.73
560.30	24517.11
560.46	24531.15
560.63	24779.25
560.79	24690.31
560.96	24882.24
561.12	24638.82
561.29	24563.92
561.45	24823.72
561.61	24996.92
561.78	24577.97
561.94	24907.98
562.11	24945.43
562.27	24954.79
562.44	24542.86
562.60	25027.35
562.77	24807.34
562.93	24924.36
563.10	24671.59
563.26	24428.17
563.42	25200.55
563.59	24950.11
563.75	24793.29
563.92	24973.52
564.08	24891.60
564.24	24961.81
564.41	24875.21
564.57	24650.52
564.74	24563.92
564.90	24903.30
565.07	24882.24
565.23	25006.28
565.39	25032.03
565.56	25055.43
565.72	24592.01
565.88	24910.32
566.05	24800.32
566.21	24685.63
566.38	24606.05
566.54	24800.32
566.70	24788.61
566.87	25284.81
567.03	24973.52
567.19	25106.93
567.36	25057.78
567.52	25144.38
567.68	25195.87
567.85	24982.88
568.01	24980.54
568.17	25245.02
568.34	25261.40
568.50	25095.22
568.66	25193.53
568.83	25242.68
568.99	25146.72
569.15	25090.54
569.32	25172.46
569.48	24943.09
569.64	25174.80
569.81	24692.65
569.97	24671.59
570.13	25146.72
570.30	25120.97
570.46	25118.63
570.62	25287.15
570.78	24996.92
570.95	25085.86
571.11	25390.13
571.27	25125.65
571.43	25240.34
571.60	25109.27
571.76	25111.61
571.92	25568.01
572.09	25214.59
572.25	25268.42
572.41	25092.88
572.57	25205.23
572.74	25502.48
572.90	25268.42
573.06	25158.42
573.22	25266.08
573.38	25359.70
573.55	25397.15
573.71	25404.17
573.87	25179.48
574.03	25242.68
574.20	25219.27
574.36	25209.91
574.52	25081.18
574.68	24938.41
574.84	25392.47
575.01	25343.32
575.17	25289.49
575.33	25565.67
575.49	25205.23
575.65	25233.32
575.82	25212.25
575.98	25394.81
576.14	25329.28
576.30	25568.01
576.46	25521.20
576.62	25624.18
576.79	25310.55
576.95	25329.28
577.11	25287.15
577.27	25481.41
577.43	25635.89
577.59	25624.18
577.75	25092.88
577.92	25088.20
578.08	25764.62
578.24	25755.26
578.40	25668.66
578.56	25804.41
578.72	25631.21
578.88	25736.53
579.04	25507.16
579.21	25565.67
579.37	25699.08
579.53	25546.95
579.69	25266.08
579.85	25488.43
580.01	25568.01
580.17	25350.34
580.33	25436.94
580.49	25308.21
580.65	25542.27
580.82	25273.10
580.98	25268.42
581.14	25652.27
581.30	25769.30
581.46	25359.70
581.62	25565.67
581.78	25263.74
581.94	24968.84
582.10	25165.44
582.26	25582.06
582.42	25671.00
582.58	25673.34
582.74	25371.41
582.90	25638.23
583.06	25834.83
583.22	25317.57
583.38	25174.80
583.54	25486.09
583.70	25624.18
583.86	25095.22
584.02	25638.23
584.18	25860.58
584.34	25942.50
584.50	25544.61
584.66	25207.57
584.82	25502.48
584.98	25663.97
585.14	25462.69
585.30	25568.01
585.46	25205.23
585.62	25467.37
585.78	25362.04
585.94	25465.03
586.10	25240.34
586.26	25685.04
586.42	25663.97
586.58	26008.03
586.74	25565.67
586.90	25584.40
587.06	25324.60
587.22	25532.90
587.38	25535.24
587.54	25790.36
587.70	26181.23
587.86	25811.43
588.02	25687.38
588.18	25458.01
588.34	25905.05
588.49	25879.30
588.65	25247.36
588.81	25226.29
588.97	25631.21
589.13	25401.83
589.29	25462.69
589.45	25886.32
589.61	25663.97
589.77	25970.58
589.93	25661.63
590.08	25919.09
590.24	25474.39
590.40	25518.86
590.56	25640.57
590.72	25418.22
