SpectraSuite Data File
++++++++++++++++++++++++++++++++++++
Date: Thu Oct 24 13:21:00 EDT 2013
User: stostad
Dark Spectrum Present: No
Reference Spectrum Present: No
Number of Sampled Component Spectra: 1
Spectrometers: USB2+H05261
Integration Time (usec): 100000 (USB2+H05261)
Spectra Averaged: 1 (USB2+H05261)
Boxcar Smoothing: 0 (USB2+H05261)
Correct for Electrical Dark: No (USB2+H05261)
Strobe/Lamp Enabled: No (USB2+H05261)
Correct for Detector Non-linearity: No (USB2+H05261)
Correct for Stray Light: No (USB2+H05261)
Number of Pixels in Processed Spectrum: 2048
>>>>>Begin Processed Spectral Data<<<<<
365.73	622.58
365.92	622.58
366.12	622.58
366.32	468.11
366.52	388.53
366.72	517.26
366.91	517.26
367.11	414.27
367.31	449.38
367.51	423.64
367.70	463.43
367.90	407.25
368.10	402.57
368.30	449.38
368.49	440.02
368.69	454.06
368.89	463.43
369.09	451.72
369.28	491.51
369.48	498.53
369.68	479.81
369.87	550.03
370.07	545.34
370.27	550.03
370.47	557.05
370.66	557.05
370.86	561.73
371.06	564.07
371.25	660.03
371.45	608.54
371.65	629.60
371.84	634.29
372.04	678.76
372.24	660.03
372.44	580.45
372.63	631.94
372.83	601.52
373.03	657.69
373.22	608.54
373.42	650.67
373.62	636.63
373.81	613.22
374.01	648.33
374.21	667.05
374.40	624.92
374.60	641.31
374.79	634.29
374.99	674.07
375.19	620.24
375.38	631.94
375.58	648.33
375.78	636.63
375.97	667.05
376.17	667.05
376.37	622.58
376.56	596.84
376.76	669.39
376.95	592.16
377.15	610.88
377.35	697.48
377.54	620.24
377.74	617.90
377.93	674.07
378.13	629.60
378.33	643.65
378.52	575.77
378.72	613.22
378.91	629.60
379.11	622.58
379.31	627.26
379.50	622.58
379.70	699.82
379.89	559.39
380.09	510.24
380.28	601.52
380.48	671.73
380.68	624.92
380.87	678.76
381.07	601.52
381.26	657.69
381.46	617.90
381.65	580.45
381.85	645.99
382.04	620.24
382.24	589.82
382.43	594.50
382.63	613.22
382.83	601.52
383.02	631.94
383.22	636.63
383.41	573.43
383.61	573.43
383.80	638.97
384.00	624.92
384.19	638.97
384.39	650.67
384.58	692.80
384.78	603.86
384.97	627.26
385.17	631.94
385.36	615.56
385.56	709.18
385.75	624.92
385.95	653.01
386.14	653.01
386.34	699.82
386.53	634.29
386.72	638.97
386.92	596.84
387.11	655.35
387.31	648.33
387.50	573.43
387.70	613.22
387.89	601.52
388.09	573.43
388.28	617.90
388.48	573.43
388.67	624.92
388.86	592.16
389.06	627.26
389.25	624.92
389.45	641.31
389.64	676.41
389.84	737.27
390.03	713.86
390.22	718.54
390.42	664.71
390.61	676.41
390.81	603.86
391.00	568.75
391.19	613.22
391.39	606.20
391.58	594.50
391.78	643.65
391.97	568.75
392.16	620.24
392.36	571.09
392.55	603.86
392.75	622.58
392.94	596.84
393.13	636.63
393.33	629.60
393.52	613.22
393.71	660.03
393.91	676.41
394.10	678.76
394.29	617.90
394.49	606.20
394.68	655.35
394.88	664.71
395.07	608.54
395.26	603.86
395.46	660.03
395.65	660.03
395.84	638.97
396.04	688.12
396.23	744.29
396.42	617.90
396.62	676.41
396.81	650.67
397.00	664.71
397.19	674.07
397.39	580.45
397.58	671.73
397.77	587.47
397.97	629.60
398.16	603.86
398.35	634.29
398.55	662.37
398.74	624.92
398.93	608.54
399.12	608.54
399.32	622.58
399.51	629.60
399.70	627.26
399.90	653.01
400.09	671.73
400.28	636.63
400.47	566.41
400.67	660.03
400.86	587.47
401.05	718.54
401.24	713.86
401.44	667.05
401.63	620.24
401.82	674.07
402.01	664.71
402.21	638.97
402.40	636.63
402.59	648.33
402.78	582.79
402.97	564.07
403.17	643.65
403.36	676.41
403.55	624.92
403.74	667.05
403.93	688.12
404.13	737.27
404.32	681.10
404.51	617.90
404.70	671.73
404.89	730.25
405.09	601.52
405.28	634.29
405.47	615.56
405.66	543.00
405.85	578.11
406.05	573.43
406.24	615.56
406.43	697.48
406.62	678.76
406.81	627.26
407.00	645.99
407.20	594.50
407.39	641.31
407.58	613.22
407.77	638.97
407.96	629.60
408.15	685.78
408.34	589.82
408.54	617.90
408.73	592.16
408.92	624.92
409.11	627.26
409.30	589.82
409.49	636.63
409.68	613.22
409.87	690.46
410.07	634.29
410.26	634.29
410.45	601.52
410.64	603.86
410.83	653.01
411.02	617.90
411.21	641.31
411.40	653.01
411.59	664.71
411.78	631.94
411.98	622.58
412.17	636.63
412.36	648.33
412.55	631.94
412.74	617.90
412.93	669.39
413.12	594.50
413.31	608.54
413.50	669.39
413.69	629.60
413.88	613.22
414.07	599.18
414.26	688.12
414.45	613.22
414.64	622.58
414.83	547.69
415.02	608.54
415.22	636.63
415.41	601.52
415.60	615.56
415.79	620.24
415.98	650.67
416.17	645.99
416.36	688.12
416.55	606.20
416.74	697.48
416.93	655.35
417.12	622.58
417.31	545.34
417.50	638.97
417.69	636.63
417.88	615.56
418.07	631.94
418.26	671.73
418.45	620.24
418.64	622.58
418.83	674.07
419.02	615.56
419.21	624.92
419.39	615.56
419.58	543.00
419.77	641.31
419.96	636.63
420.15	636.63
420.34	620.24
420.53	627.26
420.72	634.29
420.91	622.58
421.10	702.16
421.29	650.67
421.48	615.56
421.67	645.99
421.86	636.63
422.05	655.35
422.24	620.24
422.43	599.18
422.61	547.69
422.80	617.90
422.99	603.86
423.18	596.84
423.37	699.82
423.56	599.18
423.75	674.07
423.94	631.94
424.13	627.26
424.32	594.50
424.50	622.58
424.69	599.18
424.88	620.24
425.07	599.18
425.26	638.97
425.45	667.05
425.64	580.45
425.83	662.37
426.01	528.96
426.20	657.69
426.39	624.92
426.58	613.22
426.77	657.69
426.96	634.29
427.15	601.52
427.33	674.07
427.52	653.01
427.71	636.63
427.90	617.90
428.09	535.98
428.28	596.84
428.46	608.54
428.65	681.10
428.84	631.94
429.03	582.79
429.22	615.56
429.40	648.33
429.59	599.18
429.78	641.31
429.97	627.26
430.16	655.35
430.34	624.92
430.53	641.31
430.72	667.05
430.91	596.84
431.10	662.37
431.28	674.07
431.47	655.35
431.66	638.97
431.85	624.92
432.03	655.35
432.22	617.90
432.41	662.37
432.60	674.07
432.79	638.97
432.97	608.54
433.16	580.45
433.35	585.13
433.54	617.90
433.72	629.60
433.91	643.65
434.10	662.37
434.28	676.41
434.47	643.65
434.66	650.67
434.85	692.80
435.03	819.19
435.22	976.00
435.41	1167.93
435.59	1135.16
435.78	983.02
435.97	877.70
436.16	940.90
436.34	622.58
436.53	641.31
436.72	624.92
436.90	713.86
437.09	660.03
437.28	645.99
437.46	629.60
437.65	608.54
437.84	662.37
438.02	634.29
438.21	671.73
438.40	692.80
438.58	587.47
438.77	667.05
438.96	629.60
439.14	660.03
439.33	664.71
439.52	667.05
439.70	613.22
439.89	620.24
440.08	596.84
440.26	617.90
440.45	681.10
440.63	589.82
440.82	580.45
441.01	592.16
441.19	599.18
441.38	650.67
441.57	695.14
441.75	678.76
441.94	660.03
442.12	617.90
442.31	690.46
442.50	653.01
442.68	606.20
442.87	699.82
443.05	564.07
443.24	585.13
443.43	638.97
443.61	692.80
443.80	638.97
443.98	601.52
444.17	585.13
444.35	697.48
444.54	634.29
444.73	645.99
444.91	655.35
445.10	655.35
445.28	615.56
445.47	622.58
445.65	568.75
445.84	587.47
446.02	641.31
446.21	631.94
446.39	610.88
446.58	674.07
446.77	737.27
446.95	638.97
447.14	688.12
447.32	610.88
447.51	627.26
447.69	557.05
447.88	669.39
448.06	690.46
448.25	657.69
448.43	601.52
448.62	587.47
448.80	641.31
448.99	617.90
449.17	606.20
449.36	685.78
449.54	702.16
449.73	634.29
449.91	683.44
450.10	552.37
450.28	676.41
450.46	650.67
450.65	697.48
450.83	662.37
451.02	629.60
451.20	688.12
451.39	648.33
451.57	571.09
451.76	601.52
451.94	580.45
452.13	692.80
452.31	655.35
452.49	660.03
452.68	631.94
452.86	664.71
453.05	676.41
453.23	660.03
453.42	622.58
453.60	613.22
453.78	634.29
453.97	608.54
454.15	631.94
454.34	608.54
454.52	662.37
454.70	596.84
454.89	655.35
455.07	587.47
455.26	690.46
455.44	641.31
455.62	671.73
455.81	627.26
455.99	692.80
456.17	667.05
456.36	676.41
456.54	662.37
456.73	641.31
456.91	624.92
457.09	638.97
457.28	760.67
457.46	678.76
457.64	648.33
457.83	566.41
458.01	603.86
458.19	571.09
458.38	650.67
458.56	676.41
458.74	615.56
458.93	638.97
459.11	650.67
459.29	599.18
459.48	681.10
459.66	648.33
459.84	669.39
460.03	695.14
460.21	641.31
460.39	589.82
460.57	718.54
460.76	657.69
460.94	674.07
461.12	636.63
461.31	608.54
461.49	648.33
461.67	667.05
461.85	627.26
462.04	608.54
462.22	894.08
462.40	697.48
462.59	685.78
462.77	631.94
462.95	580.45
463.13	641.31
463.32	657.69
463.50	573.43
463.68	657.69
463.86	615.56
464.05	599.18
464.23	690.46
464.41	699.82
464.59	636.63
464.78	617.90
464.96	683.44
465.14	674.07
465.32	615.56
465.50	660.03
465.69	631.94
465.87	704.50
466.05	592.16
466.23	676.41
466.41	660.03
466.60	655.35
466.78	550.03
466.96	645.99
467.14	634.29
467.32	613.22
467.51	645.99
467.69	671.73
467.87	662.37
468.05	568.75
468.23	697.48
468.41	571.09
468.60	690.46
468.78	671.73
468.96	641.31
469.14	678.76
469.32	620.24
469.50	650.67
469.69	634.29
469.87	624.92
470.05	645.99
470.23	641.31
470.41	622.58
470.59	622.58
470.77	730.25
470.95	671.73
471.14	629.60
471.32	624.92
471.50	641.31
471.68	683.44
471.86	622.58
472.04	634.29
472.22	627.26
472.40	617.90
472.58	631.94
472.77	660.03
472.95	662.37
473.13	718.54
473.31	638.97
473.49	608.54
473.67	683.44
473.85	671.73
474.03	655.35
474.21	683.44
474.39	669.39
474.57	713.86
474.75	592.16
474.93	599.18
475.12	594.50
475.30	669.39
475.48	631.94
475.66	709.18
475.84	681.10
476.02	662.37
476.20	629.60
476.38	664.71
476.56	671.73
476.74	692.80
476.92	678.76
477.10	669.39
477.28	706.84
477.46	669.39
477.64	706.84
477.82	601.52
478.00	615.56
478.18	638.97
478.36	643.65
478.54	613.22
478.72	660.03
478.90	606.20
479.08	716.20
479.26	606.20
479.44	631.94
479.62	622.58
479.80	601.52
479.98	568.75
480.16	636.63
480.34	713.86
480.52	653.01
480.70	653.01
480.88	615.56
481.06	697.48
481.24	795.78
481.41	645.99
481.59	683.44
481.77	641.31
481.95	631.94
482.13	669.39
482.31	678.76
482.49	606.20
482.67	648.33
482.85	767.70
483.03	667.05
483.21	702.16
483.39	638.97
483.57	685.78
483.74	683.44
483.92	730.25
484.10	690.46
484.28	674.07
484.46	758.33
484.64	702.16
484.82	671.73
485.00	674.07
485.18	702.16
485.35	706.84
485.53	739.61
485.71	763.01
485.89	765.36
486.07	713.86
486.25	674.07
486.43	718.54
486.61	774.72
486.78	671.73
486.96	727.91
487.14	725.57
487.32	770.04
487.50	760.67
487.68	702.16
487.85	697.48
488.03	699.82
488.21	727.91
488.39	667.05
488.57	809.83
488.75	753.65
488.92	730.25
489.10	779.40
489.28	753.65
489.46	690.46
489.64	699.82
489.81	741.95
489.99	662.37
490.17	671.73
490.35	739.61
490.53	688.12
490.70	664.71
490.88	711.52
491.06	711.52
491.24	760.67
491.41	706.84
491.59	725.57
491.77	664.71
491.95	657.69
492.13	648.33
492.30	648.33
492.48	695.14
492.66	683.44
492.84	706.84
493.01	734.93
493.19	690.46
493.37	718.54
493.54	676.41
493.72	697.48
493.90	627.26
494.08	718.54
494.25	723.23
494.43	699.82
494.61	627.26
494.79	645.99
494.96	624.92
495.14	748.97
495.32	601.52
495.49	695.14
495.67	667.05
495.85	697.48
496.02	653.01
496.20	685.78
496.38	685.78
496.55	667.05
496.73	667.05
496.91	734.93
497.09	638.97
497.26	685.78
497.44	645.99
497.62	648.33
497.79	692.80
497.97	699.82
498.14	657.69
498.32	671.73
498.50	636.63
498.67	692.80
498.85	734.93
499.03	692.80
499.20	650.67
499.38	620.24
499.56	685.78
499.73	751.31
499.91	669.39
500.08	636.63
500.26	678.76
500.44	685.78
500.61	709.18
500.79	634.29
500.97	664.71
501.14	706.84
501.32	697.48
501.49	629.60
501.67	688.12
501.84	664.71
502.02	645.99
502.20	692.80
502.37	695.14
502.55	688.12
502.72	690.46
502.90	681.10
503.07	681.10
503.25	613.22
503.43	676.41
503.60	657.69
503.78	685.78
503.95	660.03
504.13	561.73
504.30	599.18
504.48	667.05
504.65	699.82
504.83	690.46
505.01	636.63
505.18	643.65
505.36	636.63
505.53	711.52
505.71	620.24
505.88	615.56
506.06	587.47
506.23	599.18
506.41	681.10
506.58	685.78
506.76	664.71
506.93	664.71
507.11	720.88
507.28	645.99
507.46	702.16
507.63	674.07
507.81	617.90
507.98	615.56
508.16	650.67
508.33	636.63
508.50	695.14
508.68	664.71
508.85	648.33
509.03	746.63
509.20	641.31
509.38	699.82
509.55	683.44
509.73	624.92
509.90	732.59
510.08	671.73
510.25	648.33
510.42	587.47
510.60	638.97
510.77	627.26
510.95	667.05
511.12	674.07
511.30	610.88
511.47	643.65
511.64	664.71
511.82	634.29
511.99	667.05
512.17	662.37
512.34	650.67
512.51	650.67
512.69	697.48
512.86	671.73
513.04	676.41
513.21	692.80
513.38	681.10
513.56	678.76
513.73	648.33
513.90	697.48
514.08	655.35
514.25	622.58
514.43	629.60
514.60	634.29
514.77	638.97
514.95	599.18
515.12	573.43
515.29	655.35
515.47	606.20
515.64	643.65
515.81	741.95
515.99	620.24
516.16	629.60
516.33	613.22
516.51	638.97
516.68	662.37
516.85	671.73
517.03	643.65
517.20	681.10
517.37	629.60
517.54	709.18
517.72	641.31
517.89	645.99
518.06	631.94
518.24	667.05
518.41	634.29
518.58	653.01
518.75	683.44
518.93	634.29
519.10	587.47
519.27	645.99
519.45	622.58
519.62	613.22
519.79	641.31
519.96	697.48
520.14	662.37
520.31	608.54
520.48	643.65
520.65	608.54
520.83	678.76
521.00	653.01
521.17	641.31
521.34	709.18
521.52	624.92
521.69	702.16
521.86	678.76
522.03	676.41
522.20	636.63
522.38	716.20
522.55	669.39
522.72	660.03
522.89	709.18
523.07	596.84
523.24	681.10
523.41	685.78
523.58	645.99
523.75	622.58
523.92	636.63
524.10	657.69
524.27	690.46
524.44	650.67
524.61	617.90
524.78	674.07
524.96	617.90
525.13	683.44
525.30	636.63
525.47	592.16
525.64	622.58
525.81	617.90
525.98	697.48
526.16	704.50
526.33	669.39
526.50	636.63
526.67	669.39
526.84	613.22
527.01	685.78
527.18	734.93
527.36	669.39
527.53	653.01
527.70	734.93
527.87	662.37
528.04	678.76
528.21	643.65
528.38	648.33
528.55	748.97
528.72	613.22
528.89	681.10
529.07	674.07
529.24	685.78
529.41	667.05
529.58	702.16
529.75	610.88
529.92	622.58
530.09	620.24
530.26	648.33
530.43	697.48
530.60	653.01
530.77	697.48
530.94	603.86
531.11	674.07
531.28	636.63
531.46	662.37
531.63	667.05
531.80	706.84
531.97	676.41
532.14	624.92
532.31	645.99
532.48	596.84
532.65	627.26
532.82	631.94
532.99	702.16
533.16	692.80
533.33	594.50
533.50	699.82
533.67	669.39
533.84	671.73
534.01	641.31
534.18	645.99
534.35	683.44
534.52	741.95
534.69	725.57
534.86	613.22
535.03	720.88
535.20	704.50
535.37	690.46
535.54	683.44
535.71	648.33
535.88	695.14
536.05	664.71
536.22	613.22
536.38	662.37
536.55	655.35
536.72	758.33
536.89	636.63
537.06	763.01
537.23	727.91
537.40	704.50
537.57	645.99
537.74	765.36
537.91	800.46
538.08	758.33
538.25	767.70
538.42	727.91
538.59	830.89
538.75	727.91
538.92	777.06
539.09	873.02
539.26	816.85
539.43	826.21
539.60	812.17
539.77	901.11
539.94	858.98
540.11	940.90
540.28	997.07
540.44	1011.11
540.61	976.00
540.78	976.00
540.95	1053.24
541.12	1203.04
541.29	1247.51
541.46	1205.38
541.62	1259.21
541.79	1308.36
541.96	1303.68
542.13	1275.59
542.30	1207.72
542.47	1315.38
542.63	1275.59
542.80	1219.42
542.97	1242.82
543.14	1282.61
543.31	1203.04
543.48	1205.38
543.64	1233.46
543.81	1254.53
543.98	1275.59
544.15	1224.10
544.32	1149.20
544.48	1165.59
544.65	1219.42
544.82	1142.18
544.99	1114.10
545.16	1240.48
545.32	1240.48
545.49	1521.35
545.66	1970.73
545.83	2218.83
546.00	1930.94
546.16	1680.50
546.33	1472.20
546.50	1336.45
546.67	1270.91
546.83	1107.07
547.00	1062.60
547.17	1034.52
547.34	980.68
547.50	971.32
547.67	1008.77
547.84	926.85
548.00	966.64
548.17	973.66
548.34	936.21
548.51	978.34
548.67	908.13
548.84	940.90
549.01	889.40
549.18	882.38
549.34	856.64
549.51	863.66
549.68	835.57
549.84	896.43
550.01	835.57
550.18	908.13
550.34	894.08
550.51	823.87
550.68	919.83
550.84	763.01
551.01	821.53
551.18	760.67
551.34	777.06
551.51	772.38
551.68	746.63
551.84	868.34
552.01	725.57
552.18	772.38
552.34	739.61
552.51	725.57
552.68	758.33
552.84	709.18
553.01	751.31
553.18	727.91
553.34	781.74
553.51	678.76
553.67	800.46
553.84	779.40
554.01	711.52
554.17	727.91
554.34	678.76
554.51	751.31
554.67	702.16
554.84	676.41
555.00	763.01
555.17	699.82
555.33	699.82
555.50	629.60
555.67	669.39
555.83	624.92
556.00	699.82
556.16	772.38
556.33	681.10
556.50	690.46
556.66	674.07
556.83	678.76
556.99	671.73
557.16	685.78
557.32	727.91
557.49	692.80
557.65	664.71
557.82	624.92
557.98	641.31
558.15	744.29
558.32	641.31
558.48	671.73
558.65	641.31
558.81	641.31
558.98	699.82
559.14	650.67
559.31	580.45
559.47	653.01
559.64	615.56
559.80	601.52
559.97	683.44
560.13	730.25
560.30	671.73
560.46	645.99
560.63	683.44
560.79	685.78
560.96	592.16
561.12	606.20
561.29	671.73
561.45	638.97
561.61	610.88
561.78	697.48
561.94	599.18
562.11	720.88
562.27	697.48
562.44	678.76
562.60	727.91
562.77	674.07
562.93	662.37
563.10	655.35
563.26	650.67
563.42	688.12
563.59	748.97
563.75	610.88
563.92	704.50
564.08	664.71
564.24	660.03
564.41	737.27
564.57	667.05
564.74	662.37
564.90	704.50
565.07	674.07
565.23	636.63
565.39	610.88
565.56	683.44
565.72	636.63
565.88	662.37
566.05	683.44
566.21	634.29
566.38	638.97
566.54	734.93
566.70	641.31
566.87	648.33
567.03	695.14
567.19	669.39
567.36	692.80
567.52	676.41
567.68	543.00
567.85	587.47
568.01	627.26
568.17	638.97
568.34	629.60
568.50	723.23
568.66	592.16
568.83	713.86
568.99	613.22
569.15	655.35
569.32	690.46
569.48	645.99
569.64	657.69
569.81	702.16
569.97	653.01
570.13	655.35
570.30	704.50
570.46	704.50
570.62	653.01
570.78	631.94
570.95	606.20
571.11	723.23
571.27	737.27
571.43	697.48
571.60	629.60
571.76	697.48
571.92	681.10
572.09	690.46
572.25	688.12
572.41	657.69
572.57	641.31
572.74	669.39
572.90	671.73
573.06	685.78
573.22	636.63
573.38	683.44
573.55	711.52
573.71	650.67
573.87	615.56
574.03	667.05
574.20	709.18
574.36	681.10
574.52	641.31
574.68	629.60
574.84	671.73
575.01	603.86
575.17	631.94
575.33	613.22
575.49	624.92
575.65	648.33
575.82	671.73
575.98	629.60
576.14	655.35
576.30	699.82
576.46	830.89
576.62	844.93
576.79	1008.77
576.95	819.19
577.11	802.80
577.27	758.33
577.43	755.99
577.59	777.06
577.75	739.61
577.92	692.80
578.08	655.35
578.24	636.63
578.40	697.48
578.56	802.80
578.72	915.15
578.88	980.68
579.04	884.72
579.21	861.32
579.37	755.99
579.53	716.20
579.69	795.78
579.85	795.78
580.01	779.40
580.17	784.08
580.33	739.61
580.49	709.18
580.65	695.14
580.82	685.78
580.98	751.31
581.14	737.27
581.30	704.50
581.46	777.06
581.62	734.93
581.78	837.91
581.94	763.01
582.10	781.74
582.26	753.65
582.42	751.31
582.58	784.08
582.74	798.12
582.90	828.55
583.06	755.99
583.22	741.95
583.38	800.46
583.54	816.85
583.70	833.23
583.86	755.99
584.02	821.53
584.18	744.29
584.34	760.67
584.50	758.33
584.66	723.23
584.82	753.65
584.98	821.53
585.14	692.80
585.30	774.72
585.46	732.59
585.62	748.97
585.78	730.25
585.94	748.97
586.10	781.74
586.26	823.87
586.42	753.65
586.58	798.12
586.74	758.33
586.90	800.46
587.06	807.48
587.22	840.25
587.38	851.96
587.54	835.57
587.70	887.06
587.86	861.32
588.02	816.85
588.18	798.12
588.34	720.88
588.49	697.48
588.65	706.84
588.81	779.40
588.97	720.88
589.13	763.01
589.29	732.59
589.45	711.52
589.61	725.57
589.77	777.06
589.93	758.33
590.08	709.18
590.24	692.80
590.40	695.14
590.56	748.97
590.72	727.91
590.88	704.50
591.04	753.65
591.20	770.04
591.35	716.20
591.51	713.86
591.67	716.20
591.83	737.27
591.99	755.99
592.15	744.29
592.31	772.38
592.46	807.48
592.62	786.42
592.78	737.27
592.94	833.23
593.10	807.48
593.26	802.80
593.41	809.83
593.57	779.40
593.73	734.93
593.89	683.44
594.05	763.01
594.20	767.70
594.36	753.65
594.52	739.61
594.68	758.33
594.84	741.95
594.99	678.76
595.15	748.97
595.31	737.27
595.47	765.36
595.62	662.37
595.78	713.86
595.94	690.46
596.10	671.73
596.25	702.16
596.41	716.20
596.57	704.50
596.73	751.31
596.88	795.78
597.04	723.23
597.20	692.80
597.36	660.03
597.51	641.31
597.67	641.31
597.83	671.73
597.99	638.97
598.14	725.57
598.30	755.99
598.46	720.88
598.61	809.83
598.77	741.95
598.93	805.14
599.09	788.76
599.24	732.59
599.40	725.57
599.56	784.08
599.71	678.76
599.87	760.67
600.03	812.17
600.18	706.84
600.34	734.93
600.50	709.18
600.65	734.93
600.81	683.44
600.97	655.35
601.12	676.41
601.28	725.57
601.44	676.41
601.59	648.33
601.75	699.82
601.91	624.92
602.06	725.57
602.22	692.80
602.37	702.16
602.53	664.71
602.69	681.10
602.84	636.63
603.00	732.59
603.16	711.52
603.31	753.65
603.47	709.18
603.62	594.50
603.78	751.31
603.94	653.01
604.09	603.86
604.25	713.86
604.40	704.50
604.56	723.23
604.71	725.57
604.87	676.41
605.03	660.03
605.18	699.82
605.34	751.31
605.49	718.54
605.65	620.24
605.80	674.07
605.96	631.94
606.12	699.82
606.27	744.29
606.43	718.54
606.58	671.73
606.74	751.31
606.89	723.23
607.05	788.76
607.20	826.21
607.36	681.10
607.51	695.14
607.67	779.40
607.82	786.42
607.98	798.12
608.13	739.61
608.29	828.55
608.44	807.48
608.60	781.74
608.75	807.48
608.91	758.33
609.06	856.64
609.22	919.83
609.37	840.25
609.53	887.06
609.68	926.85
