SpectraSuite Data File
++++++++++++++++++++++++++++++++++++
Date: Thu Oct 24 13:21:20 EDT 2013
User: stostad
Dark Spectrum Present: No
Reference Spectrum Present: No
Number of Sampled Component Spectra: 1
Spectrometers: USB2+H05261
Integration Time (usec): 100000 (USB2+H05261)
Spectra Averaged: 1 (USB2+H05261)
Boxcar Smoothing: 0 (USB2+H05261)
Correct for Electrical Dark: No (USB2+H05261)
Strobe/Lamp Enabled: No (USB2+H05261)
Correct for Detector Non-linearity: No (USB2+H05261)
Correct for Stray Light: No (USB2+H05261)
Number of Pixels in Processed Spectrum: 2048
>>>>>Begin Processed Spectral Data<<<<<
365.73	491.51
365.92	491.51
366.12	491.51
366.32	526.62
366.52	484.49
366.72	561.73
366.91	475.13
367.11	479.81
367.31	449.38
367.51	425.98
367.70	468.11
367.90	512.58
368.10	531.30
368.30	440.02
368.49	507.90
368.69	435.34
368.89	510.24
369.09	519.60
369.28	571.09
369.48	479.81
369.68	550.03
369.87	531.30
370.07	557.05
370.27	641.31
370.47	571.09
370.66	819.19
370.86	844.93
371.06	851.96
371.25	826.21
371.45	884.72
371.65	875.36
371.84	875.36
372.04	866.00
372.24	903.45
372.44	905.79
372.63	887.06
372.83	940.90
373.03	917.49
373.22	943.24
373.42	964.30
373.62	912.81
373.81	933.87
374.01	861.32
374.21	999.41
374.40	947.92
374.60	966.64
374.79	976.00
374.99	877.70
375.19	987.71
375.38	976.00
375.58	959.62
375.78	1057.92
375.97	1055.58
376.17	971.32
376.37	1057.92
376.56	1001.75
376.76	1060.26
376.95	1053.24
377.15	987.71
377.35	1004.09
377.54	1034.52
377.74	1043.88
377.93	1041.54
378.13	1053.24
378.33	1025.15
378.52	1008.77
378.72	1048.56
378.91	1125.80
379.11	1097.71
379.31	1050.90
379.50	1008.77
379.70	1114.10
379.89	1111.75
380.09	1078.99
380.28	1088.35
380.48	1067.28
380.68	1102.39
380.87	1076.65
381.07	1116.44
381.26	1116.44
381.46	1090.69
381.65	1139.84
381.85	1071.97
382.04	1181.97
382.24	1172.61
382.43	1097.71
382.63	1100.05
382.83	1116.44
383.02	1149.20
383.22	1095.37
383.41	1128.14
383.61	1121.12
383.80	1191.33
384.00	1132.82
384.19	1160.91
384.39	1172.61
384.58	1151.54
384.78	1188.99
384.97	1163.25
385.17	1270.91
385.36	1205.38
385.56	1240.48
385.75	1245.16
385.95	1289.64
386.14	1301.34
386.34	1210.06
386.53	1261.55
386.72	1132.82
386.92	1231.12
387.11	1245.16
387.31	1284.95
387.50	1270.91
387.70	1261.55
387.89	1282.61
388.09	1296.66
388.28	1310.70
388.48	1352.83
388.67	1299.00
388.86	1317.72
389.06	1270.91
389.25	1341.13
389.45	1334.11
389.64	1338.79
389.84	1315.38
390.03	1437.09
390.22	1390.28
390.42	1345.81
390.61	1336.45
390.81	1322.40
391.00	1390.28
391.19	1357.51
391.39	1434.75
391.58	1404.32
391.78	1385.60
391.97	1352.83
392.16	1373.89
392.36	1394.96
392.55	1416.02
392.75	1430.07
392.94	1565.82
393.13	1493.26
393.33	1554.12
393.52	1394.96
393.71	1483.90
393.91	1413.68
394.10	1401.98
394.29	1516.67
394.49	1423.05
394.68	1582.20
394.88	1589.22
395.07	1577.52
395.26	1680.50
395.46	1519.01
395.65	1603.27
395.84	1547.09
396.04	1610.29
396.23	1629.01
396.42	1631.35
396.62	1647.74
396.81	1724.97
397.00	1612.63
397.19	1579.86
397.39	1650.08
397.58	1631.35
397.77	1605.61
397.97	1575.18
398.16	1624.33
398.35	1668.80
398.55	1778.81
398.74	1617.31
398.93	1699.23
399.12	1685.19
399.32	1678.16
399.51	1743.70
399.70	1785.83
399.90	1682.85
400.09	1748.38
400.28	1849.02
400.47	1724.97
400.67	1795.19
400.86	1769.44
401.05	1816.26
401.24	1839.66
401.44	1811.57
401.63	1893.49
401.82	1842.00
402.01	1792.85
402.21	1872.43
402.40	2097.12
402.59	1921.58
402.78	2001.16
402.97	1914.56
403.17	1940.30
403.36	1956.69
403.55	2036.27
403.74	1973.07
403.93	2057.33
404.13	2167.34
404.32	2050.31
404.51	2101.80
404.70	2122.87
404.89	2076.06
405.09	2097.12
405.28	2150.95
405.47	2047.97
405.66	2059.67
405.85	2153.29
406.05	2200.10
406.24	2195.42
406.43	2230.53
406.62	2101.80
406.81	2312.45
407.00	2326.49
407.20	2083.08
407.39	2160.31
407.58	2321.81
407.77	2307.77
407.96	2244.57
408.15	2366.28
408.34	2361.60
408.54	2385.01
408.73	2335.85
408.92	2377.98
409.11	2429.48
409.30	2431.82
409.49	2333.51
409.68	2541.82
409.87	2490.33
410.07	2403.73
410.26	2513.74
410.45	2555.86
410.64	2588.63
410.83	2544.16
411.02	2663.53
411.21	2567.57
411.40	2682.25
411.59	2736.09
411.78	2630.76
411.98	2715.02
412.17	2724.38
412.36	2663.53
412.55	2839.07
412.74	2761.83
412.93	2913.97
413.12	2754.81
413.31	2918.65
413.50	2850.77
413.69	2881.20
413.88	3016.95
414.07	2981.84
414.26	2923.33
414.45	3019.29
414.64	2998.23
414.83	2972.48
415.02	3164.40
415.22	3052.06
415.41	3201.85
415.60	3122.27
415.79	3213.56
415.98	3117.59
416.17	3220.58
416.36	3288.45
416.55	3197.17
416.74	3225.26
416.93	3190.15
417.12	3393.78
417.31	3258.03
417.50	3335.26
417.69	3393.78
417.88	3375.05
418.07	3405.48
418.26	3410.16
418.45	3442.93
418.64	3592.72
418.83	3536.55
419.02	3632.51
419.21	3644.21
419.39	3517.83
419.58	3569.32
419.77	3412.50
419.96	3609.11
420.15	3585.70
420.34	3667.62
420.53	3627.83
420.72	3726.13
420.91	3747.20
421.10	3681.66
421.29	3700.39
421.48	3728.47
421.67	3686.34
421.86	3716.77
422.05	3861.88
422.24	3843.16
422.43	3880.61
422.61	3761.24
422.80	3936.78
422.99	3946.14
423.18	3833.80
423.37	3913.38
423.56	3822.09
423.75	3861.88
423.94	3702.73
424.13	3627.83
424.32	3737.84
424.50	3831.46
424.69	3932.10
424.88	3901.67
425.07	3850.18
425.26	3695.71
425.45	3740.18
425.64	3887.63
425.83	3794.01
426.01	3875.93
426.20	3950.82
426.39	3871.25
426.58	4035.08
426.77	3974.23
426.96	4049.13
427.15	3997.64
427.33	3887.63
427.52	3957.85
427.71	4152.11
427.90	4180.20
428.09	4100.62
428.28	4149.77
428.46	4299.56
428.65	4184.88
428.84	4264.46
429.03	4299.56
429.22	4093.60
429.40	4308.93
429.59	4219.99
429.78	4212.96
429.97	4177.86
430.16	4311.27
430.34	4236.37
430.53	4276.16
430.72	4374.46
430.91	4250.41
431.10	4360.42
431.28	4337.01
431.47	4538.30
431.66	4500.85
431.85	4458.72
432.03	4498.51
432.22	4517.23
432.41	4613.20
432.60	4447.02
432.79	4447.02
432.97	4610.86
433.16	4477.44
433.35	4505.53
433.54	4634.26
433.72	4629.58
433.91	4720.86
434.10	4681.07
434.28	4784.06
434.47	4746.61
434.66	4662.35
434.85	4697.46
435.03	4835.55
435.22	5027.47
435.41	5203.01
435.59	5032.15
435.78	5125.77
435.97	5135.14
436.16	4849.59
436.34	4978.32
436.53	4947.89
436.72	4905.76
436.90	4975.98
437.09	5100.03
437.28	4968.96
437.46	4997.04
437.65	4983.00
437.84	5226.42
438.02	5188.97
438.21	5132.79
438.40	4999.38
438.58	5163.22
438.77	5432.38
438.96	5266.21
439.14	5526.00
439.33	5364.51
439.52	5331.74
439.70	5420.68
439.89	5495.58
440.08	5504.94
440.26	5509.62
440.45	5605.58
440.63	5596.22
440.82	5724.95
441.01	5579.84
441.19	5741.33
441.38	5598.56
441.57	5767.08
441.75	5909.85
441.94	5774.10
442.12	5966.03
442.31	6092.41
442.50	5867.72
442.68	5930.92
442.87	5937.94
443.05	6164.97
443.24	6162.63
443.43	6132.20
443.61	6078.37
443.80	6167.31
443.98	6040.92
444.17	5813.89
444.35	6162.63
444.54	6282.00
444.73	6202.42
444.91	6249.23
445.10	6221.14
445.28	6258.59
445.47	6263.27
445.65	6303.06
445.84	6253.91
446.02	6324.13
446.21	6253.91
446.39	6307.74
446.58	6230.51
446.77	6347.53
446.95	6202.42
447.14	6143.91
447.32	6342.85
447.51	6392.00
447.69	6370.94
447.88	6253.91
448.06	6258.59
448.25	6282.00
448.43	6476.26
448.62	6298.38
448.80	6193.06
448.99	6349.87
449.17	6518.39
449.36	6558.18
449.54	6377.96
449.73	6558.18
449.91	6722.02
450.10	6604.99
450.28	6810.96
450.46	6775.85
450.65	6642.44
450.83	6703.29
451.02	6764.15
451.20	6787.55
451.39	6663.51
451.57	6799.26
451.76	6848.41
451.94	6946.71
452.13	6778.19
452.31	6906.92
452.49	6827.34
452.68	6850.75
452.86	6740.74
453.05	7066.08
453.23	6991.18
453.42	6850.75
453.60	6827.34
453.78	7030.97
453.97	7126.93
454.15	6949.05
454.34	6918.62
454.52	7063.74
454.70	7063.74
454.89	6986.50
455.07	7349.28
455.26	7248.64
455.44	7274.38
455.62	7309.49
455.81	7178.42
455.99	7307.15
456.17	7389.07
456.36	7321.20
456.54	7260.34
456.73	7501.42
456.91	7751.85
457.09	7655.89
457.28	7573.97
457.46	7686.32
457.64	7592.70
457.83	7569.29
458.01	7646.53
458.19	7775.26
458.38	7606.74
458.56	7829.09
458.74	7793.98
458.93	7796.32
459.11	7857.18
459.29	7810.37
459.48	7880.58
459.66	7978.89
459.84	8079.53
460.03	8065.49
460.21	8037.40
460.39	7796.32
460.57	7971.86
460.76	7978.89
460.94	8039.74
461.12	8128.68
461.31	8271.45
461.49	8124.00
461.67	8311.24
461.85	8255.07
462.04	8306.56
462.22	8521.89
462.40	8428.27
462.59	8360.39
462.77	8329.97
462.95	8437.63
463.13	8229.32
463.32	8404.86
463.50	8496.14
463.68	8512.53
463.86	8648.28
464.05	8367.42
464.23	8418.91
464.41	8599.13
464.59	8484.44
464.78	8720.84
464.96	8650.62
465.14	8468.06
465.32	8549.98
465.50	8746.58
465.69	8725.52
465.87	8894.04
466.05	8739.56
466.23	8805.10
466.41	8798.07
466.60	9008.72
466.78	8692.75
466.96	8739.56
467.14	8959.57
467.32	8980.64
467.51	9055.53
467.69	8894.04
467.87	9069.58
468.05	9228.73
468.23	9006.38
468.41	9095.32
468.60	8980.64
468.78	9177.24
468.96	9078.94
469.14	9252.14
469.32	9345.76
469.50	9118.73
469.69	9128.09
469.87	9451.08
470.05	9324.69
470.23	9521.30
470.41	9462.79
470.59	9614.92
470.77	9437.04
470.95	9226.39
471.14	9872.38
471.32	9357.46
471.50	9563.43
471.68	9572.79
471.86	9734.29
472.04	9645.35
472.22	9982.38
472.40	10003.45
472.58	10040.90
472.77	10059.62
472.95	10136.86
473.13	10296.02
473.31	9984.73
473.49	10094.73
473.67	10195.37
473.85	10024.51
474.03	10443.47
474.21	10436.45
474.39	10450.49
474.57	10464.54
474.75	10520.71
474.93	10668.16
475.12	10691.57
475.30	10663.48
475.48	10682.20
475.66	10874.13
475.84	10810.93
476.02	10927.96
476.20	10944.34
476.38	11197.12
476.56	11410.11
476.74	11276.70
476.92	11419.47
477.10	11398.41
477.28	11541.18
477.46	11400.75
477.64	11686.29
477.82	11658.21
478.00	11882.90
478.18	11864.18
478.36	11875.88
478.54	12042.06
478.72	12074.82
478.90	12430.59
479.08	12587.40
479.26	12393.14
479.44	12343.99
479.62	12615.49
479.80	12863.58
479.98	12535.91
480.16	13064.87
480.34	12702.09
480.52	13205.30
480.70	13217.01
480.88	13132.75
481.06	13308.29
481.24	13310.63
481.41	13486.17
481.59	13722.56
481.77	13680.43
481.95	13565.74
482.13	13881.72
482.31	14005.77
482.49	14284.29
482.67	13977.68
482.85	14445.79
483.03	14513.66
483.21	14277.27
483.39	14494.94
483.57	14728.99
483.74	14602.60
483.92	14918.57
484.10	14696.22
484.28	15138.58
484.46	15386.68
484.64	15793.94
484.82	15370.30
485.00	15489.67
485.18	16009.26
485.35	16238.64
485.53	16088.84
485.71	16198.85
485.89	16552.27
486.07	16205.87
486.25	16390.77
486.43	16650.57
486.61	16732.49
486.78	16908.03
486.96	16971.22
487.14	17193.58
487.32	17053.14
487.50	17214.64
487.68	17226.34
487.85	17603.17
488.03	18090.00
488.21	17991.70
488.39	17685.09
488.57	17914.46
488.75	18368.52
488.92	18478.53
489.10	18714.92
489.28	18616.62
489.46	18967.70
489.64	18888.12
489.81	19246.23
489.99	19222.82
490.17	19311.76
490.35	19599.65
490.53	19929.66
490.70	19894.55
490.88	19585.60
491.06	20255.00
491.24	19999.88
491.41	20257.34
491.59	20257.34
491.77	20388.41
491.95	20615.44
492.13	20882.26
492.30	20772.25
492.48	20929.07
492.66	21090.57
492.84	21200.57
493.01	21507.18
493.19	21497.82
493.37	21598.46
493.54	21832.52
493.72	21614.85
493.90	21521.23
494.08	22141.47
494.25	22356.80
494.43	22380.20
494.61	22363.82
494.79	22867.03
494.96	22162.53
495.14	22621.28
495.32	22745.33
495.49	23080.02
495.67	23255.56
495.85	23318.76
496.02	23330.46
496.20	23520.04
496.38	23592.60
496.55	23435.78
496.73	24142.63
496.91	24215.18
497.09	24046.66
497.26	24077.09
497.44	24121.56
497.62	24271.36
497.79	24847.13
497.97	24489.03
498.14	24812.02
498.32	24980.54
498.50	24690.31
498.67	25345.66
498.85	24819.04
499.03	25404.17
499.20	25523.54
499.38	25282.47
499.56	25860.58
499.73	25776.32
499.91	25841.85
500.08	25989.31
500.26	25706.10
500.44	26272.51
500.61	26108.68
500.79	26593.17
500.97	26501.89
501.14	26693.81
501.32	26562.74
501.49	26536.99
501.67	26649.34
501.84	26757.00
502.02	26991.06
502.20	27084.68
502.37	27061.27
502.55	27138.51
502.72	27208.73
502.90	27353.84
503.07	27246.18
503.25	27599.60
503.43	27318.73
503.60	27782.16
503.78	27821.95
503.95	27461.51
504.13	27936.63
504.30	27878.12
504.48	27908.55
504.65	28491.34
504.83	28442.19
505.01	28624.75
505.18	28610.71
505.36	28936.04
505.53	28617.73
505.71	28723.05
505.88	28844.76
506.06	28519.43
506.23	29130.31
506.41	28971.15
506.58	29479.05
506.76	29366.70
506.93	29362.02
507.11	29347.98
507.28	29394.79
507.46	29729.48
507.63	29689.70
507.81	29905.02
507.98	29413.51
508.16	29827.79
508.33	29769.27
508.50	30216.32
508.68	29989.28
508.85	30520.59
509.03	30349.73
509.20	30221.00
509.38	30543.99
509.55	30764.00
509.73	30719.53
509.90	31129.12
510.08	31002.74
510.25	31283.60
510.42	31321.05
510.60	30993.37
510.77	31072.95
510.95	31414.67
511.12	31634.68
511.30	31859.37
511.47	31943.63
511.64	31899.16
511.82	32126.19
511.99	31510.63
512.17	32348.54
512.34	31992.78
512.51	32367.27
512.69	32503.02
512.86	32561.53
513.04	32561.53
513.21	32479.61
513.38	32559.19
513.56	32474.93
513.73	32566.21
513.90	32861.12
514.08	32641.11
514.25	33099.86
514.43	33120.92
514.60	33125.60
514.77	33111.56
514.95	33191.14
515.12	33043.68
515.29	33287.10
515.47	33998.62
515.64	33666.27
515.81	33600.73
515.99	33701.37
516.16	33876.91
516.33	33612.43
516.51	34216.29
516.68	34490.13
516.85	34143.74
517.03	34258.42
517.20	34017.35
517.37	34319.28
517.54	34321.62
517.72	34267.78
517.89	33977.56
518.06	34338.00
518.24	34721.85
518.41	34394.17
518.58	34574.39
518.75	34920.79
518.93	34962.92
519.10	34679.72
519.27	35063.57
519.45	35208.68
519.62	35529.33
519.79	35211.02
519.96	35484.86
520.14	35161.87
520.31	35227.40
520.48	35337.41
520.65	35482.52
520.83	35700.19
521.00	35744.66
521.17	35651.04
521.34	35487.20
521.52	36168.30
521.69	36254.90
521.86	36453.84
522.03	36282.98
522.20	36238.51
522.38	36816.63
522.55	36730.03
522.72	36556.83
522.89	36135.53
523.07	36737.05
523.24	36474.91
523.41	36685.56
523.58	36737.05
523.75	37247.29
523.92	37214.52
524.10	37118.56
524.27	37446.23
524.44	37525.81
524.61	37202.82
524.78	37471.98
524.96	37373.67
525.13	37886.25
525.30	37956.47
525.47	37846.46
525.64	37888.59
525.81	37773.91
525.98	37947.11
526.16	37275.37
526.33	37649.86
526.50	38279.46
526.67	37757.52
526.84	38206.90
527.01	38457.34
527.18	38286.48
527.36	38707.78
527.53	37979.87
527.70	38485.43
527.87	38710.12
528.04	38998.01
528.21	38452.66
528.38	38855.23
528.55	39005.03
528.72	38775.66
528.89	39323.34
529.07	38569.69
529.24	38770.97
529.41	39131.42
529.58	39225.04
529.75	38923.11
529.92	39342.06
530.09	39070.56
530.26	39484.84
530.43	39084.61
530.60	39005.03
530.77	39533.99
530.94	39550.37
531.11	39835.92
531.28	39555.05
531.46	40126.14
531.63	39566.76
531.80	40121.46
531.97	39990.39
532.14	39655.70
532.31	39468.45
532.48	40306.37
532.65	40268.92
532.82	39992.73
532.99	40367.22
533.16	40236.15
533.33	40732.34
533.50	40498.29
533.67	40425.73
533.84	40348.50
534.01	40430.41
534.18	40294.66
534.35	40947.67
534.52	40652.76
534.69	40917.25
534.86	40882.14
535.03	40844.69
535.20	41125.55
535.37	40582.55
535.54	41542.17
535.71	40980.44
535.88	41020.23
536.05	41186.41
536.22	41315.14
536.38	41233.22
536.55	41336.20
536.72	41560.89
536.89	41633.45
537.06	41698.98
537.23	42106.24
537.40	41921.34
537.57	41553.87
537.74	41361.95
537.91	41844.10
538.08	41944.74
538.25	41720.05
538.42	41930.70
538.59	41909.63
538.75	42029.00
538.92	41940.06
539.09	41813.67
539.26	41911.97
539.43	42164.75
539.60	42066.45
539.77	42607.11
539.94	42892.66
540.11	42462.00
540.28	42873.93
540.44	42714.78
540.61	42946.49
540.78	42628.18
540.95	42651.58
541.12	42527.53
541.29	43370.13
541.46	43295.23
541.62	43316.29
541.79	43290.55
541.96	42658.60
542.13	42803.72
542.30	43192.25
542.47	43267.14
542.63	43372.47
542.80	43878.02
542.97	44023.14
543.14	44287.62
543.31	43618.22
543.48	43859.30
543.64	44076.97
543.81	43800.79
543.98	43812.49
544.15	43957.60
544.32	43725.89
544.48	44477.20
544.65	44383.58
544.82	44734.66
544.99	43828.87
545.16	44222.08
545.32	44519.33
545.49	44715.93
545.66	45272.98
545.83	45361.92
546.00	45509.38
546.16	44971.05
546.33	44940.63
546.50	44406.98
546.67	44760.40
546.83	44165.91
547.00	44533.37
547.17	44301.66
547.34	44416.35
547.50	44687.85
547.67	44701.89
547.84	44971.05
548.00	45170.00
548.17	45375.97
548.34	45038.93
548.51	45263.62
548.67	44961.69
548.84	45013.18
549.01	45123.19
549.18	45214.47
549.34	45333.84
549.51	45008.50
549.68	45228.51
549.84	45076.38
550.01	45631.08
550.18	44687.85
550.34	45116.17
550.51	45478.95
550.68	45577.25
550.84	45020.20
551.01	45656.83
551.18	45446.18
551.34	45146.59
551.51	45478.95
551.68	45577.25
551.84	45846.41
552.01	45247.24
552.18	45359.58
552.34	45633.42
552.51	45902.59
552.68	45645.13
552.84	45778.54
553.01	45914.29
553.18	46300.48
553.34	46174.09
553.51	45977.48
553.67	46204.52
553.84	46391.76
554.01	45998.55
554.17	46089.83
554.34	46211.54
554.51	45776.20
554.67	46501.76
554.84	46316.86
555.00	45645.13
555.17	45694.28
555.33	46660.92
555.50	46323.88
555.67	45947.06
555.83	46330.90
556.00	46342.61
556.16	46340.27
556.33	46665.60
556.50	46160.05
556.66	46651.56
556.83	46160.05
556.99	46487.72
557.16	46382.40
557.32	46703.05
557.49	46955.83
557.65	46424.53
557.82	46775.61
557.98	46993.28
558.15	46429.21
558.32	46932.42
558.48	46611.77
558.65	46728.80
558.81	46649.22
558.98	46747.52
559.14	47529.26
559.31	46604.75
559.47	46602.41
559.64	46941.78
559.80	46674.96
559.97	46752.20
560.13	46937.10
560.30	47007.32
560.46	47213.29
560.63	47349.04
560.79	47267.12
560.96	47281.16
561.12	47360.74
561.29	47049.45
561.45	47051.79
561.61	46813.05
561.78	47009.66
561.94	47430.96
562.11	47409.89
562.27	47650.97
562.44	47777.36
562.60	47562.03
562.77	47330.31
562.93	46986.25
563.10	47866.30
563.26	47026.04
563.42	47849.91
563.59	47707.14
563.75	47613.52
563.92	47997.37
564.08	47445.00
564.24	47477.77
564.41	47508.19
564.57	47707.14
564.74	47379.46
564.90	47526.92
565.07	48168.22
565.23	47615.86
565.39	47985.66
565.56	48219.72
565.72	48547.39
565.88	48093.33
566.05	48114.39
566.21	47461.38
566.38	47910.77
566.54	47849.91
566.70	47990.34
566.87	48339.08
567.03	48128.44
567.19	48552.07
567.36	48093.33
567.52	47990.34
567.68	47683.73
567.85	48233.76
568.01	48282.91
568.17	48217.38
568.34	48390.58
568.50	48343.77
568.66	48371.85
568.83	48374.19
568.99	48027.79
569.15	48542.71
569.32	48018.43
569.48	47934.17
569.64	48224.40
569.81	47697.78
569.97	47508.19
570.13	48002.05
570.30	47782.04
570.46	48058.22
570.62	47735.23
570.78	47920.13
570.95	47985.66
571.11	48399.94
571.27	48236.10
571.43	48074.60
571.60	47702.46
571.76	48055.88
571.92	48299.30
572.09	48193.97
572.25	48612.93
572.41	48617.61
572.57	48779.10
572.74	48842.30
572.90	48128.44
573.06	48699.53
573.22	48224.40
573.38	48294.61
573.55	48025.45
573.71	48673.78
573.87	48538.03
574.03	48067.58
574.20	48587.18
574.36	48509.94
574.52	48615.27
574.68	48002.05
574.84	48739.32
575.01	48697.19
575.17	48318.02
575.33	48699.53
575.49	48362.49
575.65	48512.28
575.82	48526.33
575.98	48872.73
576.14	48662.08
576.30	48526.33
576.46	48285.25
576.62	48385.89
576.79	48790.81
576.95	48507.60
577.11	48559.09
577.27	48708.89
577.43	48484.20
577.59	48657.40
577.75	48662.08
577.92	48250.14
578.08	48285.25
578.24	48285.25
578.40	48823.58
578.56	48718.25
578.72	48987.41
578.88	48624.63
579.04	48879.75
579.21	48659.74
579.37	48912.52
579.53	48921.88
579.69	48500.58
579.85	48533.35
580.01	48626.97
580.17	48591.86
580.33	48980.39
580.49	48751.02
580.65	48704.21
580.82	48774.42
580.98	49113.80
581.14	48549.73
581.30	48708.89
581.46	48460.79
581.62	48952.30
581.78	48596.54
581.94	48952.30
582.10	48924.22
582.26	48835.28
582.42	48521.65
582.58	48655.06
582.74	48907.83
582.90	48722.93
583.06	48774.42
583.22	48893.79
583.38	49254.23
583.54	48479.52
583.70	48765.06
583.86	48746.34
584.02	49006.14
584.18	48966.35
584.34	48900.81
584.50	49214.44
584.66	48481.86
584.82	49013.16
584.98	49193.38
585.14	48903.15
585.30	49055.29
585.46	48921.88
585.62	48797.83
585.78	49352.54
585.94	49155.93
586.10	49326.79
586.26	49055.29
586.42	49418.07
586.58	48975.71
586.74	48898.47
586.90	48797.83
587.06	48942.94
587.22	49088.06
587.38	48877.41
587.54	49415.73
587.70	49635.74
587.86	49191.04
588.02	49270.62
588.18	49277.64
588.34	49148.91
588.49	49202.74
588.65	48903.15
588.81	49013.16
588.97	49052.95
589.13	49230.83
