SpectraSuite Data File
++++++++++++++++++++++++++++++++++++
Date: Thu Oct 24 13:21:24 EDT 2013
User: stostad
Dark Spectrum Present: No
Reference Spectrum Present: No
Number of Sampled Component Spectra: 1
Spectrometers: USB2+H05261
Integration Time (usec): 100000 (USB2+H05261)
Spectra Averaged: 1 (USB2+H05261)
Boxcar Smoothing: 0 (USB2+H05261)
Correct for Electrical Dark: No (USB2+H05261)
Strobe/Lamp Enabled: No (USB2+H05261)
Correct for Detector Non-linearity: No (USB2+H05261)
Correct for Stray Light: No (USB2+H05261)
Number of Pixels in Processed Spectrum: 2048
>>>>>Begin Processed Spectral Data<<<<<
365.73	491.51
365.92	491.51
366.12	491.51
366.32	528.96
366.52	496.19
366.72	468.11
366.91	379.17
367.11	442.36
367.31	458.74
367.51	433.00
367.70	416.62
367.90	524.28
368.10	475.13
368.30	503.22
368.49	477.47
368.69	528.96
368.89	428.32
369.09	484.49
369.28	545.34
369.48	463.43
369.68	521.94
369.87	538.32
370.07	585.13
370.27	559.39
370.47	608.54
370.66	922.17
370.86	915.15
371.06	891.74
371.25	884.72
371.45	983.02
371.65	990.05
371.84	954.94
372.04	1020.47
372.24	1062.60
372.44	980.68
372.63	1039.20
372.83	945.58
373.03	1018.13
373.22	964.30
373.42	992.39
373.62	1076.65
373.81	1043.88
374.01	1121.12
374.21	1116.44
374.40	1083.67
374.60	1109.41
374.79	1064.94
374.99	1027.50
375.19	1132.82
375.38	1153.88
375.58	1128.14
375.78	1081.33
375.97	1118.78
376.17	1137.50
376.37	1100.05
376.56	1043.88
376.76	1081.33
376.95	1146.86
377.15	1151.54
377.35	1203.04
377.54	1184.31
377.74	1259.21
377.93	1228.78
378.13	1198.35
378.33	1179.63
378.52	1100.05
378.72	1207.72
378.91	1214.74
379.11	1165.59
379.31	1188.99
379.50	1203.04
379.70	1263.89
379.89	1334.11
380.09	1200.69
380.28	1245.16
380.48	1287.29
380.68	1198.35
380.87	1238.14
381.07	1294.32
381.26	1357.51
381.46	1329.42
381.65	1277.93
381.85	1294.32
382.04	1306.02
382.24	1249.85
382.43	1343.47
382.63	1359.85
382.83	1324.74
383.02	1387.94
383.22	1320.06
383.41	1296.66
383.61	1308.36
383.80	1451.13
384.00	1401.98
384.19	1364.53
384.39	1411.34
384.58	1371.55
384.78	1394.96
384.97	1390.28
385.17	1474.54
385.36	1366.87
385.56	1357.51
385.75	1366.87
385.95	1411.34
386.14	1446.45
386.34	1385.60
386.53	1455.81
386.72	1397.30
386.92	1465.18
387.11	1465.18
387.31	1530.71
387.50	1483.90
387.70	1430.07
387.89	1469.86
388.09	1500.28
388.28	1504.96
388.48	1530.71
388.67	1474.54
388.86	1497.94
389.06	1511.99
389.25	1561.14
389.45	1610.29
389.64	1516.67
389.84	1586.88
390.03	1638.38
390.22	1600.93
390.42	1636.03
390.61	1593.90
390.81	1582.20
391.00	1605.61
391.19	1668.80
391.39	1607.95
391.58	1631.35
391.78	1680.50
391.97	1722.63
392.16	1640.72
392.36	1640.72
392.55	1732.00
392.75	1680.50
392.94	1703.91
393.13	1706.25
393.33	1816.26
393.52	1811.57
393.71	1820.94
393.91	1713.27
394.10	1713.27
394.29	1827.96
394.49	1769.44
394.68	1762.42
394.88	1720.29
395.07	1884.13
395.26	1839.66
395.46	1865.41
395.65	1926.26
395.84	1834.98
396.04	1881.79
396.23	1959.03
396.42	1909.88
396.62	1900.52
396.81	2036.27
397.00	1956.69
397.19	1975.41
397.39	1928.60
397.58	1935.62
397.77	1996.48
397.97	2008.18
398.16	2040.95
398.35	2054.99
398.55	2066.69
398.74	2054.99
398.93	2155.63
399.12	2099.46
399.32	2073.71
399.51	2054.99
399.70	2062.01
399.90	2136.91
400.09	2214.15
400.28	2193.08
400.47	2162.66
400.67	2258.62
400.86	2225.85
401.05	2328.83
401.24	2251.60
401.44	2377.98
401.63	2342.88
401.82	2324.15
402.01	2324.15
402.21	2256.28
402.40	2298.41
402.59	2291.38
402.78	2312.45
402.97	2370.96
403.17	2356.92
403.36	2389.69
403.55	2368.62
403.74	2525.44
403.93	2658.85
404.13	2560.55
404.32	2509.05
404.51	2487.99
404.70	2583.95
404.89	2502.03
405.09	2483.31
405.28	2558.21
405.47	2532.46
405.66	2558.21
405.85	2686.94
406.05	2722.04
406.24	2708.00
406.43	2668.21
406.62	2719.70
406.81	2822.69
407.00	2705.66
407.20	2705.66
407.39	2719.70
407.58	2930.35
407.77	2855.45
407.96	2792.26
408.15	2909.29
408.34	2794.60
408.54	2953.76
408.73	2876.52
408.92	2818.00
409.11	3028.65
409.30	3009.93
409.49	3014.61
409.68	2892.90
409.87	3068.44
410.07	2991.20
410.26	3112.91
410.45	3124.62
410.64	3199.51
410.83	3117.59
411.02	3239.30
411.21	3183.13
411.40	3180.79
411.59	3236.96
411.78	3218.24
411.98	3211.22
412.17	3255.69
412.36	3349.31
412.55	3445.27
412.74	3496.76
412.93	3384.41
413.12	3480.38
413.31	3672.30
413.50	3595.06
413.69	3503.78
413.88	3583.36
414.07	3482.72
414.26	3639.53
414.45	3609.11
414.64	3641.87
414.83	3866.56
415.02	3889.97
415.22	3763.58
415.41	3857.20
415.60	3901.67
415.79	3997.64
415.98	3878.27
416.17	4095.94
416.36	3904.01
416.55	4081.89
416.74	4105.30
416.93	4032.74
417.12	3941.46
417.31	4114.66
417.50	4070.19
417.69	4285.52
417.88	4269.14
418.07	4276.16
418.26	4327.65
418.45	4262.12
418.64	4334.67
418.83	4250.41
419.02	4255.09
419.21	4372.12
419.39	4554.68
419.58	4386.16
419.77	4301.90
419.96	4554.68
420.15	4493.83
420.34	4402.55
420.53	4526.60
420.72	4568.73
420.91	4594.47
421.10	4650.64
421.29	4746.61
421.48	4615.54
421.67	4690.43
421.86	4678.73
422.05	4638.94
422.24	4589.79
422.43	4615.54
422.61	4849.59
422.80	4737.24
422.99	4905.76
423.18	4875.34
423.37	4772.35
423.56	4805.12
423.75	4744.27
423.94	4643.62
424.13	4390.84
424.32	4655.33
424.50	4840.23
424.69	4901.08
424.88	4823.84
425.07	4760.65
425.26	4748.95
425.45	4901.08
425.64	4936.19
425.83	4896.40
426.01	4793.42
426.20	4877.68
426.39	4875.34
426.58	4994.70
426.77	4695.11
426.96	4957.25
427.15	5081.30
427.33	5118.75
427.52	5015.77
427.71	5139.82
427.90	5071.94
428.09	5207.69
428.28	5114.07
428.46	5212.37
428.65	5093.01
428.84	5167.90
429.03	5233.44
429.22	5224.08
429.40	5231.10
429.59	5207.69
429.78	5029.81
429.97	5004.07
430.16	5296.63
430.34	5334.08
430.53	5338.76
430.72	5380.89
430.91	5521.32
431.10	5434.72
431.28	5509.62
431.47	5610.26
431.66	5579.84
431.85	5490.90
432.03	5654.73
432.22	5659.42
432.41	5614.95
432.60	5584.52
432.79	5628.99
432.97	5792.83
433.16	5996.45
433.35	5685.16
433.54	5764.74
433.72	5914.53
433.91	5902.83
434.10	5802.19
434.28	5781.12
434.47	5891.13
434.66	6038.58
434.85	6005.81
435.03	6136.88
435.22	6265.61
435.41	6394.34
435.59	6326.47
435.78	6289.02
435.97	6443.49
436.16	6139.23
436.34	6239.87
436.53	6118.16
436.72	6431.79
436.90	6164.97
437.09	6509.03
437.28	6293.70
437.46	6300.72
437.65	6296.04
437.84	6569.88
438.02	6382.64
438.21	6567.54
438.40	6417.75
438.58	6623.72
438.77	6661.16
438.96	6700.95
439.14	6614.35
439.33	6881.18
439.52	6801.60
439.70	6855.43
439.89	6902.24
440.08	6960.75
440.26	7117.57
440.45	6904.58
440.63	7075.44
440.82	7129.27
441.01	7166.72
441.19	7150.34
441.38	7297.79
441.57	7391.41
441.75	7232.26
441.94	7368.01
442.12	7496.74
442.31	7590.36
442.50	7698.02
442.68	7468.65
442.87	7590.36
443.05	7637.17
443.24	7826.75
443.43	7712.07
443.61	7744.83
443.80	7740.15
443.98	7557.59
444.17	7412.48
444.35	7791.64
444.54	7887.61
444.73	7859.52
444.91	7801.01
445.10	7791.64
445.28	7920.37
445.47	8035.06
445.65	7662.91
445.84	7939.10
446.02	7974.21
446.21	7903.99
446.39	7808.03
446.58	7845.48
446.77	7899.31
446.95	7826.75
447.14	7985.91
447.32	8119.32
447.51	7843.14
447.69	7925.05
447.88	8077.19
448.06	7985.91
448.25	8039.74
448.43	8147.40
448.62	8166.13
448.80	8032.72
448.99	8091.23
449.17	8070.17
449.36	8079.53
449.54	8362.73
449.73	8081.87
449.91	8372.10
450.10	8470.40
450.28	8404.86
450.46	8571.04
450.65	8517.21
450.83	8411.89
451.02	8411.89
451.20	8641.26
451.39	8444.65
451.57	8463.38
451.76	8531.25
451.94	8826.16
452.13	8812.12
452.31	8667.00
452.49	8489.12
452.68	8692.75
452.86	8674.03
453.05	8903.40
453.23	8730.20
453.42	8826.16
453.60	8798.07
453.78	8884.67
453.97	8861.27
454.15	8765.31
454.34	8940.85
454.52	8943.19
454.70	9036.81
454.89	8929.14
455.07	9027.45
455.26	9123.41
455.44	9329.38
455.62	9167.88
455.81	9296.61
455.99	9259.16
456.17	9348.10
456.36	9238.09
456.54	9357.46
456.73	9509.60
456.91	9720.24
457.09	9614.92
457.28	9809.19
457.46	9736.63
457.64	9818.55
457.83	9956.64
458.01	9830.25
458.19	9912.17
458.38	9942.60
458.56	9949.62
458.74	9858.34
458.93	9898.13
459.11	10108.77
459.29	9984.73
459.48	9958.98
459.66	9996.43
459.84	10190.69
460.03	10176.65
460.21	9991.75
460.39	10005.79
460.57	10120.48
460.76	10230.48
460.94	10223.46
461.12	10450.49
461.31	10462.19
461.49	10331.12
461.67	10448.15
461.85	10548.79
462.04	10356.87
462.22	10782.85
462.40	10822.64
462.59	10729.02
462.77	10696.25
462.95	10485.60
463.13	10771.15
463.32	10698.59
463.50	10876.47
463.68	10827.32
463.86	10871.79
464.05	10799.23
464.23	10834.34
464.41	10998.18
464.59	10619.01
464.78	11229.89
464.96	10876.47
465.14	11000.52
465.32	10967.75
465.50	11094.14
465.69	11133.93
465.87	11318.83
466.05	11225.21
466.23	11204.14
466.41	11335.21
466.60	11456.92
466.78	11152.65
466.96	10970.09
467.14	11339.90
467.32	11220.53
467.51	11536.50
467.69	11293.08
467.87	11255.64
468.05	11641.82
468.23	11468.62
468.41	11515.44
468.60	11538.84
468.78	11662.89
468.96	11641.82
469.14	11796.30
469.32	11854.81
469.50	11632.46
469.69	11887.58
469.87	12149.72
470.05	12051.42
470.23	11920.35
470.41	12161.42
470.59	12271.43
470.77	12142.70
470.95	12123.98
471.14	12360.37
471.32	12084.19
471.50	12402.50
471.68	12526.55
471.86	12397.82
472.04	12250.36
472.22	12617.83
472.40	12489.10
472.58	12568.68
472.77	12844.86
472.95	12814.43
473.13	13352.76
473.31	12814.43
473.49	12912.74
473.67	12865.92
473.85	13195.94
474.03	13422.97
474.21	13472.12
474.39	13317.65
474.57	13418.29
474.75	13591.49
474.93	13809.16
475.12	13689.79
475.30	13671.07
475.48	13755.33
475.66	13968.32
475.84	13905.12
476.02	14134.50
476.20	14148.54
476.38	14075.98
476.56	14700.90
476.74	14567.49
476.92	14218.75
477.10	14359.19
477.28	14740.69
477.46	15033.26
477.64	14909.21
477.82	15314.13
478.00	15714.36
478.18	14972.41
478.36	15049.64
478.54	15716.70
478.72	15681.59
478.90	15721.38
479.08	15796.28
479.26	15901.60
479.44	16114.59
479.62	16049.05
479.80	16713.77
479.98	16601.42
480.16	16966.54
480.34	16636.53
480.52	17106.98
480.70	16795.68
480.88	16847.18
481.06	17001.65
481.24	17081.23
481.41	17420.61
481.59	17764.67
481.77	17612.53
481.95	17701.47
482.13	17970.63
482.31	17804.46
482.49	18525.34
482.67	18398.95
482.85	18417.68
483.03	18693.86
483.21	18766.42
483.39	18897.49
483.57	18747.69
483.74	19171.33
483.92	19522.41
484.10	19271.97
484.28	19578.58
484.46	20173.08
484.64	20365.00
484.82	19880.51
485.00	20100.52
485.18	20645.87
485.35	20816.72
485.53	20753.53
485.71	20849.49
485.89	21151.42
486.07	21511.86
486.25	21207.59
486.43	21495.48
486.61	21839.54
486.78	21577.40
486.96	21703.79
487.14	22501.91
487.32	22363.82
487.50	22324.03
487.68	22487.87
487.85	22995.76
488.03	23206.41
488.21	23185.35
488.39	23728.35
488.57	23592.60
488.75	23854.74
488.92	24189.44
489.10	24187.10
489.28	24123.90
489.46	24561.58
489.64	24418.81
489.81	25120.97
489.99	24863.51
490.17	24975.86
490.35	25387.79
490.53	25865.26
490.70	25947.18
490.88	25202.89
491.06	25776.32
491.24	25713.13
491.41	26410.60
491.59	26338.05
491.77	26415.29
491.95	26827.22
492.13	26899.78
492.30	26829.56
492.48	26892.76
492.66	27175.96
492.84	27800.88
493.01	27765.78
493.19	27658.11
493.37	28219.84
493.54	28147.28
493.72	28182.39
493.90	28514.75
494.08	28711.35
494.25	28886.89
494.43	28964.13
494.61	28917.32
494.79	29352.66
494.96	29488.41
495.14	29282.44
495.32	29677.99
495.49	29996.31
495.67	30139.08
495.85	30005.67
496.02	30380.15
496.20	30464.41
496.38	30501.86
496.55	30593.14
496.73	31524.68
496.91	30785.07
497.09	31367.86
497.26	31695.53
497.44	31325.73
497.62	31587.87
497.79	32191.73
497.97	32109.81
498.14	32311.10
498.32	32526.42
498.50	32594.30
498.67	32910.27
498.85	32491.32
499.03	32608.34
499.20	32957.08
499.38	33191.14
499.56	33558.60
499.73	33546.90
499.91	33549.24
500.08	33661.58
500.26	33525.83
500.44	34176.50
500.61	34426.94
500.79	34209.27
500.97	34885.68
501.14	35253.15
501.32	34780.36
501.49	34780.36
501.67	35033.14
501.84	35199.32
502.02	34988.67
502.20	35136.12
502.37	35325.71
502.55	34960.58
502.72	35737.64
502.90	35625.29
503.07	35576.14
503.25	35718.92
503.43	35438.05
503.60	35950.63
503.78	35894.46
503.95	36191.70
504.13	36360.22
504.30	36397.67
504.48	36582.57
504.65	36795.56
504.83	37071.75
505.01	37099.83
505.18	36849.39
505.36	37514.11
505.53	37069.40
505.71	37453.25
505.88	37619.43
506.06	37471.98
506.23	38141.37
506.41	37755.18
506.58	38096.90
506.76	37914.34
506.93	38543.94
507.11	38368.40
507.28	38323.93
507.46	38326.27
507.63	38726.50
507.81	39098.65
507.98	38298.19
508.16	38726.50
508.33	39096.31
508.50	39009.71
508.68	39311.64
508.85	39643.99
509.03	39337.38
509.20	39351.43
509.38	39576.12
509.55	39936.56
509.73	39761.02
509.90	40399.99
510.08	40053.59
510.25	40598.93
510.42	40463.18
510.60	40587.23
510.77	40802.56
510.95	40886.82
511.12	40985.12
511.30	41006.19
511.47	41537.49
511.64	41249.60
511.82	41191.09
511.99	41717.71
512.17	41427.48
512.34	41549.19
512.51	42050.06
512.69	41928.36
512.86	41827.71
513.04	42281.78
513.21	41771.54
513.38	42021.98
513.56	42412.85
513.73	41958.78
513.90	42602.43
514.08	42555.62
514.25	42909.04
514.43	42930.11
514.60	42815.42
514.77	42906.70
514.95	43323.32
515.12	43107.99
515.29	43236.72
515.47	43449.70
515.64	43742.27
515.81	43494.18
515.99	43779.72
516.16	43838.23
516.33	43540.99
516.51	43796.10
516.68	44060.58
516.85	44048.88
517.03	44163.57
517.20	44891.48
517.37	44355.49
517.54	44589.55
517.72	43990.37
517.89	44598.91
518.06	44762.75
518.24	44589.55
518.41	44652.74
518.58	44949.99
518.75	44809.56
518.93	44959.35
519.10	44987.44
519.27	45223.83
519.45	45036.59
519.62	45502.35
519.79	45656.83
519.96	45392.35
520.14	45492.99
520.31	45326.81
520.48	45890.88
520.65	45808.96
520.83	46050.04
521.00	46326.22
521.17	45961.10
521.34	46281.75
521.52	46401.12
521.69	46483.04
521.86	46300.48
522.03	46553.26
522.20	47192.22
522.38	47222.65
522.55	46883.27
522.72	46822.42
522.89	46986.25
523.07	47145.41
523.24	47175.84
523.41	47475.43
523.58	47189.88
523.75	47779.70
523.92	47662.67
524.10	47508.19
524.27	47608.84
524.44	47969.28
524.61	48048.86
524.78	47810.12
524.96	48041.84
525.13	47885.02
525.30	48624.63
525.47	48573.14
525.64	48467.81
525.81	48523.99
525.98	48795.49
526.16	48395.26
526.33	48406.96
526.50	48917.20
526.67	48491.22
526.84	49043.59
527.01	48669.10
527.18	48755.70
527.36	49139.55
527.53	48938.26
527.70	49731.70
527.87	49481.27
528.04	49598.29
528.21	49902.56
528.38	49497.65
528.55	49450.84
528.72	49354.88
528.89	49544.46
529.07	49265.94
529.24	49546.80
529.41	49647.44
529.58	49844.05
529.75	50019.59
529.92	50021.93
530.09	50066.40
530.26	49928.31
530.43	50295.77
530.60	49977.46
530.77	49979.80
530.94	50614.08
531.11	50213.85
531.28	50305.13
531.46	50492.38
531.63	50728.77
531.80	50417.48
531.97	50377.69
532.14	50852.82
532.31	50672.60
532.48	50932.40
532.65	51068.15
532.82	50752.18
532.99	50904.31
533.16	50408.12
533.33	51243.69
533.50	51414.55
533.67	51042.40
533.84	51133.68
534.01	51168.79
534.18	50925.38
534.35	51447.32
534.52	51522.21
534.69	51634.56
534.86	51395.82
535.03	51143.05
535.20	51681.37
535.37	51753.93
535.54	52027.77
535.71	51765.63
535.88	51676.69
536.05	52107.35
536.22	51927.13
536.38	51964.57
536.55	52207.99
536.72	52254.80
536.89	52273.52
537.06	52442.04
537.23	52561.41
537.40	52062.88
537.57	52226.71
537.74	52385.87
537.91	52516.94
538.08	52465.45
538.25	52348.42
538.42	52669.08
538.59	53134.84
538.75	52222.03
538.92	52526.30
539.09	52736.95
539.26	52580.13
539.43	52629.29
539.60	53031.86
539.77	52725.25
539.94	53308.04
540.11	52987.39
540.28	53085.69
540.44	53102.07
540.61	52949.94
540.78	52727.59
540.95	53127.82
541.12	53024.84
541.29	53223.78
541.46	53579.54
541.62	53441.45
541.79	53240.17
541.96	53310.38
542.13	53020.16
542.30	53408.68
542.47	53446.13
542.63	53579.54
542.80	53808.92
542.97	54073.40
543.14	54213.83
543.31	54255.96
543.48	54092.12
543.64	54267.66
543.81	54160.00
543.98	54330.86
544.15	54260.64
544.32	54328.52
544.48	54494.69
544.65	54429.16
544.82	54176.38
544.99	54323.83
545.16	54370.64
545.32	54197.44
545.49	54415.11
545.66	54590.66
545.83	54813.01
546.00	55079.83
546.16	55117.28
546.33	54801.30
546.50	54515.76
546.67	54616.40
546.83	54593.00
547.00	54600.02
547.17	54532.14
547.34	54571.93
547.50	54468.95
547.67	55391.12
547.84	54808.32
548.00	54813.01
548.17	55306.86
548.34	54878.54
548.51	54822.37
548.67	55054.08
548.84	55063.44
549.01	55016.63
549.18	54934.71
549.34	55065.78
549.51	55276.43
549.68	55185.15
549.84	55058.76
550.01	55288.13
550.18	54937.05
550.34	54955.78
550.51	55278.77
550.68	55381.76
550.84	55332.60
551.01	55487.08
551.18	55234.30
551.34	55227.28
551.51	55503.46
551.68	55554.96
551.84	55145.36
552.01	55217.92
552.18	55487.08
552.34	55470.70
552.51	55959.87
552.68	55845.18
552.84	55955.19
553.01	55910.72
553.18	55854.54
553.34	55662.62
553.51	55821.78
553.67	55695.39
553.84	56048.81
554.01	56285.20
554.17	56037.11
554.34	56069.87
554.51	55987.95
554.67	55983.27
554.84	55896.67
555.00	55969.23
555.17	55936.46
555.33	55957.53
555.50	55868.59
555.67	55941.14
555.83	56039.45
556.00	56423.29
556.16	56488.83
556.33	55962.21
556.50	56189.24
556.66	56376.48
556.83	55824.12
556.99	56474.79
557.16	56427.98
557.32	56736.93
557.49	56446.70
557.65	56404.57
557.82	56294.56
557.98	56530.96
558.15	56446.70
558.32	56360.10
558.48	56264.14
558.65	56446.70
558.81	56324.99
558.98	56552.02
559.14	56633.94
559.31	56535.64
559.47	56329.67
559.64	56465.42
559.80	56542.66
559.97	56692.46
560.13	56472.45
560.30	56711.18
560.46	56594.15
560.63	56765.01
560.79	56954.60
560.96	56863.32
561.12	56891.40
561.29	56456.06
561.45	56685.43
561.61	56896.08
561.78	56617.56
561.94	56743.95
562.11	56999.07
562.27	56891.40
562.44	57195.67
562.60	56996.73
562.77	56856.29
562.93	56872.68
563.10	57193.33
563.26	57027.15
563.42	57041.20
563.59	56638.62
563.75	56891.40
563.92	57050.56
564.08	57034.17
564.24	56877.36
564.41	57045.88
564.57	56769.69
564.74	56835.23
564.90	57066.94
565.07	57324.40
565.23	57249.50
565.39	57354.83
565.56	57254.18
565.72	57258.87
565.88	57293.97
566.05	57216.74
566.21	57090.35
566.38	56933.53
566.54	57013.11
566.70	57286.95
566.87	57495.26
567.03	57045.88
567.19	57506.96
567.36	57528.03
567.52	57413.34
567.68	57429.72
567.85	57343.12
568.01	57401.64
568.17	57155.88
568.34	57305.68
568.50	57174.61
568.66	57502.28
568.83	57616.97
568.99	57345.47
569.15	57293.97
569.32	57291.63
569.48	57176.95
569.64	57403.98
569.81	57057.58
569.97	57420.36
570.13	57595.90
570.30	57523.35
570.46	57425.04
570.62	57588.88
570.78	57347.81
570.95	57432.07
571.11	57743.36
571.27	57411.00
571.43	57272.91
571.60	57490.58
571.76	57497.60
571.92	57411.00
572.09	57722.29
572.25	57673.14
572.41	57698.89
572.57	57654.42
572.74	57984.43
572.90	57909.53
573.06	57623.99
573.22	57609.95
573.38	57598.24
573.55	57689.52
573.71	57682.50
573.87	57733.99
574.03	57542.07
574.20	57516.32
574.36	57661.44
574.52	57633.35
574.68	57640.37
574.84	57822.93
575.01	57797.19
575.17	57780.81
575.33	57715.27
575.49	57818.25
575.65	57876.77
575.82	57970.39
575.98	57710.59
576.14	57968.05
576.30	57977.41
576.46	57726.97
576.62	57481.22
576.79	57778.46
576.95	57528.03
577.11	57750.38
577.27	57886.13
577.43	57731.65
577.59	57858.04
577.75	57801.87
577.92	57476.54
578.08	57581.86
578.24	57602.92
578.40	58040.60
578.56	57832.30
578.72	57652.08
578.88	58094.44
579.04	58183.38
579.21	57879.11
579.37	58094.44
579.53	58234.87
579.69	57794.85
579.85	57785.49
580.01	57965.71
580.17	57813.57
580.33	57883.79
580.49	57916.56
580.65	57984.43
580.82	57888.47
580.98	57996.13
581.14	58047.63
581.30	58054.65
581.46	57806.55
581.62	57853.36
581.78	57911.88
581.94	58192.74
582.10	57769.10
582.26	57862.72
582.42	57984.43
582.58	57923.58
582.74	58169.33
582.90	58092.10
583.06	58115.50
583.22	58003.16
583.38	57928.26
583.54	57801.87
583.70	58012.52
583.86	57968.05
584.02	57839.32
584.18	57991.45
584.34	57867.40
584.50	58096.78
584.66	57771.44
584.82	57794.85
584.98	58073.37
585.14	58000.82
585.30	58183.38
585.46	57982.09
585.62	57836.98
585.78	57949.32
585.94	57951.66
586.10	58019.54
586.26	58026.56
586.42	58307.43
586.58	58220.83
586.74	58216.14
586.90	58014.86
587.06	58101.46
587.22	58323.81
587.38	58117.84
587.54	58302.74
587.70	58614.04
587.86	58183.38
588.02	58391.68
588.18	58401.05
588.34	58370.62
