SpectraSuite Data File
++++++++++++++++++++++++++++++++++++
Date: Thu Oct 24 13:21:28 EDT 2013
User: stostad
Dark Spectrum Present: No
Reference Spectrum Present: No
Number of Sampled Component Spectra: 1
Spectrometers: USB2+H05261
Integration Time (usec): 100000 (USB2+H05261)
Spectra Averaged: 1 (USB2+H05261)
Boxcar Smoothing: 0 (USB2+H05261)
Correct for Electrical Dark: No (USB2+H05261)
Strobe/Lamp Enabled: No (USB2+H05261)
Correct for Detector Non-linearity: No (USB2+H05261)
Correct for Stray Light: No (USB2+H05261)
Number of Pixels in Processed Spectrum: 2048
>>>>>Begin Processed Spectral Data<<<<<
365.73	573.43
365.92	573.43
366.12	573.43
366.32	528.96
366.52	451.72
366.72	503.22
366.91	447.04
367.11	491.51
367.31	416.62
367.51	461.09
367.70	547.69
367.90	484.49
368.10	482.15
368.30	449.38
368.49	404.91
368.69	500.87
368.89	526.62
369.09	519.60
369.28	500.87
369.48	571.09
369.68	496.19
369.87	559.39
370.07	514.92
370.27	561.73
370.47	739.61
370.66	938.55
370.86	1027.50
371.06	1013.45
371.25	992.39
371.45	1104.73
371.65	1135.16
371.84	1111.75
372.04	1078.99
372.24	1163.25
372.44	1071.97
372.63	1100.05
372.83	1025.15
373.03	1200.69
373.22	1104.73
373.42	1146.86
373.62	1146.86
373.81	1172.61
374.01	1235.80
374.21	1177.29
374.40	1233.46
374.60	1259.21
374.79	1205.38
374.99	1207.72
375.19	1163.25
375.38	1277.93
375.58	1247.51
375.78	1224.10
375.97	1214.74
376.17	1172.61
376.37	1142.18
376.56	1247.51
376.76	1289.64
376.95	1254.53
377.15	1336.45
377.35	1266.23
377.54	1242.82
377.74	1254.53
377.93	1224.10
378.13	1184.31
378.33	1357.51
378.52	1357.51
378.72	1387.94
378.91	1303.68
379.11	1359.85
379.31	1366.87
379.50	1369.21
379.70	1366.87
379.89	1455.81
380.09	1352.83
380.28	1376.24
380.48	1413.68
380.68	1448.79
380.87	1411.34
381.07	1453.47
381.26	1434.75
381.46	1376.24
381.65	1345.81
381.85	1390.28
382.04	1390.28
382.24	1453.47
382.43	1472.20
382.63	1516.67
382.83	1448.79
383.02	1476.88
383.22	1544.75
383.41	1500.28
383.61	1511.99
383.80	1521.35
384.00	1533.05
384.19	1483.90
384.39	1621.99
384.58	1554.12
384.78	1554.12
384.97	1654.76
385.17	1561.14
385.36	1509.65
385.56	1500.28
385.75	1514.33
385.95	1556.46
386.14	1694.55
386.34	1614.97
386.53	1593.90
386.72	1579.86
386.92	1652.42
387.11	1589.22
387.31	1631.35
387.50	1661.78
387.70	1657.10
387.89	1724.97
388.09	1778.81
388.28	1694.55
388.48	1783.49
388.67	1739.02
388.86	1827.96
389.06	1743.70
389.25	1762.42
389.45	1825.62
389.64	1781.15
389.84	1811.57
390.03	1872.43
390.22	1863.07
390.42	1813.92
390.61	1851.36
390.81	1797.53
391.00	1849.02
391.19	1893.49
391.39	1823.28
391.58	1816.26
391.78	1877.11
391.97	1888.81
392.16	1989.46
392.36	1998.82
392.55	1942.64
392.75	2033.93
392.94	2003.50
393.13	1902.86
393.33	1844.34
393.52	1893.49
393.71	2003.50
393.91	2047.97
394.10	2071.37
394.29	2057.33
394.49	2071.37
394.68	2106.48
394.88	2076.06
395.07	2153.29
395.26	2218.83
395.46	2174.36
395.65	2204.78
395.84	2289.04
396.04	2307.77
396.23	2214.15
396.42	2216.49
396.62	2427.14
396.81	2258.62
397.00	2270.32
397.19	2218.83
397.39	2307.77
397.58	2270.32
397.77	2272.66
397.97	2293.72
398.16	2324.15
398.35	2338.20
398.55	2296.07
398.74	2480.97
398.93	2420.11
399.12	2291.38
399.32	2335.85
399.51	2492.67
399.70	2553.52
399.90	2499.69
400.09	2429.48
400.28	2574.59
400.47	2595.65
400.67	2700.98
400.86	2612.04
401.05	2551.18
401.24	2518.42
401.44	2665.87
401.63	2630.76
401.82	2705.66
402.01	2623.74
402.21	2607.36
402.40	2605.02
402.59	2869.50
402.78	2696.30
402.97	2649.49
403.17	2789.92
403.36	2836.73
403.55	2794.60
403.74	2885.88
403.93	2920.99
404.13	2897.58
404.32	2993.55
404.51	3038.02
404.70	3080.14
404.89	2925.67
405.09	2956.10
405.28	3042.70
405.47	3000.57
405.66	3042.70
405.85	3094.19
406.05	2960.78
406.24	3159.72
406.43	3169.09
406.62	3248.66
406.81	3232.28
407.00	3178.45
407.20	3136.32
407.39	3222.92
407.58	3269.73
407.77	3272.07
407.96	3283.77
408.15	3433.57
408.34	3286.11
408.54	3229.94
408.73	3283.77
408.92	3346.97
409.11	3501.44
409.30	3375.05
409.49	3548.25
409.68	3466.33
409.87	3538.89
410.07	3576.34
410.26	3522.51
410.45	3576.34
410.64	3609.11
410.83	3698.05
411.02	3651.24
411.21	3740.18
411.40	3775.28
411.59	3735.50
411.78	3681.66
411.98	3805.71
412.17	3737.84
412.36	3934.44
412.55	3941.46
412.74	3981.25
412.93	3960.19
413.12	3964.87
413.31	4196.58
413.50	4117.00
413.69	4117.00
413.88	4184.88
414.07	4205.94
414.26	4063.17
414.45	4318.29
414.64	4269.14
414.83	4376.80
415.02	4430.63
415.22	4365.10
415.41	4575.75
415.60	4414.25
415.79	4475.10
415.98	4526.60
416.17	4709.16
416.36	4643.62
416.55	4594.47
416.74	4856.61
416.93	4606.17
417.12	4650.64
417.31	4821.50
417.50	4994.70
417.69	5006.41
417.88	4917.47
418.07	4865.97
418.26	5032.15
418.45	4868.31
418.64	5069.60
418.83	5043.85
419.02	4980.66
419.21	5256.84
419.39	5259.18
419.58	5097.69
419.77	5050.88
419.96	5144.50
420.15	5247.48
420.34	5085.98
420.53	5088.32
420.72	5483.88
420.91	5282.59
421.10	5387.91
421.29	5458.13
421.48	5317.70
421.67	5352.81
421.86	5458.13
422.05	5493.24
422.24	5455.79
422.43	5518.98
422.61	5603.24
422.80	5521.32
422.99	5549.41
423.18	5448.77
423.37	5614.95
423.56	5659.42
423.75	5645.37
423.94	5462.81
424.13	5186.63
424.32	5369.19
424.50	5523.66
424.69	5783.46
424.88	5652.39
425.07	5710.91
425.26	5446.43
425.45	5774.10
425.64	5769.42
425.83	5584.52
426.01	5596.22
426.20	5692.18
426.39	5603.24
426.58	5614.95
426.77	5577.50
426.96	5867.72
427.15	5675.80
427.33	5799.85
427.52	5804.53
427.71	5856.02
427.90	5860.70
428.09	5823.25
428.28	5961.34
428.46	6024.54
428.65	5954.32
428.84	6361.58
429.03	6045.60
429.22	5980.07
429.40	6071.35
429.59	6120.50
429.78	5951.98
429.97	5816.23
430.16	6190.72
430.34	6253.91
430.53	6441.15
430.72	6480.94
430.91	6204.76
431.10	6312.42
431.28	6569.88
431.47	6455.20
431.66	6539.46
431.85	6422.43
432.03	6668.19
432.22	6738.40
432.41	6569.88
432.60	6572.22
432.79	6789.89
432.97	6612.01
433.16	6663.51
433.35	6766.49
433.54	6916.28
433.72	6918.62
433.91	6775.85
434.10	6820.32
434.28	6850.75
434.47	6993.52
434.66	7084.80
434.85	7159.70
435.03	7101.19
435.22	7253.32
435.41	7370.35
435.59	7225.23
435.78	7412.48
435.97	7349.28
436.16	7068.42
436.34	7222.89
436.53	7136.29
436.72	7339.92
436.90	7192.47
437.09	7342.26
437.28	7215.87
437.46	7412.48
437.65	7344.60
437.84	7447.58
438.02	7506.10
438.21	7349.28
438.40	7293.11
438.58	7833.77
438.77	7805.69
438.96	7590.36
439.14	7873.56
439.33	7967.18
439.52	8009.31
439.70	8035.06
439.89	8119.32
440.08	8287.84
440.26	8201.24
440.45	8154.43
440.63	8163.79
440.82	8477.42
441.01	8266.77
441.19	8437.63
441.38	8461.04
441.57	8585.08
441.75	8809.78
441.94	8816.80
442.12	8791.05
442.31	8617.85
442.50	8842.54
442.68	8760.63
442.87	8828.50
443.05	8961.91
443.24	9011.06
443.43	8910.42
443.61	8975.95
443.80	9266.18
443.98	8828.50
444.17	8877.65
444.35	9123.41
444.54	9207.67
444.73	9266.18
444.91	9001.70
445.10	9188.94
445.28	9259.16
445.47	9385.55
445.65	9427.68
445.84	9603.22
446.02	9387.89
446.21	9394.91
446.39	9240.44
446.58	9500.23
446.77	9425.34
446.95	9085.96
447.14	9207.67
447.32	9640.67
447.51	9479.17
447.69	9287.25
447.88	9392.57
448.06	9652.37
448.25	9486.19
448.43	9659.39
448.62	9210.01
448.80	9287.25
448.99	9619.60
449.17	9647.69
449.36	9671.09
449.54	9713.22
449.73	9858.34
449.91	10045.58
450.10	9860.68
450.28	9996.43
450.46	10167.29
450.65	9621.94
450.83	9792.80
451.02	10017.49
451.20	9980.04
451.39	10038.56
451.57	10249.21
451.76	10033.88
451.94	10120.48
452.13	10242.18
452.31	10415.38
452.49	10066.64
452.68	10373.25
452.86	10303.04
453.05	10380.28
453.23	10492.62
453.42	10340.49
453.60	10298.36
453.78	10438.79
453.97	10391.98
454.15	10333.47
454.34	10326.44
454.52	10623.69
454.70	10537.09
454.89	10349.85
455.07	10705.61
455.26	10698.59
455.44	10874.13
455.62	10565.18
455.81	10707.95
455.99	11030.94
456.17	10986.47
456.36	10953.71
456.54	11178.40
456.73	11239.25
456.91	11365.64
457.09	11232.23
457.28	11510.75
457.46	11309.47
457.64	11564.59
457.83	11269.68
458.01	11515.44
458.19	11833.75
458.38	11714.38
458.56	11573.95
458.74	11609.06
458.93	11672.25
459.11	11658.21
459.29	11690.98
459.48	11613.74
459.66	11763.53
459.84	11829.07
460.03	12196.53
460.21	12039.72
460.39	11964.82
460.57	11969.50
460.76	12072.48
460.94	12107.59
461.12	12217.60
461.31	12023.33
461.49	12175.47
461.67	12194.19
461.85	12212.92
462.04	12386.12
462.22	12578.04
462.40	12744.22
462.59	12549.95
462.77	12477.40
462.95	12659.96
463.13	12559.31
463.32	12636.55
463.50	12929.12
463.68	12737.20
463.86	12821.45
464.05	12695.07
464.23	12554.63
464.41	13062.53
464.59	12748.90
464.78	13699.16
464.96	12933.80
465.14	12854.22
465.32	13104.66
465.50	12943.16
465.69	13380.84
465.87	13380.84
466.05	13329.35
466.23	13247.43
466.41	13444.04
466.60	13589.15
466.78	13219.35
466.96	13275.52
467.14	13378.50
467.32	13437.02
467.51	13273.18
467.69	13298.92
467.87	13532.98
468.05	13907.46
468.23	13762.35
468.41	13607.87
468.60	13607.87
468.78	14036.19
468.96	13633.62
469.14	14068.96
469.32	14099.39
469.50	13745.97
469.69	14003.43
469.87	14286.63
470.05	14359.19
470.23	14413.02
470.41	14127.47
470.59	14534.73
470.77	14113.43
470.95	14293.65
471.14	14958.36
471.32	14284.29
471.50	14707.93
471.68	14785.16
471.86	14871.76
472.04	14883.47
472.22	15382.00
472.40	14974.75
472.58	15023.90
472.77	14860.06
472.95	15337.53
473.13	15669.89
473.31	15314.13
473.49	15108.16
473.67	15342.21
473.85	15527.11
474.03	15892.24
474.21	15995.22
474.39	15978.84
474.57	15992.88
474.75	16093.52
474.93	16617.80
475.12	15978.84
475.30	16367.37
475.48	16360.34
475.66	16379.07
475.84	16603.76
476.02	16620.14
476.20	16793.34
476.38	16765.26
476.56	17476.78
476.74	16943.14
476.92	17287.20
477.10	17310.60
477.28	17284.86
477.46	17472.10
477.64	17521.25
477.82	17933.18
478.00	18281.92
478.18	18047.87
478.36	18525.34
478.54	18640.03
478.72	18607.26
478.90	18845.99
479.08	19213.46
479.26	18972.38
479.44	19281.33
479.62	19028.56
479.80	19704.97
479.98	19667.52
480.16	20140.31
480.34	19861.79
480.52	20121.59
480.70	20446.92
480.88	20009.24
481.06	20198.82
481.24	20271.38
481.41	20755.87
481.59	20788.64
481.77	21095.25
481.95	21429.94
482.13	21418.24
482.31	21315.26
482.49	22136.79
482.67	21867.63
482.85	22263.18
483.03	22518.29
483.21	22677.45
483.39	22717.24
483.57	22689.15
483.74	22939.59
483.92	23218.11
484.10	23023.85
484.28	23747.08
484.46	24128.58
484.64	24313.48
484.82	24144.97
485.00	23887.51
485.18	24657.54
485.35	24809.68
485.53	24587.33
485.71	25069.48
485.89	25607.80
486.07	25242.68
486.25	25036.71
486.43	25385.45
486.61	25572.69
486.78	26171.87
486.96	26148.46
487.14	26494.86
487.32	26635.30
487.50	26883.39
487.68	26897.44
487.85	27276.60
488.03	27716.62
488.21	27871.10
488.39	28067.70
488.57	28018.55
488.75	27950.68
488.92	28435.17
489.10	29153.71
489.28	29008.60
489.46	29659.27
489.64	29116.26
489.81	29544.58
489.99	29537.56
490.17	29907.37
490.35	30373.13
490.53	30235.04
490.70	30637.61
490.88	30487.82
491.06	31189.98
491.24	30902.09
491.41	31075.29
491.59	31793.84
491.77	31777.45
491.95	32077.04
492.13	32034.91
492.30	32252.58
492.48	32346.20
492.66	32575.58
492.84	32603.66
493.01	32982.83
493.19	32680.90
493.37	33369.02
493.54	33343.27
493.72	33872.23
493.90	34066.50
494.08	33734.14
494.25	34675.04
494.43	34323.96
494.61	34778.02
494.79	35192.30
494.96	35084.63
495.14	35035.48
495.32	35978.72
495.49	35543.38
495.67	36020.84
495.85	36004.46
496.02	36238.51
496.20	36238.51
496.38	36458.52
496.55	36659.81
496.73	37511.77
496.91	36765.14
497.09	37228.56
497.26	37434.53
497.44	37530.49
497.62	37841.78
497.79	38316.91
497.97	37879.23
498.14	38499.47
498.32	38960.56
498.50	38820.13
498.67	39335.04
498.85	38635.22
499.03	38820.13
499.20	39634.63
499.38	39367.81
499.56	40037.20
499.73	39999.76
499.91	40151.89
500.08	40060.61
500.26	39835.92
500.44	40416.37
500.61	40528.72
500.79	40793.20
500.97	41050.66
501.14	41610.04
501.32	41095.13
501.49	41144.28
501.67	41546.85
501.84	41954.10
502.02	41546.85
502.20	42019.64
502.37	41991.55
502.55	41879.21
502.72	41942.40
502.90	41921.34
503.07	42103.90
503.25	42534.56
503.43	42546.26
503.60	42621.16
503.78	42747.54
503.95	42909.04
504.13	43363.11
504.30	43058.84
504.48	42803.72
504.65	43941.22
504.83	43756.32
505.01	44112.08
505.18	44250.17
505.36	43868.66
505.53	44409.32
505.71	44589.55
505.88	44442.09
506.06	44662.10
506.23	45006.16
506.41	44921.90
506.58	44945.31
506.76	44769.77
506.93	44828.28
507.11	45174.68
507.28	45282.34
507.46	45904.93
507.63	45731.73
507.81	45642.79
507.98	45485.97
508.16	45977.48
508.33	45862.80
508.50	46260.69
508.68	46614.11
508.85	47019.02
509.03	46424.53
509.20	46703.05
509.38	46749.86
509.55	47070.51
509.73	47166.48
509.90	47398.19
510.08	47452.02
510.25	47491.81
510.42	47414.57
510.60	48023.11
510.77	47688.42
510.95	48348.45
511.12	47887.36
511.30	47973.96
511.47	48467.81
511.64	48547.39
511.82	48744.00
511.99	48442.07
512.17	48797.83
512.34	49146.57
512.51	49212.10
512.69	49392.33
512.86	49193.38
513.04	49808.94
513.21	49380.62
513.38	49542.12
513.56	49492.97
513.73	49591.27
513.90	49851.07
514.08	49715.32
514.25	50157.68
514.43	50061.72
514.60	50209.17
514.77	49968.10
514.95	50260.66
515.12	50099.17
515.29	50593.02
515.47	50609.40
515.64	51065.81
515.81	50621.11
515.99	51119.64
516.16	50993.25
516.33	51114.96
516.51	51608.81
516.68	51384.12
516.85	51222.62
517.03	51281.14
517.20	51751.59
517.37	51512.85
517.54	51564.34
517.72	51402.85
517.89	51150.07
518.06	51695.41
518.24	51674.35
518.41	51782.01
518.58	51983.30
518.75	51683.71
518.93	52346.08
519.10	51840.53
519.27	51873.29
519.45	52378.85
519.62	52619.92
519.79	52500.56
519.96	52428.00
520.14	52755.68
520.31	52353.10
520.48	52797.80
520.65	52416.30
520.83	52631.63
521.00	53043.56
521.17	52893.77
521.34	53027.18
521.52	53127.82
521.69	53200.38
521.86	53092.71
522.03	53258.89
522.20	53525.71
522.38	53916.58
522.55	53647.42
522.72	53818.28
522.89	53698.91
523.07	53799.55
523.24	53755.08
523.41	54361.28
523.58	53776.15
523.75	53942.33
523.92	53876.79
524.10	54239.57
524.27	54525.12
524.44	54459.58
524.61	54293.41
524.78	54499.37
524.96	54291.07
525.13	54686.62
525.30	54934.71
525.47	55016.63
525.64	54691.30
525.81	54892.58
525.98	54915.99
526.16	54796.62
526.33	54827.05
526.50	55217.92
526.67	55044.72
526.84	55180.47
527.01	55159.41
527.18	55311.54
527.36	55519.85
527.53	55304.52
527.70	55732.84
527.87	55601.77
528.04	55501.12
528.21	55711.77
528.38	55882.63
528.55	55798.37
528.72	55643.90
528.89	55639.22
529.07	55634.53
529.24	55653.26
529.41	55721.13
529.58	56130.73
529.75	55870.93
529.92	56088.60
530.09	55891.99
530.26	55938.80
530.43	56072.21
530.60	55779.65
530.77	56385.85
530.94	56484.15
531.11	56446.70
531.28	56596.49
531.46	56631.60
531.63	56561.39
531.80	56409.25
531.97	56488.83
532.14	56453.72
532.31	56430.32
532.48	56739.27
532.65	56760.33
532.82	56556.70
532.99	56704.16
533.16	56495.85
533.33	56837.57
533.50	56914.81
533.67	56980.34
533.84	56699.48
534.01	56959.28
534.18	57125.46
534.35	57268.23
534.52	57155.88
534.69	57373.55
534.86	57153.54
535.03	57118.43
535.20	57595.90
535.37	57361.85
535.54	57553.77
535.71	57279.93
535.88	57506.96
536.05	57696.55
536.22	57584.20
536.38	57549.09
536.55	57668.46
536.72	57474.20
536.89	57764.42
537.06	57790.17
537.23	57991.45
537.40	57897.83
537.57	57694.21
537.74	57783.15
537.91	58213.80
538.08	57832.30
538.25	57858.04
538.42	58195.08
538.59	58302.74
538.75	57829.96
538.92	58141.25
539.09	58183.38
539.26	58042.95
539.43	58265.30
539.60	58110.82
539.77	58335.51
539.94	58796.60
540.11	58642.12
540.28	58602.33
540.44	58440.84
540.61	58485.31
540.78	58429.13
540.95	58356.58
541.12	58466.58
541.29	58653.82
541.46	58866.81
541.62	59004.91
541.79	58955.75
541.96	58529.78
542.13	58604.67
542.30	58976.82
542.47	58901.92
542.63	58738.08
542.80	59035.33
542.97	59124.27
543.14	59613.44
543.31	59407.48
543.48	59351.30
543.64	59510.46
543.81	59367.69
543.98	59381.73
544.15	59346.62
544.32	59510.46
544.48	59435.56
544.65	59325.56
544.82	59416.84
544.99	59161.72
545.16	59576.00
545.32	59444.93
545.49	59964.52
545.66	59945.80
545.83	59896.65
546.00	60114.32
546.16	59777.28
546.33	59917.71
546.50	59730.47
546.67	59969.21
546.83	59735.15
547.00	59845.16
547.17	59765.58
547.34	59817.07
547.50	59901.33
547.67	60329.65
547.84	60072.19
548.00	60268.79
548.17	60224.32
548.34	59999.63
548.51	60137.72
548.67	60093.25
548.84	59957.50
549.01	59898.99
549.18	60233.69
549.34	60041.76
549.51	60210.28
549.68	60189.22
549.84	60292.20
550.01	60339.01
550.18	60282.84
550.34	60128.36
550.51	60212.62
550.68	60458.38
550.84	60224.32
551.01	60348.37
551.18	60353.05
551.34	60303.90
551.51	60495.83
551.68	60570.72
551.84	60299.22
552.01	60437.31
552.18	60580.09
552.34	60697.11
552.51	60664.35
552.68	60652.64
552.84	60963.93
553.01	60907.76
553.18	60750.94
553.34	60652.64
553.51	60647.96
553.67	60507.53
553.84	60982.66
554.01	60877.33
554.17	61045.85
554.34	61118.41
554.51	60973.30
554.67	61134.79
554.84	60982.66
555.00	60889.04
555.17	60811.80
555.33	60739.24
555.50	60928.83
555.67	61181.60
555.83	60933.51
556.00	61069.26
556.16	61233.10
556.33	61151.18
556.50	61305.65
556.66	61057.56
556.83	60980.32
556.99	61256.50
557.16	61462.47
557.32	61605.24
557.49	61338.42
557.65	61317.35
557.82	61293.95
557.98	61249.48
558.15	61331.40
558.32	61378.21
558.48	61319.70
558.65	61539.71
558.81	61539.71
558.98	61619.28
559.14	61408.64
559.31	61586.52
559.47	61439.06
559.64	61635.67
559.80	61556.09
559.97	61642.69
560.13	61436.72
560.30	61502.26
560.46	61829.93
560.63	61801.85
560.79	61762.06
560.96	61722.27
561.12	61759.72
561.29	61544.39
561.45	61797.16
561.61	61862.70
561.78	61745.67
561.94	61900.15
562.11	61972.70
562.27	61886.10
562.44	61748.01
562.60	62003.13
562.77	61752.69
562.93	61780.78
563.10	61893.13
563.26	61865.04
563.42	61839.29
563.59	61982.07
563.75	62054.62
563.92	62063.99
564.08	62017.17
564.24	61970.36
564.41	61874.40
564.57	61776.10
564.74	61752.69
564.90	62106.12
565.07	62094.41
565.23	62045.26
565.39	62101.43
565.56	62244.21
565.72	61982.07
565.88	62056.96
566.05	61956.32
566.21	61921.21
566.38	61930.58
566.54	62134.20
566.70	62183.35
566.87	62349.53
567.03	62354.21
567.19	62312.08
567.36	62438.47
567.52	62169.31
567.68	62356.55
567.85	62166.97
568.01	62293.36
568.17	62096.75
568.34	62059.30
568.50	62150.59
568.66	62309.74
568.83	62482.94
568.99	62288.68
569.15	62251.23
569.32	62220.80
569.48	62019.52
569.64	62157.61
569.81	62262.93
569.97	62129.52
570.13	62314.42
570.30	62419.75
570.46	62316.76
570.62	62276.97
570.78	62384.64
570.95	62103.77
571.11	62408.04
571.27	62370.60
571.43	62241.87
571.60	62276.97
571.76	62391.66
571.92	62379.96
572.09	62478.26
572.25	62642.10
572.41	62459.54
572.57	62457.20
572.74	62766.15
572.90	62724.02
573.06	62440.81
573.22	62234.84
573.38	62548.48
573.55	62585.92
573.71	62688.91
573.87	62548.48
574.03	62438.47
574.20	62731.04
574.36	62574.22
574.52	62702.95
574.68	62452.51
574.84	62714.65
575.01	62686.57
575.17	62740.40
575.33	62354.21
575.49	62707.63
575.65	62738.06
575.82	62642.10
575.98	62644.44
576.14	62632.74
576.30	62698.27
576.46	62698.27
576.62	62513.37
576.79	62649.12
576.95	62429.11
577.11	62649.12
577.27	62702.95
577.43	62663.16
577.59	62578.90
577.75	62827.00
577.92	62485.28
578.08	62529.75
578.24	62534.43
578.40	62663.16
578.56	62569.54
578.72	62871.47
578.88	62787.21
579.04	62918.28
579.21	62838.70
579.37	62780.19
579.53	62852.75
579.69	62602.31
579.85	62681.89
580.01	62885.51
580.17	62801.25
580.33	62890.19
580.49	62876.15
580.65	62773.17
580.82	62904.24
580.98	62719.34
581.14	62796.57
581.30	63009.56
581.46	62756.78
581.62	62766.15
581.78	62871.47
581.94	62845.72
582.10	62695.93
582.26	62913.60
582.42	62871.47
582.58	62990.84
582.74	62904.24
582.90	63007.22
583.06	62859.77
583.22	62815.30
583.38	62763.81
583.54	62794.23
583.70	62745.08
583.86	62857.43
584.02	62974.45
584.18	62948.71
584.34	62937.01
584.50	63149.99
584.66	62838.70
584.82	62773.17
584.98	62894.88
585.14	62915.94
585.30	62883.17
585.46	62878.49
585.62	62787.21
585.78	63018.92
585.94	62794.23
586.10	63004.88
586.26	63021.26
586.42	63044.67
586.58	63065.73
586.74	63039.99
586.90	62864.45
587.06	62864.45
587.22	63168.72
587.38	63051.69
587.54	63098.50
587.70	63405.11
