SpectraSuite Data File
++++++++++++++++++++++++++++++++++++
Date: Thu Oct 24 13:21:43 EDT 2013
User: stostad
Dark Spectrum Present: No
Reference Spectrum Present: No
Number of Sampled Component Spectra: 1
Spectrometers: USB2+H05261
Integration Time (usec): 100000 (USB2+H05261)
Spectra Averaged: 1 (USB2+H05261)
Boxcar Smoothing: 0 (USB2+H05261)
Correct for Electrical Dark: No (USB2+H05261)
Strobe/Lamp Enabled: No (USB2+H05261)
Correct for Detector Non-linearity: No (USB2+H05261)
Correct for Stray Light: No (USB2+H05261)
Number of Pixels in Processed Spectrum: 2048
>>>>>Begin Processed Spectral Data<<<<<
365.73	564.07
365.92	564.07
366.12	564.07
366.32	461.09
366.52	461.09
366.72	486.83
366.91	447.04
367.11	486.83
367.31	397.89
367.51	477.47
367.70	491.51
367.90	482.15
368.10	472.79
368.30	482.15
368.49	428.32
368.69	491.51
368.89	550.03
369.09	573.43
369.28	524.28
369.48	521.94
369.68	477.47
369.87	543.00
370.07	496.19
370.27	617.90
370.47	741.95
370.66	1144.52
370.86	1177.29
371.06	1235.80
371.25	1308.36
371.45	1303.68
371.65	1329.42
371.84	1317.72
372.04	1322.40
372.24	1320.06
372.44	1371.55
372.63	1409.00
372.83	1455.81
373.03	1451.13
373.22	1437.09
373.42	1369.21
373.62	1446.45
373.81	1455.81
374.01	1479.22
374.21	1418.36
374.40	1486.24
374.60	1551.78
374.79	1558.80
374.99	1504.96
375.19	1596.25
375.38	1537.73
375.58	1528.37
375.78	1605.61
375.97	1554.12
376.17	1621.99
376.37	1565.82
376.56	1530.71
376.76	1586.88
376.95	1540.07
377.15	1626.67
377.35	1643.06
377.54	1666.46
377.74	1596.25
377.93	1668.80
378.13	1659.44
378.33	1652.42
378.52	1720.29
378.72	1739.02
378.91	1682.85
379.11	1626.67
379.31	1811.57
379.50	1722.63
379.70	1748.38
379.89	1806.89
380.09	1736.68
380.28	1664.12
380.48	1851.36
380.68	1804.55
380.87	1750.72
381.07	1839.66
381.26	1842.00
381.46	1886.47
381.65	1764.76
381.85	1893.49
382.04	1996.48
382.24	1853.70
382.43	1849.02
382.63	1893.49
382.83	2040.95
383.02	1928.60
383.22	2012.86
383.41	1959.03
383.61	1977.75
383.80	1898.17
384.00	1968.39
384.19	2047.97
384.39	1935.62
384.58	2022.22
384.78	2017.54
384.97	2101.80
385.17	2022.22
385.36	2071.37
385.56	2017.54
385.75	2111.16
385.95	2132.23
386.14	2057.33
386.34	2155.63
386.53	2104.14
386.72	2101.80
386.92	2097.12
387.11	2207.13
387.31	2174.36
387.50	2221.17
387.70	2251.60
387.89	2251.60
388.09	2193.08
388.28	2265.64
388.48	2282.02
388.67	2314.79
388.86	2291.38
389.06	2289.04
389.25	2363.94
389.45	2277.34
389.64	2349.90
389.84	2366.28
390.03	2506.71
390.22	2466.92
390.42	2340.54
390.61	2410.75
390.81	2504.37
391.00	2551.18
391.19	2399.05
391.39	2438.84
391.58	2534.80
391.78	2502.03
391.97	2565.23
392.16	2609.70
392.36	2724.38
392.55	2583.95
392.75	2689.28
392.94	2654.17
393.13	2576.93
393.33	2637.78
393.52	2696.30
393.71	2637.78
393.91	2761.83
394.10	2740.77
394.29	2785.24
394.49	2815.66
394.68	2782.90
394.88	2810.98
395.07	2799.28
395.26	2855.45
395.46	2897.58
395.65	2869.50
395.84	2871.84
396.04	2925.67
396.23	2977.16
396.42	2963.12
396.62	2972.48
396.81	3103.55
397.00	2991.20
397.19	3005.25
397.39	3187.81
397.58	3054.40
397.77	3073.12
397.97	3129.30
398.16	3171.43
398.35	3089.51
398.55	2963.12
398.74	3176.11
398.93	3246.32
399.12	3283.77
399.32	3225.26
399.51	3304.84
399.70	3222.92
399.90	3260.37
400.09	3361.01
400.28	3440.59
400.47	3447.61
400.67	3499.10
400.86	3552.93
401.05	3426.54
401.24	3351.65
401.44	3545.91
401.63	3524.85
401.82	3492.08
402.01	3543.57
402.21	3571.66
402.40	3667.62
402.59	3517.83
402.78	3719.11
402.97	3604.42
403.17	3698.05
403.36	3634.85
403.55	3784.65
403.74	3796.35
403.93	3896.99
404.13	3913.38
404.32	3749.54
404.51	3974.23
404.70	3847.84
404.89	3894.65
405.09	4016.36
405.28	3868.91
405.47	3976.57
405.66	3913.38
405.85	4081.89
406.05	4042.11
406.24	4070.19
406.43	4060.83
406.62	4093.60
406.81	4182.54
407.00	4154.45
407.20	4203.60
407.39	4156.79
407.58	4290.20
407.77	4269.14
407.96	4402.55
408.15	4374.46
408.34	4329.99
408.54	4437.66
408.73	4456.38
408.92	4386.16
409.11	4589.79
409.30	4449.36
409.49	4519.57
409.68	4517.23
409.87	4737.24
410.07	4695.11
410.26	4709.16
410.45	4695.11
410.64	4624.90
410.83	4821.50
411.02	4762.99
411.21	4999.38
411.40	4816.82
411.59	5064.92
411.78	4947.89
411.98	5074.28
412.17	5121.09
412.36	5158.54
412.55	5317.70
412.74	5399.62
412.93	5343.44
413.12	5240.46
413.31	5547.07
413.50	5453.45
413.69	5315.36
413.88	5430.04
414.07	5472.17
414.26	5488.56
414.45	5631.33
414.64	5771.76
414.83	5689.84
415.02	5664.10
415.22	5816.23
415.41	5928.58
415.60	5874.74
415.79	6057.31
415.98	6064.33
416.17	6087.73
416.36	6090.07
416.55	6148.59
416.74	6141.57
416.93	6085.39
417.12	6176.67
417.31	6319.45
417.50	6286.68
417.69	6354.55
417.88	6452.86
418.07	6485.62
418.26	6532.44
418.45	6476.26
418.64	6698.61
418.83	6647.12
419.02	6663.51
419.21	6925.65
419.39	6806.28
419.58	6883.52
419.77	6642.44
419.96	6817.98
420.15	6846.07
420.34	6920.96
420.53	6801.60
420.72	7037.99
420.91	7002.88
421.10	7061.40
421.29	7169.06
421.48	7140.97
421.67	7152.68
421.86	7297.79
422.05	7253.32
422.24	7124.59
422.43	7272.04
422.61	7232.26
422.80	7513.12
422.99	7281.41
423.18	7349.28
423.37	7489.71
423.56	7426.52
423.75	7311.83
423.94	7190.13
424.13	6768.83
424.32	7164.38
424.50	7524.82
424.69	7468.65
424.88	7473.33
425.07	7379.71
425.26	7232.26
425.45	7428.86
425.64	7232.26
425.83	7389.07
426.01	7470.99
426.20	7557.59
426.39	7634.83
426.58	7581.00
426.77	7665.25
426.96	7667.60
427.15	7637.17
427.33	7714.41
427.52	7723.77
427.71	7925.05
427.90	7817.39
428.09	7864.20
428.28	8042.08
428.46	7878.24
428.65	7873.56
428.84	8116.98
429.03	8065.49
429.22	7936.76
429.40	8170.81
429.59	8156.77
429.78	7995.27
429.97	7803.35
430.16	8086.55
430.34	8278.47
430.53	8454.02
430.72	8348.69
430.91	8339.33
431.10	8236.35
431.28	8442.31
431.47	8573.38
431.66	8671.68
431.85	8594.45
432.03	8765.31
432.22	8877.65
432.41	8746.58
432.60	8617.85
432.79	8620.19
432.97	8922.12
433.16	8964.25
433.35	8950.21
433.54	8954.89
433.72	9055.53
433.91	9156.18
434.10	9158.52
434.28	8936.17
434.47	9387.89
434.66	9331.72
434.85	9226.39
435.03	9582.15
435.22	9563.43
435.41	9858.34
435.59	9586.83
435.78	9870.04
435.97	9570.45
436.16	9308.31
436.34	9441.72
436.53	9865.36
436.72	9762.37
436.90	9455.76
437.09	9921.53
437.28	9612.58
437.46	9734.29
437.65	9813.87
437.84	10026.86
438.02	10183.67
438.21	10139.20
438.40	9867.70
438.58	10335.81
438.77	10518.37
438.96	10424.75
439.14	10712.63
439.33	10590.92
439.52	10658.80
439.70	10789.87
439.89	10878.81
440.08	10960.73
440.26	11061.37
440.45	10729.02
440.63	10942.00
440.82	11522.46
441.01	11098.82
441.19	11239.25
441.38	11393.73
441.57	11676.93
441.75	11510.75
441.94	12044.40
442.12	11698.00
442.31	11756.51
442.50	11712.04
442.68	11819.71
442.87	11733.11
443.05	12091.21
443.24	12013.97
443.43	12149.72
443.61	12018.65
443.80	12374.41
443.98	11854.81
444.17	11609.06
444.35	12107.59
444.54	12552.29
444.73	12287.81
444.91	12222.28
445.10	12383.77
445.28	12500.80
445.47	12301.86
445.65	12465.69
445.84	12601.44
446.02	12711.45
446.21	12325.26
446.39	12423.56
446.58	12659.96
446.77	12428.24
446.95	12428.24
447.14	12641.23
447.32	12760.60
447.51	12718.47
447.69	12573.36
447.88	12641.23
448.06	12748.90
448.25	12603.78
448.43	12725.49
448.62	12592.08
448.80	12643.57
448.99	12861.24
449.17	12952.52
449.36	13055.51
449.54	13130.41
449.73	13259.13
449.91	13521.27
450.10	13373.82
450.28	13291.90
450.46	13549.36
450.65	13425.31
450.83	13621.92
451.02	13312.97
451.20	13741.29
451.39	13380.84
451.57	13640.64
451.76	13441.70
451.94	13802.14
452.13	13926.19
452.31	14008.11
452.49	13528.30
452.68	14010.45
452.86	13764.69
453.05	13879.38
453.23	14143.86
453.42	13781.07
453.60	14099.39
453.78	14064.28
453.97	14010.45
454.15	14066.62
454.34	14333.44
454.52	14445.79
454.70	14207.05
454.89	14408.34
455.07	14478.55
455.26	14817.93
455.44	14890.49
455.62	14728.99
455.81	14869.42
455.99	14782.82
456.17	15070.71
456.36	14778.14
456.54	15227.53
456.73	15414.77
456.91	15662.86
457.09	15524.77
457.28	15550.52
457.46	15356.25
457.64	15817.34
457.83	15620.74
458.01	15632.44
458.19	15892.24
458.38	15723.72
458.56	16123.95
458.74	15967.13
458.93	16243.32
459.11	16027.99
459.29	15988.20
459.48	16023.31
459.66	15992.88
459.84	16070.12
460.03	16526.52
460.21	16463.33
460.39	16552.27
460.57	16723.13
460.76	16776.96
460.94	16582.70
461.12	16826.11
461.31	16692.70
461.49	16695.04
461.67	16746.53
461.85	16545.25
462.04	16947.82
462.22	17549.34
462.40	17699.13
462.59	16992.29
462.77	17064.85
462.95	17338.69
463.13	17362.09
463.32	17249.75
463.50	17614.87
463.68	17675.73
463.86	17750.62
464.05	17561.04
464.23	17284.86
464.41	17767.01
464.59	17694.45
464.78	18097.02
464.96	17830.20
465.14	17518.91
465.32	18099.36
465.50	18260.86
465.69	18396.61
465.87	18277.24
466.05	18183.62
466.23	18300.65
466.41	18258.52
466.60	18656.41
466.78	18125.11
466.96	18185.96
467.14	18719.60
467.32	18476.19
467.51	18963.02
467.69	18244.48
467.87	18808.54
468.05	18934.93
468.23	18490.23
468.41	18633.00
468.60	19044.94
468.78	19227.50
468.96	19129.20
469.14	19035.58
469.32	19543.47
469.50	19122.18
469.69	19522.41
469.87	19601.99
470.05	19424.11
470.23	19962.43
470.41	19604.33
470.59	20027.96
470.77	19901.58
470.95	19836.04
471.14	20346.28
471.32	20168.40
471.50	20292.44
471.68	20091.16
471.86	20610.76
472.04	20594.37
472.22	21303.56
472.40	20957.16
472.58	20755.87
472.77	20783.96
472.95	21406.54
473.13	21792.73
473.31	21411.22
473.49	21774.00
473.67	21301.22
473.85	21633.57
474.03	21685.06
474.21	21745.92
474.39	22155.51
474.57	21731.87
474.75	22583.83
474.93	23054.28
475.12	22464.46
475.30	23103.43
475.48	22607.23
475.66	23150.24
475.84	22698.52
476.02	22923.21
476.20	23087.04
476.38	23599.62
476.56	24004.53
476.74	24175.39
476.92	23875.80
477.10	24432.85
477.28	24283.06
477.46	24552.22
477.64	24552.22
477.82	24678.61
478.00	25635.89
478.18	25310.55
478.36	25666.31
478.54	25848.88
478.72	25977.61
478.90	26251.45
479.08	26647.00
479.26	27037.87
479.44	26656.36
479.62	27084.68
479.80	26918.50
479.98	27206.39
480.16	27924.93
480.34	27920.25
480.52	28046.64
480.70	28154.30
480.88	28072.39
481.06	28243.24
481.24	28498.36
481.41	28879.87
481.59	29401.81
481.77	29418.19
481.95	29453.30
482.13	30015.03
482.31	30005.67
482.49	30616.55
482.67	30251.42
482.85	30558.03
483.03	31197.00
483.21	31431.05
483.39	31814.90
483.57	31826.60
483.74	31817.24
483.92	32233.86
484.10	32278.33
484.28	32673.88
484.46	33539.88
484.64	33855.85
484.82	33476.68
485.00	34080.54
485.18	34574.39
485.35	35054.20
485.53	34820.15
485.71	35072.93
485.89	35519.97
486.07	35330.39
486.25	35592.53
486.43	35637.00
486.61	36247.88
486.78	36495.97
486.96	36662.15
487.14	37228.56
487.32	37273.03
487.50	37680.28
487.68	38136.69
487.85	38232.65
488.03	38644.59
488.21	39494.20
488.39	38925.45
488.57	39416.96
488.75	39620.59
488.92	40217.43
489.10	40322.75
489.28	40872.78
489.46	41006.19
489.64	40587.23
489.81	41469.61
489.99	41647.49
490.17	41972.83
490.35	42775.63
490.53	42766.27
490.70	42909.04
490.88	42742.86
491.06	43587.80
491.24	43569.07
491.41	43360.76
491.59	43791.42
491.77	44561.46
491.95	44437.41
492.13	44861.05
492.30	45038.93
492.48	45375.97
492.66	45439.16
492.84	45853.44
493.01	46227.92
493.19	45797.26
493.37	46553.26
493.54	46555.60
493.72	47033.07
493.90	47257.76
494.08	47667.35
494.25	48179.93
494.43	47927.15
494.61	48203.33
494.79	48353.13
494.96	48645.69
495.14	48512.28
495.32	49181.68
495.49	49216.78
495.67	49647.44
495.85	49633.40
496.02	49958.73
496.20	49970.44
496.38	50363.65
496.55	50600.04
496.73	51241.35
496.91	51129.00
497.09	51124.32
497.26	51201.56
497.44	51061.13
497.62	51517.53
497.79	51901.38
497.97	51873.29
498.14	52444.38
498.32	52259.48
498.50	52477.15
498.67	52575.45
498.85	52678.44
499.03	53027.18
499.20	52851.64
499.38	53153.57
499.56	53298.68
499.73	53502.31
499.91	53600.61
500.08	53698.91
500.26	53492.94
500.44	53970.41
500.61	53925.94
500.79	54209.15
500.97	54291.07
501.14	54438.52
501.32	54459.58
501.49	54541.50
501.67	54787.26
501.84	55196.85
502.02	55128.98
502.20	54904.29
502.37	55281.11
502.55	55346.65
502.72	55412.18
502.90	55629.85
503.07	55524.53
503.25	55711.77
503.43	55480.06
503.60	55650.92
503.78	56151.79
503.95	55887.31
504.13	56109.66
504.30	56327.33
504.48	56240.73
504.65	56451.38
504.83	56701.82
505.01	56772.03
505.18	56554.36
505.36	56870.34
505.53	56893.74
505.71	56961.62
505.88	57293.97
506.06	57069.28
506.23	57403.98
506.41	57322.06
506.58	57411.00
506.76	57284.61
506.93	57874.43
507.11	57820.59
507.28	57752.72
507.46	57872.09
507.63	57944.64
507.81	58071.03
507.98	57886.13
508.16	58134.23
508.33	58115.50
508.50	58356.58
508.68	58642.12
508.85	58511.05
509.03	58604.67
509.20	58515.73
509.38	58724.04
509.55	58733.40
509.73	59004.91
509.90	59021.29
510.08	59093.85
510.25	59068.10
510.42	59117.25
510.60	59482.37
510.77	59386.41
510.95	59568.97
511.12	59576.00
511.30	59412.16
511.47	59646.21
511.64	59908.35
511.82	59760.90
511.99	59564.29
512.17	60025.38
512.34	59894.31
512.51	60219.64
512.69	60460.72
512.86	60299.22
513.04	60505.19
513.21	60544.98
513.38	60402.21
513.56	60629.24
513.73	60484.12
513.90	60736.90
514.08	60617.53
514.25	60781.37
514.43	60931.17
514.60	60795.42
514.77	60811.80
514.95	61212.03
515.12	61029.47
515.29	61375.87
515.47	61406.30
515.64	61518.64
515.81	61226.07
515.99	61457.79
516.16	61811.21
516.33	61425.02
516.51	61705.88
516.68	61670.78
516.85	61848.66
517.03	61895.47
517.20	61846.32
517.37	61907.17
517.54	61928.23
517.72	61895.47
517.89	61869.72
518.06	62115.48
518.24	62232.50
518.41	62251.23
518.58	62230.16
518.75	62071.01
518.93	62223.14
519.10	62241.87
519.27	62649.12
519.45	62365.91
519.62	62691.25
519.79	62939.35
519.96	62614.01
520.14	62831.68
520.31	62688.91
520.48	62948.71
520.65	62709.97
520.83	63021.26
521.00	63124.25
521.17	63042.33
521.34	63166.38
521.52	63332.56
521.69	63107.86
521.86	63222.55
522.03	63419.16
522.20	63543.20
522.38	63810.03
522.55	63732.79
522.72	63730.45
522.89	63606.40
523.07	63758.53
523.24	63407.45
523.41	63943.44
523.58	63863.86
523.75	64048.76
523.92	63915.35
524.10	63941.10
524.27	64104.93
524.44	64147.06
524.61	64205.58
524.78	64245.36
524.96	64175.15
525.13	64346.01
525.30	64556.66
525.47	64615.17
525.64	64402.18
525.81	64566.02
525.98	64530.91
526.16	64542.61
526.33	64610.49
526.50	64975.61
526.67	64757.94
526.84	64746.24
527.01	64708.79
527.18	64933.48
527.36	64914.76
527.53	64825.82
527.70	64921.78
527.87	64881.99
528.04	65102.00
528.21	65172.22
528.38	65052.85
528.55	65237.75
528.72	65057.53
528.89	65272.86
529.07	65169.88
529.24	65289.24
529.41	65478.83
529.58	65439.04
529.75	65535.00
529.92	65535.00
530.09	65499.89
530.26	65535.00
530.43	65495.21
530.60	65532.66
530.77	65535.00
530.94	65535.00
531.11	65535.00
531.28	65535.00
531.46	65535.00
531.63	65535.00
531.80	65535.00
531.97	65535.00
532.14	65535.00
532.31	65535.00
532.48	65535.00
532.65	65535.00
532.82	65535.00
532.99	65535.00
533.16	65535.00
533.33	65535.00
533.50	65535.00
533.67	65535.00
533.84	65535.00
534.01	65535.00
534.18	65535.00
534.35	65535.00
534.52	65535.00
534.69	65535.00
534.86	65535.00
535.03	65535.00
535.20	65535.00
535.37	65535.00
535.54	65535.00
535.71	65535.00
535.88	65535.00
536.05	65535.00
536.22	65535.00
536.38	65535.00
536.55	65535.00
536.72	65535.00
536.89	65535.00
537.06	65535.00
537.23	65535.00
537.40	65535.00
537.57	65535.00
537.74	65535.00
537.91	65535.00
538.08	65535.00
538.25	65535.00
538.42	65535.00
538.59	65535.00
538.75	65535.00
538.92	65535.00
539.09	65535.00
539.26	65535.00
539.43	65535.00
539.60	65535.00
539.77	65535.00
539.94	65535.00
540.11	65535.00
540.28	65535.00
540.44	65535.00
540.61	65535.00
540.78	65535.00
540.95	65535.00
541.12	65535.00
541.29	65535.00
541.46	65535.00
541.62	65535.00
541.79	65535.00
541.96	65535.00
542.13	65535.00
542.30	65535.00
542.47	65535.00
542.63	65535.00
542.80	65535.00
542.97	65535.00
543.14	65535.00
543.31	65535.00
543.48	65535.00
543.64	65535.00
543.81	65535.00
543.98	65535.00
544.15	65535.00
544.32	65535.00
544.48	65535.00
544.65	65535.00
544.82	65535.00
544.99	65535.00
545.16	65535.00
545.32	65535.00
545.49	65535.00
545.66	65535.00
545.83	65535.00
546.00	65535.00
546.16	65535.00
546.33	65535.00
546.50	65535.00
546.67	65535.00
546.83	65535.00
547.00	65535.00
547.17	65535.00
547.34	65535.00
547.50	65535.00
547.67	65535.00
547.84	65535.00
548.00	65535.00
548.17	65535.00
548.34	65535.00
548.51	65535.00
548.67	65535.00
548.84	65535.00
549.01	65535.00
549.18	65535.00
549.34	65535.00
549.51	65535.00
549.68	65535.00
549.84	65535.00
550.01	65535.00
550.18	65535.00
550.34	65535.00
550.51	65535.00
550.68	65535.00
550.84	65535.00
551.01	65535.00
551.18	65535.00
551.34	65535.00
551.51	65535.00
551.68	65535.00
551.84	65535.00
552.01	65535.00
552.18	65535.00
552.34	65535.00
552.51	65535.00
552.68	65535.00
552.84	65535.00
553.01	65535.00
553.18	65535.00
553.34	65535.00
553.51	65535.00
553.67	65535.00
553.84	65535.00
554.01	65535.00
554.17	65535.00
554.34	65535.00
554.51	65535.00
554.67	65535.00
554.84	65535.00
555.00	65535.00
555.17	65535.00
555.33	65535.00
555.50	65535.00
555.67	65535.00
555.83	65535.00
556.00	65535.00
556.16	65535.00
556.33	65535.00
556.50	65535.00
556.66	65535.00
556.83	65535.00
556.99	65535.00
557.16	65535.00
557.32	65535.00
557.49	65535.00
557.65	65535.00
557.82	65535.00
557.98	65535.00
558.15	65535.00
558.32	65535.00
558.48	65535.00
558.65	65535.00
558.81	65535.00
558.98	65535.00
559.14	65535.00
559.31	65535.00
559.47	65535.00
559.64	65535.00
559.80	65535.00
559.97	65535.00
560.13	65535.00
560.30	65535.00
560.46	65535.00
560.63	65535.00
560.79	65535.00
560.96	65535.00
561.12	65535.00
561.29	65535.00
561.45	65535.00
561.61	65535.00
561.78	65535.00
561.94	65535.00
562.11	65535.00
562.27	65535.00
562.44	65535.00
562.60	65535.00
562.77	65535.00
562.93	65535.00
563.10	65535.00
563.26	65535.00
563.42	65535.00
563.59	65535.00
563.75	65535.00
563.92	65535.00
564.08	65535.00
564.24	65535.00
564.41	65535.00
564.57	65535.00
564.74	65535.00
564.90	65535.00
565.07	65535.00
565.23	65535.00
565.39	65535.00
565.56	65535.00
565.72	65535.00
565.88	65535.00
566.05	65535.00
566.21	65535.00
566.38	65535.00
566.54	65535.00
566.70	65535.00
566.87	65535.00
567.03	65535.00
567.19	65535.00
567.36	65535.00
567.52	65535.00
567.68	65535.00
567.85	65535.00
568.01	65535.00
568.17	65535.00
568.34	65535.00
568.50	65535.00
568.66	65535.00
568.83	65535.00
568.99	65535.00
569.15	65535.00
569.32	65535.00
569.48	65535.00
569.64	65535.00
569.81	65535.00
569.97	65535.00
570.13	65535.00
570.30	65535.00
570.46	65535.00
570.62	65535.00
570.78	65535.00
570.95	65535.00
571.11	65535.00
571.27	65535.00
571.43	65535.00
571.60	65535.00
571.76	65535.00
571.92	65535.00
572.09	65535.00
572.25	65535.00
572.41	65535.00
572.57	65535.00
572.74	65535.00
572.90	65535.00
573.06	65535.00
573.22	65535.00
573.38	65535.00
573.55	65535.00
573.71	65535.00
573.87	65535.00
574.03	65535.00
574.20	65535.00
574.36	65535.00
574.52	65535.00
574.68	65535.00
574.84	65535.00
575.01	65535.00
575.17	65535.00
575.33	65535.00
575.49	65535.00
575.65	65535.00
575.82	65535.00
575.98	65535.00
576.14	65535.00
576.30	65535.00
576.46	65535.00
576.62	65535.00
576.79	65535.00
576.95	65535.00
577.11	65535.00
577.27	65535.00
577.43	65535.00
577.59	65535.00
577.75	65535.00
577.92	65535.00
578.08	65535.00
578.24	65535.00
578.40	65535.00
578.56	65535.00
578.72	65535.00
578.88	65535.00
579.04	65535.00
579.21	65535.00
579.37	65535.00
579.53	65535.00
579.69	65535.00
579.85	65535.00
580.01	65535.00
580.17	65535.00
580.33	65535.00
580.49	65535.00
580.65	65535.00
580.82	65535.00
580.98	65535.00
581.14	65535.00
581.30	65535.00
581.46	65535.00
581.62	65535.00
581.78	65535.00
581.94	65535.00
582.10	65535.00
582.26	65535.00
582.42	65535.00
582.58	65535.00
582.74	65535.00
582.90	65535.00
583.06	65535.00
583.22	65535.00
583.38	65535.00
583.54	65535.00
583.70	65535.00
583.86	65535.00
584.02	65535.00
584.18	65535.00
584.34	65535.00
584.50	65535.00
584.66	65535.00
584.82	65535.00
584.98	65535.00
585.14	65535.00
585.30	65535.00
585.46	65535.00
585.62	65535.00
585.78	65535.00
585.94	65535.00
586.10	65535.00
586.26	65535.00
586.42	65535.00
586.58	65535.00
586.74	65535.00
586.90	65535.00
