SpectraSuite Data File
++++++++++++++++++++++++++++++++++++
Date: Thu Oct 24 13:21:17 EDT 2013
User: stostad
Dark Spectrum Present: No
Reference Spectrum Present: No
Number of Sampled Component Spectra: 1
Spectrometers: USB2+H05261
Integration Time (usec): 100000 (USB2+H05261)
Spectra Averaged: 1 (USB2+H05261)
Boxcar Smoothing: 0 (USB2+H05261)
Correct for Electrical Dark: No (USB2+H05261)
Strobe/Lamp Enabled: No (USB2+H05261)
Correct for Detector Non-linearity: No (USB2+H05261)
Correct for Stray Light: No (USB2+H05261)
Number of Pixels in Processed Spectrum: 2048
>>>>>Begin Processed Spectral Data<<<<<
365.73	592.16
365.92	592.16
366.12	592.16
366.32	496.19
366.52	472.79
366.72	540.66
366.91	437.68
367.11	477.47
367.31	440.02
367.51	421.30
367.70	444.70
367.90	435.34
368.10	433.00
368.30	430.66
368.49	414.27
368.69	521.94
368.89	440.02
369.09	479.81
369.28	447.04
369.48	538.32
369.68	479.81
369.87	559.39
370.07	543.00
370.27	575.77
370.47	545.34
370.66	755.99
370.86	812.17
371.06	793.44
371.25	812.17
371.45	807.48
371.65	877.70
371.84	833.23
372.04	777.06
372.24	847.27
372.44	957.28
372.63	823.87
372.83	854.30
373.03	896.43
373.22	887.06
373.42	868.34
373.62	891.74
373.81	971.32
374.01	936.21
374.21	945.58
374.40	910.47
374.60	884.72
374.79	943.24
374.99	908.13
375.19	898.77
375.38	936.21
375.58	940.90
375.78	978.34
375.97	933.87
376.17	933.87
376.37	929.19
376.56	887.06
376.76	1027.50
376.95	973.66
377.15	992.39
377.35	922.17
377.54	1074.31
377.74	915.15
377.93	1006.43
378.13	976.00
378.33	983.02
378.52	992.39
378.72	933.87
378.91	954.94
379.11	976.00
379.31	919.83
379.50	936.21
379.70	1004.09
379.89	1036.86
380.09	992.39
380.28	1053.24
380.48	1034.52
380.68	1006.43
380.87	1034.52
381.07	1086.01
381.26	1036.86
381.46	999.41
381.65	1025.15
381.85	1064.94
382.04	1076.65
382.24	1093.03
382.43	1053.24
382.63	1025.15
382.83	1081.33
383.02	1041.54
383.22	1076.65
383.41	1013.45
383.61	1125.80
383.80	1102.39
384.00	1041.54
384.19	1116.44
384.39	1020.47
384.58	1111.75
384.78	1109.41
384.97	1135.16
385.17	1006.43
385.36	1048.56
385.56	1078.99
385.75	1076.65
385.95	1130.48
386.14	1118.78
386.34	1240.48
386.53	1252.19
386.72	1156.22
386.92	1109.41
387.11	1217.08
387.31	1165.59
387.50	1111.75
387.70	1146.86
387.89	1174.95
388.09	1203.04
388.28	1144.52
388.48	1149.20
388.67	1165.59
388.86	1137.50
389.06	1210.06
389.25	1174.95
389.45	1196.01
389.64	1188.99
389.84	1242.82
390.03	1165.59
390.22	1268.57
390.42	1268.57
390.61	1205.38
390.81	1238.14
391.00	1289.64
391.19	1289.64
391.39	1327.08
391.58	1303.68
391.78	1268.57
391.97	1284.95
392.16	1296.66
392.36	1341.13
392.55	1310.70
392.75	1310.70
392.94	1299.00
393.13	1352.83
393.33	1329.42
393.52	1299.00
393.71	1406.66
393.91	1359.85
394.10	1331.76
394.29	1350.49
394.49	1364.53
394.68	1383.26
394.88	1392.62
395.07	1390.28
395.26	1413.68
395.46	1385.60
395.65	1406.66
395.84	1439.43
396.04	1526.03
396.23	1451.13
396.42	1401.98
396.62	1483.90
396.81	1603.27
397.00	1537.73
397.19	1500.28
397.39	1448.79
397.58	1504.96
397.77	1465.18
397.97	1460.49
398.16	1507.30
398.35	1446.45
398.55	1577.52
398.74	1493.26
398.93	1706.25
399.12	1612.63
399.32	1582.20
399.51	1584.54
399.70	1570.50
399.90	1563.48
400.09	1582.20
400.28	1706.25
400.47	1687.53
400.67	1650.08
400.86	1593.90
401.05	1746.04
401.24	1626.67
401.44	1708.59
401.63	1727.32
401.82	1804.55
402.01	1764.76
402.21	1664.12
402.40	1720.29
402.59	1673.48
402.78	1661.78
402.97	1701.57
403.17	1762.42
403.36	1809.23
403.55	1797.53
403.74	1783.49
403.93	1820.94
404.13	1834.98
404.32	1823.28
404.51	1846.68
404.70	1881.79
404.89	1867.75
405.09	1837.32
405.28	1891.15
405.47	1863.07
405.66	1870.09
405.85	1933.28
406.05	1891.15
406.24	2017.54
406.43	1900.52
406.62	2019.88
406.81	2078.40
407.00	1954.35
407.20	1926.26
407.39	2118.18
407.58	2165.00
407.77	2059.67
407.96	2085.42
408.15	2073.71
408.34	2036.27
408.54	2139.25
408.73	2083.08
408.92	2127.55
409.11	2125.21
409.30	2120.53
409.49	2150.95
409.68	2190.74
409.87	2221.17
410.07	2249.25
410.26	2244.57
410.45	2223.51
410.64	2214.15
410.83	2298.41
411.02	2244.57
411.21	2361.60
411.40	2342.88
411.59	2480.97
411.78	2366.28
411.98	2385.01
412.17	2326.49
412.36	2401.39
412.55	2443.52
412.74	2532.46
412.93	2492.67
413.12	2377.98
413.31	2548.84
413.50	2523.10
413.69	2509.05
413.88	2572.25
414.07	2647.15
414.26	2469.27
414.45	2635.44
414.64	2712.68
414.83	2672.89
415.02	2848.43
415.22	2752.47
415.41	2722.04
415.60	2665.87
415.79	2785.24
415.98	2768.85
416.17	2850.77
416.36	2722.04
416.55	2754.81
416.74	2745.45
416.93	2764.17
417.12	2918.65
417.31	3016.95
417.50	2965.46
417.69	3122.27
417.88	2979.50
418.07	2977.16
418.26	2946.73
418.45	3068.44
418.64	3054.40
418.83	3133.98
419.02	3243.98
419.21	3187.81
419.39	3133.98
419.58	3094.19
419.77	3183.13
419.96	3255.69
420.15	3297.81
420.34	3258.03
420.53	3222.92
420.72	3377.39
420.91	3073.12
421.10	3255.69
421.29	3328.24
421.48	3286.11
421.67	3311.86
421.86	3281.43
422.05	3283.77
422.24	3173.77
422.43	3365.69
422.61	3316.54
422.80	3522.51
422.99	3496.76
423.18	3456.97
423.37	3494.42
423.56	3375.05
423.75	3435.91
423.94	3295.47
424.13	3145.68
424.32	3283.77
424.50	3330.58
424.69	3583.36
424.88	3304.84
425.07	3485.06
425.26	3421.86
425.45	3297.81
425.64	3386.76
425.83	3487.40
426.01	3297.81
426.20	3452.29
426.39	3452.29
426.58	3417.18
426.77	3513.14
426.96	3597.40
427.15	3468.67
427.33	3611.45
427.52	3499.10
427.71	3599.74
427.90	3669.96
428.09	3609.11
428.28	3644.21
428.46	3660.60
428.65	3662.94
428.84	3679.32
429.03	3744.86
429.22	3604.42
429.40	3712.09
429.59	3667.62
429.78	3627.83
429.97	3492.08
430.16	3747.20
430.34	3744.86
430.53	3887.63
430.72	3712.09
430.91	3798.69
431.10	3918.06
431.28	3955.51
431.47	4063.17
431.66	4114.66
431.85	3791.67
432.03	4018.70
432.22	4004.66
432.41	3976.57
432.60	3911.04
432.79	3918.06
432.97	4072.53
433.16	3927.42
433.35	3906.35
433.54	4007.00
433.72	3999.98
433.91	4128.70
434.10	4117.00
434.28	4074.87
434.47	4166.15
434.66	4147.43
434.85	4222.33
435.03	4262.12
435.22	4404.89
435.41	4542.98
435.59	4521.92
435.78	4578.09
435.97	4432.97
436.16	4404.89
436.34	4383.82
436.53	4390.84
436.72	4339.35
436.90	4379.14
437.09	4393.19
437.28	4299.56
437.46	4517.23
437.65	4348.72
437.84	4461.06
438.02	4465.74
438.21	4440.00
438.40	4421.27
438.58	4400.21
438.77	4542.98
438.96	4554.68
439.14	4746.61
439.33	4645.96
439.52	4582.77
439.70	4828.53
439.89	4865.97
440.08	4683.41
440.26	4926.83
440.45	4856.61
440.63	4851.93
440.82	4954.91
441.01	4798.10
441.19	5022.79
441.38	4910.44
441.57	4940.87
441.75	5109.39
441.94	5074.28
442.12	5116.41
442.31	5156.20
442.50	5081.30
442.68	5095.35
442.87	5343.44
443.05	5425.36
443.24	5270.89
443.43	5242.80
443.61	5313.02
443.80	5401.96
443.98	5195.99
444.17	5163.22
444.35	5425.36
444.54	5453.45
444.73	5355.15
444.91	5401.96
445.10	5240.46
445.28	5362.17
445.47	5280.25
445.65	5313.02
445.84	5448.77
446.02	5416.00
446.21	5497.92
446.39	5376.21
446.58	5355.15
446.77	5490.90
446.95	5308.34
447.14	5432.38
447.32	5462.81
447.51	5465.15
447.69	5439.40
447.88	5362.17
448.06	5549.41
448.25	5645.37
448.43	5511.96
448.62	5535.37
448.80	5521.32
448.99	5518.98
449.17	5741.33
449.36	5500.26
449.54	5731.97
449.73	5713.25
449.91	5809.21
450.10	5741.33
450.28	5722.61
450.46	5806.87
450.65	5746.02
450.83	5832.62
451.02	5640.69
451.20	5884.11
451.39	6022.20
451.57	5884.11
451.76	5753.04
451.94	5820.91
452.13	6054.97
452.31	6073.69
452.49	5942.62
452.68	6061.99
452.86	6076.03
453.05	6045.60
453.23	6078.37
453.42	5991.77
453.60	5898.15
453.78	5980.07
453.97	6061.99
454.15	6064.33
454.34	6134.54
454.52	6120.50
454.70	6179.01
454.89	6080.71
455.07	6265.61
455.26	6202.42
455.44	6314.77
455.62	6469.24
455.81	6310.08
455.99	6209.44
456.17	6609.67
456.36	6326.47
456.54	6427.11
456.73	6363.92
456.91	6623.72
457.09	6434.13
457.28	6576.91
457.46	6623.72
457.64	6738.40
457.83	6668.19
458.01	6661.16
458.19	6752.45
458.38	6644.78
458.56	6640.10
458.74	6696.27
458.93	6857.77
459.11	6619.04
459.29	6710.32
459.48	6815.64
459.66	6871.81
459.84	6813.30
460.03	6892.88
460.21	6956.07
460.39	6937.35
460.57	6829.68
460.76	6904.58
460.94	6920.96
461.12	6960.75
461.31	7089.48
461.49	7035.65
461.67	7091.82
461.85	7023.95
462.04	7096.50
462.22	7440.56
462.40	7344.60
462.59	7311.83
462.77	7243.96
462.95	7260.34
463.13	7173.74
463.32	7279.07
463.50	7531.84
463.68	7311.83
463.86	7506.10
464.05	7166.72
464.23	7276.73
464.41	7494.40
464.59	7363.33
464.78	7789.30
464.96	7585.68
465.14	7536.52
465.32	7613.76
465.50	7475.67
465.69	7592.70
465.87	7461.63
466.05	7456.95
466.23	7555.25
466.41	7639.51
466.60	7735.47
466.78	7578.65
466.96	7662.91
467.14	7735.47
467.32	7662.91
467.51	7763.56
467.69	7470.99
467.87	7786.96
468.05	7885.26
468.23	7648.87
468.41	7868.88
468.60	7932.08
468.78	7819.73
468.96	7829.09
469.14	8056.12
469.32	8077.19
469.50	7763.56
469.69	7997.61
469.87	8292.52
470.05	8131.02
470.23	8065.49
470.41	7990.59
470.59	8135.70
470.77	8126.34
470.95	8215.28
471.14	8425.93
471.32	8147.40
471.50	8381.46
471.68	8304.22
471.86	8423.59
472.04	8386.14
472.22	8594.45
472.40	8510.19
472.58	8449.33
472.77	8613.17
472.95	8507.85
473.13	8842.54
473.31	8631.90
473.49	8580.40
473.67	8638.92
473.85	8748.92
474.03	9088.30
474.21	8868.29
474.39	9109.36
474.57	9050.85
474.75	8980.64
474.93	9280.22
475.12	9221.71
475.30	9331.72
475.48	9144.47
475.66	9310.65
475.84	9357.46
476.02	9348.10
476.20	9177.24
476.38	9558.75
476.56	9666.41
476.74	9839.61
476.92	9654.71
477.10	9816.21
477.28	9839.61
477.46	10001.11
477.64	10052.60
477.82	9912.17
478.00	10279.63
478.18	10232.82
478.36	10228.14
478.54	10401.34
478.72	10483.26
478.90	10457.51
479.08	10513.69
479.26	10787.53
479.44	10628.37
479.62	10808.59
479.80	10846.04
479.98	11014.56
480.16	11375.00
480.34	10972.43
480.52	11297.77
480.70	11288.40
480.88	11346.92
481.06	11309.47
481.24	11302.45
481.41	11775.24
481.59	11693.32
481.77	11850.13
481.95	11817.36
482.13	11910.99
482.31	11859.49
482.49	12166.10
482.67	12222.28
482.85	12283.13
483.03	12617.83
483.21	12559.31
483.39	12505.48
483.57	12503.14
483.74	12655.28
483.92	12886.99
484.10	12685.70
484.28	13008.70
484.46	13067.21
484.64	13432.33
484.82	13118.70
485.00	13231.05
485.18	13626.60
485.35	13816.18
485.53	13755.33
485.71	13823.20
485.89	14026.83
486.07	13825.54
486.25	14022.15
486.43	14167.26
486.61	14359.19
486.78	14040.87
486.96	14595.58
487.14	14773.46
487.32	14698.56
487.50	14724.31
487.68	14939.64
487.85	15129.22
488.03	15204.12
488.21	15492.01
488.39	15199.44
488.57	15414.77
488.75	15637.12
488.92	15903.94
489.10	15836.06
489.28	16018.63
489.46	16210.55
489.64	16072.46
489.81	16322.90
489.99	16538.23
490.17	16479.71
490.35	16779.30
490.53	16982.93
490.70	16915.05
490.88	16957.18
491.06	17247.41
491.24	17434.65
491.41	17043.78
491.59	17266.13
491.77	17439.33
491.95	17479.12
492.13	17752.96
492.30	17654.66
492.48	17781.05
492.66	17633.60
492.84	17846.58
493.01	18237.45
493.19	18073.62
493.37	18036.17
493.54	18068.94
493.72	18934.93
493.90	18665.77
494.08	18869.40
494.25	19119.84
494.43	18815.57
494.61	19117.50
494.79	19049.62
494.96	18941.96
495.14	19335.17
495.32	19585.60
495.49	19606.67
495.67	19508.37
495.85	19721.35
496.02	19967.11
496.20	19969.45
496.38	20046.69
496.55	19969.45
496.73	20636.50
496.91	20421.17
497.09	20467.98
497.26	21010.99
497.44	21036.74
497.62	20521.82
497.79	21048.44
497.97	20783.96
498.14	21137.38
498.32	21039.08
498.50	21303.56
498.67	21432.29
498.85	21359.73
499.03	21420.58
499.20	21713.15
499.38	21975.29
499.56	21689.74
499.73	21982.31
499.91	22047.85
500.08	22429.35
500.26	21799.75
500.44	21963.59
500.61	22410.63
500.79	22181.26
500.97	22511.27
501.14	22738.30
501.32	22438.72
501.49	22773.41
501.67	23119.81
501.84	22780.43
502.02	22920.87
502.20	23051.94
502.37	23047.26
502.55	22991.08
502.72	23084.70
502.90	23201.73
503.07	23421.74
503.25	23510.68
503.43	23531.75
503.60	23597.28
503.78	23482.59
503.95	23515.36
504.13	23475.57
504.30	23885.17
504.48	24032.62
504.65	23789.20
504.83	24091.13
505.01	24353.27
505.18	24325.19
505.36	24247.95
505.53	24336.89
505.71	24669.25
505.88	24669.25
506.06	24538.18
506.23	24692.65
506.41	24629.46
506.58	24964.15
506.76	25074.16
506.93	25041.39
507.11	24779.25
507.28	25025.01
507.46	25291.83
507.63	25373.75
507.81	25827.81
507.98	25184.16
508.16	25280.13
508.33	25446.30
508.50	25790.36
508.68	25993.99
508.85	25830.15
509.03	25820.79
509.20	25874.62
509.38	25961.22
509.55	26176.55
509.73	26214.00
509.90	26504.23
510.08	26274.85
510.25	26260.81
510.42	26295.92
510.60	26649.34
510.77	26560.40
510.95	26904.46
511.12	26752.32
511.30	26867.01
511.47	26916.16
511.64	26848.29
511.82	27047.23
511.99	26934.88
512.17	27351.50
512.34	27576.19
512.51	27623.00
512.69	27407.67
512.86	27667.47
513.04	27683.86
513.21	27611.30
513.38	27718.96
513.56	27730.67
513.73	27910.89
513.90	28168.35
514.08	27967.06
514.25	28498.36
514.43	27915.57
514.60	28386.02
514.77	27831.31
514.95	28709.01
515.12	27936.63
515.29	27978.76
515.47	28753.48
515.64	28781.57
515.81	28540.49
515.99	28797.95
516.16	28804.97
516.33	28680.92
516.51	29160.73
516.68	29057.75
516.85	29083.50
517.03	29158.39
517.20	29207.55
517.37	29046.05
517.54	29371.38
517.72	28978.17
517.89	29338.62
518.06	29092.86
518.24	29252.02
518.41	29682.67
518.58	29926.09
518.75	29153.71
518.93	29656.93
519.10	29504.79
519.27	29841.83
519.45	29823.11
519.62	29715.44
519.79	29710.76
519.96	29816.08
520.14	29893.32
520.31	30136.74
520.48	30277.17
520.65	30192.91
520.83	30148.44
521.00	30555.69
521.17	30396.54
521.34	30457.39
521.52	30677.40
521.69	30462.07
521.86	30836.56
522.03	31016.78
522.20	30668.04
522.38	31199.34
522.55	31271.90
522.72	31267.22
522.89	30895.07
523.07	31639.36
523.24	30932.52
523.41	31234.45
523.58	31342.11
523.75	31505.95
523.92	31309.35
524.10	31754.05
524.27	31613.62
524.44	31578.51
524.61	31440.42
524.78	31782.13
524.96	31681.49
525.13	32119.17
525.30	32446.85
525.47	31908.52
525.64	32023.21
525.81	32554.51
525.98	32128.53
526.16	32278.33
526.33	32072.36
526.50	32341.52
526.67	32112.15
526.84	32334.50
527.01	32563.87
527.18	32470.25
527.36	32554.51
527.53	32563.87
527.70	33003.89
527.87	32584.94
528.04	32804.95
528.21	32837.72
528.38	32676.22
528.55	33102.20
528.72	33001.55
528.89	33242.63
529.07	32723.03
529.24	33083.47
529.41	33483.70
529.58	33280.08
529.75	33621.80
529.92	33436.89
530.09	33256.67
530.26	33472.00
530.43	33242.63
530.60	33235.61
530.77	33673.29
530.94	34092.24
531.11	33713.08
531.28	33816.06
531.46	33935.43
531.63	34366.09
531.80	33699.03
531.97	33883.94
532.14	33862.87
532.31	33741.16
532.48	34352.04
532.65	34244.38
532.82	34148.42
532.99	33996.28
533.16	33902.66
533.33	33951.81
533.50	34855.26
533.67	34260.76
533.84	34036.07
534.01	34359.06
534.18	34394.17
534.35	34700.78
534.52	34345.02
534.69	35028.46
534.86	34487.79
535.03	34443.32
535.20	34347.36
535.37	35030.80
535.54	35012.07
535.71	35007.39
535.88	35304.64
536.05	34902.07
536.22	35019.10
536.38	35309.32
536.55	35283.58
536.72	35168.89
536.89	35395.92
537.06	35489.54
537.23	35646.36
537.40	35475.50
537.57	35480.18
537.74	35391.24
537.91	35924.88
538.08	35000.37
538.25	35257.83
538.42	35772.75
538.59	35627.63
538.75	35601.89
538.92	35880.41
539.09	35959.99
539.26	35440.39
539.43	35779.77
539.60	35868.71
539.77	35945.95
539.94	36257.24
540.11	36392.99
540.28	36493.63
540.44	36367.24
540.61	36566.19
540.78	36151.91
540.95	35920.20
541.12	36783.86
541.29	36629.38
541.46	36928.97
541.62	37137.28
541.79	37057.70
541.96	36540.44
542.13	36460.87
542.30	36732.37
542.47	36903.23
542.63	36673.85
542.80	37448.57
542.97	37603.05
543.14	37717.73
543.31	37645.18
543.48	37359.63
543.64	37766.88
543.81	37591.34
543.98	37848.80
544.15	37425.17
544.32	37469.64
544.48	38227.97
544.65	37834.76
544.82	37675.60
544.99	37715.39
545.16	37558.58
545.32	37982.21
545.49	38237.33
545.66	38827.15
545.83	38834.17
546.00	39288.23
546.16	38572.03
546.33	38431.60
546.50	38089.88
546.67	38171.80
546.83	37500.06
547.00	38405.85
547.17	38110.94
547.34	37979.87
547.50	38181.16
547.67	38754.59
547.84	38202.22
548.00	38384.79
548.17	38651.61
548.34	38319.25
548.51	38810.76
548.67	38782.68
548.84	38288.82
549.01	38375.42
549.18	38548.62
549.34	38546.28
549.51	38726.50
549.68	38752.25
549.84	38412.87
550.01	38639.90
550.18	38265.42
550.34	38478.41
550.51	38888.00
550.68	38862.26
550.84	38513.52
551.01	38614.16
551.18	38550.96
551.34	38822.47
551.51	38359.04
551.68	38565.01
551.84	38852.89
552.01	38602.46
552.18	38986.30
552.34	38679.69
552.51	39910.82
552.68	39302.28
552.84	39171.21
553.01	39285.89
553.18	38934.81
553.34	39115.03
553.51	39323.34
553.67	39449.73
553.84	39704.85
554.01	39711.87
554.17	39868.69
554.34	39557.39
554.51	39061.20
554.67	39386.54
554.84	39562.08
555.00	39136.10
555.17	39115.03
555.33	39346.75
555.50	39515.26
555.67	39531.65
555.83	39208.65
556.00	39459.09
556.16	40006.78
556.33	40119.12
556.50	39737.62
556.66	39316.32
556.83	39157.16
556.99	39847.62
557.16	39721.23
557.32	40140.19
557.49	40158.91
557.65	39515.26
557.82	39828.90
557.98	39971.67
558.15	39803.15
558.32	39618.25
558.48	39824.22
558.65	40573.19
558.81	40046.57
558.98	40524.04
559.14	39948.26
559.31	39978.69
559.47	40154.23
559.64	39990.39
559.80	40486.59
559.97	40364.88
560.13	40004.44
560.30	40343.81
560.46	40149.55
560.63	40507.65
560.79	40364.88
560.96	41085.76
561.12	40430.41
561.29	40336.79
561.45	40004.44
561.61	40374.24
561.78	40079.33
561.94	40645.74
562.11	40774.47
562.27	40788.52
562.44	40769.79
562.60	40758.09
562.77	40273.60
562.93	40802.56
563.10	40931.29
563.26	40617.66
563.42	40753.41
563.59	40655.11
563.75	40694.89
563.92	41148.96
564.08	40811.92
564.24	40950.01
564.41	40563.82
564.57	40463.18
564.74	40620.00
564.90	41359.61
565.07	40978.10
565.23	40699.58
565.39	41036.61
565.56	41357.27
565.72	40713.62
565.88	41041.29
566.05	40910.22
566.21	40938.31
566.38	40957.03
566.54	40631.70
566.70	40884.48
566.87	41254.28
567.03	41420.46
567.19	41411.10
567.36	41209.81
567.52	41050.66
567.68	41418.12
567.85	41265.99
568.01	41254.28
568.17	41214.49
568.34	41083.42
568.50	40811.92
568.66	41254.28
568.83	41734.09
568.99	41270.67
569.15	41184.07
569.32	41060.02
569.48	40816.60
569.64	41146.62
569.81	41043.63
569.97	41235.56
570.13	41076.40
570.30	41195.77
570.46	41296.41
570.62	41425.14
570.78	41247.26
570.95	41125.55
571.11	41455.57
571.27	41469.61
571.43	41195.77
571.60	41174.70
571.76	41322.16
571.92	41507.06
572.09	41493.02
572.25	41706.01
572.41	41729.41
572.57	41312.80
572.74	41811.33
572.90	40957.03
573.06	41745.80
573.22	41558.55
573.38	41315.14
573.55	41476.63
573.71	41640.47
573.87	41343.22
574.03	41474.29
574.20	41415.78
574.36	41731.75
574.52	41722.39
574.68	41366.63
574.84	41596.00
575.01	41600.68
575.17	41581.96
575.33	41848.78
575.49	41584.30
575.65	41635.79
575.82	41542.17
575.98	41876.86
576.14	42029.00
576.30	41956.44
576.46	41521.10
576.62	41694.30
576.79	41727.07
576.95	41429.82
577.11	41654.51
577.27	41808.99
577.43	41425.14
577.59	41591.32
577.75	41689.62
577.92	41659.20
578.08	41333.86
578.24	41581.96
578.40	41649.83
578.56	42237.31
578.72	41745.80
578.88	42333.27
579.04	42155.39
579.21	41600.68
579.37	41865.16
579.53	42103.90
579.69	41874.52
579.85	41769.20
580.01	41876.86
580.17	41584.30
580.33	42026.66
580.49	41769.20
580.65	42029.00
580.82	41755.16
580.98	41727.07
581.14	41865.16
581.30	41647.49
581.46	41406.42
581.62	41422.80
581.78	41631.11
581.94	42604.77
582.10	41682.60
582.26	42080.49
582.42	42052.41
582.58	41605.36
582.74	41984.53
582.90	41745.80
583.06	41977.51
583.22	42050.06
583.38	42288.80
583.54	41830.05
583.70	42036.02
583.86	42160.07
584.02	42040.70
584.18	42724.14
584.34	41876.86
584.50	42057.09
584.66	41645.15
584.82	41785.58
584.98	41921.34
585.14	41862.82
585.30	42080.49
585.46	41778.56
585.62	41942.40
585.78	42251.35
585.94	42244.33
586.10	41736.43
586.26	41876.86
586.42	42192.84
586.58	42005.59
586.74	42080.49
586.90	41621.75
587.06	41993.89
587.22	41862.82
587.38	42075.81
587.54	42885.64
587.70	42518.17
587.86	42403.49
588.02	41963.46
588.18	42277.10
588.34	41895.59
588.49	42326.25
588.65	42038.36
588.81	42012.62
588.97	42501.79
589.13	42607.11
589.29	42356.67
589.45	42754.57
589.61	42351.99
