SpectraSuite Data File
++++++++++++++++++++++++++++++++++++
Date: Thu Oct 24 13:21:22 EDT 2013
User: stostad
Dark Spectrum Present: No
Reference Spectrum Present: No
Number of Sampled Component Spectra: 1
Spectrometers: USB2+H05261
Integration Time (usec): 100000 (USB2+H05261)
Spectra Averaged: 1 (USB2+H05261)
Boxcar Smoothing: 0 (USB2+H05261)
Correct for Electrical Dark: No (USB2+H05261)
Strobe/Lamp Enabled: No (USB2+H05261)
Correct for Detector Non-linearity: No (USB2+H05261)
Correct for Stray Light: No (USB2+H05261)
Number of Pixels in Processed Spectrum: 2048
>>>>>Begin Processed Spectral Data<<<<<
365.73	564.07
365.92	564.07
366.12	564.07
366.32	463.43
366.52	482.15
366.72	458.74
366.91	440.02
367.11	454.06
367.31	475.13
367.51	468.11
367.70	491.51
367.90	482.15
368.10	470.45
368.30	496.19
368.49	418.96
368.69	423.64
368.89	475.13
369.09	514.92
369.28	500.87
369.48	500.87
369.68	557.05
369.87	514.92
370.07	496.19
370.27	571.09
370.47	627.26
370.66	830.89
370.86	896.43
371.06	917.49
371.25	999.41
371.45	917.49
371.65	887.06
371.84	999.41
372.04	952.60
372.24	968.98
372.44	945.58
372.63	870.68
372.83	882.38
373.03	994.73
373.22	1046.22
373.42	1036.86
373.62	1001.75
373.81	1001.75
374.01	999.41
374.21	1004.09
374.40	1029.84
374.60	1036.86
374.79	1032.18
374.99	1029.84
375.19	971.32
375.38	1060.26
375.58	1050.90
375.78	1076.65
375.97	1146.86
376.17	1076.65
376.37	1111.75
376.56	983.02
376.76	1050.90
376.95	1116.44
377.15	1130.48
377.35	1062.60
377.54	1050.90
377.74	1116.44
377.93	1179.63
378.13	1123.46
378.33	1184.31
378.52	1095.37
378.72	1121.12
378.91	1181.97
379.11	1170.27
379.31	1078.99
379.50	1174.95
379.70	1217.08
379.89	1104.73
380.09	1151.54
380.28	1130.48
380.48	1172.61
380.68	1179.63
380.87	1111.75
381.07	1217.08
381.26	1210.06
381.46	1196.01
381.65	1158.57
381.85	1226.44
382.04	1196.01
382.24	1242.82
382.43	1214.74
382.63	1240.48
382.83	1249.85
383.02	1329.42
383.22	1268.57
383.41	1313.04
383.61	1224.10
383.80	1266.23
384.00	1252.19
384.19	1240.48
384.39	1310.70
384.58	1348.15
384.78	1256.87
384.97	1289.64
385.17	1369.21
385.36	1275.59
385.56	1231.12
385.75	1350.49
385.95	1273.25
386.14	1308.36
386.34	1350.49
386.53	1455.81
386.72	1394.96
386.92	1390.28
387.11	1287.29
387.31	1404.32
387.50	1320.06
387.70	1446.45
387.89	1364.53
388.09	1329.42
388.28	1394.96
388.48	1448.79
388.67	1479.22
388.86	1355.17
389.06	1483.90
389.25	1418.36
389.45	1479.22
389.64	1383.26
389.84	1563.48
390.03	1479.22
390.22	1579.86
390.42	1448.79
390.61	1439.43
390.81	1406.66
391.00	1469.86
391.19	1472.20
391.39	1507.30
391.58	1514.33
391.78	1596.25
391.97	1469.86
392.16	1486.24
392.36	1654.76
392.55	1619.65
392.75	1537.73
392.94	1671.14
393.13	1722.63
393.33	1610.29
393.52	1657.10
393.71	1661.78
393.91	1701.57
394.10	1675.82
394.29	1703.91
394.49	1760.08
394.68	1694.55
394.88	1589.22
395.07	1678.16
395.26	1795.19
395.46	1643.06
395.65	1825.62
395.84	1818.60
396.04	1813.92
396.23	1823.28
396.42	1809.23
396.62	1823.28
396.81	1797.53
397.00	1785.83
397.19	1760.08
397.39	1842.00
397.58	1776.47
397.77	1753.06
397.97	1902.86
398.16	1856.04
398.35	1930.94
398.55	1898.17
398.74	1968.39
398.93	2080.74
399.12	1898.17
399.32	1886.47
399.51	2045.63
399.70	1935.62
399.90	1980.09
400.09	2073.71
400.28	1959.03
400.47	1956.69
400.67	2033.93
400.86	2047.97
401.05	1968.39
401.24	2012.86
401.44	2017.54
401.63	2115.84
401.82	2188.40
402.01	1923.92
402.21	2146.27
402.40	2129.89
402.59	2162.66
402.78	2155.63
402.97	2181.38
403.17	2209.47
403.36	2211.81
403.55	2235.21
403.74	2179.04
403.93	2361.60
404.13	2282.02
404.32	2317.13
404.51	2263.30
404.70	2324.15
404.89	2242.23
405.09	2394.37
405.28	2373.30
405.47	2368.62
405.66	2359.26
405.85	2492.67
406.05	2485.65
406.24	2450.54
406.43	2520.76
406.62	2558.21
406.81	2473.95
407.00	2438.84
407.20	2410.75
407.39	2509.05
407.58	2555.86
407.77	2602.68
407.96	2696.30
408.15	2665.87
408.34	2686.94
408.54	2633.10
408.73	2607.36
408.92	2658.85
409.11	2703.32
409.30	2682.25
409.49	2867.16
409.68	2675.23
409.87	2792.26
410.07	2724.38
410.26	2731.41
410.45	2860.13
410.64	2857.79
410.83	2963.12
411.02	2881.20
411.21	3016.95
411.40	2897.58
411.59	3056.74
411.78	2981.84
411.98	2963.12
412.17	3038.02
412.36	3035.67
412.55	3021.63
412.74	3049.72
412.93	3155.04
413.12	3103.55
413.31	3293.13
413.50	3173.77
413.69	3136.32
413.88	3309.52
414.07	3201.85
414.26	3288.45
414.45	3279.09
414.64	3314.20
414.83	3417.18
415.02	3421.86
415.22	3529.53
415.41	3433.57
415.60	3480.38
415.79	3496.76
415.98	3501.44
416.17	3513.14
416.36	3637.19
416.55	3693.37
416.74	3744.86
416.93	3707.41
417.12	3803.37
417.31	3740.18
417.50	3698.05
417.69	3833.80
417.88	3754.22
418.07	3812.73
418.26	3782.31
418.45	3922.74
418.64	4072.53
418.83	3885.29
419.02	3983.59
419.21	3939.12
419.39	4007.00
419.58	4147.43
419.77	4018.70
419.96	4117.00
420.15	4109.98
420.34	4156.79
420.53	4060.83
420.72	4119.34
420.91	4166.15
421.10	4236.37
421.29	4243.39
421.48	4124.02
421.67	4255.09
421.86	4156.79
422.05	4154.45
422.24	4154.45
422.43	4311.27
422.61	4484.47
422.80	4313.61
422.99	4388.50
423.18	4339.35
423.37	4351.06
423.56	4425.95
423.75	4362.76
423.94	4299.56
424.13	4081.89
424.32	4229.35
424.50	4297.22
424.69	4484.47
424.88	4613.20
425.07	4341.69
425.26	4175.52
425.45	4402.55
425.64	4416.59
425.83	4306.59
426.01	4447.02
426.20	4564.04
426.39	4484.47
426.58	4512.55
426.77	4332.33
426.96	4484.47
427.15	4425.95
427.33	4667.03
427.52	4531.28
427.71	4526.60
427.90	4596.81
428.09	4606.17
428.28	4688.09
428.46	4636.60
428.65	4667.03
428.84	4805.12
429.03	4837.89
429.22	4660.01
429.40	4849.59
429.59	4912.78
429.78	4608.51
429.97	4655.33
430.16	4882.36
430.34	4966.62
430.53	4873.00
430.72	4800.44
430.91	4755.97
431.10	5020.45
431.28	5081.30
431.47	5156.20
431.66	4973.64
431.85	4931.51
432.03	5008.75
432.22	5226.42
432.41	5048.54
432.60	5107.05
432.79	5198.33
432.97	5210.03
433.16	5247.48
433.35	5322.38
433.54	5256.84
433.72	5434.72
433.91	5516.64
434.10	5270.89
434.28	5249.82
434.47	5305.99
434.66	5401.96
434.85	5502.60
435.03	5757.72
435.22	5619.63
435.41	5820.91
435.59	5746.02
435.78	5762.40
435.97	5682.82
436.16	5746.02
436.34	5661.76
436.53	5518.98
436.72	5687.50
436.90	5563.45
437.09	5650.05
437.28	5598.56
437.46	5682.82
437.65	5776.44
437.84	5769.42
438.02	5708.57
438.21	5870.06
438.40	5797.51
438.58	5963.68
438.77	6211.78
438.96	5980.07
439.14	6052.63
439.33	6136.88
439.52	6078.37
439.70	6347.53
439.89	6342.85
440.08	6209.44
440.26	6305.40
440.45	6282.00
440.63	6417.75
440.82	6569.88
441.01	6406.05
441.19	6534.78
441.38	6628.40
441.57	6567.54
441.75	6661.16
441.94	6616.69
442.12	6745.42
442.31	6892.88
442.50	6792.23
442.68	6775.85
442.87	6881.18
443.05	6832.02
443.24	6939.69
443.43	6986.50
443.61	6752.45
443.80	7157.36
443.98	6892.88
444.17	6583.93
444.35	6927.99
444.54	7033.31
444.73	7063.74
444.91	7082.46
445.10	7021.61
445.28	7056.72
445.47	6984.16
445.65	7157.36
445.84	7208.85
446.02	7194.81
446.21	7126.93
446.39	7281.41
446.58	7295.45
446.77	7201.83
446.95	7082.46
447.14	7117.57
447.32	7300.13
447.51	7258.00
447.69	7119.91
447.88	7199.49
448.06	7173.74
448.25	7199.49
448.43	7246.30
448.62	7136.29
448.80	7243.96
448.99	7419.50
449.17	7211.19
449.36	7267.36
449.54	7541.21
449.73	7419.50
449.91	7571.63
450.10	7520.14
450.28	7651.21
450.46	7669.94
450.65	7557.59
450.83	7597.38
451.02	7683.98
451.20	7744.83
451.39	7702.70
451.57	7712.07
451.76	7688.66
451.94	7576.31
452.13	7578.65
452.31	7723.77
452.49	7702.70
452.68	7698.02
452.86	8056.12
453.05	7824.41
453.23	7901.65
453.42	7796.32
453.60	7983.57
453.78	7995.27
453.97	7939.10
454.15	8025.70
454.34	7887.61
454.52	8128.68
454.70	8088.89
454.89	7985.91
455.07	8241.03
455.26	8238.69
455.44	8533.59
455.62	8292.52
455.81	8400.18
455.99	8365.07
456.17	8409.54
456.36	8458.70
456.54	8507.85
456.73	8517.21
456.91	8786.37
457.09	8657.64
457.28	8800.41
457.46	8587.43
457.64	8784.03
457.83	8819.14
458.01	8879.99
458.19	8957.23
458.38	8678.71
458.56	8814.46
458.74	8868.29
458.93	8879.99
459.11	8849.57
459.29	8882.33
459.48	8954.89
459.66	8875.31
459.84	8954.89
460.03	9111.71
460.21	9144.47
460.39	9160.86
460.57	9107.02
460.76	9266.18
460.94	9320.01
461.12	9217.03
461.31	9301.29
461.49	9322.35
461.67	9383.21
461.85	9504.92
462.04	9186.60
462.22	9987.07
462.40	9689.82
462.59	9401.93
462.77	9631.30
462.95	9788.12
463.13	9645.35
463.32	9753.01
463.50	9778.76
463.68	9673.43
463.86	9853.66
464.05	9727.27
464.23	9659.39
464.41	9926.21
464.59	9689.82
464.78	9961.32
464.96	9884.08
465.14	9767.06
465.32	9907.49
465.50	9956.64
465.69	10171.97
465.87	10164.95
466.05	10148.56
466.23	10174.31
466.41	10057.28
466.60	10352.19
466.78	10162.61
466.96	9966.00
467.14	10244.52
467.32	10251.55
467.51	10366.23
467.69	10333.47
467.87	10211.76
468.05	10408.36
468.23	10347.51
468.41	10083.03
468.60	10389.64
468.78	10569.86
468.96	10279.63
469.14	10810.93
469.32	10478.58
469.50	10642.42
469.69	10714.97
469.87	10616.67
470.05	10806.25
470.23	10834.34
470.41	10656.46
470.59	10820.30
470.77	10885.83
470.95	10960.73
471.14	10864.77
471.32	10846.04
471.50	11080.10
471.68	11171.38
471.86	11068.39
472.04	11180.74
472.22	11545.86
472.40	11166.70
472.58	11353.94
472.77	11538.84
472.95	11606.72
473.13	11946.09
473.31	11679.27
473.49	11859.49
473.67	11695.66
473.85	11686.29
474.03	11950.78
474.21	11943.75
474.39	12016.31
474.57	12039.72
474.75	12077.16
474.93	12320.58
475.12	12292.49
475.30	12346.33
475.48	12175.47
475.66	12315.90
475.84	12194.19
476.02	12622.51
476.20	12549.95
476.38	12692.73
476.56	12894.01
476.74	12816.77
476.92	12903.37
477.10	12858.90
477.28	13195.94
477.46	13191.26
477.64	13418.29
477.82	13598.51
478.00	13928.53
478.18	13727.24
478.36	13982.36
478.54	13940.23
478.72	14050.24
478.90	14321.74
479.08	14310.04
479.26	14431.74
479.44	14359.19
479.62	14661.12
479.80	14661.12
479.98	14813.25
480.16	15157.31
480.34	14848.36
480.52	15150.29
480.70	15049.64
480.88	15012.20
481.06	15379.66
481.24	15047.30
481.41	15463.92
481.59	15634.78
481.77	15730.74
481.95	15756.49
482.13	15896.92
482.31	15946.07
482.49	16299.49
482.67	16521.84
482.85	16556.95
483.03	16718.45
483.21	16875.26
483.39	17092.93
483.57	16898.67
483.74	17418.27
483.92	17076.55
484.10	17191.23
484.28	17692.11
484.46	17888.71
484.64	18068.94
484.82	17591.47
485.00	18017.44
485.18	18384.91
485.35	18644.71
485.53	18354.48
485.71	18731.31
485.89	18700.88
486.07	18897.49
486.25	19033.24
486.43	19220.48
486.61	19515.39
486.78	19782.21
486.96	19702.63
487.14	19967.11
487.32	19953.07
487.50	20130.95
487.68	20212.87
487.85	20453.94
488.03	20594.37
488.21	21064.82
488.39	20851.83
488.57	21018.01
488.75	20996.95
488.92	21333.98
489.10	21874.65
489.28	21453.35
489.46	22047.85
489.64	21778.68
489.81	21994.01
489.99	22148.49
490.17	22221.05
490.35	22742.99
490.53	22876.40
490.70	23000.44
490.88	23147.90
491.06	23260.24
491.24	23304.71
491.41	23414.72
491.59	23672.18
491.77	23229.82
491.95	24240.93
492.13	24079.43
492.30	24128.58
492.48	24182.42
492.66	24203.48
492.84	24311.14
493.01	24786.27
493.19	24613.07
493.37	24971.18
493.54	25186.50
493.72	25230.98
493.90	25118.63
494.08	25542.27
494.25	25729.51
494.43	25544.61
494.61	25682.70
494.79	26169.53
494.96	26174.21
495.14	26164.85
495.32	26394.22
495.49	26771.05
495.67	26911.48
495.85	26986.38
496.02	27033.19
496.20	27211.07
496.38	27625.34
496.55	27213.41
496.73	28395.38
496.91	27831.31
497.09	28196.43
497.26	28030.26
497.44	28166.01
497.62	28397.72
497.79	28680.92
497.97	28652.84
498.14	28811.99
498.32	28847.10
498.50	29151.37
498.67	29090.52
498.85	28814.34
499.03	29378.40
499.20	29242.65
499.38	29635.86
499.56	29738.85
499.73	29731.83
499.91	30136.74
500.08	30141.42
500.26	30068.86
500.44	30366.11
500.61	30543.99
500.79	30728.89
500.97	30684.42
501.14	30827.20
501.32	30684.42
501.49	31232.11
501.67	30579.10
501.84	31372.54
502.02	31365.52
502.20	31625.32
502.37	31538.72
502.55	31215.72
502.72	31587.87
502.90	31948.31
503.07	31838.31
503.25	31784.48
503.43	31990.44
503.60	32128.53
503.78	32458.55
503.95	31885.12
504.13	32287.69
504.30	32444.51
504.48	32409.40
504.65	32741.75
504.83	33364.34
505.01	33130.28
505.18	33514.13
505.36	33429.87
505.53	33340.93
505.71	33284.76
505.88	33593.71
506.06	33724.78
506.23	33479.02
506.41	33748.18
506.58	33750.52
506.76	33776.27
506.93	34181.18
507.11	34178.84
507.28	34443.32
507.46	34543.97
507.63	34480.77
507.81	34284.17
507.98	34256.08
508.16	34300.55
508.33	35077.61
508.50	35012.07
508.68	35051.86
508.85	35311.66
509.03	34965.26
509.20	35126.76
509.38	35377.20
509.55	35885.09
509.73	35482.52
509.90	35896.80
510.08	36278.30
510.25	35826.58
510.42	36065.31
510.60	36814.29
510.77	36292.35
510.95	36790.88
511.12	36381.29
511.30	36257.24
511.47	36935.99
511.64	36804.92
511.82	37212.18
511.99	36863.44
512.17	36790.88
512.34	37050.68
512.51	37340.91
512.69	37684.97
512.86	37687.31
513.04	37663.90
513.21	37453.25
513.38	37830.08
513.56	37743.48
513.73	37596.03
513.90	38005.62
514.08	38010.30
514.25	38431.60
514.43	38658.63
514.60	37792.63
514.77	38604.80
514.95	38326.27
515.12	38410.53
515.29	38834.17
515.47	39225.04
515.64	38986.30
515.81	38972.26
515.99	38951.20
516.16	39541.01
516.33	39377.17
516.51	39653.36
516.68	39316.32
516.85	39154.82
517.03	39709.53
517.20	39913.16
517.37	39489.52
517.54	39913.16
517.72	39751.66
517.89	39990.39
518.06	39627.61
518.24	39873.37
518.41	40048.91
518.58	40409.35
518.75	40128.48
518.93	40224.45
519.10	40264.24
519.27	40250.19
519.45	40694.89
519.62	41207.47
519.79	40570.85
519.96	40718.30
520.14	41104.49
520.31	40350.84
520.48	41050.66
520.65	41111.51
520.83	41525.78
521.00	41556.21
521.17	41137.26
521.34	41682.60
521.52	41467.27
521.69	41270.67
521.86	41422.80
522.03	41635.79
522.20	42419.87
522.38	42440.93
522.55	42363.70
522.72	42403.49
522.89	42295.82
523.07	42487.74
523.24	42438.59
523.41	42581.37
523.58	42436.25
523.75	43187.56
523.92	42703.07
524.10	43089.26
524.27	42958.19
524.44	42976.92
524.61	42756.91
524.78	43260.12
524.96	43269.48
525.13	43342.04
525.30	43988.03
525.47	44009.09
525.64	43770.36
525.81	43419.28
525.98	43819.51
526.16	43608.86
526.33	43966.96
526.50	44069.95
526.67	44186.97
526.84	44294.64
527.01	44208.04
527.18	44318.04
527.36	44191.65
527.53	44240.81
527.70	44619.97
527.87	44362.51
528.04	44626.99
528.21	44708.91
528.38	44907.86
528.55	45067.02
528.72	44858.71
528.89	44734.66
529.07	44371.88
529.24	44713.59
529.41	45111.49
529.58	44966.37
529.75	45652.15
529.92	45287.03
530.09	45303.41
530.26	45015.52
530.43	44954.67
530.60	45378.31
530.77	45235.53
530.94	45801.94
531.11	45474.27
531.28	45710.66
531.46	45570.23
531.63	46120.26
531.80	45509.38
531.97	45858.12
532.14	46061.74
532.31	46277.07
532.48	45904.93
532.65	46457.29
532.82	46373.03
532.99	46122.60
533.16	46225.58
533.33	46225.58
533.50	46777.95
533.67	46822.42
533.84	46370.69
534.01	46951.15
534.18	46843.48
534.35	46894.97
534.52	46866.89
534.69	46946.47
534.86	46969.87
535.03	46469.00
535.20	47129.03
535.37	46986.25
535.54	47203.92
535.71	47243.71
535.88	47784.38
536.05	47358.40
536.22	47482.45
536.38	47662.67
536.55	47760.97
536.72	47646.29
536.89	47899.06
537.06	47908.43
537.23	48032.47
537.40	47749.27
537.57	47765.65
537.74	47522.24
537.91	48137.80
538.08	47777.36
538.25	47775.02
538.42	48203.33
538.59	48186.95
538.75	48238.44
538.92	48215.04
539.09	48587.18
539.26	48196.31
539.43	48399.94
539.60	48774.42
539.77	48552.07
539.94	48947.62
540.11	48828.26
540.28	48631.65
540.44	48975.71
540.61	48879.75
540.78	49308.07
540.95	48596.54
541.12	48968.69
541.29	48500.58
541.46	49268.28
541.62	49223.81
541.79	49464.88
541.96	49104.44
542.13	48891.45
542.30	49354.88
542.47	49008.48
542.63	49343.17
542.80	49621.70
542.97	49940.01
543.14	50237.26
543.31	50117.89
543.48	49876.82
543.64	50085.12
543.81	50408.12
543.98	50021.93
544.15	50267.69
544.32	49932.99
544.48	50564.93
544.65	50127.25
544.82	50300.45
544.99	49907.24
545.16	50239.60
545.32	50398.76
545.49	50539.19
545.66	51339.65
545.83	50770.90
546.00	50995.59
546.16	50906.65
546.33	50672.60
546.50	50684.30
546.67	51061.13
546.83	50216.19
547.00	50394.07
547.17	50635.15
547.34	50754.52
547.50	50649.19
547.67	51021.34
547.84	51023.68
548.00	51262.41
548.17	51475.40
548.34	50906.65
548.51	50932.40
548.67	51051.76
548.84	51049.42
549.01	51082.19
549.18	51304.54
549.34	51098.58
549.51	51576.04
549.68	51054.11
549.84	50930.06
550.01	51547.96
550.18	51236.67
550.34	51086.87
550.51	51143.05
550.68	51690.73
550.84	51178.15
551.01	51372.42
551.18	51217.94
551.34	51175.81
551.51	51707.12
551.68	51758.61
551.84	51290.50
552.01	51288.16
552.18	51646.26
552.34	51627.54
552.51	51849.89
552.68	51873.29
552.84	52025.43
553.01	52032.45
553.18	51936.49
553.34	52168.20
553.51	51585.41
553.67	52149.48
553.84	52219.69
554.01	52177.56
554.17	52058.20
554.34	52065.22
554.51	52310.97
554.67	52119.05
554.84	52149.48
555.00	52332.04
555.17	51805.42
555.33	52093.30
555.50	52140.11
555.67	52156.50
555.83	52406.94
556.00	52378.85
556.16	52568.43
556.33	52346.08
556.50	52186.92
556.66	52374.17
556.83	52081.60
556.99	52360.12
557.16	52566.09
557.32	52774.40
557.49	52622.26
557.65	52109.69
557.82	52638.65
557.98	52444.38
558.15	52088.62
558.32	52671.42
558.48	52720.57
558.65	52837.59
558.81	52605.88
558.98	52708.86
559.14	53006.11
559.31	52729.93
559.47	52769.72
559.64	53111.44
559.80	52931.22
559.97	53041.22
560.13	52102.67
560.30	52818.87
560.46	52924.19
560.63	52903.13
560.79	53102.07
560.96	53191.01
561.12	53123.14
561.29	52900.79
561.45	53078.67
561.61	53188.67
561.78	53251.87
561.94	53401.66
562.11	53322.08
562.27	53631.04
562.44	53265.91
562.60	53404.00
562.77	53616.99
562.93	52971.00
563.10	53455.50
563.26	53045.90
563.42	53460.18
563.59	53200.38
563.75	53612.31
563.92	53457.84
564.08	52914.83
564.24	53071.65
564.41	53432.09
564.57	53441.45
564.74	53303.36
564.90	53762.11
565.07	53598.27
565.23	53598.27
565.39	53497.62
565.56	53944.67
565.72	53710.61
565.88	53415.71
566.05	53518.69
566.21	53375.92
566.38	53354.85
566.54	53595.93
566.70	53563.16
566.87	53820.62
567.03	53631.04
567.19	54195.10
567.36	53523.37
567.52	53839.34
567.68	53986.80
567.85	53712.95
568.01	53750.40
568.17	53928.28
568.34	53801.89
568.50	53717.64
568.66	53666.14
568.83	53911.90
568.99	53837.00
569.15	53652.10
569.32	53539.75
569.48	53354.85
569.64	53626.35
569.81	53600.61
569.97	53677.85
570.13	53757.42
570.30	53771.47
570.46	53841.68
570.62	53982.12
570.78	53539.75
570.95	53574.86
571.11	54000.84
571.27	53776.15
571.43	53769.13
571.60	53890.83
571.76	53755.08
571.92	53949.35
572.09	53799.55
572.25	54167.02
572.41	54127.23
572.57	54206.81
572.74	54190.42
572.90	53673.16
573.06	54061.69
573.22	53954.03
573.38	54045.31
573.55	54197.44
573.71	54270.00
573.87	53904.88
574.03	53935.30
574.20	54190.42
574.36	53762.11
574.52	54387.03
574.68	53752.74
574.84	54012.54
575.01	54148.29
575.17	54274.68
575.33	54113.19
575.49	54412.77
575.65	54127.23
575.82	54143.61
575.98	54085.10
576.14	54412.77
576.30	54347.24
576.46	53977.43
576.62	53895.52
576.79	54101.48
576.95	53656.78
577.11	54255.96
577.27	54344.90
577.43	54333.20
577.59	54286.39
577.75	54351.92
577.92	54089.78
578.08	54195.10
578.24	54085.10
578.40	54326.17
578.56	54272.34
578.72	54464.27
578.88	54480.65
579.04	54623.42
579.21	54316.81
579.37	54230.21
579.53	54199.79
579.69	54461.93
579.85	54522.78
580.01	54553.21
580.17	54508.74
580.33	54380.01
580.49	54478.31
580.65	54344.90
580.82	54588.31
580.98	54213.83
581.14	54085.10
581.30	54583.63
581.46	54085.10
581.62	54466.61
581.78	54225.53
581.94	54164.68
582.10	54129.57
582.26	54181.06
582.42	54419.80
582.58	53949.35
582.74	54494.69
582.90	54438.52
583.06	54693.64
583.22	54347.24
583.38	54454.90
583.54	53972.75
583.70	54384.69
583.86	54618.74
584.02	54504.06
584.18	54471.29
584.34	54859.82
584.50	54541.50
584.66	54649.17
584.82	54347.24
584.98	54698.32
585.14	54653.85
585.30	54569.59
585.46	54363.62
585.62	54363.62
585.78	54326.17
585.94	54543.84
586.10	54749.81
586.26	54536.82
586.42	54848.11
586.58	54607.04
586.74	54398.73
586.90	54557.89
587.06	54422.14
587.22	54693.64
587.38	54461.93
587.54	54780.24
587.70	54766.20
587.86	54918.33
588.02	54749.81
588.18	54862.16
588.34	54988.55
588.49	54534.48
588.65	54447.88
