SpectraSuite Data File
++++++++++++++++++++++++++++++++++++
Date: Thu Oct 24 13:21:28 EDT 2013
User: stostad
Dark Spectrum Present: No
Reference Spectrum Present: No
Number of Sampled Component Spectra: 1
Spectrometers: USB2+H05261
Integration Time (usec): 100000 (USB2+H05261)
Spectra Averaged: 1 (USB2+H05261)
Boxcar Smoothing: 0 (USB2+H05261)
Correct for Electrical Dark: No (USB2+H05261)
Strobe/Lamp Enabled: No (USB2+H05261)
Correct for Detector Non-linearity: No (USB2+H05261)
Correct for Stray Light: No (USB2+H05261)
Number of Pixels in Processed Spectrum: 2048
>>>>>Begin Processed Spectral Data<<<<<
365.73	573.43
365.92	573.43
366.12	573.43
366.32	557.05
366.52	503.22
366.72	552.37
366.91	526.62
367.11	442.36
367.31	435.34
367.51	472.79
367.70	461.09
367.90	468.11
368.10	524.28
368.30	486.83
368.49	404.91
368.69	482.15
368.89	552.37
369.09	512.58
369.28	517.26
369.48	514.92
369.68	519.60
369.87	545.34
370.07	458.74
370.27	552.37
370.47	713.86
370.66	1001.75
370.86	1050.90
371.06	985.37
371.25	1064.94
371.45	1093.03
371.65	1048.56
371.84	1046.22
372.04	1090.69
372.24	1170.27
372.44	1083.67
372.63	1128.14
372.83	1172.61
373.03	1198.35
373.22	1062.60
373.42	1165.59
373.62	1177.29
373.81	1142.18
374.01	1219.42
374.21	1254.53
374.40	1203.04
374.60	1205.38
374.79	1128.14
374.99	1219.42
375.19	1301.34
375.38	1266.23
375.58	1205.38
375.78	1294.32
375.97	1200.69
376.17	1338.79
376.37	1238.14
376.56	1277.93
376.76	1245.16
376.95	1296.66
377.15	1277.93
377.35	1294.32
377.54	1329.42
377.74	1373.89
377.93	1219.42
378.13	1289.64
378.33	1331.76
378.52	1399.64
378.72	1350.49
378.91	1418.36
379.11	1357.51
379.31	1458.15
379.50	1366.87
379.70	1394.96
379.89	1467.52
380.09	1385.60
380.28	1413.68
380.48	1479.22
380.68	1439.43
380.87	1378.58
381.07	1500.28
381.26	1542.41
381.46	1476.88
381.65	1500.28
381.85	1544.75
382.04	1481.56
382.24	1469.86
382.43	1526.03
382.63	1474.54
382.83	1509.65
383.02	1448.79
383.22	1523.69
383.41	1537.73
383.61	1514.33
383.80	1523.69
384.00	1629.01
384.19	1586.88
384.39	1570.50
384.58	1584.54
384.78	1640.72
384.97	1619.65
385.17	1631.35
385.36	1626.67
385.56	1565.82
385.75	1589.22
385.95	1621.99
386.14	1664.12
386.34	1650.08
386.53	1781.15
386.72	1769.44
386.92	1673.48
387.11	1720.29
387.31	1797.53
387.50	1722.63
387.70	1746.04
387.89	1746.04
388.09	1678.16
388.28	1783.49
388.48	1816.26
388.67	1806.89
388.86	1739.02
389.06	1860.73
389.25	1863.07
389.45	1888.81
389.64	1788.17
389.84	1860.73
390.03	1935.62
390.22	1837.32
390.42	1863.07
390.61	1825.62
390.81	1975.41
391.00	1956.69
391.19	1921.58
391.39	1984.77
391.58	1963.71
391.78	1926.26
391.97	1987.11
392.16	1947.33
392.36	2078.40
392.55	2036.27
392.75	2113.50
392.94	2169.68
393.13	2012.86
393.33	2104.14
393.52	2038.61
393.71	2155.63
393.91	2026.90
394.10	2003.50
394.29	2097.12
394.49	2139.25
394.68	2176.70
394.88	2258.62
395.07	2204.78
395.26	2195.42
395.46	2218.83
395.65	2190.74
395.84	2310.11
396.04	2286.70
396.23	2305.43
396.42	2239.89
396.62	2256.28
396.81	2361.60
397.00	2352.24
397.19	2246.91
397.39	2307.77
397.58	2347.56
397.77	2370.96
397.97	2464.58
398.16	2415.43
398.35	2518.42
398.55	2342.88
398.74	2492.67
398.93	2565.23
399.12	2469.27
399.32	2483.31
399.51	2478.63
399.70	2602.68
399.90	2544.16
400.09	2572.25
400.28	2633.10
400.47	2623.74
400.67	2616.72
400.86	2679.91
401.05	2661.19
401.24	2647.15
401.44	2609.70
401.63	2752.47
401.82	2759.49
402.01	2750.13
402.21	2743.11
402.40	2923.33
402.59	2785.24
402.78	2787.58
402.97	2773.53
403.17	2792.26
403.36	2888.22
403.55	2939.71
403.74	2967.80
403.93	3033.33
404.13	2953.76
404.32	2981.84
404.51	3070.78
404.70	3173.77
404.89	3016.95
405.09	3115.25
405.28	3066.10
405.47	3187.81
405.66	3082.49
405.85	3112.91
406.05	3122.27
406.24	3162.06
406.43	3204.19
406.62	3431.23
406.81	3351.65
407.00	3211.22
407.20	3215.90
407.39	3262.71
407.58	3339.94
407.77	3363.35
407.96	3377.39
408.15	3377.39
408.34	3391.44
408.54	3459.31
408.73	3489.74
408.92	3492.08
409.11	3604.42
409.30	3524.85
409.49	3616.13
409.68	3616.13
409.87	3653.58
410.07	3597.40
410.26	3667.62
410.45	3665.28
410.64	3742.52
410.83	3824.44
411.02	3934.44
411.21	3960.19
411.40	3840.82
411.59	3999.98
411.78	3892.31
411.98	3929.76
412.17	4035.08
412.36	3915.72
412.55	4037.42
412.74	4070.19
412.93	4107.64
413.12	4079.55
413.31	4280.84
413.50	4105.30
413.69	4222.33
413.88	4224.67
414.07	4241.05
414.26	4360.42
414.45	4369.78
414.64	4353.40
414.83	4465.74
415.02	4519.57
415.22	4503.19
415.41	4631.92
415.60	4613.20
415.79	4608.51
415.98	4779.37
416.17	4688.09
416.36	4819.16
416.55	4772.35
416.74	4791.08
416.93	4774.69
417.12	4725.54
417.31	4898.74
417.50	4823.84
417.69	5057.90
417.88	5055.56
418.07	5130.45
418.26	4999.38
418.45	5102.37
418.64	5289.61
418.83	5235.78
419.02	5277.91
419.21	5425.36
419.39	5205.35
419.58	5284.93
419.77	5184.29
419.96	5282.59
420.15	5362.17
420.34	5305.99
420.53	5390.25
420.72	5511.96
420.91	5533.03
421.10	5476.85
421.29	5472.17
421.48	5392.59
421.67	5584.52
421.86	5495.58
422.05	5724.95
422.24	5526.00
422.43	5710.91
422.61	5671.12
422.80	5837.30
422.99	5811.55
423.18	5778.78
423.37	5907.51
423.56	5729.63
423.75	5802.19
423.94	5652.39
424.13	5385.57
424.32	5572.82
424.50	5764.74
424.69	5820.91
424.88	5809.21
425.07	5900.49
425.26	5795.17
425.45	5802.19
425.64	5713.25
425.83	5722.61
426.01	5757.72
426.20	5933.26
426.39	5877.09
426.58	5893.47
426.77	5867.72
426.96	5975.39
427.15	5811.55
427.33	6066.67
427.52	5980.07
427.71	6066.67
427.90	6120.50
428.09	6171.99
428.28	6195.40
428.46	6115.82
428.65	6148.59
428.84	6328.81
429.03	6342.85
429.22	6200.08
429.40	6422.43
429.59	6384.98
429.78	6092.41
429.97	6073.69
430.16	6445.84
430.34	6518.39
430.53	6476.26
430.72	6588.61
430.91	6347.53
431.10	6298.38
431.28	6590.95
431.47	6525.41
431.66	6731.38
431.85	6736.06
432.03	6724.36
432.22	6970.12
432.41	6619.04
432.60	6729.04
432.79	6785.21
432.97	6904.58
433.16	6906.92
433.35	6780.53
433.54	7023.95
433.72	6906.92
433.91	7117.57
434.10	7265.02
434.28	7194.81
434.47	7094.16
434.66	7325.88
434.85	7105.87
435.03	7318.86
435.22	7426.52
435.41	7513.12
435.59	7538.87
435.78	7407.80
435.97	7641.85
436.16	7365.67
436.34	7407.80
436.53	7419.50
436.72	7662.91
436.90	7529.50
437.09	7482.69
437.28	7461.63
437.46	7499.08
437.65	7576.31
437.84	7695.68
438.02	7648.87
438.21	7669.94
438.40	7639.51
438.58	7978.89
438.77	7934.42
438.96	7854.84
439.14	8006.97
439.33	8149.75
439.52	8285.50
439.70	8276.13
439.89	8276.13
440.08	8463.38
440.26	8397.84
440.45	8395.50
440.63	8575.72
440.82	8784.03
441.01	8652.96
441.19	8784.03
441.38	8781.69
441.57	8793.39
441.75	8739.56
441.94	9254.48
442.12	9004.04
442.31	9018.08
442.50	9146.81
442.68	8915.10
442.87	9104.68
443.05	9280.22
443.24	9261.50
443.43	9404.27
443.61	9263.84
443.80	9490.87
443.98	9015.74
444.17	9034.47
444.35	9355.12
444.54	9380.87
444.73	9584.49
444.91	9268.52
445.10	9476.83
445.28	9291.93
445.47	9322.35
445.65	9259.16
445.84	9621.94
446.02	9635.99
446.21	9521.30
446.39	9439.38
446.58	9678.12
446.77	9607.90
446.95	9462.79
447.14	9467.47
447.32	9682.80
447.51	9451.08
447.69	9448.74
447.88	9682.80
448.06	9640.67
448.25	9689.82
448.43	9619.60
448.62	9790.46
448.80	9881.74
448.99	9703.86
449.17	9734.29
449.36	9827.91
449.54	9991.75
449.73	10216.44
449.91	10200.05
450.10	10052.60
450.28	10342.83
450.46	10267.93
450.65	10303.04
450.83	10150.90
451.02	10232.82
451.20	10349.85
451.39	10296.02
451.57	10389.64
451.76	10382.62
451.94	10464.54
452.13	10401.34
452.31	10679.86
452.49	10511.35
452.68	10609.65
452.86	10387.30
453.05	10731.36
453.23	10707.95
453.42	10689.23
453.60	10506.66
453.78	10834.34
453.97	10497.30
454.15	10724.33
454.34	10729.02
454.52	10984.13
454.70	10993.50
454.89	10773.49
455.07	11089.46
455.26	10918.60
455.44	11218.19
455.62	11140.95
455.81	11232.23
455.99	11129.25
456.17	11286.06
456.36	11508.41
456.54	11227.55
456.73	11667.57
456.91	11758.85
457.09	11658.21
457.28	11906.31
457.46	11534.16
457.64	11473.31
457.83	11733.11
458.01	11620.76
458.19	12133.34
458.38	11960.14
458.56	12243.34
458.74	12023.33
458.93	12142.70
459.11	12116.95
459.29	11960.14
459.48	12198.87
459.66	12336.96
459.84	12233.98
460.03	12439.95
460.21	12393.14
460.39	12351.01
460.57	12556.97
460.76	12702.09
460.94	12292.49
461.12	12652.94
461.31	12587.40
461.49	12737.20
461.67	12732.51
461.85	12968.91
462.04	12835.50
462.22	13191.26
462.40	13188.92
462.59	12910.40
462.77	12793.37
462.95	12959.55
463.13	12833.16
463.32	13032.10
463.50	13039.12
463.68	13191.26
463.86	13146.79
464.05	13025.08
464.23	13118.70
464.41	13369.14
464.59	12793.37
464.78	13554.04
464.96	13511.91
465.14	13415.95
465.32	13490.85
465.50	13345.73
465.69	13907.46
465.87	13853.63
466.05	13439.36
466.23	13645.32
466.41	13614.90
466.60	13778.73
466.78	13432.33
466.96	13547.02
467.14	14064.28
467.32	14146.20
467.51	14235.14
467.69	13860.65
467.87	13963.64
468.05	14111.09
468.23	13771.71
468.41	14104.07
468.60	13961.30
468.78	14380.25
468.96	13954.27
469.14	14305.35
469.32	14717.29
469.50	14012.79
469.69	14518.34
469.87	14628.35
470.05	14555.79
470.23	14775.80
470.41	14794.53
470.59	14787.50
470.77	14773.46
470.95	14586.22
471.14	15169.01
471.32	14647.07
471.50	15054.33
471.68	15201.78
471.86	15131.56
472.04	15379.66
472.22	15461.58
472.40	15477.96
472.58	15536.48
472.77	15592.65
472.95	15669.89
473.13	15981.18
473.31	15545.84
473.49	15910.96
473.67	15765.85
473.85	15983.52
474.03	16561.63
474.21	16484.39
474.39	16350.98
474.57	16498.44
474.75	16727.81
474.93	16617.80
475.12	16664.61
475.30	16891.65
475.48	16746.53
475.66	16828.45
475.84	17043.78
476.02	16996.97
476.20	17114.00
476.38	17338.69
476.56	17949.57
476.74	17689.77
476.92	17685.09
477.10	17654.66
477.28	17968.29
477.46	17958.93
477.64	18068.94
477.82	18319.37
478.00	18909.19
478.18	18939.62
478.36	19117.50
478.54	19075.37
478.72	19183.03
478.90	19417.08
479.08	20142.65
479.26	19901.58
479.44	19690.93
479.62	20058.39
479.80	20306.49
479.98	20072.43
480.16	20842.47
480.34	20166.06
480.52	20844.81
480.70	20849.49
480.88	20599.05
481.06	21095.25
481.24	20872.90
481.41	21088.23
481.59	21607.83
481.77	21490.80
481.95	22003.38
482.13	21942.52
482.31	22085.30
482.49	22675.11
482.67	22417.65
482.85	22768.73
483.03	22965.34
483.21	23133.86
483.39	23349.18
483.57	22941.93
483.74	23372.59
483.92	24002.19
484.10	23747.08
484.28	24482.00
484.46	24421.15
484.64	24671.59
484.82	24503.07
485.00	24891.60
485.18	25198.21
485.35	25624.18
485.53	25118.63
485.71	25975.27
485.89	26157.83
486.07	26150.81
486.25	26113.36
486.43	26602.53
486.61	26710.19
486.78	27040.21
486.96	27084.68
487.14	27218.09
487.32	27449.80
487.50	27620.66
487.68	27768.12
487.85	28053.66
488.03	28606.03
488.21	28573.26
488.39	28648.16
488.57	29046.05
488.75	29092.86
488.92	29118.60
489.10	29776.30
489.28	29773.95
489.46	29954.18
489.64	30064.18
489.81	30714.85
489.99	30747.62
490.17	30820.17
490.35	31054.23
490.53	30881.03
490.70	31428.71
490.88	31349.14
491.06	32290.03
491.24	32009.17
491.41	32278.33
491.59	32247.90
491.77	32718.35
491.95	32961.76
492.13	33003.89
492.30	32907.93
492.48	33521.15
492.66	33371.36
492.84	33120.92
493.01	34132.03
493.19	34024.37
493.37	34291.19
493.54	34108.63
493.72	34494.82
493.90	34478.43
494.08	35192.30
494.25	35660.40
494.43	35744.66
494.61	35868.71
494.79	35838.28
494.96	36126.17
495.14	36004.46
495.32	36278.30
495.49	36933.65
495.67	37020.25
495.85	36807.26
496.02	37085.79
496.20	37361.97
496.38	37619.43
496.55	37961.15
496.73	38532.24
496.91	38218.61
497.09	38136.69
497.26	38632.88
497.44	38438.62
497.62	38904.38
497.79	39210.99
497.97	38990.98
498.14	40259.55
498.32	39966.99
498.50	40084.01
498.67	40519.35
498.85	39414.62
499.03	40678.51
499.20	40542.76
499.38	40727.66
499.56	41113.85
499.73	40978.10
499.91	41134.92
500.08	41872.18
500.26	41331.52
500.44	41610.04
500.61	41769.20
500.79	41483.66
500.97	42153.05
501.14	42445.62
501.32	42639.88
501.49	42204.54
501.67	42384.76
501.84	42792.01
502.02	43222.67
502.20	43178.20
502.37	43384.17
502.55	42934.79
502.72	43405.23
502.90	43452.05
503.07	43569.07
503.25	43962.28
503.43	44006.75
503.60	44133.14
503.78	44177.61
503.95	44151.87
504.13	44495.92
504.30	44271.23
504.48	44591.89
504.65	44996.80
504.83	44896.16
505.01	45656.83
505.18	45003.82
505.36	45694.28
505.53	45361.92
505.71	45640.45
505.88	46068.76
506.06	46078.13
506.23	46483.04
506.41	45872.16
506.58	46169.41
506.76	45968.12
506.93	46560.28
507.11	46433.89
507.28	46593.04
507.46	46801.35
507.63	47189.88
507.81	46941.78
507.98	46717.09
508.16	47281.16
508.33	47313.93
508.50	47491.81
508.68	47894.38
508.85	47990.34
509.03	47751.61
509.20	47882.68
509.38	48275.89
509.55	48179.93
509.73	48439.73
509.90	48992.09
510.08	48594.20
510.25	48655.06
510.42	49064.65
510.60	48905.49
510.77	49118.48
510.95	49036.56
511.12	49389.98
511.30	49212.10
511.47	49453.18
511.64	49162.95
511.82	49790.22
511.99	49610.00
512.17	50042.99
512.34	50246.62
512.51	50192.79
512.69	50511.10
512.86	50197.47
513.04	51007.29
513.21	50581.32
513.38	50560.25
513.56	50546.21
513.73	50394.07
513.90	51220.28
514.08	50866.86
514.25	51164.11
514.43	51320.93
514.60	51386.46
514.77	51281.14
514.95	51491.79
515.12	51264.75
515.29	51599.45
515.47	51817.12
515.64	51896.70
515.81	51760.95
515.99	51987.98
516.16	51906.06
516.33	51950.53
516.51	52535.66
516.68	52451.41
516.85	52474.81
517.03	52313.31
517.20	52636.31
517.37	52341.40
517.54	52514.60
517.72	52683.12
517.89	52460.77
518.06	53036.54
518.24	52914.83
518.41	53095.05
518.58	52760.36
518.75	52528.64
518.93	53205.06
519.10	53102.07
519.27	53202.72
519.45	53687.21
519.62	53532.73
519.79	53476.56
519.96	53380.60
520.14	53839.34
520.31	53485.92
520.48	53715.29
520.65	53825.30
520.83	53972.75
521.00	54021.90
521.17	53951.69
521.34	54237.23
521.52	54171.70
521.69	54099.14
521.86	54487.67
522.03	54396.39
522.20	54548.53
522.38	54763.85
522.55	54841.09
522.72	54607.04
522.89	54630.44
523.07	55016.63
523.24	54873.86
523.41	54791.94
523.58	54529.80
523.75	55070.46
523.92	55089.19
524.10	55257.71
524.27	55405.16
524.44	55224.94
524.61	55337.29
524.78	55620.49
524.96	55554.96
525.13	55447.29
525.30	55828.80
525.47	56025.40
525.64	55744.54
525.81	55798.37
525.98	55838.16
526.16	55711.77
526.33	55744.54
526.50	56226.69
526.67	55915.40
526.84	56158.81
527.01	56011.36
527.18	56119.02
527.36	56168.18
527.53	56287.54
527.70	56547.34
527.87	56362.44
528.04	56537.98
528.21	56446.70
528.38	56545.00
528.55	56577.77
528.72	56477.13
528.89	56676.07
529.07	56535.64
529.24	56535.64
529.41	56917.15
529.58	56898.42
529.75	56608.20
529.92	57167.58
530.09	56914.81
530.26	56797.78
530.43	56898.42
530.60	56860.97
530.77	57022.47
530.94	56980.34
531.11	57111.41
531.28	57265.89
531.46	57216.74
531.63	57256.53
531.80	57359.51
531.97	57125.46
532.14	57380.57
532.31	57338.44
532.48	57722.29
532.65	57860.38
532.82	57368.87
532.99	57710.59
533.16	57413.34
533.33	57733.99
533.50	58019.54
533.67	57602.92
533.84	57762.08
534.01	57893.15
534.18	58003.16
534.35	58028.90
534.52	58017.20
534.69	58066.35
534.86	57963.37
535.03	58192.74
535.20	58248.91
535.37	58136.57
535.54	58550.84
535.71	58288.70
535.88	58309.77
536.05	58162.31
536.22	58457.22
536.38	58602.33
536.55	58356.58
536.72	58562.54
536.89	58595.31
537.06	58759.15
537.23	58829.37
537.40	58698.30
537.57	58906.60
537.74	58592.97
537.91	58845.75
538.08	58803.62
538.25	58782.55
538.42	58681.91
538.59	59157.04
538.75	59025.97
538.92	58878.52
539.09	59175.76
539.26	59114.91
539.43	58794.26
539.60	59032.99
539.77	59068.10
539.94	59285.77
540.11	59421.52
540.28	59339.60
540.44	59238.96
540.61	59297.47
540.78	59250.66
540.95	59093.85
541.12	59255.34
541.29	59517.48
541.46	59657.91
541.62	59880.27
541.79	59714.09
541.96	59400.46
542.13	59468.33
542.30	59489.40
542.47	59693.02
542.63	59597.06
542.80	59772.60
542.97	60025.38
543.14	60273.48
543.31	60083.89
543.48	60058.15
543.64	60257.09
543.81	60214.96
543.98	59971.55
544.15	60088.57
544.32	60247.73
544.48	60465.40
544.65	60404.55
544.82	60376.46
544.99	60243.05
545.16	60554.34
545.32	60378.80
545.49	60498.17
545.66	60561.36
545.83	60587.11
546.00	60851.59
546.16	60608.17
546.33	60619.88
546.50	60552.00
546.67	60479.44
546.83	60285.18
547.00	60413.91
547.17	60430.29
547.34	60481.78
547.50	60816.48
547.67	61031.81
547.84	61024.79
548.00	61193.31
548.17	61125.43
548.34	60818.82
548.51	60910.10
548.67	60772.01
548.84	60654.98
549.01	60879.67
549.18	60980.32
549.34	61102.03
549.51	61167.56
549.68	61116.07
549.84	61024.79
550.01	61258.84
550.18	60973.30
550.34	60994.36
550.51	61160.54
550.68	61200.33
550.84	61057.56
551.01	61354.80
551.18	61244.80
551.34	61172.24
551.51	61382.89
551.68	61258.84
551.84	61087.98
552.01	61162.88
552.18	61221.39
552.34	61296.29
552.51	61703.54
552.68	61443.74
552.84	61549.07
553.01	61745.67
553.18	61516.30
553.34	61778.44
553.51	61422.68
553.67	61621.62
553.84	61560.77
554.01	61801.85
554.17	61918.87
554.34	61939.94
554.51	61645.03
554.67	61703.54
554.84	61673.12
555.00	61794.82
555.17	61553.75
555.33	61832.27
555.50	61656.73
555.67	61815.89
555.83	62000.79
556.00	61953.98
556.16	62061.64
556.33	62005.47
556.50	61916.53
556.66	61839.29
556.83	61710.56
556.99	62106.12
557.16	62276.97
557.32	62286.34
557.49	62248.89
557.65	62012.49
557.82	61975.05
557.98	62220.80
558.15	62115.48
558.32	62075.69
558.48	62089.73
558.65	62061.64
558.81	62265.27
558.98	62230.16
559.14	62190.37
559.31	62342.51
559.47	62103.77
559.64	62464.22
559.80	62218.46
559.97	62515.71
560.13	62227.82
560.30	62550.82
560.46	62365.91
560.63	62410.38
560.79	62555.50
560.96	62604.65
561.12	62534.43
561.29	62539.11
561.45	62719.34
561.61	62578.90
561.78	62370.60
561.94	62550.82
562.11	62728.70
562.27	62752.10
562.44	62798.91
562.60	62667.84
562.77	62560.18
562.93	62574.22
563.10	62665.50
563.26	62473.58
563.42	62920.62
563.59	62677.21
563.75	62632.74
563.92	62944.03
564.08	62747.42
564.24	62829.34
564.41	62665.50
564.57	62745.08
564.74	62637.42
564.90	62775.51
565.07	62724.02
565.23	63004.88
565.39	62805.94
565.56	62993.18
565.72	62773.17
565.88	62836.36
566.05	62953.39
566.21	62688.91
566.38	62934.66
566.54	62663.16
566.70	63035.31
566.87	63023.61
567.03	62946.37
567.19	63332.56
567.36	63257.66
567.52	62775.51
567.68	62995.52
567.85	62819.98
568.01	63089.14
568.17	63213.19
568.34	63133.61
568.50	63168.72
568.66	63004.88
568.83	63302.13
568.99	63014.24
569.15	63110.20
569.32	63103.18
569.48	62965.09
569.64	63098.50
569.81	62983.82
569.97	63058.71
570.13	63192.12
570.30	63063.39
570.46	63133.61
570.62	63093.82
570.78	63056.37
570.95	63075.10
571.11	63161.70
571.27	63140.63
571.43	62901.90
571.60	63196.80
571.76	63201.49
571.92	63267.02
572.09	63304.47
572.25	63206.17
572.41	63323.19
572.57	63243.62
572.74	63400.43
572.90	63283.40
573.06	63206.17
573.22	63173.40
573.38	63468.31
573.55	63311.49
573.71	63407.45
573.87	63274.04
574.03	63379.37
574.20	63346.60
574.36	63210.85
574.52	63412.13
574.68	63323.19
574.84	63482.35
575.01	63398.09
575.17	63472.99
575.33	63285.75
575.49	63437.88
575.65	63592.36
575.82	63260.00
575.98	63327.87
576.14	63482.35
576.30	63522.14
576.46	63348.94
576.62	63166.38
576.79	63440.22
576.95	63178.08
577.11	63496.39
577.27	63512.78
577.43	63599.38
577.59	63465.97
577.75	63402.77
577.92	63367.66
578.08	63463.63
578.24	63426.18
578.40	63519.80
578.56	63388.73
578.72	63575.97
578.88	63622.78
579.04	63845.13
579.21	63669.59
579.37	63660.23
579.53	63655.55
579.69	63311.49
579.85	63501.07
580.01	63519.80
580.17	63580.65
580.33	63613.42
580.49	63714.06
580.65	63578.31
580.82	63737.47
580.98	63636.83
581.14	63557.25
581.30	63575.97
581.46	63704.70
581.62	63622.78
581.78	63491.71
581.94	63634.48
582.10	63341.92
582.26	63704.70
582.42	63627.46
582.58	63557.25
582.74	63634.48
582.90	63725.77
583.06	63889.60
583.22	63575.97
583.38	63498.73
583.54	63538.52
583.70	63327.87
583.86	63538.52
584.02	63693.00
584.18	63884.92
584.34	63723.43
584.50	63814.71
584.66	63690.66
584.82	63767.90
584.98	63709.38
585.14	63622.78
585.30	63707.04
585.46	63716.40
585.62	63515.12
585.78	63908.33
585.94	63613.42
586.10	63920.03
586.26	63707.04
586.42	63643.85
586.58	63795.98
586.74	63662.57
586.90	63526.82
587.06	63634.48
587.22	64011.31
587.38	63723.43
587.54	64015.99
