SpectraSuite Data File
++++++++++++++++++++++++++++++++++++
Date: Thu Oct 24 13:21:35 EDT 2013
User: stostad
Dark Spectrum Present: No
Reference Spectrum Present: No
Number of Sampled Component Spectra: 1
Spectrometers: USB2+H05261
Integration Time (usec): 100000 (USB2+H05261)
Spectra Averaged: 1 (USB2+H05261)
Boxcar Smoothing: 0 (USB2+H05261)
Correct for Electrical Dark: No (USB2+H05261)
Strobe/Lamp Enabled: No (USB2+H05261)
Correct for Detector Non-linearity: No (USB2+H05261)
Correct for Stray Light: No (USB2+H05261)
Number of Pixels in Processed Spectrum: 2048
>>>>>Begin Processed Spectral Data<<<<<
365.73	669.39
365.92	669.39
366.12	669.39
366.32	503.22
366.52	482.15
366.72	521.94
366.91	491.51
367.11	435.34
367.31	428.32
367.51	505.56
367.70	449.38
367.90	482.15
368.10	533.64
368.30	472.79
368.49	503.22
368.69	528.96
368.89	440.02
369.09	524.28
369.28	486.83
369.48	568.75
369.68	521.94
369.87	486.83
370.07	521.94
370.27	578.11
370.47	732.59
370.66	1160.91
370.86	1245.16
371.06	1242.82
371.25	1350.49
371.45	1242.82
371.65	1324.74
371.84	1268.57
372.04	1296.66
372.24	1387.94
372.44	1301.34
372.63	1406.66
372.83	1362.19
373.03	1469.86
373.22	1341.13
373.42	1474.54
373.62	1519.01
373.81	1561.14
374.01	1458.15
374.21	1542.41
374.40	1568.16
374.60	1479.22
374.79	1530.71
374.99	1572.84
375.19	1535.39
375.38	1427.73
375.58	1500.28
375.78	1535.39
375.97	1556.46
376.17	1547.09
376.37	1600.93
376.56	1680.50
376.76	1577.52
376.95	1568.16
377.15	1530.71
377.35	1685.19
377.54	1673.48
377.74	1650.08
377.93	1547.09
378.13	1591.56
378.33	1661.78
378.52	1659.44
378.72	1666.46
378.91	1720.29
379.11	1638.38
379.31	1703.91
379.50	1767.10
379.70	1884.13
379.89	1813.92
380.09	1827.96
380.28	1788.17
380.48	1776.47
380.68	1755.40
380.87	1722.63
381.07	1802.21
381.26	1727.32
381.46	1839.66
381.65	1825.62
381.85	1846.68
382.04	1980.09
382.24	1764.76
382.43	1900.52
382.63	1893.49
382.83	1998.82
383.02	2047.97
383.22	1980.09
383.41	1874.77
383.61	1947.33
383.80	1963.71
384.00	2031.58
384.19	2146.27
384.39	2015.20
384.58	2071.37
384.78	1968.39
384.97	1991.80
385.17	2043.29
385.36	2113.50
385.56	2069.03
385.75	2040.95
385.95	2125.21
386.14	2071.37
386.34	2146.27
386.53	2150.95
386.72	2155.63
386.92	2087.76
387.11	2235.21
387.31	2122.87
387.50	2260.96
387.70	2237.55
387.89	2157.97
388.09	2204.78
388.28	2265.64
388.48	2263.30
388.67	2279.68
388.86	2310.11
389.06	2373.30
389.25	2359.26
389.45	2349.90
389.64	2427.14
389.84	2399.05
390.03	2415.43
390.22	2413.09
390.42	2452.88
390.61	2406.07
390.81	2377.98
391.00	2420.11
391.19	2480.97
391.39	2394.37
391.58	2630.76
391.78	2532.46
391.97	2686.94
392.16	2595.65
392.36	2663.53
392.55	2626.08
392.75	2635.44
392.94	2677.57
393.13	2672.89
393.33	2661.19
393.52	2684.59
393.71	2757.15
393.91	2775.88
394.10	2691.62
394.29	2878.86
394.49	2684.59
394.68	2904.60
394.88	2670.55
395.07	2759.49
395.26	2867.16
395.46	2775.88
395.65	2909.29
395.84	2942.05
396.04	3047.38
396.23	3005.25
396.42	2944.39
396.62	2932.69
396.81	3063.76
397.00	3047.38
397.19	2981.84
397.39	3045.04
397.58	3129.30
397.77	3101.21
397.97	3199.51
398.16	3126.96
398.35	3194.83
398.55	3138.66
398.74	3283.77
398.93	3220.58
399.12	3218.24
399.32	3129.30
399.51	3225.26
399.70	3466.33
399.90	3246.32
400.09	3365.69
400.28	3407.82
400.47	3335.26
400.67	3428.88
400.86	3377.39
401.05	3548.25
401.24	3499.10
401.44	3588.04
401.63	3637.19
401.82	3522.51
402.01	3630.17
402.21	3653.58
402.40	3653.58
402.59	3620.81
402.78	3765.92
402.97	3702.73
403.17	3695.71
403.36	3775.28
403.55	3817.41
403.74	3868.91
403.93	3976.57
404.13	3838.48
404.32	3920.40
404.51	3922.74
404.70	4102.96
404.89	3929.76
405.09	4093.60
405.28	4011.68
405.47	4079.55
405.66	4023.38
405.85	4133.39
406.05	4084.23
406.24	4114.66
406.43	4184.88
406.62	4203.60
406.81	4287.86
407.00	4278.50
407.20	4205.94
407.39	4234.03
407.58	4411.91
407.77	4470.42
407.96	4482.13
408.15	4507.87
408.34	4418.93
408.54	4561.70
408.73	4573.41
408.92	4566.39
409.11	4573.41
409.30	4730.22
409.49	4676.39
409.68	4613.20
409.87	4760.65
410.07	4882.36
410.26	4737.24
410.45	4809.80
410.64	4884.70
410.83	4849.59
411.02	4896.40
411.21	4983.00
411.40	4877.68
411.59	5114.07
411.78	4931.51
411.98	5203.01
412.17	5235.78
412.36	5273.23
412.55	5263.86
412.74	5359.83
412.93	5336.42
413.12	5179.61
413.31	5626.65
413.50	5441.75
413.69	5371.53
413.88	5612.60
414.07	5605.58
414.26	5610.26
414.45	5729.63
414.64	5799.85
414.83	5788.14
415.02	5837.30
415.22	5858.36
415.41	5884.11
415.60	6064.33
415.79	5989.43
415.98	6118.16
416.17	6258.59
416.36	6146.25
416.55	6211.78
416.74	6232.85
416.93	6361.58
417.12	6216.46
417.31	6516.05
417.50	6368.60
417.69	6663.51
417.88	6743.08
418.07	6832.02
418.26	6623.72
418.45	6647.12
418.64	6745.42
418.83	6761.81
419.02	6738.40
419.21	6815.64
419.39	6808.62
419.58	6775.85
419.77	6820.32
419.96	7030.97
420.15	7037.99
420.34	6991.18
420.53	7059.06
420.72	7112.89
420.91	7197.15
421.10	7164.38
421.29	7297.79
421.48	7199.49
421.67	7297.79
421.86	7208.85
422.05	7332.90
422.24	7332.90
422.43	7365.67
422.61	7508.44
422.80	7447.58
422.99	7426.52
423.18	7730.79
423.37	7723.77
423.56	7410.14
423.75	7433.54
423.94	7396.09
424.13	7140.97
424.32	7241.62
424.50	7548.23
424.69	7733.13
424.88	7749.51
425.07	7545.89
425.26	7365.67
425.45	7620.78
425.64	7534.18
425.83	7651.21
426.01	7655.89
426.20	7740.15
426.39	7641.85
426.58	7602.06
426.77	7555.25
426.96	7777.60
427.15	7836.11
427.33	8016.33
427.52	7831.43
427.71	7922.71
427.90	7981.23
428.09	8102.93
428.28	7896.97
428.46	8198.90
428.65	7953.14
428.84	8315.92
429.03	8308.90
429.22	8086.55
429.40	8252.73
429.59	8313.58
429.78	8109.96
429.97	8051.44
430.16	8379.12
430.34	8655.30
430.53	8514.87
430.72	8465.72
430.91	8606.15
431.10	8493.80
431.28	8667.00
431.47	8791.05
431.66	8896.38
431.85	8772.33
432.03	8971.27
432.22	8917.44
432.41	8744.24
432.60	8947.87
432.79	9004.04
432.97	9160.86
433.16	9004.04
433.35	9067.24
433.54	9125.75
433.72	9275.54
433.91	9121.07
434.10	9348.10
434.28	9303.63
434.47	9418.32
434.66	9612.58
434.85	9469.81
435.03	9563.43
435.22	9380.87
435.41	10003.45
435.59	9750.67
435.78	9872.38
435.97	9844.29
436.16	9626.62
436.34	9631.30
436.53	9689.82
436.72	9980.04
436.90	9727.27
437.09	9947.28
437.28	9682.80
437.46	9973.02
437.65	9902.81
437.84	10415.38
438.02	10108.77
438.21	10267.93
438.40	10057.28
438.58	10403.68
438.77	10450.49
438.96	10501.98
439.14	10663.48
439.33	10939.66
439.52	10815.62
439.70	10953.71
439.89	10752.42
440.08	11052.01
440.26	11164.36
440.45	11049.67
440.63	11314.15
440.82	11321.17
441.01	11379.68
441.19	11391.39
441.38	11730.76
441.57	11442.88
441.75	11566.93
441.94	11847.79
442.12	11983.54
442.31	12135.68
442.50	11974.18
442.68	11990.56
442.87	12044.40
443.05	12201.21
443.24	12238.66
443.43	12128.66
443.61	12233.98
443.80	12641.23
443.98	12287.81
444.17	11889.92
444.35	12311.22
444.54	12662.30
444.73	12540.59
444.91	12322.92
445.10	12830.82
445.28	12425.90
445.47	12517.18
445.65	12521.87
445.84	12767.62
446.02	12748.90
446.21	12755.92
446.39	12496.12
446.58	12737.20
446.77	12765.28
446.95	12423.56
447.14	12713.79
447.32	12996.99
447.51	12826.14
447.69	12620.17
447.88	12741.88
448.06	12484.42
448.25	12751.24
448.43	13069.55
448.62	12917.42
448.80	12903.37
448.99	13027.42
449.17	12912.74
449.36	13018.06
449.54	13483.83
449.73	13511.91
449.91	13561.06
450.10	13268.50
450.28	13577.45
450.46	13825.54
450.65	13467.44
450.83	13755.33
451.02	13532.98
451.20	14003.43
451.39	13722.56
451.57	13848.95
451.76	13645.32
451.94	13991.72
452.13	14003.43
452.31	13853.63
452.49	13657.03
452.68	14136.84
452.86	14040.87
453.05	14188.33
453.23	14263.22
453.42	14101.73
453.60	14232.80
453.78	14546.43
453.97	14338.12
454.15	14553.45
454.34	14139.18
454.52	14478.55
454.70	14532.39
454.89	14834.32
455.07	14712.61
455.26	14895.17
455.44	14951.34
455.62	14813.25
455.81	14939.64
455.99	14965.39
456.17	14995.81
456.36	15119.86
456.54	15096.46
456.73	15604.35
456.91	15609.03
457.09	15459.24
457.28	15913.30
457.46	15672.23
457.64	15859.47
457.83	15807.98
458.01	15810.32
458.19	16004.58
458.38	15644.14
458.56	16006.92
458.74	16145.02
458.93	16205.87
459.11	16231.62
459.29	16205.87
459.48	16365.03
459.66	16224.59
459.84	16432.90
460.03	16891.65
460.21	16542.91
460.39	16507.80
460.57	16479.71
460.76	16915.05
460.94	16702.06
461.12	16961.86
461.31	16725.47
461.49	16844.84
461.67	16739.51
461.85	17397.20
462.04	17003.99
462.22	17394.86
462.40	17455.72
462.59	17455.72
462.77	17476.78
462.95	17479.12
463.13	17724.88
463.32	17743.60
463.50	18024.47
463.68	17832.54
463.86	17781.05
464.05	17565.72
464.23	17631.26
464.41	17914.46
464.59	18038.51
464.78	18314.69
464.96	18057.23
465.14	17806.80
465.32	18057.23
465.50	18377.89
465.69	18490.23
465.87	18518.32
466.05	18387.25
466.23	18284.26
466.41	18434.06
466.60	18689.18
466.78	18190.64
466.96	18703.22
467.14	18621.30
467.32	18672.79
467.51	18735.99
467.69	18513.64
467.87	18789.82
468.05	19035.58
468.23	18890.46
468.41	18735.99
468.60	19033.24
468.78	19468.58
468.96	19248.57
469.14	19262.61
469.32	19777.53
469.50	19281.33
469.69	19597.31
469.87	19447.51
470.05	19700.29
470.23	19704.97
470.41	19695.61
470.59	19992.86
470.77	19733.06
470.95	19798.59
471.14	20538.20
471.32	20004.56
471.50	20430.54
471.68	20526.50
471.86	20383.73
472.04	20641.18
472.22	21504.84
472.40	20847.15
472.58	20842.47
472.77	21268.45
472.95	21329.30
473.13	22001.04
473.31	21235.68
473.49	21544.63
473.67	21259.09
473.85	21245.04
474.03	21907.41
474.21	22317.01
474.39	22419.99
474.57	22171.89
474.75	22614.26
474.93	22628.30
475.12	22628.30
475.30	23094.07
475.48	22754.69
475.66	22993.42
475.84	23171.30
476.02	23276.63
476.20	23201.73
476.38	23857.08
476.56	23946.02
476.74	23936.66
476.92	23817.29
477.10	23953.04
477.28	24587.33
477.46	24673.93
477.64	24882.24
477.82	25043.73
478.00	25462.69
478.18	25535.24
478.36	25818.45
478.54	26157.83
478.72	26153.15
478.90	26529.97
479.08	26415.29
479.26	26874.03
479.44	26843.60
479.62	27117.45
479.80	27517.68
479.98	27442.78
480.16	28102.81
480.34	27463.85
480.52	28519.43
480.70	28119.20
480.88	28063.02
481.06	28545.17
481.24	28568.58
481.41	28982.85
481.59	29305.85
481.77	29453.30
481.95	29804.38
482.13	30251.42
482.31	30352.07
482.49	30595.48
482.67	30464.41
482.85	30569.74
483.03	31302.32
483.21	31550.42
483.39	31690.85
483.57	31470.84
483.74	32051.30
483.92	32336.84
484.10	32472.59
484.28	32840.06
484.46	33125.60
484.64	33582.01
484.82	33254.33
485.00	33923.72
485.18	34288.85
485.35	34583.76
485.53	34712.49
485.71	35012.07
485.89	35620.61
486.07	35559.76
486.25	35321.02
486.43	35498.91
486.61	35866.37
486.78	36395.33
486.96	36746.41
487.14	37062.38
487.32	37188.77
487.50	37450.91
487.68	37530.49
487.85	38302.87
488.03	38326.27
488.21	39299.94
488.39	38965.24
488.57	39416.96
488.75	39147.80
488.92	39346.75
489.10	40299.34
489.28	40477.22
489.46	40727.66
489.64	41017.89
489.81	41680.26
489.99	41556.21
490.17	42300.50
490.35	42106.24
490.53	42092.19
490.70	43065.86
490.88	42143.69
491.06	42953.51
491.24	42892.66
491.41	43175.86
491.59	43835.89
491.77	44011.43
491.95	44533.37
492.13	44512.31
492.30	44814.24
492.48	45265.96
492.66	45022.54
492.84	45659.17
493.01	45766.84
493.19	45572.57
493.37	46618.79
493.54	46291.12
493.72	46600.07
493.90	46490.06
494.08	47276.48
494.25	47945.87
494.43	47852.25
494.61	48037.16
494.79	47868.64
494.96	47957.58
495.14	48470.15
495.32	48633.99
495.49	49081.03
495.67	49116.14
495.85	49282.32
496.02	49345.51
496.20	49773.83
496.38	49911.92
496.55	49921.29
496.73	50773.24
496.91	50520.46
497.09	50969.85
497.26	51121.98
497.44	50684.30
497.62	51283.48
497.79	51669.67
497.97	51327.95
498.14	52102.67
498.32	52123.73
498.50	52006.70
498.67	52315.65
498.85	52200.97
499.03	52346.08
499.20	52687.80
499.38	52973.34
499.56	53198.04
499.73	53373.58
499.91	53382.94
500.08	53443.79
500.26	53607.63
500.44	53818.28
500.61	53951.69
500.79	53736.36
500.97	54223.19
501.14	54450.22
501.32	54316.81
501.49	54340.22
501.67	54349.58
501.84	54695.98
502.02	54433.84
502.20	55075.15
502.37	54845.77
502.55	55173.45
502.72	55016.63
502.90	55128.98
503.07	55063.44
503.25	55337.29
503.43	55075.15
503.60	55866.25
503.78	55779.65
503.95	55365.37
504.13	55896.67
504.30	56037.11
504.48	55693.05
504.65	56308.61
504.83	56491.17
505.01	56767.35
505.18	56226.69
505.36	56575.43
505.53	56514.58
505.71	56821.19
505.88	56842.25
506.06	56786.08
506.23	56816.50
506.41	57029.49
506.58	57069.28
506.76	57169.93
506.93	57553.77
507.11	57616.97
507.28	57506.96
507.46	57691.86
507.63	57733.99
507.81	57691.86
507.98	57612.29
508.16	57769.10
508.33	57855.70
508.50	58169.33
508.68	58358.92
508.85	58300.40
509.03	58150.61
509.20	58335.51
509.38	58450.20
509.55	58642.12
509.73	58653.82
509.90	58843.41
510.08	58815.32
510.25	58962.78
510.42	58761.49
510.60	59152.36
510.77	58908.94
510.95	59281.09
511.12	59112.57
511.30	59185.13
511.47	59753.88
511.64	59566.63
511.82	59779.62
511.99	59465.99
512.17	59669.62
512.34	59863.88
512.51	59891.97
512.69	60111.98
512.86	60041.76
513.04	60243.05
513.21	59884.95
513.38	59884.95
513.56	60266.45
513.73	60285.18
513.90	60493.49
514.08	60362.42
514.25	60416.25
514.43	60633.92
514.60	60528.59
514.77	60519.23
514.95	60886.70
515.12	60622.22
515.29	60577.75
515.47	60966.27
515.64	61212.03
515.81	60982.66
515.99	61104.37
516.16	61237.78
516.33	61144.16
516.51	61338.42
516.68	61272.88
516.85	61371.19
517.03	61537.36
517.20	61518.64
517.37	61286.93
517.54	61378.21
517.72	61556.09
517.89	61525.66
518.06	61755.03
518.24	61663.75
518.41	61804.19
518.58	61883.76
518.75	61764.40
518.93	61914.19
519.10	62010.15
519.27	61998.45
519.45	62309.74
519.62	62248.89
519.79	62394.00
519.96	62365.91
520.14	62464.22
520.31	62333.15
520.48	62489.96
520.65	62391.66
520.83	62780.19
521.00	62787.21
521.17	62649.12
521.34	62791.89
521.52	62915.94
521.69	62929.98
521.86	62878.49
522.03	63042.33
522.20	63096.16
522.38	63309.15
522.55	63262.34
522.72	63166.38
522.89	63023.61
523.07	63351.28
523.24	63213.19
523.41	63243.62
523.58	63077.44
523.75	63636.83
523.92	63597.04
524.10	63564.27
524.27	63639.17
524.44	63826.41
524.61	63657.89
524.78	63751.51
524.96	63884.92
525.13	63737.47
525.30	63973.86
525.47	64238.34
525.64	63795.98
525.81	64030.04
525.98	64207.92
526.16	64273.45
526.33	64088.55
526.50	64369.41
526.67	64207.92
526.84	64406.86
527.01	64441.97
527.18	64530.91
527.36	64551.98
527.53	64488.78
527.70	64544.95
527.87	64713.47
528.04	64659.64
528.21	64769.64
528.38	64671.34
528.55	64889.01
528.72	64729.86
528.89	64839.86
529.07	64783.69
529.24	64821.14
529.41	65027.10
529.58	65087.96
529.75	64874.97
529.92	65223.71
530.09	65151.15
530.26	64931.14
530.43	65141.79
530.60	64849.22
530.77	65207.32
530.94	65235.41
531.11	65300.95
531.28	65333.71
531.46	65378.18
531.63	65535.00
531.80	65275.20
531.97	65471.81
532.14	65535.00
532.31	65535.00
532.48	65535.00
532.65	65535.00
532.82	65535.00
532.99	65535.00
533.16	65535.00
533.33	65535.00
533.50	65535.00
533.67	65535.00
533.84	65535.00
534.01	65535.00
534.18	65535.00
534.35	65535.00
534.52	65535.00
534.69	65535.00
534.86	65535.00
535.03	65535.00
535.20	65535.00
535.37	65535.00
535.54	65535.00
535.71	65535.00
535.88	65535.00
536.05	65535.00
536.22	65535.00
536.38	65535.00
536.55	65535.00
536.72	65535.00
536.89	65535.00
537.06	65535.00
537.23	65535.00
537.40	65535.00
537.57	65535.00
537.74	65535.00
537.91	65535.00
538.08	65535.00
538.25	65535.00
538.42	65535.00
538.59	65535.00
538.75	65535.00
538.92	65535.00
539.09	65535.00
539.26	65535.00
539.43	65535.00
539.60	65535.00
539.77	65535.00
539.94	65535.00
540.11	65535.00
540.28	65535.00
540.44	65535.00
540.61	65535.00
540.78	65535.00
540.95	65535.00
541.12	65535.00
541.29	65535.00
541.46	65535.00
541.62	65535.00
541.79	65535.00
541.96	65535.00
542.13	65535.00
542.30	65535.00
542.47	65535.00
542.63	65535.00
542.80	65535.00
542.97	65535.00
543.14	65535.00
543.31	65535.00
543.48	65535.00
543.64	65535.00
543.81	65535.00
543.98	65535.00
544.15	65535.00
544.32	65535.00
544.48	65535.00
544.65	65535.00
544.82	65535.00
544.99	65535.00
545.16	65535.00
545.32	65535.00
545.49	65535.00
545.66	65535.00
545.83	65535.00
546.00	65535.00
546.16	65535.00
546.33	65535.00
546.50	65535.00
546.67	65535.00
546.83	65535.00
547.00	65535.00
547.17	65535.00
547.34	65535.00
547.50	65535.00
547.67	65535.00
547.84	65535.00
548.00	65535.00
548.17	65535.00
548.34	65535.00
548.51	65535.00
548.67	65535.00
548.84	65535.00
549.01	65535.00
549.18	65535.00
549.34	65535.00
549.51	65535.00
549.68	65535.00
549.84	65535.00
550.01	65535.00
550.18	65535.00
550.34	65535.00
550.51	65535.00
550.68	65535.00
550.84	65535.00
551.01	65535.00
551.18	65535.00
551.34	65535.00
551.51	65535.00
551.68	65535.00
551.84	65535.00
552.01	65535.00
552.18	65535.00
552.34	65535.00
552.51	65535.00
552.68	65535.00
552.84	65535.00
553.01	65535.00
553.18	65535.00
553.34	65535.00
553.51	65535.00
553.67	65535.00
553.84	65535.00
554.01	65535.00
554.17	65535.00
554.34	65535.00
554.51	65535.00
554.67	65535.00
554.84	65535.00
555.00	65535.00
555.17	65535.00
555.33	65535.00
555.50	65535.00
555.67	65535.00
555.83	65535.00
556.00	65535.00
556.16	65535.00
556.33	65535.00
556.50	65535.00
556.66	65535.00
556.83	65535.00
556.99	65535.00
557.16	65535.00
557.32	65535.00
557.49	65535.00
557.65	65535.00
557.82	65535.00
557.98	65535.00
558.15	65535.00
558.32	65535.00
558.48	65535.00
558.65	65535.00
558.81	65535.00
558.98	65535.00
559.14	65535.00
559.31	65535.00
559.47	65535.00
559.64	65535.00
559.80	65535.00
559.97	65535.00
560.13	65535.00
560.30	65535.00
560.46	65535.00
560.63	65535.00
560.79	65535.00
560.96	65535.00
561.12	65535.00
561.29	65535.00
561.45	65535.00
561.61	65535.00
561.78	65535.00
561.94	65535.00
562.11	65535.00
562.27	65535.00
562.44	65535.00
562.60	65535.00
562.77	65535.00
562.93	65535.00
563.10	65535.00
563.26	65535.00
563.42	65535.00
563.59	65535.00
563.75	65535.00
563.92	65535.00
564.08	65535.00
564.24	65535.00
564.41	65535.00
564.57	65535.00
564.74	65535.00
564.90	65535.00
565.07	65535.00
565.23	65535.00
565.39	65535.00
565.56	65535.00
565.72	65535.00
565.88	65535.00
566.05	65535.00
566.21	65535.00
566.38	65535.00
566.54	65535.00
566.70	65535.00
566.87	65535.00
567.03	65535.00
567.19	65535.00
567.36	65535.00
567.52	65535.00
567.68	65535.00
567.85	65535.00
568.01	65535.00
568.17	65535.00
568.34	65535.00
568.50	65535.00
568.66	65535.00
568.83	65535.00
568.99	65535.00
569.15	65535.00
569.32	65535.00
569.48	65535.00
569.64	65535.00
569.81	65535.00
569.97	65535.00
570.13	65535.00
570.30	65535.00
570.46	65535.00
570.62	65535.00
570.78	65535.00
570.95	65535.00
571.11	65535.00
571.27	65535.00
571.43	65535.00
571.60	65535.00
571.76	65535.00
571.92	65535.00
572.09	65535.00
572.25	65535.00
572.41	65535.00
572.57	65535.00
572.74	65535.00
572.90	65535.00
573.06	65535.00
573.22	65535.00
573.38	65535.00
573.55	65535.00
573.71	65535.00
573.87	65535.00
574.03	65535.00
574.20	65535.00
574.36	65535.00
574.52	65535.00
574.68	65535.00
574.84	65535.00
575.01	65535.00
575.17	65535.00
575.33	65535.00
575.49	65535.00
575.65	65535.00
575.82	65535.00
575.98	65535.00
576.14	65535.00
576.30	65535.00
576.46	65535.00
576.62	65535.00
576.79	65535.00
576.95	65535.00
577.11	65535.00
577.27	65535.00
577.43	65535.00
577.59	65535.00
577.75	65535.00
577.92	65535.00
578.08	65535.00
578.24	65535.00
578.40	65535.00
578.56	65535.00
578.72	65535.00
578.88	65535.00
579.04	65535.00
579.21	65535.00
579.37	65535.00
579.53	65535.00
579.69	65535.00
579.85	65535.00
580.01	65535.00
580.17	65535.00
580.33	65535.00
580.49	65535.00
580.65	65535.00
580.82	65535.00
580.98	65535.00
581.14	65535.00
581.30	65535.00
581.46	65535.00
581.62	65535.00
581.78	65535.00
581.94	65535.00
582.10	65535.00
582.26	65535.00
582.42	65535.00
582.58	65535.00
582.74	65535.00
582.90	65535.00
583.06	65535.00
583.22	65535.00
583.38	65535.00
583.54	65535.00
583.70	65535.00
583.86	65535.00
584.02	65535.00
584.18	65535.00
584.34	65535.00
584.50	65535.00
584.66	65535.00
584.82	65535.00
584.98	65535.00
585.14	65535.00
585.30	65535.00
585.46	65535.00
585.62	65535.00
585.78	65535.00
585.94	65535.00
586.10	65535.00
586.26	65535.00
586.42	65535.00
586.58	65535.00
586.74	65535.00
586.90	65535.00
