SpectraSuite Data File
++++++++++++++++++++++++++++++++++++
Date: Thu Oct 24 13:21:15 EDT 2013
User: stostad
Dark Spectrum Present: No
Reference Spectrum Present: No
Number of Sampled Component Spectra: 1
Spectrometers: USB2+H05261
Integration Time (usec): 100000 (USB2+H05261)
Spectra Averaged: 1 (USB2+H05261)
Boxcar Smoothing: 0 (USB2+H05261)
Correct for Electrical Dark: No (USB2+H05261)
Strobe/Lamp Enabled: No (USB2+H05261)
Correct for Detector Non-linearity: No (USB2+H05261)
Correct for Stray Light: No (USB2+H05261)
Number of Pixels in Processed Spectrum: 2048
>>>>>Begin Processed Spectral Data<<<<<
365.73	622.58
365.92	622.58
366.12	622.58
366.32	463.43
366.52	435.34
366.72	477.47
366.91	472.79
367.11	456.40
367.31	500.87
367.51	433.00
367.70	451.72
367.90	493.85
368.10	472.79
368.30	491.51
368.49	470.45
368.69	465.77
368.89	447.04
369.09	465.77
369.28	505.56
369.48	482.15
369.68	594.50
369.87	582.79
370.07	540.66
370.27	594.50
370.47	671.73
370.66	741.95
370.86	826.21
371.06	781.74
371.25	877.70
371.45	802.80
371.65	896.43
371.84	751.31
372.04	868.34
372.24	882.38
372.44	833.23
372.63	880.04
372.83	791.10
373.03	919.83
373.22	896.43
373.42	807.48
373.62	849.61
373.81	833.23
374.01	870.68
374.21	889.40
374.40	821.53
374.60	901.11
374.79	854.30
374.99	840.25
375.19	842.59
375.38	952.60
375.58	875.36
375.78	908.13
375.97	964.30
376.17	957.28
376.37	905.79
376.56	940.90
376.76	947.92
376.95	901.11
377.15	894.08
377.35	896.43
377.54	997.07
377.74	919.83
377.93	880.04
378.13	919.83
378.33	961.96
378.52	950.26
378.72	898.77
378.91	922.17
379.11	983.02
379.31	938.55
379.50	987.71
379.70	1050.90
379.89	980.68
380.09	985.37
380.28	976.00
380.48	1046.22
380.68	933.87
380.87	952.60
381.07	1015.79
381.26	1050.90
381.46	1062.60
381.65	973.66
381.85	992.39
382.04	964.30
382.24	954.94
382.43	1008.77
382.63	1027.50
382.83	987.71
383.02	1008.77
383.22	1060.26
383.41	1053.24
383.61	1008.77
383.80	1128.14
384.00	985.37
384.19	1027.50
384.39	1029.84
384.58	1050.90
384.78	1041.54
384.97	1114.10
385.17	1046.22
385.36	1090.69
385.56	1086.01
385.75	1008.77
385.95	1064.94
386.14	1062.60
386.34	1067.28
386.53	1039.20
386.72	1100.05
386.92	1078.99
387.11	1078.99
387.31	1062.60
387.50	987.71
387.70	1083.67
387.89	1088.35
388.09	1083.67
388.28	1083.67
388.48	1015.79
388.67	1109.41
388.86	1177.29
389.06	1132.82
389.25	1198.35
389.45	1153.88
389.64	1107.07
389.84	1132.82
390.03	1158.57
390.22	1177.29
390.42	1132.82
390.61	1170.27
390.81	1109.41
391.00	1177.29
391.19	1196.01
391.39	1123.46
391.58	1123.46
391.78	1247.51
391.97	1167.93
392.16	1121.12
392.36	1254.53
392.55	1235.80
392.75	1245.16
392.94	1198.35
393.13	1224.10
393.33	1186.65
393.52	1261.55
393.71	1289.64
393.91	1259.21
394.10	1247.51
394.29	1341.13
394.49	1327.08
394.68	1366.87
394.88	1306.02
395.07	1327.08
395.26	1352.83
395.46	1270.91
395.65	1343.47
395.84	1348.15
396.04	1387.94
396.23	1434.75
396.42	1282.61
396.62	1397.30
396.81	1357.51
397.00	1331.76
397.19	1378.58
397.39	1446.45
397.58	1369.21
397.77	1458.15
397.97	1516.67
398.16	1327.08
398.35	1392.62
398.55	1364.53
398.74	1460.49
398.93	1530.71
399.12	1420.71
399.32	1425.39
399.51	1530.71
399.70	1565.82
399.90	1514.33
400.09	1556.46
400.28	1504.96
400.47	1401.98
400.67	1586.88
400.86	1476.88
401.05	1547.09
401.24	1577.52
401.44	1643.06
401.63	1659.44
401.82	1664.12
402.01	1624.33
402.21	1540.07
402.40	1617.31
402.59	1673.48
402.78	1717.95
402.97	1633.69
403.17	1666.46
403.36	1586.88
403.55	1717.95
403.74	1713.27
403.93	1781.15
404.13	1636.03
404.32	1750.72
404.51	1664.12
404.70	1724.97
404.89	1785.83
405.09	1842.00
405.28	1834.98
405.47	1844.34
405.66	1802.21
405.85	1856.04
406.05	1746.04
406.24	1724.97
406.43	1827.96
406.62	1802.21
406.81	2005.84
407.00	1827.96
407.20	1872.43
407.39	1902.86
407.58	1966.05
407.77	1977.75
407.96	1994.14
408.15	1930.94
408.34	1926.26
408.54	1860.73
408.73	1933.28
408.92	1874.77
409.11	1970.73
409.30	2094.78
409.49	1975.41
409.68	2029.24
409.87	2026.90
410.07	2031.58
410.26	2054.99
410.45	2038.61
410.64	2251.60
410.83	2127.55
411.02	2111.16
411.21	2162.66
411.40	2228.19
411.59	2253.94
411.78	2162.66
411.98	2157.97
412.17	2232.87
412.36	2373.30
412.55	2300.75
412.74	2363.94
412.93	2209.47
413.12	2289.04
413.31	2354.58
413.50	2415.43
413.69	2394.37
413.88	2546.50
414.07	2385.01
414.26	2380.32
414.45	2459.90
414.64	2513.74
414.83	2455.22
415.02	2478.63
415.22	2511.39
415.41	2612.04
415.60	2595.65
415.79	2509.05
415.98	2593.31
416.17	2637.78
416.36	2583.95
416.55	2654.17
416.74	2623.74
416.93	2665.87
417.12	2747.79
417.31	2768.85
417.50	2698.64
417.69	2757.15
417.88	2780.56
418.07	2799.28
418.26	2850.77
418.45	2867.16
418.64	2878.86
418.83	2796.94
419.02	2843.75
419.21	2850.77
419.39	2869.50
419.58	2970.14
419.77	2815.66
419.96	2867.16
420.15	2981.84
420.34	2993.55
420.53	2988.86
420.72	3103.55
420.91	3033.33
421.10	3070.78
421.29	2988.86
421.48	3028.65
421.67	2991.20
421.86	3173.77
422.05	3075.46
422.24	3103.55
422.43	3094.19
422.61	3159.72
422.80	3148.02
422.99	3087.17
423.18	3166.74
423.37	3241.64
423.56	3091.85
423.75	3129.30
423.94	3026.31
424.13	2984.18
424.32	3042.70
424.50	3082.49
424.69	3178.45
424.88	3281.43
425.07	3180.79
425.26	3220.58
425.45	3148.02
425.64	3178.45
425.83	3183.13
426.01	3258.03
426.20	3119.93
426.39	3229.94
426.58	3185.47
426.77	3206.53
426.96	3323.56
427.15	3229.94
427.33	3316.54
427.52	3176.11
427.71	3201.85
427.90	3290.79
428.09	3459.31
428.28	3440.59
428.46	3358.67
428.65	3363.35
428.84	3616.13
429.03	3379.73
429.22	3332.92
429.40	3379.73
429.59	3445.27
429.78	3365.69
429.97	3272.07
430.16	3466.33
430.34	3501.44
430.53	3595.06
430.72	3513.14
430.91	3478.04
431.10	3501.44
431.28	3651.24
431.47	3714.43
431.66	3646.55
431.85	3595.06
432.03	3679.32
432.22	3630.17
432.41	3742.52
432.60	3779.97
432.79	3669.96
432.97	3726.13
433.16	3618.47
433.35	3824.44
433.54	3784.65
433.72	3829.12
433.91	3822.09
434.10	3716.77
434.28	3737.84
434.47	3836.14
434.66	3934.44
434.85	3861.88
435.03	4072.53
435.22	4091.26
435.41	4196.58
435.59	4135.73
435.78	4264.46
435.97	4060.83
436.16	4025.72
436.34	3962.53
436.53	4177.86
436.72	4018.70
436.90	3892.31
437.09	3971.89
437.28	3908.69
437.46	4077.21
437.65	4037.42
437.84	4011.68
438.02	4168.49
438.21	4107.64
438.40	4196.58
438.58	4201.26
438.77	4311.27
438.96	4250.41
439.14	4360.42
439.33	4290.20
439.52	4301.90
439.70	4428.29
439.89	4320.63
440.08	4568.73
440.26	4327.65
440.45	4432.97
440.63	4477.44
440.82	4641.28
441.01	4596.81
441.19	4564.04
441.38	4660.01
441.57	4681.07
441.75	4533.62
441.94	4802.78
442.12	4690.43
442.31	4762.99
442.50	4704.48
442.68	4798.10
442.87	4678.73
443.05	4793.42
443.24	4952.57
443.43	5008.75
443.61	4917.47
443.80	4957.25
443.98	4936.19
444.17	4720.86
444.35	4833.21
444.54	4882.36
444.73	4936.19
444.91	4952.57
445.10	4924.49
445.28	4865.97
445.47	5036.83
445.65	4959.60
445.84	4971.30
446.02	5001.72
446.21	5025.13
446.39	4940.87
446.58	5146.84
446.77	5022.79
446.95	4786.40
447.14	4966.62
447.32	5069.60
447.51	5027.47
447.69	4940.87
447.88	5025.13
448.06	5184.29
448.25	5090.67
448.43	5060.24
448.62	5188.97
448.80	5121.09
448.99	5121.09
449.17	5163.22
449.36	5102.37
449.54	5118.75
449.73	5203.01
449.91	5205.35
450.10	5174.92
450.28	5313.02
450.46	5530.69
450.65	5451.11
450.83	5460.47
451.02	5261.52
451.20	5366.85
451.39	5390.25
451.57	5355.15
451.76	5362.17
451.94	5231.10
452.13	5338.76
452.31	5366.85
452.49	5460.47
452.68	5586.86
452.86	5469.83
453.05	5380.89
453.23	5540.05
453.42	5533.03
453.60	5551.75
453.78	5621.97
453.97	5451.11
454.15	5586.86
454.34	5628.99
454.52	5614.95
454.70	5547.07
454.89	5626.65
455.07	5678.14
455.26	5760.06
455.44	5919.21
455.62	5797.51
455.81	5820.91
455.99	5792.83
456.17	5830.27
456.36	5816.23
456.54	5923.90
456.73	5994.11
456.91	6207.10
457.09	5982.41
457.28	5919.21
457.46	5973.05
457.64	6101.78
457.83	6171.99
458.01	6092.41
458.19	6167.31
458.38	6087.73
458.56	6263.27
458.74	6047.94
458.93	6230.51
459.11	6181.35
459.29	6296.04
459.48	6078.37
459.66	6366.26
459.84	6260.93
460.03	6375.62
460.21	6483.28
460.39	6235.19
460.57	6384.98
460.76	6356.90
460.94	6569.88
461.12	6436.47
461.31	6384.98
461.49	6504.35
461.67	6588.61
461.85	6565.20
462.04	6490.31
462.22	6977.14
462.40	6619.04
462.59	6771.17
462.77	6698.61
462.95	6665.85
463.13	6511.37
463.32	6672.87
463.50	6754.79
463.68	6946.71
463.86	6675.21
464.05	6630.74
464.23	6661.16
464.41	6839.05
464.59	6729.04
464.78	6956.07
464.96	7054.37
465.14	6792.23
465.32	6825.00
465.50	6960.75
465.69	6937.35
465.87	6853.09
466.05	6862.45
466.23	6775.85
466.41	6864.79
466.60	6991.18
466.78	7016.93
466.96	7007.56
467.14	7063.74
467.32	7176.08
467.51	7098.84
467.69	6883.52
467.87	6939.69
468.05	7089.48
468.23	7059.06
468.41	7002.88
468.60	7269.70
468.78	7059.06
468.96	7131.61
469.14	7180.76
469.32	7337.58
469.50	7208.85
469.69	7248.64
469.87	7489.71
470.05	7314.17
470.23	7456.95
470.41	7323.54
470.59	7592.70
470.77	7480.35
470.95	7438.22
471.14	7726.11
471.32	7538.87
471.50	7655.89
471.68	7606.74
471.86	7744.83
472.04	7744.83
472.22	8013.99
472.40	7740.15
472.58	7852.50
472.77	7829.09
472.95	8042.08
473.13	8212.94
473.31	7859.52
473.49	7981.23
473.67	7894.63
473.85	7955.48
474.03	8283.16
474.21	8112.30
474.39	8297.20
474.57	8191.88
474.75	8388.48
474.93	8414.23
475.12	8376.78
475.30	8329.97
475.48	8360.39
475.66	8400.18
475.84	8358.05
476.02	8503.17
476.20	8538.27
476.38	8819.14
476.56	8997.02
476.74	8671.68
476.92	8704.45
477.10	8678.71
477.28	9092.98
477.46	8912.76
477.64	9195.96
477.82	9118.73
478.00	9254.48
478.18	9348.10
478.36	9474.49
478.54	9554.07
478.72	9387.89
478.90	9687.48
479.08	9682.80
479.26	9767.06
479.44	9823.23
479.62	9830.25
479.80	9853.66
479.98	10099.41
480.16	10036.22
480.34	10134.52
480.52	10265.59
480.70	10225.80
480.88	10190.69
481.06	10298.36
481.24	10178.99
481.41	10574.54
481.59	10658.80
481.77	10693.91
481.95	10700.93
482.13	10888.17
482.31	10562.84
482.49	11229.89
482.67	11056.69
482.85	11276.70
483.03	11370.32
483.21	11239.25
483.39	11571.61
483.57	11307.13
483.74	11777.58
483.92	11768.21
484.10	11494.37
484.28	11861.84
484.46	11852.47
484.64	12063.12
484.82	11990.56
485.00	12222.28
485.18	12386.12
485.35	12461.01
485.53	12486.76
485.71	12636.55
485.89	12826.14
486.07	12711.45
486.25	12816.77
486.43	12648.26
486.61	12912.74
486.78	13221.69
486.96	13184.24
487.14	13446.38
487.32	13376.16
487.50	13266.16
487.68	13439.36
487.85	13891.08
488.03	13984.70
488.21	14036.19
488.39	13818.52
488.57	14125.13
488.75	14071.30
488.92	14111.09
489.10	14504.30
489.28	14544.09
489.46	14656.43
489.64	14380.25
489.81	14836.66
489.99	14855.38
490.17	14951.34
490.35	15000.49
490.53	15325.83
490.70	15660.52
490.88	15150.29
491.06	15637.12
491.24	15939.05
491.41	15737.76
491.59	15967.13
491.77	15866.49
491.95	16086.50
492.13	16020.97
492.30	16411.84
492.48	16177.78
492.66	16102.89
492.84	16334.60
493.01	16617.80
493.19	16554.61
493.37	16531.20
493.54	16411.84
493.72	16959.52
493.90	16854.20
494.08	17231.02
494.25	17202.94
494.43	17310.60
494.61	17467.42
494.79	17429.97
494.96	17294.22
495.14	17692.11
495.32	17460.40
495.49	17862.97
495.67	17921.48
495.85	17762.33
496.02	17989.36
496.20	18148.51
496.38	18127.45
496.55	18050.21
496.73	18803.86
496.91	18202.35
497.09	18712.58
497.26	18743.01
497.44	18707.90
497.62	18829.61
497.79	19187.71
497.97	18941.96
498.14	19122.18
498.32	19470.92
498.50	19377.30
498.67	19342.19
498.85	19391.34
499.03	19417.08
499.20	19915.62
499.38	19843.06
499.56	19669.86
499.73	20081.80
499.91	19880.51
500.08	19924.98
500.26	19997.54
500.44	20238.61
500.61	20283.08
500.79	20273.72
500.97	20152.01
501.14	20458.62
501.32	20648.21
501.49	20643.52
501.67	20573.31
501.84	20786.30
502.02	20870.56
502.20	20936.09
502.37	20882.26
502.55	20652.89
502.72	20954.82
502.90	21123.33
503.07	21142.06
503.25	21598.46
503.43	21032.05
503.60	21577.40
503.78	21476.76
503.95	21259.09
504.13	21671.02
504.30	21563.36
504.48	21731.87
504.65	21834.86
504.83	21853.58
505.01	22260.84
505.18	21933.16
505.36	22256.15
505.53	22038.48
505.71	21869.97
505.88	22305.31
506.06	22092.32
506.23	22485.53
506.41	22382.54
506.58	22455.10
506.76	22438.72
506.93	22672.77
507.11	22642.34
507.28	23033.21
507.46	22789.80
507.63	22513.61
507.81	22895.12
507.98	22918.53
508.16	22958.31
508.33	23112.79
508.50	23285.99
508.68	23482.59
508.85	23592.60
509.03	23267.27
509.20	23496.64
509.38	23826.65
509.55	23728.35
509.73	23906.23
509.90	23852.40
510.08	23892.19
510.25	23866.44
510.42	23988.15
510.60	24067.73
510.77	23915.59
510.95	24308.80
511.12	24322.85
511.30	24329.87
511.47	24360.30
511.64	24744.14
511.82	24718.40
511.99	24577.97
512.17	24989.90
512.34	24463.28
512.51	25043.73
512.69	25296.51
512.86	24870.53
513.04	25160.76
513.21	25036.71
513.38	25228.63
513.56	25287.15
513.73	25174.80
513.90	25467.37
514.08	25441.62
514.25	25949.52
514.43	25476.73
514.60	25558.65
514.77	25397.15
514.95	25713.13
515.12	25343.32
515.29	25752.91
515.47	26169.53
515.64	25832.49
515.81	26380.18
515.99	25869.94
516.16	25839.51
516.33	26239.75
516.51	26443.37
516.68	26579.12
516.85	26150.81
517.03	26649.34
517.20	26707.85
517.37	26464.44
517.54	26464.44
517.72	26677.43
517.89	26717.22
518.06	27000.42
518.24	26948.93
518.41	26855.31
518.58	26576.78
518.75	26546.36
518.93	27037.87
519.10	26780.41
519.27	26986.38
519.45	26878.71
519.62	26904.46
519.79	27220.43
519.96	27054.25
520.14	26923.18
520.31	27096.38
520.48	26948.93
520.65	27276.60
520.83	27365.54
521.00	28004.51
521.17	27690.88
521.34	27733.01
521.52	27819.61
521.69	27929.61
521.86	28070.04
522.03	27953.02
522.20	27880.46
522.38	28425.81
522.55	28037.28
522.72	27866.42
522.89	28212.82
523.07	28271.33
523.24	28123.88
523.41	28332.18
523.58	28278.35
523.75	28563.90
523.92	28201.11
524.10	28730.08
524.27	29001.58
524.44	28561.56
524.61	28922.00
524.78	28739.44
524.96	28807.31
525.13	28467.94
525.30	28903.28
525.47	29111.58
525.64	29188.82
525.81	29663.95
525.98	29069.45
526.16	29188.82
526.33	28912.64
526.50	29296.49
526.67	29315.21
526.84	29249.67
527.01	29708.42
527.18	29750.55
527.36	29818.42
527.53	29654.59
527.70	29483.73
527.87	29968.22
528.04	29759.91
528.21	29954.18
528.38	29804.38
528.55	29743.53
528.72	30005.67
528.89	30101.63
529.07	30052.48
529.24	29696.72
529.41	30305.26
529.58	30157.80
529.75	30363.77
529.92	30071.20
530.09	29820.77
530.26	30181.21
530.43	30244.40
530.60	29972.90
530.77	30206.95
530.94	30717.19
531.11	30684.42
531.28	30878.69
531.46	30476.12
531.63	30756.98
531.80	30696.13
531.97	30878.69
532.14	31234.45
532.31	30728.89
532.48	30712.51
532.65	30766.34
532.82	30841.24
532.99	31182.96
533.16	31096.36
533.33	30897.41
533.50	31356.16
533.67	31431.05
533.84	30995.71
534.01	31206.36
534.18	31110.40
534.35	31548.08
534.52	31274.24
534.69	31515.31
534.86	31309.35
535.03	31372.54
535.20	31133.81
535.37	31709.58
535.54	31793.84
535.71	31667.45
535.88	31728.30
536.05	31941.29
536.22	32233.86
536.38	32072.36
536.55	32542.81
536.72	31976.40
536.89	32294.71
537.06	32079.38
537.23	32294.71
537.40	32432.80
537.57	32208.11
537.74	32128.53
537.91	32428.12
538.08	32425.78
538.25	32273.65
538.42	32074.70
538.59	32294.71
538.75	32549.83
538.92	32552.17
539.09	32533.45
539.26	32493.66
539.43	32369.61
539.60	32348.54
539.77	32580.26
539.94	32613.02
540.11	33050.70
540.28	33069.43
540.44	32598.98
540.61	32851.76
540.78	33092.83
540.95	32957.08
541.12	33223.90
541.29	32985.17
541.46	33474.34
541.62	33553.92
541.79	33663.93
541.96	33036.66
542.13	33589.03
542.30	33420.51
542.47	33811.38
542.63	33652.22
542.80	33895.64
542.97	34169.48
543.14	33860.53
543.31	34080.54
543.48	34464.39
543.64	34237.36
543.81	33792.65
543.98	34293.53
544.15	34019.69
544.32	34113.31
544.48	34277.15
544.65	34452.69
544.82	34569.71
544.99	33926.07
545.16	34293.53
545.32	34396.51
545.49	34871.64
545.66	35201.66
545.83	34974.63
546.00	35480.18
546.16	35232.08
546.33	34969.94
546.50	33989.26
546.67	34684.40
546.83	34401.19
547.00	34525.24
547.17	34473.75
547.34	34305.23
547.50	35086.97
547.67	34600.14
547.84	34967.60
548.00	35136.12
548.17	35342.09
548.34	34609.50
548.51	34948.88
548.67	34789.72
548.84	35115.06
549.01	34579.07
549.18	35424.01
549.34	34691.42
549.51	35358.47
549.68	35241.45
549.84	35262.51
550.01	35023.78
550.18	34827.17
550.34	34991.01
550.51	34843.56
550.68	35154.85
550.84	34686.74
551.01	34906.75
551.18	34780.36
551.34	34967.60
551.51	35222.72
551.68	35253.15
551.84	35150.17
552.01	35077.61
552.18	35466.14
552.34	35196.98
552.51	36062.97
552.68	35328.05
552.84	35768.07
553.01	35634.66
553.18	35344.43
553.34	35728.28
553.51	35491.88
553.67	35409.96
553.84	36006.80
554.01	35814.88
554.17	35941.27
554.34	35747.00
554.51	35578.48
554.67	35929.56
554.84	35613.59
555.00	35833.60
555.17	35768.07
555.33	35978.72
555.50	35817.22
555.67	35576.14
555.83	36009.14
556.00	35983.40
556.16	36126.17
556.33	35810.20
556.50	36072.34
556.66	36112.13
556.83	35580.82
556.99	36402.35
557.16	36517.04
557.32	36563.85
557.49	36414.05
557.65	36065.31
557.82	36217.45
557.98	36355.54
558.15	36357.88
558.32	36456.18
558.48	36474.91
558.65	36444.48
558.81	36453.84
558.98	36556.83
559.14	36390.65
559.31	36002.12
559.47	36512.36
559.64	36514.70
559.80	36430.44
559.97	36383.63
560.13	36062.97
560.30	36545.12
560.46	36451.50
560.63	36753.43
560.79	36699.60
560.96	36835.35
561.12	36828.33
561.29	36973.44
561.45	36484.27
561.61	36938.33
561.78	36519.38
561.94	36765.14
562.11	37130.26
562.27	36849.39
562.44	37067.06
562.60	36917.27
562.77	36664.49
562.93	36725.35
563.10	37130.26
563.26	37118.56
563.42	36999.19
563.59	36935.99
563.75	36575.55
563.92	37195.79
564.08	36629.38
564.24	37312.82
564.41	36713.64
564.57	36804.92
564.74	36847.05
564.90	37230.90
565.07	37078.77
565.23	37062.38
565.39	37083.45
565.56	37322.18
565.72	37067.06
565.88	37156.00
566.05	37443.89
566.21	36823.65
566.38	37013.23
566.54	36678.54
566.70	37373.67
566.87	37610.07
567.03	37158.34
567.19	37921.36
567.36	37167.71
567.52	37046.00
567.68	37577.30
567.85	37560.92
568.01	37090.47
568.17	37464.96
568.34	37261.33
568.50	37331.54
568.66	37776.25
568.83	37156.00
568.99	37464.96
569.15	37345.59
569.32	37530.49
569.48	37106.85
569.64	37221.54
569.81	37464.96
569.97	37158.34
570.13	37418.14
570.30	37542.19
570.46	37233.24
570.62	37502.40
570.78	37106.85
570.95	36849.39
571.11	37902.64
571.27	37607.73
571.43	37050.68
571.60	37329.20
571.76	37525.81
571.92	37387.72
572.09	37514.11
572.25	37897.95
572.41	37663.90
572.57	37897.95
572.74	38295.85
572.90	37673.26
573.06	37464.96
573.22	37715.39
573.38	37572.62
573.55	37467.30
573.71	37872.21
573.87	37834.76
574.03	37446.23
574.20	37666.24
574.36	37708.37
574.52	37694.33
574.68	37483.68
574.84	37965.83
575.01	37801.99
575.17	38031.36
575.33	37542.19
575.49	37841.78
575.65	37691.99
575.82	38115.62
575.98	37809.01
576.14	37734.12
576.30	38213.93
576.46	38141.37
576.62	38061.79
576.79	37598.37
576.95	37600.71
577.11	38096.90
577.27	38113.28
577.43	38010.30
577.59	37677.94
577.75	38033.71
577.92	37539.85
578.08	37736.46
578.24	37689.65
578.40	37837.10
578.56	38256.06
578.72	37965.83
578.88	37968.17
579.04	38419.89
579.21	38092.22
579.37	38134.35
579.53	38106.26
579.69	37684.97
579.85	38164.78
580.01	38148.39
580.17	38101.58
580.33	38181.16
580.49	37881.57
580.65	37830.08
580.82	37902.64
580.98	37947.11
581.14	38043.07
581.30	37792.63
581.46	37890.93
581.62	37649.86
581.78	37888.59
581.94	37551.56
582.10	37605.39
582.26	38017.32
582.42	37640.50
582.58	37699.01
582.74	38230.31
582.90	38024.34
583.06	37972.85
583.22	38120.31
583.38	38127.33
583.54	38127.33
583.70	38033.71
583.86	38412.87
584.02	38007.96
584.18	38190.52
584.34	37865.19
584.50	38181.16
584.66	37371.33
584.82	38059.45
584.98	38408.19
585.14	38181.16
585.30	38132.01
585.46	38078.18
585.62	37830.08
585.78	38167.12
585.94	37876.89
586.10	38323.93
586.26	38279.46
586.42	38295.85
586.58	38377.76
586.74	37935.40
586.90	37862.85
587.06	38148.39
587.22	38267.76
587.38	38120.31
587.54	38553.30
587.70	38602.46
587.86	38164.78
588.02	38157.75
588.18	38136.69
588.34	38508.83
588.49	38532.24
588.65	38024.34
588.81	38480.75
588.97	38078.18
589.13	38249.03
589.29	38321.59
589.45	38396.49
589.61	38866.94
589.77	38660.97
