SpectraSuite Data File
++++++++++++++++++++++++++++++++++++
Date: Thu Oct 24 13:21:24 EDT 2013
User: stostad
Dark Spectrum Present: No
Reference Spectrum Present: No
Number of Sampled Component Spectra: 1
Spectrometers: USB2+H05261
Integration Time (usec): 100000 (USB2+H05261)
Spectra Averaged: 1 (USB2+H05261)
Boxcar Smoothing: 0 (USB2+H05261)
Correct for Electrical Dark: No (USB2+H05261)
Strobe/Lamp Enabled: No (USB2+H05261)
Correct for Detector Non-linearity: No (USB2+H05261)
Correct for Stray Light: No (USB2+H05261)
Number of Pixels in Processed Spectrum: 2048
>>>>>Begin Processed Spectral Data<<<<<
365.73	538.32
365.92	538.32
366.12	538.32
366.32	519.60
366.52	379.17
366.72	484.49
366.91	390.87
367.11	435.34
367.31	440.02
367.51	486.83
367.70	404.91
367.90	449.38
368.10	470.45
368.30	505.56
368.49	454.06
368.69	477.47
368.89	472.79
369.09	409.59
369.28	535.98
369.48	486.83
369.68	582.79
369.87	449.38
370.07	477.47
370.27	507.90
370.47	617.90
370.66	875.36
370.86	964.30
371.06	896.43
371.25	1008.77
371.45	931.53
371.65	1034.52
371.84	1011.11
372.04	1029.84
372.24	1013.45
372.44	999.41
372.63	1062.60
372.83	1095.37
373.03	1013.45
373.22	1071.97
373.42	1153.88
373.62	1095.37
373.81	1118.78
374.01	1107.07
374.21	1137.50
374.40	1036.86
374.60	1153.88
374.79	1074.31
374.99	1135.16
375.19	1177.29
375.38	1123.46
375.58	1153.88
375.78	1151.54
375.97	1142.18
376.17	1219.42
376.37	1191.33
376.56	1172.61
376.76	1144.52
376.95	1205.38
377.15	1196.01
377.35	1142.18
377.54	1172.61
377.74	1245.16
377.93	1219.42
378.13	1280.27
378.33	1172.61
378.52	1139.84
378.72	1235.80
378.91	1242.82
379.11	1282.61
379.31	1277.93
379.50	1331.76
379.70	1249.85
379.89	1219.42
380.09	1275.59
380.28	1252.19
380.48	1303.68
380.68	1249.85
380.87	1193.67
381.07	1315.38
381.26	1366.87
381.46	1348.15
381.65	1310.70
381.85	1275.59
382.04	1376.24
382.24	1338.79
382.43	1439.43
382.63	1322.40
382.83	1331.76
383.02	1270.91
383.22	1362.19
383.41	1329.42
383.61	1430.07
383.80	1404.32
384.00	1350.49
384.19	1306.02
384.39	1483.90
384.58	1434.75
384.78	1399.64
384.97	1472.20
385.17	1409.00
385.36	1437.09
385.56	1451.13
385.75	1497.94
385.95	1444.11
386.14	1460.49
386.34	1425.39
386.53	1437.09
386.72	1511.99
386.92	1516.67
387.11	1523.69
387.31	1584.54
387.50	1490.92
387.70	1474.54
387.89	1533.05
388.09	1575.18
388.28	1528.37
388.48	1544.75
388.67	1619.65
388.86	1516.67
389.06	1575.18
389.25	1591.56
389.45	1540.07
389.64	1724.97
389.84	1540.07
390.03	1652.42
390.22	1640.72
390.42	1638.38
390.61	1502.62
390.81	1643.06
391.00	1612.63
391.19	1659.44
391.39	1624.33
391.58	1753.06
391.78	1748.38
391.97	1736.68
392.16	1736.68
392.36	1708.59
392.55	1732.00
392.75	1774.13
392.94	1783.49
393.13	1729.66
393.33	1732.00
393.52	1846.68
393.71	1870.09
393.91	1893.49
394.10	1816.26
394.29	1633.69
394.49	1717.95
394.68	1827.96
394.88	1900.52
395.07	1823.28
395.26	1952.01
395.46	1872.43
395.65	1956.69
395.84	1863.07
396.04	2031.58
396.23	2010.52
396.42	1921.58
396.62	2008.18
396.81	2073.71
397.00	2012.86
397.19	1984.77
397.39	1975.41
397.58	2033.93
397.77	2047.97
397.97	2045.63
398.16	2099.46
398.35	2169.68
398.55	2106.48
398.74	2122.87
398.93	2176.70
399.12	2148.61
399.32	2228.19
399.51	2256.28
399.70	2265.64
399.90	2181.38
400.09	2282.02
400.28	2291.38
400.47	2197.76
400.67	2258.62
400.86	2319.47
401.05	2352.24
401.24	2303.09
401.44	2399.05
401.63	2328.83
401.82	2361.60
402.01	2366.28
402.21	2291.38
402.40	2445.86
402.59	2389.69
402.78	2375.64
402.97	2408.41
403.17	2597.99
403.36	2415.43
403.55	2483.31
403.74	2621.40
403.93	2546.50
404.13	2586.29
404.32	2661.19
404.51	2668.21
404.70	2647.15
404.89	2621.40
405.09	2747.79
405.28	2607.36
405.47	2700.98
405.66	2766.51
405.85	2771.19
406.05	2752.47
406.24	2738.43
406.43	2909.29
406.62	2876.52
406.81	2869.50
407.00	2796.94
407.20	2810.98
407.39	2810.98
407.58	2862.48
407.77	2928.01
407.96	3005.25
408.15	3012.27
408.34	2965.46
408.54	3049.72
408.73	3089.51
408.92	2944.39
409.11	3094.19
409.30	3075.46
409.49	3101.21
409.68	3061.42
409.87	3192.49
410.07	3162.06
410.26	3243.98
410.45	3080.14
410.64	3166.74
410.83	3349.31
411.02	3335.26
411.21	3309.52
411.40	3290.79
411.59	3346.97
411.78	3304.84
411.98	3382.07
412.17	3454.63
412.36	3534.21
412.55	3581.02
412.74	3541.23
412.93	3658.26
413.12	3503.78
413.31	3660.60
413.50	3709.75
413.69	3604.42
413.88	3695.71
414.07	3658.26
414.26	3833.80
414.45	3915.72
414.64	3847.84
414.83	3707.41
415.02	3915.72
415.22	3880.61
415.41	4011.68
415.60	3889.97
415.79	4039.76
415.98	4077.21
416.17	4081.89
416.36	4145.09
416.55	4301.90
416.74	4322.97
416.93	4025.72
417.12	4184.88
417.31	4315.95
417.50	4252.75
417.69	4383.82
417.88	4243.39
418.07	4301.90
418.26	4308.93
418.45	4512.55
418.64	4550.00
418.83	4477.44
419.02	4402.55
419.21	4559.36
419.39	4542.98
419.58	4622.56
419.77	4559.36
419.96	4683.41
420.15	4620.22
420.34	4781.71
420.53	4636.60
420.72	4657.67
420.91	4706.82
421.10	4777.03
421.29	4922.15
421.48	4739.58
421.67	4835.55
421.86	4940.87
422.05	4826.18
422.24	4826.18
422.43	4917.47
422.61	5027.47
422.80	5041.51
422.99	5055.56
423.18	5085.98
423.37	4945.55
423.56	4835.55
423.75	5093.01
423.94	4891.72
424.13	4678.73
424.32	4636.60
424.50	4987.68
424.69	5118.75
424.88	5043.85
425.07	5013.43
425.26	4971.30
425.45	5069.60
425.64	5132.79
425.83	4985.34
426.01	5090.67
426.20	5111.73
426.39	5114.07
426.58	4884.70
426.77	5039.17
426.96	5207.69
427.15	5296.63
427.33	5291.95
427.52	5188.97
427.71	5317.70
427.90	5343.44
428.09	5313.02
428.28	5369.19
428.46	5350.46
428.65	5280.25
428.84	5654.73
429.03	5549.41
429.22	5366.85
429.40	5514.30
429.59	5476.85
429.78	5207.69
429.97	5238.12
430.16	5387.91
430.34	5652.39
430.53	5636.01
430.72	5664.10
430.91	5584.52
431.10	5713.25
431.28	5645.37
431.47	5703.89
431.66	5832.62
431.85	5617.29
432.03	5832.62
432.22	5916.87
432.41	5844.32
432.60	5881.77
432.79	5804.53
432.97	6059.65
433.16	6061.99
433.35	5944.96
433.54	6038.58
433.72	6113.48
433.91	6174.33
434.10	6064.33
434.28	6155.61
434.47	6099.44
434.66	6164.97
434.85	6349.87
435.03	6377.96
435.22	6384.98
435.41	6682.23
435.59	6520.73
435.78	6612.01
435.97	6530.09
436.16	6443.49
436.34	6452.86
436.53	6363.92
436.72	6590.95
436.90	6612.01
437.09	6494.99
437.28	6331.15
437.46	6509.03
437.65	6609.67
437.84	6544.14
438.02	6757.13
438.21	6803.94
438.40	6766.49
438.58	6949.05
438.77	7000.54
438.96	6759.47
439.14	7014.59
439.33	7056.72
439.52	7096.50
439.70	7180.76
439.89	7365.67
440.08	7068.42
440.26	7124.59
440.45	7190.13
440.63	7368.01
440.82	7604.40
441.01	7339.92
441.19	7541.21
441.38	7676.96
441.57	7431.20
441.75	7545.89
441.94	7833.77
442.12	7749.51
442.31	7976.55
442.50	7859.52
442.68	7726.11
442.87	7857.18
443.05	7761.22
443.24	8072.51
443.43	8042.08
443.61	8184.85
443.80	8271.45
443.98	7922.71
444.17	7768.24
444.35	8215.28
444.54	8299.54
444.73	8187.19
444.91	8131.02
445.10	8219.96
445.28	8163.79
445.47	8161.45
445.65	8077.19
445.84	8184.85
446.02	8124.00
446.21	8271.45
446.39	8081.87
446.58	8292.52
446.77	8131.02
446.95	7969.52
447.14	8095.91
447.32	8468.06
447.51	8365.07
447.69	8360.39
447.88	8191.88
448.06	8430.61
448.25	8437.63
448.43	8280.82
448.62	8245.71
448.80	8245.71
448.99	8444.65
449.17	8528.91
449.36	8482.10
449.54	8620.19
449.73	8727.86
449.91	8821.48
450.10	8629.56
450.28	8631.90
450.46	8903.40
450.65	9011.06
450.83	8917.44
451.02	8823.82
451.20	8823.82
451.39	8861.27
451.57	8854.25
451.76	8908.08
451.94	8875.31
452.13	8933.82
452.31	8940.85
452.49	8847.22
452.68	9060.21
452.86	9090.64
453.05	9074.26
453.23	9359.80
453.42	8999.36
453.60	9022.77
453.78	9282.56
453.97	8952.55
454.15	9020.42
454.34	9085.96
454.52	9451.08
454.70	9425.34
454.89	9200.65
455.07	9511.94
455.26	9415.98
455.44	9530.66
455.62	9650.03
455.81	9860.68
455.99	9664.07
456.17	9863.02
456.36	9692.16
456.54	9797.48
456.73	9905.15
456.91	9987.07
457.09	9958.98
457.28	10211.76
457.46	10092.39
457.64	9977.70
457.83	10256.23
458.01	10153.24
458.19	10300.70
458.38	10127.50
458.56	10317.08
458.74	10289.00
458.93	10347.51
459.11	10340.49
459.29	10410.70
459.48	10366.23
459.66	10530.07
459.84	10537.09
460.03	10649.44
460.21	10567.52
460.39	10530.07
460.57	10714.97
460.76	10747.74
460.94	10707.95
461.12	10824.98
461.31	10761.78
461.49	10815.62
461.67	10764.12
461.85	10867.11
462.04	10902.22
462.22	11438.20
462.40	11201.80
462.59	11131.59
462.77	11147.97
462.95	11089.46
463.13	11250.96
463.32	10878.81
463.50	11208.83
463.68	11211.17
463.86	11349.26
464.05	11098.82
464.23	11117.54
464.41	11407.77
464.59	11089.46
464.78	11686.29
464.96	11632.46
465.14	11529.48
465.32	11370.32
465.50	11534.16
465.69	11793.96
465.87	11735.45
466.05	11569.27
466.23	11543.52
466.41	11632.46
466.60	11733.11
466.78	11513.10
466.96	11737.79
467.14	11630.12
467.32	11695.66
467.51	11761.19
467.69	11468.62
467.87	12154.40
468.05	12067.80
468.23	12114.61
468.41	11941.41
468.60	12264.41
468.78	12063.12
468.96	12093.55
469.14	12318.24
469.32	12538.25
469.50	12109.93
469.69	12250.36
469.87	12542.93
470.05	12596.76
470.23	12732.51
470.41	12575.70
470.59	12776.98
470.77	12545.27
470.95	12723.15
471.14	13048.49
471.32	12657.62
471.50	12760.60
471.68	12720.81
471.86	13055.51
472.04	13123.38
472.22	13151.47
472.40	12985.29
472.58	13135.09
472.77	13317.65
472.95	13209.98
473.13	13745.97
473.31	13345.73
473.49	13640.64
473.67	13614.90
473.85	13556.38
474.03	13991.72
474.21	13942.57
474.39	14202.37
474.57	14071.30
474.75	14443.45
474.93	14361.53
475.12	14108.75
475.30	14398.98
475.48	14216.41
475.66	14513.66
475.84	14471.53
476.02	14647.07
476.20	14841.34
476.38	15082.41
476.56	15208.80
476.74	15171.35
476.92	15126.88
477.10	14920.92
477.28	15386.68
477.46	15407.75
477.64	15461.58
477.82	15735.42
478.00	16091.18
478.18	15889.90
478.36	16035.01
478.54	16283.11
478.72	16240.98
478.90	16327.58
479.08	16645.89
479.26	16798.02
479.44	17048.46
479.62	17076.55
479.80	17076.55
479.98	17205.28
480.16	17598.49
480.34	17523.59
480.52	17458.06
480.70	17776.37
480.88	17879.35
481.06	17874.67
481.24	17855.95
481.41	18068.94
481.59	18286.61
481.77	18515.98
481.95	18511.30
482.13	18778.12
482.31	18855.36
482.49	19377.30
482.67	19218.14
482.85	19353.89
483.03	19601.99
483.21	19728.38
483.39	20180.10
483.57	19534.11
483.74	20030.30
483.92	20451.60
484.10	20100.52
484.28	20507.77
484.46	21074.18
484.64	20844.81
484.82	20648.21
485.00	21160.78
485.18	21305.90
485.35	21589.10
485.53	21626.55
485.71	21827.84
485.89	22043.17
486.07	21923.80
486.25	22071.25
486.43	22235.09
486.61	22581.49
486.78	22845.97
486.96	23185.35
487.14	23236.84
487.32	23260.24
487.50	23494.30
487.68	23435.78
487.85	23770.48
488.03	24332.21
488.21	24741.80
488.39	24355.61
488.57	24769.89
488.75	24512.43
488.92	24833.08
489.10	25013.31
489.28	25167.78
489.46	25797.38
489.64	25429.92
489.81	25926.11
489.99	26099.31
490.17	26064.21
490.35	26515.93
490.53	26501.89
490.70	26913.82
490.88	26773.39
491.06	27009.78
491.24	27199.37
491.41	27269.58
491.59	27791.52
491.77	27615.98
491.95	27889.82
492.13	28383.68
492.30	28105.15
492.48	28023.23
492.66	28526.45
492.84	28755.82
493.01	28924.34
493.19	28931.36
493.37	29212.23
493.54	28943.06
493.72	29448.62
493.90	29584.37
494.08	29610.12
494.25	29858.21
494.43	30017.37
494.61	30370.79
494.79	30796.77
494.96	30611.87
495.14	30675.06
495.32	31105.72
495.49	31161.89
495.67	31274.24
495.85	31150.19
496.02	31861.71
496.20	32100.45
496.38	32224.50
496.55	31967.04
496.73	32802.61
496.91	31941.29
497.09	32779.20
497.26	32570.90
497.44	33109.22
497.62	33151.35
497.79	33338.59
497.97	33235.61
498.14	33855.85
498.32	34064.16
498.50	33881.60
498.67	34087.56
498.85	33897.98
499.03	34347.36
499.20	34323.96
499.38	34572.05
499.56	34967.60
499.73	35234.42
499.91	34754.61
500.08	35424.01
500.26	35023.78
500.44	35531.67
500.61	35728.28
500.79	35367.84
500.97	36294.69
501.14	36154.26
501.32	35936.59
501.49	35859.35
501.67	36236.17
501.84	36699.60
502.02	36624.70
502.20	36701.94
502.37	36643.43
502.55	36739.39
502.72	37242.60
502.90	37230.90
503.07	37029.62
503.25	37411.12
503.43	37291.76
503.60	37371.33
503.78	37944.76
503.95	37565.60
504.13	37446.23
504.30	38265.42
504.48	37930.72
504.65	39030.77
504.83	38394.15
505.01	38831.83
505.18	38373.08
505.36	38930.13
505.53	38625.86
505.71	38859.91
505.88	39227.38
506.06	39056.52
506.23	39779.74
506.41	39290.57
506.58	39461.43
506.76	39508.24
506.93	40011.46
507.11	39779.74
507.28	39952.94
507.46	40224.45
507.63	40226.79
507.81	40655.11
507.98	40217.43
508.16	40692.55
508.33	40669.15
508.50	40793.20
508.68	41038.95
508.85	40975.76
509.03	41301.09
509.20	41280.03
509.38	41469.61
509.55	41504.72
509.73	41453.23
509.90	42277.10
510.08	42033.68
510.25	42424.55
510.42	42059.43
510.60	42880.95
510.77	42183.48
510.95	42635.20
511.12	42333.27
511.30	43021.39
511.47	43000.32
511.64	42892.66
511.82	43398.21
511.99	42803.72
512.17	43466.09
512.34	43283.53
512.51	43430.98
512.69	43433.32
512.86	43800.79
513.04	44048.88
513.21	44088.67
513.38	43686.10
513.56	44381.24
513.73	44018.46
513.90	44418.69
514.08	43917.81
514.25	44556.78
514.43	44397.62
514.60	44540.39
514.77	44842.32
514.95	44381.24
515.12	44484.22
515.29	45071.70
515.47	45326.81
515.64	45514.06
515.81	45333.84
515.99	45368.94
516.16	45832.37
516.33	45689.60
516.51	45600.66
516.68	45787.90
516.85	46003.23
517.03	46094.51
517.20	46370.69
517.37	45771.52
517.54	46314.52
517.72	46321.54
517.89	46412.82
518.06	46351.97
518.24	46590.70
518.41	46167.07
518.58	46756.88
518.75	46752.20
518.93	46532.19
519.10	46410.48
519.27	46803.69
519.45	47281.16
519.62	47086.90
519.79	47166.48
519.96	47210.95
520.14	47578.41
520.31	47122.01
520.48	47400.53
520.65	47452.02
520.83	48083.97
521.00	48126.10
521.17	47611.18
521.34	48147.16
521.52	48208.01
521.69	47812.46
521.86	48018.43
522.03	48725.27
522.20	48051.20
522.38	48741.66
522.55	49125.50
522.72	48823.58
522.89	48463.13
523.07	49057.63
523.24	49074.01
523.41	48912.52
523.58	49148.91
523.75	49116.14
523.92	49212.10
524.10	49729.36
524.27	49617.02
524.44	49551.48
524.61	49830.01
524.78	49497.65
524.96	49698.94
525.13	49846.39
525.30	50174.06
525.47	50511.10
525.64	49853.41
525.81	49764.47
525.98	50511.10
526.16	50253.64
526.33	50277.05
526.50	50504.08
526.67	50216.19
526.84	50642.17
527.01	50581.32
527.18	50794.31
527.36	50618.77
527.53	50843.46
527.70	50363.65
527.87	50937.08
528.04	51047.08
528.21	51281.14
528.38	51143.05
528.55	51409.87
528.72	51077.51
528.89	51129.00
529.07	50986.23
529.24	50986.23
529.41	51426.25
529.58	51381.78
529.75	51442.63
529.92	51533.92
530.09	51484.76
530.26	51496.47
530.43	51423.91
530.60	51356.03
530.77	51859.25
530.94	52247.78
531.11	51892.02
531.28	51992.66
531.46	51943.51
531.63	52257.14
531.80	51718.82
531.97	51978.62
532.14	52411.62
532.31	52317.99
532.48	52495.88
532.65	52392.89
532.82	52053.51
532.99	52559.07
533.16	52095.64
533.33	52666.73
533.50	52858.66
533.67	52835.25
533.84	52563.75
534.01	52673.76
534.18	52884.40
534.35	53176.97
534.52	52809.51
534.69	53027.18
534.86	52907.81
535.03	52708.86
535.20	53249.53
535.37	53062.29
535.54	53357.19
535.71	53155.91
535.88	53741.04
536.05	53282.30
536.22	53432.09
536.38	53469.54
536.55	53563.16
536.72	53694.23
536.89	53705.93
537.06	53525.71
537.23	53792.53
537.40	53701.25
537.57	53939.99
537.74	53738.70
537.91	54040.63
538.08	53844.02
538.25	53647.42
538.42	54129.57
538.59	54031.27
538.75	54033.61
538.92	53914.24
539.09	54094.46
539.26	54199.79
539.43	53832.32
539.60	53872.11
539.77	54387.03
539.94	54805.98
540.11	54431.50
540.28	54391.71
540.44	54377.67
540.61	54511.08
540.78	54672.57
540.95	54710.02
541.12	54670.23
541.29	54506.40
541.46	55140.68
541.62	54827.05
541.79	54944.08
541.96	54820.03
542.13	54887.90
542.30	54752.15
542.47	54738.11
542.63	55086.85
542.80	55206.22
542.97	55477.72
543.14	55711.77
543.31	55365.37
543.48	55367.71
543.64	55494.10
543.81	55435.59
543.98	55407.50
544.15	55533.89
544.32	55503.46
544.48	55622.83
544.65	55700.07
544.82	55721.13
544.99	55386.44
545.16	55796.03
545.32	55693.05
545.49	55861.57
545.66	56369.46
545.83	56044.13
546.00	56044.13
546.16	56179.88
546.33	56165.84
546.50	55910.72
546.67	55990.30
546.83	55559.64
547.00	55810.07
547.17	55636.87
547.34	56170.52
547.50	56175.20
547.67	56430.32
547.84	56371.80
548.00	56425.64
548.17	56608.20
548.34	56058.17
548.51	56257.12
548.67	56552.02
548.84	56481.81
549.01	56484.15
549.18	56238.39
549.34	56896.08
549.51	56444.36
549.68	56575.43
549.84	56633.94
550.01	56647.99
550.18	56381.16
550.34	56413.93
550.51	56547.34
550.68	56495.85
550.84	56313.29
551.01	56676.07
551.18	56657.35
551.34	56364.78
551.51	56568.41
551.68	56886.72
551.84	56697.14
552.01	56746.29
552.18	56839.91
552.34	56739.27
552.51	57123.11
552.68	56863.32
552.84	56973.32
553.01	57090.35
553.18	57153.54
553.34	56879.70
553.51	56963.96
553.67	57083.33
553.84	57336.10
554.01	57205.03
554.17	57272.91
554.34	57251.84
554.51	57293.97
554.67	57261.21
554.84	57179.29
555.00	56978.00
555.17	57324.40
555.33	57183.97
555.50	57345.47
555.67	57319.72
555.83	57249.50
556.00	57434.41
556.16	57457.81
556.33	57565.48
556.50	57366.53
556.66	57455.47
556.83	57235.46
556.99	57544.41
557.16	57865.06
557.32	57801.87
557.49	57883.79
557.65	57485.90
557.82	57855.70
557.98	57794.85
558.15	57581.86
558.32	57521.01
558.48	57549.09
558.65	57829.96
558.81	57769.10
558.98	57846.34
559.14	57881.45
559.31	57773.78
559.47	57865.06
559.64	57984.43
559.80	57528.03
559.97	57612.29
560.13	57851.02
560.30	57977.41
560.46	58127.20
560.63	58066.35
560.79	58468.92
560.96	58078.05
561.12	57965.71
561.29	58045.29
561.45	57907.19
561.61	58052.31
561.78	57928.26
561.94	58251.25
562.11	58213.80
562.27	58412.75
562.44	58178.70
562.60	58286.36
562.77	58096.78
562.93	57977.41
563.10	58330.83
563.26	58178.70
563.42	58340.19
563.59	58220.83
563.75	58202.10
563.92	58468.92
564.08	58195.08
564.24	58171.67
564.41	58335.51
564.57	57851.02
564.74	58307.43
564.90	58281.68
565.07	58108.48
565.23	58450.20
565.39	58541.48
565.56	58815.32
565.72	58489.99
565.88	58548.50
566.05	58410.41
566.21	58405.73
566.38	58162.31
566.54	58445.52
566.70	58508.71
566.87	59028.31
567.03	58475.94
567.19	58726.38
567.36	58756.81
567.52	58672.55
567.68	58557.86
567.85	58534.46
568.01	58581.27
568.17	58536.80
568.34	58707.66
568.50	58649.14
568.66	58644.46
568.83	58688.93
568.99	58749.79
569.15	58850.43
569.32	58457.22
569.48	58541.48
569.64	58635.10
569.81	58443.18
569.97	58450.20
570.13	58721.70
570.30	58358.92
570.46	58426.79
570.62	58557.86
570.78	58670.21
570.95	58506.37
571.11	58986.18
571.27	58553.18
571.43	58506.37
571.60	58691.27
571.76	58639.78
571.92	58911.28
572.09	58983.84
572.25	58995.54
572.41	58789.58
572.57	58836.39
572.74	58960.44
572.90	58733.40
573.06	58784.90
573.22	58794.26
573.38	58939.37
573.55	58871.49
573.71	59187.47
573.87	58979.16
574.03	58817.66
574.20	59021.29
574.36	58993.20
574.52	58927.67
574.68	58749.79
574.84	59152.36
575.01	58946.39
575.17	59234.28
575.33	58836.39
575.49	59030.65
575.65	58997.88
575.82	59018.95
575.98	58962.78
576.14	58993.20
576.30	59159.38
576.46	59004.91
576.62	58864.47
576.79	58834.05
576.95	58937.03
577.11	59051.72
577.27	59245.98
577.43	59100.87
577.59	59143.00
577.75	58908.94
577.92	58702.98
578.08	59000.22
578.24	59014.27
578.40	59140.66
578.56	58997.88
578.72	59447.27
578.88	59227.26
579.04	59353.65
579.21	59213.21
579.37	59154.70
579.53	59482.37
579.69	58930.01
579.85	59131.29
580.01	58953.41
580.17	59203.85
580.33	59168.74
580.49	59185.13
580.65	59281.09
580.82	59522.16
580.98	59288.11
581.14	59161.72
581.30	59468.33
581.46	59044.69
581.62	59203.85
581.78	59093.85
581.94	59295.13
582.10	59091.51
582.26	59201.51
582.42	59346.62
582.58	58922.99
582.74	59318.54
582.90	59346.62
583.06	59274.07
583.22	59400.46
583.38	59180.45
583.54	59297.47
583.70	58922.99
583.86	59306.83
584.02	59049.38
584.18	59458.97
584.34	59346.62
584.50	59449.61
584.66	59255.34
584.82	59276.41
584.98	59489.40
585.14	59222.58
585.30	59133.63
585.46	59365.35
585.62	59194.49
585.78	59430.88
585.94	59159.38
586.10	59332.58
586.26	59353.65
586.42	59199.17
586.58	59407.48
586.74	59304.49
586.90	59185.13
587.06	59351.30
587.22	59545.57
587.38	59327.90
587.54	59583.02
587.70	59728.13
587.86	59419.18
588.02	59618.13
