SpectraSuite Data File
++++++++++++++++++++++++++++++++++++
Date: Thu Oct 24 13:21:05 EDT 2013
User: stostad
Dark Spectrum Present: No
Reference Spectrum Present: No
Number of Sampled Component Spectra: 1
Spectrometers: USB2+H05261
Integration Time (usec): 100000 (USB2+H05261)
Spectra Averaged: 1 (USB2+H05261)
Boxcar Smoothing: 0 (USB2+H05261)
Correct for Electrical Dark: No (USB2+H05261)
Strobe/Lamp Enabled: No (USB2+H05261)
Correct for Detector Non-linearity: No (USB2+H05261)
Correct for Stray Light: No (USB2+H05261)
Number of Pixels in Processed Spectrum: 2048
>>>>>Begin Processed Spectral Data<<<<<
365.73	596.84
365.92	596.84
366.12	596.84
366.32	547.69
366.52	482.15
366.72	456.40
366.91	430.66
367.11	430.66
367.31	493.85
367.51	428.32
367.70	454.06
367.90	435.34
368.10	449.38
368.30	477.47
368.49	421.30
368.69	477.47
368.89	477.47
369.09	447.04
369.28	503.22
369.48	447.04
369.68	538.32
369.87	519.60
370.07	524.28
370.27	571.09
370.47	634.29
370.66	746.63
370.86	653.01
371.06	706.84
371.25	732.59
371.45	713.86
371.65	786.42
371.84	770.04
372.04	772.38
372.24	685.78
372.44	737.27
372.63	748.97
372.83	821.53
373.03	763.01
373.22	784.08
373.42	751.31
373.62	765.36
373.81	744.29
374.01	784.08
374.21	866.00
374.40	781.74
374.60	779.40
374.79	777.06
374.99	837.91
375.19	784.08
375.38	781.74
375.58	851.96
375.78	812.17
375.97	830.89
376.17	912.81
376.37	826.21
376.56	777.06
376.76	833.23
376.95	777.06
377.15	760.67
377.35	800.46
377.54	786.42
377.74	830.89
377.93	840.25
378.13	741.95
378.33	896.43
378.52	809.83
378.72	844.93
378.91	837.91
379.11	858.98
379.31	767.70
379.50	809.83
379.70	840.25
379.89	880.04
380.09	816.85
380.28	856.64
380.48	842.59
380.68	891.74
380.87	858.98
381.07	887.06
381.26	830.89
381.46	851.96
381.65	835.57
381.85	863.66
382.04	833.23
382.24	905.79
382.43	880.04
382.63	868.34
382.83	954.94
383.02	926.85
383.22	905.79
383.41	823.87
383.61	873.02
383.80	903.45
384.00	868.34
384.19	849.61
384.39	877.70
384.58	844.93
384.78	875.36
384.97	908.13
385.17	973.66
385.36	870.68
385.56	847.27
385.75	901.11
385.95	938.55
386.14	884.72
386.34	896.43
386.53	910.47
386.72	868.34
386.92	950.26
387.11	940.90
387.31	929.19
387.50	966.64
387.70	894.08
387.89	978.34
388.09	952.60
388.28	1004.09
388.48	929.19
388.67	945.58
388.86	880.04
389.06	945.58
389.25	950.26
389.45	1020.47
389.64	938.55
389.84	1001.75
390.03	997.07
390.22	1041.54
390.42	1027.50
390.61	1029.84
390.81	966.64
391.00	978.34
391.19	985.37
391.39	954.94
391.58	990.05
391.78	973.66
391.97	1053.24
392.16	1048.56
392.36	1097.71
392.55	1086.01
392.75	997.07
392.94	1018.13
393.13	1050.90
393.33	1013.45
393.52	1036.86
393.71	1064.94
393.91	1118.78
394.10	1027.50
394.29	1060.26
394.49	1015.79
394.68	1074.31
394.88	1090.69
395.07	1128.14
395.26	1074.31
395.46	1149.20
395.65	1083.67
395.84	1041.54
396.04	1156.22
396.23	1160.91
396.42	1125.80
396.62	1109.41
396.81	1151.54
397.00	1139.84
397.19	1191.33
397.39	1196.01
397.58	1128.14
397.77	1165.59
397.97	1149.20
398.16	1144.52
398.35	1170.27
398.55	1076.65
398.74	1078.99
398.93	1207.72
399.12	1212.40
399.32	1165.59
399.51	1170.27
399.70	1114.10
399.90	1212.40
400.09	1224.10
400.28	1259.21
400.47	1235.80
400.67	1167.93
400.86	1188.99
401.05	1233.46
401.24	1245.16
401.44	1280.27
401.63	1200.69
401.82	1313.04
402.01	1174.95
402.21	1291.98
402.40	1291.98
402.59	1268.57
402.78	1303.68
402.97	1315.38
403.17	1306.02
403.36	1282.61
403.55	1306.02
403.74	1277.93
403.93	1432.41
404.13	1458.15
404.32	1371.55
404.51	1387.94
404.70	1385.60
404.89	1352.83
405.09	1413.68
405.28	1387.94
405.47	1444.11
405.66	1345.81
405.85	1359.85
406.05	1416.02
406.24	1369.21
406.43	1411.34
406.62	1446.45
406.81	1476.88
407.00	1399.64
407.20	1357.51
407.39	1507.30
407.58	1451.13
407.77	1432.41
407.96	1460.49
408.15	1451.13
408.34	1493.26
408.54	1504.96
408.73	1507.30
408.92	1607.95
409.11	1600.93
409.30	1572.84
409.49	1631.35
409.68	1514.33
409.87	1556.46
410.07	1540.07
410.26	1657.10
410.45	1556.46
410.64	1619.65
410.83	1554.12
411.02	1568.16
411.21	1659.44
411.40	1666.46
411.59	1584.54
411.78	1706.25
411.98	1626.67
412.17	1699.23
412.36	1671.14
412.55	1778.81
412.74	1769.44
412.93	1710.93
413.12	1755.40
413.31	1771.79
413.50	1811.57
413.69	1696.89
413.88	1799.87
414.07	1778.81
414.26	1813.92
414.45	1799.87
414.64	1825.62
414.83	1860.73
415.02	1853.70
415.22	1863.07
415.41	1832.64
415.60	1877.11
415.79	1975.41
415.98	2050.31
416.17	1905.20
416.36	1865.41
416.55	1973.07
416.74	2022.22
416.93	1905.20
417.12	2003.50
417.31	1980.09
417.50	2019.88
417.69	2033.93
417.88	2059.67
418.07	1973.07
418.26	2012.86
418.45	2071.37
418.64	2099.46
418.83	2129.89
419.02	2047.97
419.21	2125.21
419.39	2083.08
419.58	2066.69
419.77	2094.78
419.96	2132.23
420.15	2186.06
420.34	2080.74
420.53	2165.00
420.72	2230.53
420.91	2260.96
421.10	2094.78
421.29	2296.07
421.48	2139.25
421.67	2190.74
421.86	2190.74
422.05	2179.04
422.24	2214.15
422.43	2275.00
422.61	2160.31
422.80	2122.87
422.99	2275.00
423.18	2293.72
423.37	2317.13
423.56	2267.98
423.75	2289.04
423.94	2242.23
424.13	2162.66
424.32	2190.74
424.50	2251.60
424.69	2214.15
424.88	2354.58
425.07	2202.44
425.26	2263.30
425.45	2324.15
425.64	2352.24
425.83	2289.04
426.01	2289.04
426.20	2401.39
426.39	2296.07
426.58	2382.67
426.77	2392.03
426.96	2352.24
427.15	2314.79
427.33	2328.83
427.52	2282.02
427.71	2401.39
427.90	2319.47
428.09	2286.70
428.28	2377.98
428.46	2420.11
428.65	2307.77
428.84	2445.86
429.03	2478.63
429.22	2310.11
429.40	2422.45
429.59	2396.71
429.78	2424.80
429.97	2312.45
430.16	2548.84
430.34	2487.99
430.53	2450.54
430.72	2516.08
430.91	2476.29
431.10	2457.56
431.28	2548.84
431.47	2560.55
431.66	2527.78
431.85	2513.74
432.03	2438.84
432.22	2656.51
432.41	2523.10
432.60	2710.34
432.79	2651.83
432.97	2649.49
433.16	2534.80
433.35	2555.86
433.54	2661.19
433.72	2743.11
433.91	2668.21
434.10	2647.15
434.28	2668.21
434.47	2778.22
434.66	2677.57
434.85	2686.94
435.03	2860.13
435.22	2944.39
435.41	3208.87
435.59	3035.67
435.78	2970.14
435.97	2890.56
436.16	2846.09
436.34	2745.45
436.53	2839.07
436.72	2897.58
436.90	2850.77
437.09	2871.84
437.28	2825.03
437.46	2850.77
437.65	2832.05
437.84	2829.71
438.02	2792.26
438.21	2899.92
438.40	2832.05
438.58	2942.05
438.77	2911.63
438.96	2885.88
439.14	2928.01
439.33	3035.67
439.52	2977.16
439.70	3080.14
439.89	3101.21
440.08	2993.55
440.26	3215.90
440.45	3066.10
440.63	2972.48
440.82	3148.02
441.01	3201.85
441.19	3152.70
441.38	3199.51
441.57	3194.83
441.75	3232.28
441.94	3314.20
442.12	3304.84
442.31	3391.44
442.50	3307.18
442.68	3197.17
442.87	3449.95
443.05	3356.33
443.24	3463.99
443.43	3314.20
443.61	3300.16
443.80	3356.33
443.98	3328.24
444.17	3321.22
444.35	3368.03
444.54	3403.14
444.73	3318.88
444.91	3379.73
445.10	3480.38
445.28	3353.99
445.47	3510.80
445.65	3515.48
445.84	3468.67
446.02	3403.14
446.21	3517.83
446.39	3545.91
446.58	3433.57
446.77	3419.52
446.95	3361.01
447.14	3346.97
447.32	3510.80
447.51	3435.91
447.69	3485.06
447.88	3487.40
448.06	3606.77
448.25	3459.31
448.43	3562.30
448.62	3435.91
448.80	3499.10
448.99	3456.97
449.17	3646.55
449.36	3552.93
449.54	3541.23
449.73	3686.34
449.91	3548.25
450.10	3515.48
450.28	3651.24
450.46	3637.19
450.65	3721.45
450.83	3562.30
451.02	3637.19
451.20	3826.78
451.39	3693.37
451.57	3735.50
451.76	3665.28
451.94	3660.60
452.13	3822.09
452.31	3728.47
452.49	3794.01
452.68	3651.24
452.86	3723.79
453.05	3775.28
453.23	3749.54
453.42	3756.56
453.60	3658.26
453.78	3744.86
453.97	3772.94
454.15	3871.25
454.34	3789.33
454.52	3836.14
454.70	3810.39
454.89	3974.23
455.07	3866.56
455.26	3978.91
455.44	3906.35
455.62	3887.63
455.81	3943.80
455.99	3992.95
456.17	3962.53
456.36	3964.87
456.54	4025.72
456.73	4044.45
456.91	4114.66
457.09	3990.61
457.28	4060.83
457.46	4163.81
457.64	4182.54
457.83	4004.66
458.01	4098.28
458.19	4112.32
458.38	4161.47
458.56	4049.13
458.74	4140.41
458.93	4219.99
459.11	4329.99
459.29	4112.32
459.48	4222.33
459.66	4306.59
459.84	4133.39
460.03	4381.48
460.21	4355.74
460.39	4362.76
460.57	4315.95
460.76	4231.69
460.94	4348.72
461.12	4280.84
461.31	4327.65
461.49	4355.74
461.67	4334.67
461.85	4369.78
462.04	4362.76
462.22	4732.56
462.40	4514.89
462.59	4521.92
462.77	4367.44
462.95	4482.13
463.13	4463.40
463.32	4627.24
463.50	4514.89
463.68	4486.81
463.86	4601.49
464.05	4561.70
464.23	4538.30
464.41	4533.62
464.59	4496.17
464.78	4678.73
464.96	4592.13
465.14	4582.77
465.32	4617.88
465.50	4737.24
465.69	4627.24
465.87	4690.43
466.05	4547.66
466.23	4559.36
466.41	4564.04
466.60	4798.10
466.78	4695.11
466.96	4711.50
467.14	4660.01
467.32	4762.99
467.51	4711.50
467.69	4657.67
467.87	4709.16
468.05	4957.25
468.23	4744.27
468.41	4723.20
468.60	4718.52
468.78	4870.65
468.96	4842.57
469.14	4947.89
469.32	4880.02
469.50	4943.21
469.69	4891.72
469.87	4964.28
470.05	4964.28
470.23	5013.43
470.41	5013.43
470.59	5090.67
470.77	5188.97
470.95	4964.28
471.14	5041.51
471.32	5034.49
471.50	5118.75
471.68	5156.20
471.86	5114.07
472.04	5329.40
472.22	5387.91
472.40	5210.03
472.58	5270.89
472.77	5247.48
472.95	5362.17
473.13	5603.24
473.31	5256.84
473.49	5165.56
473.67	5167.90
473.85	5460.47
474.03	5460.47
474.21	5481.53
474.39	5530.69
474.57	5579.84
474.75	5626.65
474.93	5486.22
475.12	5572.82
475.30	5526.00
475.48	5509.62
475.66	5556.43
475.84	5734.31
476.02	5659.42
476.20	5535.37
476.38	5860.70
476.56	5746.02
476.74	5764.74
476.92	5933.26
477.10	6008.16
477.28	5797.51
477.46	5872.40
477.64	6050.28
477.82	6111.14
478.00	6181.35
478.18	6209.44
478.36	6150.93
478.54	6139.23
478.72	6452.86
478.90	6373.28
479.08	6333.49
479.26	6382.64
479.44	6368.60
479.62	6506.69
479.80	6483.28
479.98	6600.31
480.16	6649.46
480.34	6621.38
480.52	6817.98
480.70	6750.10
480.88	6726.70
481.06	6691.59
481.24	6796.92
481.41	6871.81
481.59	7028.63
481.77	7096.50
481.95	7190.13
482.13	7166.72
482.31	7129.27
482.49	7363.33
482.67	7279.07
482.85	7363.33
483.03	7391.41
483.21	7360.98
483.39	7578.65
483.57	7510.78
483.74	7609.08
483.92	7609.08
484.10	7681.64
484.28	7801.01
484.46	7833.77
484.64	8063.15
484.82	7934.42
485.00	8184.85
485.18	8081.87
485.35	8241.03
485.53	8006.97
485.71	8259.75
485.89	8315.92
486.07	8344.01
486.25	8372.10
486.43	8355.71
486.61	8631.90
486.78	8545.30
486.96	8498.49
487.14	8650.62
487.32	8936.17
487.50	8861.27
487.68	8805.10
487.85	8961.91
488.03	8954.89
488.21	9240.44
488.39	9254.48
488.57	9268.52
488.75	9235.75
488.92	9245.12
489.10	9589.17
489.28	9495.55
489.46	9336.40
489.64	9589.17
489.81	9481.51
489.99	9586.83
490.17	9635.99
490.35	10010.47
490.53	10008.13
490.70	9856.00
490.88	9923.87
491.06	10047.92
491.24	10078.35
491.41	10033.88
491.59	10214.10
491.77	10230.48
491.95	10363.89
492.13	10228.14
492.30	10544.11
492.48	10443.47
492.66	10490.28
492.84	10588.58
493.01	10740.72
493.19	10738.38
493.37	10855.40
493.54	10719.65
493.72	10853.06
493.90	10747.74
494.08	10986.47
494.25	10911.58
494.43	11208.83
494.61	11164.36
494.79	11098.82
494.96	11122.23
495.14	11178.40
495.32	11297.77
495.49	11524.80
495.67	11377.34
495.85	11419.47
496.02	11655.87
496.20	11620.76
496.38	11482.67
496.55	11683.95
496.73	11758.85
496.91	11836.09
497.09	11887.58
497.26	11892.26
497.44	11946.09
497.62	12114.61
497.79	12287.81
497.97	12257.39
498.14	12402.50
498.32	12156.74
498.50	12266.75
498.67	12596.76
498.85	12512.50
499.03	12601.44
499.20	12517.18
499.38	12353.35
499.56	12678.68
499.73	12631.87
499.91	12662.30
500.08	12662.30
500.26	12580.38
500.44	12774.64
500.61	12989.97
500.79	12959.55
500.97	13071.89
501.14	13158.49
501.32	13036.78
501.49	13067.21
501.67	13121.04
501.84	13277.86
502.02	13069.55
502.20	13420.63
502.37	13371.48
502.55	13392.55
502.72	13458.08
502.90	13551.70
503.07	13408.93
503.25	13785.76
503.43	13474.46
503.60	13528.30
503.78	13525.96
503.95	13336.37
504.13	13713.20
504.30	13806.82
504.48	13680.43
504.65	13980.02
504.83	13965.98
505.01	14036.19
505.18	14150.88
505.36	14249.18
505.53	13886.40
505.71	14263.22
505.88	14232.80
506.06	14190.67
506.23	14291.31
506.41	14230.46
506.58	14342.80
506.76	14293.65
506.93	14094.71
507.11	14675.16
507.28	14607.28
507.46	14366.21
507.63	14450.47
507.81	14616.65
507.98	14593.24
508.16	14644.73
508.33	14583.88
508.50	14640.05
508.68	15033.26
508.85	15201.78
509.03	14773.46
509.20	14817.93
509.38	15000.49
509.55	15169.01
509.73	15051.99
509.90	14998.15
510.08	15122.20
510.25	15218.16
510.42	15260.29
510.60	15300.08
510.77	15281.36
510.95	15143.27
511.12	15475.62
511.30	15367.96
511.47	15468.60
511.64	15552.86
511.82	15707.34
511.99	15435.83
512.17	15569.24
512.34	15616.05
512.51	15793.94
512.69	15953.09
512.86	15941.39
513.04	16030.33
513.21	15992.88
513.38	15901.60
513.56	16147.36
513.73	16086.50
513.90	16079.48
514.08	16114.59
514.25	16098.20
514.43	16276.09
514.60	16154.38
514.77	16346.30
514.95	16304.17
515.12	16372.05
515.29	16535.88
515.47	16381.41
515.64	16706.74
515.81	16325.24
515.99	16828.45
516.16	16659.93
516.33	16739.51
516.51	16746.53
516.68	16512.48
516.85	16840.15
517.03	16711.42
517.20	17043.78
517.37	16755.90
517.54	16863.56
517.72	16627.17
517.89	16746.53
518.06	16912.71
518.24	16952.50
518.41	17242.73
518.58	17020.38
518.75	16875.26
518.93	17015.69
519.10	16762.92
519.27	17263.79
519.45	17195.92
519.62	17249.75
519.79	17488.48
519.96	17165.49
520.14	17563.38
520.31	17331.67
520.48	17371.46
520.65	17310.60
520.83	17647.64
521.00	17657.00
521.17	17547.00
521.34	17654.66
521.52	17500.19
521.69	17542.32
521.86	17661.68
522.03	17495.50
522.20	17621.89
522.38	18005.74
522.55	17589.13
522.72	17862.97
522.89	17841.90
523.07	17984.68
523.24	17935.53
523.41	17659.34
523.58	17834.88
523.75	18010.42
523.92	18253.84
524.10	18057.23
524.27	17989.36
524.44	18258.52
524.61	18174.26
524.78	17958.93
524.96	18651.73
525.13	18396.61
525.30	18455.12
525.47	18405.97
525.64	18651.73
525.81	18319.37
525.98	18244.48
526.16	18420.02
526.33	18324.05
526.50	18595.56
526.67	18370.86
526.84	18604.92
527.01	18637.69
527.18	18733.65
527.36	18487.89
527.53	18728.97
527.70	19061.32
527.87	18822.59
528.04	19206.44
528.21	19070.68
528.38	19178.35
528.55	19115.16
528.72	18625.98
528.89	18857.70
529.07	19042.60
529.24	18647.05
529.41	18848.33
529.58	18836.63
529.75	18930.25
529.92	19197.07
530.09	19108.13
530.26	19145.58
530.43	19208.78
530.60	19047.28
530.77	18984.09
530.94	19164.31
531.11	19255.59
531.28	19590.28
531.46	19435.81
531.63	19527.09
531.80	19204.10
531.97	19623.05
532.14	19487.30
532.31	19213.46
532.48	19527.09
532.65	19552.84
532.82	19529.43
532.99	19332.82
533.16	19538.79
533.33	19440.49
533.50	19810.29
533.67	19702.63
533.84	19599.65
534.01	19672.20
534.18	19447.51
534.35	20018.60
534.52	19711.99
534.69	20053.71
534.86	19892.21
535.03	19997.54
535.20	20084.14
535.37	20180.10
535.54	19950.73
535.71	19946.05
535.88	19878.17
536.05	20322.87
536.22	20446.92
536.38	20238.61
536.55	20210.53
536.72	20318.19
536.89	20191.80
537.06	20350.96
537.23	20276.06
537.40	20395.43
537.57	20140.31
537.74	20318.19
537.91	20641.18
538.08	20631.82
538.25	20294.79
538.42	20278.40
538.59	20634.16
538.75	20435.22
538.92	20467.98
539.09	20798.00
539.26	20334.57
539.43	20533.52
539.60	20669.27
539.77	20411.81
539.94	20856.51
540.11	20826.09
540.28	20964.18
540.44	21010.99
540.61	21032.05
540.78	20720.76
540.95	21025.03
541.12	21081.21
541.29	21219.30
541.46	21399.52
541.62	21439.31
541.79	21802.09
541.96	21165.46
542.13	21525.91
542.30	21439.31
542.47	21458.03
542.63	21467.39
542.80	21586.76
542.97	21666.34
543.14	21982.31
543.31	21647.61
543.48	21656.98
543.64	21717.83
543.81	21888.69
543.98	21881.67
544.15	21788.05
544.32	21954.22
544.48	21820.81
544.65	21577.40
544.82	22071.25
544.99	21549.31
545.16	21855.92
545.32	22391.91
545.49	22614.26
545.66	22829.59
545.83	22775.75
546.00	22857.67
546.16	22239.77
546.33	22174.24
546.50	22134.45
546.67	22326.37
546.83	21766.98
547.00	21802.09
547.17	21954.22
547.34	21783.37
547.50	21823.16
547.67	22260.84
547.84	22132.11
548.00	22293.60
548.17	21926.14
548.34	21687.40
548.51	22270.20
548.67	22134.45
548.84	22082.95
549.01	22256.15
549.18	22164.87
549.34	22251.47
549.51	22249.13
549.68	22319.35
549.84	22064.23
550.01	22068.91
550.18	22228.07
550.34	21799.75
550.51	22434.03
550.68	22307.65
550.84	22167.21
551.01	22150.83
551.18	22281.90
551.34	22328.71
551.51	22010.40
551.68	22225.73
551.84	22136.79
552.01	21680.38
552.18	22284.24
552.34	22464.46
552.51	22422.33
552.68	22221.05
552.84	22340.41
553.01	22338.07
553.18	22422.33
553.34	22237.43
553.51	22455.10
553.67	22342.75
553.84	22506.59
554.01	22544.04
554.17	22228.07
554.34	22672.77
554.51	22405.95
554.67	22843.63
554.84	22522.98
555.00	22450.42
555.17	22073.59
555.33	22576.81
555.50	22380.20
555.67	22501.91
555.83	22223.39
556.00	22618.94
556.16	23028.53
556.33	22855.33
556.50	22813.20
556.66	22214.02
556.83	22703.20
556.99	22661.07
557.16	22630.64
557.32	22761.71
557.49	22792.14
557.65	22913.84
557.82	22829.59
557.98	22724.26
558.15	22539.36
558.32	22712.56
558.48	22595.53
558.65	23019.17
558.81	22740.64
558.98	23023.85
559.14	22663.41
559.31	22661.07
559.47	22752.35
559.64	23110.45
559.80	23328.12
559.97	22925.55
560.13	22750.01
560.30	23023.85
560.46	22927.89
560.63	23271.95
560.79	23117.47
560.96	23068.32
561.12	23133.86
561.29	22960.66
561.45	22984.06
561.61	23190.03
561.78	23215.77
561.94	23119.81
562.11	23030.87
562.27	23129.17
562.44	23346.84
562.60	23393.65
562.77	22934.91
562.93	22724.26
563.10	23440.47
563.26	23042.57
563.42	23470.89
563.59	23218.11
563.75	23194.71
563.92	23718.99
564.08	23285.99
564.24	23204.07
564.41	23110.45
564.57	23197.05
564.74	23302.37
564.90	23065.98
565.07	23323.44
565.23	23204.07
565.39	23023.85
565.56	23304.71
565.72	23105.77
565.88	23391.31
566.05	23290.67
566.21	23206.41
566.38	23087.04
566.54	23250.88
566.70	23246.20
566.87	23393.65
567.03	23850.06
567.19	23562.17
567.36	23428.76
567.52	23384.29
567.68	23648.77
567.85	23096.41
568.01	23637.07
568.17	23164.28
568.34	23318.76
568.50	23070.66
568.66	23257.90
568.83	23412.38
568.99	23524.72
569.15	23463.87
569.32	23248.54
569.48	23330.46
569.64	23833.68
569.81	23056.62
569.97	23403.02
570.13	23473.23
570.30	23681.54
570.46	23728.35
570.62	23077.68
570.78	23534.09
570.95	23365.57
571.11	23447.49
571.27	23566.85
571.43	23328.12
571.60	23520.04
571.76	23403.02
571.92	23253.22
572.09	23440.47
572.25	23730.69
572.41	23777.50
572.57	23978.79
572.74	23510.68
572.90	23452.17
573.06	23646.43
573.22	23201.73
573.38	23690.90
573.55	23538.77
573.71	23491.96
573.87	23550.47
574.03	23550.47
574.20	23950.70
574.36	23541.11
574.52	23440.47
574.68	23676.86
574.84	23894.53
575.01	23447.49
575.17	23618.35
575.33	23627.71
575.49	23716.65
575.65	23683.88
575.82	23810.27
575.98	23922.62
576.14	23585.58
576.30	23917.93
576.46	23704.95
576.62	24046.66
576.79	23674.52
576.95	23669.84
577.11	23543.45
577.27	23997.51
577.43	23817.29
577.59	23349.18
577.75	23529.41
577.92	23349.18
578.08	23768.14
578.24	23903.89
578.40	23871.12
578.56	24119.22
578.72	23978.79
578.88	24130.92
579.04	24084.11
579.21	23714.31
579.37	23985.81
579.53	23763.46
579.69	23777.50
579.85	24041.98
580.01	23896.87
580.17	23978.79
580.33	23676.86
580.49	23623.03
580.65	23847.72
580.82	23857.08
580.98	23318.76
581.14	23599.62
581.30	23414.72
581.46	23611.32
581.62	23889.85
581.78	23700.26
581.94	23763.46
582.10	23534.09
582.26	23639.41
582.42	23803.25
582.58	23941.34
582.74	24077.09
582.90	23742.39
583.06	23845.38
583.22	23793.89
583.38	23981.13
583.54	23798.57
583.70	23885.17
583.86	23906.23
584.02	23796.23
584.18	23850.06
584.34	23718.99
584.50	23667.50
584.66	23445.15
584.82	23960.06
584.98	24212.84
585.14	23627.71
585.30	23812.61
585.46	24081.77
585.62	23665.16
585.78	23831.33
585.94	23878.15
586.10	23702.61
586.26	23796.23
586.42	24058.37
586.58	24154.33
586.74	23985.81
586.90	23882.83
587.06	23910.91
587.22	24105.18
587.38	23777.50
587.54	24325.19
587.70	24276.04
587.86	24184.76
588.02	23742.39
588.18	24159.01
588.34	24297.10
588.49	23634.73
588.65	23896.87
588.81	23903.89
588.97	23887.51
589.13	23906.23
589.29	23831.33
589.45	24093.47
589.61	24219.86
589.77	23934.32
589.93	24039.64
590.08	24283.06
590.24	24393.06
590.40	24147.31
590.56	24056.03
590.72	23946.02
590.88	23606.64
