SpectraSuite Data File
++++++++++++++++++++++++++++++++++++
Date: Thu Oct 24 13:21:21 EDT 2013
User: stostad
Dark Spectrum Present: No
Reference Spectrum Present: No
Number of Sampled Component Spectra: 1
Spectrometers: USB2+H05261
Integration Time (usec): 100000 (USB2+H05261)
Spectra Averaged: 1 (USB2+H05261)
Boxcar Smoothing: 0 (USB2+H05261)
Correct for Electrical Dark: No (USB2+H05261)
Strobe/Lamp Enabled: No (USB2+H05261)
Correct for Detector Non-linearity: No (USB2+H05261)
Correct for Stray Light: No (USB2+H05261)
Number of Pixels in Processed Spectrum: 2048
>>>>>Begin Processed Spectral Data<<<<<
365.73	603.86
365.92	603.86
366.12	603.86
366.32	472.79
366.52	449.38
366.72	470.45
366.91	458.74
367.11	477.47
367.31	423.64
367.51	393.21
367.70	491.51
367.90	475.13
368.10	484.49
368.30	491.51
368.49	503.22
368.69	475.13
368.89	463.43
369.09	486.83
369.28	496.19
369.48	526.62
369.68	470.45
369.87	514.92
370.07	521.94
370.27	533.64
370.47	585.13
370.66	821.53
370.86	898.77
371.06	807.48
371.25	901.11
371.45	950.26
371.65	912.81
371.84	997.07
372.04	901.11
372.24	901.11
372.44	940.90
372.63	966.64
372.83	961.96
373.03	1011.11
373.22	947.92
373.42	1064.94
373.62	1013.45
373.81	1034.52
374.01	1011.11
374.21	1025.15
374.40	1011.11
374.60	999.41
374.79	1034.52
374.99	1034.52
375.19	1078.99
375.38	961.96
375.58	1048.56
375.78	997.07
375.97	1067.28
376.17	1064.94
376.37	1078.99
376.56	1055.58
376.76	1055.58
376.95	1015.79
377.15	1160.91
377.35	1067.28
377.54	1060.26
377.74	978.34
377.93	1088.35
378.13	1046.22
378.33	1135.16
378.52	1086.01
378.72	1093.03
378.91	1139.84
379.11	1142.18
379.31	1116.44
379.50	1156.22
379.70	1078.99
379.89	1158.57
380.09	1020.47
380.28	1177.29
380.48	1132.82
380.68	1210.06
380.87	1177.29
381.07	1193.67
381.26	1151.54
381.46	1186.65
381.65	1212.40
381.85	1132.82
382.04	1212.40
382.24	1188.99
382.43	1203.04
382.63	1111.75
382.83	1135.16
383.02	1224.10
383.22	1226.44
383.41	1170.27
383.61	1301.34
383.80	1238.14
384.00	1235.80
384.19	1196.01
384.39	1259.21
384.58	1210.06
384.78	1221.76
384.97	1242.82
385.17	1254.53
385.36	1226.44
385.56	1310.70
385.75	1324.74
385.95	1306.02
386.14	1343.47
386.34	1275.59
386.53	1331.76
386.72	1313.04
386.92	1357.51
387.11	1296.66
387.31	1226.44
387.50	1364.53
387.70	1277.93
387.89	1336.45
388.09	1387.94
388.28	1366.87
388.48	1317.72
388.67	1401.98
388.86	1306.02
389.06	1362.19
389.25	1404.32
389.45	1313.04
389.64	1425.39
389.84	1455.81
390.03	1472.20
390.22	1432.41
390.42	1439.43
390.61	1441.77
390.81	1486.24
391.00	1481.56
391.19	1535.39
391.39	1460.49
391.58	1519.01
391.78	1390.28
391.97	1481.56
392.16	1455.81
392.36	1636.03
392.55	1511.99
392.75	1430.07
392.94	1460.49
393.13	1568.16
393.33	1582.20
393.52	1612.63
393.71	1657.10
393.91	1619.65
394.10	1626.67
394.29	1542.41
394.49	1582.20
394.68	1593.90
394.88	1633.69
395.07	1605.61
395.26	1722.63
395.46	1694.55
395.65	1696.89
395.84	1624.33
396.04	1664.12
396.23	1771.79
396.42	1710.93
396.62	1797.53
396.81	1755.40
397.00	1802.21
397.19	1774.13
397.39	1830.30
397.58	1839.66
397.77	1785.83
397.97	1816.26
398.16	1771.79
398.35	1867.75
398.55	1832.64
398.74	1842.00
398.93	1933.28
399.12	1832.64
399.32	1893.49
399.51	1818.60
399.70	1905.20
399.90	1900.52
400.09	1891.15
400.28	2017.54
400.47	2005.84
400.67	2019.88
400.86	1998.82
401.05	2062.01
401.24	2026.90
401.44	2069.03
401.63	2064.35
401.82	2038.61
402.01	2069.03
402.21	2099.46
402.40	2148.61
402.59	2078.40
402.78	2087.76
402.97	2127.55
403.17	2132.23
403.36	2235.21
403.55	2270.32
403.74	2204.78
403.93	2286.70
404.13	2326.49
404.32	2279.68
404.51	2331.17
404.70	2326.49
404.89	2160.31
405.09	2303.09
405.28	2345.22
405.47	2284.36
405.66	2310.11
405.85	2317.13
406.05	2260.96
406.24	2310.11
406.43	2368.62
406.62	2424.80
406.81	2499.69
407.00	2478.63
407.20	2443.52
407.39	2476.29
407.58	2499.69
407.77	2532.46
407.96	2495.01
408.15	2541.82
408.34	2462.24
408.54	2572.25
408.73	2621.40
408.92	2647.15
409.11	2586.29
409.30	2677.57
409.49	2635.44
409.68	2705.66
409.87	2689.28
410.07	2736.09
410.26	2885.88
410.45	2860.13
410.64	2780.56
410.83	2696.30
411.02	2871.84
411.21	2960.78
411.40	2782.90
411.59	2871.84
411.78	2813.32
411.98	2853.11
412.17	2839.07
412.36	2991.20
412.55	3019.29
412.74	3096.53
412.93	3091.85
413.12	2951.42
413.31	3316.54
413.50	3159.72
413.69	3141.00
413.88	3169.09
414.07	3262.71
414.26	3232.28
414.45	3295.47
414.64	3337.60
414.83	3349.31
415.02	3290.79
415.22	3456.97
415.41	3253.34
415.60	3286.11
415.79	3475.70
415.98	3513.14
416.17	3468.67
416.36	3454.63
416.55	3569.32
416.74	3480.38
416.93	3632.51
417.12	3676.98
417.31	3618.47
417.50	3669.96
417.69	3705.07
417.88	3686.34
418.07	3782.31
418.26	3801.03
418.45	3864.22
418.64	3901.67
418.83	3805.71
419.02	3864.22
419.21	3861.88
419.39	3948.48
419.58	3911.04
419.77	3880.61
419.96	3920.40
420.15	3939.12
420.34	4051.47
420.53	4028.06
420.72	4046.79
420.91	3932.10
421.10	4212.96
421.29	4203.60
421.48	4079.55
421.67	4170.83
421.86	4140.41
422.05	4142.75
422.24	4170.83
422.43	4114.66
422.61	4084.23
422.80	4362.76
422.99	4306.59
423.18	4119.34
423.37	4283.18
423.56	4341.69
423.75	4341.69
423.94	4262.12
424.13	4021.04
424.32	4084.23
424.50	4386.16
424.69	4337.01
424.88	4430.63
425.07	4304.25
425.26	4304.25
425.45	4358.08
425.64	4196.58
425.83	4191.90
426.01	4397.87
426.20	4301.90
426.39	4395.53
426.58	4463.40
426.77	4318.29
426.96	4320.63
427.15	4444.68
427.33	4411.91
427.52	4589.79
427.71	4465.74
427.90	4578.09
428.09	4601.49
428.28	4617.88
428.46	4538.30
428.65	4631.92
428.84	4772.35
429.03	4554.68
429.22	4599.15
429.40	4587.45
429.59	4770.01
429.78	4587.45
429.97	4493.83
430.16	4833.21
430.34	4765.33
430.53	4664.69
430.72	4851.93
430.91	4940.87
431.10	4746.61
431.28	4924.49
431.47	4947.89
431.66	4894.06
431.85	4947.89
432.03	4992.36
432.22	5008.75
432.41	4931.51
432.60	4959.60
432.79	5032.15
432.97	5158.54
433.16	4983.00
433.35	5114.07
433.54	5071.94
433.72	5093.01
433.91	5158.54
434.10	5158.54
434.28	5289.61
434.47	5158.54
434.66	5371.53
434.85	5329.40
435.03	5488.56
435.22	5392.59
435.41	5755.38
435.59	5624.31
435.78	5598.56
435.97	5518.98
436.16	5465.15
436.34	5376.21
436.53	5533.03
436.72	5598.56
436.90	5305.99
437.09	5582.18
437.28	5380.89
437.46	5504.94
437.65	5610.26
437.84	5621.97
438.02	5689.84
438.21	5722.61
438.40	5685.16
438.58	5942.62
438.77	5893.47
438.96	5743.67
439.14	6136.88
439.33	5902.83
439.52	5877.09
439.70	5926.24
439.89	6136.88
440.08	6171.99
440.26	6195.40
440.45	6200.08
440.63	6223.48
440.82	6289.02
441.01	6356.90
441.19	6370.94
441.38	6511.37
441.57	6459.88
441.75	6504.35
441.94	6532.44
442.12	6595.63
442.31	6684.57
442.50	6586.27
442.68	6766.49
442.87	6607.33
443.05	6750.10
443.24	6855.43
443.43	6904.58
443.61	6733.72
443.80	6918.62
443.98	6588.61
444.17	6490.31
444.35	6750.10
444.54	6946.71
444.73	6836.70
444.91	6909.26
445.10	6878.83
445.28	6871.81
445.47	6782.87
445.65	6876.49
445.84	7037.99
446.02	6874.15
446.21	6951.39
446.39	7091.82
446.58	6871.81
446.77	7042.67
446.95	6846.07
447.14	6888.20
447.32	7030.97
447.51	6988.84
447.69	6846.07
447.88	7098.84
448.06	7091.82
448.25	7026.29
448.43	6984.16
448.62	7169.06
448.80	7007.56
448.99	7178.42
449.17	7349.28
449.36	6942.03
449.54	7243.96
449.73	7440.56
449.91	7382.05
450.10	7258.00
450.28	7407.80
450.46	7265.02
450.65	7346.94
450.83	7323.54
451.02	7321.20
451.20	7632.49
451.39	7557.59
451.57	7630.15
451.76	7398.43
451.94	7466.31
452.13	7786.96
452.31	7585.68
452.49	7550.57
452.68	7691.00
452.86	7651.21
453.05	7918.03
453.23	7925.05
453.42	7681.64
453.60	7662.91
453.78	7744.83
453.97	7688.66
454.15	7742.49
454.34	7534.18
454.52	7808.03
454.70	7983.57
454.89	7815.05
455.07	7950.80
455.26	7948.46
455.44	8081.87
455.62	7934.42
455.81	8077.19
455.99	8201.24
456.17	8285.50
456.36	8177.83
456.54	8390.82
456.73	8456.36
456.91	8634.24
457.09	8329.97
457.28	8589.77
457.46	8346.35
457.64	8505.51
457.83	8643.60
458.01	8681.05
458.19	8805.10
458.38	8615.51
458.56	8592.11
458.74	8566.36
458.93	8578.06
459.11	8751.26
459.29	8851.91
459.48	8762.97
459.66	8741.90
459.84	8786.37
460.03	9160.86
460.21	9200.65
460.39	8975.95
460.57	9020.42
460.76	9043.83
460.94	9064.89
461.12	9076.60
461.31	8961.91
461.49	9214.69
461.67	9165.54
461.85	9322.35
462.04	9287.25
462.22	9504.92
462.40	9406.61
462.59	9322.35
462.77	9380.87
462.95	9317.67
463.13	9273.20
463.32	9444.06
463.50	9509.60
463.68	9523.64
463.86	9383.21
464.05	9245.12
464.23	9430.02
464.41	9771.74
464.59	9376.19
464.78	9935.57
464.96	9628.96
465.14	9554.07
465.32	9633.64
465.50	9694.50
465.69	9832.59
465.87	9921.53
466.05	9788.12
466.23	9806.84
466.41	9781.10
466.60	10085.37
466.78	9846.63
466.96	9940.26
467.14	9715.56
467.32	9783.44
467.51	10057.28
467.69	9767.06
467.87	10197.71
468.05	10186.01
468.23	9951.96
468.41	10171.97
468.60	10228.14
468.78	10291.34
468.96	10174.31
469.14	10141.54
469.32	10356.87
469.50	10260.91
469.69	10399.00
469.87	10525.39
470.05	10438.79
470.23	10626.03
470.41	10509.01
470.59	10604.97
470.77	10359.21
470.95	10768.80
471.14	10841.36
471.32	10471.56
471.50	10824.98
471.68	10949.03
471.86	10759.44
472.04	11131.59
472.22	11311.81
472.40	11183.08
472.58	11323.51
472.77	11267.34
472.95	11311.81
473.13	11590.33
473.31	11283.72
473.49	11295.43
473.67	11405.43
473.85	11382.03
474.03	11896.94
474.21	11665.23
474.39	11789.28
474.57	11695.66
474.75	12002.27
474.93	11992.90
475.12	12060.78
475.30	12100.57
475.48	11988.22
475.66	12191.85
475.84	12051.42
476.02	12046.74
476.20	12306.54
476.38	12648.26
476.56	12847.20
476.74	12648.26
476.92	12741.88
477.10	12552.29
477.28	12814.43
477.46	12936.14
477.64	13139.77
477.82	12812.09
478.00	13621.92
478.18	13575.11
478.36	13465.10
478.54	13575.11
478.72	13572.77
478.90	13614.90
479.08	14064.28
479.26	13951.93
479.44	14225.78
479.62	14284.29
479.80	14167.26
479.98	14436.42
480.16	14717.29
480.34	14331.10
480.52	14787.50
480.70	14728.99
480.88	14951.34
481.06	14892.83
481.24	14925.60
481.41	15101.14
481.59	15108.16
481.77	15433.49
481.95	15335.19
482.13	15686.27
482.31	15407.75
482.49	15922.66
482.67	15697.97
482.85	16222.25
483.03	16203.53
483.21	16435.24
483.39	16549.93
483.57	16442.26
483.74	16886.97
483.92	16973.56
484.10	17144.42
484.28	17422.95
484.46	17200.60
484.64	17591.47
484.82	17619.55
485.00	17710.83
485.18	17970.63
485.35	18174.26
485.53	18295.97
485.71	18200.01
485.89	18579.17
486.07	18349.80
486.25	18553.43
486.43	18801.52
486.61	18827.27
486.78	18869.40
486.96	19068.34
487.14	19227.50
487.32	19496.66
487.50	19536.45
487.68	19381.98
487.85	20205.84
488.03	20709.06
488.21	20524.16
488.39	20355.64
488.57	20472.67
488.75	20353.30
488.92	20638.84
489.10	20975.88
489.28	21289.51
489.46	21207.59
489.64	21090.57
489.81	21619.53
489.99	21710.81
490.17	21865.28
490.35	22223.39
490.53	22274.88
490.70	22707.88
490.88	22766.39
491.06	22663.41
491.24	22764.05
491.41	22707.88
491.59	23098.75
491.77	22937.25
491.95	23452.17
492.13	23091.73
492.30	23517.70
492.48	23651.11
492.66	23606.64
492.84	24077.09
493.01	24037.30
493.19	24039.64
493.37	24201.14
493.54	24463.28
493.72	24603.71
493.90	24968.84
494.08	24898.62
494.25	25034.37
494.43	25144.38
494.61	25242.68
494.79	25612.48
494.96	25240.34
495.14	25408.86
495.32	25511.84
495.49	26080.59
495.67	26244.43
495.85	26216.34
496.02	26331.03
496.20	26490.18
496.38	26679.77
496.55	26876.37
496.73	27157.24
496.91	27115.11
497.09	27274.26
497.26	27445.12
497.44	27482.57
497.62	27545.76
497.79	27857.06
497.97	27543.42
498.14	27992.81
498.32	28226.86
498.50	28540.49
498.67	28411.76
498.85	28638.80
499.03	28819.02
499.20	28606.03
499.38	28980.51
499.56	29134.99
499.73	29261.38
499.91	29034.35
500.08	29345.64
500.26	29090.52
500.44	29731.83
500.61	29422.87
500.79	29425.22
500.97	29862.90
501.14	29977.58
501.32	29986.94
501.49	29961.20
501.67	30232.70
501.84	30658.68
502.02	30560.37
502.20	30820.17
502.37	30663.36
502.55	30405.90
502.72	30768.68
502.90	31124.44
503.07	30981.67
503.25	31339.77
503.43	30878.69
503.60	31541.06
503.78	31353.82
503.95	31206.36
504.13	31353.82
504.30	31784.48
504.48	31770.43
504.65	32107.47
504.83	32442.17
505.01	32460.89
505.18	32273.65
505.36	32369.61
505.53	32388.33
505.71	32369.61
505.88	32414.08
506.06	32456.21
506.23	33046.02
506.41	32868.14
506.58	32840.06
506.76	32538.13
506.93	33453.28
507.11	33209.86
507.28	33738.82
507.46	33647.54
507.63	33668.61
507.81	33743.50
507.98	33443.91
508.16	34132.03
508.33	33518.81
508.50	33729.46
508.68	33968.19
508.85	34698.44
509.03	34363.75
509.20	34359.06
509.38	34665.67
509.55	34920.79
509.73	34944.20
509.90	35035.48
510.08	35157.19
510.25	34876.32
510.42	35189.95
510.60	35342.09
510.77	35325.71
510.95	35723.60
511.12	35356.13
511.30	35243.79
511.47	36210.43
511.64	35351.45
511.82	36376.61
511.99	35779.77
512.17	36409.37
512.34	36477.25
512.51	36816.63
512.69	37048.34
512.86	36755.77
513.04	37111.53
513.21	36671.51
513.38	36793.22
513.56	36617.68
513.73	37109.19
513.90	37392.40
514.08	37340.91
514.25	37209.84
514.43	37301.12
514.60	37408.78
514.77	37106.85
514.95	37280.05
515.12	37233.24
515.29	37432.19
515.47	37783.27
515.64	38153.07
515.81	37813.70
515.99	38185.84
516.16	38300.53
516.33	38143.71
516.51	38682.03
516.68	38279.46
516.85	38738.21
517.03	38810.76
517.20	38696.08
517.37	38590.75
517.54	38604.80
517.72	38934.81
517.89	38768.63
518.06	38726.50
518.24	38937.15
518.41	39047.16
518.58	39089.29
518.75	38742.89
518.93	39215.68
519.10	39276.53
519.27	39288.23
519.45	39915.50
519.62	39819.53
519.79	39948.26
519.96	39772.72
520.14	40009.12
520.31	39594.84
520.48	40350.84
520.65	40107.42
520.83	40477.22
521.00	40465.52
521.17	40444.46
521.34	40247.85
521.52	40336.79
521.69	40945.33
521.86	40364.88
522.03	41045.97
522.20	40912.56
522.38	41223.86
522.55	41577.28
522.72	41062.36
522.89	41167.68
523.07	41858.14
523.24	41301.09
523.41	41729.41
523.58	41717.71
523.75	41935.38
523.92	41310.46
524.10	41963.46
524.27	41722.39
524.44	41783.24
524.61	42284.12
524.78	42225.60
524.96	41961.12
525.13	42202.20
525.30	42419.87
525.47	42740.52
525.64	42405.83
525.81	42562.64
525.98	42532.22
526.16	42501.79
526.33	42356.67
526.50	43096.28
526.67	43079.90
526.84	43454.39
527.01	43400.55
527.18	42916.06
527.36	43243.74
527.53	43367.79
527.70	43606.52
527.87	43337.36
528.04	43824.19
528.21	44313.36
528.38	44051.22
528.55	43915.47
528.72	43257.78
528.89	43927.17
529.07	43503.54
529.24	43955.26
529.41	43929.51
529.58	44081.65
529.75	44034.84
529.92	44357.83
530.09	44240.81
530.26	44280.60
530.43	44172.93
530.60	44093.35
530.77	44102.71
530.94	44538.05
531.11	44582.52
531.28	44676.15
531.46	44655.08
531.63	45024.89
531.80	44945.31
531.97	45134.89
532.14	45076.38
532.31	45034.25
532.48	44898.50
532.65	45240.21
532.82	45247.24
532.99	45078.72
533.16	45198.09
533.33	45144.25
533.50	45673.21
533.67	45319.79
533.84	45525.76
534.01	45570.23
534.18	45815.99
534.35	46155.36
534.52	45610.02
534.69	46192.81
534.86	46108.55
535.03	45783.22
535.20	45713.00
535.37	46223.24
535.54	46850.50
535.71	46057.06
535.88	46241.96
536.05	46080.47
536.22	46782.63
536.38	46300.48
536.55	46415.16
536.72	46775.61
536.89	46616.45
537.06	46766.24
537.23	46906.68
537.40	47283.50
537.57	46813.05
537.74	46354.31
537.91	46658.58
538.08	46656.24
538.25	46658.58
538.42	47175.84
538.59	47489.47
538.75	46707.73
538.92	47131.37
539.09	47480.11
539.26	47250.74
539.43	47103.28
539.60	47278.82
539.77	47264.78
539.94	47971.62
540.11	47833.53
540.28	47983.32
540.44	48215.04
540.61	47533.94
540.78	47688.42
540.95	47751.61
541.12	47861.61
541.29	47725.86
541.46	48144.82
541.62	48156.52
541.79	48505.26
541.96	47732.89
542.13	48327.38
542.30	48463.13
542.47	48540.37
542.63	48004.39
542.80	48584.84
542.97	48889.11
543.14	49027.20
543.31	48715.91
543.48	48772.08
543.64	49254.23
543.81	49146.57
543.98	49022.52
544.15	49151.25
544.32	49184.02
544.48	49488.29
544.65	49088.06
544.82	49638.08
544.99	49207.42
545.16	49296.36
545.32	49345.51
545.49	49736.38
545.66	49893.20
545.83	50150.66
546.00	49961.08
546.16	49902.56
546.33	49970.44
546.50	49411.05
546.67	49865.11
546.83	49230.83
547.00	49762.13
547.17	49617.02
547.34	49483.61
547.50	49968.10
547.67	50138.96
547.84	49815.96
548.00	50033.63
548.17	50480.67
548.34	50117.89
548.51	50059.38
548.67	50279.39
548.84	50234.92
549.01	50050.02
549.18	50021.93
549.34	50307.47
549.51	50607.06
549.68	50452.59
549.84	50483.01
550.01	50241.94
550.18	50291.09
550.34	50026.61
550.51	50550.89
550.68	50733.45
550.84	50277.05
551.01	50316.84
551.18	50323.86
551.34	50293.43
551.51	50101.51
551.68	50337.90
551.84	50358.97
552.01	50387.05
552.18	50593.02
552.34	50749.84
552.51	50904.31
552.68	50656.21
552.84	50724.09
553.01	51325.61
553.18	50497.06
553.34	51051.76
553.51	50740.47
553.67	51028.36
553.84	51386.46
554.01	51236.67
554.17	51447.32
554.34	51292.84
554.51	51356.03
554.67	51379.44
554.84	51189.86
555.00	51306.88
555.17	51194.54
555.33	51243.69
555.50	51075.17
555.67	51231.99
555.83	51040.06
556.00	51182.84
556.16	51840.53
556.33	51365.40
556.50	51576.04
556.66	51255.39
556.83	51620.52
556.99	51950.53
557.16	51763.29
557.32	51714.14
557.49	52177.56
557.65	51618.17
557.82	51723.50
557.98	51711.80
558.15	51796.06
558.32	51803.08
558.48	51557.32
558.65	51941.17
558.81	51793.71
558.98	51774.99
559.14	51915.42
559.31	51765.63
559.47	51646.26
559.64	51999.68
559.80	51564.34
559.97	52055.85
560.13	51920.10
560.30	52135.43
560.46	52163.52
560.63	52051.17
560.79	52418.64
560.96	52343.74
561.12	52184.58
561.29	51807.76
561.45	51882.66
561.61	52278.21
561.78	52233.74
561.94	52215.01
562.11	52584.82
562.27	52332.04
562.44	52643.33
562.60	52458.43
562.77	52320.34
562.93	51983.30
563.10	52172.88
563.26	52144.80
563.42	52666.73
563.59	52303.95
563.75	52559.07
563.92	52495.88
564.08	52505.24
564.24	52587.16
564.41	52296.93
564.57	52343.74
564.74	52250.12
564.90	52753.33
565.07	52842.27
565.23	52704.18
565.39	52790.78
565.56	52612.90
565.72	52418.64
565.88	52926.53
566.05	52458.43
566.21	52186.92
566.38	52566.09
566.54	52371.83
566.70	52523.96
566.87	52725.25
567.03	52706.52
567.19	53219.10
567.36	52945.26
567.52	52713.55
567.68	52743.97
567.85	52556.73
568.01	52640.99
568.17	52397.57
568.34	52657.37
568.50	52655.03
568.66	52893.77
568.83	53392.30
568.99	52619.92
569.15	53090.37
569.32	53055.26
569.48	52580.13
569.64	52685.46
569.81	52814.19
569.97	52289.91
570.13	53003.77
570.30	52662.05
570.46	52999.09
570.62	52790.78
570.78	52807.17
570.95	52886.74
571.11	53057.60
571.27	53069.31
571.43	52786.10
571.60	52917.17
571.76	53010.79
571.92	53071.65
572.09	53130.16
572.25	53078.67
572.41	53261.23
572.57	53375.92
572.74	53525.71
572.90	53228.46
573.06	53116.12
573.22	53303.36
573.38	52905.47
573.55	53162.93
573.71	53558.48
573.87	53034.20
574.03	53034.20
574.20	53317.40
574.36	53322.08
574.52	53109.10
574.68	53144.20
574.84	53315.06
575.01	53284.64
575.17	53361.87
575.33	53010.79
575.49	53616.99
575.65	53476.56
575.82	53258.89
575.98	52919.51
576.14	53396.98
576.30	53326.77
576.46	52952.28
576.62	53254.21
576.79	53242.51
576.95	52985.05
577.11	53361.87
577.27	53422.73
577.43	53462.52
577.59	53490.60
577.75	53244.85
577.92	53244.85
578.08	53326.77
578.24	53394.64
578.40	53577.20
578.56	53453.15
578.72	53378.26
578.88	53963.39
579.04	53684.87
579.21	53464.86
579.37	53619.33
579.53	53715.29
579.69	53249.53
579.85	53256.55
580.01	53460.18
580.17	53502.31
580.33	53535.07
580.49	53544.44
580.65	53635.72
580.82	53586.57
580.98	53483.58
581.14	53373.58
581.30	53598.27
581.46	53216.76
581.62	53326.77
581.78	53268.25
581.94	53612.31
582.10	53268.25
582.26	53560.82
582.42	53429.75
582.58	53539.75
582.74	53471.88
582.90	54021.90
583.06	53394.64
583.22	53396.98
583.38	53198.04
583.54	53359.53
583.70	53455.50
583.86	53523.37
584.02	53595.93
584.18	53352.51
584.34	53717.64
584.50	53727.00
584.66	53411.02
584.82	53422.73
584.98	53736.36
585.14	53588.91
585.30	53371.24
585.46	53738.70
585.62	53523.37
585.78	54021.90
585.94	53371.24
586.10	53860.41
586.26	53549.12
586.42	53858.07
586.58	53722.32
586.74	53551.46
586.90	53385.28
587.06	53729.34
587.22	53741.04
587.38	53663.80
587.54	54103.82
587.70	54026.59
587.86	54152.97
588.02	53855.73
588.18	54061.69
588.34	53741.04
588.49	54099.14
588.65	53490.60
588.81	53851.05
