SpectraSuite Data File
++++++++++++++++++++++++++++++++++++
Date: Thu Oct 24 13:21:08 EDT 2013
User: stostad
Dark Spectrum Present: No
Reference Spectrum Present: No
Number of Sampled Component Spectra: 1
Spectrometers: USB2+H05261
Integration Time (usec): 100000 (USB2+H05261)
Spectra Averaged: 1 (USB2+H05261)
Boxcar Smoothing: 0 (USB2+H05261)
Correct for Electrical Dark: No (USB2+H05261)
Strobe/Lamp Enabled: No (USB2+H05261)
Correct for Detector Non-linearity: No (USB2+H05261)
Correct for Stray Light: No (USB2+H05261)
Number of Pixels in Processed Spectrum: 2048
>>>>>Begin Processed Spectral Data<<<<<
365.73	524.28
365.92	524.28
366.12	524.28
366.32	468.11
366.52	400.23
366.72	533.64
366.91	409.59
367.11	505.56
367.31	440.02
367.51	440.02
367.70	458.74
367.90	461.09
368.10	482.15
368.30	468.11
368.49	468.11
368.69	489.17
368.89	484.49
369.09	519.60
369.28	414.27
369.48	440.02
369.68	519.60
369.87	554.71
370.07	517.26
370.27	526.62
370.47	617.90
370.66	709.18
370.86	601.52
371.06	695.14
371.25	746.63
371.45	734.93
371.65	753.65
371.84	744.29
372.04	713.86
372.24	777.06
372.44	734.93
372.63	833.23
372.83	734.93
373.03	788.76
373.22	779.40
373.42	802.80
373.62	828.55
373.81	849.61
374.01	795.78
374.21	784.08
374.40	767.70
374.60	791.10
374.79	711.52
374.99	788.76
375.19	805.14
375.38	866.00
375.58	898.77
375.78	847.27
375.97	784.08
376.17	807.48
376.37	755.99
376.56	814.51
376.76	793.44
376.95	781.74
377.15	842.59
377.35	793.44
377.54	713.86
377.74	741.95
377.93	741.95
378.13	833.23
378.33	866.00
378.52	873.02
378.72	788.76
378.91	844.93
379.11	849.61
379.31	777.06
379.50	861.32
379.70	823.87
379.89	840.25
380.09	854.30
380.28	866.00
380.48	877.70
380.68	816.85
380.87	842.59
381.07	868.34
381.26	779.40
381.46	744.29
381.65	880.04
381.85	884.72
382.04	835.57
382.24	833.23
382.43	823.87
382.63	819.19
382.83	936.21
383.02	854.30
383.22	868.34
383.41	889.40
383.61	898.77
383.80	847.27
384.00	882.38
384.19	875.36
384.39	915.15
384.58	875.36
384.78	898.77
384.97	863.66
385.17	896.43
385.36	833.23
385.56	959.62
385.75	868.34
385.95	805.14
386.14	821.53
386.34	823.87
386.53	964.30
386.72	887.06
386.92	828.55
387.11	933.87
387.31	936.21
387.50	866.00
387.70	891.74
387.89	938.55
388.09	908.13
388.28	929.19
388.48	1048.56
388.67	959.62
388.86	936.21
389.06	926.85
389.25	933.87
389.45	943.24
389.64	966.64
389.84	978.34
390.03	910.47
390.22	997.07
390.42	954.94
390.61	959.62
390.81	999.41
391.00	990.05
391.19	1050.90
391.39	983.02
391.58	985.37
391.78	938.55
391.97	1006.43
392.16	1015.79
392.36	1029.84
392.55	926.85
392.75	968.98
392.94	1069.62
393.13	1095.37
393.33	973.66
393.52	1032.18
393.71	1015.79
393.91	1086.01
394.10	990.05
394.29	994.73
394.49	1069.62
394.68	1034.52
394.88	1029.84
395.07	1086.01
395.26	1069.62
395.46	1074.31
395.65	1039.20
395.84	1081.33
396.04	1060.26
396.23	1097.71
396.42	1015.79
396.62	1076.65
396.81	1158.57
397.00	1064.94
397.19	1071.97
397.39	1074.31
397.58	1130.48
397.77	1076.65
397.97	1142.18
398.16	1097.71
398.35	1144.52
398.55	1093.03
398.74	1139.84
398.93	1167.93
399.12	1156.22
399.32	1137.50
399.51	1125.80
399.70	1200.69
399.90	1118.78
400.09	1179.63
400.28	1172.61
400.47	1167.93
400.67	1219.42
400.86	1247.51
401.05	1226.44
401.24	1256.87
401.44	1160.91
401.63	1203.04
401.82	1228.78
402.01	1226.44
402.21	1240.48
402.40	1228.78
402.59	1249.85
402.78	1263.89
402.97	1313.04
403.17	1188.99
403.36	1249.85
403.55	1259.21
403.74	1263.89
403.93	1350.49
404.13	1392.62
404.32	1324.74
404.51	1469.86
404.70	1373.89
404.89	1345.81
405.09	1322.40
405.28	1366.87
405.47	1376.24
405.66	1329.42
405.85	1420.71
406.05	1387.94
406.24	1413.68
406.43	1362.19
406.62	1376.24
406.81	1462.83
407.00	1378.58
407.20	1406.66
407.39	1406.66
407.58	1504.96
407.77	1509.65
407.96	1472.20
408.15	1451.13
408.34	1430.07
408.54	1479.22
408.73	1423.05
408.92	1455.81
409.11	1521.35
409.30	1549.43
409.49	1458.15
409.68	1551.78
409.87	1519.01
410.07	1570.50
410.26	1572.84
410.45	1544.75
410.64	1549.43
410.83	1521.35
411.02	1640.72
411.21	1596.25
411.40	1640.72
411.59	1713.27
411.78	1643.06
411.98	1614.97
412.17	1645.40
412.36	1657.10
412.55	1526.03
412.74	1657.10
412.93	1657.10
413.12	1563.48
413.31	1790.51
413.50	1739.02
413.69	1769.44
413.88	1746.04
414.07	1795.19
414.26	1781.15
414.45	1778.81
414.64	1781.15
414.83	1767.10
415.02	1823.28
415.22	1778.81
415.41	1797.53
415.60	1851.36
415.79	1874.77
415.98	1914.56
416.17	1788.17
416.36	1863.07
416.55	1926.26
416.74	1984.77
416.93	1949.67
417.12	2064.35
417.31	1963.71
417.50	1905.20
417.69	2024.56
417.88	1926.26
418.07	2005.84
418.26	1937.96
418.45	1963.71
418.64	2026.90
418.83	2005.84
419.02	1973.07
419.21	1963.71
419.39	2029.24
419.58	2001.16
419.77	2092.44
419.96	2073.71
420.15	2143.93
420.34	2106.48
420.53	2073.71
420.72	2054.99
420.91	2101.80
421.10	2148.61
421.29	2106.48
421.48	2064.35
421.67	2136.91
421.86	2267.98
422.05	2125.21
422.24	2080.74
422.43	2200.10
422.61	2214.15
422.80	2127.55
422.99	2153.29
423.18	2216.49
423.37	2225.85
423.56	2225.85
423.75	2251.60
423.94	2195.42
424.13	2052.65
424.32	2228.19
424.50	2136.91
424.69	2242.23
424.88	2228.19
425.07	2209.47
425.26	2076.06
425.45	2258.62
425.64	2200.10
425.83	2279.68
426.01	2289.04
426.20	2251.60
426.39	2230.53
426.58	2193.08
426.77	2244.57
426.96	2279.68
427.15	2305.43
427.33	2272.66
427.52	2179.04
427.71	2403.73
427.90	2321.81
428.09	2389.69
428.28	2310.11
428.46	2345.22
428.65	2410.75
428.84	2270.32
429.03	2328.83
429.22	2310.11
429.40	2370.96
429.59	2392.03
429.78	2312.45
429.97	2319.47
430.16	2434.16
430.34	2455.22
430.53	2445.86
430.72	2424.80
430.91	2485.65
431.10	2462.24
431.28	2459.90
431.47	2642.46
431.66	2520.76
431.85	2518.42
432.03	2539.48
432.22	2621.40
432.41	2530.12
432.60	2473.95
432.79	2562.89
432.97	2572.25
433.16	2644.81
433.35	2616.72
433.54	2567.57
433.72	2473.95
433.91	2635.44
434.10	2626.08
434.28	2487.99
434.47	2633.10
434.66	2717.36
434.85	2607.36
435.03	2942.05
435.22	2930.35
435.41	3068.44
435.59	2963.12
435.78	3009.93
435.97	2909.29
436.16	2829.71
436.34	2775.88
436.53	2719.70
436.72	2843.75
436.90	2717.36
437.09	2808.64
437.28	2705.66
437.46	2703.32
437.65	2743.11
437.84	2780.56
438.02	2715.02
438.21	2857.79
438.40	2867.16
438.58	2862.48
438.77	2857.79
438.96	2881.20
439.14	2911.63
439.33	3002.91
439.52	2857.79
439.70	2946.73
439.89	3063.76
440.08	3122.27
440.26	3030.99
440.45	2883.54
440.63	3059.08
440.82	3122.27
441.01	3061.42
441.19	3110.57
441.38	3208.87
441.57	3133.98
441.75	3155.04
441.94	3152.70
442.12	3239.30
442.31	3112.91
442.50	3211.22
442.68	3150.36
442.87	3213.56
443.05	3325.90
443.24	3232.28
443.43	3253.34
443.61	3194.83
443.80	3342.28
443.98	3262.71
444.17	3091.85
444.35	3311.86
444.54	3344.63
444.73	3368.03
444.91	3365.69
445.10	3295.47
445.28	3288.45
445.47	3297.81
445.65	3318.88
445.84	3449.95
446.02	3332.92
446.21	3382.07
446.39	3363.35
446.58	3405.48
446.77	3403.14
446.95	3281.43
447.14	3379.73
447.32	3412.50
447.51	3330.58
447.69	3435.91
447.88	3435.91
448.06	3506.12
448.25	3379.73
448.43	3426.54
448.62	3412.50
448.80	3307.18
448.99	3377.39
449.17	3435.91
449.36	3433.57
449.54	3396.12
449.73	3613.79
449.91	3529.53
450.10	3478.04
450.28	3473.36
450.46	3609.11
450.65	3564.64
450.83	3562.30
451.02	3478.04
451.20	3585.70
451.39	3555.27
451.57	3686.34
451.76	3562.30
451.94	3613.79
452.13	3611.45
452.31	3627.83
452.49	3606.77
452.68	3618.47
452.86	3662.94
453.05	3709.75
453.23	3754.22
453.42	3655.92
453.60	3667.62
453.78	3634.85
453.97	3632.51
454.15	3641.87
454.34	3723.79
454.52	3749.54
454.70	3721.45
454.89	3747.20
455.07	3662.94
455.26	3796.35
455.44	3861.88
455.62	3913.38
455.81	3925.08
455.99	3836.14
456.17	3871.25
456.36	3847.84
456.54	3845.50
456.73	3871.25
456.91	3899.33
457.09	4025.72
457.28	4117.00
457.46	4063.17
457.64	4011.68
457.83	3920.40
458.01	4091.26
458.19	4285.52
458.38	4100.62
458.56	4028.06
458.74	4135.73
458.93	3983.59
459.11	3988.27
459.29	4105.30
459.48	3908.69
459.66	4056.15
459.84	4107.64
460.03	4161.47
460.21	4250.41
460.39	4138.07
460.57	4234.03
460.76	4182.54
460.94	4205.94
461.12	4166.15
461.31	4306.59
461.49	4182.54
461.67	4170.83
461.85	4285.52
462.04	4191.90
462.22	4772.35
462.40	4381.48
462.59	4372.12
462.77	4248.07
462.95	4393.19
463.13	4411.91
463.32	4332.33
463.50	4552.34
463.68	4390.84
463.86	4372.12
464.05	4315.95
464.23	4358.08
464.41	4458.72
464.59	4306.59
464.78	4552.34
464.96	4486.81
465.14	4301.90
465.32	4362.76
465.50	4505.53
465.69	4526.60
465.87	4465.74
466.05	4442.34
466.23	4596.81
466.41	4561.70
466.60	4571.07
466.78	4557.02
466.96	4521.92
467.14	4622.56
467.32	4702.14
467.51	4542.98
467.69	4610.86
467.87	4564.04
468.05	4624.90
468.23	4648.30
468.41	4648.30
468.60	4622.56
468.78	4662.35
468.96	4601.49
469.14	4772.35
469.32	4807.46
469.50	4683.41
469.69	4791.08
469.87	4971.30
470.05	4915.12
470.23	4800.44
470.41	4833.21
470.59	4901.08
470.77	4915.12
470.95	4903.42
471.14	5029.81
471.32	4699.80
471.50	5046.20
471.68	4931.51
471.86	5018.11
472.04	4957.25
472.22	5102.37
472.40	4889.38
472.58	5020.45
472.77	5198.33
472.95	5193.65
473.13	5315.36
473.31	5238.12
473.49	5123.43
473.67	5135.14
473.85	5125.77
474.03	5289.61
474.21	5219.39
474.39	5362.17
474.57	5493.24
474.75	5493.24
474.93	5399.62
475.12	5390.25
475.30	5437.06
475.48	5397.28
475.66	5401.96
475.84	5500.26
476.02	5617.29
476.20	5535.37
476.38	5727.29
476.56	5636.01
476.74	5680.48
476.92	5701.54
477.10	5675.80
477.28	5710.91
477.46	5682.82
477.64	5888.79
477.82	5996.45
478.00	5984.75
478.18	6003.47
478.36	6080.71
478.54	6078.37
478.72	6146.25
478.90	6087.73
479.08	6256.25
479.26	6139.23
479.44	6317.11
479.62	6342.85
479.80	6286.68
479.98	6342.85
480.16	6588.61
480.34	6485.62
480.52	6551.16
480.70	6548.82
480.88	6403.71
481.06	6679.89
481.24	6497.33
481.41	6689.25
481.59	6651.80
481.77	6787.55
481.95	6696.27
482.13	6825.00
482.31	6920.96
482.49	6949.05
482.67	6993.52
482.85	7211.19
483.03	7220.55
483.21	7260.34
483.39	7255.66
483.57	7302.47
483.74	7356.30
483.92	7487.37
484.10	7382.05
484.28	7503.76
484.46	7625.47
484.64	7756.54
484.82	7353.96
485.00	7648.87
485.18	7936.76
485.35	7920.37
485.53	7824.41
485.71	8074.85
485.89	7974.21
486.07	8021.02
486.25	7953.14
486.43	8152.09
486.61	8255.07
486.78	8264.43
486.96	8285.50
487.14	8564.02
487.32	8461.04
487.50	8638.92
487.68	8641.26
487.85	8711.47
488.03	8671.68
488.21	8950.21
488.39	8723.18
488.57	8788.71
488.75	8755.94
488.92	9200.65
489.10	8908.08
489.28	9224.05
489.46	9373.85
489.64	9193.62
489.81	9430.02
489.99	9420.66
490.17	9205.33
490.35	9638.33
490.53	9605.56
490.70	9528.32
490.88	9525.98
491.06	9638.33
491.24	9753.01
491.41	9703.86
491.59	9853.66
491.77	9933.23
491.95	10092.39
492.13	10001.11
492.30	9888.76
492.48	9909.83
492.66	10115.80
492.84	10239.84
493.01	10209.42
493.19	10129.84
493.37	10305.38
493.54	10424.75
493.72	10391.98
493.90	10356.87
494.08	10768.80
494.25	10534.75
494.43	10726.68
494.61	10616.67
494.79	10768.80
494.96	10700.93
495.14	11140.95
495.32	11119.89
495.49	11096.48
495.67	11173.72
495.85	11316.49
496.02	11133.93
496.20	11269.68
496.38	11449.90
496.55	11332.87
496.73	11833.75
496.91	11440.54
497.09	11644.17
497.26	11559.91
497.44	11501.39
497.62	11559.91
497.79	11868.86
497.97	11695.66
498.14	11679.27
498.32	11796.30
498.50	11882.90
498.67	11822.05
498.85	11669.91
499.03	12049.08
499.20	11950.78
499.38	12159.08
499.56	12257.39
499.73	12343.99
499.91	12142.70
500.08	12400.16
500.26	12526.55
500.44	12285.47
500.61	12280.79
500.79	12322.92
500.97	12568.68
501.14	12718.47
501.32	12624.85
501.49	12840.18
501.67	12760.60
501.84	12765.28
502.02	12765.28
502.20	12877.63
502.37	12847.20
502.55	12954.87
502.72	12856.56
502.90	12812.09
503.07	12919.76
503.25	13029.76
503.43	13018.06
503.60	13198.28
503.78	13139.77
503.95	13027.42
504.13	13308.29
504.30	13221.69
504.48	13254.45
504.65	13128.06
504.83	13404.25
505.01	13626.60
505.18	13467.44
505.36	13722.56
505.53	13647.66
505.71	13806.82
505.88	13738.94
506.06	13502.55
506.23	13769.37
506.41	13851.29
506.58	13834.91
506.76	13530.64
506.93	14281.95
507.11	14052.58
507.28	14122.79
507.46	14045.55
507.63	13989.38
507.81	14239.82
507.98	14300.67
508.16	14010.45
508.33	14267.91
508.50	14366.21
508.68	14054.92
508.85	14225.78
509.03	14455.15
509.20	14256.20
509.38	14267.91
509.55	14567.49
509.73	14525.36
509.90	14719.63
510.08	14733.67
510.25	14642.39
510.42	14839.00
510.60	14590.90
510.77	15054.33
510.95	14693.88
511.12	14923.26
511.30	15115.18
511.47	14904.53
511.64	15075.39
511.82	15026.24
511.99	14649.41
512.17	14916.23
512.34	15009.86
512.51	15431.15
512.69	15550.52
512.86	15126.88
513.04	15328.17
513.21	15262.63
513.38	15190.08
513.56	15393.70
513.73	15213.48
513.90	15239.23
514.08	15592.65
514.25	15751.81
514.43	15660.52
514.60	15583.29
514.77	15824.36
514.95	15784.57
515.12	15536.48
515.29	15730.74
515.47	15681.59
515.64	15700.31
515.81	16098.20
515.99	16065.44
516.16	16025.65
516.33	16065.44
516.51	16063.10
516.68	16018.63
516.85	16334.60
517.03	16135.65
517.20	16334.60
517.37	16088.84
517.54	16032.67
517.72	16229.27
517.89	16051.39
518.06	16123.95
518.24	16301.83
518.41	16060.76
518.58	16198.85
518.75	16229.27
518.93	16346.30
519.10	16236.30
519.27	16552.27
519.45	16559.29
519.62	16503.12
519.79	16559.29
519.96	16655.25
520.14	16610.78
520.31	16599.08
520.48	16570.99
520.65	16709.08
520.83	16819.09
521.00	17055.48
521.17	16720.79
521.34	16858.88
521.52	16875.26
521.69	16978.25
521.86	17135.06
522.03	17081.23
522.20	17128.04
522.38	17076.55
522.55	17174.85
522.72	17011.01
522.89	17048.46
523.07	17198.26
523.24	17163.15
523.41	17352.73
523.58	17191.23
523.75	17193.58
523.92	17373.80
524.10	17345.71
524.27	17603.17
524.44	17441.67
524.61	17654.66
524.78	17689.77
524.96	17654.66
525.13	17799.77
525.30	17869.99
525.47	17767.01
525.64	17598.49
525.81	17853.61
525.98	17961.27
526.16	17771.69
526.33	17795.09
526.50	17816.16
526.67	17914.46
526.84	18071.28
527.01	17921.48
527.18	17970.63
527.36	17944.89
527.53	17694.45
527.70	18181.28
527.87	18286.61
528.04	18333.42
528.21	18211.71
528.38	18185.96
528.55	18200.01
528.72	18139.15
528.89	18183.62
529.07	18312.35
529.24	18120.43
529.41	18223.41
529.58	18466.83
529.75	18476.19
529.92	18389.59
530.09	18190.64
530.26	18375.55
530.43	18523.00
530.60	18518.32
530.77	18558.11
530.94	18396.61
531.11	18537.04
531.28	18848.33
531.46	18607.26
531.63	18616.62
531.80	18628.32
531.97	18431.72
532.14	18656.41
532.31	18817.91
532.48	18843.65
532.65	18881.10
532.82	18878.76
532.99	18665.77
533.16	18953.66
533.33	18918.55
533.50	18925.57
533.67	18813.23
533.84	18993.45
534.01	18857.70
534.18	19140.90
534.35	19159.63
534.52	19246.23
534.69	19194.73
534.86	19190.05
535.03	18640.03
535.20	19346.87
535.37	19117.50
535.54	19300.06
535.71	18984.09
535.88	19192.39
536.05	19491.98
536.22	19381.98
536.38	19332.82
536.55	19541.13
536.72	19529.43
536.89	19632.41
537.06	19393.68
537.23	19644.12
537.40	20042.01
537.57	19461.55
537.74	19442.83
537.91	19878.17
538.08	19421.77
538.25	19398.36
538.42	19672.20
538.59	19838.38
538.75	19740.08
538.92	20027.96
539.09	19859.45
539.26	19548.15
539.43	19634.75
539.60	19824.34
539.77	19702.63
539.94	19880.51
540.11	19885.19
540.28	20198.82
540.44	20271.38
540.61	20091.16
540.78	20107.54
540.95	20226.91
541.12	20355.64
541.29	20477.35
541.46	20582.67
541.62	20505.43
541.79	20957.16
541.96	20563.95
542.13	20709.06
542.30	20465.64
542.47	20706.72
542.63	20528.84
542.80	20915.03
542.97	20875.24
543.14	20891.62
543.31	21064.82
543.48	20739.49
543.64	20926.73
543.81	20917.37
543.98	20931.41
544.15	20912.69
544.32	21029.71
544.48	21099.93
544.65	20865.88
544.82	20943.11
544.99	20795.66
545.16	21113.97
545.32	21099.93
545.49	21645.27
545.66	21802.09
545.83	22008.06
546.00	21806.77
546.16	21668.68
546.33	21488.46
546.50	21362.07
546.67	21331.64
546.83	21109.29
547.00	21015.67
547.17	21025.03
547.34	21418.24
547.50	21266.11
547.67	21245.04
547.84	21329.30
548.00	21553.99
548.17	21364.41
548.34	21158.44
548.51	21308.24
548.67	21212.28
548.84	21205.25
549.01	21352.71
549.18	21333.98
549.34	21348.03
549.51	21310.58
549.68	21453.35
549.84	21242.70
550.01	21235.68
550.18	21209.93
550.34	21387.82
550.51	21174.83
550.68	21745.92
550.84	21214.62
551.01	21289.51
551.18	21153.76
551.34	21312.92
551.51	21654.64
551.68	21153.76
551.84	21633.57
552.01	21385.47
552.18	21455.69
552.34	21502.50
552.51	21472.07
552.68	21280.15
552.84	21645.27
553.01	21553.99
553.18	21481.44
553.34	21638.25
553.51	21380.79
553.67	21607.83
553.84	21884.01
554.01	21907.41
554.17	21825.50
554.34	21790.39
554.51	21645.27
554.67	21790.39
554.84	21830.18
555.00	21673.36
555.17	21535.27
555.33	21972.95
555.50	21319.94
555.67	21656.98
555.83	21699.11
556.00	21916.78
556.16	21923.80
556.33	21968.27
556.50	21355.05
556.66	21687.40
556.83	21420.58
556.99	21867.63
557.16	21991.67
557.32	21982.31
557.49	22389.56
557.65	21956.57
557.82	21659.32
557.98	22066.57
558.15	21783.37
558.32	21729.53
558.48	21745.92
558.65	21872.31
558.81	21757.62
558.98	22029.12
559.14	22120.40
559.31	22127.42
559.47	21827.84
559.64	21788.05
559.80	21872.31
559.97	22197.64
560.13	21961.25
560.30	21785.71
560.46	21769.32
560.63	22073.59
560.79	21989.33
560.96	22270.20
561.12	21771.66
561.29	22129.77
561.45	21832.52
561.61	21998.70
561.78	22017.42
561.94	22094.66
562.11	22143.81
562.27	22581.49
562.44	22080.61
562.60	22199.98
562.77	21991.67
562.93	22279.56
563.10	22455.10
563.26	22150.83
563.42	22314.67
563.59	21958.91
563.75	22132.11
563.92	22373.18
564.08	22237.43
564.24	22492.55
564.41	22080.61
564.57	22026.78
564.74	22403.61
564.90	22537.02
565.07	22574.47
565.23	22221.05
565.39	22174.24
565.56	22649.36
565.72	21944.86
565.88	22295.94
566.05	21984.65
566.21	22104.02
566.38	22111.04
566.54	22192.96
566.70	22621.28
566.87	22391.91
567.03	22480.85
567.19	22670.43
567.36	22300.62
567.52	22244.45
567.68	22403.61
567.85	22190.62
568.01	22190.62
568.17	22471.48
568.34	22382.54
568.50	22640.00
568.66	22356.80
568.83	22544.04
568.99	22572.13
569.15	22459.78
569.32	22644.68
569.48	22317.01
569.64	22424.67
569.81	22401.27
569.97	22410.63
570.13	22349.78
570.30	22511.27
570.46	22579.15
570.62	22604.89
570.78	22417.65
570.95	22445.74
571.11	22857.67
571.27	22424.67
571.43	22522.98
571.60	22466.80
571.76	22267.86
571.92	22661.07
572.09	22705.54
572.25	22551.06
572.41	22595.53
572.57	22640.00
572.74	22745.33
572.90	22581.49
573.06	22803.84
573.22	22649.36
573.38	22675.11
573.55	22724.26
573.71	22469.14
573.87	22494.89
574.03	22761.71
574.20	22637.66
574.36	22824.90
574.52	22759.37
574.68	22342.75
574.84	22878.74
575.01	22705.54
575.17	22719.58
575.33	22752.35
575.49	22672.77
575.65	22654.05
575.82	22831.93
575.98	22558.08
576.14	22443.40
576.30	22855.33
576.46	22834.27
576.62	22822.56
576.79	22504.25
576.95	22342.75
577.11	22792.14
577.27	22998.10
577.43	22565.10
577.59	22958.31
577.75	22984.06
577.92	22867.03
578.08	22941.93
578.24	22387.22
578.40	22960.66
578.56	23161.94
578.72	22904.48
578.88	22927.89
579.04	22930.23
579.21	22787.46
579.37	23138.54
579.53	23033.21
579.69	22986.40
579.85	22768.73
580.01	22714.90
580.17	22813.20
580.33	22742.99
580.49	22862.35
580.65	23084.70
580.82	22864.69
580.98	22602.55
581.14	22675.11
581.30	22712.56
581.46	22948.95
581.62	22930.23
581.78	22508.93
581.94	23124.49
582.10	22508.93
582.26	22951.29
582.42	23070.66
582.58	22857.67
582.74	23075.34
582.90	22981.72
583.06	23068.32
583.22	22647.02
583.38	23002.78
583.54	22871.72
583.70	22707.88
583.86	23000.44
584.02	23131.51
584.18	22909.16
584.34	22740.64
584.50	22967.68
584.66	22644.68
584.82	23035.55
584.98	22878.74
585.14	22869.37
585.30	22817.88
585.46	22871.72
585.62	22792.14
585.78	22745.33
585.94	22916.19
586.10	22895.12
586.26	22913.84
586.42	23105.77
586.58	23431.10
586.74	23386.63
586.90	23311.74
587.06	22724.26
587.22	23119.81
587.38	23346.84
587.54	23154.92
587.70	23161.94
587.86	23082.36
588.02	23040.23
588.18	23426.42
588.34	23183.01
588.49	23264.92
588.65	22806.18
588.81	22972.36
588.97	23012.15
589.13	22876.40
589.29	22843.63
589.45	23276.63
589.61	23087.04
589.77	23396.00
589.93	23323.44
590.08	22876.40
590.24	23246.20
590.40	22932.57
590.56	23089.38
590.72	23218.11
590.88	22937.25
591.04	22841.29
