SpectraSuite Data File
++++++++++++++++++++++++++++++++++++
Date: Thu Oct 24 13:21:34 EDT 2013
User: stostad
Dark Spectrum Present: No
Reference Spectrum Present: No
Number of Sampled Component Spectra: 1
Spectrometers: USB2+H05261
Integration Time (usec): 100000 (USB2+H05261)
Spectra Averaged: 1 (USB2+H05261)
Boxcar Smoothing: 0 (USB2+H05261)
Correct for Electrical Dark: No (USB2+H05261)
Strobe/Lamp Enabled: No (USB2+H05261)
Correct for Detector Non-linearity: No (USB2+H05261)
Correct for Stray Light: No (USB2+H05261)
Number of Pixels in Processed Spectrum: 2048
>>>>>Begin Processed Spectral Data<<<<<
365.73	535.98
365.92	535.98
366.12	535.98
366.32	503.22
366.52	458.74
366.72	531.30
366.91	484.49
367.11	507.90
367.31	507.90
367.51	533.64
367.70	486.83
367.90	535.98
368.10	454.06
368.30	435.34
368.49	521.94
368.69	507.90
368.89	507.90
369.09	498.53
369.28	512.58
369.48	524.28
369.68	535.98
369.87	603.86
370.07	528.96
370.27	547.69
370.47	744.29
370.66	1139.84
370.86	1207.72
371.06	1214.74
371.25	1306.02
371.45	1273.25
371.65	1313.04
371.84	1252.19
372.04	1252.19
372.24	1261.55
372.44	1308.36
372.63	1310.70
372.83	1453.47
373.03	1383.26
373.22	1359.85
373.42	1401.98
373.62	1444.11
373.81	1427.73
374.01	1495.60
374.21	1380.92
374.40	1474.54
374.60	1451.13
374.79	1418.36
374.99	1500.28
375.19	1441.77
375.38	1547.09
375.58	1465.18
375.78	1441.77
375.97	1598.59
376.17	1591.56
376.37	1495.60
376.56	1570.50
376.76	1561.14
376.95	1453.47
377.15	1523.69
377.35	1537.73
377.54	1537.73
377.74	1544.75
377.93	1624.33
378.13	1661.78
378.33	1696.89
378.52	1636.03
378.72	1724.97
378.91	1680.50
379.11	1717.95
379.31	1533.05
379.50	1629.01
379.70	1685.19
379.89	1659.44
380.09	1652.42
380.28	1664.12
380.48	1710.93
380.68	1675.82
380.87	1769.44
381.07	1785.83
381.26	1760.08
381.46	1830.30
381.65	1753.06
381.85	1774.13
382.04	1762.42
382.24	1811.57
382.43	1790.51
382.63	1724.97
382.83	1760.08
383.02	1886.47
383.22	1851.36
383.41	1834.98
383.61	1881.79
383.80	1832.64
384.00	1806.89
384.19	1914.56
384.39	1928.60
384.58	1994.14
384.78	1928.60
384.97	1900.52
385.17	1888.81
385.36	1984.77
385.56	2008.18
385.75	1991.80
385.95	1900.52
386.14	2003.50
386.34	2078.40
386.53	1989.46
386.72	2099.46
386.92	2003.50
387.11	2069.03
387.31	2031.58
387.50	2057.33
387.70	2080.74
387.89	2143.93
388.09	2153.29
388.28	2176.70
388.48	2165.00
388.67	2120.53
388.86	2146.27
389.06	2260.96
389.25	2221.17
389.45	2197.76
389.64	2230.53
389.84	2380.32
390.03	2249.25
390.22	2298.41
390.42	2225.85
390.61	2401.39
390.81	2340.54
391.00	2396.71
391.19	2410.75
391.39	2436.50
391.58	2410.75
391.78	2331.17
391.97	2443.52
392.16	2359.26
392.36	2555.86
392.55	2495.01
392.75	2485.65
392.94	2597.99
393.13	2464.58
393.33	2605.02
393.52	2555.86
393.71	2616.72
393.91	2630.76
394.10	2649.49
394.29	2647.15
394.49	2600.34
394.68	2644.81
394.88	2576.93
395.07	2698.64
395.26	2717.36
395.46	2780.56
395.65	2750.13
395.84	2846.09
396.04	2867.16
396.23	2909.29
396.42	2771.19
396.62	2897.58
396.81	2869.50
397.00	2836.73
397.19	2949.08
397.39	2920.99
397.58	2935.03
397.77	2988.86
397.97	2958.44
398.16	3042.70
398.35	3038.02
398.55	3028.65
398.74	3023.97
398.93	3234.62
399.12	3087.17
399.32	3131.64
399.51	3145.68
399.70	3110.57
399.90	3108.23
400.09	3145.68
400.28	3258.03
400.47	3159.72
400.67	3398.46
400.86	3234.62
401.05	3379.73
401.24	3208.87
401.44	3363.35
401.63	3258.03
401.82	3449.95
402.01	3396.12
402.21	3496.76
402.40	3456.97
402.59	3541.23
402.78	3485.06
402.97	3442.93
403.17	3618.47
403.36	3641.87
403.55	3618.47
403.74	3784.65
403.93	3676.98
404.13	3735.50
404.32	3761.24
404.51	3768.26
404.70	3805.71
404.89	3880.61
405.09	3983.59
405.28	3911.04
405.47	3913.38
405.66	3962.53
405.85	3894.65
406.05	3765.92
406.24	3927.42
406.43	3950.82
406.62	4086.58
406.81	3999.98
407.00	3922.74
407.20	4119.34
407.39	3981.25
407.58	4142.75
407.77	4189.56
407.96	4191.90
408.15	4007.00
408.34	4203.60
408.54	4362.76
408.73	4339.35
408.92	4358.08
409.11	4418.93
409.30	4479.79
409.49	4449.36
409.68	4304.25
409.87	4444.68
410.07	4442.34
410.26	4580.43
410.45	4601.49
410.64	4500.85
410.83	4737.24
411.02	4812.14
411.21	4762.99
411.40	4697.46
411.59	4844.91
411.78	4858.95
411.98	4723.20
412.17	4842.57
412.36	4985.34
412.55	4978.32
412.74	5153.86
412.93	5083.64
413.12	4980.66
413.31	5259.18
413.50	5172.58
413.69	5224.08
413.88	5320.04
414.07	5224.08
414.26	5343.44
414.45	5401.96
414.64	5514.30
414.83	5575.16
415.02	5558.77
415.22	5605.58
415.41	5638.35
415.60	5722.61
415.79	5860.70
415.98	5891.13
416.17	6019.86
416.36	5926.24
416.55	5837.30
416.74	6010.50
416.93	5994.11
417.12	6146.25
417.31	5994.11
417.50	6106.46
417.69	6230.51
417.88	6277.32
418.07	6265.61
418.26	6326.47
418.45	6410.73
418.64	6691.59
418.83	6616.69
419.02	6389.66
419.21	6518.39
419.39	6661.16
419.58	6548.82
419.77	6551.16
419.96	6717.34
420.15	6747.76
420.34	6834.36
420.53	6588.61
420.72	6827.34
420.91	6888.20
421.10	6953.73
421.29	6951.39
421.48	6848.41
421.67	6949.05
421.86	6909.26
422.05	7028.63
422.24	6960.75
422.43	6963.09
422.61	7110.55
422.80	7318.86
422.99	7019.27
423.18	7059.06
423.37	7253.32
423.56	7225.23
423.75	7047.35
423.94	6890.54
424.13	6656.48
424.32	6869.47
424.50	7335.24
424.69	7356.30
424.88	7328.22
425.07	7115.23
425.26	7124.59
425.45	7232.26
425.64	7253.32
425.83	7187.79
426.01	7159.70
426.20	7279.07
426.39	7328.22
426.58	7426.52
426.77	7272.04
426.96	7414.82
427.15	7506.10
427.33	7382.05
427.52	7335.24
427.71	7588.02
427.90	7473.33
428.09	7634.83
428.28	7653.55
428.46	7742.49
428.65	7709.72
428.84	7932.08
429.03	7859.52
429.22	7709.72
429.40	7992.93
429.59	7983.57
429.78	7623.12
429.97	7634.83
430.16	7880.58
430.34	7981.23
430.53	8187.19
430.72	8329.97
430.91	8177.83
431.10	7920.37
431.28	8182.51
431.47	8322.94
431.66	8400.18
431.85	8252.73
432.03	8610.83
432.22	8517.21
432.41	8552.32
432.60	8734.88
432.79	8528.91
432.97	8723.18
433.16	8732.54
433.35	8772.33
433.54	8720.84
433.72	8746.58
433.91	8879.99
434.10	8835.52
434.28	8631.90
434.47	8858.93
434.66	9050.85
434.85	9053.19
435.03	9210.01
435.22	9308.31
435.41	9633.64
435.59	9282.56
435.78	9544.70
435.97	9355.12
436.16	9184.26
436.34	9210.01
436.53	9434.70
436.72	9537.68
436.90	9146.81
437.09	9441.72
437.28	9427.68
437.46	9441.72
437.65	9401.93
437.84	9612.58
438.02	9722.59
438.21	9598.54
438.40	9612.58
438.58	10118.14
438.77	9877.06
438.96	9991.75
439.14	10190.69
439.33	10256.23
439.52	10487.94
439.70	10298.36
439.89	10548.79
440.08	10602.63
440.26	10516.03
440.45	10452.83
440.63	10600.29
440.82	10899.87
441.01	10717.31
441.19	10782.85
441.38	10789.87
441.57	10902.22
441.75	11084.78
441.94	11344.58
442.12	11477.99
442.31	11716.72
442.50	11580.97
442.68	11382.03
442.87	11466.28
443.05	11658.21
443.24	11955.46
443.43	11723.74
443.61	11587.99
443.80	11887.58
443.98	11625.44
444.17	11159.67
444.35	11665.23
444.54	11772.89
444.73	11791.62
444.91	11761.19
445.10	11843.11
445.28	12013.97
445.47	11981.20
445.65	11840.77
445.84	12042.06
446.02	11962.48
446.21	11974.18
446.39	11957.80
446.58	12226.96
446.77	11999.93
446.95	11920.35
447.14	12187.17
447.32	12311.22
447.51	12107.59
447.69	11903.96
447.88	12278.45
448.06	12138.02
448.25	12100.57
448.43	12423.56
448.62	12367.39
448.80	12135.68
448.99	12439.95
449.17	12372.07
449.36	12292.49
449.54	12681.02
449.73	12849.54
449.91	12910.40
450.10	12716.13
450.28	12943.16
450.46	12690.38
450.65	12996.99
450.83	12896.35
451.02	12943.16
451.20	13064.87
451.39	13029.76
451.57	13193.60
451.76	13041.46
451.94	13193.60
452.13	13327.01
452.31	13242.75
452.49	13090.62
452.68	13486.17
452.86	13385.52
453.05	13446.38
453.23	13516.59
453.42	13415.95
453.60	13167.85
453.78	13554.04
453.97	13263.82
454.15	13525.96
454.34	13558.72
454.52	13881.72
454.70	13844.27
454.89	13710.86
455.07	13703.84
455.26	14183.65
455.44	14148.54
455.62	14066.62
455.81	14256.20
455.99	14169.60
456.17	14391.95
456.36	14181.31
456.54	14637.71
456.73	14668.14
456.91	14815.59
457.09	14796.87
457.28	15059.01
457.46	14504.30
457.64	15154.97
457.83	14946.66
458.01	14792.19
458.19	15222.84
458.38	15075.39
458.56	15129.22
458.74	15169.01
458.93	15414.77
459.11	15159.65
459.29	15403.07
459.48	15318.81
459.66	15372.64
459.84	15470.94
460.03	15807.98
460.21	16044.37
460.39	15534.14
460.57	15756.49
460.76	15953.09
460.94	16107.57
461.12	16079.48
461.31	16100.55
461.49	16084.16
461.67	15978.84
461.85	16135.65
462.04	16018.63
462.22	16358.00
462.40	16673.98
462.59	16526.52
462.77	16561.63
462.95	16748.87
463.13	16837.81
463.32	16407.16
463.50	16685.68
463.68	16842.50
463.86	16844.84
464.05	16582.70
464.23	16685.68
464.41	17032.08
464.59	16833.13
464.78	17404.22
464.96	17216.98
465.14	17062.51
465.32	17165.49
465.50	17109.32
465.69	17572.74
465.87	17324.65
466.05	17200.60
466.23	17488.48
466.41	17474.44
466.60	17790.41
466.78	17268.47
466.96	17493.16
467.14	17699.13
467.32	17729.56
467.51	17781.05
467.69	17048.46
467.87	17902.76
468.05	18359.16
468.23	17774.03
468.41	17830.20
468.60	17862.97
468.78	18326.39
468.96	18211.71
469.14	18450.44
469.32	18576.83
469.50	18113.41
469.69	18607.26
469.87	19096.43
470.05	18677.48
470.23	19222.82
470.41	18750.03
470.59	18913.87
470.77	19077.71
470.95	19180.69
471.14	19501.34
471.32	18885.78
471.50	19260.27
471.68	19136.22
471.86	19349.21
472.04	19534.11
472.22	20222.23
472.40	19405.38
472.58	19920.30
472.77	19665.18
472.95	19896.89
473.13	20549.90
473.31	20149.67
473.49	20231.59
473.67	20009.24
473.85	20549.90
474.03	20985.24
474.21	20903.32
474.39	20465.64
474.57	20730.12
474.75	21139.72
474.93	21678.04
475.12	21516.54
475.30	21387.82
475.48	21174.83
475.66	21596.12
475.84	21621.87
476.02	22029.12
476.20	22005.72
476.38	22106.36
476.56	22998.10
476.74	22860.01
476.92	22656.39
477.10	22778.09
477.28	23346.84
477.46	23335.14
477.64	23222.80
477.82	23702.61
478.00	24077.09
478.18	23854.74
478.36	24458.60
478.54	24912.66
478.72	24451.58
478.90	24697.33
479.08	25034.37
479.26	25177.14
479.44	25238.00
479.62	25874.62
479.80	25713.13
479.98	26113.36
480.16	26370.82
480.34	26316.98
480.52	26796.79
480.70	26576.78
480.88	26520.61
481.06	26785.09
481.24	26890.41
481.41	27461.51
481.59	27630.02
481.77	28034.94
481.95	28243.24
482.13	28528.79
482.31	28163.67
482.49	28587.30
482.67	29055.41
482.85	28926.68
483.03	29638.20
483.21	29944.81
483.39	30153.12
483.57	29656.93
483.74	29823.11
483.92	30316.96
484.10	30387.18
484.28	30967.63
484.46	31311.69
484.64	32198.75
484.82	31386.58
485.00	31868.73
485.18	32393.01
485.35	32603.66
485.53	32837.72
485.71	32994.53
485.89	33869.89
486.07	33427.53
486.25	33511.79
486.43	33727.12
486.61	33975.22
486.78	34621.20
486.96	34670.36
487.14	35103.35
487.32	35381.88
487.50	35386.56
487.68	35885.09
487.85	36414.05
488.03	36540.44
488.21	37036.64
488.39	36879.82
488.57	36879.82
488.75	37301.12
488.92	37682.62
489.10	37998.60
489.28	38223.29
489.46	38567.35
489.64	38440.96
489.81	39260.15
489.99	39161.84
490.17	39819.53
490.35	40076.99
490.53	40069.97
490.70	40767.45
490.88	40203.38
491.06	41060.02
491.24	41062.36
491.41	41345.56
491.59	41235.56
491.77	41928.36
491.95	41691.96
492.13	42258.37
492.30	42305.18
492.48	42686.69
492.66	42752.23
492.84	43564.39
493.01	43615.88
493.19	43576.09
493.37	44060.58
493.54	44385.92
493.72	44528.69
493.90	44514.65
494.08	45017.86
494.25	45244.90
494.43	45125.53
494.61	45659.17
494.79	45841.73
494.96	45450.86
495.14	46218.56
495.32	46340.27
495.49	47182.86
495.67	46976.89
495.85	47222.65
496.02	47461.38
496.20	47557.35
496.38	47370.10
496.55	47927.15
496.73	48486.54
496.91	48484.20
497.09	48633.99
497.26	48451.43
497.44	48706.55
497.62	48744.00
497.79	49827.66
497.97	49326.79
498.14	49947.03
498.32	49820.64
498.50	49902.56
498.67	50733.45
498.85	50272.37
499.03	50480.67
499.20	50373.01
499.38	50880.91
499.56	50925.38
499.73	51063.47
499.91	51318.59
500.08	51861.59
500.26	51334.97
500.44	51667.33
500.61	51990.32
500.79	51501.15
500.97	52034.79
501.14	52488.85
501.32	52266.50
501.49	52376.51
501.67	52416.30
501.84	53078.67
502.02	53069.31
502.20	53083.35
502.37	53478.90
502.55	52758.02
502.72	53078.67
502.90	53373.58
503.07	53284.64
503.25	54045.31
503.43	53532.73
503.60	53867.43
503.78	54199.79
503.95	53722.32
504.13	53806.58
504.30	54227.87
504.48	54136.59
504.65	54831.73
504.83	54363.62
505.01	54834.07
505.18	54674.91
505.36	55037.70
505.53	54487.67
505.71	55238.98
505.88	55157.06
506.06	54986.21
506.23	55540.91
506.41	55334.95
506.58	55428.57
506.76	55416.86
506.93	55505.80
507.11	55650.92
507.28	55760.92
507.46	56198.60
507.63	55941.14
507.81	56151.79
507.98	55978.59
508.16	56097.96
508.33	56182.22
508.50	56657.35
508.68	56643.30
508.85	56795.44
509.03	56575.43
509.20	56652.67
509.38	57113.75
509.55	56779.06
509.73	57095.03
509.90	57116.09
510.08	57364.19
510.25	57296.31
510.42	57298.65
510.60	57411.00
510.77	57626.33
510.95	57675.48
511.12	57612.29
511.30	57724.63
511.47	57942.30
511.64	57979.75
511.82	57904.85
511.99	57792.51
512.17	58124.86
512.34	57982.09
512.51	58569.57
512.69	58628.08
512.86	58489.99
513.04	58822.34
513.21	58562.54
513.38	58644.46
513.56	58621.06
513.73	58574.25
513.90	58789.58
514.08	58967.46
514.25	58693.61
514.43	59114.91
514.60	58974.48
514.77	59032.99
514.95	59250.66
515.12	59128.95
515.29	59325.56
515.47	59683.66
515.64	59601.74
515.81	59608.76
515.99	59578.34
516.16	59620.47
516.33	59786.64
516.51	59760.90
516.68	59859.20
516.85	59854.52
517.03	59824.09
517.20	60133.04
517.37	59957.50
517.54	59854.52
517.72	59971.55
517.89	60203.26
518.06	60130.70
518.24	60348.37
518.41	60439.65
518.58	60554.34
518.75	60163.47
518.93	60341.35
519.10	60392.84
519.27	60556.68
519.45	60654.98
519.62	60903.08
519.79	60713.50
519.96	60832.86
520.14	61013.08
520.31	60638.60
520.48	61050.53
520.65	61146.50
520.83	61338.42
521.00	61499.92
521.17	61258.84
521.34	61432.04
521.52	61469.49
521.69	61354.80
521.86	61396.93
522.03	61506.94
522.20	61584.18
522.38	61848.66
522.55	61907.17
522.72	61766.74
522.89	61708.22
523.07	62054.62
523.24	61755.03
523.41	61946.96
523.58	61766.74
523.75	62148.24
523.92	62110.80
524.10	62218.46
524.27	62295.70
524.44	62281.66
524.61	62354.21
524.78	62370.60
524.96	62468.90
525.13	62443.15
525.30	62550.82
525.47	62752.10
525.64	62604.65
525.81	62686.57
525.98	62784.87
526.16	62522.73
526.33	62745.08
526.50	62913.60
526.67	62745.08
526.84	63056.37
527.01	63213.19
527.18	62925.30
527.36	62986.16
527.53	63089.14
527.70	63140.63
527.87	63304.47
528.04	63236.59
528.21	63587.67
528.38	63234.25
528.55	63421.50
528.72	63185.10
528.89	63344.26
529.07	63131.27
529.24	63215.53
529.41	63433.20
529.58	63540.86
529.75	63564.27
529.92	63620.44
530.09	63791.30
530.26	63805.34
530.43	63494.05
530.60	63561.93
530.77	63788.96
530.94	63896.62
531.11	63875.56
531.28	63948.12
531.46	63948.12
531.63	64037.06
531.80	64048.76
531.97	64079.19
532.14	64074.51
532.31	64130.68
532.48	64231.32
532.65	64310.90
532.82	64292.18
532.99	64357.71
533.16	64102.59
533.33	64460.69
533.50	64596.45
533.67	64310.90
533.84	64420.90
534.01	64474.74
534.18	64549.63
534.35	64764.96
534.52	64619.85
534.69	64793.05
534.86	64652.62
535.03	64584.74
535.20	64839.86
535.37	64849.22
535.54	64956.89
535.71	64701.77
535.88	65055.19
536.05	64926.46
536.22	64945.18
536.38	64968.59
536.55	64928.80
536.72	65188.60
536.89	65109.02
537.06	65059.87
537.23	65169.88
537.40	65207.32
537.57	65214.35
537.74	65233.07
537.91	65354.78
538.08	65223.71
538.25	65209.67
538.42	65319.67
538.59	65535.00
538.75	65450.74
538.92	65535.00
539.09	65535.00
539.26	65535.00
539.43	65450.74
539.60	65535.00
539.77	65535.00
539.94	65535.00
540.11	65535.00
540.28	65535.00
540.44	65535.00
540.61	65535.00
540.78	65535.00
540.95	65535.00
541.12	65535.00
541.29	65535.00
541.46	65535.00
541.62	65535.00
541.79	65535.00
541.96	65535.00
542.13	65535.00
542.30	65535.00
542.47	65535.00
542.63	65535.00
542.80	65535.00
542.97	65535.00
543.14	65535.00
543.31	65535.00
543.48	65535.00
543.64	65535.00
543.81	65535.00
543.98	65535.00
544.15	65535.00
544.32	65535.00
544.48	65535.00
544.65	65535.00
544.82	65535.00
544.99	65535.00
545.16	65535.00
545.32	65535.00
545.49	65535.00
545.66	65535.00
545.83	65535.00
546.00	65535.00
546.16	65535.00
546.33	65535.00
546.50	65535.00
546.67	65535.00
546.83	65535.00
547.00	65535.00
547.17	65535.00
547.34	65535.00
547.50	65535.00
547.67	65535.00
547.84	65535.00
548.00	65535.00
548.17	65535.00
548.34	65535.00
548.51	65535.00
548.67	65535.00
548.84	65535.00
549.01	65535.00
549.18	65535.00
549.34	65535.00
549.51	65535.00
549.68	65535.00
549.84	65535.00
550.01	65535.00
550.18	65535.00
550.34	65535.00
550.51	65535.00
550.68	65535.00
550.84	65535.00
551.01	65535.00
551.18	65535.00
551.34	65535.00
551.51	65535.00
551.68	65535.00
551.84	65535.00
552.01	65535.00
552.18	65535.00
552.34	65535.00
552.51	65535.00
552.68	65535.00
552.84	65535.00
553.01	65535.00
553.18	65535.00
553.34	65535.00
553.51	65535.00
553.67	65535.00
553.84	65535.00
554.01	65535.00
554.17	65535.00
554.34	65535.00
554.51	65535.00
554.67	65535.00
554.84	65535.00
555.00	65535.00
555.17	65535.00
555.33	65535.00
555.50	65535.00
555.67	65535.00
555.83	65535.00
556.00	65535.00
556.16	65535.00
556.33	65535.00
556.50	65535.00
556.66	65535.00
556.83	65535.00
556.99	65535.00
557.16	65535.00
557.32	65535.00
557.49	65535.00
557.65	65535.00
557.82	65535.00
557.98	65535.00
558.15	65535.00
558.32	65535.00
558.48	65535.00
558.65	65535.00
558.81	65535.00
558.98	65535.00
559.14	65535.00
559.31	65535.00
559.47	65535.00
559.64	65535.00
559.80	65535.00
559.97	65535.00
560.13	65535.00
560.30	65535.00
560.46	65535.00
560.63	65535.00
560.79	65535.00
560.96	65535.00
561.12	65535.00
561.29	65535.00
561.45	65535.00
561.61	65535.00
561.78	65535.00
561.94	65535.00
562.11	65535.00
562.27	65535.00
562.44	65535.00
562.60	65535.00
562.77	65535.00
562.93	65535.00
563.10	65535.00
563.26	65535.00
563.42	65535.00
563.59	65535.00
563.75	65535.00
563.92	65535.00
564.08	65535.00
564.24	65535.00
564.41	65535.00
564.57	65535.00
564.74	65535.00
564.90	65535.00
565.07	65535.00
565.23	65535.00
565.39	65535.00
565.56	65535.00
565.72	65535.00
565.88	65535.00
566.05	65535.00
566.21	65535.00
566.38	65535.00
566.54	65535.00
566.70	65535.00
566.87	65535.00
567.03	65535.00
567.19	65535.00
567.36	65535.00
567.52	65535.00
567.68	65535.00
567.85	65535.00
568.01	65535.00
568.17	65535.00
568.34	65535.00
568.50	65535.00
568.66	65535.00
568.83	65535.00
568.99	65535.00
569.15	65535.00
569.32	65535.00
569.48	65535.00
569.64	65535.00
569.81	65535.00
569.97	65535.00
570.13	65535.00
570.30	65535.00
570.46	65535.00
570.62	65535.00
570.78	65535.00
570.95	65535.00
571.11	65535.00
571.27	65535.00
571.43	65535.00
571.60	65535.00
571.76	65535.00
571.92	65535.00
572.09	65535.00
572.25	65535.00
572.41	65535.00
572.57	65535.00
572.74	65535.00
572.90	65535.00
573.06	65535.00
573.22	65535.00
573.38	65535.00
573.55	65535.00
573.71	65535.00
573.87	65535.00
574.03	65535.00
574.20	65535.00
574.36	65535.00
574.52	65535.00
574.68	65535.00
574.84	65535.00
575.01	65535.00
575.17	65535.00
575.33	65535.00
575.49	65535.00
575.65	65535.00
575.82	65535.00
575.98	65535.00
576.14	65535.00
576.30	65535.00
576.46	65535.00
576.62	65535.00
576.79	65535.00
576.95	65535.00
577.11	65535.00
577.27	65535.00
577.43	65535.00
577.59	65535.00
577.75	65535.00
577.92	65535.00
578.08	65535.00
578.24	65535.00
578.40	65535.00
578.56	65535.00
578.72	65535.00
578.88	65535.00
579.04	65535.00
579.21	65535.00
579.37	65535.00
579.53	65535.00
579.69	65535.00
579.85	65535.00
580.01	65535.00
580.17	65535.00
580.33	65535.00
580.49	65535.00
580.65	65535.00
580.82	65535.00
580.98	65535.00
581.14	65535.00
581.30	65535.00
581.46	65535.00
581.62	65535.00
581.78	65535.00
581.94	65535.00
582.10	65535.00
582.26	65535.00
582.42	65535.00
582.58	65535.00
582.74	65535.00
582.90	65535.00
583.06	65535.00
583.22	65535.00
583.38	65535.00
583.54	65535.00
583.70	65535.00
583.86	65535.00
584.02	65535.00
584.18	65535.00
584.34	65535.00
584.50	65535.00
584.66	65535.00
584.82	65535.00
584.98	65535.00
585.14	65535.00
585.30	65535.00
585.46	65535.00
585.62	65535.00
585.78	65535.00
585.94	65535.00
586.10	65535.00
586.26	65535.00
586.42	65535.00
586.58	65535.00
586.74	65535.00
586.90	65535.00
587.06	65535.00
