SpectraSuite Data File
++++++++++++++++++++++++++++++++++++
Date: Thu Oct 24 13:21:15 EDT 2013
User: stostad
Dark Spectrum Present: No
Reference Spectrum Present: No
Number of Sampled Component Spectra: 1
Spectrometers: USB2+H05261
Integration Time (usec): 100000 (USB2+H05261)
Spectra Averaged: 1 (USB2+H05261)
Boxcar Smoothing: 0 (USB2+H05261)
Correct for Electrical Dark: No (USB2+H05261)
Strobe/Lamp Enabled: No (USB2+H05261)
Correct for Detector Non-linearity: No (USB2+H05261)
Correct for Stray Light: No (USB2+H05261)
Number of Pixels in Processed Spectrum: 2048
>>>>>Begin Processed Spectral Data<<<<<
365.73	592.16
365.92	592.16
366.12	592.16
366.32	482.15
366.52	425.98
366.72	503.22
366.91	409.59
367.11	442.36
367.31	376.83
367.51	428.32
367.70	468.11
367.90	477.47
368.10	442.36
368.30	482.15
368.49	470.45
368.69	477.47
368.89	458.74
369.09	545.34
369.28	500.87
369.48	496.19
369.68	550.03
369.87	561.73
370.07	475.13
370.27	587.47
370.47	547.69
370.66	746.63
370.86	706.84
371.06	781.74
371.25	856.64
371.45	798.12
371.65	770.04
371.84	866.00
372.04	711.52
372.24	837.91
372.44	875.36
372.63	875.36
372.83	833.23
373.03	847.27
373.22	856.64
373.42	837.91
373.62	873.02
373.81	821.53
374.01	933.87
374.21	880.04
374.40	851.96
374.60	908.13
374.79	837.91
374.99	912.81
375.19	887.06
375.38	908.13
375.58	828.55
375.78	868.34
375.97	983.02
376.17	903.45
376.37	877.70
376.56	947.92
376.76	863.66
376.95	924.51
377.15	889.40
377.35	968.98
377.54	917.49
377.74	940.90
377.93	833.23
378.13	905.79
378.33	901.11
378.52	976.00
378.72	957.28
378.91	943.24
379.11	889.40
379.31	936.21
379.50	987.71
379.70	936.21
379.89	973.66
380.09	968.98
380.28	945.58
380.48	933.87
380.68	1025.15
380.87	919.83
381.07	992.39
381.26	947.92
381.46	999.41
381.65	980.68
381.85	959.62
382.04	985.37
382.24	987.71
382.43	983.02
382.63	1018.13
382.83	1022.81
383.02	999.41
383.22	1053.24
383.41	1027.50
383.61	1041.54
383.80	1055.58
384.00	1025.15
384.19	985.37
384.39	1034.52
384.58	1043.88
384.78	1081.33
384.97	971.32
385.17	1041.54
385.36	1025.15
385.56	1055.58
385.75	1041.54
385.95	1032.18
386.14	1081.33
386.34	1050.90
386.53	1107.07
386.72	1039.20
386.92	1104.73
387.11	1095.37
387.31	1090.69
387.50	1057.92
387.70	1184.31
387.89	1027.50
388.09	1055.58
388.28	1018.13
388.48	1123.46
388.67	1146.86
388.86	1086.01
389.06	1121.12
389.25	1200.69
389.45	1057.92
389.64	1191.33
389.84	1146.86
390.03	1158.57
390.22	1196.01
390.42	1149.20
390.61	1198.35
390.81	1151.54
391.00	1158.57
391.19	1261.55
391.39	1170.27
391.58	1172.61
391.78	1214.74
391.97	1146.86
392.16	1142.18
392.36	1341.13
392.55	1301.34
392.75	1273.25
392.94	1273.25
393.13	1226.44
393.33	1228.78
393.52	1203.04
393.71	1266.23
393.91	1301.34
394.10	1275.59
394.29	1284.95
394.49	1249.85
394.68	1270.91
394.88	1196.01
395.07	1329.42
395.26	1291.98
395.46	1247.51
395.65	1266.23
395.84	1294.32
396.04	1275.59
396.23	1357.51
396.42	1371.55
396.62	1334.11
396.81	1404.32
397.00	1336.45
397.19	1390.28
397.39	1420.71
397.58	1385.60
397.77	1409.00
397.97	1385.60
398.16	1418.36
398.35	1331.76
398.55	1371.55
398.74	1369.21
398.93	1390.28
399.12	1392.62
399.32	1465.18
399.51	1502.62
399.70	1411.34
399.90	1547.09
400.09	1413.68
400.28	1427.73
400.47	1519.01
400.67	1479.22
400.86	1507.30
401.05	1519.01
401.24	1575.18
401.44	1446.45
401.63	1575.18
401.82	1591.56
402.01	1645.40
402.21	1607.95
402.40	1547.09
402.59	1596.25
402.78	1678.16
402.97	1584.54
403.17	1626.67
403.36	1647.74
403.55	1675.82
403.74	1678.16
403.93	1785.83
404.13	1741.36
404.32	1678.16
404.51	1774.13
404.70	1687.53
404.89	1724.97
405.09	1778.81
405.28	1748.38
405.47	1659.44
405.66	1827.96
405.85	1757.74
406.05	1736.68
406.24	1844.34
406.43	1905.20
406.62	1816.26
406.81	1949.67
407.00	1858.39
407.20	1743.70
407.39	1764.76
407.58	1856.04
407.77	1968.39
407.96	1952.01
408.15	1952.01
408.34	1884.13
408.54	1909.88
408.73	1928.60
408.92	1930.94
409.11	1980.09
409.30	2052.65
409.49	2003.50
409.68	2080.74
409.87	1923.92
410.07	2069.03
410.26	2120.53
410.45	2040.95
410.64	2057.33
410.83	2129.89
411.02	2036.27
411.21	2090.10
411.40	2146.27
411.59	2143.93
411.78	2165.00
411.98	2214.15
412.17	2099.46
412.36	2279.68
412.55	2214.15
412.74	2221.17
412.93	2270.32
413.12	2279.68
413.31	2408.41
413.50	2368.62
413.69	2415.43
413.88	2396.71
414.07	2303.09
414.26	2406.07
414.45	2427.14
414.64	2340.54
414.83	2502.03
415.02	2408.41
415.22	2483.31
415.41	2473.95
415.60	2541.82
415.79	2410.75
415.98	2452.88
416.17	2633.10
416.36	2487.99
416.55	2595.65
416.74	2574.59
416.93	2616.72
417.12	2686.94
417.31	2715.02
417.50	2691.62
417.69	2768.85
417.88	2696.30
418.07	2654.17
418.26	2778.22
418.45	2796.94
418.64	2892.90
418.83	2808.64
419.02	2815.66
419.21	2803.96
419.39	2981.84
419.58	2850.77
419.77	2757.15
419.96	2946.73
420.15	2928.01
420.34	2944.39
420.53	2913.97
420.72	2883.54
420.91	2864.82
421.10	2956.10
421.29	2946.73
421.48	3002.91
421.67	3033.33
421.86	3016.95
422.05	2991.20
422.24	2920.99
422.43	3005.25
422.61	3159.72
422.80	3129.30
422.99	3136.32
423.18	3080.14
423.37	3089.51
423.56	3122.27
423.75	3187.81
423.94	3002.91
424.13	2960.78
424.32	2965.46
424.50	3185.47
424.69	3108.23
424.88	3082.49
425.07	3122.27
425.26	3084.83
425.45	3141.00
425.64	3096.53
425.83	2974.82
426.01	3061.42
426.20	3206.53
426.39	3243.98
426.58	3143.34
426.77	3255.69
426.96	3211.22
427.15	3190.15
427.33	3169.09
427.52	3208.87
427.71	3133.98
427.90	3213.56
428.09	3353.99
428.28	3295.47
428.46	3304.84
428.65	3281.43
428.84	3361.01
429.03	3398.46
429.22	3325.90
429.40	3368.03
429.59	3389.10
429.78	3302.50
429.97	3176.11
430.16	3316.54
430.34	3428.88
430.53	3515.48
430.72	3543.57
430.91	3389.10
431.10	3400.80
431.28	3506.12
431.47	3592.72
431.66	3487.40
431.85	3487.40
432.03	3618.47
432.22	3599.74
432.41	3541.23
432.60	3651.24
432.79	3658.26
432.97	3768.26
433.16	3618.47
433.35	3566.98
433.54	3660.60
433.72	3644.21
433.91	3662.94
434.10	3878.27
434.28	3559.95
434.47	3791.67
434.66	3632.51
434.85	3744.86
435.03	3946.14
435.22	4065.51
435.41	4201.26
435.59	4079.55
435.78	4088.92
435.97	4058.49
436.16	3983.59
436.34	3824.44
436.53	3906.35
436.72	3978.91
436.90	3840.82
437.09	3997.64
437.28	3852.52
437.46	3847.84
437.65	3864.22
437.84	4009.34
438.02	4051.47
438.21	4037.42
438.40	4002.32
438.58	4086.58
438.77	4084.23
438.96	4133.39
439.14	4271.48
439.33	4210.62
439.52	4222.33
439.70	4266.80
439.89	4341.69
440.08	4369.78
440.26	4301.90
440.45	4454.04
440.63	4430.63
440.82	4402.55
441.01	4332.33
441.19	4493.83
441.38	4430.63
441.57	4489.15
441.75	4545.32
441.94	4564.04
442.12	4716.18
442.31	4645.96
442.50	4643.62
442.68	4777.03
442.87	4652.98
443.05	4709.16
443.24	4652.98
443.43	4865.97
443.61	4821.50
443.80	4875.34
443.98	4667.03
444.17	4596.81
444.35	4620.22
444.54	4685.75
444.73	4929.17
444.91	4896.40
445.10	4816.82
445.28	4875.34
445.47	4840.23
445.65	4992.36
445.84	4774.69
446.02	4945.55
446.21	4847.25
446.39	4940.87
446.58	4938.53
446.77	4884.70
446.95	4795.76
447.14	4884.70
447.32	4922.15
447.51	4851.93
447.69	4793.42
447.88	4821.50
448.06	4870.65
448.25	4912.78
448.43	4910.44
448.62	5090.67
448.80	5078.96
448.99	5011.09
449.17	4910.44
449.36	5032.15
449.54	5083.64
449.73	5282.59
449.91	5362.17
450.10	5217.05
450.28	5153.86
450.46	5245.14
450.65	5198.33
450.83	5348.12
451.02	5191.31
451.20	5109.39
451.39	5310.68
451.57	5228.76
451.76	5181.95
451.94	5210.03
452.13	5378.55
452.31	5256.84
452.49	5371.53
452.68	5301.31
452.86	5343.44
453.05	5334.08
453.23	5437.06
453.42	5406.64
453.60	5343.44
453.78	5544.73
453.97	5327.06
454.15	5387.91
454.34	5387.91
454.52	5542.39
454.70	5565.79
454.89	5507.28
455.07	5497.92
455.26	5647.71
455.44	5654.73
455.62	5533.03
455.81	5636.01
455.99	5703.89
456.17	5647.71
456.36	5689.84
456.54	5783.46
456.73	5849.00
456.91	6057.31
457.09	5687.50
457.28	6019.86
457.46	5839.64
457.64	5977.73
457.83	5886.45
458.01	5874.74
458.19	6076.03
458.38	6045.60
458.56	6125.18
458.74	6106.46
458.93	6024.54
459.11	6197.74
459.29	6059.65
459.48	6115.82
459.66	6193.06
459.84	6321.79
460.03	6218.80
460.21	6181.35
460.39	6099.44
460.57	6258.59
460.76	6274.98
460.94	6403.71
461.12	6382.64
461.31	6195.40
461.49	6422.43
461.67	6253.91
461.85	6539.46
462.04	6380.30
462.22	6904.58
462.40	6572.22
462.59	6403.71
462.77	6548.82
462.95	6480.94
463.13	6579.25
463.32	6567.54
463.50	6518.39
463.68	6607.33
463.86	6546.48
464.05	6403.71
464.23	6614.35
464.41	6567.54
464.59	6396.68
464.78	6801.60
464.96	6778.19
465.14	6642.44
465.32	6946.71
465.50	6675.21
465.69	6768.83
465.87	6862.45
466.05	6604.99
466.23	6626.06
466.41	6715.00
466.60	6829.68
466.78	6881.18
466.96	6787.55
467.14	6925.65
467.32	6942.03
467.51	6897.56
467.69	7007.56
467.87	6857.77
468.05	6998.20
468.23	6953.73
468.41	6974.80
468.60	6897.56
468.78	7187.79
468.96	7152.68
469.14	7082.46
469.32	7148.00
469.50	7016.93
469.69	6951.39
469.87	7407.80
470.05	7377.37
470.23	7435.88
470.41	7269.70
470.59	7438.22
470.77	7218.21
470.95	7241.62
471.14	7419.50
471.32	7276.73
471.50	7393.75
471.68	7445.24
471.86	7522.48
472.04	7714.41
472.22	7695.68
472.40	7625.47
472.58	7613.76
472.77	7630.15
472.95	7686.32
473.13	8133.36
473.31	7648.87
473.49	7831.43
473.67	7857.18
473.85	7964.84
474.03	8198.90
474.21	8035.06
474.39	8138.04
474.57	7971.86
474.75	8219.96
474.93	8294.86
475.12	8135.70
475.30	8299.54
475.48	8210.60
475.66	8374.44
475.84	8126.34
476.02	8435.29
476.20	8355.71
476.38	8479.76
476.56	8631.90
476.74	8601.47
476.92	8659.98
477.10	8746.58
477.28	8641.26
477.46	8720.84
477.64	8933.82
477.82	9139.79
478.00	9242.78
478.18	8926.80
478.36	9261.50
478.54	9507.26
478.72	9224.05
478.90	9350.44
479.08	9430.02
479.26	9561.09
479.44	9650.03
479.62	9551.73
479.80	9942.60
479.98	9760.03
480.16	9937.91
480.34	9872.38
480.52	10050.26
480.70	10083.03
480.88	9928.55
481.06	10073.67
481.24	10160.27
481.41	10338.15
481.59	10319.42
481.77	10286.65
481.95	10246.87
482.13	10738.38
482.31	10452.83
482.49	10942.00
482.67	10576.88
482.85	10920.94
483.03	11164.36
483.21	11056.69
483.39	11208.83
483.57	11152.65
483.74	11098.82
483.92	11571.61
484.10	11255.64
484.28	11618.42
484.46	11669.91
484.64	12046.74
484.82	11625.44
485.00	11995.25
485.18	12159.08
485.35	12245.68
485.53	12252.70
485.71	12269.09
485.89	12259.73
486.07	12285.47
486.25	12322.92
486.43	12559.31
486.61	12746.56
486.78	12652.94
486.96	12961.89
487.14	12922.10
487.32	13296.58
487.50	12894.01
487.68	13310.63
487.85	13186.58
488.03	13511.91
488.21	13619.58
488.39	13554.04
488.57	13804.48
488.75	14167.26
488.92	13806.82
489.10	14193.01
489.28	14183.65
489.46	14230.46
489.64	14225.78
489.81	14457.49
489.99	14462.17
490.17	14565.15
490.35	14822.61
490.53	14817.93
490.70	15103.48
490.88	15126.88
491.06	15044.96
491.24	15059.01
491.41	15272.00
491.59	15716.70
491.77	15463.92
491.95	15562.22
492.13	15676.91
492.30	15538.82
492.48	15744.78
492.66	15590.31
492.84	15754.15
493.01	16346.30
493.19	16070.12
493.37	16362.69
493.54	16065.44
493.72	16402.47
493.90	16397.79
494.08	16648.23
494.25	16702.06
494.43	16802.71
494.61	16896.33
494.79	16833.13
494.96	16957.18
495.14	17163.15
495.32	17008.67
495.49	17380.82
495.67	17528.27
495.85	17390.18
496.02	17958.93
496.20	17790.41
496.38	17713.17
496.55	17652.32
496.73	18127.45
496.91	17891.06
497.09	18274.90
497.26	18204.69
497.44	18321.71
497.62	18558.11
497.79	18499.59
497.97	18508.96
498.14	19066.00
498.32	18827.27
498.50	18747.69
498.67	18831.95
498.85	18834.29
499.03	18970.04
499.20	19318.78
499.38	19325.80
499.56	19445.17
499.73	19871.15
499.91	19646.46
500.08	19597.31
500.26	19318.78
500.44	19782.21
500.61	19651.14
500.79	19901.58
500.97	20109.88
501.14	19899.23
501.32	20034.99
501.49	20250.32
501.67	20245.63
501.84	20166.06
502.02	20475.01
502.20	20561.61
502.37	20287.76
502.55	20306.49
502.72	20575.65
502.90	20704.38
503.07	20636.50
503.25	20695.02
503.43	20638.84
503.60	21263.77
503.78	20872.90
503.95	20807.36
504.13	21055.46
504.30	20950.14
504.48	21259.09
504.65	21668.68
504.83	21462.71
505.01	21577.40
505.18	21465.05
505.36	21532.93
505.53	21387.82
505.71	21561.02
505.88	21900.39
506.06	21425.26
506.23	21958.91
506.41	21649.96
506.58	21827.84
506.76	21652.30
506.93	22347.44
507.11	22401.27
507.28	22487.87
507.46	22396.59
507.63	22333.39
507.81	22595.53
507.98	22164.87
508.16	22632.98
508.33	22558.08
508.50	22497.23
508.68	22565.10
508.85	22710.22
509.03	22848.31
509.20	22728.94
509.38	23213.43
509.55	22960.66
509.73	23365.57
509.90	23426.42
510.08	23344.50
510.25	23304.71
510.42	23206.41
510.60	23225.14
510.77	23552.81
510.95	23393.65
511.12	23496.64
511.30	23946.02
511.47	23896.87
511.64	23676.86
511.82	23887.51
511.99	23763.46
512.17	24018.58
512.34	23962.40
512.51	24587.33
512.69	24474.98
512.86	24091.13
513.04	24250.29
513.21	24594.35
513.38	24278.38
513.56	24514.77
513.73	24449.24
513.90	24713.72
514.08	24772.23
514.25	24907.98
514.43	24793.29
514.60	24891.60
514.77	24896.28
514.95	25130.33
515.12	25015.65
515.29	25174.80
515.47	25518.86
515.64	25198.21
515.81	25607.80
515.99	25125.65
516.16	25186.50
516.33	25841.85
516.51	25432.26
516.68	25556.31
516.85	25867.60
517.03	25972.92
517.20	25912.07
517.37	25830.15
517.54	26106.34
517.72	25647.59
517.89	25701.42
518.06	26019.74
518.24	26103.99
518.41	25919.09
518.58	26494.86
518.75	26349.75
518.93	26178.89
519.10	26061.87
519.27	26555.72
519.45	26122.72
519.62	26553.38
519.79	26419.97
519.96	26279.54
520.14	26532.31
520.31	26370.82
520.48	26742.96
520.65	26859.99
520.83	26824.88
521.00	27012.12
521.17	26984.04
521.34	27016.80
521.52	27353.84
521.69	26721.90
521.86	27178.30
522.03	27309.37
522.20	27257.88
522.38	27323.41
522.55	27330.44
522.72	27695.56
522.89	27372.57
523.07	27704.92
523.24	27583.21
523.41	27449.80
523.58	27597.26
523.75	27304.69
523.92	27669.81
524.10	27857.06
524.27	27833.65
524.44	28011.53
524.61	28004.51
524.78	27786.84
524.96	28191.75
525.13	28444.53
525.30	28177.71
525.47	28210.48
525.64	28533.47
525.81	28596.67
525.98	28467.94
526.16	28430.49
526.33	28353.25
526.50	28797.95
526.67	28631.77
526.84	28858.81
527.01	28397.72
527.18	28746.46
527.36	29048.39
527.53	29046.05
527.70	29287.12
527.87	29174.78
528.04	28922.00
528.21	29106.90
528.38	29439.26
528.55	29092.86
528.72	28762.84
528.89	29216.91
529.07	29270.74
529.24	29453.30
529.41	29111.58
529.58	29273.08
529.75	29310.53
529.92	29486.07
530.09	29872.26
530.26	29333.93
530.43	29942.47
530.60	29771.61
530.77	29883.96
530.94	29998.65
531.11	29486.07
531.28	29830.13
531.46	29844.17
531.63	30192.91
531.80	29666.29
531.97	30047.80
532.14	30026.73
532.31	30246.74
532.48	30251.42
532.65	30286.53
532.82	29818.42
532.99	30033.75
533.16	30129.72
533.33	30195.25
533.50	30433.99
533.67	30256.11
533.84	30274.83
534.01	30515.90
534.18	30415.26
534.35	31047.21
534.52	30450.37
534.69	30745.28
534.86	30635.27
535.03	30398.88
535.20	30658.68
535.37	31049.55
535.54	30845.92
535.71	30984.01
535.88	30918.48
536.05	31063.59
536.22	31133.81
536.38	31330.41
536.55	30955.93
536.72	31372.54
536.89	31023.80
537.06	31559.78
537.23	31569.15
537.40	30988.69
537.57	31257.85
537.74	31690.85
537.91	31491.91
538.08	31735.32
538.25	31201.68
538.42	31700.22
538.59	31672.13
538.75	31487.23
538.92	31271.90
539.09	31920.23
539.26	31686.17
539.43	31571.49
539.60	31772.77
539.77	32046.62
539.94	32261.94
540.11	32165.98
540.28	32428.12
540.44	32339.18
540.61	32189.39
540.78	31936.61
540.95	32287.69
541.12	32594.30
541.29	32184.71
541.46	32613.02
541.62	32589.62
541.79	32641.11
541.96	32533.45
542.13	32388.33
542.30	32776.86
542.47	32886.87
542.63	32727.71
542.80	33198.16
542.97	33256.67
543.14	33331.57
543.31	33373.70
543.48	33029.64
543.64	33717.76
543.81	33624.14
543.98	33362.00
544.15	33174.75
544.32	33371.36
544.48	33748.18
544.65	33394.76
544.82	33450.94
544.99	33362.00
545.16	33584.35
545.32	33244.97
545.49	33853.51
545.66	34202.25
545.83	34504.18
546.00	34338.00
546.16	34057.14
546.33	34113.31
546.50	33511.79
546.67	34054.79
546.83	33291.78
547.00	33844.15
547.17	33493.07
547.34	33462.64
547.50	33752.87
547.67	33771.59
547.84	34377.79
548.00	33982.24
548.17	34038.41
548.34	33509.45
548.51	34096.92
548.67	34354.38
548.84	33881.60
549.01	34499.50
549.18	34127.35
549.34	34225.65
549.51	34029.05
549.68	34457.37
549.84	34225.65
550.01	34312.25
550.18	33830.10
550.34	33900.32
550.51	34141.39
550.68	34199.91
550.84	34103.95
551.01	34370.77
551.18	34256.08
551.34	34143.74
551.51	34417.58
551.68	34307.57
551.84	34375.45
552.01	34033.73
552.18	34703.12
552.34	34487.79
552.51	34902.07
552.68	34726.53
552.84	34822.49
553.01	34637.59
553.18	34785.04
553.34	34501.84
553.51	34506.52
553.67	34707.80
553.84	35016.75
554.01	35065.91
554.17	34906.75
554.34	34960.58
554.51	34525.24
554.67	35103.35
554.84	34700.78
555.00	34738.23
555.17	34738.23
555.33	35316.34
555.50	35061.22
555.67	34829.51
555.83	34965.26
556.00	35061.22
556.16	35178.25
556.33	35564.44
556.50	34979.31
556.66	35037.82
556.83	35044.84
556.99	35325.71
557.16	35634.66
557.32	35424.01
557.49	34920.79
557.65	35133.78
557.82	35103.35
557.98	35068.25
558.15	35267.19
558.32	35620.61
558.48	35325.71
558.65	35449.75
558.81	35379.54
558.98	35398.26
559.14	35264.85
559.31	35093.99
559.47	35311.66
559.64	35662.74
559.80	35271.87
559.97	35494.22
560.13	35744.66
560.30	35384.22
560.46	35805.52
560.63	35454.44
560.79	35723.60
560.96	36121.49
561.12	35974.03
561.29	35604.23
561.45	35812.54
561.61	35756.36
561.78	35711.89
561.94	36025.53
562.11	36226.81
562.27	35634.66
562.44	36177.66
562.60	35669.76
562.77	35751.68
562.93	35821.90
563.10	36158.94
563.26	35807.86
563.42	36425.76
563.59	36247.88
563.75	36229.15
563.92	36081.70
564.08	36055.95
564.24	35634.66
564.41	36119.15
564.57	36044.25
564.74	35583.16
564.90	36144.89
565.07	36163.62
565.23	36147.23
565.39	35924.88
565.56	36634.06
565.72	36360.22
565.88	36439.80
566.05	36116.81
566.21	36175.32
566.38	36086.38
566.54	35938.93
566.70	36378.95
566.87	36488.95
567.03	36390.65
567.19	36575.55
567.36	36547.47
567.52	36161.28
567.68	36161.28
567.85	36070.00
568.01	36559.17
568.17	36147.23
568.34	36294.69
568.50	36446.82
568.66	36547.47
568.83	36559.17
568.99	36306.39
569.15	36294.69
569.32	36669.17
569.48	36495.97
569.64	36627.04
569.81	36364.90
569.97	36245.54
570.13	36383.63
570.30	36299.37
570.46	36378.95
570.62	36699.60
570.78	36584.91
570.95	36304.05
571.11	36156.60
571.27	36142.55
571.43	36570.87
571.60	36493.63
571.76	36533.42
571.92	36381.29
572.09	36643.43
572.25	36952.38
572.41	37001.53
572.57	36781.52
572.74	37179.41
572.90	36652.79
573.06	36360.22
573.22	36666.83
573.38	36863.44
573.55	36325.11
573.71	36751.09
573.87	36643.43
574.03	36196.38
574.20	36811.95
574.36	36554.49
574.52	36884.50
574.68	36416.40
574.84	36783.86
575.01	36608.32
575.17	36783.86
575.33	36500.65
575.49	36629.38
575.65	36931.31
575.82	37074.09
575.98	37031.96
576.14	37345.59
576.30	36856.42
576.46	36734.71
576.62	36935.99
576.79	36847.05
576.95	36648.11
577.11	37146.64
577.27	36673.85
577.43	37289.42
577.59	36655.13
577.75	36957.06
577.92	36704.28
578.08	36584.91
578.24	36624.70
578.40	36877.48
578.56	37450.91
578.72	36786.20
578.88	37326.86
579.04	37376.01
579.21	36783.86
579.37	37200.47
579.53	37113.87
579.69	37017.91
579.85	37640.50
580.01	37156.00
580.17	37237.92
580.33	37043.66
580.49	36992.17
580.65	37013.23
580.82	36886.84
580.98	36933.65
581.14	36919.61
581.30	36889.18
581.46	36800.24
581.62	36928.97
581.78	36512.36
581.94	37036.64
582.10	36355.54
582.26	37046.00
582.42	36818.97
582.58	36940.68
582.74	37254.31
582.90	37125.58
583.06	37214.52
583.22	36816.63
583.38	37031.96
583.54	36697.26
583.70	36886.84
583.86	36900.89
584.02	36697.26
584.18	37242.60
584.34	36987.49
584.50	37123.24
584.66	36816.63
584.82	36723.01
584.98	37050.68
585.14	37095.15
585.30	37581.98
585.46	37177.07
585.62	36620.02
585.78	37099.83
585.94	36952.38
586.10	37003.87
586.26	37233.24
586.42	37181.75
586.58	37574.96
586.74	37170.05
586.90	37041.32
587.06	37024.93
587.22	37280.05
587.38	36715.98
587.54	37113.87
587.70	37785.61
587.86	37357.29
588.02	37116.22
588.18	37212.18
588.34	37497.72
588.49	37193.45
588.65	36945.36
588.81	37076.43
588.97	37743.48
589.13	37289.42
589.29	37408.78
589.45	37699.01
589.61	37490.70
589.77	37312.82
589.93	37347.93
