SpectraSuite Data File
++++++++++++++++++++++++++++++++++++
Date: Thu Oct 24 13:21:38 EDT 2013
User: stostad
Dark Spectrum Present: No
Reference Spectrum Present: No
Number of Sampled Component Spectra: 1
Spectrometers: USB2+H05261
Integration Time (usec): 100000 (USB2+H05261)
Spectra Averaged: 1 (USB2+H05261)
Boxcar Smoothing: 0 (USB2+H05261)
Correct for Electrical Dark: No (USB2+H05261)
Strobe/Lamp Enabled: No (USB2+H05261)
Correct for Detector Non-linearity: No (USB2+H05261)
Correct for Stray Light: No (USB2+H05261)
Number of Pixels in Processed Spectrum: 2048
>>>>>Begin Processed Spectral Data<<<<<
365.73	575.77
365.92	575.77
366.12	575.77
366.32	517.26
366.52	500.87
366.72	444.70
366.91	486.83
367.11	409.59
367.31	475.13
367.51	489.17
367.70	550.03
367.90	472.79
368.10	449.38
368.30	524.28
368.49	477.47
368.69	454.06
368.89	489.17
369.09	437.68
369.28	571.09
369.48	550.03
369.68	479.81
369.87	592.16
370.07	540.66
370.27	571.09
370.47	755.99
370.66	1128.14
370.86	1240.48
371.06	1352.83
371.25	1310.70
371.45	1259.21
371.65	1306.02
371.84	1315.38
372.04	1350.49
372.24	1380.92
372.44	1357.51
372.63	1479.22
372.83	1373.89
373.03	1409.00
373.22	1465.18
373.42	1355.17
373.62	1418.36
373.81	1439.43
374.01	1495.60
374.21	1561.14
374.40	1430.07
374.60	1509.65
374.79	1542.41
374.99	1526.03
375.19	1544.75
375.38	1589.22
375.58	1626.67
375.78	1584.54
375.97	1528.37
376.17	1572.84
376.37	1617.31
376.56	1586.88
376.76	1631.35
376.95	1596.25
377.15	1638.38
377.35	1710.93
377.54	1739.02
377.74	1699.23
377.93	1579.86
378.13	1706.25
378.33	1657.10
378.52	1678.16
378.72	1692.21
378.91	1715.61
379.11	1673.48
379.31	1771.79
379.50	1790.51
379.70	1774.13
379.89	1741.36
380.09	1713.27
380.28	1699.23
380.48	1809.23
380.68	1853.70
380.87	1788.17
381.07	1867.75
381.26	1820.94
381.46	1870.09
381.65	1905.20
381.85	1851.36
382.04	1944.99
382.24	1877.11
382.43	1909.88
382.63	1870.09
382.83	1888.81
383.02	2012.86
383.22	1994.14
383.41	1963.71
383.61	2005.84
383.80	1970.73
384.00	1937.96
384.19	2050.31
384.39	1977.75
384.58	2059.67
384.78	1998.82
384.97	2083.08
385.17	2019.88
385.36	2001.16
385.56	2026.90
385.75	2022.22
385.95	2031.58
386.14	2111.16
386.34	2155.63
386.53	2106.48
386.72	2186.06
386.92	2232.87
387.11	2143.93
387.31	2289.04
387.50	2305.43
387.70	2216.49
387.89	2275.00
388.09	2293.72
388.28	2265.64
388.48	2389.69
388.67	2265.64
388.86	2422.45
389.06	2260.96
389.25	2361.60
389.45	2394.37
389.64	2368.62
389.84	2445.86
390.03	2427.14
390.22	2410.75
390.42	2375.64
390.61	2466.92
390.81	2469.27
391.00	2520.76
391.19	2502.03
391.39	2600.34
391.58	2640.12
391.78	2658.85
391.97	2612.04
392.16	2609.70
392.36	2621.40
392.55	2583.95
392.75	2569.91
392.94	2661.19
393.13	2696.30
393.33	2738.43
393.52	2654.17
393.71	2785.24
393.91	2820.35
394.10	2700.98
394.29	2937.37
394.49	2860.13
394.68	2792.26
394.88	2761.83
395.07	2787.58
395.26	2920.99
395.46	2850.77
395.65	2862.48
395.84	2939.71
396.04	3056.74
396.23	2956.10
396.42	3068.44
396.62	3049.72
396.81	2986.52
397.00	3063.76
397.19	3101.21
397.39	3166.74
397.58	3054.40
397.77	3148.02
397.97	3176.11
398.16	3145.68
398.35	3323.56
398.55	3187.81
398.74	3321.22
398.93	3384.41
399.12	3389.10
399.32	3349.31
399.51	3183.13
399.70	3304.84
399.90	3456.97
400.09	3342.28
400.28	3435.91
400.47	3473.36
400.67	3480.38
400.86	3400.80
401.05	3442.93
401.24	3463.99
401.44	3508.46
401.63	3595.06
401.82	3630.17
402.01	3487.40
402.21	3604.42
402.40	3691.02
402.59	3714.43
402.78	3653.58
402.97	3758.90
403.17	3740.18
403.36	3679.32
403.55	3768.26
403.74	3864.22
403.93	3861.88
404.13	3957.85
404.32	3915.72
404.51	3925.08
404.70	3976.57
404.89	4056.15
405.09	3969.55
405.28	4105.30
405.47	4039.76
405.66	4196.58
405.85	4014.02
406.05	4245.73
406.24	4175.52
406.43	4184.88
406.62	4318.29
406.81	4198.92
407.00	4252.75
407.20	4184.88
407.39	4236.37
407.58	4421.27
407.77	4397.87
407.96	4437.66
408.15	4477.44
408.34	4512.55
408.54	4437.66
408.73	4580.43
408.92	4606.17
409.11	4643.62
409.30	4507.87
409.49	4713.84
409.68	4594.47
409.87	4655.33
410.07	4793.42
410.26	4840.23
410.45	4772.35
410.64	4802.78
410.83	4945.55
411.02	4880.02
411.21	5018.11
411.40	4847.25
411.59	5324.72
411.78	5053.22
411.98	5097.69
412.17	5160.88
412.36	5212.37
412.55	5289.61
412.74	5497.92
412.93	5387.91
413.12	5317.70
413.31	5589.20
413.50	5483.88
413.69	5469.83
413.88	5570.48
414.07	5626.65
414.26	5741.33
414.45	5689.84
414.64	5795.17
414.83	5820.91
415.02	5844.32
415.22	5879.43
415.41	5928.58
415.60	6092.41
415.79	6073.69
415.98	6008.16
416.17	5991.77
416.36	6061.99
416.55	6167.31
416.74	6230.51
416.93	6263.27
417.12	6485.62
417.31	6321.79
417.50	6473.92
417.69	6579.25
417.88	6651.80
418.07	6443.49
418.26	6530.09
418.45	6574.56
418.64	7000.54
418.83	6731.38
419.02	6841.39
419.21	7089.48
419.39	7002.88
419.58	6913.94
419.77	6932.67
419.96	7222.89
420.15	6956.07
420.34	6935.01
420.53	6881.18
420.72	7197.15
420.91	6991.18
421.10	7248.64
421.29	7274.38
421.48	7103.53
421.67	7122.25
421.86	7330.56
422.05	7300.13
422.24	7431.20
422.43	7351.62
422.61	7351.62
422.80	7550.57
422.99	7353.96
423.18	7513.12
423.37	7693.34
423.56	7559.93
423.75	7391.41
423.94	7431.20
424.13	6899.90
424.32	7335.24
424.50	7709.72
424.69	7698.02
424.88	7625.47
425.07	7517.80
425.26	7566.95
425.45	7655.89
425.64	7463.97
425.83	7651.21
426.01	7597.38
426.20	7719.09
426.39	7712.07
426.58	7620.78
426.77	7854.84
426.96	7723.77
427.15	7747.17
427.33	7962.50
427.52	7997.61
427.71	8013.99
427.90	7889.95
428.09	8086.55
428.28	8212.94
428.46	8124.00
428.65	8168.47
428.84	8393.16
429.03	8425.93
429.22	8175.49
429.40	8241.03
429.59	8168.47
429.78	7978.89
429.97	8070.17
430.16	8348.69
430.34	8468.06
430.53	8559.34
430.72	8477.42
430.91	8690.41
431.10	8725.52
431.28	8716.16
431.47	8842.54
431.66	8800.41
431.85	8622.53
432.03	9067.24
432.22	9029.79
432.41	8858.93
432.60	8982.98
432.79	9088.30
432.97	9233.41
433.16	9256.82
433.35	9006.38
433.54	9441.72
433.72	9181.92
433.91	9387.89
434.10	9350.44
434.28	9392.57
434.47	9282.56
434.66	9441.72
434.85	9488.53
435.03	9694.50
435.22	9666.41
435.41	10076.01
435.59	9745.99
435.78	9790.46
435.97	10001.11
436.16	9757.69
436.34	9675.77
436.53	9748.33
436.72	10176.65
436.90	9753.01
437.09	10104.09
437.28	9825.57
437.46	10141.54
437.65	10160.27
437.84	10200.05
438.02	10209.42
438.21	10338.15
438.40	10186.01
438.58	10387.30
438.77	10590.92
438.96	10647.10
439.14	10658.80
439.33	10689.23
439.52	10878.81
439.70	10930.30
439.89	11000.52
440.08	11222.87
440.26	10974.77
440.45	11234.57
440.63	11330.53
440.82	11358.62
441.01	11253.30
441.19	11480.33
441.38	11569.27
441.57	11304.79
441.75	11700.34
441.94	11950.78
442.12	12067.80
442.31	12011.63
442.50	11927.37
442.68	12049.08
442.87	12306.54
443.05	12133.34
443.24	12226.96
443.43	12367.39
443.61	12489.10
443.80	12772.30
443.98	11936.73
444.17	11908.65
444.35	12425.90
444.54	12613.15
444.73	12526.55
444.91	12496.12
445.10	12500.80
445.28	12709.11
445.47	12526.55
445.65	12650.60
445.84	12847.20
446.02	12521.87
446.21	12739.54
446.39	12685.70
446.58	12725.49
446.77	12894.01
446.95	12636.55
447.14	12372.07
447.32	12894.01
447.51	12847.20
447.69	12659.96
447.88	12727.83
448.06	12954.87
448.25	12727.83
448.43	12746.56
448.62	13055.51
448.80	12741.88
448.99	12903.37
449.17	12945.50
449.36	13020.40
449.54	13322.33
449.73	13401.91
449.91	13575.11
450.10	13715.54
450.28	13642.98
450.46	13692.13
450.65	13502.55
450.83	13654.69
451.02	13872.36
451.20	14108.75
451.39	13792.78
451.57	13872.36
451.76	13696.82
451.94	14071.30
452.13	13935.55
452.31	14057.26
452.49	13818.52
452.68	14167.26
452.86	14120.45
453.05	14118.11
453.23	14300.67
453.42	14235.14
453.60	14214.07
453.78	14677.50
453.97	14335.78
454.15	14328.76
454.34	14188.33
454.52	14726.65
454.70	14602.60
454.89	14822.61
455.07	14633.03
455.26	14808.57
455.44	15115.18
455.62	14757.08
455.81	14846.02
455.99	14963.04
456.17	15070.71
456.36	15330.51
456.54	15126.88
456.73	15627.76
456.91	15822.02
457.09	15803.30
457.28	15939.05
457.46	15630.10
457.64	15917.98
457.83	15779.89
458.01	15704.99
458.19	16231.62
458.38	15843.09
458.56	16037.35
458.74	16404.81
458.93	16182.46
459.11	16163.74
459.29	16130.97
459.48	16285.45
459.66	16425.88
459.84	16596.74
460.03	16673.98
460.21	16781.64
460.39	16477.37
460.57	16650.57
460.76	16629.51
460.94	16875.26
461.12	17135.06
461.31	16870.58
461.49	16828.45
461.67	16730.15
461.85	17364.43
462.04	17226.34
462.22	17703.81
462.40	17453.37
462.59	17500.19
462.77	17296.56
462.95	17598.49
463.13	17825.52
463.32	17701.47
463.50	17940.21
463.68	17982.34
463.86	17980.00
464.05	17823.18
464.23	17748.28
464.41	17834.88
464.59	17687.43
464.78	18471.51
464.96	18305.33
465.14	17902.76
465.32	17823.18
465.50	18443.42
465.69	18059.57
465.87	18558.11
466.05	18104.04
466.23	18167.24
466.41	18590.88
466.60	18810.89
466.78	18569.81
466.96	18539.38
467.14	18574.49
467.32	18644.71
467.51	18988.77
467.69	18200.01
467.87	18647.05
468.05	19136.22
468.23	18838.97
468.41	18661.09
468.60	19236.86
468.78	19349.21
468.96	18916.21
469.14	19445.17
469.32	19887.53
469.50	19381.98
469.69	19487.30
469.87	19934.34
470.05	19784.55
470.23	20098.18
470.41	19805.61
470.59	20201.16
470.77	20016.26
470.95	19964.77
471.14	20783.96
471.32	20196.48
471.50	20601.40
471.68	20657.57
471.86	20772.25
472.04	20580.33
472.22	21380.79
472.40	20776.94
472.58	21238.02
472.77	21331.64
472.95	21479.10
473.13	22192.96
473.31	21392.50
473.49	21671.02
473.67	21731.87
473.85	21926.14
474.03	22118.06
474.21	22139.13
474.39	22424.67
474.57	22092.32
474.75	22609.58
474.93	22831.93
475.12	22675.11
475.30	23063.64
475.48	22803.84
475.66	23119.81
475.84	22824.90
476.02	23821.97
476.20	23407.70
476.38	23941.34
476.56	24032.62
476.74	24121.56
476.92	23939.00
477.10	24156.67
477.28	24716.06
477.46	24826.06
477.64	24645.84
477.82	25111.61
478.00	25933.14
478.18	25481.41
478.36	25638.23
478.54	26272.51
478.72	26040.80
478.90	26476.14
479.08	26941.91
479.26	26925.52
479.44	27161.92
479.62	27513.00
479.80	27480.23
479.98	27566.83
480.16	28580.28
480.34	28231.54
480.52	28067.70
480.70	28297.08
480.88	28205.80
481.06	28671.56
481.24	28648.16
481.41	29032.00
481.59	29397.13
481.77	29867.58
481.95	30192.91
482.13	30099.29
482.31	29923.75
482.49	30717.19
482.67	30534.63
482.85	30955.93
483.03	31295.30
483.21	31737.66
483.39	31962.36
483.57	31700.22
483.74	32142.58
483.92	32374.29
484.10	32224.50
484.28	33352.63
484.46	33362.00
484.64	33783.29
484.82	33687.33
485.00	33951.81
485.18	34534.60
485.35	35194.64
485.53	34873.98
485.71	35384.22
485.89	35693.17
486.07	35236.77
486.25	35929.56
486.43	35901.48
486.61	36552.15
486.78	36847.05
486.96	36905.57
487.14	37710.71
487.32	37493.04
487.50	38246.69
487.68	37860.51
487.85	38595.43
488.03	39232.06
488.21	39136.10
488.39	39264.83
488.57	39653.36
488.75	39700.17
488.92	40081.67
489.10	40643.40
489.28	40439.78
489.46	41111.51
489.64	41151.30
489.81	41776.22
489.99	41752.82
490.17	42073.47
490.35	42616.47
490.53	43107.99
490.70	43033.09
490.88	42836.48
491.06	43283.53
491.24	43426.30
491.41	43753.97
491.59	44343.79
491.77	44004.41
491.95	44809.56
492.13	44832.96
492.30	45230.85
492.48	45368.94
492.66	45551.51
492.84	45619.38
493.01	46307.50
493.19	46677.30
493.37	46883.27
493.54	46660.92
493.72	47339.68
493.90	47274.14
494.08	47950.56
494.25	47894.38
494.43	48083.97
494.61	48098.01
494.79	48882.09
494.96	48355.47
495.14	48935.92
495.32	49102.10
495.49	49359.56
495.67	49673.19
495.85	49729.36
496.02	49911.92
496.20	50042.99
496.38	50401.10
496.55	49811.28
496.73	50960.48
496.91	50923.04
497.09	51145.39
497.26	51449.66
497.44	51002.61
497.62	51283.48
497.79	52121.39
497.97	52034.79
498.14	52465.45
498.32	52369.49
498.50	52287.57
498.67	52882.06
498.85	52594.18
499.03	52945.26
499.20	53207.40
499.38	53319.74
499.56	53544.44
499.73	53670.82
499.91	53668.48
500.08	53776.15
500.26	53574.86
500.44	53815.94
500.61	53888.49
500.79	53911.90
500.97	54569.59
501.14	54714.70
501.32	54398.73
501.49	54576.61
501.67	54735.77
501.84	54691.30
502.02	55051.74
502.20	55299.84
502.37	55199.19
502.55	55217.92
502.72	55409.84
502.90	55363.03
503.07	55405.16
503.25	55407.50
503.43	55749.22
503.60	55917.74
503.78	55868.59
503.95	55765.60
504.13	56135.41
504.30	56385.85
504.48	56168.18
504.65	56416.27
504.83	56886.72
505.01	56708.84
505.18	56570.75
505.36	57017.79
505.53	56715.86
505.71	57123.11
505.88	57031.83
506.06	57090.35
506.23	57251.84
506.41	57043.54
506.58	57331.42
506.76	57394.62
506.93	57748.04
507.11	57659.10
507.28	57645.05
507.46	57682.50
507.63	58094.44
507.81	58059.33
507.98	57961.03
508.16	58103.80
508.33	58272.32
508.50	58260.62
508.68	58513.39
508.85	58780.21
509.03	58805.96
509.20	58691.27
509.38	58810.64
509.55	58915.96
509.73	59161.72
509.90	59040.01
510.08	59135.98
510.25	59152.36
510.42	59154.70
510.60	59430.88
510.77	59451.95
510.95	59465.99
511.12	59400.46
511.30	59576.00
511.47	59973.89
511.64	59723.45
511.82	59943.46
511.99	59796.01
512.17	60123.68
512.34	59838.14
512.51	60350.71
512.69	60348.37
512.86	60226.66
513.04	60427.95
513.21	60378.80
513.38	60397.52
513.56	60528.59
513.73	60594.13
513.90	60924.14
514.08	60814.14
514.25	60711.16
514.43	60786.05
514.60	60839.89
514.77	60959.25
514.95	60858.61
515.12	61106.71
515.29	61029.47
515.47	61422.68
515.64	61455.45
515.81	61258.84
515.99	61436.72
516.16	61429.70
516.33	61432.04
516.51	61787.80
516.68	61762.06
516.85	61488.21
517.03	61862.70
517.20	61876.74
517.37	61846.32
517.54	61722.27
517.72	61834.61
517.89	61963.34
518.06	62108.46
518.24	62115.48
518.41	62052.28
518.58	62227.82
518.75	62007.81
518.93	62284.00
519.10	62052.28
519.27	62487.62
519.45	62585.92
519.62	62646.78
519.79	62709.97
519.96	62864.45
520.14	62649.12
520.31	62632.74
520.48	62913.60
520.65	62702.95
520.83	63056.37
521.00	63248.30
521.17	63051.69
521.34	63201.49
521.52	63189.78
521.69	63103.18
521.86	63126.59
522.03	63353.62
522.20	63379.37
522.38	63636.83
522.55	63770.24
522.72	63566.61
522.89	63557.25
523.07	63688.32
523.24	63531.50
523.41	63847.47
523.58	63564.27
523.75	64058.12
523.92	64074.51
524.10	64006.63
524.27	64008.97
524.44	63929.39
524.61	63894.28
524.78	64212.60
524.96	64039.40
525.13	64313.24
525.30	64343.67
525.47	64563.68
525.64	64327.28
525.81	64437.29
525.98	64451.33
526.16	64392.82
526.33	64570.70
526.50	64654.96
526.67	64561.34
526.84	64760.28
527.01	64458.35
527.18	64874.97
527.36	64849.22
527.53	64797.73
527.70	64889.01
527.87	64947.53
528.04	64994.34
528.21	65244.77
528.38	65038.81
528.55	65127.75
528.72	65181.58
528.89	65162.85
529.07	65104.34
529.24	65237.75
529.41	65441.38
529.58	65380.52
529.75	65303.29
529.92	65511.59
530.09	65535.00
530.26	65310.31
530.43	65387.55
530.60	65338.40
530.77	65319.67
530.94	65535.00
531.11	65499.89
531.28	65535.00
531.46	65535.00
531.63	65535.00
531.80	65535.00
531.97	65535.00
532.14	65535.00
532.31	65535.00
532.48	65535.00
532.65	65535.00
532.82	65535.00
532.99	65535.00
533.16	65535.00
533.33	65535.00
533.50	65535.00
533.67	65535.00
533.84	65535.00
534.01	65535.00
534.18	65535.00
534.35	65535.00
534.52	65535.00
534.69	65535.00
534.86	65535.00
535.03	65535.00
535.20	65535.00
535.37	65535.00
535.54	65535.00
535.71	65535.00
535.88	65535.00
536.05	65535.00
536.22	65535.00
536.38	65535.00
536.55	65535.00
536.72	65535.00
536.89	65535.00
537.06	65535.00
537.23	65535.00
537.40	65535.00
537.57	65535.00
537.74	65535.00
537.91	65535.00
538.08	65535.00
538.25	65535.00
538.42	65535.00
538.59	65535.00
538.75	65535.00
538.92	65535.00
539.09	65535.00
539.26	65535.00
539.43	65535.00
539.60	65535.00
539.77	65535.00
539.94	65535.00
540.11	65535.00
540.28	65535.00
540.44	65535.00
540.61	65535.00
540.78	65535.00
540.95	65535.00
541.12	65535.00
541.29	65535.00
541.46	65535.00
541.62	65535.00
541.79	65535.00
541.96	65535.00
542.13	65535.00
542.30	65535.00
542.47	65535.00
542.63	65535.00
542.80	65535.00
542.97	65535.00
543.14	65535.00
543.31	65535.00
543.48	65535.00
543.64	65535.00
543.81	65535.00
543.98	65535.00
544.15	65535.00
544.32	65535.00
544.48	65535.00
544.65	65535.00
544.82	65535.00
544.99	65535.00
545.16	65535.00
545.32	65535.00
545.49	65535.00
545.66	65535.00
545.83	65535.00
546.00	65535.00
546.16	65535.00
546.33	65535.00
546.50	65535.00
546.67	65535.00
546.83	65535.00
547.00	65535.00
547.17	65535.00
547.34	65535.00
547.50	65535.00
547.67	65535.00
547.84	65535.00
548.00	65535.00
548.17	65535.00
548.34	65535.00
548.51	65535.00
548.67	65535.00
548.84	65535.00
549.01	65535.00
549.18	65535.00
549.34	65535.00
549.51	65535.00
549.68	65535.00
549.84	65535.00
550.01	65535.00
550.18	65535.00
550.34	65535.00
550.51	65535.00
550.68	65535.00
550.84	65535.00
551.01	65535.00
551.18	65535.00
551.34	65535.00
551.51	65535.00
551.68	65535.00
551.84	65535.00
552.01	65535.00
552.18	65535.00
552.34	65535.00
552.51	65535.00
552.68	65535.00
552.84	65535.00
553.01	65535.00
553.18	65535.00
553.34	65535.00
553.51	65535.00
553.67	65535.00
553.84	65535.00
554.01	65535.00
554.17	65535.00
554.34	65535.00
554.51	65535.00
554.67	65535.00
554.84	65535.00
555.00	65535.00
555.17	65535.00
555.33	65535.00
555.50	65535.00
555.67	65535.00
555.83	65535.00
556.00	65535.00
556.16	65535.00
556.33	65535.00
556.50	65535.00
556.66	65535.00
556.83	65535.00
556.99	65535.00
557.16	65535.00
557.32	65535.00
557.49	65535.00
557.65	65535.00
557.82	65535.00
557.98	65535.00
558.15	65535.00
558.32	65535.00
558.48	65535.00
558.65	65535.00
558.81	65535.00
558.98	65535.00
559.14	65535.00
559.31	65535.00
559.47	65535.00
559.64	65535.00
559.80	65535.00
559.97	65535.00
560.13	65535.00
560.30	65535.00
560.46	65535.00
560.63	65535.00
560.79	65535.00
560.96	65535.00
561.12	65535.00
561.29	65535.00
561.45	65535.00
561.61	65535.00
561.78	65535.00
561.94	65535.00
562.11	65535.00
562.27	65535.00
562.44	65535.00
562.60	65535.00
562.77	65535.00
562.93	65535.00
563.10	65535.00
563.26	65535.00
563.42	65535.00
563.59	65535.00
563.75	65535.00
563.92	65535.00
564.08	65535.00
564.24	65535.00
564.41	65535.00
564.57	65535.00
564.74	65535.00
564.90	65535.00
565.07	65535.00
565.23	65535.00
565.39	65535.00
565.56	65535.00
565.72	65535.00
565.88	65535.00
566.05	65535.00
566.21	65535.00
566.38	65535.00
566.54	65535.00
566.70	65535.00
566.87	65535.00
567.03	65535.00
567.19	65535.00
567.36	65535.00
567.52	65535.00
567.68	65535.00
567.85	65535.00
568.01	65535.00
568.17	65535.00
568.34	65535.00
568.50	65535.00
568.66	65535.00
568.83	65535.00
568.99	65535.00
569.15	65535.00
569.32	65535.00
569.48	65535.00
569.64	65535.00
569.81	65535.00
569.97	65535.00
570.13	65535.00
570.30	65535.00
570.46	65535.00
570.62	65535.00
570.78	65535.00
570.95	65535.00
571.11	65535.00
571.27	65535.00
571.43	65535.00
571.60	65535.00
571.76	65535.00
571.92	65535.00
572.09	65535.00
572.25	65535.00
572.41	65535.00
572.57	65535.00
572.74	65535.00
572.90	65535.00
573.06	65535.00
573.22	65535.00
573.38	65535.00
573.55	65535.00
573.71	65535.00
573.87	65535.00
574.03	65535.00
574.20	65535.00
574.36	65535.00
574.52	65535.00
574.68	65535.00
574.84	65535.00
575.01	65535.00
575.17	65535.00
575.33	65535.00
575.49	65535.00
575.65	65535.00
575.82	65535.00
575.98	65535.00
576.14	65535.00
576.30	65535.00
576.46	65535.00
576.62	65535.00
576.79	65535.00
576.95	65535.00
577.11	65535.00
577.27	65535.00
577.43	65535.00
577.59	65535.00
577.75	65535.00
577.92	65535.00
578.08	65535.00
578.24	65535.00
578.40	65535.00
578.56	65535.00
578.72	65535.00
578.88	65535.00
579.04	65535.00
579.21	65535.00
579.37	65535.00
579.53	65535.00
579.69	65535.00
579.85	65535.00
580.01	65535.00
580.17	65535.00
580.33	65535.00
580.49	65535.00
580.65	65535.00
580.82	65535.00
580.98	65535.00
581.14	65535.00
581.30	65535.00
581.46	65535.00
581.62	65535.00
581.78	65535.00
581.94	65535.00
582.10	65535.00
582.26	65535.00
582.42	65535.00
582.58	65535.00
582.74	65535.00
582.90	65535.00
583.06	65535.00
583.22	65535.00
583.38	65535.00
583.54	65535.00
583.70	65535.00
583.86	65535.00
584.02	65535.00
584.18	65535.00
584.34	65535.00
584.50	65535.00
584.66	65535.00
584.82	65535.00
584.98	65535.00
585.14	65535.00
585.30	65535.00
585.46	65535.00
585.62	65535.00
585.78	65535.00
585.94	65535.00
586.10	65535.00
586.26	65535.00
586.42	65535.00
586.58	65535.00
586.74	65535.00
586.90	65535.00
