SpectraSuite Data File
++++++++++++++++++++++++++++++++++++
Date: Thu Oct 24 13:21:28 EDT 2013
User: stostad
Dark Spectrum Present: No
Reference Spectrum Present: No
Number of Sampled Component Spectra: 1
Spectrometers: USB2+H05261
Integration Time (usec): 100000 (USB2+H05261)
Spectra Averaged: 1 (USB2+H05261)
Boxcar Smoothing: 0 (USB2+H05261)
Correct for Electrical Dark: No (USB2+H05261)
Strobe/Lamp Enabled: No (USB2+H05261)
Correct for Detector Non-linearity: No (USB2+H05261)
Correct for Stray Light: No (USB2+H05261)
Number of Pixels in Processed Spectrum: 2048
>>>>>Begin Processed Spectral Data<<<<<
365.73	580.45
365.92	580.45
366.12	580.45
366.32	486.83
366.52	491.51
366.72	437.68
366.91	397.89
367.11	440.02
367.31	468.11
367.51	440.02
367.70	463.43
367.90	507.90
368.10	472.79
368.30	362.78
368.49	461.09
368.69	451.72
368.89	512.58
369.09	507.90
369.28	475.13
369.48	500.87
369.68	526.62
369.87	496.19
370.07	521.94
370.27	550.03
370.47	711.52
370.66	994.73
370.86	997.07
371.06	1095.37
371.25	1088.35
371.45	1142.18
371.65	1130.48
371.84	1114.10
372.04	1041.54
372.24	1219.42
372.44	1167.93
372.63	1165.59
372.83	1165.59
373.03	1116.44
373.22	1186.65
373.42	1172.61
373.62	1235.80
373.81	1158.57
374.01	1231.12
374.21	1200.69
374.40	1256.87
374.60	1273.25
374.79	1261.55
374.99	1163.25
375.19	1231.12
375.38	1322.40
375.58	1289.64
375.78	1294.32
375.97	1343.47
376.17	1284.95
376.37	1329.42
376.56	1399.64
376.76	1282.61
376.95	1280.27
377.15	1336.45
377.35	1371.55
377.54	1413.68
377.74	1406.66
377.93	1320.06
378.13	1362.19
378.33	1413.68
378.52	1411.34
378.72	1329.42
378.91	1444.11
379.11	1486.24
379.31	1404.32
379.50	1401.98
379.70	1465.18
379.89	1533.05
380.09	1465.18
380.28	1430.07
380.48	1519.01
380.68	1439.43
380.87	1509.65
381.07	1563.48
381.26	1465.18
381.46	1439.43
381.65	1444.11
381.85	1565.82
382.04	1488.58
382.24	1469.86
382.43	1586.88
382.63	1605.61
382.83	1526.03
383.02	1551.78
383.22	1554.12
383.41	1657.10
383.61	1605.61
383.80	1657.10
384.00	1551.78
384.19	1717.95
384.39	1631.35
384.58	1633.69
384.78	1706.25
384.97	1659.44
385.17	1743.70
385.36	1654.76
385.56	1673.48
385.75	1673.48
385.95	1661.78
386.14	1626.67
386.34	1720.29
386.53	1748.38
386.72	1699.23
386.92	1764.76
387.11	1781.15
387.31	1767.10
387.50	1619.65
387.70	1788.17
387.89	1792.85
388.09	1797.53
388.28	1764.76
388.48	1834.98
388.67	1837.32
388.86	1809.23
389.06	1930.94
389.25	1954.35
389.45	1895.83
389.64	1879.45
389.84	1858.39
390.03	1928.60
390.22	1949.67
390.42	1980.09
390.61	1895.83
390.81	1944.99
391.00	1952.01
391.19	1973.07
391.39	1949.67
391.58	1980.09
391.78	1989.46
391.97	1949.67
392.16	2052.65
392.36	2101.80
392.55	2083.08
392.75	2141.59
392.94	1989.46
393.13	2012.86
393.33	2099.46
393.52	2148.61
393.71	2270.32
393.91	2153.29
394.10	2113.50
394.29	2249.25
394.49	2244.57
394.68	2195.42
394.88	2230.53
395.07	2228.19
395.26	2183.72
395.46	2291.38
395.65	2289.04
395.84	2326.49
396.04	2483.31
396.23	2324.15
396.42	2387.35
396.62	2361.60
396.81	2389.69
397.00	2450.54
397.19	2377.98
397.39	2438.84
397.58	2473.95
397.77	2457.56
397.97	2628.42
398.16	2569.91
398.35	2527.78
398.55	2532.46
398.74	2539.48
398.93	2682.25
399.12	2532.46
399.32	2581.61
399.51	2607.36
399.70	2759.49
399.90	2546.50
400.09	2621.40
400.28	2719.70
400.47	2686.94
400.67	2672.89
400.86	2738.43
401.05	2696.30
401.24	2818.00
401.44	2857.79
401.63	2813.32
401.82	2862.48
402.01	2759.49
402.21	2808.64
402.40	2820.35
402.59	2867.16
402.78	2913.97
402.97	3028.65
403.17	3028.65
403.36	2958.44
403.55	2932.69
403.74	3056.74
403.93	3119.93
404.13	3253.34
404.32	3124.62
404.51	3089.51
404.70	3187.81
404.89	3110.57
405.09	3314.20
405.28	3332.92
405.47	3133.98
405.66	3314.20
405.85	3262.71
406.05	3222.92
406.24	3260.37
406.43	3302.50
406.62	3405.48
406.81	3419.52
407.00	3363.35
407.20	3332.92
407.39	3356.33
407.58	3480.38
407.77	3492.08
407.96	3574.00
408.15	3454.63
408.34	3527.19
408.54	3700.39
408.73	3620.81
408.92	3623.15
409.11	3737.84
409.30	3758.90
409.49	3648.90
409.68	3758.90
409.87	3756.56
410.07	3899.33
410.26	3920.40
410.45	3777.62
410.64	3791.67
410.83	3861.88
411.02	3983.59
411.21	4025.72
411.40	3992.95
411.59	4067.85
411.78	3981.25
411.98	3997.64
412.17	3981.25
412.36	4180.20
412.55	4180.20
412.74	4234.03
412.93	4126.36
413.12	4252.75
413.31	4470.42
413.50	4400.21
413.69	4348.72
413.88	4386.16
414.07	4514.89
414.26	4367.44
414.45	4491.49
414.64	4538.30
414.83	4678.73
415.02	4617.88
415.22	4723.20
415.41	4844.91
415.60	4788.74
415.79	4777.03
415.98	4938.53
416.17	4915.12
416.36	4919.81
416.55	4753.63
416.74	4985.34
416.93	5055.56
417.12	5034.49
417.31	5088.32
417.50	5093.01
417.69	5078.96
417.88	5242.80
418.07	5205.35
418.26	5160.88
418.45	5238.12
418.64	5235.78
418.83	5301.31
419.02	5313.02
419.21	5617.29
419.39	5514.30
419.58	5404.30
419.77	5526.00
419.96	5441.75
420.15	5554.09
420.34	5533.03
420.53	5514.30
420.72	5643.03
420.91	5734.31
421.10	5762.40
421.29	5701.54
421.48	5818.57
421.67	5802.19
421.86	5696.86
422.05	5715.59
422.24	5839.64
422.43	5891.13
422.61	5774.10
422.80	6078.37
422.99	5849.00
423.18	5966.03
423.37	5942.62
423.56	5923.90
423.75	5944.96
423.94	5982.41
424.13	5481.53
424.32	5771.76
424.50	5900.49
424.69	6162.63
424.88	5982.41
425.07	6101.78
425.26	6029.22
425.45	5977.73
425.64	5963.68
425.83	6017.52
426.01	6064.33
426.20	6064.33
426.39	6108.80
426.58	6171.99
426.77	6045.60
426.96	6134.54
427.15	6200.08
427.33	6251.57
427.52	6317.11
427.71	6368.60
427.90	6314.77
428.09	6296.04
428.28	6356.90
428.46	6466.90
428.65	6436.47
428.84	6588.61
429.03	6661.16
429.22	6214.12
429.40	6623.72
429.59	6722.02
429.78	6232.85
429.97	6296.04
430.16	6513.71
430.34	6558.18
430.53	6726.70
430.72	6878.83
430.91	6581.59
431.10	6759.47
431.28	6848.41
431.47	6885.86
431.66	6953.73
431.85	6923.30
432.03	6998.20
432.22	7213.53
432.41	7108.21
432.60	6857.77
432.79	7037.99
432.97	7328.22
433.16	7089.48
433.35	7360.98
433.54	7330.56
433.72	7279.07
433.91	7325.88
434.10	7372.69
434.28	7342.26
434.47	7318.86
434.66	7459.29
434.85	7566.95
435.03	7555.25
435.22	7630.15
435.41	8138.04
435.59	7740.15
435.78	7712.07
435.97	7824.41
436.16	7875.90
436.34	7424.18
436.53	7702.70
436.72	7784.62
436.90	7496.74
437.09	7852.50
437.28	7662.91
437.46	7999.95
437.65	7939.10
437.84	8116.98
438.02	7978.89
438.21	7913.35
438.40	8025.70
438.58	8102.93
438.77	8259.75
438.96	8255.07
439.14	8416.57
439.33	8423.59
439.52	8521.89
439.70	8449.33
439.89	8622.53
440.08	8741.90
440.26	8685.73
440.45	8566.36
440.63	8924.46
440.82	8992.34
441.01	8823.82
441.19	9041.49
441.38	9132.77
441.57	9151.49
441.75	9090.64
441.94	9586.83
442.12	9441.72
442.31	9341.08
442.50	9420.66
442.68	9174.90
442.87	9329.38
443.05	9544.70
443.24	9659.39
443.43	9605.56
443.61	9617.26
443.80	9895.78
443.98	9502.58
444.17	9228.73
444.35	9654.71
444.54	9717.90
444.73	9610.24
444.91	9591.52
445.10	9830.25
445.28	9891.10
445.47	9727.27
445.65	9830.25
445.84	9942.60
446.02	9841.95
446.21	10066.64
446.39	9949.62
446.58	10099.41
446.77	10099.41
446.95	9799.82
447.14	9914.51
447.32	9933.23
447.51	9888.76
447.69	9975.36
447.88	10068.98
448.06	10097.07
448.25	9804.50
448.43	10066.64
448.62	10221.12
448.80	9977.70
448.99	10256.23
449.17	10253.89
449.36	10317.08
449.54	10289.00
449.73	10555.82
449.91	10485.60
450.10	10242.18
450.28	10782.85
450.46	10757.10
450.65	10658.80
450.83	10761.78
451.02	10569.86
451.20	10920.94
451.39	10729.02
451.57	10839.02
451.76	10640.08
451.94	10834.34
452.13	11026.26
452.31	11169.04
452.49	10747.74
452.68	10836.68
452.86	10949.03
453.05	10860.09
453.23	11037.97
453.42	11115.20
453.60	10895.19
453.78	11211.17
453.97	11089.46
454.15	11222.87
454.34	11290.74
454.52	11386.71
454.70	11302.45
454.89	11396.07
455.07	11485.01
455.26	11651.19
455.44	11517.78
455.62	11358.62
455.81	11700.34
455.99	11620.76
456.17	11885.24
456.36	11873.54
456.54	11985.88
456.73	11822.05
456.91	12236.32
457.09	12341.64
457.28	12222.28
457.46	12138.02
457.64	12395.48
457.83	12236.32
458.01	12262.07
458.19	12318.24
458.38	12580.38
458.56	12379.09
458.74	12409.52
458.93	12507.82
459.11	12578.04
459.29	12526.55
459.48	12805.07
459.66	12540.59
459.84	12957.21
460.03	13053.17
460.21	12933.80
460.39	12912.74
460.57	12659.96
460.76	12999.34
460.94	13015.72
461.12	13015.72
461.31	13385.52
461.49	13226.37
461.67	13090.62
461.85	13240.41
462.04	13238.07
462.22	13743.63
462.40	13628.94
462.59	13441.70
462.77	13298.92
462.95	13577.45
463.13	13472.12
463.32	13547.02
463.50	13659.37
463.68	13748.31
463.86	13872.36
464.05	13509.57
464.23	13467.44
464.41	14083.00
464.59	13518.93
464.78	14480.89
464.96	14047.90
465.14	13834.91
465.32	14157.90
465.50	14045.55
465.69	14129.81
465.87	14256.20
466.05	14288.97
466.23	14164.92
466.41	14415.36
466.60	14537.07
466.78	14424.72
466.96	14342.80
467.14	14281.95
467.32	14291.31
467.51	14658.78
467.69	14464.51
467.87	14569.83
468.05	14759.42
468.23	14408.34
468.41	14331.10
468.60	14567.49
468.78	14731.33
468.96	14738.35
469.14	14956.02
469.32	15016.88
469.50	14602.60
469.69	14981.77
469.87	15470.94
470.05	15183.06
470.23	15538.82
470.41	15321.15
470.59	15456.90
470.77	15337.53
470.95	15590.31
471.14	15826.70
471.32	15499.03
471.50	15660.52
471.68	15847.77
471.86	15896.92
472.04	16121.61
472.22	16116.93
472.40	15871.17
472.58	16170.76
472.77	16444.60
472.95	16411.84
473.13	16812.07
473.31	16222.25
473.49	16624.83
473.67	16496.10
473.85	16772.28
474.03	17135.06
474.21	17151.45
474.39	17020.38
474.57	17081.23
474.75	17336.35
474.93	17539.97
475.12	17219.32
475.30	17444.01
475.48	17334.01
475.66	17699.13
475.84	17741.26
476.02	17991.70
476.20	17722.54
476.38	18689.18
476.56	18569.81
476.74	18562.79
476.92	18595.56
477.10	18410.65
477.28	18789.82
477.46	19094.09
477.64	18991.11
477.82	19248.57
478.00	19824.34
478.18	19527.09
478.36	19644.12
478.54	20311.17
478.72	19871.15
478.90	20336.91
479.08	20645.87
479.26	20535.86
479.44	20107.54
479.62	20807.36
479.80	20985.24
479.98	21214.62
480.16	21706.13
480.34	21308.24
480.52	21504.84
480.70	21502.50
480.88	21106.95
481.06	21785.71
481.24	21776.34
481.41	22436.38
481.59	22394.25
481.77	22787.46
481.95	22803.84
482.13	23147.90
482.31	22890.44
482.49	23578.56
482.67	23379.61
482.85	24177.73
483.03	23721.33
483.21	24105.18
483.39	24521.79
483.57	24521.79
483.74	24861.17
483.92	24737.12
484.10	24659.88
484.28	25549.29
484.46	25851.22
484.64	25830.15
484.82	25500.14
485.00	25949.52
485.18	25977.61
485.35	26616.57
485.53	26307.62
485.71	26822.54
485.89	27140.85
486.07	26937.23
486.25	27232.13
486.43	27452.14
486.61	27735.35
486.78	27688.54
486.96	28542.83
487.14	28489.00
487.32	28634.11
487.50	29130.31
487.68	29415.85
487.85	29418.19
488.03	29626.50
488.21	29755.23
488.39	29734.17
488.57	30239.72
488.75	30066.52
488.92	30391.86
489.10	30927.84
489.28	30995.71
489.46	31321.05
489.64	31239.13
489.81	31992.78
489.99	31786.82
490.17	32299.39
490.35	32758.14
490.53	32713.67
490.70	33020.28
490.88	32793.25
491.06	33214.54
491.24	33488.38
491.41	33263.69
491.59	34022.03
491.77	33820.74
491.95	34522.90
492.13	34220.97
492.30	34988.67
492.48	34782.70
492.66	35033.14
492.84	35061.22
493.01	35725.94
493.19	35372.52
493.37	35920.20
493.54	35709.55
493.72	36346.18
493.90	36271.28
494.08	36645.77
494.25	36943.02
494.43	36601.30
494.61	37134.94
494.79	37420.48
494.96	37500.06
495.14	37525.81
495.32	38354.36
495.49	38003.28
495.67	38323.93
495.85	38476.07
496.02	38911.41
496.20	38696.08
496.38	39349.09
496.55	38941.83
496.73	40268.92
496.91	39917.84
497.09	39835.92
497.26	40535.74
497.44	40362.54
497.62	40287.64
497.79	41184.07
497.97	40942.99
498.14	41064.70
498.32	41748.14
498.50	41141.94
498.67	41958.78
498.85	41420.46
499.03	41724.73
499.20	42195.18
499.38	42525.19
499.56	42440.93
499.73	42756.91
499.91	42988.62
500.08	43592.48
500.26	42972.24
500.44	43189.91
500.61	43480.13
500.79	43555.03
500.97	44182.29
501.14	44257.19
501.32	43807.81
501.49	43454.39
501.67	44123.78
501.84	44357.83
502.02	44755.72
502.20	44996.80
502.37	44694.87
502.55	45148.93
502.72	44898.50
502.90	45319.79
503.07	45240.21
503.25	45560.87
503.43	45385.33
503.60	45825.35
503.78	45844.07
503.95	45904.93
504.13	46096.85
504.30	46281.75
504.48	46078.13
504.65	46653.90
504.83	46909.02
505.01	47334.99
505.18	46866.89
505.36	47309.25
505.53	46735.82
505.71	47061.15
505.88	47484.79
506.06	47388.83
506.23	47629.90
506.41	47606.50
506.58	48332.06
506.76	48226.74
506.93	48491.22
507.11	48378.87
507.28	48500.58
507.46	48514.62
507.63	48933.58
507.81	48736.98
507.98	48421.00
508.16	48809.53
508.33	49125.50
508.50	49689.57
508.68	49296.36
508.85	49614.68
509.03	49631.06
509.20	49488.29
509.38	49982.14
509.55	50284.07
509.73	50042.99
509.90	50501.74
510.08	50087.46
510.25	50534.51
510.42	50291.09
510.60	50574.30
510.77	50813.03
510.95	50824.73
511.12	50824.73
511.30	51082.19
511.47	51147.73
511.64	50983.89
511.82	51049.42
511.99	51110.28
512.17	51440.29
512.34	51405.19
512.51	51999.68
512.69	51870.95
512.86	51906.06
513.04	52048.83
513.21	52133.09
513.38	52451.41
513.56	51852.23
513.73	52100.32
513.90	52479.49
514.08	52486.51
514.25	52748.65
514.43	52942.92
514.60	53109.10
514.77	52643.33
514.95	53090.37
515.12	52793.12
515.29	53109.10
515.47	53092.71
515.64	53612.31
515.81	53104.41
515.99	53455.50
516.16	53425.07
516.33	53406.34
516.51	53771.47
516.68	53642.74
516.85	53607.63
517.03	54190.42
517.20	53865.09
517.37	53965.73
517.54	54110.85
517.72	53897.86
517.89	53797.21
518.06	54211.49
518.24	54532.14
518.41	54274.68
518.58	54440.86
518.75	54204.47
518.93	54410.43
519.10	53958.71
519.27	54642.15
519.45	54923.01
519.62	55000.25
519.79	54789.60
519.96	54951.10
520.14	54831.73
520.31	54660.87
520.48	54997.91
520.65	54838.75
520.83	55451.97
521.00	55428.57
521.17	55447.29
521.34	55234.30
521.52	55552.62
521.69	55564.32
521.86	55583.04
522.03	55814.76
522.20	56189.24
522.38	55697.73
522.55	55889.65
522.72	56142.43
522.89	56016.04
523.07	56065.19
523.24	56037.11
523.41	56299.25
523.58	56156.47
523.75	56516.92
523.92	56442.02
524.10	56509.89
524.27	56353.08
524.44	56530.96
524.61	56577.77
524.78	56664.37
524.96	56488.83
525.13	56657.35
525.30	56914.81
525.47	57006.09
525.64	56970.98
525.81	57132.48
525.98	56910.13
526.16	56900.76
526.33	57139.50
526.50	57453.13
526.67	57029.49
526.84	57261.21
527.01	57359.51
527.18	57371.21
527.36	57301.00
527.53	57331.42
527.70	57511.64
527.87	57687.18
528.04	57675.48
528.21	57764.42
528.38	57780.81
528.55	57869.75
528.72	57748.04
528.89	57851.02
529.07	57626.33
529.24	57446.11
529.41	57961.03
529.58	57907.19
529.75	58059.33
529.92	58145.93
530.09	58244.23
530.26	58068.69
530.43	58019.54
530.60	58005.50
530.77	58213.80
530.94	58529.78
531.11	58253.59
531.28	58487.65
531.46	58518.07
531.63	58494.67
531.80	58284.02
531.97	58578.93
532.14	58492.33
532.31	58670.21
532.48	58836.39
532.65	58997.88
532.82	58770.85
532.99	58759.15
533.16	58731.06
533.33	58733.40
533.50	59044.69
533.67	59086.82
533.84	58871.49
534.01	59072.78
534.18	58918.31
534.35	59339.60
534.52	59180.45
534.69	59241.30
534.86	59353.65
535.03	58986.18
535.20	59398.12
535.37	59306.83
535.54	59568.97
535.71	59442.59
535.88	59583.02
536.05	59423.86
536.22	59484.72
536.38	59323.22
536.55	59587.70
536.72	59896.65
536.89	59540.89
537.06	59796.01
537.23	60027.72
537.40	59655.57
537.57	59737.49
537.74	59807.71
537.91	59976.23
538.08	59957.50
538.25	59615.79
538.42	60037.08
538.59	60088.57
538.75	59955.16
538.92	60090.91
539.09	60158.79
539.26	60137.72
539.43	60128.36
539.60	60229.01
539.77	60170.49
539.94	60233.69
540.11	60313.26
540.28	60296.88
540.44	60374.12
540.61	60334.33
540.78	60355.39
540.95	60444.33
541.12	60315.61
541.29	60505.19
541.46	60542.64
541.62	60828.18
541.79	60846.91
541.96	60603.49
542.13	60676.05
542.30	60563.70
542.47	60601.15
542.63	61020.11
542.80	60851.59
542.97	61043.51
543.14	61298.63
543.31	61228.41
543.48	61118.41
543.64	61420.34
543.81	61322.04
543.98	61111.39
544.15	61153.52
544.32	61448.42
544.48	61698.86
544.65	61469.49
544.82	61614.60
544.99	61275.22
545.16	61418.00
545.32	61469.49
545.49	61640.35
545.66	61705.88
545.83	61834.61
546.00	62026.54
546.16	61881.42
546.33	61740.99
546.50	61368.85
546.67	61673.12
546.83	61464.81
547.00	61539.71
547.17	61546.73
547.34	61495.24
547.50	61818.23
547.67	62056.96
547.84	61874.40
548.00	62054.62
548.17	62099.09
548.34	61902.49
548.51	61996.11
548.67	62108.46
548.84	61851.00
549.01	61729.29
549.18	61956.32
549.34	62026.54
549.51	62145.90
549.68	62284.00
549.84	62138.88
550.01	62115.48
550.18	62038.24
550.34	62188.03
550.51	62230.16
550.68	62087.39
550.84	62017.17
551.01	62564.86
551.18	62279.31
551.34	62216.12
551.51	62492.30
551.68	62386.98
551.84	62354.21
552.01	62171.65
552.18	62454.86
552.34	62218.46
552.51	62588.27
552.68	62384.64
552.84	62667.84
553.01	62578.90
553.18	62461.88
553.34	62660.82
553.51	62464.22
553.67	62609.33
553.84	62801.25
554.01	62871.47
554.17	62747.42
554.34	62869.13
554.51	62656.14
554.67	62885.51
554.84	62796.57
555.00	62611.67
555.17	62745.08
555.33	62688.91
555.50	62866.79
555.67	62986.16
555.83	62885.51
556.00	63016.58
556.16	63079.78
556.33	63061.05
556.50	63016.58
556.66	62913.60
556.83	62913.60
556.99	63135.95
557.16	63260.00
557.32	63213.19
557.49	63402.77
557.65	63140.63
557.82	63192.12
557.98	62885.51
558.15	63124.25
558.32	63288.09
558.48	63030.63
558.65	63238.93
558.81	63444.90
558.98	63524.48
559.14	63447.24
559.31	63447.24
559.47	63400.43
559.64	63365.32
559.80	63283.40
559.97	63358.30
560.13	63370.00
560.30	63480.01
560.46	63393.41
560.63	63501.07
560.79	63559.59
560.96	63777.26
561.12	63465.97
561.29	63407.45
561.45	63611.08
561.61	63564.27
561.78	63636.83
561.94	63760.87
562.11	63779.60
562.27	63636.83
562.44	63765.56
562.60	63643.85
562.77	63702.36
562.93	63559.59
563.10	63955.14
563.26	63487.03
563.42	63749.17
563.59	63543.20
563.75	63884.92
563.92	63887.26
564.08	63882.58
564.24	63767.90
564.41	63693.00
564.57	63758.53
564.74	63550.23
564.90	63896.62
565.07	63751.51
565.23	63920.03
565.39	63962.16
565.56	64060.46
565.72	63997.27
565.88	64079.19
566.05	63896.62
566.21	63852.15
566.38	63812.37
566.54	64062.80
566.70	64069.82
566.87	64126.00
567.03	64001.95
567.19	64355.37
567.36	64238.34
567.52	63999.61
567.68	64118.98
567.85	64020.67
568.01	64053.44
568.17	63985.57
568.34	64254.73
568.50	64142.38
568.66	64175.15
568.83	64397.50
568.99	64137.70
569.15	64046.42
569.32	64193.87
569.48	63969.18
569.64	64128.34
569.81	63997.27
569.97	64086.21
570.13	64111.95
570.30	63973.86
570.46	64217.28
570.62	64306.22
570.78	64048.76
570.95	64076.85
571.11	64264.09
571.27	64083.87
571.43	64193.87
571.60	64257.07
571.76	64093.23
571.92	64308.56
572.09	64175.15
572.25	64418.56
572.41	64308.56
572.57	64280.47
572.74	64479.42
572.90	64413.88
573.06	64219.62
573.22	64289.84
573.38	64228.98
573.55	64559.00
573.71	64631.55
573.87	64317.92
574.03	64432.61
574.20	64530.91
574.36	64420.90
574.52	64615.17
574.68	64292.18
574.84	64488.78
575.01	64521.55
575.17	64495.80
575.33	64582.40
575.49	64526.23
575.65	64608.15
575.82	64619.85
575.98	64617.51
576.14	64596.45
576.30	64549.63
576.46	64481.76
576.62	64392.82
576.79	64610.49
576.95	64257.07
577.11	64430.27
577.27	64582.40
577.43	64432.61
577.59	64521.55
577.75	64446.65
577.92	64484.10
578.08	64493.46
578.24	64594.10
578.40	64568.36
578.56	64596.45
578.72	64533.25
578.88	64776.67
579.04	64779.01
579.21	64626.87
579.37	64835.18
579.53	64828.16
579.69	64523.89
579.85	64659.64
580.01	64643.26
580.17	64474.74
580.33	64584.74
580.49	64676.02
580.65	64800.07
580.82	64769.64
580.98	64591.76
581.14	64769.64
581.30	64947.53
581.46	64830.50
581.62	64729.86
581.78	64448.99
581.94	64673.68
582.10	64631.55
582.26	64807.09
582.42	64767.30
582.58	64591.76
582.74	64746.24
582.90	64711.13
583.06	64881.99
583.22	64771.99
583.38	64779.01
583.54	64669.00
583.70	64645.60
583.86	64830.50
584.02	64502.82
584.18	64917.10
584.34	64881.99
584.50	64846.88
584.66	64526.23
584.82	64587.08
584.98	64844.54
585.14	64690.07
585.30	64598.79
585.46	64898.37
585.62	64750.92
585.78	64992.00
585.94	64926.46
586.10	64905.40
586.26	64872.63
586.42	64954.55
586.58	64853.90
586.74	64783.69
586.90	64830.50
587.06	64851.56
587.22	65006.04
587.38	64832.84
587.54	64994.34
