SpectraSuite Data File
++++++++++++++++++++++++++++++++++++
Date: Thu Oct 24 13:21:10 EDT 2013
User: stostad
Dark Spectrum Present: No
Reference Spectrum Present: No
Number of Sampled Component Spectra: 1
Spectrometers: USB2+H05261
Integration Time (usec): 100000 (USB2+H05261)
Spectra Averaged: 1 (USB2+H05261)
Boxcar Smoothing: 0 (USB2+H05261)
Correct for Electrical Dark: No (USB2+H05261)
Strobe/Lamp Enabled: No (USB2+H05261)
Correct for Detector Non-linearity: No (USB2+H05261)
Correct for Stray Light: No (USB2+H05261)
Number of Pixels in Processed Spectrum: 2048
>>>>>Begin Processed Spectral Data<<<<<
365.73	571.09
365.92	571.09
366.12	571.09
366.32	489.17
366.52	489.17
366.72	514.92
366.91	465.77
367.11	458.74
367.31	425.98
367.51	503.22
367.70	437.68
367.90	451.72
368.10	440.02
368.30	411.93
368.49	454.06
368.69	442.36
368.89	472.79
369.09	486.83
369.28	512.58
369.48	550.03
369.68	507.90
369.87	540.66
370.07	500.87
370.27	517.26
370.47	554.71
370.66	751.31
370.86	739.61
371.06	763.01
371.25	772.38
371.45	681.10
371.65	781.74
371.84	671.73
372.04	765.36
372.24	760.67
372.44	805.14
372.63	812.17
372.83	786.42
373.03	772.38
373.22	760.67
373.42	816.85
373.62	753.65
373.81	837.91
374.01	772.38
374.21	784.08
374.40	877.70
374.60	903.45
374.79	802.80
374.99	877.70
375.19	802.80
375.38	851.96
375.58	746.63
375.78	781.74
375.97	823.87
376.17	844.93
376.37	842.59
376.56	812.17
376.76	866.00
376.95	772.38
377.15	840.25
377.35	842.59
377.54	814.51
377.74	849.61
377.93	791.10
378.13	835.57
378.33	905.79
378.52	795.78
378.72	875.36
378.91	802.80
379.11	812.17
379.31	877.70
379.50	870.68
379.70	908.13
379.89	870.68
380.09	884.72
380.28	828.55
380.48	830.89
380.68	819.19
380.87	828.55
381.07	826.21
381.26	882.38
381.46	908.13
381.65	858.98
381.85	903.45
382.04	889.40
382.24	896.43
382.43	863.66
382.63	908.13
382.83	896.43
383.02	954.94
383.22	868.34
383.41	933.87
383.61	896.43
383.80	903.45
384.00	966.64
384.19	919.83
384.39	940.90
384.58	926.85
384.78	971.32
384.97	971.32
385.17	936.21
385.36	919.83
385.56	936.21
385.75	947.92
385.95	931.53
386.14	929.19
386.34	887.06
386.53	1013.45
386.72	898.77
386.92	1015.79
387.11	952.60
387.31	1022.81
387.50	1011.11
387.70	961.96
387.89	898.77
388.09	943.24
388.28	1025.15
388.48	961.96
388.67	1015.79
388.86	870.68
389.06	987.71
389.25	976.00
389.45	968.98
389.64	1015.79
389.84	987.71
390.03	1062.60
390.22	1022.81
390.42	987.71
390.61	1032.18
390.81	957.28
391.00	961.96
391.19	919.83
391.39	1050.90
391.58	1008.77
391.78	1050.90
391.97	1081.33
392.16	947.92
392.36	1102.39
392.55	1015.79
392.75	997.07
392.94	1008.77
393.13	1090.69
393.33	926.85
393.52	1053.24
393.71	1139.84
393.91	1139.84
394.10	1048.56
394.29	1078.99
394.49	1114.10
394.68	1128.14
394.88	1050.90
395.07	1093.03
395.26	1191.33
395.46	1088.35
395.65	1130.48
395.84	1121.12
396.04	1188.99
396.23	1093.03
396.42	1156.22
396.62	1104.73
396.81	1181.97
397.00	1128.14
397.19	1167.93
397.39	1181.97
397.58	1158.57
397.77	1118.78
397.97	1139.84
398.16	1128.14
398.35	1235.80
398.55	1125.80
398.74	1184.31
398.93	1214.74
399.12	1268.57
399.32	1287.29
399.51	1212.40
399.70	1261.55
399.90	1184.31
400.09	1299.00
400.28	1299.00
400.47	1284.95
400.67	1228.78
400.86	1289.64
401.05	1196.01
401.24	1324.74
401.44	1228.78
401.63	1261.55
401.82	1291.98
402.01	1327.08
402.21	1329.42
402.40	1280.27
402.59	1317.72
402.78	1252.19
402.97	1299.00
403.17	1364.53
403.36	1359.85
403.55	1378.58
403.74	1348.15
403.93	1439.43
404.13	1401.98
404.32	1416.02
404.51	1490.92
404.70	1493.26
404.89	1383.26
405.09	1481.56
405.28	1458.15
405.47	1444.11
405.66	1439.43
405.85	1476.88
406.05	1413.68
406.24	1511.99
406.43	1462.83
406.62	1565.82
406.81	1521.35
407.00	1469.86
407.20	1551.78
407.39	1481.56
407.58	1500.28
407.77	1490.92
407.96	1483.90
408.15	1633.69
408.34	1556.46
408.54	1563.48
408.73	1544.75
408.92	1596.25
409.11	1570.50
409.30	1633.69
409.49	1483.90
409.68	1584.54
409.87	1650.08
410.07	1685.19
410.26	1610.29
410.45	1715.61
410.64	1593.90
410.83	1762.42
411.02	1699.23
411.21	1722.63
411.40	1818.60
411.59	1748.38
411.78	1753.06
411.98	1820.94
412.17	1743.70
412.36	1760.08
412.55	1884.13
412.74	1806.89
412.93	1781.15
413.12	1696.89
413.31	1874.77
413.50	1839.66
413.69	1881.79
413.88	1947.33
414.07	1928.60
414.26	1802.21
414.45	1928.60
414.64	1963.71
414.83	1900.52
415.02	1914.56
415.22	1994.14
415.41	2045.63
415.60	2064.35
415.79	2012.86
415.98	2047.97
416.17	2019.88
416.36	2125.21
416.55	2080.74
416.74	2239.89
416.93	2125.21
417.12	2097.12
417.31	2099.46
417.50	2052.65
417.69	2202.44
417.88	2132.23
418.07	2183.72
418.26	2183.72
418.45	2083.08
418.64	2193.08
418.83	2169.68
419.02	2275.00
419.21	2253.94
419.39	2286.70
419.58	2225.85
419.77	2169.68
419.96	2230.53
420.15	2272.66
420.34	2328.83
420.53	2300.75
420.72	2305.43
420.91	2265.64
421.10	2328.83
421.29	2377.98
421.48	2228.19
421.67	2333.51
421.86	2354.58
422.05	2377.98
422.24	2356.92
422.43	2324.15
422.61	2359.26
422.80	2380.32
422.99	2361.60
423.18	2282.02
423.37	2408.41
423.56	2443.52
423.75	2389.69
423.94	2319.47
424.13	2282.02
424.32	2375.64
424.50	2513.74
424.69	2476.29
424.88	2373.30
425.07	2415.43
425.26	2380.32
425.45	2509.05
425.64	2399.05
425.83	2523.10
426.01	2392.03
426.20	2544.16
426.39	2464.58
426.58	2445.86
426.77	2396.71
426.96	2434.16
427.15	2518.42
427.33	2485.65
427.52	2527.78
427.71	2583.95
427.90	2537.14
428.09	2497.35
428.28	2581.61
428.46	2544.16
428.65	2513.74
428.84	2586.29
429.03	2583.95
429.22	2499.69
429.40	2581.61
429.59	2672.89
429.78	2523.10
429.97	2492.67
430.16	2546.50
430.34	2558.21
430.53	2675.23
430.72	2689.28
430.91	2588.63
431.10	2686.94
431.28	2750.13
431.47	2799.28
431.66	2684.59
431.85	2757.15
432.03	2736.09
432.22	2766.51
432.41	2768.85
432.60	2752.47
432.79	2780.56
432.97	2792.26
433.16	2626.08
433.35	2780.56
433.54	2885.88
433.72	2923.33
433.91	2832.05
434.10	2693.96
434.28	2818.00
434.47	2878.86
434.66	2979.50
434.85	2972.48
435.03	3019.29
435.22	3220.58
435.41	3321.22
435.59	3307.18
435.78	3159.72
435.97	3094.19
436.16	3094.19
436.34	2970.14
436.53	3019.29
436.72	2979.50
436.90	3131.64
437.09	2960.78
437.28	2913.97
437.46	2974.82
437.65	3094.19
437.84	3080.14
438.02	3143.34
438.21	3119.93
438.40	3094.19
438.58	3194.83
438.77	3187.81
438.96	3133.98
439.14	3180.79
439.33	3201.85
439.52	3246.32
439.70	3243.98
439.89	3283.77
440.08	3215.90
440.26	3414.84
440.45	3281.43
440.63	3290.79
440.82	3410.16
441.01	3332.92
441.19	3473.36
441.38	3365.69
441.57	3398.46
441.75	3527.19
441.94	3667.62
442.12	3433.57
442.31	3482.72
442.50	3510.80
442.68	3513.14
442.87	3468.67
443.05	3604.42
443.24	3693.37
443.43	3686.34
443.61	3637.19
443.80	3634.85
443.98	3616.13
444.17	3337.60
444.35	3581.02
444.54	3618.47
444.73	3667.62
444.91	3592.72
445.10	3569.32
445.28	3770.60
445.47	3597.40
445.65	3674.64
445.84	3779.97
446.02	3604.42
446.21	3653.58
446.39	3655.92
446.58	3843.16
446.77	3737.84
446.95	3691.02
447.14	3609.11
447.32	3714.43
447.51	3789.33
447.69	3644.21
447.88	3644.21
448.06	3712.09
448.25	3740.18
448.43	3644.21
448.62	3880.61
448.80	3702.73
448.99	3838.48
449.17	3641.87
449.36	3852.52
449.54	3868.91
449.73	3896.99
449.91	3904.01
450.10	3833.80
450.28	3786.99
450.46	3866.56
450.65	3864.22
450.83	3892.31
451.02	3775.28
451.20	4016.36
451.39	4030.40
451.57	3915.72
451.76	3854.86
451.94	4042.11
452.13	4084.23
452.31	4039.76
452.49	3988.27
452.68	4067.85
452.86	4025.72
453.05	4126.36
453.23	4140.41
453.42	3992.95
453.60	4152.11
453.78	4100.62
453.97	4018.70
454.15	4067.85
454.34	4023.38
454.52	4149.77
454.70	4142.75
454.89	4229.35
455.07	4032.74
455.26	4308.93
455.44	4243.39
455.62	4219.99
455.81	4102.96
455.99	4149.77
456.17	4201.26
456.36	4301.90
456.54	4142.75
456.73	4332.33
456.91	4477.44
457.09	4308.93
457.28	4484.47
457.46	4374.46
457.64	4454.04
457.83	4367.44
458.01	4315.95
458.19	4589.79
458.38	4440.00
458.56	4521.92
458.74	4482.13
458.93	4395.53
459.11	4580.43
459.29	4456.38
459.48	4566.39
459.66	4535.96
459.84	4512.55
460.03	4627.24
460.21	4657.67
460.39	4521.92
460.57	4713.84
460.76	4634.26
460.94	4585.11
461.12	4592.13
461.31	4634.26
461.49	4800.44
461.67	4692.77
461.85	4767.67
462.04	4765.33
462.22	5104.71
462.40	4950.23
462.59	4858.95
462.77	4723.20
462.95	4779.37
463.13	4716.18
463.32	5013.43
463.50	4940.87
463.68	4734.90
463.86	4779.37
464.05	4669.37
464.23	4844.91
464.41	4889.38
464.59	4910.44
464.78	4910.44
464.96	4980.66
465.14	4947.89
465.32	5032.15
465.50	4999.38
465.69	4952.57
465.87	4968.96
466.05	5060.24
466.23	5036.83
466.41	4828.53
466.60	5135.14
466.78	5104.71
466.96	5062.58
467.14	5179.61
467.32	5011.09
467.51	5181.95
467.69	5062.58
467.87	5261.52
468.05	5219.39
468.23	5144.50
468.41	5114.07
468.60	5165.56
468.78	5188.97
468.96	5069.60
469.14	5298.97
469.32	5268.55
469.50	5217.05
469.69	5235.78
469.87	5228.76
470.05	5530.69
470.23	5362.17
470.41	5327.06
470.59	5287.27
470.77	5378.55
470.95	5301.31
471.14	5406.64
471.32	5305.99
471.50	5500.26
471.68	5394.93
471.86	5387.91
472.04	5469.83
472.22	5427.70
472.40	5572.82
472.58	5523.66
472.77	5650.05
472.95	5736.65
473.13	5708.57
473.31	5729.63
473.49	5778.78
473.67	5757.72
473.85	5891.13
474.03	5907.51
474.21	5785.80
474.39	5727.29
474.57	5802.19
474.75	6038.58
474.93	5951.98
475.12	5881.77
475.30	6073.69
475.48	6024.54
475.66	6136.88
475.84	5947.30
476.02	6319.45
476.20	6190.72
476.38	6216.46
476.56	6410.73
476.74	6420.09
476.92	6359.24
477.10	6342.85
477.28	6342.85
477.46	6459.88
477.64	6492.65
477.82	6520.73
478.00	6626.06
478.18	6595.63
478.36	6682.23
478.54	6736.06
478.72	6724.36
478.90	6792.23
479.08	6949.05
479.26	7009.90
479.44	6958.41
479.62	6979.48
479.80	7066.08
479.98	6991.18
480.16	7110.55
480.34	7178.42
480.52	7180.76
480.70	7253.32
480.88	7293.11
481.06	7265.02
481.24	7494.40
481.41	7447.58
481.59	7747.17
481.77	7536.52
481.95	7515.46
482.13	7719.09
482.31	7583.34
482.49	7918.03
482.67	7667.60
482.85	7838.45
483.03	7983.57
483.21	7922.71
483.39	8126.34
483.57	8016.33
483.74	8119.32
483.92	8301.88
484.10	8336.99
484.28	8568.70
484.46	8386.14
484.64	8667.00
484.82	8390.82
485.00	8362.73
485.18	8779.35
485.35	8926.80
485.53	8676.37
485.71	8879.99
485.89	9018.08
486.07	8959.57
486.25	8999.36
486.43	9046.17
486.61	9090.64
486.78	9277.88
486.96	9383.21
487.14	9418.32
487.32	9327.03
487.50	9387.89
487.68	9369.16
487.85	9741.31
488.03	9823.23
488.21	10083.03
488.39	9937.91
488.57	10003.45
488.75	9949.62
488.92	9834.93
489.10	9778.76
489.28	10150.90
489.46	10237.50
489.64	10389.64
489.81	10616.67
489.99	10377.94
490.17	10670.50
490.35	10574.54
490.53	10679.86
490.70	10780.51
490.88	10736.04
491.06	10810.93
491.24	11061.37
491.41	10981.79
491.59	10974.77
491.77	11157.33
491.95	11178.40
492.13	11260.32
492.30	11426.50
492.48	11445.22
492.66	11494.37
492.84	11524.80
493.01	11531.82
493.19	11365.64
493.37	11506.07
493.54	11735.45
493.72	11674.59
493.90	11623.10
494.08	11836.09
494.25	11992.90
494.43	11932.05
494.61	12044.40
494.79	11985.88
494.96	11901.62
495.14	12145.04
495.32	12231.64
495.49	12367.39
495.67	12402.50
495.85	12657.62
496.02	12582.72
496.20	12812.09
496.38	12568.68
496.55	12594.42
496.73	13102.32
496.91	13041.46
497.09	13156.15
497.26	13109.34
497.44	13027.42
497.62	13013.38
497.79	13095.30
497.97	13345.73
498.14	13167.85
498.32	13357.44
498.50	13472.12
498.67	13511.91
498.85	13263.82
499.03	13572.77
499.20	13476.80
499.38	13593.83
499.56	13565.74
499.73	13813.84
499.91	13874.70
500.08	14015.13
500.26	13907.46
500.44	13895.76
500.61	13813.84
500.79	13984.70
500.97	14085.34
501.14	14394.29
501.32	13947.25
501.49	14214.07
501.67	14129.81
501.84	14370.89
502.02	14462.17
502.20	14546.43
502.37	14516.00
502.55	14352.16
502.72	14567.49
502.90	14611.96
503.07	14644.73
503.25	14920.92
503.43	14827.29
503.60	14726.65
503.78	14717.29
503.95	14675.16
504.13	14937.30
504.30	14810.91
504.48	14967.73
504.65	15096.46
504.83	15012.20
505.01	15377.32
505.18	15026.24
505.36	15407.75
505.53	15187.74
505.71	15229.87
505.88	15433.49
506.06	15396.04
506.23	15681.59
506.41	15363.28
506.58	15459.24
506.76	15501.37
506.93	15625.42
507.11	15716.70
507.28	15592.65
507.46	15793.94
507.63	15599.67
507.81	15611.37
507.98	15585.63
508.16	15763.51
508.33	15730.74
508.50	16105.23
508.68	16135.65
508.85	16252.68
509.03	16011.60
509.20	16091.18
509.38	16278.43
509.55	16432.90
509.73	16482.05
509.90	16793.34
510.08	16596.74
510.25	16299.49
510.42	16465.67
510.60	16624.83
510.77	16559.29
510.95	16783.98
511.12	16688.02
511.30	16903.35
511.47	16634.19
511.64	16798.02
511.82	16964.20
511.99	17092.93
512.17	16744.19
512.34	17003.99
512.51	17221.66
512.69	17256.77
512.86	17172.51
513.04	17291.88
513.21	17263.79
513.38	17053.14
513.56	17488.48
513.73	17174.85
513.90	17645.30
514.08	17465.08
514.25	17486.14
514.43	17598.49
514.60	17561.04
514.77	17380.82
514.95	17902.76
515.12	17607.85
515.29	17755.30
515.47	17596.15
515.64	17940.21
515.81	17603.17
515.99	18050.21
516.16	18094.68
516.33	17872.33
516.51	18101.70
516.68	18120.43
516.85	18040.85
517.03	18085.32
517.20	18375.55
517.37	17898.08
517.54	18520.66
517.72	18185.96
517.89	18319.37
518.06	18373.21
518.24	18345.12
518.41	18326.39
518.58	18431.72
518.75	18340.44
518.93	18375.55
519.10	18494.91
519.27	18630.66
519.45	18918.55
519.62	18635.35
519.79	18782.80
519.96	18939.62
520.14	18733.65
520.31	18401.29
520.48	18665.77
520.65	18541.72
520.83	19021.53
521.00	19119.84
521.17	18815.57
521.34	19091.75
521.52	19014.51
521.69	19286.01
521.86	19201.76
522.03	19138.56
522.20	19110.47
522.38	19367.93
522.55	19405.38
522.72	19449.85
522.89	19206.44
523.07	19594.96
523.24	19377.30
523.41	19389.00
523.58	19438.15
523.75	19737.74
523.92	19489.64
524.10	19501.34
524.27	19744.76
524.44	19658.16
524.61	19892.21
524.78	19674.54
524.96	19751.78
525.13	19765.82
525.30	19880.51
525.47	19957.75
525.64	20030.30
525.81	20039.67
525.98	20121.59
526.16	20161.37
526.33	19824.34
526.50	20266.70
526.67	20357.98
526.84	20287.76
527.01	20093.50
527.18	20259.68
527.36	20269.04
527.53	20355.64
527.70	20299.47
527.87	20397.77
528.04	20690.34
528.21	20606.08
528.38	20514.80
528.55	20938.43
528.72	20292.44
528.89	20493.73
529.07	20570.97
529.24	20294.79
529.41	20746.51
529.58	20683.31
529.75	20561.61
529.92	20641.18
530.09	20734.81
530.26	20774.60
530.43	20760.55
530.60	20868.22
530.77	20947.79
530.94	20915.03
531.11	20980.56
531.28	20964.18
531.46	21057.80
531.63	20805.02
531.80	20872.90
531.97	20809.70
532.14	20971.20
532.31	21338.66
532.48	21064.82
532.65	21214.62
532.82	21254.40
532.99	21057.80
533.16	21394.84
533.33	21270.79
533.50	21373.77
533.67	21355.05
533.84	20982.90
534.01	21706.13
534.18	21296.53
534.35	21708.47
534.52	21797.41
534.69	21774.00
534.86	21778.68
535.03	21369.09
535.20	21617.19
535.37	21633.57
535.54	21755.28
535.71	21759.96
535.88	21926.14
536.05	21790.39
536.22	21722.51
536.38	21823.16
536.55	21664.00
536.72	21963.59
536.89	21909.75
537.06	22043.17
537.23	22291.26
537.40	22045.51
537.57	22244.45
537.74	22174.24
537.91	22195.30
538.08	22412.97
538.25	22040.82
538.42	21933.16
538.59	22632.98
538.75	22157.85
538.92	22410.63
539.09	22363.82
539.26	22305.31
539.43	22452.76
539.60	22457.44
539.77	22438.72
539.94	22899.80
540.11	22649.36
540.28	22670.43
540.44	22773.41
540.61	22820.22
540.78	22574.47
540.95	22724.26
541.12	22855.33
541.29	23208.75
541.46	22883.42
541.62	22967.68
541.79	22857.67
541.96	23023.85
542.13	23063.64
542.30	23131.51
542.47	22988.74
542.63	23250.88
542.80	23295.35
542.97	23269.61
543.14	23400.68
543.31	23419.40
543.48	23740.05
543.64	23845.38
543.81	23541.11
543.98	23676.86
544.15	23426.42
544.32	23606.64
544.48	23798.57
544.65	23665.16
544.82	23821.97
544.99	23623.03
545.16	23538.77
545.32	23763.46
545.49	24261.99
545.66	24659.88
545.83	24940.75
546.00	24844.79
546.16	24372.00
546.33	23924.96
546.50	23695.58
546.67	23864.10
546.83	23747.08
547.00	23601.96
547.17	23618.35
547.34	23501.32
547.50	23859.42
547.67	23908.57
547.84	24095.82
548.00	23976.45
548.17	24156.67
548.34	23683.88
548.51	24446.90
548.67	24299.44
548.84	23901.55
549.01	24126.24
549.18	24477.32
549.34	23950.70
549.51	23927.30
549.68	23971.77
549.84	24105.18
550.01	24135.60
550.18	24046.66
550.34	23634.73
550.51	23875.80
550.68	24056.03
550.84	23990.49
551.01	24163.69
551.18	24168.37
551.34	24030.28
551.51	24254.97
551.68	24105.18
551.84	24210.50
552.01	24184.76
552.18	24217.52
552.34	24325.19
552.51	24446.90
552.68	24044.32
552.84	24493.71
553.01	24559.24
553.18	24648.18
553.34	24114.54
553.51	24189.44
553.67	24500.73
553.84	24531.15
554.01	24716.06
554.17	24549.88
554.34	24561.58
554.51	24636.48
554.67	24620.10
554.84	24271.36
555.00	24196.46
555.17	24252.63
555.33	24599.03
555.50	24374.34
555.67	24353.27
555.83	24713.72
556.00	24790.95
556.16	24776.91
556.33	24554.56
556.50	24580.31
556.66	24732.44
556.83	24510.09
556.99	25123.31
557.16	24676.27
557.32	24882.24
557.49	24896.28
557.65	24788.61
557.82	24917.34
557.98	24650.52
558.15	24505.41
558.32	24690.31
558.48	24900.96
558.65	24800.32
558.81	25090.54
558.98	24968.84
559.14	25010.96
559.31	24790.95
559.47	24620.10
559.64	24936.07
559.80	24783.93
559.97	24428.17
560.13	24641.16
560.30	24751.17
560.46	24915.00
560.63	25022.67
560.79	25083.52
560.96	25422.90
561.12	24978.20
561.29	24833.08
561.45	24678.61
561.61	25062.46
561.78	24896.28
561.94	24856.49
562.11	25235.66
562.27	25078.84
562.44	25291.83
562.60	25090.54
562.77	25050.75
562.93	25380.77
563.10	25373.75
563.26	25113.95
563.42	25378.43
563.59	25181.82
563.75	24992.24
563.92	25027.35
564.08	25303.53
564.24	25179.48
564.41	25315.23
564.57	24912.66
564.74	25315.23
564.90	25301.19
565.07	25305.87
565.23	25362.04
565.39	25032.03
565.56	25783.34
565.72	25130.33
565.88	25546.95
566.05	25266.08
566.21	25017.99
566.38	25427.58
566.54	25301.19
566.70	25476.73
566.87	25266.08
567.03	25362.04
567.19	25593.76
567.36	25551.63
567.52	25266.08
567.68	25202.89
567.85	25256.72
568.01	25455.67
568.17	25652.27
568.34	25837.17
568.50	25521.20
568.66	25427.58
568.83	25575.03
568.99	25364.39
569.15	25687.38
569.32	25259.06
569.48	25034.37
569.64	25724.83
569.81	25343.32
569.97	25296.51
570.13	25401.83
570.30	25238.00
570.46	25240.34
570.62	25497.80
570.78	25219.27
570.95	25376.09
571.11	25357.36
571.27	25221.61
571.43	25319.92
571.60	25724.83
571.76	25516.52
571.92	25685.04
572.09	25671.00
572.25	25869.94
572.41	25678.02
572.57	25802.07
572.74	25790.36
572.90	25371.41
573.06	25832.49
573.22	25617.16
573.38	25270.76
573.55	25329.28
573.71	25469.71
573.87	25329.28
574.03	25682.70
574.20	25263.74
574.36	25603.12
574.52	25408.86
574.68	25839.51
574.84	25628.87
575.01	25694.40
575.17	25582.06
575.33	25715.47
575.49	25965.90
575.65	25762.28
575.82	25685.04
575.98	25603.12
576.14	25860.58
576.30	25722.49
576.46	25656.95
576.62	25862.92
576.79	25956.54
576.95	25720.15
577.11	26015.05
577.27	25827.81
577.43	25685.04
577.59	25855.90
577.75	25628.87
577.92	25448.64
578.08	25729.51
578.24	25455.67
578.40	25750.57
578.56	26012.71
578.72	25659.29
578.88	26197.62
579.04	26111.02
579.21	25776.32
579.37	25947.18
579.53	26192.94
579.69	25577.37
579.85	26080.59
580.01	25795.04
580.17	25560.99
580.33	25743.55
580.49	25851.22
580.65	25942.50
580.82	26134.42
580.98	25727.17
581.14	25837.17
581.30	25883.98
581.46	25308.21
581.62	25355.02
581.78	25645.25
581.94	25898.03
582.10	25738.87
582.26	25844.20
582.42	26033.78
582.58	25743.55
582.74	25621.84
582.90	25785.68
583.06	25710.78
583.22	25652.27
583.38	25781.00
583.54	25919.09
583.70	25626.53
583.86	25986.97
584.02	25759.94
584.18	25846.54
584.34	25937.82
584.50	26043.14
584.66	25546.95
584.82	25673.34
584.98	25722.49
585.14	25954.20
585.30	25610.14
585.46	25804.41
585.62	25593.76
585.78	25926.11
585.94	25862.92
586.10	25848.88
586.26	26218.68
586.42	26031.44
586.58	25841.85
586.74	25919.09
586.90	26181.23
587.06	26352.09
587.22	26019.74
587.38	25993.99
587.54	26361.45
587.70	26008.03
587.86	25797.38
588.02	26375.50
588.18	26127.40
588.34	26197.62
588.49	25893.35
588.65	25834.83
588.81	25806.75
588.97	26464.44
589.13	25715.47
589.29	26150.81
589.45	25750.57
589.61	26218.68
589.77	26160.17
589.93	25851.22
590.08	26118.04
590.24	25996.33
590.40	26059.52
590.56	25759.94
590.72	25853.56
