SpectraSuite Data File
++++++++++++++++++++++++++++++++++++
Date: Thu Oct 24 13:21:26 EDT 2013
User: stostad
Dark Spectrum Present: No
Reference Spectrum Present: No
Number of Sampled Component Spectra: 1
Spectrometers: USB2+H05261
Integration Time (usec): 100000 (USB2+H05261)
Spectra Averaged: 1 (USB2+H05261)
Boxcar Smoothing: 0 (USB2+H05261)
Correct for Electrical Dark: No (USB2+H05261)
Strobe/Lamp Enabled: No (USB2+H05261)
Correct for Detector Non-linearity: No (USB2+H05261)
Correct for Stray Light: No (USB2+H05261)
Number of Pixels in Processed Spectrum: 2048
>>>>>Begin Processed Spectral Data<<<<<
365.73	526.62
365.92	526.62
366.12	526.62
366.32	479.81
366.52	491.51
366.72	428.32
366.91	447.04
367.11	414.27
367.31	430.66
367.51	470.45
367.70	500.87
367.90	465.77
368.10	479.81
368.30	458.74
368.49	407.25
368.69	514.92
368.89	503.22
369.09	489.17
369.28	507.90
369.48	442.36
369.68	477.47
369.87	461.09
370.07	519.60
370.27	543.00
370.47	638.97
370.66	983.02
370.86	999.41
371.06	966.64
371.25	1022.81
371.45	980.68
371.65	985.37
371.84	1057.92
372.04	1004.09
372.24	1104.73
372.44	1111.75
372.63	1057.92
372.83	1109.41
373.03	1069.62
373.22	1093.03
373.42	1097.71
373.62	1121.12
373.81	1088.35
374.01	1184.31
374.21	1118.78
374.40	1188.99
374.60	1125.80
374.79	1130.48
374.99	1139.84
375.19	1132.82
375.38	1137.50
375.58	1137.50
375.78	1233.46
375.97	1156.22
376.17	1277.93
376.37	1146.86
376.56	1158.57
376.76	1163.25
376.95	1146.86
377.15	1212.40
377.35	1261.55
377.54	1273.25
377.74	1322.40
377.93	1179.63
378.13	1254.53
378.33	1219.42
378.52	1320.06
378.72	1233.46
378.91	1263.89
379.11	1273.25
379.31	1266.23
379.50	1263.89
379.70	1224.10
379.89	1259.21
380.09	1275.59
380.28	1338.79
380.48	1275.59
380.68	1308.36
380.87	1259.21
381.07	1291.98
381.26	1364.53
381.46	1317.72
381.65	1355.17
381.85	1425.39
382.04	1327.08
382.24	1420.71
382.43	1437.09
382.63	1383.26
382.83	1366.87
383.02	1427.73
383.22	1404.32
383.41	1406.66
383.61	1483.90
383.80	1357.51
384.00	1409.00
384.19	1481.56
384.39	1474.54
384.58	1411.34
384.78	1366.87
384.97	1409.00
385.17	1502.62
385.36	1600.93
385.56	1523.69
385.75	1547.09
385.95	1533.05
386.14	1554.12
386.34	1455.81
386.53	1558.80
386.72	1528.37
386.92	1614.97
387.11	1547.09
387.31	1535.39
387.50	1533.05
387.70	1497.94
387.89	1542.41
388.09	1519.01
388.28	1621.99
388.48	1584.54
388.67	1680.50
388.86	1619.65
389.06	1678.16
389.25	1614.97
389.45	1687.53
389.64	1729.66
389.84	1694.55
390.03	1706.25
390.22	1736.68
390.42	1694.55
390.61	1589.22
390.81	1760.08
391.00	1703.91
391.19	1790.51
391.39	1701.57
391.58	1701.57
391.78	1825.62
391.97	1820.94
392.16	1778.81
392.36	1802.21
392.55	1980.09
392.75	1898.17
392.94	1849.02
393.13	1881.79
393.33	1895.83
393.52	1891.15
393.71	1879.45
393.91	1919.24
394.10	1905.20
394.29	1905.20
394.49	1771.79
394.68	2008.18
394.88	1865.41
395.07	1994.14
395.26	1944.99
395.46	2033.93
395.65	1952.01
395.84	2066.69
396.04	2071.37
396.23	2108.82
396.42	2113.50
396.62	2069.03
396.81	2043.29
397.00	2054.99
397.19	2129.89
397.39	2134.57
397.58	2125.21
397.77	2167.34
397.97	2150.95
398.16	2108.82
398.35	2200.10
398.55	2253.94
398.74	2221.17
398.93	2253.94
399.12	2239.89
399.32	2230.53
399.51	2279.68
399.70	2251.60
399.90	2232.87
400.09	2347.56
400.28	2310.11
400.47	2298.41
400.67	2445.86
400.86	2303.09
401.05	2368.62
401.24	2373.30
401.44	2380.32
401.63	2422.45
401.82	2537.14
402.01	2349.90
402.21	2478.63
402.40	2394.37
402.59	2544.16
402.78	2513.74
402.97	2530.12
403.17	2668.21
403.36	2621.40
403.55	2574.59
403.74	2607.36
403.93	2602.68
404.13	2789.92
404.32	2698.64
404.51	2700.98
404.70	2675.23
404.89	2656.51
405.09	2710.34
405.28	2778.22
405.47	2869.50
405.66	2761.83
405.85	2803.96
406.05	2874.18
406.24	2876.52
406.43	2806.30
406.62	3038.02
406.81	2993.55
407.00	2930.35
407.20	2909.29
407.39	2970.14
407.58	2951.42
407.77	3005.25
407.96	3094.19
408.15	3150.36
408.34	3077.80
408.54	3082.49
408.73	3059.08
408.92	3103.55
409.11	3152.70
409.30	3185.47
409.49	3215.90
409.68	3201.85
409.87	3302.50
410.07	3279.09
410.26	3344.63
410.45	3391.44
410.64	3337.60
410.83	3435.91
411.02	3384.41
411.21	3501.44
411.40	3440.59
411.59	3417.18
411.78	3618.47
411.98	3522.51
412.17	3644.21
412.36	3538.89
412.55	3667.62
412.74	3658.26
412.93	3772.94
413.12	3646.55
413.31	3829.12
413.50	3866.56
413.69	3831.46
413.88	3803.37
414.07	3833.80
414.26	3871.25
414.45	3992.95
414.64	3941.46
414.83	4039.76
415.02	4049.13
415.22	4210.62
415.41	4077.21
415.60	4039.76
415.79	4100.62
415.98	4215.30
416.17	4329.99
416.36	4219.99
416.55	4215.30
416.74	4414.25
416.93	4430.63
417.12	4304.25
417.31	4351.06
417.50	4585.11
417.69	4603.83
417.88	4400.21
418.07	4545.32
418.26	4456.38
418.45	4531.28
418.64	4762.99
418.83	4760.65
419.02	4704.48
419.21	4758.31
419.39	4840.23
419.58	4699.80
419.77	4814.48
419.96	4908.10
420.15	4788.74
420.34	4723.20
420.53	4713.84
420.72	4931.51
420.91	4908.10
421.10	5093.01
421.29	4919.81
421.48	4814.48
421.67	4896.40
421.86	5027.47
422.05	5069.60
422.24	5060.24
422.43	5132.79
422.61	5210.03
422.80	5195.99
422.99	5022.79
423.18	5095.35
423.37	5310.68
423.56	5160.88
423.75	5093.01
423.94	4985.34
424.13	4711.50
424.32	5048.54
424.50	5165.56
424.69	5287.27
424.88	5212.37
425.07	5139.82
425.26	5039.17
425.45	5231.10
425.64	5179.61
425.83	5067.26
426.01	5287.27
426.20	5338.76
426.39	5373.87
426.58	5170.24
426.77	5179.61
426.96	5174.92
427.15	5228.76
427.33	5469.83
427.52	5444.09
427.71	5565.79
427.90	5439.40
428.09	5561.11
428.28	5425.36
428.46	5631.33
428.65	5483.88
428.84	5593.88
429.03	5694.52
429.22	5479.19
429.40	5678.14
429.59	5715.59
429.78	5518.98
429.97	5530.69
430.16	5746.02
430.34	5837.30
430.53	5792.83
430.72	6038.58
430.91	5750.70
431.10	5694.52
431.28	5930.92
431.47	5841.98
431.66	6076.03
431.85	6003.47
432.03	5942.62
432.22	6012.84
432.41	6134.54
432.60	6022.20
432.79	6047.94
432.97	6108.80
433.16	6211.78
433.35	6157.95
433.54	6176.67
433.72	6267.95
433.91	6265.61
434.10	6413.07
434.28	6249.23
434.47	6312.42
434.66	6270.30
434.85	6441.15
435.03	6565.20
435.22	6583.93
435.41	6951.39
435.59	6661.16
435.78	6509.03
435.97	6733.72
436.16	6572.22
436.34	6602.65
436.53	6736.06
436.72	6792.23
436.90	6675.21
437.09	6686.91
437.28	6656.48
437.46	6616.69
437.65	6733.72
437.84	6888.20
438.02	6792.23
438.21	6780.53
438.40	6850.75
438.58	7084.80
438.77	7152.68
438.96	6965.43
439.14	7363.33
439.33	7283.75
439.52	7323.54
439.70	7400.77
439.89	7583.34
440.08	7473.33
440.26	7641.85
440.45	7489.71
440.63	7573.97
440.82	7740.15
441.01	7803.35
441.19	7796.32
441.38	7941.44
441.57	7887.61
441.75	7761.22
441.94	8114.64
442.12	8140.38
442.31	8056.12
442.50	7971.86
442.68	8074.85
442.87	8266.77
443.05	8088.89
443.24	8538.27
443.43	8404.86
443.61	8308.90
443.80	8456.36
443.98	8241.03
444.17	7967.18
444.35	8336.99
444.54	8292.52
444.73	8327.63
444.91	8421.25
445.10	8601.47
445.28	8552.32
445.47	8444.65
445.65	8432.95
445.84	8435.29
446.02	8505.51
446.21	8615.51
446.39	8348.69
446.58	8545.30
446.77	8610.83
446.95	8461.04
447.14	8468.06
447.32	8540.61
447.51	8514.87
447.69	8416.57
447.88	8674.03
448.06	8571.04
448.25	8552.32
448.43	8610.83
448.62	8814.46
448.80	8531.25
448.99	8688.07
449.17	8837.86
449.36	8765.31
449.54	8762.97
449.73	8851.91
449.91	8943.19
450.10	9025.11
450.28	9186.60
450.46	9338.74
450.65	9118.73
450.83	9198.31
451.02	9247.46
451.20	9221.71
451.39	9210.01
451.57	9217.03
451.76	9004.04
451.94	9312.99
452.13	9530.66
452.31	9298.95
452.49	9156.18
452.68	9486.19
452.86	9310.65
453.05	9474.49
453.23	9504.92
453.42	9411.29
453.60	9312.99
453.78	9472.15
453.97	9525.98
454.15	9415.98
454.34	9521.30
454.52	9537.68
454.70	9563.43
454.89	9685.14
455.07	9881.74
455.26	9757.69
455.44	9942.60
455.62	9727.27
455.81	9961.32
455.99	9900.47
456.17	10024.51
456.36	10068.98
456.54	10296.02
456.73	10209.42
456.91	10207.08
457.09	10431.77
457.28	10487.94
457.46	10239.84
457.64	10251.55
457.83	10457.51
458.01	10286.65
458.19	10562.84
458.38	10548.79
458.56	10698.59
458.74	10607.31
458.93	10623.69
459.11	10822.64
459.29	10829.66
459.48	10743.06
459.66	10738.38
459.84	11059.03
460.03	10803.91
460.21	11080.10
460.39	10911.58
460.57	10988.82
460.76	11112.86
460.94	11171.38
461.12	11257.98
461.31	11243.93
461.49	11260.32
461.67	11255.64
461.85	11438.20
462.04	11272.02
462.22	11892.26
462.40	11791.62
462.59	11452.24
462.77	11342.24
462.95	11232.23
463.13	11389.05
463.32	11407.77
463.50	11630.12
463.68	11606.72
463.86	11695.66
464.05	11473.31
464.23	11571.61
464.41	11726.08
464.59	11555.22
464.78	12241.00
464.96	11934.39
465.14	11878.22
465.32	12140.36
465.50	12163.76
465.69	12077.16
465.87	11887.58
466.05	12107.59
466.23	12102.91
466.41	12058.44
466.60	12461.01
466.78	12201.21
466.96	12020.99
467.14	11878.22
467.32	12362.71
467.51	12205.89
467.69	12009.29
467.87	12365.05
468.05	12327.60
468.23	12250.36
468.41	12395.48
468.60	12301.86
468.78	12704.43
468.96	12449.31
469.14	12760.60
469.32	12882.31
469.50	12400.16
469.69	12784.01
469.87	13111.68
470.05	12823.80
470.23	12973.59
470.41	13057.85
470.59	12964.23
470.77	13174.88
470.95	13130.41
471.14	13584.47
471.32	12919.76
471.50	13448.72
471.68	13284.88
471.86	13415.95
472.04	13518.93
472.22	14043.21
472.40	13575.11
472.58	13544.68
472.77	13795.12
472.95	13853.63
473.13	14120.45
473.31	13914.48
473.49	14097.05
473.67	13973.00
473.85	14171.94
474.03	14487.92
474.21	14630.69
474.39	14420.04
474.57	14314.72
474.75	14815.59
474.93	14853.04
475.12	14721.97
475.30	14721.97
475.48	14717.29
475.66	15009.86
475.84	15367.96
476.02	15150.29
476.20	15122.20
476.38	15609.03
476.56	15529.45
476.74	15744.78
476.92	15676.91
477.10	15580.95
477.28	15887.56
477.46	15946.07
477.64	15908.62
477.82	16393.11
478.00	16592.06
478.18	16723.13
478.36	16556.95
478.54	16933.78
478.72	16821.43
478.90	17254.43
479.08	17128.04
479.26	17301.24
479.44	17582.10
479.62	17802.11
479.80	17465.08
479.98	18064.25
480.16	18246.82
480.34	18012.76
480.52	18363.84
480.70	18239.79
480.88	18450.44
481.06	18443.42
481.24	18534.70
481.41	18675.13
481.59	19035.58
481.77	19452.19
481.95	19255.59
482.13	19346.87
482.31	19431.13
482.49	20128.61
482.67	19955.41
482.85	20229.25
483.03	20222.23
483.21	20458.62
483.39	20512.46
483.57	20402.45
483.74	20896.30
483.92	20900.98
484.10	20861.19
484.28	21553.99
484.46	21605.49
484.64	22106.36
484.82	21720.17
485.00	21710.81
485.18	22466.80
485.35	22745.33
485.53	22551.06
485.71	22831.93
485.89	23103.43
486.07	23183.01
486.25	23213.43
486.43	23260.24
486.61	23639.41
486.78	23578.56
486.96	23981.13
487.14	24266.67
487.32	24357.96
487.50	24173.05
487.68	24456.26
487.85	25322.26
488.03	25338.64
488.21	25029.69
488.39	25280.13
488.57	25420.56
488.75	25841.85
488.92	25666.31
489.10	26038.46
489.28	26288.90
489.46	26567.42
489.64	26553.38
489.81	27178.30
489.99	27358.52
490.17	27536.40
490.35	27482.57
490.53	27669.81
490.70	28144.94
490.88	27817.27
491.06	28428.15
491.24	28559.22
491.41	28514.75
491.59	28851.78
491.77	28648.16
491.95	28973.49
492.13	29172.44
492.30	29170.10
492.48	29373.72
492.66	29230.95
492.84	29528.20
493.01	30078.22
493.19	30267.81
493.37	30190.57
493.54	30237.38
493.72	30932.52
493.90	30714.85
494.08	31054.23
494.25	31573.83
494.43	31482.55
494.61	31896.82
494.79	31543.40
494.96	31260.20
495.14	31929.59
495.32	32350.88
495.49	32552.17
495.67	32601.32
495.85	32730.05
496.02	32950.06
496.20	33179.43
496.38	33399.44
496.55	33046.02
496.73	34066.50
496.91	33874.57
497.09	34066.50
497.26	34043.09
497.44	34218.63
497.62	33809.04
497.79	34883.34
497.97	34656.31
498.14	34796.74
498.32	35213.36
498.50	35234.42
498.67	35517.63
498.85	35356.13
499.03	35814.88
499.20	36105.10
499.38	36105.10
499.56	36383.63
499.73	36374.27
499.91	36268.94
500.08	36432.78
500.26	36378.95
500.44	36788.54
500.61	36872.80
500.79	37223.88
500.97	37661.56
501.14	37699.01
501.32	37270.69
501.49	37584.32
501.67	37317.50
501.84	37752.84
502.02	37699.01
502.20	38036.05
502.37	38174.14
502.55	38134.35
502.72	38417.55
502.90	38780.34
503.07	38651.61
503.25	38995.67
503.43	38726.50
503.60	38796.72
503.78	39262.49
503.95	39194.61
504.13	39084.61
504.30	40062.95
504.48	39779.74
504.65	39859.32
504.83	40264.24
505.01	40432.75
505.18	40355.52
505.36	40746.39
505.53	40402.33
505.71	40378.92
505.88	40554.46
506.06	40573.19
506.23	40935.97
506.41	40872.78
506.58	41137.26
506.76	40809.58
506.93	41453.23
507.11	41408.76
507.28	41483.66
507.46	41471.95
507.63	41867.50
507.81	42370.72
507.98	41656.85
508.16	41691.96
508.33	41638.13
508.50	42389.44
508.68	42719.46
508.85	42911.38
509.03	42862.23
509.20	42691.37
509.38	43222.67
509.55	43152.46
509.73	42845.85
509.90	43742.27
510.08	43562.05
510.25	43519.92
510.42	43566.73
510.60	43957.60
510.77	44123.78
510.95	43882.70
511.12	43622.90
511.30	44292.30
511.47	44446.77
511.64	44250.17
511.82	44666.78
511.99	44460.82
512.17	44596.57
512.34	45099.78
512.51	44973.39
512.69	45701.30
512.86	45165.32
513.04	45558.53
513.21	45280.00
513.38	45584.27
513.56	45612.36
513.73	45970.46
513.90	45677.90
514.08	45647.47
514.25	45916.63
514.43	46515.81
514.60	45970.46
514.77	46036.00
514.95	46274.73
515.12	46653.90
515.29	46866.89
515.47	46796.67
515.64	47220.31
515.81	46525.17
515.99	46934.76
516.16	47161.79
516.33	47185.20
516.51	47529.26
516.68	47655.65
516.85	47601.82
517.03	47995.03
517.20	47711.82
517.37	47505.85
517.54	47442.66
517.72	47772.67
517.89	47810.12
518.06	47962.26
518.24	48175.25
518.41	48109.71
518.58	48215.04
518.75	48016.09
518.93	48687.82
519.10	48133.12
519.27	48605.91
519.45	48655.06
519.62	49181.68
519.79	49043.59
519.96	48781.45
520.14	48851.66
520.31	48713.57
520.48	48968.69
520.65	49029.54
520.83	49471.90
521.00	49712.98
521.17	49399.35
521.34	49577.23
521.52	49811.28
521.69	49310.41
521.86	49808.94
522.03	49757.45
522.20	50616.43
522.38	50490.04
522.55	50274.71
522.72	50532.17
522.89	50078.10
523.07	50574.30
523.24	50380.03
523.41	51047.08
523.58	50396.42
523.75	50852.82
523.92	51222.62
524.10	51086.87
524.27	51407.53
524.44	50883.25
524.61	51161.77
524.78	50883.25
524.96	51136.02
525.13	51384.12
525.30	51723.50
525.47	51702.43
525.64	51526.89
525.81	51742.22
525.98	51700.09
526.16	51714.14
526.33	51524.55
526.50	51796.06
526.67	51707.12
526.84	51821.80
527.01	52306.29
527.18	52294.59
527.36	52133.09
527.53	52151.82
527.70	52669.08
527.87	52568.43
528.04	52545.03
528.21	52212.67
528.38	52371.83
528.55	52804.83
528.72	52594.18
528.89	52823.55
529.07	52479.49
529.24	52877.38
529.41	52678.44
529.58	53062.29
529.75	52809.51
529.92	52973.34
530.09	52926.53
530.26	52961.64
530.43	53125.48
530.60	52638.65
530.77	52924.19
530.94	53502.31
531.11	53333.79
531.28	53834.66
531.46	53591.25
531.63	53542.10
531.80	53361.87
531.97	53317.40
532.14	53535.07
532.31	53546.78
532.48	53616.99
532.65	53750.40
532.82	53712.95
532.99	53787.85
533.16	53682.53
533.33	53530.39
533.50	54115.53
533.67	54049.99
533.84	54145.95
534.01	54003.18
534.18	54059.35
534.35	54361.28
534.52	54106.16
534.69	54262.98
534.86	54349.58
535.03	53951.69
535.20	54284.04
535.37	54719.38
535.54	54745.13
535.71	54908.97
535.88	54871.52
536.05	54728.75
536.22	54426.82
536.38	54841.09
536.55	54913.65
536.72	54724.07
536.89	54855.14
537.06	55072.81
537.23	55079.83
537.40	55185.15
537.57	54658.53
537.74	55058.76
537.91	55316.22
538.08	55096.21
538.25	55271.75
538.42	55192.17
538.59	55442.61
538.75	55257.71
538.92	55341.97
539.09	55484.74
539.26	55173.45
539.43	55475.38
539.60	55550.27
539.77	55533.89
539.94	55807.73
540.11	55835.82
540.28	55901.36
540.44	55969.23
540.61	55779.65
540.78	55599.43
540.95	55772.63
541.12	55749.22
541.29	56069.87
541.46	56137.75
541.62	56109.66
541.79	56303.93
541.96	55922.42
542.13	55931.78
542.30	55791.35
542.47	56093.28
542.63	56252.44
542.80	56147.11
542.97	56596.49
543.14	56722.88
543.31	56509.89
543.48	56453.72
543.64	56690.12
543.81	56797.78
543.98	56341.38
544.15	56814.16
544.32	56769.69
544.48	56938.21
544.65	56985.02
544.82	56699.48
544.99	56788.42
545.16	57102.05
545.32	56994.39
545.49	57139.50
545.66	57408.66
545.83	57209.71
546.00	57602.92
546.16	57265.89
546.33	57427.38
546.50	57095.03
546.67	57331.42
546.83	57024.81
547.00	57116.09
547.17	57254.18
547.34	57354.83
547.50	57237.80
547.67	57368.87
547.84	57553.77
548.00	57661.44
548.17	57801.87
548.34	57422.70
548.51	57607.61
548.67	57525.69
548.84	57584.20
549.01	57504.62
549.18	57827.62
549.34	57677.82
549.51	57616.97
549.68	57649.74
549.84	57694.21
550.01	57661.44
550.18	57469.51
550.34	57820.59
550.51	57656.76
550.68	57680.16
550.84	57661.44
551.01	57970.39
551.18	57750.38
551.34	57858.04
551.51	57925.92
551.68	58148.27
551.84	57750.38
552.01	57701.23
552.18	58232.53
552.34	58150.61
552.51	58244.23
552.68	58188.06
552.84	58204.44
553.01	58349.56
553.18	58281.68
553.34	58286.36
553.51	57785.49
553.67	58265.30
553.84	58597.65
554.01	58436.16
554.17	58599.99
554.34	58354.24
554.51	58337.85
554.67	58412.75
554.84	58377.64
555.00	58344.87
555.17	58260.62
555.33	58433.81
555.50	58574.25
555.67	58681.91
555.83	58522.76
556.00	58567.23
556.16	58728.72
556.33	58663.19
556.50	58447.86
556.66	58578.93
556.83	58417.43
556.99	58915.96
557.16	58997.88
557.32	58951.07
557.49	59079.80
557.65	58604.67
557.82	58834.05
557.98	58784.90
558.15	58801.28
558.32	58773.19
558.48	58756.81
558.65	58822.34
558.81	58759.15
558.98	59075.12
559.14	59070.44
559.31	58789.58
559.47	58927.67
559.64	59063.42
559.80	58995.54
559.97	58974.48
560.13	58628.08
560.30	59089.16
560.46	59014.27
560.63	59077.46
560.79	59131.29
560.96	59402.80
561.12	59147.68
561.29	59241.30
561.45	59100.87
561.61	59196.83
561.78	59222.58
561.94	59311.52
562.11	59583.02
562.27	59615.79
562.44	59292.79
562.60	59346.62
562.77	59344.28
562.93	59274.07
563.10	59400.46
563.26	59217.89
563.42	59421.52
563.59	59194.49
563.75	59353.65
563.92	59501.10
564.08	59458.97
564.24	59501.10
564.41	59477.69
564.57	59458.97
564.74	59365.35
564.90	59517.48
565.07	59538.55
565.23	59749.20
565.39	59756.22
565.56	59788.98
565.72	59660.26
565.88	59634.51
566.05	59721.11
566.21	59185.13
566.38	59302.15
566.54	59444.93
566.70	59744.51
566.87	59882.61
567.03	59632.17
567.19	60046.44
567.36	59824.09
567.52	59739.83
567.68	59800.69
567.85	59770.26
568.01	59758.56
568.17	59583.02
568.34	59714.09
568.50	59704.73
568.66	59796.01
568.83	59632.17
568.99	59536.21
569.15	59889.63
569.32	59920.05
569.48	59721.11
569.64	59744.51
569.81	59824.09
569.97	59877.93
570.13	59791.33
570.30	59877.93
570.46	60041.76
570.62	59891.97
570.78	59646.21
570.95	59578.34
571.11	60093.25
571.27	59812.39
571.43	59915.37
571.60	59639.19
571.76	59604.08
571.92	59962.18
572.09	60011.34
572.25	60011.34
572.41	60083.89
572.57	60046.44
572.74	60154.11
572.90	59835.80
573.06	60055.81
573.22	60027.72
573.38	60128.36
573.55	60065.17
573.71	60439.65
573.87	60095.60
574.03	59901.33
574.20	60067.51
574.36	60280.50
574.52	59877.93
574.68	59976.23
574.84	60158.79
575.01	60109.64
575.17	60158.79
575.33	60212.62
575.49	59969.21
575.65	60252.41
575.82	60343.69
575.98	59810.05
576.14	60303.90
576.30	60229.01
576.46	60039.42
576.62	59941.12
576.79	60090.91
576.95	59889.63
577.11	60128.36
577.27	60402.21
577.43	60278.16
577.59	60107.30
577.75	60343.69
577.92	60060.49
578.08	60144.75
578.24	59929.42
578.40	60240.71
578.56	60100.28
578.72	60409.23
578.88	60406.89
579.04	60418.59
579.21	60294.54
579.37	60434.97
579.53	60598.81
579.69	60144.75
579.85	60123.68
580.01	60315.61
580.17	60336.67
580.33	60224.32
580.49	60247.73
580.65	60463.06
580.82	60331.99
580.98	60537.96
581.14	60343.69
581.30	60601.15
581.46	60336.67
581.62	60184.54
581.78	60219.64
581.94	60196.24
582.10	60193.90
582.26	60313.26
582.42	60465.40
582.58	60348.37
582.74	60374.12
582.90	60446.68
583.06	60505.19
583.22	60324.97
583.38	60154.11
583.54	60285.18
583.70	60299.22
583.86	60479.44
584.02	60392.84
584.18	60544.98
584.34	60470.08
584.50	60566.04
584.66	60367.10
584.82	60289.86
584.98	60526.25
585.14	60617.53
585.30	60334.33
585.46	60563.70
585.62	60306.24
585.78	60544.98
585.94	60224.32
586.10	60570.72
586.26	60552.00
586.42	60385.82
586.58	60519.23
586.74	60416.25
586.90	60437.31
587.06	60306.24
587.22	60640.94
587.38	60554.34
587.54	60638.60
587.70	60743.92
587.86	60825.84
588.02	60692.43
