SpectraSuite Data File
++++++++++++++++++++++++++++++++++++
Date: Thu Oct 24 13:21:43 EDT 2013
User: stostad
Dark Spectrum Present: No
Reference Spectrum Present: No
Number of Sampled Component Spectra: 1
Spectrometers: USB2+H05261
Integration Time (usec): 100000 (USB2+H05261)
Spectra Averaged: 1 (USB2+H05261)
Boxcar Smoothing: 0 (USB2+H05261)
Correct for Electrical Dark: No (USB2+H05261)
Strobe/Lamp Enabled: No (USB2+H05261)
Correct for Detector Non-linearity: No (USB2+H05261)
Correct for Stray Light: No (USB2+H05261)
Number of Pixels in Processed Spectrum: 2048
>>>>>Begin Processed Spectral Data<<<<<
365.73	559.39
365.92	559.39
366.12	559.39
366.32	592.16
366.52	465.77
366.72	484.49
366.91	489.17
367.11	470.45
367.31	449.38
367.51	472.79
367.70	414.27
367.90	510.24
368.10	510.24
368.30	493.85
368.49	521.94
368.69	552.37
368.89	538.32
369.09	521.94
369.28	514.92
369.48	526.62
369.68	493.85
369.87	573.43
370.07	503.22
370.27	500.87
370.47	809.83
370.66	1369.21
370.86	1315.38
371.06	1462.83
371.25	1516.67
371.45	1437.09
371.65	1507.30
371.84	1385.60
372.04	1483.90
372.24	1551.78
372.44	1526.03
372.63	1502.62
372.83	1575.18
373.03	1535.39
373.22	1603.27
373.42	1554.12
373.62	1591.56
373.81	1694.55
374.01	1668.80
374.21	1568.16
374.40	1671.14
374.60	1717.95
374.79	1652.42
374.99	1715.61
375.19	1671.14
375.38	1776.47
375.58	1720.29
375.78	1699.23
375.97	1682.85
376.17	1806.89
376.37	1795.19
376.56	1802.21
376.76	1802.21
376.95	1795.19
377.15	1818.60
377.35	1790.51
377.54	1877.11
377.74	1844.34
377.93	1921.58
378.13	1923.92
378.33	1858.39
378.52	1888.81
378.72	1909.88
378.91	1947.33
379.11	1870.09
379.31	2071.37
379.50	1921.58
379.70	1895.83
379.89	2010.52
380.09	1865.41
380.28	1982.43
380.48	1942.64
380.68	1991.80
380.87	2024.56
381.07	1982.43
381.26	2019.88
381.46	2036.27
381.65	2113.50
381.85	2076.06
382.04	1977.75
382.24	2235.21
382.43	2193.08
382.63	2125.21
382.83	2080.74
383.02	2267.98
383.22	2071.37
383.41	2190.74
383.61	2207.13
383.80	2244.57
384.00	2258.62
384.19	2216.49
384.39	2228.19
384.58	2349.90
384.78	2265.64
384.97	2214.15
385.17	2298.41
385.36	2251.60
385.56	2347.56
385.75	2246.91
385.95	2377.98
386.14	2377.98
386.34	2427.14
386.53	2380.32
386.72	2354.58
386.92	2448.20
387.11	2504.37
387.31	2495.01
387.50	2525.44
387.70	2438.84
387.89	2403.73
388.09	2523.10
388.28	2558.21
388.48	2544.16
388.67	2616.72
388.86	2450.54
389.06	2590.97
389.25	2665.87
389.45	2579.27
389.64	2539.48
389.84	2665.87
390.03	2719.70
390.22	2794.60
390.42	2719.70
390.61	2766.51
390.81	2813.32
391.00	2808.64
391.19	2813.32
391.39	2841.41
391.58	2818.00
391.78	2874.18
391.97	2928.01
392.16	2897.58
392.36	2984.18
392.55	2967.80
392.75	3133.98
392.94	2995.89
393.13	2942.05
393.33	2916.31
393.52	2967.80
393.71	2972.48
393.91	3014.61
394.10	3190.15
394.29	3068.44
394.49	2972.48
394.68	3080.14
394.88	3171.43
395.07	3258.03
395.26	3194.83
395.46	3243.98
395.65	3293.13
395.84	3335.26
396.04	3330.58
396.23	3314.20
396.42	3318.88
396.62	3471.01
396.81	3358.67
397.00	3433.57
397.19	3325.90
397.39	3503.78
397.58	3358.67
397.77	3524.85
397.97	3639.53
398.16	3527.19
398.35	3618.47
398.55	3616.13
398.74	3674.64
398.93	3744.86
399.12	3705.07
399.32	3576.34
399.51	3742.52
399.70	3801.03
399.90	3672.30
400.09	3798.69
400.28	3887.63
400.47	3871.25
400.67	3887.63
400.86	3922.74
401.05	3868.91
401.24	4002.32
401.44	4074.87
401.63	4039.76
401.82	4032.74
402.01	3918.06
402.21	4182.54
402.40	4114.66
402.59	4042.11
402.78	4196.58
402.97	4205.94
403.17	4042.11
403.36	4205.94
403.55	4344.03
403.74	4273.82
403.93	4533.62
404.13	4379.14
404.32	4351.06
404.51	4421.27
404.70	4432.97
404.89	4437.66
405.09	4554.68
405.28	4603.83
405.47	4559.36
405.66	4573.41
405.85	4690.43
406.05	4617.88
406.24	4566.39
406.43	4718.52
406.62	4798.10
406.81	4856.61
407.00	4762.99
407.20	4685.75
407.39	4875.34
407.58	4952.57
407.77	5081.30
407.96	5041.51
408.15	4908.10
408.34	4922.15
408.54	5153.86
408.73	5036.83
408.92	5118.75
409.11	5235.78
409.30	5184.29
409.49	5207.69
409.68	5270.89
409.87	5327.06
410.07	5455.79
410.26	5355.15
410.45	5427.70
410.64	5423.02
410.83	5453.45
411.02	5640.69
411.21	5547.07
411.40	5523.66
411.59	5603.24
411.78	5654.73
411.98	5575.16
412.17	5844.32
412.36	5991.77
412.55	6008.16
412.74	5930.92
412.93	5888.79
413.12	6019.86
413.31	6277.32
413.50	6029.22
413.69	6249.23
413.88	6415.41
414.07	6466.90
414.26	6452.86
414.45	6459.88
414.64	6417.75
414.83	6555.84
415.02	6675.21
415.22	6773.51
415.41	6698.61
415.60	6757.13
415.79	6768.83
415.98	6801.60
416.17	6885.86
416.36	6895.22
416.55	6878.83
416.74	7126.93
416.93	6897.56
417.12	7222.89
417.31	7007.56
417.50	7499.08
417.69	7517.80
417.88	7419.50
418.07	7353.96
418.26	7360.98
418.45	7576.31
418.64	7798.66
418.83	7777.60
419.02	7609.08
419.21	7611.42
419.39	7770.58
419.58	7829.09
419.77	7721.43
419.96	7789.30
420.15	7941.44
420.34	7997.61
420.53	7815.05
420.72	8194.22
420.91	8114.64
421.10	8201.24
421.29	8159.11
421.48	7974.21
421.67	8070.17
421.86	8201.24
422.05	8156.77
422.24	8367.42
422.43	8376.78
422.61	8360.39
422.80	8650.62
422.99	8463.38
423.18	8561.68
423.37	8479.76
423.56	8519.55
423.75	8442.31
423.94	8444.65
424.13	7915.69
424.32	8285.50
424.50	8638.92
424.69	8858.93
424.88	8674.03
425.07	8498.49
425.26	8587.43
425.45	8402.52
425.64	8510.19
425.83	8456.36
426.01	8617.85
426.20	8727.86
426.39	8730.20
426.58	8648.28
426.77	8758.28
426.96	8863.61
427.15	8774.67
427.33	8896.38
427.52	8854.25
427.71	9139.79
427.90	8896.38
428.09	9275.54
428.28	9092.98
428.46	9088.30
428.65	9149.15
428.84	9540.02
429.03	9586.83
429.22	9329.38
429.40	9425.34
429.59	9373.85
429.78	9137.45
429.97	8961.91
430.16	9296.61
430.34	9638.33
430.53	9736.63
430.72	9753.01
430.91	9699.18
431.10	9614.92
431.28	9856.00
431.47	9982.38
431.66	10120.48
431.85	9951.96
432.03	10068.98
432.22	10078.35
432.41	10270.27
432.60	9966.00
432.79	10031.54
432.97	10335.81
433.16	10691.57
433.35	10221.12
433.54	10321.76
433.72	10693.91
433.91	10473.90
434.10	10696.25
434.28	10597.95
434.47	10677.52
434.66	10803.91
434.85	10693.91
435.03	11068.39
435.22	10920.94
435.41	11473.31
435.59	11159.67
435.78	10995.84
435.97	11337.56
436.16	11007.54
436.34	11103.50
436.53	11276.70
436.72	11435.86
436.90	10890.51
437.09	11267.34
437.28	11250.96
437.46	11178.40
437.65	11557.57
437.84	11492.03
438.02	11503.73
438.21	11580.97
438.40	11510.75
438.58	11908.65
438.77	11920.35
438.96	11903.96
439.14	12074.82
439.33	12411.86
439.52	12243.34
439.70	12346.33
439.89	12545.27
440.08	12762.94
440.26	12655.28
440.45	12769.96
440.63	12865.92
440.82	13118.70
441.01	13001.68
441.19	13130.41
441.38	13448.72
441.57	13495.53
441.75	13301.26
441.94	13825.54
442.12	13701.50
442.31	14019.81
442.50	13830.23
442.68	13811.50
442.87	13909.80
443.05	14104.07
443.24	14284.29
443.43	13928.53
443.61	14157.90
443.80	14562.81
443.98	14022.15
444.17	13584.47
444.35	14118.11
444.54	14487.92
444.73	14401.32
444.91	14434.08
445.10	14579.20
445.28	14431.74
445.47	14368.55
445.65	14225.78
445.84	14506.64
446.02	14778.14
446.21	14623.67
446.39	14438.76
446.58	14501.96
446.77	14602.60
446.95	14185.99
447.14	14525.36
447.32	14686.86
447.51	14853.04
447.69	14560.47
447.88	14710.27
448.06	14565.15
448.25	14829.63
448.43	14953.68
448.62	14867.08
448.80	14813.25
448.99	15066.03
449.17	15150.29
449.36	15068.37
449.54	15257.95
449.73	15543.50
449.91	15681.59
450.10	15405.41
450.28	15634.78
450.46	15613.71
450.65	15543.50
450.83	15592.65
451.02	15744.78
451.20	16063.10
451.39	15742.44
451.57	15873.51
451.76	15552.86
451.94	15775.21
452.13	16203.53
452.31	16142.67
452.49	16248.00
452.68	16203.53
452.86	16222.25
453.05	16236.30
453.23	16407.16
453.42	16444.60
453.60	16477.37
453.78	16629.51
453.97	16430.56
454.15	16650.57
454.34	16524.18
454.52	16798.02
454.70	17071.87
454.89	16959.52
455.07	17146.76
455.26	17092.93
455.44	17247.41
455.62	17324.65
455.81	17209.96
455.99	17408.90
456.17	17291.88
456.36	17415.93
456.54	17909.78
456.73	17846.58
456.91	18075.96
457.09	18094.68
457.28	18497.25
457.46	18143.83
457.64	18429.38
457.83	18197.67
458.01	18281.92
458.19	18768.76
458.38	18328.74
458.56	18604.92
458.74	18670.45
458.93	18705.56
459.11	18644.71
459.29	18560.45
459.48	18827.27
459.66	18808.54
459.84	19201.76
460.03	19424.11
460.21	19206.44
460.39	19356.23
460.57	19161.97
460.76	19428.79
460.94	19819.66
461.12	19543.47
461.31	19538.79
461.49	19625.39
461.67	19833.70
461.85	20137.97
462.04	20088.82
462.22	20255.00
462.40	20306.49
462.59	20046.69
462.77	20362.66
462.95	20592.03
463.13	20355.64
463.32	20505.43
463.50	20709.06
463.68	20945.45
463.86	20877.58
464.05	20519.48
464.23	20521.82
464.41	20900.98
464.59	20477.35
464.78	21071.84
464.96	21397.18
465.14	20697.36
465.32	20954.82
465.50	21348.03
465.69	21425.26
465.87	21280.15
466.05	21509.52
466.23	21460.37
466.41	21458.03
466.60	22246.79
466.78	21359.73
466.96	21568.04
467.14	21638.25
467.32	21823.16
467.51	21916.78
467.69	21308.24
467.87	21720.17
468.05	22132.11
468.23	21820.81
468.41	21795.07
468.60	22188.28
468.78	22663.41
468.96	22572.13
469.14	22682.13
469.32	22955.97
469.50	22214.02
469.69	23035.55
469.87	23276.63
470.05	23173.64
470.23	23274.29
470.41	23199.39
470.59	23648.77
470.77	23433.44
470.95	23424.08
471.14	24004.53
471.32	23318.76
471.50	23992.83
471.68	23885.17
471.86	24182.42
472.04	24437.53
472.22	24568.60
472.40	24444.56
472.58	24755.85
472.77	24905.64
472.95	24891.60
473.13	25912.07
473.31	24765.21
473.49	25083.52
473.67	24865.85
473.85	25649.93
474.03	25652.27
474.21	25806.75
474.39	25968.24
474.57	26218.68
474.75	26459.76
474.93	26735.94
475.12	26382.52
475.30	26911.48
475.48	26808.50
475.66	26829.56
475.84	26675.09
476.02	27653.43
476.20	27117.45
476.38	27894.50
476.56	28180.05
476.74	28201.11
476.92	28371.97
477.10	27990.47
477.28	28830.72
477.46	28811.99
477.64	28952.43
477.82	29291.80
478.00	30417.60
478.18	29968.22
478.36	30342.70
478.54	30944.22
478.72	30515.90
478.90	30824.86
479.08	31049.55
479.26	31786.82
479.44	31381.90
479.62	31810.22
479.80	32046.62
479.98	32109.81
480.16	33071.77
480.34	32456.21
480.52	33088.15
480.70	33275.40
480.88	33230.93
481.06	33404.13
481.24	33984.58
481.41	34169.48
481.59	34567.37
481.77	34810.79
481.95	35091.65
482.13	35349.11
482.31	35255.49
482.49	35896.80
482.67	35866.37
482.85	36278.30
483.03	37015.57
483.21	37029.62
483.39	37551.56
483.57	37331.54
483.74	37675.60
483.92	37759.86
484.10	37986.89
484.28	38869.28
484.46	39065.88
484.64	39976.35
484.82	39428.66
485.00	39999.76
485.18	40126.14
485.35	40748.73
485.53	40797.88
485.71	41408.76
485.89	42246.67
486.07	41448.55
486.25	42043.04
486.43	41986.87
486.61	42611.79
486.78	43110.33
486.96	43320.98
487.14	43810.15
487.32	43545.67
487.50	44060.58
487.68	44222.08
487.85	45179.36
488.03	45134.89
488.21	45752.79
488.39	45837.05
488.57	46433.89
488.75	46291.12
488.92	46754.54
489.10	47009.66
489.28	47168.82
489.46	47770.33
489.64	47325.63
489.81	48657.40
489.99	48755.70
490.17	48652.72
490.35	49572.55
490.53	49347.86
490.70	49811.28
490.88	49598.29
491.06	50113.21
491.24	50157.68
491.41	50244.28
491.59	50829.41
491.77	51114.96
491.95	51026.02
492.13	51379.44
492.30	51732.86
492.48	51606.47
492.66	52170.54
492.84	52245.44
493.01	52587.16
493.19	53027.18
493.37	52851.64
493.54	52996.75
493.72	53167.61
493.90	53408.68
494.08	54010.20
494.25	54246.60
494.43	54302.77
494.61	54286.39
494.79	54319.15
494.96	54452.56
495.14	54768.54
495.32	55096.21
495.49	55079.83
495.67	55131.32
495.85	55671.98
496.02	55566.66
496.20	55622.83
496.38	55753.90
496.55	56198.60
496.73	56367.12
496.91	56509.89
497.09	56346.06
497.26	56659.69
497.44	56708.84
497.62	56722.88
497.79	57190.99
497.97	57315.04
498.14	57439.09
498.32	57719.95
498.50	57499.94
498.67	57701.23
498.85	57694.21
499.03	58115.50
499.20	58101.46
499.38	58321.47
499.56	58440.84
499.73	58494.67
499.91	58756.81
500.08	58628.08
500.26	58424.45
500.44	58625.74
500.61	59145.34
500.79	58894.90
500.97	59093.85
501.14	59552.59
501.32	59571.32
501.49	59391.09
501.67	59674.30
501.84	59805.37
502.02	59849.84
502.20	60067.51
502.37	60044.10
502.55	60001.97
502.72	59922.40
502.90	60011.34
503.07	60250.07
503.25	60296.88
503.43	60374.12
503.60	60610.51
503.78	60652.64
503.95	60664.35
504.13	60818.82
504.30	60928.83
504.48	60985.00
504.65	61148.84
504.83	61209.69
505.01	61326.72
505.18	61233.10
505.36	61275.22
505.53	61492.89
505.71	61553.75
505.88	61563.11
506.06	61471.83
506.23	61825.25
506.41	61745.67
506.58	61832.27
506.76	61902.49
506.93	62017.17
507.11	62059.30
507.28	62251.23
507.46	62354.21
507.63	62379.96
507.81	62447.83
507.98	62319.10
508.16	62417.41
508.33	62459.54
508.50	62798.91
508.68	63042.33
508.85	62880.83
509.03	62862.11
509.20	62944.03
509.38	63358.30
509.55	63089.14
509.73	63271.70
509.90	63676.61
510.08	63662.57
510.25	63395.75
510.42	63379.37
510.60	63582.99
510.77	63669.59
510.95	63870.88
511.12	63704.70
511.30	63999.61
511.47	64121.32
511.64	64039.40
511.82	64062.80
511.99	63927.05
512.17	64264.09
512.34	64470.06
512.51	64544.95
512.69	64619.85
512.86	64631.55
513.04	64542.61
513.21	64601.13
513.38	64935.82
513.56	64736.88
513.73	64835.18
513.90	65015.40
514.08	64982.63
514.25	65233.07
514.43	65148.81
514.60	65169.88
514.77	65062.21
514.95	65347.76
515.12	65289.24
515.29	65364.14
515.47	65535.00
515.64	65535.00
515.81	65535.00
515.99	65535.00
516.16	65535.00
516.33	65535.00
516.51	65535.00
516.68	65535.00
516.85	65535.00
517.03	65535.00
517.20	65535.00
517.37	65535.00
517.54	65535.00
517.72	65535.00
517.89	65535.00
518.06	65535.00
518.24	65535.00
518.41	65535.00
518.58	65535.00
518.75	65535.00
518.93	65535.00
519.10	65535.00
519.27	65535.00
519.45	65535.00
519.62	65535.00
519.79	65535.00
519.96	65535.00
520.14	65535.00
520.31	65535.00
520.48	65535.00
520.65	65535.00
520.83	65535.00
521.00	65535.00
521.17	65535.00
521.34	65535.00
521.52	65535.00
521.69	65535.00
521.86	65535.00
522.03	65535.00
522.20	65535.00
522.38	65535.00
522.55	65535.00
522.72	65535.00
522.89	65535.00
523.07	65535.00
523.24	65535.00
523.41	65535.00
523.58	65535.00
523.75	65535.00
523.92	65535.00
524.10	65535.00
524.27	65535.00
524.44	65535.00
524.61	65535.00
524.78	65535.00
524.96	65535.00
525.13	65535.00
525.30	65535.00
525.47	65535.00
525.64	65535.00
525.81	65535.00
525.98	65535.00
526.16	65535.00
526.33	65535.00
526.50	65535.00
526.67	65535.00
526.84	65535.00
527.01	65535.00
527.18	65535.00
527.36	65535.00
527.53	65535.00
527.70	65535.00
527.87	65535.00
528.04	65535.00
528.21	65535.00
528.38	65535.00
528.55	65535.00
528.72	65535.00
528.89	65535.00
529.07	65535.00
529.24	65535.00
529.41	65535.00
529.58	65535.00
529.75	65535.00
529.92	65535.00
530.09	65535.00
530.26	65535.00
530.43	65535.00
530.60	65535.00
530.77	65535.00
530.94	65535.00
531.11	65535.00
531.28	65535.00
531.46	65535.00
531.63	65535.00
531.80	65535.00
531.97	65535.00
532.14	65535.00
532.31	65535.00
532.48	65535.00
532.65	65535.00
532.82	65535.00
532.99	65535.00
533.16	65535.00
533.33	65535.00
533.50	65535.00
533.67	65535.00
533.84	65535.00
534.01	65535.00
534.18	65535.00
534.35	65535.00
534.52	65535.00
534.69	65535.00
534.86	65535.00
535.03	65535.00
535.20	65535.00
535.37	65535.00
535.54	65535.00
535.71	65535.00
535.88	65535.00
536.05	65535.00
536.22	65535.00
536.38	65535.00
536.55	65535.00
536.72	65535.00
536.89	65535.00
537.06	65535.00
537.23	65535.00
537.40	65535.00
537.57	65535.00
537.74	65535.00
537.91	65535.00
538.08	65535.00
538.25	65535.00
538.42	65535.00
538.59	65535.00
538.75	65535.00
538.92	65535.00
539.09	65535.00
539.26	65535.00
539.43	65535.00
539.60	65535.00
539.77	65535.00
539.94	65535.00
540.11	65535.00
540.28	65535.00
540.44	65535.00
540.61	65535.00
540.78	65535.00
540.95	65535.00
541.12	65535.00
541.29	65535.00
541.46	65535.00
541.62	65535.00
541.79	65535.00
541.96	65535.00
542.13	65535.00
542.30	65535.00
542.47	65535.00
542.63	65535.00
542.80	65535.00
542.97	65535.00
543.14	65535.00
543.31	65535.00
543.48	65535.00
543.64	65535.00
543.81	65535.00
543.98	65535.00
544.15	65535.00
544.32	65535.00
544.48	65535.00
544.65	65535.00
544.82	65535.00
544.99	65535.00
545.16	65535.00
545.32	65535.00
545.49	65535.00
545.66	65535.00
545.83	65535.00
546.00	65535.00
546.16	65535.00
546.33	65535.00
546.50	65535.00
546.67	65535.00
546.83	65535.00
547.00	65535.00
547.17	65535.00
547.34	65535.00
547.50	65535.00
547.67	65535.00
547.84	65535.00
548.00	65535.00
548.17	65535.00
548.34	65535.00
548.51	65535.00
548.67	65535.00
548.84	65535.00
549.01	65535.00
549.18	65535.00
549.34	65535.00
549.51	65535.00
549.68	65535.00
549.84	65535.00
550.01	65535.00
550.18	65535.00
550.34	65535.00
550.51	65535.00
550.68	65535.00
550.84	65535.00
551.01	65535.00
551.18	65535.00
551.34	65535.00
551.51	65535.00
551.68	65535.00
551.84	65535.00
552.01	65535.00
552.18	65535.00
552.34	65535.00
552.51	65535.00
552.68	65535.00
552.84	65535.00
553.01	65535.00
553.18	65535.00
553.34	65535.00
553.51	65535.00
553.67	65535.00
553.84	65535.00
554.01	65535.00
554.17	65535.00
554.34	65535.00
554.51	65535.00
554.67	65535.00
554.84	65535.00
555.00	65535.00
555.17	65535.00
555.33	65535.00
555.50	65535.00
555.67	65535.00
555.83	65535.00
556.00	65535.00
556.16	65535.00
556.33	65535.00
556.50	65535.00
556.66	65535.00
556.83	65535.00
556.99	65535.00
557.16	65535.00
557.32	65535.00
557.49	65535.00
557.65	65535.00
557.82	65535.00
557.98	65535.00
558.15	65535.00
558.32	65535.00
558.48	65535.00
558.65	65535.00
558.81	65535.00
558.98	65535.00
559.14	65535.00
559.31	65535.00
559.47	65535.00
559.64	65535.00
559.80	65535.00
559.97	65535.00
560.13	65535.00
560.30	65535.00
560.46	65535.00
560.63	65535.00
560.79	65535.00
560.96	65535.00
561.12	65535.00
561.29	65535.00
561.45	65535.00
561.61	65535.00
561.78	65535.00
561.94	65535.00
562.11	65535.00
562.27	65535.00
562.44	65535.00
562.60	65535.00
562.77	65535.00
562.93	65535.00
563.10	65535.00
563.26	65535.00
563.42	65535.00
563.59	65535.00
563.75	65535.00
563.92	65535.00
564.08	65535.00
564.24	65535.00
564.41	65535.00
564.57	65535.00
564.74	65535.00
564.90	65535.00
565.07	65535.00
565.23	65535.00
565.39	65535.00
565.56	65535.00
565.72	65535.00
565.88	65535.00
566.05	65535.00
566.21	65535.00
566.38	65535.00
566.54	65535.00
566.70	65535.00
566.87	65535.00
567.03	65535.00
567.19	65535.00
567.36	65535.00
567.52	65535.00
567.68	65535.00
567.85	65535.00
568.01	65535.00
568.17	65535.00
568.34	65535.00
568.50	65535.00
568.66	65535.00
568.83	65535.00
568.99	65535.00
569.15	65535.00
569.32	65535.00
569.48	65535.00
569.64	65535.00
569.81	65535.00
569.97	65535.00
570.13	65535.00
570.30	65535.00
570.46	65535.00
570.62	65535.00
570.78	65535.00
570.95	65535.00
571.11	65535.00
571.27	65535.00
571.43	65535.00
571.60	65535.00
571.76	65535.00
571.92	65535.00
572.09	65535.00
572.25	65535.00
572.41	65535.00
572.57	65535.00
572.74	65535.00
572.90	65535.00
573.06	65535.00
573.22	65535.00
573.38	65535.00
573.55	65535.00
573.71	65535.00
573.87	65535.00
574.03	65535.00
574.20	65535.00
574.36	65535.00
574.52	65535.00
574.68	65535.00
574.84	65535.00
575.01	65535.00
575.17	65535.00
575.33	65535.00
575.49	65535.00
575.65	65535.00
575.82	65535.00
575.98	65535.00
576.14	65535.00
576.30	65535.00
576.46	65535.00
576.62	65535.00
576.79	65535.00
576.95	65535.00
577.11	65535.00
577.27	65535.00
577.43	65535.00
577.59	65535.00
577.75	65535.00
577.92	65535.00
578.08	65535.00
578.24	65535.00
578.40	65535.00
578.56	65535.00
578.72	65535.00
578.88	65535.00
579.04	65535.00
579.21	65535.00
579.37	65535.00
579.53	65535.00
579.69	65535.00
579.85	65535.00
580.01	65535.00
580.17	65535.00
580.33	65535.00
580.49	65535.00
580.65	65535.00
580.82	65535.00
580.98	65535.00
581.14	65535.00
581.30	65535.00
581.46	65535.00
581.62	65535.00
581.78	65535.00
581.94	65535.00
582.10	65535.00
582.26	65535.00
582.42	65535.00
582.58	65535.00
582.74	65535.00
582.90	65535.00
583.06	65535.00
583.22	65535.00
583.38	65535.00
583.54	65535.00
583.70	65535.00
583.86	65535.00
584.02	65535.00
584.18	65535.00
584.34	65535.00
584.50	65535.00
584.66	65535.00
584.82	65535.00
584.98	65535.00
585.14	65535.00
585.30	65535.00
585.46	65535.00
585.62	65535.00
585.78	65535.00
585.94	65535.00
586.10	65535.00
586.26	65535.00
586.42	65535.00
586.58	65535.00
