SpectraSuite Data File
++++++++++++++++++++++++++++++++++++
Date: Thu Oct 24 13:21:13 EDT 2013
User: stostad
Dark Spectrum Present: No
Reference Spectrum Present: No
Number of Sampled Component Spectra: 1
Spectrometers: USB2+H05261
Integration Time (usec): 100000 (USB2+H05261)
Spectra Averaged: 1 (USB2+H05261)
Boxcar Smoothing: 0 (USB2+H05261)
Correct for Electrical Dark: No (USB2+H05261)
Strobe/Lamp Enabled: No (USB2+H05261)
Correct for Detector Non-linearity: No (USB2+H05261)
Correct for Stray Light: No (USB2+H05261)
Number of Pixels in Processed Spectrum: 2048
>>>>>Begin Processed Spectral Data<<<<<
365.73	557.05
365.92	557.05
366.12	557.05
366.32	486.83
366.52	369.80
366.72	449.38
366.91	418.96
367.11	470.45
367.31	454.06
367.51	440.02
367.70	411.93
367.90	528.96
368.10	451.72
368.30	479.81
368.49	461.09
368.69	491.51
368.89	528.96
369.09	482.15
369.28	512.58
369.48	484.49
369.68	475.13
369.87	514.92
370.07	521.94
370.27	531.30
370.47	507.90
370.66	629.60
370.86	702.16
371.06	760.67
371.25	695.14
371.45	671.73
371.65	751.31
371.84	753.65
372.04	711.52
372.24	767.70
372.44	692.80
372.63	737.27
372.83	770.04
373.03	737.27
373.22	711.52
373.42	741.95
373.62	723.23
373.81	699.82
374.01	772.38
374.21	896.43
374.40	774.72
374.60	781.74
374.79	821.53
374.99	748.97
375.19	809.83
375.38	826.21
375.58	828.55
375.78	833.23
375.97	795.78
376.17	812.17
376.37	690.46
376.56	842.59
376.76	896.43
376.95	767.70
377.15	847.27
377.35	812.17
377.54	812.17
377.74	734.93
377.93	781.74
378.13	847.27
378.33	844.93
378.52	842.59
378.72	835.57
378.91	910.47
379.11	784.08
379.31	786.42
379.50	737.27
379.70	884.72
379.89	826.21
380.09	751.31
380.28	833.23
380.48	816.85
380.68	840.25
380.87	800.46
381.07	823.87
381.26	873.02
381.46	861.32
381.65	835.57
381.85	898.77
382.04	812.17
382.24	798.12
382.43	833.23
382.63	819.19
382.83	823.87
383.02	819.19
383.22	861.32
383.41	849.61
383.61	772.38
383.80	884.72
384.00	870.68
384.19	807.48
384.39	842.59
384.58	828.55
384.78	807.48
384.97	884.72
385.17	898.77
385.36	805.14
385.56	877.70
385.75	894.08
385.95	847.27
386.14	931.53
386.34	912.81
386.53	915.15
386.72	880.04
386.92	959.62
387.11	858.98
387.31	868.34
387.50	924.51
387.70	870.68
387.89	875.36
388.09	854.30
388.28	837.91
388.48	884.72
388.67	992.39
388.86	980.68
389.06	870.68
389.25	908.13
389.45	987.71
389.64	905.79
389.84	985.37
390.03	973.66
390.22	961.96
390.42	997.07
390.61	966.64
390.81	952.60
391.00	1008.77
391.19	978.34
391.39	966.64
391.58	964.30
391.78	898.77
391.97	966.64
392.16	1006.43
392.36	1022.81
392.55	887.06
392.75	973.66
392.94	980.68
393.13	1013.45
393.33	929.19
393.52	917.49
393.71	1018.13
393.91	985.37
394.10	997.07
394.29	1022.81
394.49	1032.18
394.68	1074.31
394.88	971.32
395.07	1032.18
395.26	1088.35
395.46	1022.81
395.65	1067.28
395.84	1011.11
396.04	1109.41
396.23	985.37
396.42	983.02
396.62	1039.20
396.81	1107.07
397.00	997.07
397.19	1041.54
397.39	1057.92
397.58	1121.12
397.77	1107.07
397.97	1132.82
398.16	1144.52
398.35	1130.48
398.55	1078.99
398.74	1160.91
398.93	1188.99
399.12	1043.88
399.32	1118.78
399.51	1081.33
399.70	1057.92
399.90	1128.14
400.09	1214.74
400.28	1172.61
400.47	1064.94
400.67	1240.48
400.86	1184.31
401.05	1207.72
401.24	1198.35
401.44	1151.54
401.63	1153.88
401.82	1118.78
402.01	1177.29
402.21	1294.32
402.40	1226.44
402.59	1188.99
402.78	1249.85
402.97	1207.72
403.17	1282.61
403.36	1287.29
403.55	1165.59
403.74	1299.00
403.93	1242.82
404.13	1373.89
404.32	1291.98
404.51	1188.99
404.70	1397.30
404.89	1294.32
405.09	1315.38
405.28	1343.47
405.47	1348.15
405.66	1317.72
405.85	1266.23
406.05	1364.53
406.24	1378.58
406.43	1310.70
406.62	1369.21
406.81	1362.19
407.00	1329.42
407.20	1376.24
407.39	1348.15
407.58	1359.85
407.77	1320.06
407.96	1497.94
408.15	1465.18
408.34	1385.60
408.54	1390.28
408.73	1334.11
408.92	1458.15
409.11	1385.60
409.30	1460.49
409.49	1575.18
409.68	1535.39
409.87	1425.39
410.07	1465.18
410.26	1401.98
410.45	1448.79
410.64	1577.52
410.83	1561.14
411.02	1474.54
411.21	1547.09
411.40	1607.95
411.59	1575.18
411.78	1563.48
411.98	1481.56
412.17	1706.25
412.36	1614.97
412.55	1652.42
412.74	1666.46
412.93	1666.46
413.12	1612.63
413.31	1710.93
413.50	1605.61
413.69	1645.40
413.88	1685.19
414.07	1732.00
414.26	1760.08
414.45	1760.08
414.64	1650.08
414.83	1703.91
415.02	1760.08
415.22	1816.26
415.41	1823.28
415.60	1764.76
415.79	1767.10
415.98	1898.17
416.17	1867.75
416.36	1823.28
416.55	1813.92
416.74	1919.24
416.93	1867.75
417.12	1912.22
417.31	1900.52
417.50	1994.14
417.69	2026.90
417.88	1930.94
418.07	1973.07
418.26	1886.47
418.45	2047.97
418.64	1989.46
418.83	1989.46
419.02	1977.75
419.21	1961.37
419.39	1961.37
419.58	1975.41
419.77	1994.14
419.96	1968.39
420.15	2090.10
420.34	1956.69
420.53	1970.73
420.72	2111.16
420.91	2026.90
421.10	2043.29
421.29	1982.43
421.48	1975.41
421.67	2026.90
421.86	2197.76
422.05	2108.82
422.24	2169.68
422.43	2108.82
422.61	2132.23
422.80	2071.37
422.99	2181.38
423.18	2150.95
423.37	2129.89
423.56	2162.66
423.75	2141.59
423.94	2150.95
424.13	2033.93
424.32	2139.25
424.50	2167.34
424.69	2160.31
424.88	2127.55
425.07	2204.78
425.26	2181.38
425.45	2090.10
425.64	2169.68
425.83	2160.31
426.01	2108.82
426.20	2244.57
426.39	2202.44
426.58	2160.31
426.77	2228.19
426.96	2179.04
427.15	2200.10
427.33	2221.17
427.52	2211.81
427.71	2275.00
427.90	2289.04
428.09	2214.15
428.28	2279.68
428.46	2296.07
428.65	2249.25
428.84	2415.43
429.03	2438.84
429.22	2275.00
429.40	2331.17
429.59	2363.94
429.78	2338.20
429.97	2195.42
430.16	2277.34
430.34	2263.30
430.53	2455.22
430.72	2349.90
430.91	2445.86
431.10	2466.92
431.28	2413.09
431.47	2443.52
431.66	2427.14
431.85	2452.88
432.03	2417.77
432.22	2541.82
432.41	2464.58
432.60	2509.05
432.79	2469.27
432.97	2499.69
433.16	2431.82
433.35	2478.63
433.54	2448.20
433.72	2464.58
433.91	2539.48
434.10	2593.31
434.28	2499.69
434.47	2450.54
434.66	2581.61
434.85	2473.95
435.03	2787.58
435.22	2876.52
435.41	3014.61
435.59	3040.36
435.78	2836.73
435.97	2778.22
436.16	2703.32
436.34	2656.51
436.53	2586.29
436.72	2696.30
436.90	2649.49
437.09	2684.59
437.28	2658.85
437.46	2637.78
437.65	2663.53
437.84	2850.77
438.02	2759.49
438.21	2846.09
438.40	2647.15
438.58	2839.07
438.77	2787.58
438.96	2782.90
439.14	2822.69
439.33	2855.45
439.52	2848.43
439.70	2836.73
439.89	2986.52
440.08	2843.75
440.26	2846.09
440.45	2890.56
440.63	2953.76
440.82	2986.52
441.01	2972.48
441.19	2953.76
441.38	2918.65
441.57	3063.76
441.75	3061.42
441.94	3131.64
442.12	3096.53
442.31	3105.89
442.50	3124.62
442.68	3138.66
442.87	3021.63
443.05	3145.68
443.24	3148.02
443.43	3075.46
443.61	3145.68
443.80	3290.79
443.98	3066.10
444.17	3091.85
444.35	3162.06
444.54	3157.38
444.73	3115.25
444.91	3232.28
445.10	3101.21
445.28	3213.56
445.47	3218.24
445.65	3302.50
445.84	3332.92
446.02	3239.30
446.21	3141.00
446.39	3052.06
446.58	3229.94
446.77	3241.64
446.95	3225.26
447.14	3197.17
447.32	3321.22
447.51	3201.85
447.69	3166.74
447.88	3281.43
448.06	3208.87
448.25	3272.07
448.43	3269.73
448.62	3225.26
448.80	3159.72
448.99	3269.73
449.17	3356.33
449.36	3225.26
449.54	3389.10
449.73	3288.45
449.91	3356.33
450.10	3342.28
450.28	3382.07
450.46	3393.78
450.65	3358.67
450.83	3438.25
451.02	3386.76
451.20	3468.67
451.39	3396.12
451.57	3452.29
451.76	3353.99
451.94	3482.72
452.13	3517.83
452.31	3517.83
452.49	3468.67
452.68	3496.76
452.86	3403.14
453.05	3618.47
453.23	3480.38
453.42	3513.14
453.60	3466.33
453.78	3524.85
453.97	3447.61
454.15	3449.95
454.34	3534.21
454.52	3609.11
454.70	3571.66
454.89	3726.13
455.07	3630.17
455.26	3524.85
455.44	3735.50
455.62	3501.44
455.81	3679.32
455.99	3775.28
456.17	3791.67
456.36	3712.09
456.54	3672.30
456.73	3847.84
456.91	3981.25
457.09	3889.97
457.28	3695.71
457.46	3744.86
457.64	3875.93
457.83	3857.20
458.01	3730.81
458.19	3953.16
458.38	3882.95
458.56	3885.29
458.74	3915.72
458.93	3929.76
459.11	3854.86
459.29	3962.53
459.48	3826.78
459.66	3962.53
459.84	3880.61
460.03	4004.66
460.21	3999.98
460.39	3978.91
460.57	3946.14
460.76	4021.04
460.94	3906.35
461.12	4065.51
461.31	3882.95
461.49	4018.70
461.67	4021.04
461.85	4212.96
462.04	4135.73
462.22	4409.57
462.40	4091.26
462.59	4168.49
462.77	4166.15
462.95	4166.15
463.13	4166.15
463.32	4105.30
463.50	4241.05
463.68	4259.78
463.86	4219.99
464.05	4243.39
464.23	4147.43
464.41	4255.09
464.59	4166.15
464.78	4351.06
464.96	4358.08
465.14	4180.20
465.32	4231.69
465.50	4311.27
465.69	4365.10
465.87	4301.90
466.05	4397.87
466.23	4360.42
466.41	4348.72
466.60	4383.82
466.78	4435.32
466.96	4351.06
467.14	4229.35
467.32	4390.84
467.51	4585.11
467.69	4430.63
467.87	4461.06
468.05	4500.85
468.23	4458.72
468.41	4322.97
468.60	4472.76
468.78	4505.53
468.96	4432.97
469.14	4592.13
469.32	4533.62
469.50	4393.19
469.69	4601.49
469.87	4456.38
470.05	4580.43
470.23	4765.33
470.41	4706.82
470.59	4585.11
470.77	4641.28
470.95	4617.88
471.14	4692.77
471.32	4545.32
471.50	4692.77
471.68	4812.14
471.86	4758.31
472.04	4837.89
472.22	4760.65
472.40	4739.58
472.58	4748.95
472.77	4840.23
472.95	4814.48
473.13	4973.64
473.31	4833.21
473.49	4908.10
473.67	4917.47
473.85	4959.60
474.03	5015.77
474.21	5004.07
474.39	5078.96
474.57	5256.84
474.75	5139.82
474.93	5027.47
475.12	5032.15
475.30	5172.58
475.48	5139.82
475.66	5259.18
475.84	5266.21
476.02	5177.26
476.20	5256.84
476.38	5425.36
476.56	5378.55
476.74	5289.61
476.92	5401.96
477.10	5387.91
477.28	5500.26
477.46	5423.02
477.64	5462.81
477.82	5586.86
478.00	5788.14
478.18	5551.75
478.36	5638.35
478.54	5895.81
478.72	5650.05
478.90	5919.21
479.08	6050.28
479.26	5874.74
479.44	5841.98
479.62	5989.43
479.80	6005.81
479.98	6024.54
480.16	6272.64
480.34	6059.65
480.52	6310.08
480.70	6340.51
480.88	6200.08
481.06	6289.02
481.24	6214.12
481.41	6370.94
481.59	6401.37
481.77	6450.52
481.95	6682.23
482.13	6462.22
482.31	6567.54
482.49	6661.16
482.67	6761.81
482.85	6810.96
483.03	6892.88
483.21	6930.33
483.39	6691.59
483.57	6977.14
483.74	7054.37
483.92	7049.69
484.10	6951.39
484.28	7269.70
484.46	7276.73
484.64	7274.38
484.82	7309.49
485.00	7290.77
485.18	7428.86
485.35	7754.19
485.53	7695.68
485.71	7562.27
485.89	7585.68
486.07	7693.34
486.25	7758.88
486.43	7644.19
486.61	7812.71
486.78	7903.99
486.96	7964.84
487.14	8046.76
487.32	8091.23
487.50	8107.62
487.68	8044.42
487.85	8243.37
488.03	8514.87
488.21	8341.67
488.39	8255.07
488.57	8510.19
488.75	8348.69
488.92	8580.40
489.10	8479.76
489.28	8769.99
489.46	8711.47
489.64	8622.53
489.81	8828.50
489.99	8882.33
490.17	9004.04
490.35	9034.47
490.53	8968.93
490.70	9214.69
490.88	9102.34
491.06	9228.73
491.24	9135.11
491.41	9415.98
491.59	9434.70
491.77	9472.15
491.95	9404.27
492.13	9635.99
492.30	9628.96
492.48	9554.07
492.66	9614.92
492.84	9575.13
493.01	9776.42
493.19	9610.24
493.37	9769.40
493.54	9682.80
493.72	9921.53
493.90	9832.59
494.08	9942.60
494.25	10071.33
494.43	10047.92
494.61	10258.57
494.79	10436.45
494.96	10235.16
495.14	10225.80
495.32	10483.26
495.49	10420.06
495.67	10497.30
495.85	10359.21
496.02	10410.70
496.20	10752.42
496.38	10595.61
496.55	10839.02
496.73	10927.96
496.91	10834.34
497.09	10916.26
497.26	10951.37
497.44	10965.41
497.62	10892.85
497.79	10984.13
497.97	11283.72
498.14	11143.29
498.32	11353.94
498.50	11393.73
498.67	11257.98
498.85	11370.32
499.03	11351.60
499.20	11302.45
499.38	11403.09
499.56	11459.26
499.73	11592.67
499.91	11660.55
500.08	11669.91
500.26	11527.14
500.44	11604.38
500.61	11698.00
500.79	11826.73
500.97	11875.88
501.14	11730.76
501.32	11719.06
501.49	11906.31
501.67	12070.14
501.84	11997.59
502.02	11854.81
502.20	12049.08
502.37	12102.91
502.55	12442.29
502.72	12058.44
502.90	12133.34
503.07	12351.01
503.25	12266.75
503.43	12365.05
503.60	12325.26
503.78	12561.66
503.95	12388.46
504.13	12599.10
504.30	12421.22
504.48	12535.91
504.65	12608.47
504.83	12793.37
505.01	12645.91
505.18	12709.11
505.36	12751.24
505.53	12372.07
505.71	12823.80
505.88	12842.52
506.06	12826.14
506.23	13104.66
506.41	12814.43
506.58	12833.16
506.76	12844.86
506.93	13032.10
507.11	13025.08
507.28	13029.76
507.46	13048.49
507.63	13338.71
507.81	13284.88
507.98	13301.26
508.16	13013.38
508.33	13221.69
508.50	13294.24
508.68	13242.75
508.85	13605.53
509.03	13607.87
509.20	13504.89
509.38	13593.83
509.55	13502.55
509.73	13680.43
509.90	13734.26
510.08	13837.25
510.25	13916.83
510.42	13621.92
510.60	13750.65
510.77	13954.27
510.95	13870.01
511.12	13881.72
511.30	13776.39
511.47	13980.02
511.64	14080.66
511.82	14141.52
511.99	13947.25
512.17	14211.73
512.34	14026.83
512.51	14188.33
512.69	14274.93
512.86	14394.29
513.04	14663.46
513.21	14281.95
513.38	14398.98
513.56	14494.94
513.73	14485.58
513.90	14532.39
514.08	14485.58
514.25	14672.82
514.43	14829.63
514.60	14651.75
514.77	14445.79
514.95	14656.43
515.12	14824.95
515.29	14813.25
515.47	14946.66
515.64	14759.42
515.81	14972.41
515.99	14803.89
516.16	14806.23
516.33	15119.86
516.51	15028.58
516.68	15201.78
516.85	15042.62
517.03	15272.00
517.20	15330.51
517.37	15227.53
517.54	15051.99
517.72	15056.67
517.89	14946.66
518.06	15330.51
518.24	15295.40
518.41	15353.91
518.58	15269.66
518.75	15183.06
518.93	15482.64
519.10	15293.06
519.27	15566.90
519.45	15393.70
519.62	15358.60
519.79	15405.41
519.96	15648.82
520.14	15508.39
520.31	15442.85
520.48	15260.29
520.65	15857.13
520.83	15882.88
521.00	15943.73
521.17	15665.21
521.34	15782.23
521.52	15634.78
521.69	15882.88
521.86	15726.06
522.03	15915.64
522.20	16027.99
522.38	16088.84
522.55	16130.97
522.72	16224.59
522.89	16159.06
523.07	16231.62
523.24	16224.59
523.41	16285.45
523.58	16248.00
523.75	16194.17
523.92	16348.64
524.10	16215.23
524.27	16243.32
524.44	16353.32
524.61	16320.56
524.78	16484.39
524.96	16554.61
525.13	16559.29
525.30	16596.74
525.47	16627.17
525.64	16599.08
525.81	16486.73
525.98	16556.95
526.16	16428.22
526.33	16407.16
526.50	16512.48
526.67	16475.03
526.84	16339.28
527.01	16868.24
527.18	16861.22
527.36	17104.64
527.53	16805.05
527.70	16734.83
527.87	17069.53
528.04	16917.39
528.21	17076.55
528.38	16791.00
528.55	16978.25
528.72	17036.76
528.89	16695.04
529.07	17205.28
529.24	16695.04
529.41	17158.47
529.58	17228.68
529.75	17046.12
529.92	17216.98
530.09	17160.81
530.26	17090.59
530.43	17266.13
530.60	17256.77
530.77	17135.06
530.94	17146.76
531.11	17238.05
531.28	17371.46
531.46	17532.95
531.63	17401.88
531.80	17249.75
531.97	17493.16
532.14	17097.61
532.31	17233.36
532.48	17603.17
532.65	17678.07
532.82	17312.94
532.99	17537.63
533.16	17584.44
533.33	17549.34
533.50	17603.17
533.67	17776.37
533.84	17921.48
534.01	17532.95
534.18	17617.21
534.35	18045.53
534.52	17706.15
534.69	17640.62
534.86	17860.63
535.03	17666.36
535.20	17647.64
535.37	17715.51
535.54	17872.33
535.71	18010.42
535.88	18029.15
536.05	17820.84
536.22	17963.61
536.38	17977.65
536.55	18204.69
536.72	18286.61
536.89	18115.75
537.06	18422.36
537.23	18188.30
537.40	18071.28
537.57	18436.40
537.74	18504.28
537.91	18366.18
538.08	18211.71
538.25	18024.47
538.42	18129.79
538.59	18438.74
538.75	17881.69
538.92	18387.25
539.09	18672.79
539.26	18277.24
539.43	18820.25
539.60	18422.36
539.77	18518.32
539.94	18764.07
540.11	18668.11
540.28	18717.26
540.44	18822.59
540.61	18850.67
540.78	18733.65
540.95	18824.93
541.12	19234.52
541.29	18965.36
541.46	19145.58
541.62	19143.24
541.79	19096.43
541.96	18845.99
542.13	19311.76
542.30	19154.94
542.47	18906.85
542.63	19321.12
542.80	19105.79
542.97	19510.71
543.14	19726.04
543.31	19529.43
543.48	19545.81
543.64	19634.75
543.81	19482.62
543.98	19653.48
544.15	19463.90
544.32	19534.11
544.48	19751.78
544.65	19711.99
544.82	19744.76
544.99	19445.17
545.16	19721.35
545.32	19697.95
545.49	20058.39
545.66	20458.62
545.83	20844.81
546.00	20790.98
546.16	20477.35
546.33	19948.39
546.50	19910.94
546.67	20079.46
546.83	19386.66
547.00	19679.22
547.17	19719.01
547.34	19662.84
547.50	19742.42
547.67	19791.57
547.84	19580.92
548.00	19697.95
548.17	20034.99
548.34	19564.54
548.51	19845.40
548.67	20020.94
548.84	19829.02
549.01	19957.75
549.18	19630.07
549.34	19651.14
549.51	19618.37
549.68	19644.12
549.84	19587.94
550.01	19751.78
550.18	19693.27
550.34	19939.02
550.51	19669.86
550.68	19924.98
550.84	19873.49
551.01	19824.34
551.18	19761.14
551.34	19461.55
551.51	19850.08
551.68	19878.17
551.84	19864.13
552.01	19779.87
552.18	19807.95
552.34	19978.81
552.51	19882.85
552.68	19875.83
552.84	20077.12
553.01	19864.13
553.18	19793.91
553.34	19920.30
553.51	19929.66
553.67	19747.10
553.84	19976.47
554.01	20081.80
554.17	20100.52
554.34	20133.29
554.51	19929.66
554.67	19910.94
554.84	19894.55
555.00	19803.27
555.17	19627.73
555.33	20079.46
555.50	19854.76
555.67	20032.65
555.83	20084.14
556.00	20144.99
556.16	20297.13
556.33	20177.76
556.50	19988.18
556.66	20187.12
556.83	19812.63
556.99	20372.02
557.16	20023.28
557.32	20240.95
557.49	20360.32
557.65	20034.99
557.82	20173.08
557.98	20025.62
558.15	19770.51
558.32	20290.10
558.48	20449.26
558.65	20348.62
558.81	20215.21
558.98	20409.47
559.14	20446.92
559.31	20093.50
559.47	20273.72
559.64	20091.16
559.80	20236.27
559.97	20467.98
560.13	20009.24
560.30	20194.14
560.46	20287.76
560.63	20339.26
560.79	20390.75
560.96	20498.41
561.12	20159.03
561.29	20226.91
561.45	20423.51
561.61	20250.32
561.78	20489.05
561.94	20538.20
562.11	20563.95
562.27	20360.32
562.44	20414.15
562.60	20397.77
562.77	20683.31
562.93	20379.04
563.10	20460.96
563.26	20421.17
563.42	20528.84
563.59	20629.48
563.75	20582.67
563.92	20386.07
564.08	20592.03
564.24	20695.02
564.41	20746.51
564.57	20491.39
564.74	20465.64
564.90	20870.56
565.07	20615.44
565.23	20603.74
565.39	20744.17
565.56	20823.75
565.72	20697.36
565.88	20458.62
566.05	20664.59
566.21	20683.31
566.38	20353.30
566.54	20669.27
566.70	20650.55
566.87	20978.22
567.03	20795.66
567.19	20718.42
567.36	20400.11
567.52	20449.26
567.68	20489.05
567.85	20559.27
568.01	20634.16
568.17	20432.88
568.34	20734.81
568.50	20500.75
568.66	20631.82
568.83	20737.15
568.99	20306.49
569.15	20575.65
569.32	20566.29
569.48	20294.79
569.64	20819.07
569.81	20498.41
569.97	20362.66
570.13	20863.54
570.30	20678.63
570.46	20589.69
570.62	20603.74
570.78	20830.77
570.95	20484.37
571.11	20891.62
571.27	20835.45
571.43	20758.21
571.60	20662.25
571.76	20746.51
571.92	20755.87
572.09	20704.38
572.25	20744.17
572.41	20697.36
572.57	20795.66
572.74	20879.92
572.90	20926.73
573.06	20376.70
573.22	20781.62
573.38	20971.20
573.55	20659.91
573.71	20798.00
573.87	20912.69
574.03	20489.05
574.20	20507.77
574.36	20585.01
574.52	20561.61
574.68	20996.95
574.84	20870.56
575.01	20477.35
575.17	20781.62
575.33	20924.39
575.49	20891.62
575.65	20739.49
575.82	20994.61
575.98	20666.93
576.14	21151.42
576.30	20737.15
576.46	20842.47
576.62	20875.24
576.79	21036.74
576.95	20849.49
577.11	20664.59
577.27	20980.56
577.43	21048.44
577.59	20830.77
577.75	20840.13
577.92	21057.80
578.08	20805.02
578.24	20915.03
578.40	20975.88
578.56	20807.36
578.72	21085.89
578.88	21156.10
579.04	21018.01
579.21	20933.75
579.37	21025.03
579.53	20929.07
579.69	20805.02
579.85	20957.16
580.01	21025.03
580.17	20847.15
580.33	20685.65
580.49	20910.35
580.65	21003.97
580.82	20896.30
580.98	21123.33
581.14	20840.13
581.30	21048.44
581.46	20886.94
581.62	20669.27
581.78	21008.65
581.94	20830.77
582.10	20631.82
582.26	21329.30
582.42	20858.85
582.58	21057.80
582.74	20877.58
582.90	20978.22
583.06	20987.58
583.22	20973.54
583.38	21046.10
583.54	21289.51
583.70	20900.98
583.86	20945.45
584.02	21125.68
584.18	20872.90
584.34	20971.20
584.50	21050.78
584.66	20713.74
584.82	20514.80
584.98	20655.23
585.14	20905.66
585.30	20720.76
585.46	21118.65
585.62	20985.24
585.78	21167.80
585.94	20982.90
586.10	21046.10
586.26	20865.88
586.42	20954.82
586.58	21116.31
586.74	20980.56
586.90	21013.33
587.06	20870.56
587.22	21092.91
587.38	20936.09
587.54	20924.39
587.70	21006.31
587.86	20812.04
588.02	21006.31
588.18	20961.84
588.34	21097.59
588.49	20805.02
588.65	20982.90
588.81	20711.40
588.97	21294.19
589.13	20996.95
589.29	20917.37
589.45	21177.17
589.61	20720.76
589.77	21390.16
589.93	20912.69
590.08	21081.21
590.24	21165.46
590.40	21209.93
590.56	21219.30
590.72	20858.85
590.88	20662.25
591.04	20842.47
591.20	21240.36
