SpectraSuite Data File
++++++++++++++++++++++++++++++++++++
Date: Thu Oct 24 13:21:35 EDT 2013
User: stostad
Dark Spectrum Present: No
Reference Spectrum Present: No
Number of Sampled Component Spectra: 1
Spectrometers: USB2+H05261
Integration Time (usec): 100000 (USB2+H05261)
Spectra Averaged: 1 (USB2+H05261)
Boxcar Smoothing: 0 (USB2+H05261)
Correct for Electrical Dark: No (USB2+H05261)
Strobe/Lamp Enabled: No (USB2+H05261)
Correct for Detector Non-linearity: No (USB2+H05261)
Correct for Stray Light: No (USB2+H05261)
Number of Pixels in Processed Spectrum: 2048
>>>>>Begin Processed Spectral Data<<<<<
365.73	582.79
365.92	582.79
366.12	582.79
366.32	482.15
366.52	449.38
366.72	465.77
366.91	514.92
367.11	456.40
367.31	550.03
367.51	479.81
367.70	503.22
367.90	526.62
368.10	444.70
368.30	454.06
368.49	461.09
368.69	435.34
368.89	500.87
369.09	526.62
369.28	468.11
369.48	465.77
369.68	535.98
369.87	538.32
370.07	545.34
370.27	695.14
370.47	730.25
370.66	1273.25
370.86	1247.51
371.06	1165.59
371.25	1294.32
371.45	1184.31
371.65	1291.98
371.84	1334.11
372.04	1284.95
372.24	1348.15
372.44	1345.81
372.63	1296.66
372.83	1352.83
373.03	1387.94
373.22	1411.34
373.42	1369.21
373.62	1490.92
373.81	1462.83
374.01	1437.09
374.21	1511.99
374.40	1472.20
374.60	1448.79
374.79	1425.39
374.99	1425.39
375.19	1453.47
375.38	1526.03
375.58	1446.45
375.78	1570.50
375.97	1589.22
376.17	1605.61
376.37	1586.88
376.56	1558.80
376.76	1579.86
376.95	1563.48
377.15	1586.88
377.35	1563.48
377.54	1603.27
377.74	1645.40
377.93	1605.61
378.13	1720.29
378.33	1696.89
378.52	1675.82
378.72	1668.80
378.91	1806.89
379.11	1715.61
379.31	1746.04
379.50	1694.55
379.70	1654.76
379.89	1802.21
380.09	1809.23
380.28	1760.08
380.48	1739.02
380.68	1811.57
380.87	1781.15
381.07	1834.98
381.26	1863.07
381.46	1792.85
381.65	1827.96
381.85	1874.77
382.04	1778.81
382.24	1914.56
382.43	1837.32
382.63	1919.24
382.83	1898.17
383.02	1912.22
383.22	1973.07
383.41	1989.46
383.61	2003.50
383.80	2064.35
384.00	2026.90
384.19	1947.33
384.39	2113.50
384.58	1888.81
384.78	2120.53
384.97	2038.61
385.17	2064.35
385.36	1973.07
385.56	2097.12
385.75	2094.78
385.95	2080.74
386.14	2162.66
386.34	2057.33
386.53	2169.68
386.72	2139.25
386.92	2146.27
387.11	2165.00
387.31	2186.06
387.50	2317.13
387.70	2225.85
387.89	2307.77
388.09	2246.91
388.28	2228.19
388.48	2321.81
388.67	2319.47
388.86	2333.51
389.06	2270.32
389.25	2377.98
389.45	2382.67
389.64	2340.54
389.84	2394.37
390.03	2502.03
390.22	2469.27
390.42	2469.27
390.61	2408.41
390.81	2434.16
391.00	2459.90
391.19	2480.97
391.39	2450.54
391.58	2452.88
391.78	2586.29
391.97	2506.71
392.16	2619.06
392.36	2656.51
392.55	2682.25
392.75	2658.85
392.94	2616.72
393.13	2715.02
393.33	2700.98
393.52	2759.49
393.71	2719.70
393.91	2757.15
394.10	2799.28
394.29	2745.45
394.49	2773.53
394.68	2745.45
394.88	2754.81
395.07	2932.69
395.26	2803.96
395.46	2876.52
395.65	2902.26
395.84	2974.82
396.04	2956.10
396.23	2904.60
396.42	2988.86
396.62	3030.99
396.81	3021.63
397.00	2925.67
397.19	2974.82
397.39	3159.72
397.58	3077.80
397.77	3101.21
397.97	3171.43
398.16	3155.04
398.35	3126.96
398.55	3150.36
398.74	3173.77
398.93	3243.98
399.12	3290.79
399.32	3311.86
399.51	3302.50
399.70	3304.84
399.90	3281.43
400.09	3358.67
400.28	3407.82
400.47	3454.63
400.67	3541.23
400.86	3417.18
401.05	3342.28
401.24	3543.57
401.44	3538.89
401.63	3517.83
401.82	3510.80
402.01	3407.82
402.21	3541.23
402.40	3719.11
402.59	3658.26
402.78	3719.11
402.97	3794.01
403.17	3719.11
403.36	3716.77
403.55	3768.26
403.74	3948.48
403.93	3995.29
404.13	3824.44
404.32	3969.55
404.51	4091.26
404.70	3948.48
404.89	3967.21
405.09	3992.95
405.28	4126.36
405.47	3964.87
405.66	4077.21
405.85	4109.98
406.05	4194.24
406.24	4208.28
406.43	4257.43
406.62	4215.30
406.81	4222.33
407.00	4191.90
407.20	4194.24
407.39	4250.41
407.58	4283.18
407.77	4358.08
407.96	4327.65
408.15	4423.61
408.34	4341.69
408.54	4615.54
408.73	4547.66
408.92	4489.15
409.11	4585.11
409.30	4643.62
409.49	4678.73
409.68	4624.90
409.87	4587.45
410.07	4774.69
410.26	4734.90
410.45	4933.85
410.64	4856.61
410.83	4798.10
411.02	5022.79
411.21	4952.57
411.40	4835.55
411.59	5015.77
411.78	5008.75
411.98	5111.73
412.17	5139.82
412.36	5364.51
412.55	5425.36
412.74	5256.84
412.93	5301.31
413.12	5160.88
413.31	5523.66
413.50	5369.19
413.69	5247.48
413.88	5605.58
414.07	5621.97
414.26	5640.69
414.45	5699.20
414.64	5715.59
414.83	5813.89
415.02	5956.66
415.22	5966.03
415.41	5923.90
415.60	6026.88
415.79	6015.18
415.98	6256.25
416.17	6092.41
416.36	6223.48
416.55	6274.98
416.74	6155.61
416.93	6230.51
417.12	6300.72
417.31	6436.47
417.50	6361.58
417.69	6656.48
417.88	6565.20
418.07	6586.27
418.26	6539.46
418.45	6658.82
418.64	6897.56
418.83	6658.82
419.02	6806.28
419.21	6878.83
419.39	6927.99
419.58	6761.81
419.77	6703.29
419.96	7035.65
420.15	6942.03
420.34	6930.33
420.53	6939.69
420.72	7136.29
420.91	7157.36
421.10	7272.04
421.29	7211.19
421.48	7180.76
421.67	7204.17
421.86	7286.09
422.05	7372.69
422.24	7227.57
422.43	7269.70
422.61	7382.05
422.80	7529.50
422.99	7564.61
423.18	7522.48
423.37	7590.36
423.56	7517.80
423.75	7344.60
423.94	7276.73
424.13	6970.12
424.32	7316.51
424.50	7506.10
424.69	7529.50
424.88	7726.11
425.07	7604.40
425.26	7442.90
425.45	7487.37
425.64	7445.24
425.83	7468.65
426.01	7660.57
426.20	7662.91
426.39	7653.55
426.58	7742.49
426.77	7653.55
426.96	7969.52
427.15	7693.34
427.33	8138.04
427.52	7908.67
427.71	7892.29
427.90	7999.95
428.09	7971.86
428.28	8147.40
428.46	8065.49
428.65	8018.68
428.84	8177.83
429.03	8348.69
429.22	8124.00
429.40	8056.12
429.59	8149.75
429.78	7861.86
429.97	7941.44
430.16	8304.22
430.34	8386.14
430.53	8482.10
430.72	8592.11
430.91	8458.70
431.10	8463.38
431.28	8795.73
431.47	8695.09
431.66	8957.23
431.85	8599.13
432.03	8751.26
432.22	8982.98
432.41	9008.72
432.60	8879.99
432.79	9062.55
432.97	8966.59
433.16	9109.36
433.35	8912.76
433.54	9217.03
433.72	9275.54
433.91	9231.07
434.10	9078.94
434.28	9048.51
434.47	9167.88
434.66	9430.02
434.85	9540.02
435.03	9654.71
435.22	9717.90
435.41	9940.26
435.59	9750.67
435.78	9790.46
435.97	9839.61
436.16	9631.30
436.34	9713.22
436.53	9790.46
436.72	9872.38
436.90	9713.22
437.09	10052.60
437.28	9678.12
437.46	9827.91
437.65	10146.22
437.84	10291.34
438.02	10193.03
438.21	10338.15
438.40	9975.36
438.58	10656.46
438.77	10672.84
438.96	10731.36
439.14	10724.33
439.33	10726.68
439.52	10834.34
439.70	10949.03
439.89	10773.49
440.08	11197.12
440.26	10841.36
440.45	11061.37
440.63	11236.91
440.82	11363.30
441.01	11171.38
441.19	11454.58
441.38	11426.50
441.57	11620.76
441.75	11772.89
441.94	11740.13
442.12	11812.68
442.31	11871.20
442.50	12049.08
442.68	12217.60
442.87	11812.68
443.05	12180.15
443.24	12603.78
443.43	12138.02
443.61	12149.72
443.80	12594.42
443.98	11822.05
444.17	11817.36
444.35	12304.20
444.54	12524.21
444.73	12313.56
444.91	12184.83
445.10	12564.00
445.28	12688.04
445.47	12332.28
445.65	12297.17
445.84	12475.06
446.02	12484.42
446.21	12535.91
446.39	12519.53
446.58	12727.83
446.77	12545.27
446.95	12491.44
447.14	12535.91
447.32	12952.52
447.51	12643.57
447.69	12578.04
447.88	12837.84
448.06	12835.50
448.25	12681.02
448.43	12645.91
448.62	12898.69
448.80	12971.25
448.99	13153.81
449.17	13165.51
449.36	13039.12
449.54	13254.45
449.73	13336.37
449.91	13626.60
450.10	13256.79
450.28	13413.61
450.46	13565.74
450.65	13626.60
450.83	13589.15
451.02	13479.15
451.20	13425.31
451.39	13610.22
451.57	13940.23
451.76	13692.13
451.94	13687.45
452.13	13862.99
452.31	14148.54
452.49	13799.80
452.68	14200.03
452.86	14022.15
453.05	14108.75
453.23	14118.11
453.42	14162.58
453.60	14073.64
453.78	14319.40
453.97	14253.86
454.15	14003.43
454.34	14120.45
454.52	14684.52
454.70	14553.45
454.89	14747.72
455.07	14682.18
455.26	14834.32
455.44	14906.87
455.62	14841.34
455.81	14881.13
455.99	14967.73
456.17	15246.25
456.36	15014.54
456.54	15059.01
456.73	15019.22
456.91	15620.74
457.09	15520.09
457.28	15836.06
457.46	15665.21
457.64	15976.50
457.83	15557.54
458.01	15611.37
458.19	15953.09
458.38	15660.52
458.56	16035.01
458.74	15967.13
458.93	15864.15
459.11	16032.67
459.29	16166.08
459.48	16376.73
459.66	16170.76
459.84	16458.65
460.03	16648.23
460.21	16798.02
460.39	16652.91
460.57	16479.71
460.76	16730.15
460.94	16898.67
461.12	16720.79
461.31	16603.76
461.49	16940.80
461.67	16746.53
461.85	17228.68
462.04	16926.75
462.22	17549.34
462.40	17535.29
462.59	17116.34
462.77	17207.62
462.95	17514.23
463.13	17240.39
463.32	17551.68
463.50	17495.50
463.68	17748.28
463.86	17638.28
464.05	17436.99
464.23	17640.62
464.41	17778.71
464.59	17589.13
464.78	18235.11
464.96	18017.44
465.14	17596.15
465.32	17961.27
465.50	18202.35
465.69	18443.42
465.87	18171.92
466.05	18167.24
466.23	18412.99
466.41	18415.34
466.60	18761.73
466.78	18228.09
466.96	18361.50
467.14	18523.00
467.32	18810.89
467.51	18796.84
467.69	18214.05
467.87	19096.43
468.05	18965.36
468.23	18677.48
468.41	18792.16
468.60	18822.59
468.78	19126.86
468.96	18714.92
469.14	19220.48
469.32	19421.77
469.50	19021.53
469.69	19480.28
469.87	19721.35
470.05	19784.55
470.23	19658.16
470.41	19590.28
470.59	19922.64
470.77	19777.53
470.95	19908.60
471.14	20266.70
471.32	19854.76
471.50	20269.04
471.68	20521.82
471.86	20620.12
472.04	20498.41
472.22	20896.30
472.40	20620.12
472.58	20812.04
472.77	20992.26
472.95	21153.76
473.13	21834.86
473.31	21212.28
473.49	21336.32
473.67	21282.49
473.85	21511.86
474.03	22134.45
474.21	21991.67
474.39	22129.77
474.57	22185.94
474.75	22324.03
474.93	22419.99
475.12	22410.63
475.30	22806.18
475.48	22441.06
475.66	22808.52
475.84	22628.30
476.02	23206.41
476.20	23098.75
476.38	23590.26
476.56	24215.18
476.74	23934.32
476.92	24016.24
477.10	24151.99
477.28	24397.74
477.46	24430.51
477.64	24264.33
477.82	24577.97
478.00	25645.25
478.18	25383.11
478.36	25465.03
478.54	26068.89
478.72	26052.50
478.90	26106.34
479.08	26359.11
479.26	26396.56
479.44	26644.66
479.62	26843.60
479.80	27534.06
479.98	27269.58
480.16	27859.40
480.34	27225.11
480.52	27938.97
480.70	28051.32
480.88	27627.68
481.06	28189.41
481.24	28154.30
481.41	28535.81
481.59	29453.30
481.77	29296.49
481.95	29518.84
482.13	29668.63
482.31	29790.34
482.49	30796.77
482.67	30260.79
482.85	30780.39
483.03	31159.55
483.21	31349.14
483.39	31538.72
483.57	31175.94
483.74	31917.89
483.92	32222.16
484.10	31962.36
484.28	32547.49
484.46	32992.19
484.64	33570.30
484.82	32854.10
485.00	33750.52
485.18	34202.25
485.35	34843.56
485.53	34513.54
485.71	34766.32
485.89	34864.62
486.07	35056.54
486.25	35051.86
486.43	35365.49
486.61	35805.52
486.78	36240.86
486.96	36011.48
487.14	36825.99
487.32	37015.57
487.50	37235.58
487.68	37912.00
487.85	37809.01
488.03	38562.67
488.21	38616.50
488.39	38794.38
488.57	39349.09
488.75	39306.96
488.92	39414.62
489.10	39796.13
489.28	40446.80
489.46	40828.30
489.64	40631.70
489.81	41340.88
489.99	41233.22
490.17	41392.37
490.35	42010.28
490.53	42218.58
490.70	42267.73
490.88	42106.24
491.06	43112.67
491.24	42972.24
491.41	43299.91
491.59	43938.88
491.77	44081.65
491.95	44299.32
492.13	44137.82
492.30	45055.31
492.48	44800.19
492.66	44531.03
492.84	45081.06
493.01	45666.19
493.19	45684.92
493.37	45925.99
493.54	45624.06
493.72	46705.39
493.90	46651.56
494.08	47079.88
494.25	47250.74
494.43	47393.51
494.61	47540.96
494.79	47892.04
494.96	48039.50
495.14	48006.73
495.32	48451.43
495.49	48835.28
495.67	49184.02
495.85	49340.83
496.02	49408.71
496.20	49940.01
496.38	49612.34
496.55	49818.30
496.73	50932.40
496.91	50291.09
497.09	51124.32
497.26	50632.81
497.44	51011.98
497.62	50990.91
497.79	51763.29
497.97	51456.68
498.14	51992.66
498.32	51711.80
498.50	51655.62
498.67	52477.15
498.85	52191.61
499.03	52360.12
499.20	52505.24
499.38	52896.11
499.56	53102.07
499.73	52959.30
499.91	53010.79
500.08	53272.93
500.26	53137.18
500.44	53333.79
500.61	53418.05
500.79	53705.93
500.97	54113.19
501.14	54080.42
501.32	54302.77
501.49	54174.04
501.67	54064.03
501.84	54546.18
502.02	54637.47
502.20	54478.31
502.37	54946.42
502.55	54855.14
502.72	54801.30
502.90	54944.08
503.07	54841.09
503.25	55107.91
503.43	55091.53
503.60	55510.49
503.78	55779.65
503.95	55437.93
504.13	55709.43
504.30	55473.04
504.48	55566.66
504.65	56074.55
504.83	56336.69
505.01	56416.27
505.18	56294.56
505.36	56512.23
505.53	56442.02
505.71	56617.56
505.88	56727.56
506.06	56694.80
506.23	56940.55
506.41	56858.63
506.58	56811.82
506.76	56879.70
506.93	57212.06
507.11	57303.34
507.28	57247.16
507.46	57310.36
507.63	57497.60
507.81	57773.78
507.98	57392.28
508.16	57502.28
508.33	57712.93
508.50	57916.56
508.68	58085.07
508.85	58188.06
509.03	58089.76
509.20	58248.91
509.38	58415.09
509.55	58752.13
509.73	58623.40
509.90	58749.79
510.08	58773.19
510.25	58857.45
510.42	58838.73
510.60	58733.40
510.77	59079.80
510.95	59124.27
511.12	58901.92
511.30	59030.65
511.47	59185.13
511.64	59388.75
511.82	59583.02
511.99	59201.51
512.17	59388.75
512.34	59515.14
512.51	59910.69
512.69	60011.34
512.86	60009.00
513.04	59931.76
513.21	60072.19
513.38	59927.08
513.56	60238.37
513.73	60065.17
513.90	60364.76
514.08	60273.48
514.25	60479.44
514.43	60409.23
514.60	60556.68
514.77	60399.86
514.95	60795.42
515.12	60413.91
515.29	60650.30
515.47	60910.10
515.64	60994.36
515.81	60968.61
515.99	60804.78
516.16	61022.45
516.33	60858.61
516.51	60940.53
516.68	61059.90
516.85	61233.10
517.03	61609.92
517.20	61488.21
517.37	61324.38
517.54	61471.83
517.72	61523.32
517.89	61497.58
518.06	61635.67
518.24	61560.77
518.41	61745.67
518.58	62061.64
518.75	61668.44
518.93	61937.60
519.10	61867.38
519.27	62094.41
519.45	61965.68
519.62	62026.54
519.79	62260.59
519.96	62265.27
520.14	62438.47
520.31	61993.77
520.48	62276.97
520.65	62461.88
520.83	62560.18
521.00	62592.95
521.17	62606.99
521.34	62698.27
521.52	62749.76
521.69	62784.87
521.86	62761.47
522.03	62766.15
522.20	62925.30
522.38	63112.55
522.55	63114.89
522.72	63245.96
522.89	63147.65
523.07	63402.77
523.24	63126.59
523.41	63245.96
523.58	63222.55
523.75	63566.61
523.92	63362.98
524.10	63667.25
524.27	63613.42
524.44	63646.19
524.61	63688.32
524.78	63594.70
524.96	63653.21
525.13	63629.80
525.30	63810.03
525.47	64039.40
525.64	63856.84
525.81	63950.46
525.98	63969.18
526.16	63863.86
526.33	64039.40
526.50	64306.22
526.67	64114.29
526.84	64364.73
527.01	64388.14
527.18	64385.80
527.36	64329.62
527.53	64245.36
527.70	64425.59
527.87	64568.36
528.04	64601.13
528.21	64711.13
528.38	64860.93
528.55	64713.47
528.72	64523.89
528.89	64685.39
529.07	64624.53
529.24	64533.25
529.41	64863.27
529.58	64961.57
529.75	64870.29
529.92	65078.60
530.09	64898.37
530.26	64811.77
530.43	64959.23
530.60	64741.56
530.77	64970.93
530.94	64949.87
531.11	65151.15
531.28	65322.01
531.46	65385.21
531.63	65441.38
531.80	65207.32
531.97	65401.59
532.14	65453.08
532.31	65535.00
532.48	65535.00
532.65	65535.00
532.82	65535.00
532.99	65535.00
533.16	65535.00
533.33	65535.00
533.50	65535.00
533.67	65535.00
533.84	65535.00
534.01	65535.00
534.18	65535.00
534.35	65535.00
534.52	65535.00
534.69	65535.00
534.86	65535.00
535.03	65535.00
535.20	65535.00
535.37	65535.00
535.54	65535.00
535.71	65535.00
535.88	65535.00
536.05	65535.00
536.22	65535.00
536.38	65535.00
536.55	65535.00
536.72	65535.00
536.89	65535.00
537.06	65535.00
537.23	65535.00
537.40	65535.00
537.57	65535.00
537.74	65535.00
537.91	65535.00
538.08	65535.00
538.25	65535.00
538.42	65535.00
538.59	65535.00
538.75	65535.00
538.92	65535.00
539.09	65535.00
539.26	65535.00
539.43	65535.00
539.60	65535.00
539.77	65535.00
539.94	65535.00
540.11	65535.00
540.28	65535.00
540.44	65535.00
540.61	65535.00
540.78	65535.00
540.95	65535.00
541.12	65535.00
541.29	65535.00
541.46	65535.00
541.62	65535.00
541.79	65535.00
541.96	65535.00
542.13	65535.00
542.30	65535.00
542.47	65535.00
542.63	65535.00
542.80	65535.00
542.97	65535.00
543.14	65535.00
543.31	65535.00
543.48	65535.00
543.64	65535.00
543.81	65535.00
543.98	65535.00
544.15	65535.00
544.32	65535.00
544.48	65535.00
544.65	65535.00
544.82	65535.00
544.99	65535.00
545.16	65535.00
545.32	65535.00
545.49	65535.00
545.66	65535.00
545.83	65535.00
546.00	65535.00
546.16	65535.00
546.33	65535.00
546.50	65535.00
546.67	65535.00
546.83	65535.00
547.00	65535.00
547.17	65535.00
547.34	65535.00
547.50	65535.00
547.67	65535.00
547.84	65535.00
548.00	65535.00
548.17	65535.00
548.34	65535.00
548.51	65535.00
548.67	65535.00
548.84	65535.00
549.01	65535.00
549.18	65535.00
549.34	65535.00
549.51	65535.00
549.68	65535.00
549.84	65535.00
550.01	65535.00
550.18	65535.00
550.34	65535.00
550.51	65535.00
550.68	65535.00
550.84	65535.00
551.01	65535.00
551.18	65535.00
551.34	65535.00
551.51	65535.00
551.68	65535.00
551.84	65535.00
552.01	65535.00
552.18	65535.00
552.34	65535.00
552.51	65535.00
552.68	65535.00
552.84	65535.00
553.01	65535.00
553.18	65535.00
553.34	65535.00
553.51	65535.00
553.67	65535.00
553.84	65535.00
554.01	65535.00
554.17	65535.00
554.34	65535.00
554.51	65535.00
554.67	65535.00
554.84	65535.00
555.00	65535.00
555.17	65535.00
555.33	65535.00
555.50	65535.00
555.67	65535.00
555.83	65535.00
556.00	65535.00
556.16	65535.00
556.33	65535.00
556.50	65535.00
556.66	65535.00
556.83	65535.00
556.99	65535.00
557.16	65535.00
557.32	65535.00
557.49	65535.00
557.65	65535.00
557.82	65535.00
557.98	65535.00
558.15	65535.00
558.32	65535.00
558.48	65535.00
558.65	65535.00
558.81	65535.00
558.98	65535.00
559.14	65535.00
559.31	65535.00
559.47	65535.00
559.64	65535.00
559.80	65535.00
559.97	65535.00
560.13	65535.00
560.30	65535.00
560.46	65535.00
560.63	65535.00
560.79	65535.00
560.96	65535.00
561.12	65535.00
561.29	65535.00
561.45	65535.00
561.61	65535.00
561.78	65535.00
561.94	65535.00
562.11	65535.00
562.27	65535.00
562.44	65535.00
562.60	65535.00
562.77	65535.00
562.93	65535.00
563.10	65535.00
563.26	65535.00
563.42	65535.00
563.59	65535.00
563.75	65535.00
563.92	65535.00
564.08	65535.00
564.24	65535.00
564.41	65535.00
564.57	65535.00
564.74	65535.00
564.90	65535.00
565.07	65535.00
565.23	65535.00
565.39	65535.00
565.56	65535.00
565.72	65535.00
565.88	65535.00
566.05	65535.00
566.21	65535.00
566.38	65535.00
566.54	65535.00
566.70	65535.00
566.87	65535.00
567.03	65535.00
567.19	65535.00
567.36	65535.00
567.52	65535.00
567.68	65535.00
567.85	65535.00
568.01	65535.00
568.17	65535.00
568.34	65535.00
568.50	65535.00
568.66	65535.00
568.83	65535.00
568.99	65535.00
569.15	65535.00
569.32	65535.00
569.48	65535.00
569.64	65535.00
569.81	65535.00
569.97	65535.00
570.13	65535.00
570.30	65535.00
570.46	65535.00
570.62	65535.00
570.78	65535.00
570.95	65535.00
571.11	65535.00
571.27	65535.00
571.43	65535.00
571.60	65535.00
571.76	65535.00
571.92	65535.00
572.09	65535.00
572.25	65535.00
572.41	65535.00
572.57	65535.00
572.74	65535.00
572.90	65535.00
573.06	65535.00
573.22	65535.00
573.38	65535.00
573.55	65535.00
573.71	65535.00
573.87	65535.00
574.03	65535.00
574.20	65535.00
574.36	65535.00
574.52	65535.00
574.68	65535.00
574.84	65535.00
575.01	65535.00
575.17	65535.00
575.33	65535.00
575.49	65535.00
575.65	65535.00
575.82	65535.00
575.98	65535.00
576.14	65535.00
576.30	65535.00
576.46	65535.00
576.62	65535.00
576.79	65535.00
576.95	65535.00
577.11	65535.00
577.27	65535.00
577.43	65535.00
577.59	65535.00
577.75	65535.00
577.92	65535.00
578.08	65535.00
578.24	65535.00
578.40	65535.00
578.56	65535.00
578.72	65535.00
578.88	65535.00
579.04	65535.00
579.21	65535.00
579.37	65535.00
579.53	65535.00
579.69	65535.00
579.85	65535.00
580.01	65535.00
580.17	65535.00
580.33	65535.00
580.49	65535.00
580.65	65535.00
580.82	65535.00
580.98	65535.00
581.14	65535.00
581.30	65535.00
581.46	65535.00
581.62	65535.00
581.78	65535.00
581.94	65535.00
582.10	65535.00
582.26	65535.00
582.42	65535.00
582.58	65535.00
582.74	65535.00
582.90	65535.00
583.06	65535.00
583.22	65535.00
583.38	65535.00
583.54	65535.00
583.70	65535.00
583.86	65535.00
584.02	65535.00
584.18	65535.00
584.34	65535.00
584.50	65535.00
584.66	65535.00
584.82	65535.00
584.98	65535.00
585.14	65535.00
585.30	65535.00
585.46	65535.00
585.62	65535.00
585.78	65535.00
585.94	65535.00
586.10	65535.00
586.26	65535.00
586.42	65535.00
586.58	65535.00
586.74	65535.00
586.90	65535.00
