SpectraSuite Data File
++++++++++++++++++++++++++++++++++++
Date: Thu Oct 24 13:21:22 EDT 2013
User: stostad
Dark Spectrum Present: No
Reference Spectrum Present: No
Number of Sampled Component Spectra: 1
Spectrometers: USB2+H05261
Integration Time (usec): 100000 (USB2+H05261)
Spectra Averaged: 1 (USB2+H05261)
Boxcar Smoothing: 0 (USB2+H05261)
Correct for Electrical Dark: No (USB2+H05261)
Strobe/Lamp Enabled: No (USB2+H05261)
Correct for Detector Non-linearity: No (USB2+H05261)
Correct for Stray Light: No (USB2+H05261)
Number of Pixels in Processed Spectrum: 2048
>>>>>Begin Processed Spectral Data<<<<<
365.73	554.71
365.92	554.71
366.12	554.71
366.32	519.60
366.52	493.85
366.72	489.17
366.91	433.00
367.11	468.11
367.31	442.36
367.51	468.11
367.70	433.00
367.90	447.04
368.10	414.27
368.30	454.06
368.49	435.34
368.69	468.11
368.89	451.72
369.09	486.83
369.28	390.87
369.48	449.38
369.68	498.53
369.87	566.41
370.07	552.37
370.27	580.45
370.47	713.86
370.66	901.11
370.86	919.83
371.06	854.30
371.25	905.79
371.45	961.96
371.65	898.77
371.84	954.94
372.04	959.62
372.24	866.00
372.44	992.39
372.63	1022.81
372.83	968.98
373.03	966.64
373.22	943.24
373.42	1069.62
373.62	1043.88
373.81	987.71
374.01	1050.90
374.21	1034.52
374.40	997.07
374.60	1071.97
374.79	1018.13
374.99	1095.37
375.19	1083.67
375.38	1093.03
375.58	1121.12
375.78	1064.94
375.97	1071.97
376.17	1086.01
376.37	1130.48
376.56	1050.90
376.76	1102.39
376.95	1116.44
377.15	1034.52
377.35	1116.44
377.54	1142.18
377.74	1137.50
377.93	1027.50
378.13	1123.46
378.33	1261.55
378.52	1074.31
378.72	1149.20
378.91	1083.67
379.11	1102.39
379.31	1146.86
379.50	1116.44
379.70	1125.80
379.89	1144.52
380.09	1146.86
380.28	1149.20
380.48	1107.07
380.68	1214.74
380.87	1088.35
381.07	1219.42
381.26	1160.91
381.46	1224.10
381.65	1177.29
381.85	1273.25
382.04	1172.61
382.24	1249.85
382.43	1329.42
382.63	1174.95
382.83	1289.64
383.02	1310.70
383.22	1219.42
383.41	1259.21
383.61	1280.27
383.80	1296.66
384.00	1317.72
384.19	1303.68
384.39	1303.68
384.58	1284.95
384.78	1280.27
384.97	1322.40
385.17	1256.87
385.36	1284.95
385.56	1296.66
385.75	1242.82
385.95	1331.76
386.14	1364.53
386.34	1327.08
386.53	1343.47
386.72	1282.61
386.92	1460.49
387.11	1371.55
387.31	1310.70
387.50	1317.72
387.70	1362.19
387.89	1343.47
388.09	1357.51
388.28	1418.36
388.48	1392.62
388.67	1481.56
388.86	1331.76
389.06	1392.62
389.25	1437.09
389.45	1425.39
389.64	1462.83
389.84	1523.69
390.03	1495.60
390.22	1521.35
390.42	1523.69
390.61	1448.79
390.81	1511.99
391.00	1561.14
391.19	1551.78
391.39	1493.26
391.58	1528.37
391.78	1612.63
391.97	1565.82
392.16	1516.67
392.36	1607.95
392.55	1577.52
392.75	1579.86
392.94	1626.67
393.13	1661.78
393.33	1605.61
393.52	1572.84
393.71	1617.31
393.91	1666.46
394.10	1619.65
394.29	1652.42
394.49	1729.66
394.68	1703.91
394.88	1713.27
395.07	1703.91
395.26	1621.99
395.46	1631.35
395.65	1687.53
395.84	1816.26
396.04	1706.25
396.23	1687.53
396.42	1774.13
396.62	1802.21
396.81	1818.60
397.00	1818.60
397.19	1825.62
397.39	1783.49
397.58	1891.15
397.77	1844.34
397.97	1818.60
398.16	1895.83
398.35	1923.92
398.55	1877.11
398.74	1877.11
398.93	2003.50
399.12	1914.56
399.32	1860.73
399.51	1898.17
399.70	1959.03
399.90	1973.07
400.09	1989.46
400.28	1949.67
400.47	2008.18
400.67	2031.58
400.86	1849.02
401.05	1996.48
401.24	2087.76
401.44	2106.48
401.63	2111.16
401.82	2087.76
402.01	2024.56
402.21	2054.99
402.40	2195.42
402.59	1975.41
402.78	2129.89
402.97	2122.87
403.17	2289.04
403.36	2047.97
403.55	2202.44
403.74	2239.89
403.93	2242.23
404.13	2251.60
404.32	2253.94
404.51	2293.72
404.70	2267.98
404.89	2172.02
405.09	2258.62
405.28	2319.47
405.47	2363.94
405.66	2448.20
405.85	2429.48
406.05	2389.69
406.24	2338.20
406.43	2436.50
406.62	2434.16
406.81	2548.84
407.00	2401.39
407.20	2345.22
407.39	2478.63
407.58	2385.01
407.77	2574.59
407.96	2525.44
408.15	2574.59
408.34	2509.05
408.54	2633.10
408.73	2471.61
408.92	2574.59
409.11	2736.09
409.30	2668.21
409.49	2768.85
409.68	2640.12
409.87	2682.25
410.07	2785.24
410.26	2846.09
410.45	2794.60
410.64	2909.29
410.83	2853.11
411.02	2813.32
411.21	2904.60
411.40	2750.13
411.59	2876.52
411.78	2871.84
411.98	2944.39
412.17	3052.06
412.36	3012.27
412.55	3084.83
412.74	3026.31
412.93	3087.17
413.12	3054.40
413.31	3063.76
413.50	3152.70
413.69	3122.27
413.88	3309.52
414.07	3157.38
414.26	3274.41
414.45	3325.90
414.64	3393.78
414.83	3386.76
415.02	3405.48
415.22	3438.25
415.41	3426.54
415.60	3372.71
415.79	3471.01
415.98	3536.55
416.17	3604.42
416.36	3716.77
416.55	3452.29
416.74	3543.57
416.93	3588.04
417.12	3620.81
417.31	3632.51
417.50	3620.81
417.69	3695.71
417.88	3756.56
418.07	3712.09
418.26	3812.73
418.45	3854.86
418.64	3960.19
418.83	3995.29
419.02	3896.99
419.21	3845.50
419.39	3906.35
419.58	3838.48
419.77	3836.14
419.96	3955.51
420.15	4126.36
420.34	4030.40
420.53	3920.40
420.72	4056.15
420.91	4140.41
421.10	4147.43
421.29	4056.15
421.48	4112.32
421.67	4210.62
421.86	4175.52
422.05	4229.35
422.24	4079.55
422.43	4194.24
422.61	4304.25
422.80	4285.52
422.99	4245.73
423.18	4409.57
423.37	4259.78
423.56	4250.41
423.75	4142.75
423.94	4250.41
424.13	3997.64
424.32	4035.08
424.50	4423.61
424.69	4587.45
424.88	4351.06
425.07	4299.56
425.26	4252.75
425.45	4327.65
425.64	4351.06
425.83	4344.03
426.01	4313.61
426.20	4388.50
426.39	4332.33
426.58	4313.61
426.77	4219.99
426.96	4353.40
427.15	4374.46
427.33	4435.32
427.52	4409.57
427.71	4486.81
427.90	4421.27
428.09	4465.74
428.28	4636.60
428.46	4566.39
428.65	4535.96
428.84	4891.72
429.03	4610.86
429.22	4655.33
429.40	4613.20
429.59	4685.75
429.78	4655.33
429.97	4447.02
430.16	4674.05
430.34	4880.02
430.53	4870.65
430.72	4711.50
430.91	4748.95
431.10	4685.75
431.28	4938.53
431.47	5020.45
431.66	5032.15
431.85	4933.85
432.03	5004.07
432.22	5116.41
432.41	5018.11
432.60	5001.72
432.79	4943.21
432.97	5036.83
433.16	4990.02
433.35	5001.72
433.54	5085.98
433.72	5163.22
433.91	5266.21
434.10	5146.84
434.28	5036.83
434.47	5247.48
434.66	5313.02
434.85	5411.32
435.03	5341.10
435.22	5488.56
435.41	5795.17
435.59	5518.98
435.78	5820.91
435.97	5551.75
436.16	5413.66
436.34	5537.71
436.53	5472.17
436.72	5577.50
436.90	5313.02
437.09	5526.00
437.28	5673.46
437.46	5593.88
437.65	5514.30
437.84	5678.14
438.02	5568.13
438.21	5645.37
438.40	5647.71
438.58	5923.90
438.77	5956.66
438.96	5872.40
439.14	6080.71
439.33	6012.84
439.52	5975.39
439.70	5879.43
439.89	6085.39
440.08	6083.05
440.26	6218.80
440.45	6188.38
440.63	6150.93
440.82	6541.80
441.01	6200.08
441.19	6373.28
441.38	6324.13
441.57	6455.20
441.75	6520.73
441.94	6628.40
442.12	6628.40
442.31	6600.31
442.50	6600.31
442.68	6518.39
442.87	6726.70
443.05	6822.66
443.24	6663.51
443.43	6759.47
443.61	6853.09
443.80	6935.01
443.98	6672.87
444.17	6352.21
444.35	6684.57
444.54	6822.66
444.73	6937.35
444.91	6806.28
445.10	6923.30
445.28	7023.95
445.47	6920.96
445.65	6885.86
445.84	6967.77
446.02	7145.66
446.21	6927.99
446.39	6930.33
446.58	7028.63
446.77	7115.23
446.95	6881.18
447.14	7063.74
447.32	7059.06
447.51	7005.22
447.69	6970.12
447.88	7016.93
448.06	7136.29
448.25	7204.17
448.43	7108.21
448.62	7021.61
448.80	6981.82
448.99	7159.70
449.17	7145.66
449.36	7225.23
449.54	7281.41
449.73	7480.35
449.91	7293.11
450.10	7541.21
450.28	7412.48
450.46	7445.24
450.65	7363.33
450.83	7452.27
451.02	7475.67
451.20	7569.29
451.39	7538.87
451.57	7377.37
451.76	7529.50
451.94	7583.34
452.13	7686.32
452.31	7672.28
452.49	7566.95
452.68	7709.72
452.86	7651.21
453.05	7810.37
453.23	7749.51
453.42	7744.83
453.60	7721.43
453.78	7882.92
453.97	7674.62
454.15	7796.32
454.34	7810.37
454.52	7885.26
454.70	7953.14
454.89	8032.72
455.07	8067.83
455.26	7920.37
455.44	8252.73
455.62	8077.19
455.81	8102.93
455.99	8276.13
456.17	8053.78
456.36	8205.92
456.54	8458.70
456.73	8430.61
456.91	8608.49
457.09	8711.47
457.28	8641.26
457.46	8372.10
457.64	8702.11
457.83	8638.92
458.01	8461.04
458.19	8908.08
458.38	8610.83
458.56	8833.18
458.74	8903.40
458.93	8769.99
459.11	8987.66
459.29	8704.45
459.48	9008.72
459.66	8849.57
459.84	8814.46
460.03	9025.11
460.21	9011.06
460.39	9022.77
460.57	8954.89
460.76	9184.26
460.94	9090.64
461.12	9139.79
461.31	9114.05
461.49	9179.58
461.67	9069.58
461.85	9291.93
462.04	9118.73
462.22	9420.66
462.40	9341.08
462.59	9425.34
462.77	9327.03
462.95	9525.98
463.13	9362.14
463.32	9502.58
463.50	9462.79
463.68	9469.81
463.86	9525.98
464.05	9324.69
464.23	9469.81
464.41	9589.17
464.59	9509.60
464.78	9846.63
464.96	9699.18
465.14	9610.24
465.32	9745.99
465.50	9659.39
465.69	9811.53
465.87	9937.91
466.05	9750.67
466.23	9717.90
466.41	9888.76
466.60	9949.62
466.78	9895.78
466.96	9916.85
467.14	9977.70
467.32	10045.58
467.51	10197.71
467.69	9900.47
467.87	10092.39
468.05	10022.17
468.23	9989.41
468.41	10169.63
468.60	10176.65
468.78	10396.66
468.96	10176.65
469.14	10626.03
469.32	10375.59
469.50	10455.17
469.69	10565.18
469.87	10600.29
470.05	10373.25
470.23	10649.44
470.41	10647.10
470.59	10754.76
470.77	10677.52
470.95	10869.45
471.14	11061.37
471.32	10607.31
471.50	10752.42
471.68	10979.45
471.86	10960.73
472.04	10920.94
472.22	11279.04
472.40	11119.89
472.58	11403.09
472.77	11293.08
472.95	11496.71
473.13	11679.27
473.31	11187.76
473.49	11405.43
473.67	11487.35
473.85	11538.84
474.03	11974.18
474.21	11875.88
474.39	11969.50
474.57	11625.44
474.75	11971.84
474.93	12067.80
475.12	11796.30
475.30	11822.05
475.48	12168.45
475.66	12163.76
475.84	12203.55
476.02	12255.04
476.20	12236.32
476.38	12566.34
476.56	12891.67
476.74	12788.69
476.92	12896.35
477.10	12549.95
477.28	12744.22
477.46	12968.91
477.64	12968.91
477.82	13025.08
478.00	13575.11
478.18	13439.36
478.36	13114.02
478.54	13802.14
478.72	13823.20
478.90	13837.25
479.08	13975.34
479.26	14200.03
479.44	13963.64
479.62	14230.46
479.80	14398.98
479.98	14408.34
480.16	14944.32
480.34	14506.64
480.52	14918.57
480.70	14611.96
480.88	14817.93
481.06	14998.15
481.24	14988.79
481.41	14897.51
481.59	15276.68
481.77	15454.56
481.95	15571.58
482.13	15531.80
482.31	15541.16
482.49	16184.80
482.67	15983.52
482.85	16243.32
483.03	16475.03
483.21	16273.74
483.39	16683.34
483.57	16629.51
483.74	16610.78
483.92	16945.48
484.10	17099.95
484.28	17219.32
484.46	17415.93
484.64	17804.46
484.82	17378.48
485.00	17731.90
485.18	17860.63
485.35	18087.66
485.53	17961.27
485.71	18228.09
485.89	18546.40
486.07	18595.56
486.25	18719.60
486.43	18508.96
486.61	18944.30
486.78	18904.51
486.96	19096.43
487.14	19885.19
487.32	19499.00
487.50	19660.50
487.68	19927.32
487.85	19957.75
488.03	20292.44
488.21	20538.20
488.39	20390.75
488.57	20547.56
488.75	20753.53
488.92	20723.10
489.10	21174.83
489.28	21364.41
489.46	21202.91
489.64	21350.37
489.81	21750.60
489.99	21687.40
490.17	21853.58
490.35	22286.58
490.53	22169.55
490.70	22342.75
490.88	22597.87
491.06	22590.85
491.24	22841.29
491.41	22916.19
491.59	23089.38
491.77	23461.53
491.95	23293.01
492.13	23498.98
492.30	23892.19
492.48	23962.40
492.66	24034.96
492.84	23758.78
493.01	24037.30
493.19	24187.10
493.37	24510.09
493.54	24718.40
493.72	24369.66
493.90	24507.75
494.08	25053.09
494.25	25085.86
494.43	25280.13
494.61	25397.15
494.79	25626.53
494.96	25434.60
495.14	25500.14
495.32	25827.81
495.49	26122.72
495.67	26176.55
495.85	26377.84
496.02	26471.46
496.20	26740.62
496.38	26955.95
496.55	26831.90
496.73	27178.30
496.91	27222.77
497.09	27122.13
497.26	27463.85
497.44	27395.97
497.62	27419.38
497.79	27857.06
497.97	27927.27
498.14	28208.14
498.32	28329.84
498.50	28666.88
498.67	28725.39
498.85	28149.62
499.03	28886.89
499.20	28851.78
499.38	28685.61
499.56	28739.44
499.73	29186.48
499.91	29076.48
500.08	29469.69
500.26	28922.00
500.44	29708.42
500.61	30146.10
500.79	29886.30
500.97	29883.96
501.14	30356.75
501.32	30015.03
501.49	30508.88
501.67	30143.76
501.84	30443.35
502.02	30555.69
502.20	30731.23
502.37	30934.86
502.55	30773.36
502.72	30979.33
502.90	31431.05
503.07	31019.12
503.25	31101.04
503.43	31285.94
503.60	31571.49
503.78	31683.83
503.95	31126.78
504.13	31573.83
504.30	32348.54
504.48	31606.59
504.65	32074.70
504.83	31999.80
505.01	32437.48
505.18	32643.45
505.36	32608.34
505.53	32446.85
505.71	32507.70
505.88	33006.23
506.06	32542.81
506.23	33132.62
506.41	33095.18
506.58	33020.28
506.76	33095.18
506.93	33380.72
507.11	33261.35
507.28	33354.97
507.46	33720.10
507.63	33659.24
507.81	33673.29
507.98	33425.19
508.16	33897.98
508.33	33846.49
508.50	34125.01
508.68	34192.89
508.85	34852.92
509.03	34022.03
509.20	34209.27
509.38	34682.06
509.55	34845.90
509.73	34890.37
509.90	35309.32
510.08	34932.50
510.25	35175.91
510.42	35363.15
510.60	35718.92
510.77	35328.05
510.95	35833.60
511.12	35943.61
511.30	35618.27
511.47	35929.56
511.64	35974.03
511.82	36114.47
511.99	35747.00
512.17	36397.67
512.34	36456.18
512.51	36811.95
512.69	36168.30
512.86	36788.54
513.04	37186.43
513.21	36783.86
513.38	37359.63
513.56	36957.06
513.73	36741.73
513.90	37214.52
514.08	37102.17
514.25	37769.22
514.43	37694.33
514.60	37139.62
514.77	37930.72
514.95	37757.52
515.12	37544.53
515.29	37900.29
515.47	37752.84
515.64	38443.30
515.81	37904.98
515.99	37682.62
516.16	38157.75
516.33	38871.62
516.51	38740.55
516.68	38609.48
516.85	38651.61
517.03	38536.92
517.20	38967.58
517.37	39009.71
517.54	38801.40
517.72	38785.02
517.89	39129.08
518.06	39529.31
518.24	39447.39
518.41	39173.55
518.58	39367.81
518.75	39253.12
518.93	39585.48
519.10	39292.91
519.27	39742.30
519.45	39746.98
519.62	40678.51
519.79	39896.77
519.96	40041.88
520.14	40187.00
520.31	39779.74
520.48	40395.31
520.65	40247.85
520.83	40821.28
521.00	40753.41
521.17	40872.78
521.34	40467.86
521.52	41275.35
521.69	40685.53
521.86	40718.30
522.03	40797.88
522.20	41380.67
522.38	41881.55
522.55	40954.69
522.72	41254.28
522.89	41144.28
523.07	41303.43
523.24	41600.68
523.41	41532.81
523.58	41165.34
523.75	42234.97
523.92	41785.58
524.10	42064.11
524.27	42153.05
524.44	41954.10
524.61	42057.09
524.78	42281.78
524.96	42717.12
525.13	42576.69
525.30	43210.97
525.47	42527.53
525.64	42731.16
525.81	42960.53
525.98	42653.92
526.16	42876.27
526.33	42656.26
526.50	43559.71
526.67	43185.22
526.84	43299.91
527.01	43262.46
527.18	43463.75
527.36	43349.06
527.53	43342.04
527.70	43791.42
527.87	43711.84
528.04	44018.46
528.21	43772.70
528.38	43997.39
528.55	43812.49
528.72	43812.49
528.89	43438.00
529.07	44144.84
529.24	44107.40
529.41	43931.86
529.58	44519.33
529.75	44137.82
529.92	44589.55
530.09	44626.99
530.26	44069.95
530.43	43959.94
530.60	44374.22
530.77	44325.07
530.94	44776.79
531.11	44509.97
531.28	45102.12
531.46	44989.78
531.63	44505.29
531.80	44397.62
531.97	44975.73
532.14	45460.23
532.31	45621.72
532.48	45153.62
532.65	45949.40
532.82	45551.51
532.99	45720.02
533.16	45387.67
533.33	45207.45
533.50	45776.20
533.67	45368.94
533.84	45464.91
534.01	45682.58
534.18	45649.81
534.35	45900.25
534.52	46117.92
534.69	46361.33
534.86	45902.59
535.03	45771.52
535.20	46071.10
535.37	46279.41
535.54	46550.91
535.71	46328.56
535.88	46148.34
536.05	46239.62
536.22	46260.69
536.38	46665.60
536.55	46721.77
536.72	46775.61
536.89	46871.57
537.06	46614.11
537.23	47171.16
537.40	46815.40
537.57	46368.35
537.74	47033.07
537.91	47100.94
538.08	46981.57
538.25	47037.75
538.42	47239.03
538.59	47374.78
538.75	46951.15
538.92	47372.44
539.09	47477.77
539.26	47473.09
539.43	47552.66
539.60	47641.60
539.77	47538.62
539.94	47840.55
540.11	48423.34
540.28	47866.30
540.44	48119.07
540.61	47831.19
540.78	47854.59
540.95	47950.56
541.12	47714.16
541.29	47899.06
541.46	48570.80
541.62	48577.82
541.79	48528.67
541.96	48179.93
542.13	48219.72
542.30	48119.07
542.47	48348.45
542.63	48584.84
542.80	48512.28
542.97	49113.80
543.14	49256.57
543.31	49137.21
543.48	49066.99
543.64	48987.41
543.81	49394.67
543.98	48992.09
544.15	49200.40
544.32	49354.88
544.48	49546.80
544.65	49577.23
544.82	49301.04
544.99	49308.07
545.16	49432.11
545.32	49364.24
545.49	49617.02
545.66	50028.95
545.83	50298.11
546.00	50295.77
546.16	50115.55
546.33	50068.74
546.50	49935.33
546.67	49832.35
546.83	49610.00
547.00	49776.17
547.17	49741.06
547.34	49942.35
547.50	50047.68
547.67	50302.79
547.84	50328.54
548.00	50700.68
548.17	50483.01
548.34	50281.73
548.51	50450.25
548.67	50351.94
548.84	50272.37
549.01	50089.80
549.18	50408.12
549.34	50588.34
549.51	50527.48
549.68	50768.56
549.84	50234.92
550.01	50490.04
550.18	49984.48
550.34	50216.19
550.51	50621.11
550.68	50700.68
550.84	50220.87
551.01	50780.26
551.18	50646.85
551.34	50440.89
551.51	50436.20
551.68	50618.77
551.84	50628.13
552.01	50609.40
552.18	50546.21
552.34	50866.86
552.51	51161.77
552.68	51049.42
552.84	51107.94
553.01	51295.18
553.18	51264.75
553.34	51098.58
553.51	50937.08
553.67	51292.84
553.84	51330.29
554.01	51477.74
554.17	51398.16
554.34	51437.95
554.51	51220.28
554.67	51201.56
554.84	51700.09
555.00	51189.86
555.17	51056.45
555.33	51405.19
555.50	51159.43
555.67	51351.35
555.83	51501.15
556.00	51728.18
556.16	51807.76
556.33	51569.02
556.50	51224.96
556.66	51454.34
556.83	51370.08
556.99	51739.88
557.16	52069.90
557.32	52027.77
557.49	52285.23
557.65	51580.73
557.82	51892.02
557.98	51826.48
558.15	52093.30
558.32	52186.92
558.48	51746.90
558.65	51885.00
558.81	51950.53
558.98	51838.18
559.14	51842.87
559.31	51929.47
559.47	51772.65
559.64	52182.24
559.80	52123.73
559.97	52231.40
560.13	51777.33
560.30	51798.40
560.46	52154.16
560.63	52526.30
560.79	52727.59
560.96	52514.60
561.12	52301.61
561.29	52025.43
561.45	52538.01
561.61	52470.13
561.78	52126.07
561.94	52477.15
562.11	52451.41
562.27	52699.50
562.44	52861.00
562.60	52556.73
562.77	52320.34
562.93	52556.73
563.10	52657.37
563.26	52399.91
563.42	52779.08
563.59	52289.91
563.75	52708.86
563.92	52807.17
564.08	52739.29
564.24	52601.20
564.41	52767.38
564.57	52495.88
564.74	52594.18
564.90	52790.78
565.07	52575.45
565.23	52502.90
565.39	52636.31
565.56	53261.23
565.72	53209.74
565.88	52931.22
566.05	52605.88
566.21	52526.30
566.38	52420.98
566.54	52547.37
566.70	53183.99
566.87	53198.04
567.03	53013.13
567.19	53506.99
567.36	53139.52
567.52	52938.24
567.68	52807.17
567.85	52945.26
568.01	53186.33
568.17	53029.52
568.34	53195.70
568.50	52865.68
568.66	52687.80
568.83	53062.29
568.99	53387.62
569.15	53010.79
569.32	52989.73
569.48	53024.84
569.64	52999.09
569.81	52877.38
569.97	52893.77
570.13	53286.98
570.30	53109.10
570.46	53099.73
570.62	53256.55
570.78	53303.36
570.95	53027.18
571.11	53551.46
571.27	52844.62
571.43	53031.86
571.60	53078.67
571.76	53251.87
571.92	53078.67
572.09	53502.31
572.25	53546.78
572.41	53652.10
572.57	53495.28
572.74	53338.47
572.90	53146.54
573.06	53345.49
573.22	53226.12
573.38	53446.13
573.55	53631.04
573.71	53174.63
573.87	53511.67
574.03	53560.82
574.20	53279.96
574.36	53523.37
574.52	53743.38
574.68	53413.37
574.84	53506.99
575.01	53509.33
575.17	53780.83
575.33	53338.47
575.49	53462.52
575.65	53670.82
575.82	53588.91
575.98	53261.23
576.14	53577.20
576.30	53858.07
576.46	53062.29
576.62	53673.16
576.79	53570.18
576.95	53207.40
577.11	53694.23
577.27	53457.84
577.43	53600.61
577.59	53811.26
577.75	53614.65
577.92	53296.34
578.08	53291.66
578.24	53600.61
578.40	53579.54
578.56	53614.65
578.72	53729.34
578.88	53757.42
579.04	53797.21
579.21	53584.22
579.37	53701.25
579.53	53703.59
579.69	53567.84
579.85	53897.86
580.01	53635.72
580.17	53717.64
580.33	53598.27
580.49	53773.81
580.65	53764.45
580.82	53602.95
580.98	53717.64
581.14	53616.99
581.30	53586.57
581.46	53429.75
581.62	53778.49
581.78	53277.61
581.94	53436.77
582.10	53619.33
582.26	54246.60
582.42	53829.98
582.58	53701.25
582.74	53682.53
582.90	53797.21
583.06	53577.20
583.22	53722.32
583.38	53853.39
583.54	53418.05
583.70	53797.21
583.86	53750.40
584.02	53968.07
584.18	53813.60
584.34	54035.95
584.50	54005.52
584.66	53521.03
584.82	53738.70
584.98	53961.05
585.14	54026.59
585.30	53727.00
585.46	53914.24
585.62	53738.70
585.78	54078.08
585.94	54080.42
586.10	54007.86
586.26	53818.28
586.42	53996.16
586.58	53771.47
586.74	53909.56
586.90	53652.10
587.06	53904.88
587.22	53827.64
587.38	53937.65
587.54	53972.75
587.70	54197.44
587.86	53890.83
588.02	53916.58
588.18	54288.73
588.34	54185.74
588.49	53851.05
588.65	53930.62
