SpectraSuite Data File
++++++++++++++++++++++++++++++++++++
Date: Thu Oct 24 13:21:10 EDT 2013
User: stostad
Dark Spectrum Present: No
Reference Spectrum Present: No
Number of Sampled Component Spectra: 1
Spectrometers: USB2+H05261
Integration Time (usec): 100000 (USB2+H05261)
Spectra Averaged: 1 (USB2+H05261)
Boxcar Smoothing: 0 (USB2+H05261)
Correct for Electrical Dark: No (USB2+H05261)
Strobe/Lamp Enabled: No (USB2+H05261)
Correct for Detector Non-linearity: No (USB2+H05261)
Correct for Stray Light: No (USB2+H05261)
Number of Pixels in Processed Spectrum: 2048
>>>>>Begin Processed Spectral Data<<<<<
365.73	622.58
365.92	622.58
366.12	622.58
366.32	514.92
366.52	559.39
366.72	449.38
366.91	463.43
367.11	503.22
367.31	458.74
367.51	496.19
367.70	461.09
367.90	442.36
368.10	510.24
368.30	456.40
368.49	416.62
368.69	402.57
368.89	451.72
369.09	491.51
369.28	489.17
369.48	521.94
369.68	514.92
369.87	514.92
370.07	477.47
370.27	566.41
370.47	601.52
370.66	692.80
370.86	711.52
371.06	720.88
371.25	753.65
371.45	734.93
371.65	737.27
371.84	748.97
372.04	763.01
372.24	730.25
372.44	795.78
372.63	746.63
372.83	819.19
373.03	812.17
373.22	763.01
373.42	844.93
373.62	802.80
373.81	732.59
374.01	777.06
374.21	835.57
374.40	842.59
374.60	828.55
374.79	763.01
374.99	812.17
375.19	856.64
375.38	884.72
375.58	774.72
375.78	837.91
375.97	807.48
376.17	847.27
376.37	854.30
376.56	866.00
376.76	877.70
376.95	854.30
377.15	844.93
377.35	805.14
377.54	847.27
377.74	781.74
377.93	795.78
378.13	912.81
378.33	884.72
378.52	844.93
378.72	870.68
378.91	877.70
379.11	870.68
379.31	875.36
379.50	880.04
379.70	882.38
379.89	866.00
380.09	868.34
380.28	830.89
380.48	779.40
380.68	884.72
380.87	877.70
381.07	835.57
381.26	844.93
381.46	938.55
381.65	866.00
381.85	861.32
382.04	917.49
382.24	936.21
382.43	847.27
382.63	882.38
382.83	910.47
383.02	933.87
383.22	943.24
383.41	905.79
383.61	880.04
383.80	940.90
384.00	854.30
384.19	931.53
384.39	938.55
384.58	821.53
384.78	896.43
384.97	880.04
385.17	931.53
385.36	926.85
385.56	938.55
385.75	908.13
385.95	994.73
386.14	987.71
386.34	884.72
386.53	910.47
386.72	870.68
386.92	959.62
387.11	917.49
387.31	1015.79
387.50	1036.86
387.70	999.41
387.89	1020.47
388.09	987.71
388.28	1011.11
388.48	945.58
388.67	973.66
388.86	950.26
389.06	973.66
389.25	954.94
389.45	978.34
389.64	1015.79
389.84	950.26
390.03	1053.24
390.22	959.62
390.42	990.05
390.61	1055.58
390.81	1011.11
391.00	1078.99
391.19	968.98
391.39	1062.60
391.58	1029.84
391.78	1055.58
391.97	1046.22
392.16	1090.69
392.36	1062.60
392.55	1029.84
392.75	1055.58
392.94	1064.94
393.13	1034.52
393.33	1102.39
393.52	1076.65
393.71	1083.67
393.91	1090.69
394.10	1102.39
394.29	1123.46
394.49	1006.43
394.68	1104.73
394.88	1156.22
395.07	1135.16
395.26	1111.75
395.46	1086.01
395.65	1123.46
395.84	1135.16
396.04	1203.04
396.23	1226.44
396.42	1137.50
396.62	1226.44
396.81	1137.50
397.00	1284.95
397.19	1207.72
397.39	1172.61
397.58	1174.95
397.77	1095.37
397.97	1228.78
398.16	1261.55
398.35	1242.82
398.55	1160.91
398.74	1214.74
398.93	1252.19
399.12	1163.25
399.32	1177.29
399.51	1193.67
399.70	1231.12
399.90	1268.57
400.09	1235.80
400.28	1336.45
400.47	1268.57
400.67	1348.15
400.86	1273.25
401.05	1242.82
401.24	1221.76
401.44	1270.91
401.63	1287.29
401.82	1275.59
402.01	1296.66
402.21	1394.96
402.40	1376.24
402.59	1287.29
402.78	1284.95
402.97	1280.27
403.17	1355.17
403.36	1357.51
403.55	1341.13
403.74	1324.74
403.93	1458.15
404.13	1476.88
404.32	1472.20
404.51	1418.36
404.70	1439.43
404.89	1376.24
405.09	1444.11
405.28	1465.18
405.47	1369.21
405.66	1448.79
405.85	1488.58
406.05	1439.43
406.24	1383.26
406.43	1458.15
406.62	1441.77
406.81	1544.75
407.00	1563.48
407.20	1544.75
407.39	1479.22
407.58	1502.62
407.77	1636.03
407.96	1521.35
408.15	1570.50
408.34	1547.09
408.54	1636.03
408.73	1617.31
408.92	1516.67
409.11	1600.93
409.30	1617.31
409.49	1675.82
409.68	1694.55
409.87	1572.84
410.07	1673.48
410.26	1619.65
410.45	1680.50
410.64	1741.36
410.83	1659.44
411.02	1668.80
411.21	1750.72
411.40	1668.80
411.59	1757.74
411.78	1675.82
411.98	1668.80
412.17	1771.79
412.36	1867.75
412.55	1825.62
412.74	1912.22
412.93	1832.64
413.12	1844.34
413.31	1919.24
413.50	1867.75
413.69	1933.28
413.88	1902.86
414.07	1975.41
414.26	1937.96
414.45	1933.28
414.64	1914.56
414.83	1846.68
415.02	1989.46
415.22	2069.03
415.41	2076.06
415.60	2036.27
415.79	1968.39
415.98	1961.37
416.17	2118.18
416.36	2062.01
416.55	1973.07
416.74	2157.97
416.93	2071.37
417.12	2033.93
417.31	2125.21
417.50	2059.67
417.69	2272.66
417.88	2078.40
418.07	2111.16
418.26	2120.53
418.45	2172.02
418.64	2258.62
418.83	2263.30
419.02	2232.87
419.21	2293.72
419.39	2267.98
419.58	2214.15
419.77	2221.17
419.96	2263.30
420.15	2319.47
420.34	2331.17
420.53	2244.57
420.72	2345.22
420.91	2286.70
421.10	2342.88
421.29	2363.94
421.48	2380.32
421.67	2340.54
421.86	2228.19
422.05	2340.54
422.24	2333.51
422.43	2410.75
422.61	2408.41
422.80	2380.32
422.99	2310.11
423.18	2427.14
423.37	2396.71
423.56	2417.77
423.75	2333.51
423.94	2354.58
424.13	2211.81
424.32	2387.35
424.50	2448.20
424.69	2445.86
424.88	2490.33
425.07	2487.99
425.26	2377.98
425.45	2420.11
425.64	2401.39
425.83	2366.28
426.01	2513.74
426.20	2530.12
426.39	2424.80
426.58	2450.54
426.77	2436.50
426.96	2525.44
427.15	2487.99
427.33	2495.01
427.52	2469.27
427.71	2600.34
427.90	2452.88
428.09	2583.95
428.28	2513.74
428.46	2495.01
428.65	2551.18
428.84	2576.93
429.03	2590.97
429.22	2675.23
429.40	2562.89
429.59	2588.63
429.78	2553.52
429.97	2583.95
430.16	2614.38
430.34	2686.94
430.53	2586.29
430.72	2708.00
430.91	2644.81
431.10	2708.00
431.28	2642.46
431.47	2761.83
431.66	2743.11
431.85	2757.15
432.03	2923.33
432.22	2778.22
432.41	2715.02
432.60	2796.94
432.79	2759.49
432.97	2923.33
433.16	2775.88
433.35	2827.37
433.54	2773.53
433.72	2869.50
433.91	2864.82
434.10	2909.29
434.28	2832.05
434.47	2942.05
434.66	3000.57
434.85	3068.44
435.03	3122.27
435.22	3173.77
435.41	3419.52
435.59	3316.54
435.78	3227.60
435.97	3246.32
436.16	3033.33
436.34	3105.89
436.53	3070.78
436.72	3028.65
436.90	2984.18
437.09	3047.38
437.28	3002.91
437.46	3049.72
437.65	3061.42
437.84	3014.61
438.02	3150.36
438.21	3063.76
438.40	3126.96
438.58	3260.37
438.77	3239.30
438.96	3201.85
439.14	3248.66
439.33	3290.79
439.52	3309.52
439.70	3297.81
439.89	3318.88
440.08	3328.24
440.26	3431.23
440.45	3375.05
440.63	3325.90
440.82	3358.67
441.01	3351.65
441.19	3431.23
441.38	3431.23
441.57	3492.08
441.75	3506.12
441.94	3545.91
442.12	3613.79
442.31	3590.38
442.50	3426.54
442.68	3599.74
442.87	3510.80
443.05	3534.21
443.24	3644.21
443.43	3709.75
443.61	3639.53
443.80	3817.41
443.98	3578.68
444.17	3438.25
444.35	3824.44
444.54	3695.71
444.73	3648.90
444.91	3735.50
445.10	3723.79
445.28	3574.00
445.47	3852.52
445.65	3662.94
445.84	3695.71
446.02	3721.45
446.21	3700.39
446.39	3719.11
446.58	3812.73
446.77	3679.32
446.95	3616.13
447.14	3733.15
447.32	3838.48
447.51	3829.12
447.69	3723.79
447.88	3742.52
448.06	3808.05
448.25	3789.33
448.43	3786.99
448.62	3794.01
448.80	3735.50
448.99	3850.18
449.17	3770.60
449.36	3695.71
449.54	3801.03
449.73	3962.53
449.91	3929.76
450.10	3918.06
450.28	4028.06
450.46	3943.80
450.65	3913.38
450.83	4060.83
451.02	3981.25
451.20	3978.91
451.39	4091.26
451.57	3976.57
451.76	3999.98
451.94	3999.98
452.13	3988.27
452.31	4170.83
452.49	4084.23
452.68	4051.47
452.86	3964.87
453.05	4114.66
453.23	4119.34
453.42	4058.49
453.60	4079.55
453.78	4292.54
453.97	4081.89
454.15	4063.17
454.34	4039.76
454.52	4231.69
454.70	4255.09
454.89	4138.07
455.07	4145.09
455.26	4278.50
455.44	4294.88
455.62	4262.12
455.81	4374.46
455.99	4435.32
456.17	4358.08
456.36	4278.50
456.54	4344.03
456.73	4351.06
456.91	4482.13
457.09	4374.46
457.28	4325.31
457.46	4456.38
457.64	4423.61
457.83	4402.55
458.01	4596.81
458.19	4531.28
458.38	4482.13
458.56	4678.73
458.74	4428.29
458.93	4596.81
459.11	4528.94
459.29	4505.53
459.48	4667.03
459.66	4660.01
459.84	4648.30
460.03	4620.22
460.21	4645.96
460.39	4669.37
460.57	4627.24
460.76	4660.01
460.94	4779.37
461.12	4657.67
461.31	4713.84
461.49	4734.90
461.67	4648.30
461.85	4847.25
462.04	4830.87
462.22	5090.67
462.40	4767.67
462.59	4873.00
462.77	4887.04
462.95	4943.21
463.13	5006.41
463.32	4826.18
463.50	4828.53
463.68	4973.64
463.86	4884.70
464.05	4983.00
464.23	4950.23
464.41	5158.54
464.59	4828.53
464.78	5123.43
464.96	4947.89
465.14	4896.40
465.32	5027.47
465.50	5036.83
465.69	5156.20
465.87	5130.45
466.05	5020.45
466.23	5022.79
466.41	5102.37
466.60	5296.63
466.78	5160.88
466.96	5046.20
467.14	5032.15
467.32	5254.50
467.51	5238.12
467.69	5053.22
467.87	5210.03
468.05	5284.93
468.23	5095.35
468.41	5294.29
468.60	5324.72
468.78	5167.90
468.96	5242.80
469.14	5149.18
469.32	5390.25
469.50	5296.63
469.69	5195.99
469.87	5359.83
470.05	5343.44
470.23	5413.66
470.41	5467.49
470.59	5387.91
470.77	5338.76
470.95	5275.57
471.14	5577.50
471.32	5605.58
471.50	5624.31
471.68	5624.31
471.86	5589.20
472.04	5568.13
472.22	5685.16
472.40	5556.43
472.58	5727.29
472.77	5626.65
472.95	5696.86
473.13	5795.17
473.31	5741.33
473.49	5682.82
473.67	5834.96
473.85	5776.44
474.03	5970.71
474.21	6038.58
474.39	6012.84
474.57	6054.97
474.75	5951.98
474.93	6085.39
475.12	6052.63
475.30	6101.78
475.48	6040.92
475.66	6370.94
475.84	6167.31
476.02	6195.40
476.20	6143.91
476.38	6239.87
476.56	6377.96
476.74	6448.18
476.92	6410.73
477.10	6363.92
477.28	6609.67
477.46	6509.03
477.64	6492.65
477.82	6586.27
478.00	6700.95
478.18	6717.34
478.36	6689.25
478.54	6724.36
478.72	7045.01
478.90	7047.35
479.08	6970.12
479.26	7026.29
479.44	6937.35
479.62	7077.78
479.80	6949.05
479.98	7218.21
480.16	7211.19
480.34	7379.71
480.52	7599.72
480.70	7417.16
480.88	7265.02
481.06	7555.25
481.24	7412.48
481.41	7590.36
481.59	7618.44
481.77	7691.00
481.95	7714.41
482.13	7840.79
482.31	7681.64
482.49	8002.29
482.67	7772.92
482.85	7922.71
483.03	8217.62
483.21	8241.03
483.39	8299.54
483.57	8025.70
483.74	8390.82
483.92	8475.08
484.10	8299.54
484.28	8348.69
484.46	8428.27
484.64	8624.87
484.82	8674.03
485.00	8681.05
485.18	8762.97
485.35	8943.19
485.53	8802.75
485.71	9142.13
485.89	9053.19
486.07	8999.36
486.25	8980.64
486.43	9310.65
486.61	9280.22
486.78	9430.02
486.96	9476.83
487.14	9425.34
487.32	9193.62
487.50	9717.90
487.68	9823.23
487.85	9727.27
488.03	9823.23
488.21	9980.04
488.39	9923.87
488.57	9975.36
488.75	10162.61
488.92	10450.49
489.10	10281.97
489.28	10286.65
489.46	10633.05
489.64	10291.34
489.81	10583.90
489.99	10406.02
490.17	10548.79
490.35	10824.98
490.53	10729.02
490.70	10874.13
490.88	10965.41
491.06	10913.92
491.24	11110.52
491.41	11225.21
491.59	11250.96
491.77	11126.91
491.95	11475.65
492.13	11145.63
492.30	11602.04
492.48	11517.78
492.66	11428.84
492.84	11529.48
493.01	11829.07
493.19	11698.00
493.37	11892.26
493.54	11819.71
493.72	11861.84
493.90	11934.39
494.08	11850.13
494.25	12079.50
494.43	11976.52
494.61	12065.46
494.79	12360.37
494.96	12100.57
495.14	12348.67
495.32	12535.91
495.49	12599.10
495.67	12578.04
495.85	12601.44
496.02	12702.09
496.20	12779.32
496.38	12812.09
496.55	13006.36
496.73	13305.95
496.91	12950.18
497.09	13083.59
497.26	13324.67
497.44	13104.66
497.62	13081.25
497.79	13437.02
497.97	13345.73
498.14	13425.31
498.32	13893.42
498.50	13481.49
498.67	13645.32
498.85	13626.60
499.03	13839.59
499.20	13832.57
499.38	13797.46
499.56	13858.31
499.73	13965.98
499.91	13973.00
500.08	14005.77
500.26	13965.98
500.44	13891.08
500.61	14370.89
500.79	13909.80
500.97	14265.57
501.14	14532.39
501.32	14321.74
501.49	14366.21
501.67	14466.85
501.84	14576.86
502.02	14588.56
502.20	14490.26
502.37	14471.53
502.55	14567.49
502.72	14714.95
502.90	14588.56
503.07	14817.93
503.25	14754.74
503.43	14726.65
503.60	15133.90
503.78	15339.87
503.95	14904.53
504.13	15293.06
504.30	15314.13
504.48	14860.06
504.65	15150.29
504.83	15243.91
505.01	15714.36
505.18	15307.10
505.36	15548.18
505.53	15379.66
505.71	15592.65
505.88	15782.23
506.06	15534.14
506.23	16004.58
506.41	15627.76
506.58	15559.88
506.76	15784.57
506.93	15885.22
507.11	15903.94
507.28	15934.37
507.46	15934.37
507.63	15922.66
507.81	16334.60
507.98	16128.63
508.16	15756.49
508.33	16198.85
508.50	16498.44
508.68	16622.48
508.85	16332.26
509.03	16376.73
509.20	16407.16
509.38	16486.73
509.55	16833.13
509.73	16659.93
509.90	16856.54
510.08	16830.79
510.25	16781.64
510.42	16732.49
510.60	16737.17
510.77	17085.91
510.95	16999.31
511.12	16690.36
511.30	16938.46
511.47	17207.62
511.64	17064.85
511.82	17193.58
511.99	17130.38
512.17	16931.44
512.34	17135.06
512.51	17551.68
512.69	17401.88
512.86	17303.58
513.04	17551.68
513.21	17228.68
513.38	17497.84
513.56	17509.55
513.73	17582.10
513.90	17748.28
514.08	17668.70
514.25	18001.06
514.43	18073.62
514.60	17706.15
514.77	17565.72
514.95	17968.29
515.12	17736.58
515.29	17778.71
515.47	18087.66
515.64	18204.69
515.81	18136.81
515.99	17743.60
516.16	18148.51
516.33	18342.78
516.51	18129.79
516.68	18284.26
516.85	18317.03
517.03	18532.36
517.20	18457.46
517.37	18361.50
517.54	18501.93
517.72	18551.09
517.89	18455.12
518.06	18689.18
518.24	18565.13
518.41	18405.97
518.58	18902.17
518.75	18899.83
518.93	18721.95
519.10	18712.58
519.27	18869.40
519.45	18527.68
519.62	18911.53
519.79	18916.21
519.96	19037.92
520.14	19199.41
520.31	18909.19
520.48	18927.91
520.65	18960.68
520.83	19044.94
521.00	19396.02
521.17	19426.45
521.34	19054.30
521.52	19227.50
521.69	19475.60
521.86	19543.47
522.03	19557.52
522.20	19431.13
522.38	19524.75
522.55	19676.88
522.72	19115.16
522.89	19754.12
523.07	19838.38
523.24	19559.86
523.41	19978.81
523.58	19463.90
523.75	19901.58
523.92	19756.46
524.10	19702.63
524.27	19772.85
524.44	19917.96
524.61	19763.48
524.78	20030.30
524.96	20074.77
525.13	20247.97
525.30	20503.09
525.47	20301.81
525.64	20189.46
525.81	20276.06
525.98	20144.99
526.16	20435.22
526.33	20215.21
526.50	20451.60
526.67	20318.19
526.84	20587.35
527.01	20322.87
527.18	20283.08
527.36	20292.44
527.53	20208.19
527.70	20552.24
527.87	20690.34
528.04	20568.63
528.21	21062.48
528.38	20601.40
528.55	20776.94
528.72	20369.68
528.89	20585.01
529.07	21069.50
529.24	20947.79
529.41	20826.09
529.58	20877.58
529.75	20957.16
529.92	21003.97
530.09	21083.55
530.26	21113.97
530.43	21214.62
530.60	21060.14
530.77	20982.90
530.94	21153.76
531.11	21120.99
531.28	21097.59
531.46	21167.80
531.63	21200.57
531.80	21472.07
531.97	21113.97
532.14	21455.69
532.31	21369.09
532.48	21357.39
532.65	21507.18
532.82	21511.86
532.99	21596.12
533.16	21752.94
533.33	21743.58
533.50	21766.98
533.67	21701.45
533.84	21310.58
534.01	21902.73
534.18	21605.49
534.35	22094.66
534.52	21802.09
534.69	22043.17
534.86	21788.05
535.03	21617.19
535.20	21902.73
535.37	22174.24
535.54	22097.00
535.71	22054.87
535.88	21956.57
536.05	22223.39
536.22	21832.52
536.38	22174.24
536.55	22225.73
536.72	22003.38
536.89	22455.10
537.06	22527.66
537.23	22483.19
537.40	22405.95
537.57	22359.14
537.74	22295.94
537.91	22513.61
538.08	22377.86
538.25	22497.23
538.42	22845.97
538.59	22623.62
538.75	22445.74
538.92	22558.08
539.09	22714.90
539.26	22640.00
539.43	22857.67
539.60	22632.98
539.77	22820.22
539.94	22977.04
540.11	22923.21
540.28	23101.09
540.44	23300.03
540.61	22862.35
540.78	23049.60
540.95	23208.75
541.12	23403.02
541.29	23517.70
541.46	23386.63
541.62	23520.04
541.79	23449.83
541.96	23278.97
542.13	23503.66
542.30	23396.00
542.47	23618.35
542.63	23243.86
542.80	23637.07
542.97	24060.71
543.14	23985.81
543.31	23903.89
543.48	23388.97
543.64	23997.51
543.81	23957.72
543.98	23946.02
544.15	24023.26
544.32	24027.94
544.48	24229.23
544.65	23805.59
544.82	24077.09
544.99	23990.49
545.16	24301.78
545.32	24039.64
545.49	24498.39
545.66	25144.38
545.83	24622.44
546.00	25127.99
546.16	24737.12
546.33	24474.98
546.50	24364.98
546.67	23974.11
546.83	23316.42
547.00	23859.42
547.17	24027.94
547.34	24018.58
547.50	24308.80
547.67	24341.57
547.84	24287.74
548.00	24528.81
548.17	24423.49
548.34	24460.94
548.51	24435.19
548.67	24283.06
548.84	24133.26
549.01	24060.71
549.18	24570.94
549.34	24528.81
549.51	24517.11
549.68	24208.16
549.84	24364.98
550.01	24287.74
550.18	23995.17
550.34	24414.13
550.51	24203.48
550.68	24245.61
550.84	24046.66
551.01	24449.24
551.18	24233.91
551.34	24311.14
551.51	24587.33
551.68	24599.03
551.84	24519.45
552.01	24458.60
552.18	24524.13
552.34	24252.63
552.51	24643.50
552.68	24421.15
552.84	24446.90
553.01	24390.72
553.18	24673.93
553.34	24662.22
553.51	24524.13
553.67	24734.78
553.84	24861.17
554.01	24807.34
554.17	24725.42
554.34	24947.77
554.51	24812.02
554.67	24615.41
554.84	24601.37
555.00	24687.97
555.17	24460.94
555.33	25113.95
555.50	24552.22
555.67	25057.78
555.83	24898.62
556.00	24847.13
556.16	25118.63
556.33	24905.64
556.50	24793.29
556.66	25123.31
556.83	24730.10
556.99	24603.71
557.16	25305.87
557.32	25411.20
557.49	25165.44
557.65	25034.37
557.82	25113.95
557.98	25010.96
558.15	25146.72
558.32	24994.58
558.48	25039.05
558.65	25280.13
558.81	25261.40
558.98	25191.19
559.14	25376.09
559.31	25404.17
559.47	25298.85
559.64	24992.24
559.80	25238.00
559.97	25221.61
560.13	24886.92
560.30	24847.13
560.46	24776.91
560.63	25245.02
560.79	25137.35
560.96	25408.86
561.12	25652.27
561.29	25530.56
561.45	25181.82
561.61	25696.74
561.78	25268.42
561.94	25298.85
562.11	25448.64
562.27	25603.12
562.44	25488.43
562.60	25439.28
562.77	25376.09
562.93	25228.63
563.10	25603.12
563.26	25392.47
563.42	25495.46
563.59	25458.01
563.75	25652.27
563.92	25504.82
564.08	25516.52
564.24	25635.89
564.41	25371.41
564.57	25661.63
564.74	25532.90
564.90	25586.74
565.07	25582.06
565.23	25479.07
565.39	25418.22
565.56	25881.64
565.72	25605.46
565.88	25383.11
566.05	25614.82
566.21	25502.48
566.38	25572.69
566.54	25605.46
566.70	25469.71
566.87	25841.85
567.03	25909.73
567.19	25879.30
567.36	25570.35
567.52	25589.08
567.68	25633.55
567.85	25455.67
568.01	25710.78
568.17	25476.73
568.34	25663.97
568.50	25755.26
568.66	25502.48
568.83	25766.96
568.99	25413.54
569.15	25759.94
569.32	25766.96
569.48	25530.56
569.64	25703.76
569.81	25701.42
569.97	25652.27
570.13	25523.54
570.30	25401.83
570.46	25692.06
570.62	25958.88
570.78	25406.52
570.95	25792.70
571.11	25970.58
571.27	25977.61
571.43	25731.85
571.60	25617.16
571.76	25982.29
571.92	25956.54
572.09	25834.83
572.25	25582.06
572.41	26106.34
572.57	26148.46
572.74	26637.64
572.90	25762.28
573.06	25893.35
573.22	25998.67
573.38	25869.94
573.55	25745.89
573.71	25661.63
573.87	25879.30
574.03	26008.03
574.20	25942.50
574.36	25773.98
574.52	25673.34
574.68	26026.76
574.84	25970.58
575.01	25905.05
575.17	26244.43
575.33	25542.27
575.49	25956.54
575.65	26057.18
575.82	25673.34
575.98	26120.38
576.14	26157.83
576.30	26307.62
576.46	25923.77
576.62	26169.53
576.79	26139.10
576.95	26211.66
577.11	25982.29
577.27	26384.86
577.43	25869.94
577.59	25930.80
577.75	26380.18
577.92	25783.34
578.08	26232.72
578.24	26061.87
578.40	26319.32
578.56	26438.69
578.72	26995.74
578.88	26611.89
579.04	26370.82
579.21	26253.79
579.37	26450.39
579.53	26515.93
579.69	26347.41
579.85	26015.05
580.01	26181.23
580.17	25895.69
580.33	26139.10
580.49	26115.70
580.65	26293.58
580.82	26038.46
580.98	26005.69
581.14	25898.03
581.30	26197.62
581.46	25827.81
581.62	25902.71
581.78	26073.57
581.94	25612.48
582.10	25645.25
582.26	26230.38
582.42	25802.07
582.58	26265.49
582.74	26073.57
582.90	26122.72
583.06	26295.92
583.22	26164.85
583.38	26206.98
583.54	26335.71
583.70	26092.29
583.86	26546.36
584.02	25827.81
584.18	26485.50
584.34	26429.33
584.50	26094.63
584.66	25916.75
584.82	26197.62
584.98	26403.58
585.14	26391.88
585.30	26326.35
585.46	26118.04
585.62	26302.94
585.78	26204.64
585.94	26136.76
586.10	25968.24
586.26	26253.79
586.42	26204.64
586.58	26466.78
586.74	26349.75
586.90	26314.64
587.06	25989.31
587.22	26480.82
587.38	26169.53
587.54	26504.23
587.70	26450.39
587.86	26548.70
588.02	26541.68
588.18	26272.51
588.34	26160.17
588.49	26096.97
588.65	26260.81
588.81	26057.18
588.97	26405.92
589.13	26256.13
589.29	26513.59
589.45	26295.92
589.61	26398.90
589.77	26429.33
589.93	26478.48
590.08	26368.48
590.24	26415.29
590.40	26544.02
590.56	26333.37
590.72	26068.89
