SpectraSuite Data File
++++++++++++++++++++++++++++++++++++
Date: Thu Oct 24 13:21:13 EDT 2013
User: stostad
Dark Spectrum Present: No
Reference Spectrum Present: No
Number of Sampled Component Spectra: 1
Spectrometers: USB2+H05261
Integration Time (usec): 100000 (USB2+H05261)
Spectra Averaged: 1 (USB2+H05261)
Boxcar Smoothing: 0 (USB2+H05261)
Correct for Electrical Dark: No (USB2+H05261)
Strobe/Lamp Enabled: No (USB2+H05261)
Correct for Detector Non-linearity: No (USB2+H05261)
Correct for Stray Light: No (USB2+H05261)
Number of Pixels in Processed Spectrum: 2048
>>>>>Begin Processed Spectral Data<<<<<
365.73	566.41
365.92	566.41
366.12	566.41
366.32	472.79
366.52	500.87
366.72	486.83
366.91	400.23
367.11	428.32
367.31	409.59
367.51	458.74
367.70	458.74
367.90	416.62
368.10	449.38
368.30	528.96
368.49	475.13
368.69	472.79
368.89	418.96
369.09	514.92
369.28	554.71
369.48	493.85
369.68	456.40
369.87	507.90
370.07	484.49
370.27	521.94
370.47	517.26
370.66	685.78
370.86	627.26
371.06	709.18
371.25	685.78
371.45	704.50
371.65	711.52
371.84	699.82
372.04	713.86
372.24	727.91
372.44	676.41
372.63	786.42
372.83	702.16
373.03	753.65
373.22	758.33
373.42	746.63
373.62	819.19
373.81	770.04
374.01	739.61
374.21	744.29
374.40	812.17
374.60	877.70
374.79	781.74
374.99	802.80
375.19	809.83
375.38	793.44
375.58	767.70
375.78	800.46
375.97	755.99
376.17	877.70
376.37	798.12
376.56	856.64
376.76	779.40
376.95	849.61
377.15	779.40
377.35	833.23
377.54	851.96
377.74	800.46
377.93	744.29
378.13	849.61
378.33	844.93
378.52	830.89
378.72	819.19
378.91	868.34
379.11	767.70
379.31	793.44
379.50	791.10
379.70	847.27
379.89	851.96
380.09	786.42
380.28	765.36
380.48	844.93
380.68	849.61
380.87	901.11
381.07	854.30
381.26	887.06
381.46	802.80
381.65	791.10
381.85	809.83
382.04	854.30
382.24	863.66
382.43	847.27
382.63	887.06
382.83	828.55
383.02	912.81
383.22	877.70
383.41	774.72
383.61	950.26
383.80	882.38
384.00	887.06
384.19	840.25
384.39	833.23
384.58	891.74
384.78	875.36
384.97	849.61
385.17	917.49
385.36	880.04
385.56	882.38
385.75	917.49
385.95	854.30
386.14	915.15
386.34	891.74
386.53	880.04
386.72	926.85
386.92	901.11
387.11	903.45
387.31	954.94
387.50	861.32
387.70	847.27
387.89	973.66
388.09	992.39
388.28	940.90
388.48	901.11
388.67	882.38
388.86	917.49
389.06	961.96
389.25	968.98
389.45	931.53
389.64	901.11
389.84	966.64
390.03	973.66
390.22	1001.75
390.42	1032.18
390.61	959.62
390.81	943.24
391.00	990.05
391.19	985.37
391.39	943.24
391.58	1032.18
391.78	1041.54
391.97	1008.77
392.16	992.39
392.36	992.39
392.55	1025.15
392.75	1011.11
392.94	978.34
393.13	1086.01
393.33	1015.79
393.52	987.71
393.71	1062.60
393.91	1109.41
394.10	973.66
394.29	992.39
394.49	1001.75
394.68	1074.31
394.88	1015.79
395.07	1022.81
395.26	1062.60
395.46	1064.94
395.65	1100.05
395.84	1083.67
396.04	1102.39
396.23	1081.33
396.42	1032.18
396.62	1071.97
396.81	1069.62
397.00	1076.65
397.19	1043.88
397.39	1116.44
397.58	1123.46
397.77	1142.18
397.97	1228.78
398.16	1203.04
398.35	1121.12
398.55	1057.92
398.74	1233.46
398.93	1203.04
399.12	1181.97
399.32	1156.22
399.51	1146.86
399.70	1181.97
399.90	1160.91
400.09	1203.04
400.28	1191.33
400.47	1165.59
400.67	1249.85
400.86	1193.67
401.05	1200.69
401.24	1259.21
401.44	1217.08
401.63	1188.99
401.82	1207.72
402.01	1238.14
402.21	1306.02
402.40	1273.25
402.59	1259.21
402.78	1200.69
402.97	1336.45
403.17	1261.55
403.36	1231.12
403.55	1191.33
403.74	1350.49
403.93	1406.66
404.13	1341.13
404.32	1383.26
404.51	1336.45
404.70	1338.79
404.89	1364.53
405.09	1390.28
405.28	1418.36
405.47	1317.72
405.66	1394.96
405.85	1409.00
406.05	1355.17
406.24	1432.41
406.43	1336.45
406.62	1343.47
406.81	1465.18
407.00	1458.15
407.20	1451.13
407.39	1406.66
407.58	1465.18
407.77	1500.28
407.96	1425.39
408.15	1418.36
408.34	1399.64
408.54	1540.07
408.73	1423.05
408.92	1570.50
409.11	1481.56
409.30	1617.31
409.49	1446.45
409.68	1530.71
409.87	1547.09
410.07	1607.95
410.26	1584.54
410.45	1591.56
410.64	1561.14
410.83	1575.18
411.02	1549.43
411.21	1638.38
411.40	1610.29
411.59	1668.80
411.78	1675.82
411.98	1579.86
412.17	1710.93
412.36	1556.46
412.55	1643.06
412.74	1741.36
412.93	1743.70
413.12	1673.48
413.31	1778.81
413.50	1762.42
413.69	1717.95
413.88	1708.59
414.07	1703.91
414.26	1739.02
414.45	1746.04
414.64	1879.45
414.83	1853.70
415.02	1842.00
415.22	1797.53
415.41	1839.66
415.60	1783.49
415.79	1825.62
415.98	1921.58
416.17	1942.64
416.36	1998.82
416.55	1867.75
416.74	1954.35
416.93	1970.73
417.12	2003.50
417.31	2005.84
417.50	1966.05
417.69	2010.52
417.88	1930.94
418.07	2008.18
418.26	2090.10
418.45	2019.88
418.64	2197.76
418.83	1977.75
419.02	2029.24
419.21	2024.56
419.39	2113.50
419.58	2092.44
419.77	2054.99
419.96	2160.31
420.15	2127.55
420.34	2148.61
420.53	2087.76
420.72	2165.00
420.91	2204.78
421.10	2115.84
421.29	2193.08
421.48	2094.78
421.67	2169.68
421.86	2265.64
422.05	2174.36
422.24	2141.59
422.43	2186.06
422.61	2225.85
422.80	2326.49
422.99	2251.60
423.18	2221.17
423.37	2361.60
423.56	2202.44
423.75	2326.49
423.94	2223.51
424.13	2211.81
424.32	2207.13
424.50	2457.56
424.69	2265.64
424.88	2253.94
425.07	2139.25
425.26	2097.12
425.45	2223.51
425.64	2258.62
425.83	2270.32
426.01	2214.15
426.20	2214.15
426.39	2324.15
426.58	2291.38
426.77	2331.17
426.96	2307.77
427.15	2221.17
427.33	2326.49
427.52	2333.51
427.71	2317.13
427.90	2448.20
428.09	2331.17
428.28	2410.75
428.46	2340.54
428.65	2260.96
428.84	2459.90
429.03	2408.41
429.22	2265.64
429.40	2457.56
429.59	2361.60
429.78	2342.88
429.97	2356.92
430.16	2452.88
430.34	2469.27
430.53	2445.86
430.72	2373.30
430.91	2480.97
431.10	2497.35
431.28	2569.91
431.47	2527.78
431.66	2490.33
431.85	2492.67
432.03	2539.48
432.22	2513.74
432.41	2569.91
432.60	2555.86
432.79	2513.74
432.97	2612.04
433.16	2539.48
433.35	2572.25
433.54	2663.53
433.72	2586.29
433.91	2581.61
434.10	2644.81
434.28	2583.95
434.47	2736.09
434.66	2801.62
434.85	2750.13
435.03	2920.99
435.22	2920.99
435.41	3227.60
435.59	3190.15
435.78	3007.59
435.97	3059.08
436.16	2841.41
436.34	2813.32
436.53	2918.65
436.72	2834.39
436.90	2670.55
437.09	2841.41
437.28	2752.47
437.46	2759.49
437.65	2785.24
437.84	3038.02
438.02	2965.46
438.21	2871.84
438.40	2885.88
438.58	2953.76
438.77	3045.04
438.96	2958.44
439.14	3084.83
439.33	2981.84
439.52	3005.25
439.70	3068.44
439.89	3103.55
440.08	2963.12
440.26	3124.62
440.45	3012.27
440.63	3157.38
440.82	3145.68
441.01	3148.02
441.19	3077.80
441.38	3227.60
441.57	3150.36
441.75	3218.24
441.94	3353.99
442.12	3293.13
442.31	3337.60
442.50	3330.58
442.68	3178.45
442.87	3311.86
443.05	3211.22
443.24	3206.53
443.43	3267.39
443.61	3379.73
443.80	3375.05
443.98	3314.20
444.17	3204.19
444.35	3372.71
444.54	3370.37
444.73	3330.58
444.91	3309.52
445.10	3274.41
445.28	3426.54
445.47	3251.00
445.65	3243.98
445.84	3463.99
446.02	3487.40
446.21	3379.73
446.39	3410.16
446.58	3463.99
446.77	3431.23
446.95	3332.92
447.14	3386.76
447.32	3487.40
447.51	3426.54
447.69	3421.86
447.88	3321.22
448.06	3274.41
448.25	3353.99
448.43	3377.39
448.62	3414.84
448.80	3485.06
448.99	3471.01
449.17	3471.01
449.36	3440.59
449.54	3679.32
449.73	3609.11
449.91	3548.25
450.10	3609.11
450.28	3564.64
450.46	3674.64
450.65	3574.00
450.83	3581.02
451.02	3618.47
451.20	3599.74
451.39	3564.64
451.57	3473.36
451.76	3569.32
451.94	3585.70
452.13	3756.56
452.31	3595.06
452.49	3688.68
452.68	3742.52
452.86	3730.81
453.05	3798.69
453.23	3662.94
453.42	3744.86
453.60	3627.83
453.78	3786.99
453.97	3777.62
454.15	3730.81
454.34	3592.72
454.52	3789.33
454.70	3878.27
454.89	3819.75
455.07	3749.54
455.26	3700.39
455.44	3885.29
455.62	4025.72
455.81	3904.01
455.99	3840.82
456.17	3943.80
456.36	3840.82
456.54	4044.45
456.73	3976.57
456.91	4093.60
457.09	3922.74
457.28	4042.11
457.46	4028.06
457.64	4065.51
457.83	3992.95
458.01	4046.79
458.19	4035.08
458.38	3885.29
458.56	4205.94
458.74	4098.28
458.93	4140.41
459.11	4119.34
459.29	4147.43
459.48	4243.39
459.66	4173.18
459.84	4049.13
460.03	4245.73
460.21	4304.25
460.39	4217.65
460.57	4355.74
460.76	4147.43
460.94	4318.29
461.12	4194.24
461.31	4234.03
461.49	4222.33
461.67	4168.49
461.85	4271.48
462.04	4339.35
462.22	4770.01
462.40	4339.35
462.59	4437.66
462.77	4397.87
462.95	4404.89
463.13	4447.02
463.32	4442.34
463.50	4484.47
463.68	4442.34
463.86	4451.70
464.05	4568.73
464.23	4409.57
464.41	4447.02
464.59	4486.81
464.78	4528.94
464.96	4559.36
465.14	4449.36
465.32	4547.66
465.50	4657.67
465.69	4571.07
465.87	4468.08
466.05	4634.26
466.23	4557.02
466.41	4582.77
466.60	4744.27
466.78	4624.90
466.96	4678.73
467.14	4620.22
467.32	4718.52
467.51	4585.11
467.69	4643.62
467.87	4692.77
468.05	4748.95
468.23	4690.43
468.41	4636.60
468.60	4657.67
468.78	4861.29
468.96	4819.16
469.14	4847.25
469.32	4802.78
469.50	4760.65
469.69	4896.40
469.87	4828.53
470.05	4901.08
470.23	4793.42
470.41	4856.61
470.59	5085.98
470.77	4901.08
470.95	4983.00
471.14	5074.28
471.32	4802.78
471.50	5032.15
471.68	4910.44
471.86	5102.37
472.04	5043.85
472.22	5170.24
472.40	5064.92
472.58	5139.82
472.77	5163.22
472.95	5114.07
473.13	5308.34
473.31	5149.18
473.49	5139.82
473.67	5308.34
473.85	5184.29
474.03	5254.50
474.21	5331.74
474.39	5488.56
474.57	5378.55
474.75	5341.10
474.93	5488.56
475.12	5427.70
475.30	5418.34
475.48	5397.28
475.66	5586.86
475.84	5582.18
476.02	5563.45
476.20	5528.35
476.38	5614.95
476.56	5720.27
476.74	5746.02
476.92	5757.72
477.10	5605.58
477.28	5738.99
477.46	5837.30
477.64	5879.43
477.82	5998.79
478.00	6059.65
478.18	6064.33
478.36	5961.34
478.54	6136.88
478.72	6083.05
478.90	6279.66
479.08	6211.78
479.26	6387.32
479.44	6319.45
479.62	6312.42
479.80	6380.30
479.98	6396.68
480.16	6541.80
480.34	6399.02
480.52	6579.25
480.70	6612.01
480.88	6424.77
481.06	6415.41
481.24	6780.53
481.41	6656.48
481.59	6836.70
481.77	6829.68
481.95	6892.88
482.13	6963.09
482.31	6981.82
482.49	7112.89
482.67	7140.97
482.85	7108.21
483.03	7258.00
483.21	7066.08
483.39	7482.69
483.57	7239.28
483.74	7349.28
483.92	7274.38
484.10	7482.69
484.28	7588.02
484.46	7791.64
484.64	7751.85
484.82	7686.32
485.00	7960.16
485.18	7889.95
485.35	8145.06
485.53	8133.36
485.71	8100.59
485.89	8365.07
486.07	8067.83
486.25	8226.98
486.43	8294.86
486.61	8217.62
486.78	8191.88
486.96	8355.71
487.14	8514.87
487.32	8489.12
487.50	8744.24
487.68	8456.36
487.85	8648.28
488.03	8840.20
488.21	8975.95
488.39	8821.48
488.57	9025.11
488.75	9067.24
488.92	9097.66
489.10	9102.34
489.28	9160.86
489.46	9348.10
489.64	9153.84
489.81	9657.05
489.99	9413.63
490.17	9504.92
490.35	9624.28
490.53	9561.09
490.70	9781.10
490.88	9638.33
491.06	9827.91
491.24	9565.77
491.41	9982.38
491.59	9921.53
491.77	10071.33
491.95	10153.24
492.13	10139.20
492.30	10197.71
492.48	10087.71
492.66	10335.81
492.84	10244.52
493.01	10314.74
493.19	10235.16
493.37	10434.11
493.54	10410.70
493.72	10621.35
493.90	10574.54
494.08	10738.38
494.25	10789.87
494.43	10700.93
494.61	10850.72
494.79	10981.79
494.96	10949.03
495.14	10956.05
495.32	11014.56
495.49	11234.57
495.67	11473.31
495.85	11143.29
496.02	11108.18
496.20	11447.56
496.38	11468.62
496.55	11370.32
496.73	11707.36
496.91	11679.27
497.09	11599.70
497.26	11756.51
497.44	11789.28
497.62	11634.80
497.79	11793.96
497.97	11892.26
498.14	12084.19
498.32	11852.47
498.50	12018.65
498.67	12037.38
498.85	12126.32
499.03	12030.35
499.20	12142.70
499.38	12093.55
499.56	12095.89
499.73	12243.34
499.91	12500.80
500.08	12444.63
500.26	12393.14
500.44	12329.94
500.61	12423.56
500.79	12524.21
500.97	12666.98
501.14	12891.67
501.32	12788.69
501.49	12734.85
501.67	12786.35
501.84	12779.32
502.02	12720.81
502.20	12823.80
502.37	12940.82
502.55	12835.50
502.72	13022.74
502.90	13043.81
503.07	12952.52
503.25	13345.73
503.43	12964.23
503.60	13165.51
503.78	13369.14
503.95	13102.32
504.13	13509.57
504.30	13575.11
504.48	13427.65
504.65	13603.19
504.83	13577.45
505.01	13544.68
505.18	13502.55
505.36	13804.48
505.53	13462.76
505.71	13720.22
505.88	13830.23
506.06	13741.29
506.23	13877.04
506.41	13563.40
506.58	13710.86
506.76	13937.89
506.93	14026.83
507.11	13867.67
507.28	14160.24
507.46	14214.07
507.63	14022.15
507.81	14005.77
507.98	13989.38
508.16	14314.72
508.33	14324.08
508.50	14244.50
508.68	14600.26
508.85	14691.54
509.03	14703.25
509.20	14366.21
509.38	14843.68
509.55	14611.96
509.73	14703.25
509.90	14902.19
510.08	14684.52
510.25	14546.43
510.42	14909.21
510.60	14644.73
510.77	14675.16
510.95	14951.34
511.12	15028.58
511.30	14965.39
511.47	14939.64
511.64	15068.37
511.82	15042.62
511.99	15180.71
512.17	15119.86
512.34	15030.92
512.51	15241.57
512.69	15236.89
512.86	15307.10
513.04	15585.63
513.21	15449.88
513.38	15449.88
513.56	15489.67
513.73	15447.54
513.90	15721.38
514.08	15653.50
514.25	15777.55
514.43	15756.49
514.60	15793.94
514.77	15634.78
514.95	15623.08
515.12	15702.65
515.29	16128.63
515.47	15983.52
515.64	16320.56
515.81	15791.59
515.99	15885.22
516.16	16180.12
516.33	16264.38
516.51	16184.80
516.68	15894.58
516.85	16121.61
517.03	16123.95
517.20	16035.01
517.37	16088.84
517.54	16493.76
517.72	16198.85
517.89	16049.05
518.06	16343.96
518.24	16500.78
518.41	16283.11
518.58	16381.41
518.75	16280.77
518.93	16634.19
519.10	16388.43
519.27	16608.44
519.45	16737.17
519.62	16865.90
519.79	16535.88
519.96	16388.43
520.14	16519.50
520.31	16638.87
520.48	16702.06
520.65	16926.75
520.83	17132.72
521.00	17043.78
521.17	17050.80
521.34	16795.68
521.52	17212.30
521.69	17036.76
521.86	17151.45
522.03	17170.17
522.20	17504.87
522.38	17441.67
522.55	17570.40
522.72	17270.81
522.89	17394.86
523.07	17249.75
523.24	17165.49
523.41	17455.72
523.58	17254.43
523.75	17486.14
523.92	17338.69
524.10	17659.34
524.27	17472.10
524.44	17685.09
524.61	17734.24
524.78	17467.42
524.96	17561.04
525.13	17689.77
525.30	17535.29
525.47	17722.54
525.64	18045.53
525.81	17881.69
525.98	17916.80
526.16	17977.65
526.33	17558.70
526.50	17867.65
526.67	18015.10
526.84	18071.28
527.01	17937.87
527.18	18183.62
527.36	17980.00
527.53	18176.60
527.70	17937.87
527.87	18174.26
528.04	18129.79
528.21	18434.06
528.38	18326.39
528.55	18104.04
528.72	18244.48
528.89	18223.41
529.07	18080.64
529.24	17963.61
529.41	18614.28
529.58	18719.60
529.75	18436.40
529.92	18466.83
530.09	18265.54
530.26	18286.61
530.43	18375.55
530.60	18455.12
530.77	18434.06
530.94	18675.13
531.11	18609.60
531.28	18391.93
531.46	18684.50
531.63	18796.84
531.80	18604.92
531.97	18663.43
532.14	18754.71
532.31	18843.65
532.48	19073.03
532.65	19096.43
532.82	18740.67
532.99	18752.37
533.16	18490.23
533.33	18977.06
533.50	18869.40
533.67	19075.37
533.84	18757.05
534.01	18923.23
534.18	19166.65
534.35	19257.93
534.52	19119.84
534.69	19318.78
534.86	19136.22
535.03	18586.19
535.20	19138.56
535.37	19396.02
535.54	19211.12
535.71	19199.41
535.88	19248.57
536.05	19192.39
536.22	19548.15
536.38	19454.53
536.55	19653.48
536.72	19466.24
536.89	19389.00
537.06	19639.44
537.23	19693.27
537.40	19700.29
537.57	19524.75
537.74	19433.47
537.91	19831.36
538.08	19300.06
538.25	19557.52
538.42	19896.89
538.59	19627.73
538.75	19618.37
538.92	19882.85
539.09	19805.61
539.26	19782.21
539.43	19903.92
539.60	19777.53
539.77	20203.50
539.94	19831.36
540.11	20018.60
540.28	20170.74
540.44	20060.73
540.61	20006.90
540.78	20077.12
540.95	20215.21
541.12	20451.60
541.29	20432.88
541.46	20648.21
541.62	20505.43
541.79	20760.55
541.96	20671.61
542.13	20355.64
542.30	20482.03
542.47	20320.53
542.63	20936.09
542.80	20613.10
542.97	20790.98
543.14	21036.74
543.31	20926.73
543.48	21043.76
543.64	21022.69
543.81	20924.39
543.98	21043.76
544.15	20940.77
544.32	21020.35
544.48	20992.26
544.65	20741.83
544.82	21144.40
544.99	20720.76
545.16	21071.84
545.32	21160.78
545.49	21792.73
545.66	22181.26
545.83	22118.06
546.00	21970.61
546.16	21699.11
546.33	21345.69
546.50	21027.37
546.67	21633.57
546.83	20650.55
547.00	21050.78
547.17	20931.41
547.34	21102.27
547.50	21048.44
547.67	21245.04
547.84	20802.68
548.00	21186.53
548.17	21249.72
548.34	20886.94
548.51	21109.29
548.67	21048.44
548.84	21120.99
549.01	21120.99
549.18	21345.69
549.34	21284.83
549.51	21301.22
549.68	21312.92
549.84	21179.51
550.01	21462.71
550.18	21097.59
550.34	21167.80
550.51	21137.38
550.68	21455.69
550.84	20891.62
551.01	21476.76
551.18	20980.56
551.34	20957.16
551.51	20945.45
551.68	21678.04
551.84	21099.93
552.01	20992.26
552.18	21333.98
552.34	21303.56
552.51	21621.87
552.68	21425.26
552.84	21256.75
553.01	21242.70
553.18	21394.84
553.34	21413.56
553.51	21312.92
553.67	21359.73
553.84	21891.03
554.01	21509.52
554.17	21748.26
554.34	21937.84
554.51	21514.20
554.67	21518.89
554.84	21315.26
555.00	21556.33
555.17	21144.40
555.33	21530.59
555.50	21879.33
555.67	21537.61
555.83	21397.18
556.00	21795.07
556.16	21956.57
556.33	21666.34
556.50	21855.92
556.66	21678.04
556.83	21572.72
556.99	21493.14
557.16	21673.36
557.32	21774.00
557.49	22148.49
557.65	21635.91
557.82	21844.22
557.98	21673.36
558.15	21774.00
558.32	21638.25
558.48	21912.10
558.65	21766.98
558.81	21919.12
558.98	21799.75
559.14	21818.47
559.31	21874.65
559.47	21481.44
559.64	21795.07
559.80	21802.09
559.97	21666.34
560.13	21951.88
560.30	21825.50
560.46	21769.32
560.63	21799.75
560.79	21839.54
560.96	21975.29
561.12	21982.31
561.29	21940.18
561.45	21930.82
561.61	22178.92
561.78	21813.79
561.94	22221.05
562.11	22225.73
562.27	22160.19
562.44	21963.59
562.60	22237.43
562.77	22148.49
562.93	22197.64
563.10	21809.11
563.26	21886.35
563.42	22469.14
563.59	22572.13
563.75	21947.20
563.92	22010.40
564.08	22235.09
564.24	22654.05
564.41	22143.81
564.57	22312.33
564.74	22249.13
564.90	22118.06
565.07	22162.53
565.23	22415.31
565.39	22148.49
565.56	22141.47
565.72	22059.55
565.88	22342.75
566.05	22424.67
566.21	22087.64
566.38	22281.90
566.54	22321.69
566.70	22363.82
566.87	22572.13
567.03	22448.08
567.19	22160.19
567.36	22389.56
567.52	22188.28
567.68	22136.79
567.85	22295.94
568.01	22356.80
568.17	22258.49
568.34	22188.28
568.50	22377.86
568.66	22368.50
568.83	22487.87
568.99	22146.15
569.15	22003.38
569.32	22120.40
569.48	22775.75
569.64	22223.39
569.81	22324.03
569.97	22195.30
570.13	22359.14
570.30	22324.03
570.46	22345.09
570.62	22434.03
570.78	22171.89
570.95	22436.38
571.11	22731.28
571.27	22185.94
571.43	21986.99
571.60	22281.90
571.76	22417.65
571.92	22485.53
572.09	22593.19
572.25	22717.24
572.41	22876.40
572.57	22441.06
572.74	22700.86
572.90	22230.41
573.06	22649.36
573.22	22450.42
573.38	22759.37
573.55	22602.55
573.71	22515.95
573.87	22586.17
574.03	22237.43
574.20	22256.15
574.36	22328.71
574.52	22235.09
574.68	22375.52
574.84	22396.59
575.01	22590.85
575.17	22398.93
575.33	22632.98
575.49	22167.21
575.65	22569.79
575.82	22537.02
575.98	22408.29
576.14	22834.27
576.30	22721.92
576.46	22911.50
576.62	22623.62
576.79	22651.70
576.95	22630.64
577.11	22424.67
577.27	22869.37
577.43	22649.36
577.59	22740.64
577.75	22471.48
577.92	22515.95
578.08	22398.93
578.24	22764.05
578.40	22281.90
578.56	22562.76
578.72	22654.05
578.88	22759.37
579.04	22892.78
579.21	22782.77
579.37	22684.47
579.53	22539.36
579.69	22302.96
579.85	22668.09
580.01	22558.08
580.17	22569.79
580.33	22616.60
580.49	22993.42
580.65	22459.78
580.82	22869.37
580.98	22314.67
581.14	22696.17
581.30	22668.09
581.46	22309.99
581.62	22522.98
581.78	22387.22
581.94	22661.07
582.10	22319.35
582.26	22345.09
582.42	22445.74
582.58	22441.06
582.74	22534.68
582.90	22590.85
583.06	22691.49
583.22	22576.81
583.38	22843.63
583.54	22764.05
583.70	22700.86
583.86	22422.33
584.02	22396.59
584.18	22967.68
584.34	22518.29
584.50	22750.01
584.66	22424.67
584.82	22628.30
584.98	22670.43
585.14	22759.37
585.30	22693.83
585.46	22443.40
585.62	22600.21
585.78	22878.74
585.94	22590.85
586.10	22672.77
586.26	22567.45
586.42	22558.08
586.58	22490.21
586.74	22569.79
586.90	22679.79
587.06	22546.38
587.22	22920.87
587.38	22738.30
587.54	23180.67
587.70	22815.54
587.86	23108.11
588.02	22614.26
588.18	22874.06
588.34	22546.38
588.49	22888.10
588.65	22265.52
588.81	22476.16
588.97	22565.10
589.13	22281.90
589.29	22731.28
589.45	22780.43
589.61	22862.35
589.77	22757.03
589.93	22787.46
590.08	22801.50
590.24	22923.21
590.40	23035.55
590.56	23023.85
590.72	22476.16
590.88	22890.44
591.04	22750.01
