SpectraSuite Data File
++++++++++++++++++++++++++++++++++++
Date: Thu Oct 24 13:21:25 EDT 2013
User: stostad
Dark Spectrum Present: No
Reference Spectrum Present: No
Number of Sampled Component Spectra: 1
Spectrometers: USB2+H05261
Integration Time (usec): 100000 (USB2+H05261)
Spectra Averaged: 1 (USB2+H05261)
Boxcar Smoothing: 0 (USB2+H05261)
Correct for Electrical Dark: No (USB2+H05261)
Strobe/Lamp Enabled: No (USB2+H05261)
Correct for Detector Non-linearity: No (USB2+H05261)
Correct for Stray Light: No (USB2+H05261)
Number of Pixels in Processed Spectrum: 2048
>>>>>Begin Processed Spectral Data<<<<<
365.73	580.45
365.92	580.45
366.12	580.45
366.32	470.45
366.52	505.56
366.72	500.87
366.91	414.27
367.11	456.40
367.31	430.66
367.51	498.53
367.70	458.74
367.90	475.13
368.10	461.09
368.30	449.38
368.49	393.21
368.69	519.60
368.89	512.58
369.09	535.98
369.28	500.87
369.48	498.53
369.68	503.22
369.87	547.69
370.07	528.96
370.27	519.60
370.47	660.03
370.66	842.59
370.86	903.45
371.06	950.26
371.25	1043.88
371.45	973.66
371.65	966.64
371.84	1029.84
372.04	1015.79
372.24	1001.75
372.44	1008.77
372.63	1097.71
372.83	1107.07
373.03	968.98
373.22	1128.14
373.42	1062.60
373.62	1104.73
373.81	1128.14
374.01	1111.75
374.21	1076.65
374.40	1135.16
374.60	1032.18
374.79	1128.14
374.99	1128.14
375.19	1123.46
375.38	1191.33
375.58	1116.44
375.78	1100.05
375.97	1177.29
376.17	1107.07
376.37	1163.25
376.56	1139.84
376.76	1174.95
376.95	1228.78
377.15	1118.78
377.35	1233.46
377.54	1160.91
377.74	1158.57
377.93	1268.57
378.13	1259.21
378.33	1228.78
378.52	1273.25
378.72	1256.87
378.91	1191.33
379.11	1240.48
379.31	1270.91
379.50	1212.40
379.70	1256.87
379.89	1203.04
380.09	1270.91
380.28	1214.74
380.48	1322.40
380.68	1301.34
380.87	1306.02
381.07	1308.36
381.26	1306.02
381.46	1277.93
381.65	1277.93
381.85	1331.76
382.04	1320.06
382.24	1352.83
382.43	1306.02
382.63	1371.55
382.83	1240.48
383.02	1322.40
383.22	1296.66
383.41	1383.26
383.61	1409.00
383.80	1409.00
384.00	1338.79
384.19	1434.75
384.39	1362.19
384.58	1385.60
384.78	1439.43
384.97	1509.65
385.17	1437.09
385.36	1516.67
385.56	1399.64
385.75	1387.94
385.95	1397.30
386.14	1430.07
386.34	1472.20
386.53	1497.94
386.72	1469.86
386.92	1481.56
387.11	1511.99
387.31	1537.73
387.50	1526.03
387.70	1516.67
387.89	1519.01
388.09	1500.28
388.28	1568.16
388.48	1547.09
388.67	1610.29
388.86	1493.26
389.06	1659.44
389.25	1551.78
389.45	1638.38
389.64	1629.01
389.84	1579.86
390.03	1614.97
390.22	1689.87
390.42	1652.42
390.61	1680.50
390.81	1664.12
391.00	1680.50
391.19	1724.97
391.39	1776.47
391.58	1680.50
391.78	1837.32
391.97	1727.32
392.16	1743.70
392.36	1760.08
392.55	1818.60
392.75	1778.81
392.94	1699.23
393.13	1813.92
393.33	1696.89
393.52	1764.76
393.71	1797.53
393.91	1837.32
394.10	1837.32
394.29	1872.43
394.49	1760.08
394.68	1895.83
394.88	1872.43
395.07	1926.26
395.26	1923.92
395.46	1900.52
395.65	1914.56
395.84	2054.99
396.04	1996.48
396.23	1984.77
396.42	1952.01
396.62	2017.54
396.81	2047.97
397.00	2036.27
397.19	2015.20
397.39	2019.88
397.58	1963.71
397.77	2111.16
397.97	2139.25
398.16	2104.14
398.35	2118.18
398.55	2101.80
398.74	2150.95
398.93	2097.12
399.12	2237.55
399.32	2099.46
399.51	2277.34
399.70	2246.91
399.90	2239.89
400.09	2223.51
400.28	2195.42
400.47	2258.62
400.67	2270.32
400.86	2242.23
401.05	2389.69
401.24	2183.72
401.44	2366.28
401.63	2368.62
401.82	2373.30
402.01	2333.51
402.21	2420.11
402.40	2441.18
402.59	2431.82
402.78	2427.14
402.97	2555.86
403.17	2583.95
403.36	2502.03
403.55	2553.52
403.74	2502.03
403.93	2548.84
404.13	2588.63
404.32	2574.59
404.51	2656.51
404.70	2703.32
404.89	2565.23
405.09	2626.08
405.28	2658.85
405.47	2705.66
405.66	2593.31
405.85	2663.53
406.05	2703.32
406.24	2782.90
406.43	2738.43
406.62	2787.58
406.81	2836.73
407.00	2644.81
407.20	2778.22
407.39	2857.79
407.58	2869.50
407.77	2920.99
407.96	2888.22
408.15	2949.08
408.34	2738.43
408.54	2857.79
408.73	2963.12
408.92	2944.39
409.11	3023.97
409.30	3012.27
409.49	3110.57
409.68	3073.12
409.87	3098.87
410.07	3133.98
410.26	3234.62
410.45	3225.26
410.64	3225.26
410.83	3201.85
411.02	3164.40
411.21	3304.84
411.40	3262.71
411.59	3290.79
411.78	3400.80
411.98	3304.84
412.17	3393.78
412.36	3407.82
412.55	3489.74
412.74	3445.27
412.93	3527.19
413.12	3449.95
413.31	3662.94
413.50	3616.13
413.69	3562.30
413.88	3728.47
414.07	3702.73
414.26	3796.35
414.45	3805.71
414.64	3602.08
414.83	3836.14
415.02	3934.44
415.22	4063.17
415.41	3974.23
415.60	4037.42
415.79	4077.21
415.98	4156.79
416.17	4023.38
416.36	4175.52
416.55	4060.83
416.74	4231.69
416.93	4088.92
417.12	4042.11
417.31	4227.01
417.50	4191.90
417.69	4264.46
417.88	4205.94
418.07	4306.59
418.26	4306.59
418.45	4372.12
418.64	4465.74
418.83	4430.63
419.02	4395.53
419.21	4634.26
419.39	4498.51
419.58	4592.13
419.77	4535.96
419.96	4573.41
420.15	4727.88
420.34	4788.74
420.53	4723.20
420.72	4657.67
420.91	4552.34
421.10	4704.48
421.29	4887.04
421.48	4695.11
421.67	4793.42
421.86	4830.87
422.05	4851.93
422.24	4898.74
422.43	4901.08
422.61	4915.12
422.80	4889.38
422.99	4910.44
423.18	5050.88
423.37	5160.88
423.56	5001.72
423.75	4931.51
423.94	4964.28
424.13	4681.07
424.32	4798.10
424.50	4978.32
424.69	5163.22
424.88	4929.17
425.07	4910.44
425.26	4901.08
425.45	4924.49
425.64	4851.93
425.83	4910.44
426.01	5022.79
426.20	5076.62
426.39	5212.37
426.58	5069.60
426.77	4966.62
426.96	5144.50
427.15	5111.73
427.33	5085.98
427.52	5069.60
427.71	5263.86
427.90	5256.84
428.09	5266.21
428.28	5437.06
428.46	5280.25
428.65	5170.24
428.84	5399.62
429.03	5364.51
429.22	5219.39
429.40	5404.30
429.59	5462.81
429.78	5268.55
429.97	5298.97
430.16	5547.07
430.34	5652.39
430.53	5542.39
430.72	5544.73
430.91	5755.38
431.10	5479.19
431.28	5605.58
431.47	5682.82
431.66	5792.83
431.85	5626.65
432.03	5837.30
432.22	6022.20
432.41	5760.06
432.60	5736.65
432.79	5853.68
432.97	5870.06
433.16	5846.66
433.35	5797.51
433.54	5954.32
433.72	6174.33
433.91	5984.75
434.10	6010.50
434.28	5991.77
434.47	6106.46
434.66	6118.16
434.85	6321.79
435.03	6324.13
435.22	6394.34
435.41	6637.76
435.59	6609.67
435.78	6443.49
435.97	6581.59
436.16	6436.47
436.34	6305.40
436.53	6267.95
436.72	6417.75
436.90	6317.11
437.09	6565.20
437.28	6230.51
437.46	6546.48
437.65	6396.68
437.84	6752.45
438.02	6466.90
438.21	6539.46
438.40	6551.16
438.58	6850.75
438.77	6890.54
438.96	6623.72
439.14	6902.24
439.33	6953.73
439.52	7089.48
439.70	7059.06
439.89	7124.59
440.08	7187.79
440.26	7145.66
440.45	7047.35
440.63	7178.42
440.82	7426.52
441.01	7386.73
441.19	7463.97
441.38	7449.93
441.57	7349.28
441.75	7501.42
441.94	7592.70
442.12	7672.28
442.31	7770.58
442.50	7705.04
442.68	7730.79
442.87	7801.01
443.05	7873.56
443.24	7866.54
443.43	7868.88
443.61	7929.74
443.80	8149.75
443.98	7911.01
444.17	7461.63
444.35	7768.24
444.54	7918.03
444.73	7901.65
444.91	7913.35
445.10	7950.80
445.28	7990.59
445.47	8105.28
445.65	7946.12
445.84	8077.19
446.02	8147.40
446.21	8105.28
446.39	8098.25
446.58	8152.09
446.77	8301.88
446.95	7920.37
447.14	8236.35
447.32	8430.61
447.51	8145.06
447.69	8126.34
447.88	8109.96
448.06	8278.47
448.25	8203.58
448.43	8425.93
448.62	8290.18
448.80	8306.56
448.99	8336.99
449.17	8259.75
449.36	8461.04
449.54	8510.19
449.73	8727.86
449.91	8594.45
450.10	8683.39
450.28	8681.05
450.46	8828.50
450.65	8631.90
450.83	8730.20
451.02	8791.05
451.20	8791.05
451.39	8718.50
451.57	8781.69
451.76	8538.27
451.94	8786.37
452.13	8872.97
452.31	8875.31
452.49	8847.22
452.68	9053.19
452.86	9067.24
453.05	9081.28
453.23	9146.81
453.42	8950.21
453.60	9018.08
453.78	9163.20
453.97	9071.92
454.15	9004.04
454.34	9095.32
454.52	9315.33
454.70	9266.18
454.89	9322.35
455.07	9385.55
455.26	9385.55
455.44	9490.87
455.62	9675.77
455.81	9493.21
455.99	9699.18
456.17	9481.51
456.36	9650.03
456.54	9902.81
456.73	9844.29
456.91	10026.86
457.09	9816.21
457.28	10202.40
457.46	10031.54
457.64	10038.56
457.83	9895.78
458.01	9844.29
458.19	10473.90
458.38	9989.41
458.56	10160.27
458.74	10090.05
458.93	10317.08
459.11	10359.21
459.29	10345.17
459.48	10289.00
459.66	10513.69
459.84	10335.81
460.03	10785.19
460.21	10492.62
460.39	10750.08
460.57	10485.60
460.76	10740.72
460.94	10544.11
461.12	10649.44
461.31	10689.23
461.49	10394.32
461.67	10562.84
461.85	10984.13
462.04	10916.26
462.22	11297.77
462.40	11028.60
462.59	11253.30
462.77	10920.94
462.95	11218.19
463.13	11133.93
463.32	11131.59
463.50	11178.40
463.68	11096.48
463.86	11265.00
464.05	11094.14
464.23	11253.30
464.41	11461.60
464.59	11171.38
464.78	11503.73
464.96	11328.19
465.14	11304.79
465.32	11304.79
465.50	11660.55
465.69	11618.42
465.87	11503.73
466.05	11595.01
466.23	11775.24
466.41	11843.11
466.60	11854.81
466.78	11791.62
466.96	11721.40
467.14	11819.71
467.32	11728.42
467.51	11707.36
467.69	11669.91
467.87	11735.45
468.05	11990.56
468.23	11756.51
468.41	11597.35
468.60	12032.69
468.78	11889.92
468.96	11941.41
469.14	12285.47
469.32	12203.55
469.50	11906.31
469.69	12437.61
469.87	12257.39
470.05	12453.99
470.23	12503.14
470.41	12528.89
470.59	12608.47
470.77	12341.64
470.95	12479.74
471.14	12809.75
471.32	12809.75
471.50	12872.95
471.68	12779.32
471.86	12865.92
472.04	13235.73
472.22	13350.42
472.40	12809.75
472.58	12982.95
472.77	13191.26
472.95	13214.66
473.13	13881.72
473.31	13446.38
473.49	13621.92
473.67	13263.82
473.85	13619.58
474.03	13731.92
474.21	13657.03
474.39	13973.00
474.57	14108.75
474.75	13923.85
474.93	14328.76
475.12	14197.69
475.30	14441.11
475.48	14452.81
475.66	14422.38
475.84	14527.71
476.02	14455.15
476.20	14457.49
476.38	14614.30
476.56	14815.59
476.74	15026.24
476.92	14707.93
477.10	15042.62
477.28	15513.07
477.46	15171.35
477.64	15543.50
477.82	15786.91
478.00	16058.42
478.18	15936.71
478.36	15843.09
478.54	16259.70
478.72	16135.65
478.90	16322.90
479.08	16500.78
479.26	16655.25
479.44	16791.00
479.62	16664.61
479.80	16854.20
479.98	16992.29
480.16	17633.60
480.34	17226.34
480.52	17268.47
480.70	17554.02
480.88	17549.34
481.06	17605.51
481.24	17476.78
481.41	18015.10
481.59	17965.95
481.77	18541.72
481.95	18473.85
482.13	18698.54
482.31	18588.53
482.49	19143.24
482.67	18841.31
482.85	18984.09
483.03	19428.79
483.21	19716.67
483.39	19843.06
483.57	19529.43
483.74	19971.79
483.92	20444.58
484.10	19885.19
484.28	20470.33
484.46	20489.05
484.64	21315.26
484.82	20596.71
485.00	20912.69
485.18	21329.30
485.35	21788.05
485.53	21516.54
485.71	21558.67
485.89	21858.26
486.07	21858.26
486.25	21633.57
486.43	22045.51
486.61	22675.11
486.78	22764.05
486.96	23040.23
487.14	23159.60
487.32	23145.56
487.50	23452.17
487.68	23367.91
487.85	24161.35
488.03	23934.32
488.21	24219.86
488.39	24060.71
488.57	24208.16
488.75	24514.77
488.92	24542.86
489.10	25467.37
489.28	25048.41
489.46	25741.21
489.64	25502.48
489.81	25736.53
489.99	26015.05
490.17	25827.81
490.35	26331.03
490.53	26939.57
490.70	26508.91
490.88	26532.31
491.06	26986.38
491.24	26960.63
491.41	27337.46
491.59	27583.21
491.77	27524.70
491.95	27721.30
492.13	28002.17
492.30	27929.61
492.48	28086.43
492.66	28336.87
492.84	28261.97
493.01	28849.44
493.19	28774.55
493.37	28730.08
493.54	28816.68
493.72	29610.12
493.90	29153.71
494.08	29757.57
494.25	30017.37
494.43	29825.45
494.61	30195.25
494.79	30389.52
494.96	29940.13
495.14	30623.57
495.32	30747.62
495.49	31030.82
495.67	31147.85
495.85	31108.06
496.02	31433.39
496.20	31639.36
496.38	32088.74
496.55	32098.11
496.73	32514.72
496.91	32292.37
497.09	32418.76
497.26	32428.12
497.44	32259.60
497.62	32650.47
497.79	33132.62
497.97	32828.35
498.14	33649.88
498.32	33687.33
498.50	34033.73
498.67	33706.05
498.85	34038.41
499.03	34127.35
499.20	33832.44
499.38	34424.60
499.56	34665.67
499.73	34569.71
499.91	34747.59
500.08	35229.74
500.26	34955.90
500.44	35353.79
500.61	35676.79
500.79	35426.35
500.97	35938.93
501.14	35800.83
501.32	35803.17
501.49	35693.17
501.67	35969.35
501.84	35819.56
502.02	36451.50
502.20	36624.70
502.37	36491.29
502.55	36526.40
502.72	36575.55
502.90	36898.55
503.07	36730.03
503.25	37539.85
503.43	37216.86
503.60	37593.68
503.78	37378.36
503.95	37593.68
504.13	37528.15
504.30	37401.76
504.48	38007.96
504.65	38031.36
504.83	38113.28
505.01	38377.76
505.18	38218.61
505.36	38663.31
505.53	38803.74
505.71	38792.04
505.88	39115.03
506.06	39147.80
506.23	39119.71
506.41	38937.15
506.58	39154.82
506.76	39243.76
506.93	39592.50
507.11	39622.93
507.28	40151.89
507.46	39833.58
507.63	40254.87
507.81	40055.93
507.98	39838.26
508.16	40098.06
508.33	40212.74
508.50	40486.59
508.68	40793.20
508.85	40612.98
509.03	40830.65
509.20	41029.59
509.38	41277.69
509.55	40772.13
509.73	41387.69
509.90	41649.83
510.08	41631.11
510.25	41572.60
510.42	41727.07
510.60	42181.13
510.77	42092.19
510.95	42211.56
511.12	42424.55
511.30	42405.83
511.47	42265.39
511.64	42244.33
511.82	42569.66
511.99	42532.22
512.17	42557.96
512.34	42876.27
512.51	43281.19
512.69	42962.87
512.86	43353.74
513.04	43669.72
513.21	43477.79
513.38	43601.84
513.56	43842.92
513.73	43660.35
513.90	44217.40
514.08	43805.47
514.25	44261.87
514.43	44629.34
514.60	44608.27
514.77	44060.58
514.95	44301.66
515.12	44406.98
515.29	44652.74
515.47	44774.45
515.64	45441.50
515.81	44957.01
515.99	45226.17
516.16	45099.78
516.33	45324.47
516.51	45392.35
516.68	45301.07
516.85	45794.92
517.03	45923.65
517.20	45865.14
517.37	45907.27
517.54	45673.21
517.72	45879.18
517.89	45933.01
518.06	46256.01
518.24	46036.00
518.41	46120.26
518.58	46078.13
518.75	46284.09
518.93	46277.07
519.10	46106.21
519.27	46670.28
519.45	46440.91
519.62	47138.39
519.79	47171.16
519.96	46962.85
520.14	47232.01
520.31	46913.70
520.48	47358.40
520.65	47217.97
520.83	47650.97
521.00	47749.27
521.17	47566.71
521.34	47756.29
521.52	47662.67
521.69	47852.25
521.86	48025.45
522.03	47903.74
522.20	48259.51
522.38	48704.21
522.55	48746.34
522.72	48294.61
522.89	48545.05
523.07	48697.19
523.24	48699.53
523.41	48809.53
523.58	48772.08
523.75	49088.06
523.92	49310.41
524.10	49364.24
524.27	49418.07
524.44	49162.95
524.61	49031.88
524.78	49422.75
524.96	49013.16
525.13	49652.12
525.30	49855.75
525.47	49867.45
525.64	49549.14
525.81	49806.60
525.98	49668.51
526.16	49471.90
526.33	49727.02
526.50	49961.08
526.67	50141.30
526.84	50597.70
527.01	50227.90
527.18	50541.53
527.36	50468.97
527.53	50529.83
527.70	50728.77
527.87	50857.50
528.04	50651.53
528.21	50852.82
528.38	50871.54
528.55	51114.96
528.72	50817.71
528.89	51180.49
529.07	50941.76
529.24	51161.77
529.41	51224.96
529.58	51349.01
529.75	50939.42
529.92	51515.19
530.09	51316.25
530.26	51377.10
530.43	51278.80
530.60	51269.43
530.77	51571.36
530.94	51494.13
531.11	51386.46
531.28	52065.22
531.46	51922.44
531.63	51636.90
531.80	51770.31
531.97	51774.99
532.14	52306.29
532.31	51826.48
532.48	52229.05
532.65	52254.80
532.82	52027.77
532.99	52254.80
533.16	51863.93
533.33	52257.14
533.50	52538.01
533.67	52334.38
533.84	52339.06
534.01	52399.91
534.18	52505.24
534.35	53099.73
534.52	52924.19
534.69	52474.81
534.86	52727.59
535.03	52575.45
535.20	53024.84
535.37	53052.92
535.54	53380.60
535.71	53088.03
535.88	53088.03
536.05	53036.54
536.22	53034.20
536.38	53282.30
536.55	53123.14
536.72	53401.66
536.89	53315.06
537.06	53048.24
537.23	53736.36
537.40	53411.02
537.57	53612.31
537.74	53226.12
537.91	53677.85
538.08	53635.72
538.25	53712.95
538.42	53876.79
538.59	53776.15
538.75	53546.78
538.92	53509.33
539.09	54099.14
539.26	53841.68
539.43	53862.75
539.60	53951.69
539.77	54003.18
539.94	54319.15
540.11	54300.43
540.28	54234.89
540.44	54361.28
540.61	54363.62
540.78	54237.23
540.95	54227.87
541.12	54281.70
541.29	54433.84
541.46	54567.25
541.62	54511.08
541.79	54710.02
541.96	54518.10
542.13	54342.56
542.30	54656.19
542.47	54927.69
542.63	54747.47
542.80	54775.56
542.97	55079.83
543.14	55061.10
543.31	55196.85
543.48	55033.02
543.64	55285.79
543.81	55487.08
543.98	55220.26
544.15	55278.77
544.32	55480.06
544.48	55840.50
544.65	55473.04
544.82	55608.79
544.99	55276.43
545.16	55295.16
545.32	55573.68
545.49	55758.58
545.66	56020.72
545.83	55784.33
546.00	56093.28
546.16	55777.31
546.33	55955.19
546.50	55627.51
546.67	55952.85
546.83	55332.60
547.00	55753.90
547.17	55987.95
547.34	55739.86
547.50	55973.91
547.67	56072.21
547.84	56154.13
548.00	56320.31
548.17	56420.95
548.34	56090.94
548.51	56205.62
548.67	56079.24
548.84	56320.31
549.01	56161.15
549.18	56193.92
549.34	56341.38
549.51	56420.95
549.68	56200.94
549.84	56392.87
550.01	56357.76
550.18	56114.34
550.34	56458.40
550.51	56423.29
550.68	56427.98
550.84	56175.20
551.01	56643.30
551.18	56748.63
551.34	56329.67
551.51	56465.42
551.68	56505.21
551.84	56437.34
552.01	56226.69
552.18	56655.01
552.34	56486.49
552.51	56757.99
552.68	56849.27
552.84	56940.55
553.01	57233.12
553.18	56839.91
553.34	56601.18
553.51	56868.00
553.67	57083.33
553.84	57359.51
554.01	57319.72
554.17	57017.79
554.34	57155.88
554.51	57113.75
554.67	57198.01
554.84	57006.09
555.00	56987.36
555.17	56828.21
555.33	57345.47
555.50	57006.09
555.67	57478.88
555.83	57127.80
556.00	57120.77
556.16	57254.18
556.33	57272.91
556.50	57254.18
556.66	57305.68
556.83	57186.31
556.99	57483.56
557.16	57656.76
557.32	57593.56
557.49	57488.24
557.65	57382.91
557.82	57352.49
557.98	57539.73
558.15	57558.45
558.32	57565.48
558.48	57462.49
558.65	57647.39
558.81	57427.38
558.98	57525.69
559.14	57560.79
559.31	57591.22
559.47	57631.01
559.64	57724.63
559.80	57691.86
559.97	57687.18
560.13	57598.24
560.30	57703.57
560.46	57635.69
560.63	58094.44
560.79	57813.57
560.96	58178.70
561.12	57876.77
561.29	57701.23
561.45	57764.42
561.61	58052.31
561.78	57762.08
561.94	58113.16
562.11	58291.04
562.27	58019.54
562.44	57998.48
562.60	58267.64
562.77	58026.56
562.93	57996.13
563.10	58394.03
563.26	57951.66
563.42	58209.12
563.59	57879.11
563.75	58199.76
563.92	58197.42
564.08	58106.14
564.24	58000.82
564.41	57963.37
564.57	57986.77
564.74	58155.29
564.90	58258.27
565.07	58244.23
565.23	58113.16
565.39	58262.96
565.56	58670.21
565.72	58316.79
565.88	58302.74
566.05	58319.13
566.21	58454.88
566.38	58185.72
566.54	58094.44
566.70	58408.07
566.87	58698.30
567.03	58288.70
567.19	58756.81
567.36	58686.59
567.52	58508.71
567.68	58419.77
567.85	58356.58
568.01	58489.99
568.17	58298.06
568.34	58401.05
568.50	58405.73
568.66	58623.40
568.83	58609.35
568.99	58440.84
569.15	58391.68
569.32	58492.33
569.48	58342.53
569.64	58438.50
569.81	58337.85
569.97	58384.66
570.13	58314.45
570.30	58424.45
570.46	58623.40
570.62	58468.92
570.78	58379.98
570.95	58438.50
571.11	58674.89
571.27	58482.97
571.43	58518.07
571.60	58370.62
571.76	58763.83
571.92	58855.11
572.09	58717.02
572.25	58817.66
572.41	58794.26
572.57	58660.85
572.74	58974.48
572.90	58691.27
573.06	58733.40
573.22	58761.49
573.38	58796.60
573.55	58719.36
573.71	59021.29
573.87	58733.40
574.03	58688.93
574.20	58789.58
574.36	58738.08
574.52	58576.59
574.68	58457.22
574.84	58773.19
575.01	58712.34
575.17	59056.40
575.33	58852.77
575.49	58925.33
575.65	58859.79
575.82	58944.05
575.98	58749.79
576.14	59072.78
576.30	58754.47
576.46	58705.32
576.62	58511.05
576.79	58686.59
576.95	58712.34
577.11	58855.11
577.27	58920.65
577.43	58829.37
577.59	58834.05
577.75	58892.56
577.92	58702.98
578.08	58754.47
578.24	58834.05
578.40	58948.73
578.56	58883.20
578.72	59082.14
578.88	59089.16
579.04	59213.21
579.21	58843.41
579.37	58934.69
579.53	58981.50
579.69	59016.61
579.85	58859.79
580.01	59182.79
580.17	58934.69
580.33	58925.33
580.49	59145.34
580.65	59245.98
580.82	59147.68
580.98	59138.32
581.14	59077.46
581.30	59154.70
581.46	58976.82
581.62	58965.12
581.78	59051.72
581.94	58883.20
582.10	58972.14
582.26	59178.10
582.42	58794.26
582.58	59002.56
582.74	58944.05
582.90	59365.35
583.06	59089.16
583.22	59077.46
583.38	58939.37
583.54	58894.90
583.70	58815.32
583.86	59131.29
584.02	59203.85
584.18	59187.47
584.34	59133.63
584.50	59337.26
584.66	59077.46
584.82	59135.98
584.98	59414.50
585.14	59187.47
585.30	58986.18
585.46	59327.90
585.62	58937.03
585.78	59318.54
585.94	59178.10
586.10	58932.35
586.26	59271.73
586.42	59245.98
586.58	58922.99
586.74	59316.20
586.90	58988.52
587.06	59173.42
587.22	59267.05
587.38	59355.99
587.54	59456.63
587.70	59501.10
587.86	59536.21
588.02	59353.65
