SpectraSuite Data File
++++++++++++++++++++++++++++++++++++
Date: Thu Oct 24 13:21:31 EDT 2013
User: stostad
Dark Spectrum Present: No
Reference Spectrum Present: No
Number of Sampled Component Spectra: 1
Spectrometers: USB2+H05261
Integration Time (usec): 100000 (USB2+H05261)
Spectra Averaged: 1 (USB2+H05261)
Boxcar Smoothing: 0 (USB2+H05261)
Correct for Electrical Dark: No (USB2+H05261)
Strobe/Lamp Enabled: No (USB2+H05261)
Correct for Detector Non-linearity: No (USB2+H05261)
Correct for Stray Light: No (USB2+H05261)
Number of Pixels in Processed Spectrum: 2048
>>>>>Begin Processed Spectral Data<<<<<
365.73	582.79
365.92	582.79
366.12	582.79
366.32	543.00
366.52	482.15
366.72	510.24
366.91	521.94
367.11	425.98
367.31	505.56
367.51	496.19
367.70	409.59
367.90	477.47
368.10	402.57
368.30	425.98
368.49	463.43
368.69	414.27
368.89	491.51
369.09	496.19
369.28	489.17
369.48	479.81
369.68	407.25
369.87	503.22
370.07	491.51
370.27	566.41
370.47	697.48
370.66	1008.77
370.86	987.71
371.06	1151.54
371.25	1163.25
371.45	1193.67
371.65	1167.93
371.84	1205.38
372.04	1163.25
372.24	1128.14
372.44	1224.10
372.63	1240.48
372.83	1172.61
373.03	1256.87
373.22	1249.85
373.42	1334.11
373.62	1284.95
373.81	1231.12
374.01	1373.89
374.21	1394.96
374.40	1327.08
374.60	1357.51
374.79	1308.36
374.99	1322.40
375.19	1411.34
375.38	1399.64
375.58	1352.83
375.78	1362.19
375.97	1413.68
376.17	1359.85
376.37	1371.55
376.56	1364.53
376.76	1376.24
376.95	1430.07
377.15	1299.00
377.35	1589.22
377.54	1357.51
377.74	1458.15
377.93	1540.07
378.13	1572.84
378.33	1540.07
378.52	1465.18
378.72	1432.41
378.91	1479.22
379.11	1565.82
379.31	1472.20
379.50	1504.96
379.70	1575.18
379.89	1596.25
380.09	1504.96
380.28	1621.99
380.48	1500.28
380.68	1577.52
380.87	1519.01
381.07	1556.46
381.26	1551.78
381.46	1624.33
381.65	1598.59
381.85	1689.87
382.04	1621.99
382.24	1664.12
382.43	1675.82
382.63	1675.82
382.83	1654.76
383.02	1771.79
383.22	1715.61
383.41	1748.38
383.61	1675.82
383.80	1734.34
384.00	1746.04
384.19	1816.26
384.39	1781.15
384.58	1703.91
384.78	1778.81
384.97	1832.64
385.17	1839.66
385.36	1827.96
385.56	1706.25
385.75	1760.08
385.95	1919.24
386.14	1853.70
386.34	1888.81
386.53	1947.33
386.72	1849.02
386.92	1877.11
387.11	1893.49
387.31	1916.90
387.50	1949.67
387.70	1930.94
387.89	1942.64
388.09	1933.28
388.28	1912.22
388.48	1996.48
388.67	2036.27
388.86	2057.33
389.06	2001.16
389.25	2125.21
389.45	2045.63
389.64	2054.99
389.84	2005.84
390.03	2197.76
390.22	2106.48
390.42	2094.78
390.61	2104.14
390.81	2146.27
391.00	2141.59
391.19	2167.34
391.39	2146.27
391.58	2176.70
391.78	2214.15
391.97	2188.40
392.16	2272.66
392.36	2251.60
392.55	2279.68
392.75	2235.21
392.94	2256.28
393.13	2272.66
393.33	2317.13
393.52	2242.23
393.71	2356.92
393.91	2429.48
394.10	2382.67
394.29	2368.62
394.49	2401.39
394.68	2438.84
394.88	2389.69
395.07	2574.59
395.26	2434.16
395.46	2518.42
395.65	2523.10
395.84	2478.63
396.04	2623.74
396.23	2670.55
396.42	2560.55
396.62	2708.00
396.81	2579.27
397.00	2462.24
397.19	2537.14
397.39	2796.94
397.58	2726.72
397.77	2703.32
397.97	2794.60
398.16	2665.87
398.35	2693.96
398.55	2813.32
398.74	2834.39
398.93	2841.41
399.12	2846.09
399.32	2820.35
399.51	2963.12
399.70	2874.18
399.90	2899.92
400.09	2920.99
400.28	2991.20
400.47	2979.50
400.67	2963.12
400.86	3108.23
401.05	3026.31
401.24	2953.76
401.44	3084.83
401.63	3040.36
401.82	3129.30
402.01	3096.53
402.21	3152.70
402.40	3108.23
402.59	3098.87
402.78	3180.79
402.97	3288.45
403.17	3225.26
403.36	3255.69
403.55	3269.73
403.74	3475.70
403.93	3478.04
404.13	3574.00
404.32	3471.01
404.51	3377.39
404.70	3417.18
404.89	3410.16
405.09	3581.02
405.28	3534.21
405.47	3499.10
405.66	3705.07
405.85	3482.72
406.05	3517.83
406.24	3679.32
406.43	3688.68
406.62	3754.22
406.81	3719.11
407.00	3737.84
407.20	3716.77
407.39	3707.41
407.58	3796.35
407.77	3850.18
407.96	3838.48
408.15	3885.29
408.34	3889.97
408.54	4039.76
408.73	4028.06
408.92	3948.48
409.11	3992.95
409.30	3948.48
409.49	4088.92
409.68	4175.52
409.87	4018.70
410.07	4194.24
410.26	4119.34
410.45	4168.49
410.64	4234.03
410.83	4138.07
411.02	4332.33
411.21	4360.42
411.40	4262.12
411.59	4468.08
411.78	4339.35
411.98	4575.75
412.17	4538.30
412.36	4526.60
412.55	4762.99
412.74	4716.18
412.93	4751.29
413.12	4688.09
413.31	4826.18
413.50	4786.40
413.69	4676.39
413.88	4882.36
414.07	4833.21
414.26	4922.15
414.45	5027.47
414.64	5088.32
414.83	4999.38
415.02	5146.84
415.22	5240.46
415.41	5277.91
415.60	5247.48
415.79	5345.78
415.98	5392.59
416.17	5439.40
416.36	5247.48
416.55	5437.06
416.74	5518.98
416.93	5584.52
417.12	5474.51
417.31	5706.23
417.50	5486.22
417.69	5722.61
417.88	5762.40
418.07	5710.91
418.26	5671.12
418.45	5680.48
418.64	5870.06
418.83	5785.80
419.02	5923.90
419.21	6087.73
419.39	6029.22
419.58	6061.99
419.77	5839.64
419.96	6139.23
420.15	6064.33
420.34	6038.58
420.53	6221.14
420.72	6291.36
420.91	6214.12
421.10	6424.77
421.29	6293.70
421.48	6282.00
421.67	6471.58
421.86	6291.36
422.05	6520.73
422.24	6340.51
422.43	6499.67
422.61	6490.31
422.80	6602.65
422.99	6527.75
423.18	6544.14
423.37	6590.95
423.56	6490.31
423.75	6651.80
423.94	6494.99
424.13	6047.94
424.32	6417.75
424.50	6565.20
424.69	6710.32
424.88	6616.69
425.07	6499.67
425.26	6642.44
425.45	6494.99
425.64	6441.15
425.83	6562.86
426.01	6724.36
426.20	6609.67
426.39	6810.96
426.58	6705.63
426.77	6642.44
426.96	6717.34
427.15	6820.32
427.33	6920.96
427.52	6663.51
427.71	7180.76
427.90	6923.30
428.09	6916.28
428.28	7112.89
428.46	7103.53
428.65	7009.90
428.84	7281.41
429.03	7103.53
429.22	6869.47
429.40	7253.32
429.59	7300.13
429.78	6963.09
429.97	6951.39
430.16	7335.24
430.34	7204.17
430.53	7382.05
430.72	7564.61
430.91	7417.16
431.10	7426.52
431.28	7667.60
431.47	7576.31
431.66	7524.82
431.85	7606.74
432.03	7735.47
432.22	7857.18
432.41	7826.75
432.60	7602.06
432.79	7768.24
432.97	7845.48
433.16	7918.03
433.35	7913.35
433.54	8091.23
433.72	8098.25
433.91	7988.25
434.10	8210.60
434.28	7899.31
434.47	8025.70
434.66	8280.82
434.85	8294.86
435.03	8329.97
435.22	8346.35
435.41	8711.47
435.59	8601.47
435.78	8622.53
435.97	8713.81
436.16	8285.50
436.34	8517.21
436.53	8463.38
436.72	8767.65
436.90	8669.34
437.09	8734.88
437.28	8606.15
437.46	8603.81
437.65	8404.86
437.84	8596.79
438.02	8662.32
438.21	8882.33
438.40	8692.75
438.58	9041.49
438.77	9298.95
438.96	9008.72
439.14	9364.48
439.33	9366.82
439.52	9341.08
439.70	9439.38
439.89	9715.56
440.08	9671.09
440.26	9745.99
440.45	9533.00
440.63	9806.84
440.82	9879.40
441.01	9944.94
441.19	10047.92
441.38	9944.94
441.57	10026.86
441.75	10031.54
441.94	10272.61
442.12	10375.59
442.31	10396.66
442.50	10347.51
442.68	10277.29
442.87	10682.20
443.05	10438.79
443.24	10808.59
443.43	10773.49
443.61	10607.31
443.80	10974.77
443.98	10532.41
444.17	10312.40
444.35	10668.16
444.54	10775.83
444.73	10904.56
444.91	10890.51
445.10	10719.65
445.28	10682.20
445.47	10981.79
445.65	10874.13
445.84	10923.28
446.02	10970.09
446.21	10874.13
446.39	10897.53
446.58	10925.62
446.77	11068.39
446.95	10913.92
447.14	10934.98
447.32	11073.07
447.51	11194.78
447.69	10895.19
447.88	11073.07
448.06	11070.73
448.25	11164.36
448.43	11279.04
448.62	11171.38
448.80	11098.82
448.99	11204.14
449.17	11248.61
449.36	11204.14
449.54	11379.68
449.73	11719.06
449.91	11770.55
450.10	11618.42
450.28	11822.05
450.46	11630.12
450.65	11719.06
450.83	11571.61
451.02	11733.11
451.20	12013.97
451.39	11918.01
451.57	11903.96
451.76	11826.73
451.94	12002.27
452.13	12037.38
452.31	11957.80
452.49	11754.17
452.68	12187.17
452.86	11957.80
453.05	12348.67
453.23	12315.90
453.42	12063.12
453.60	12051.42
453.78	12233.98
453.97	12269.09
454.15	12095.89
454.34	12128.66
454.52	12657.62
454.70	12334.62
454.89	12737.20
455.07	12704.43
455.26	12816.77
455.44	13062.53
455.62	12807.41
455.81	12776.98
455.99	13046.15
456.17	13128.06
456.36	13130.41
456.54	13303.60
456.73	13315.31
456.91	13638.30
457.09	13797.46
457.28	13420.63
457.46	13275.52
457.64	13776.39
457.83	13657.03
458.01	13687.45
458.19	13870.01
458.38	13703.84
458.56	13989.38
458.74	13797.46
458.93	13717.88
459.11	13947.25
459.29	14253.86
459.48	13984.70
459.66	14122.79
459.84	14146.20
460.03	14260.88
460.21	14272.59
460.39	13895.76
460.57	14272.59
460.76	14263.22
460.94	14394.29
461.12	14380.25
461.31	14544.09
461.49	14459.83
461.67	14565.15
461.85	14607.28
462.04	14389.61
462.22	15133.90
462.40	14998.15
462.59	14995.81
462.77	14820.27
462.95	15054.33
463.13	14857.72
463.32	15040.28
463.50	15197.10
463.68	15346.89
463.86	15272.00
464.05	15180.71
464.23	15407.75
464.41	15351.57
464.59	15154.97
464.78	15810.32
464.96	15520.09
465.14	15367.96
465.32	15300.08
465.50	15943.73
465.69	15955.43
465.87	15824.36
466.05	15426.47
466.23	15880.53
466.41	15672.23
466.60	16077.14
466.78	15798.62
466.96	15892.24
467.14	16133.31
467.32	16137.99
467.51	16063.10
467.69	15810.32
467.87	16173.10
468.05	16435.24
468.23	15882.88
468.41	15978.84
468.60	16255.02
468.78	16301.83
468.96	16348.64
469.14	16615.46
469.32	16844.84
469.50	16240.98
469.69	16720.79
469.87	16638.87
470.05	16872.92
470.23	17137.40
470.41	17050.80
470.59	17013.35
470.77	17163.15
470.95	16987.61
471.14	17383.16
471.32	17046.12
471.50	17397.20
471.68	17364.43
471.86	17532.95
472.04	17982.34
472.22	18080.64
472.40	17759.98
472.58	18017.44
472.77	17980.00
472.95	18279.58
473.13	18513.64
473.31	18017.44
473.49	18401.29
473.67	18331.08
473.85	18726.63
474.03	18925.57
474.21	19007.49
474.39	19253.25
474.57	19115.16
474.75	19496.66
474.93	19389.00
475.12	19101.11
475.30	19440.49
475.48	19309.42
475.66	19403.04
475.84	19798.59
476.02	19756.46
476.20	19754.12
476.38	20563.95
476.56	20615.44
476.74	20449.26
476.92	20491.39
477.10	20545.22
477.28	20889.28
477.46	20769.91
477.64	21076.52
477.82	21247.38
478.00	21839.54
478.18	21846.56
478.36	22134.45
478.54	22384.88
478.72	22347.44
478.90	22342.75
479.08	22665.75
479.26	23098.75
479.44	23007.47
479.62	23005.13
479.80	23168.96
479.98	23353.87
480.16	23988.15
480.34	23627.71
480.52	24395.40
480.70	23967.09
480.88	23723.67
481.06	24194.12
481.24	24451.58
481.41	24840.11
481.59	25020.33
481.77	25284.81
481.95	25301.19
482.13	25544.61
482.31	25418.22
482.49	26377.84
482.67	26181.23
482.85	26197.62
483.03	26733.60
483.21	27136.17
483.39	27192.34
483.57	27346.82
483.74	27192.34
483.92	27709.60
484.10	27283.62
484.28	27927.27
484.46	28217.50
484.64	28718.37
484.82	28116.86
485.00	29181.80
485.18	29291.80
485.35	29940.13
485.53	29692.04
485.71	30003.33
485.89	30249.08
486.07	30059.50
486.25	29703.74
486.43	30541.65
486.61	30864.64
486.78	31087.00
486.96	31314.03
487.14	31814.90
487.32	31669.79
487.50	31817.24
487.68	32140.24
487.85	32730.05
488.03	32940.70
488.21	33315.19
488.39	33181.77
488.57	33666.27
488.75	33802.02
488.92	34328.64
489.10	34689.08
489.28	34579.07
489.46	34960.58
489.64	35077.61
489.81	35625.29
489.99	35309.32
490.17	35676.79
490.35	36041.91
490.53	36313.41
490.70	36978.12
490.88	36364.90
491.06	37464.96
491.24	37022.59
491.41	37153.66
491.59	37638.15
491.77	37743.48
491.95	38300.53
492.13	38426.92
492.30	38703.10
492.48	38480.75
492.66	38859.91
492.84	38817.78
493.01	39292.91
493.19	39966.99
493.37	39618.25
493.54	39784.43
493.72	40250.19
493.90	40547.44
494.08	40797.88
494.25	41095.13
494.43	40837.67
494.61	41593.66
494.79	41783.24
494.96	42101.56
495.14	42014.96
495.32	42300.50
495.49	42110.92
495.67	42466.68
495.85	43124.37
496.02	43068.20
496.20	43412.26
496.38	43484.81
496.55	43721.21
496.73	44589.55
496.91	44062.93
497.09	44406.98
497.26	44453.79
497.44	44189.31
497.62	44903.18
497.79	45382.99
497.97	45317.45
498.14	45865.14
498.32	45907.27
498.50	46337.93
498.67	46204.52
498.85	46174.09
499.03	46579.00
499.20	46417.50
499.38	46944.12
499.56	46838.80
499.73	46925.40
499.91	47079.88
500.08	47442.66
500.26	47180.52
500.44	47798.42
500.61	48189.29
500.79	47739.91
500.97	48058.22
501.14	48465.47
501.32	48320.36
501.49	48619.95
501.67	48683.14
501.84	48788.47
502.02	49387.64
502.20	49258.91
502.37	49413.39
502.55	49378.28
502.72	49579.57
502.90	49481.27
503.07	49460.20
503.25	49752.77
503.43	49975.12
503.60	50543.87
503.78	50284.07
503.95	50284.07
504.13	50475.99
504.30	50546.21
504.48	50586.00
504.65	50958.14
504.83	51079.85
505.01	51250.71
505.18	50969.85
505.36	51056.45
505.53	51201.56
505.71	51503.49
505.88	51732.86
506.06	51475.40
506.23	52053.51
506.41	52041.81
506.58	52072.24
506.76	52336.72
506.93	52325.02
507.11	52041.81
507.28	52624.60
507.46	52568.43
507.63	52566.09
507.81	52851.64
507.98	52582.48
508.16	52603.54
508.33	52975.69
508.50	53095.05
508.68	53371.24
508.85	53677.85
509.03	53633.38
509.20	53279.96
509.38	53900.20
509.55	53883.81
509.73	53909.56
509.90	54246.60
510.08	54160.00
510.25	54162.34
510.42	54300.43
510.60	54092.12
510.77	54461.93
510.95	54342.56
511.12	54546.18
511.30	54571.93
511.47	55157.06
511.64	54915.99
511.82	54885.56
511.99	54843.43
512.17	55011.95
512.34	55014.29
512.51	55365.37
512.69	55774.97
512.86	55540.91
513.04	55515.17
513.21	55697.73
513.38	55569.00
513.56	55786.67
513.73	55803.05
513.90	56083.92
514.08	55826.46
514.25	56048.81
514.43	56135.41
514.60	56030.08
514.77	56090.94
514.95	56229.03
515.12	56041.79
515.29	56341.38
515.47	56690.12
515.64	56839.91
515.81	56439.68
515.99	56919.49
516.16	56853.95
516.33	56690.12
516.51	57092.69
516.68	56970.98
516.85	56921.83
517.03	57209.71
517.20	57212.06
517.37	57085.67
517.54	57048.22
517.72	56992.04
517.89	57293.97
518.06	57528.03
518.24	57488.24
518.41	57623.99
518.58	57736.34
518.75	57223.76
518.93	57645.05
519.10	57544.41
519.27	57832.30
519.45	57839.32
519.62	58068.69
519.79	57930.60
519.96	58164.65
520.14	58234.87
520.31	57801.87
520.48	57958.69
520.65	57998.48
520.83	58649.14
521.00	58499.35
521.17	58534.46
521.34	58890.22
521.52	58695.95
521.69	58480.63
521.86	58763.83
522.03	58850.43
522.20	58812.98
522.38	59056.40
522.55	59084.48
522.72	59077.46
522.89	58918.31
523.07	59292.79
523.24	58979.16
523.41	59590.04
523.58	59285.77
523.75	59494.08
523.92	59224.92
524.10	59402.80
524.27	59561.95
524.44	59611.10
524.61	59489.40
524.78	59709.41
524.96	59557.27
525.13	59898.99
525.30	60039.42
525.47	60053.47
525.64	59990.27
525.81	59882.61
525.98	59812.39
526.16	60018.36
526.33	60034.74
526.50	60322.63
526.67	60116.66
526.84	60254.75
527.01	60100.28
527.18	60214.96
527.36	60441.99
527.53	60498.17
527.70	60526.25
527.87	60488.80
528.04	60385.82
528.21	60743.92
528.38	60640.94
528.55	60736.90
528.72	60722.86
528.89	60701.79
529.07	60514.55
529.24	60760.31
529.41	60935.85
529.58	60917.12
529.75	60774.35
529.92	61036.49
530.09	61010.74
530.26	61092.66
530.43	61027.13
530.60	60968.61
530.77	60919.46
530.94	61343.10
531.11	61350.12
531.28	61202.67
531.46	61415.66
531.63	61183.94
531.80	61347.78
531.97	61366.51
532.14	61497.58
532.31	61403.95
532.48	61425.02
532.65	61689.50
532.82	61621.62
532.99	61485.87
533.16	61406.30
533.33	61680.14
533.50	61907.17
533.67	61642.69
533.84	61670.78
534.01	61745.67
534.18	61958.66
534.35	62005.47
534.52	61979.73
534.69	62295.70
534.86	61982.07
535.03	61804.19
535.20	62216.12
535.37	62169.31
535.54	62485.28
535.71	62195.06
535.88	62237.19
536.05	62272.29
536.22	62284.00
536.38	62227.82
536.55	62489.96
536.72	62546.14
536.89	62450.17
537.06	62499.33
537.23	62906.58
537.40	62550.82
537.57	62475.92
537.74	62396.34
537.91	62623.37
538.08	62536.77
538.25	62576.56
538.42	62824.66
538.59	62986.16
538.75	62789.55
538.92	62922.96
539.09	63051.69
539.26	62904.24
539.43	62805.94
539.60	63079.78
539.77	63002.54
539.94	62972.11
540.11	63274.04
540.28	63313.83
540.44	63248.30
540.61	63283.40
540.78	63178.08
540.95	63295.11
541.12	63180.42
541.29	63011.90
541.46	63330.22
541.62	63470.65
541.79	63561.93
541.96	63164.04
542.13	63414.47
542.30	63323.19
542.47	63393.41
542.63	63545.54
542.80	63758.53
542.97	64037.06
543.14	64140.04
543.31	63875.56
543.48	63807.68
543.64	64100.25
543.81	63927.05
543.98	63964.50
544.15	64207.92
544.32	64285.15
544.48	64156.42
544.65	64240.68
544.82	64261.75
544.99	64044.08
545.16	64217.28
545.32	63980.88
545.49	64165.79
545.66	64432.61
545.83	64463.03
546.00	64470.06
546.16	64507.50
546.33	64507.50
546.50	64212.60
546.67	64505.16
546.83	64163.45
547.00	64217.28
547.17	64329.62
547.34	64329.62
547.50	64507.50
547.67	64704.11
547.84	64598.79
548.00	64605.81
548.17	64842.20
548.34	64608.15
548.51	64577.72
548.67	64692.41
548.84	64755.60
549.01	64910.08
549.18	64516.87
549.34	64807.09
549.51	64952.21
549.68	64650.28
549.84	64809.43
550.01	64886.67
550.18	64596.45
550.34	64933.48
550.51	64956.89
550.68	64963.91
550.84	64807.09
551.01	65111.36
551.18	65017.74
551.34	64891.35
551.51	65055.19
551.68	65155.83
551.84	65134.77
552.01	65073.91
552.18	65204.98
552.34	64896.03
552.51	65251.80
552.68	65176.90
552.84	65160.51
553.01	65333.71
553.18	65242.43
553.34	65261.16
553.51	65202.64
553.67	65535.00
553.84	65535.00
554.01	65535.00
554.17	65509.25
554.34	65535.00
554.51	65457.76
554.67	65495.21
554.84	65485.85
555.00	65373.50
555.17	65399.25
555.33	65520.96
555.50	65476.49
555.67	65476.49
555.83	65535.00
556.00	65535.00
556.16	65535.00
556.33	65535.00
556.50	65535.00
556.66	65535.00
556.83	65535.00
556.99	65535.00
557.16	65535.00
557.32	65535.00
557.49	65535.00
557.65	65535.00
557.82	65535.00
557.98	65535.00
558.15	65535.00
558.32	65535.00
558.48	65535.00
558.65	65535.00
558.81	65535.00
558.98	65535.00
559.14	65535.00
559.31	65535.00
559.47	65535.00
559.64	65535.00
559.80	65535.00
559.97	65535.00
560.13	65535.00
560.30	65535.00
560.46	65535.00
560.63	65535.00
560.79	65535.00
560.96	65535.00
561.12	65535.00
561.29	65535.00
561.45	65535.00
561.61	65535.00
561.78	65535.00
561.94	65535.00
562.11	65535.00
562.27	65535.00
562.44	65535.00
562.60	65535.00
562.77	65535.00
562.93	65535.00
563.10	65535.00
563.26	65535.00
563.42	65535.00
563.59	65535.00
563.75	65535.00
563.92	65535.00
564.08	65535.00
564.24	65535.00
564.41	65535.00
564.57	65535.00
564.74	65535.00
564.90	65535.00
565.07	65535.00
565.23	65535.00
565.39	65535.00
565.56	65535.00
565.72	65535.00
565.88	65535.00
566.05	65535.00
566.21	65535.00
566.38	65535.00
566.54	65535.00
566.70	65535.00
566.87	65535.00
567.03	65535.00
567.19	65535.00
567.36	65535.00
567.52	65535.00
567.68	65535.00
567.85	65535.00
568.01	65535.00
568.17	65535.00
568.34	65535.00
568.50	65535.00
568.66	65535.00
568.83	65535.00
568.99	65535.00
569.15	65535.00
569.32	65535.00
569.48	65535.00
569.64	65535.00
569.81	65535.00
569.97	65535.00
570.13	65535.00
570.30	65535.00
570.46	65535.00
570.62	65535.00
570.78	65535.00
570.95	65535.00
571.11	65535.00
571.27	65535.00
571.43	65535.00
571.60	65535.00
571.76	65535.00
571.92	65535.00
572.09	65535.00
572.25	65535.00
572.41	65535.00
572.57	65535.00
572.74	65535.00
572.90	65535.00
573.06	65535.00
573.22	65535.00
573.38	65535.00
573.55	65535.00
573.71	65535.00
573.87	65535.00
574.03	65535.00
574.20	65535.00
574.36	65535.00
574.52	65535.00
574.68	65535.00
574.84	65535.00
575.01	65535.00
575.17	65535.00
575.33	65535.00
575.49	65535.00
575.65	65535.00
575.82	65535.00
575.98	65535.00
576.14	65535.00
576.30	65535.00
576.46	65535.00
576.62	65535.00
576.79	65535.00
576.95	65535.00
577.11	65535.00
577.27	65535.00
577.43	65535.00
577.59	65535.00
577.75	65535.00
577.92	65535.00
578.08	65535.00
578.24	65535.00
578.40	65535.00
578.56	65535.00
578.72	65535.00
578.88	65535.00
579.04	65535.00
579.21	65535.00
579.37	65535.00
579.53	65535.00
579.69	65535.00
579.85	65535.00
580.01	65535.00
580.17	65535.00
580.33	65535.00
580.49	65535.00
580.65	65535.00
580.82	65535.00
580.98	65535.00
581.14	65535.00
581.30	65535.00
581.46	65535.00
581.62	65535.00
581.78	65535.00
581.94	65535.00
582.10	65535.00
582.26	65535.00
582.42	65535.00
582.58	65535.00
582.74	65535.00
582.90	65535.00
583.06	65535.00
583.22	65535.00
583.38	65535.00
583.54	65535.00
583.70	65535.00
583.86	65535.00
584.02	65535.00
584.18	65535.00
584.34	65535.00
584.50	65535.00
584.66	65535.00
584.82	65535.00
584.98	65535.00
585.14	65535.00
585.30	65535.00
585.46	65535.00
585.62	65535.00
585.78	65535.00
585.94	65535.00
586.10	65535.00
586.26	65535.00
586.42	65535.00
586.58	65535.00
586.74	65535.00
586.90	65535.00
587.06	65535.00
587.22	65535.00
