SpectraSuite Data File
++++++++++++++++++++++++++++++++++++
Date: Thu Oct 24 13:21:21 EDT 2013
User: stostad
Dark Spectrum Present: No
Reference Spectrum Present: No
Number of Sampled Component Spectra: 1
Spectrometers: USB2+H05261
Integration Time (usec): 100000 (USB2+H05261)
Spectra Averaged: 1 (USB2+H05261)
Boxcar Smoothing: 0 (USB2+H05261)
Correct for Electrical Dark: No (USB2+H05261)
Strobe/Lamp Enabled: No (USB2+H05261)
Correct for Detector Non-linearity: No (USB2+H05261)
Correct for Stray Light: No (USB2+H05261)
Number of Pixels in Processed Spectrum: 2048
>>>>>Begin Processed Spectral Data<<<<<
365.73	592.16
365.92	592.16
366.12	592.16
366.32	491.51
366.52	479.81
366.72	491.51
366.91	465.77
367.11	440.02
367.31	435.34
367.51	484.49
367.70	475.13
367.90	528.96
368.10	500.87
368.30	510.24
368.49	444.70
368.69	461.09
368.89	437.68
369.09	500.87
369.28	491.51
369.48	505.56
369.68	498.53
369.87	489.17
370.07	498.53
370.27	519.60
370.47	692.80
370.66	903.45
370.86	898.77
371.06	926.85
371.25	950.26
371.45	957.28
371.65	898.77
371.84	938.55
372.04	933.87
372.24	929.19
372.44	1036.86
372.63	887.06
372.83	950.26
373.03	947.92
373.22	1011.11
373.42	1029.84
373.62	997.07
373.81	987.71
374.01	1057.92
374.21	997.07
374.40	947.92
374.60	1062.60
374.79	1046.22
374.99	1015.79
375.19	1114.10
375.38	1022.81
375.58	1125.80
375.78	1036.86
375.97	1132.82
376.17	1034.52
376.37	1020.47
376.56	1090.69
376.76	1036.86
376.95	1165.59
377.15	1144.52
377.35	1062.60
377.54	1078.99
377.74	1069.62
377.93	1174.95
378.13	1139.84
378.33	1097.71
378.52	1142.18
378.72	1109.41
378.91	1050.90
379.11	1104.73
379.31	1095.37
379.50	1107.07
379.70	1083.67
379.89	1188.99
380.09	1198.35
380.28	1242.82
380.48	1160.91
380.68	1181.97
380.87	1097.71
381.07	1149.20
381.26	1132.82
381.46	1174.95
381.65	1160.91
381.85	1184.31
382.04	1231.12
382.24	1291.98
382.43	1153.88
382.63	1235.80
382.83	1254.53
383.02	1219.42
383.22	1137.50
383.41	1226.44
383.61	1217.08
383.80	1336.45
384.00	1317.72
384.19	1287.29
384.39	1245.16
384.58	1221.76
384.78	1247.51
384.97	1334.11
385.17	1280.27
385.36	1261.55
385.56	1270.91
385.75	1277.93
385.95	1291.98
386.14	1369.21
386.34	1261.55
386.53	1289.64
386.72	1273.25
386.92	1373.89
387.11	1380.92
387.31	1348.15
387.50	1359.85
387.70	1399.64
387.89	1287.29
388.09	1418.36
388.28	1369.21
388.48	1420.71
388.67	1544.75
388.86	1341.13
389.06	1413.68
389.25	1448.79
389.45	1453.47
389.64	1378.58
389.84	1479.22
390.03	1425.39
390.22	1495.60
390.42	1362.19
390.61	1507.30
390.81	1526.03
391.00	1472.20
391.19	1593.90
391.39	1554.12
391.58	1575.18
391.78	1488.58
391.97	1504.96
392.16	1554.12
392.36	1626.67
392.55	1612.63
392.75	1540.07
392.94	1584.54
393.13	1586.88
393.33	1610.29
393.52	1591.56
393.71	1614.97
393.91	1579.86
394.10	1598.59
394.29	1636.03
394.49	1624.33
394.68	1640.72
394.88	1750.72
395.07	1689.87
395.26	1701.57
395.46	1673.48
395.65	1886.47
395.84	1755.40
396.04	1792.85
396.23	1767.10
396.42	1647.74
396.62	1792.85
396.81	1834.98
397.00	1870.09
397.19	1804.55
397.39	1844.34
397.58	1802.21
397.77	1783.49
397.97	1940.30
398.16	1827.96
398.35	1877.11
398.55	1905.20
398.74	1940.30
398.93	1937.96
399.12	1916.90
399.32	1877.11
399.51	1930.94
399.70	1935.62
399.90	1900.52
400.09	1961.37
400.28	1935.62
400.47	2031.58
400.67	1944.99
400.86	2033.93
401.05	2125.21
401.24	2069.03
401.44	2111.16
401.63	2113.50
401.82	2008.18
402.01	2066.69
402.21	2209.47
402.40	2132.23
402.59	2024.56
402.78	2115.84
402.97	2120.53
403.17	2195.42
403.36	2188.40
403.55	2197.76
403.74	2216.49
403.93	2370.96
404.13	2347.56
404.32	2204.78
404.51	2303.09
404.70	2373.30
404.89	2340.54
405.09	2385.01
405.28	2401.39
405.47	2345.22
405.66	2342.88
405.85	2466.92
406.05	2406.07
406.24	2459.90
406.43	2478.63
406.62	2532.46
406.81	2539.48
407.00	2476.29
407.20	2506.71
407.39	2466.92
407.58	2443.52
407.77	2696.30
407.96	2605.02
408.15	2663.53
408.34	2597.99
408.54	2682.25
408.73	2539.48
408.92	2677.57
409.11	2684.59
409.30	2782.90
409.49	2813.32
409.68	2850.77
409.87	2775.88
410.07	2813.32
410.26	2848.43
410.45	2775.88
410.64	2881.20
410.83	2883.54
411.02	2888.22
411.21	2925.67
411.40	2918.65
411.59	2967.80
411.78	2930.35
411.98	2855.45
412.17	3143.34
412.36	3082.49
412.55	3180.79
412.74	3201.85
412.93	3129.30
413.12	3063.76
413.31	3185.47
413.50	3197.17
413.69	3234.62
413.88	3218.24
414.07	3197.17
414.26	3229.94
414.45	3393.78
414.64	3300.16
414.83	3379.73
415.02	3351.65
415.22	3545.91
415.41	3517.83
415.60	3454.63
415.79	3602.08
415.98	3667.62
416.17	3595.06
416.36	3688.68
416.55	3620.81
416.74	3761.24
416.93	3609.11
417.12	3665.28
417.31	3723.79
417.50	3756.56
417.69	3833.80
417.88	3864.22
418.07	3812.73
418.26	3812.73
418.45	3861.88
418.64	3974.23
418.83	4100.62
419.02	4021.04
419.21	4138.07
419.39	4044.45
419.58	3896.99
419.77	3950.82
419.96	4077.21
420.15	4044.45
420.34	4035.08
420.53	4170.83
420.72	4117.00
420.91	4215.30
421.10	4156.79
421.29	4262.12
421.48	4102.96
421.67	4191.90
421.86	4198.92
422.05	4187.22
422.24	4194.24
422.43	4283.18
422.61	4280.84
422.80	4423.61
422.99	4241.05
423.18	4425.95
423.37	4374.46
423.56	4376.80
423.75	4329.99
423.94	4283.18
424.13	4152.11
424.32	4231.69
424.50	4290.20
424.69	4580.43
424.88	4402.55
425.07	4278.50
425.26	4447.02
425.45	4358.08
425.64	4344.03
425.83	4393.19
426.01	4306.59
426.20	4360.42
426.39	4472.76
426.58	4465.74
426.77	4575.75
426.96	4442.34
427.15	4409.57
427.33	4568.73
427.52	4430.63
427.71	4664.69
427.90	4596.81
428.09	4610.86
428.28	4781.71
428.46	4802.78
428.65	4781.71
428.84	4861.29
429.03	4772.35
429.22	4706.82
429.40	4793.42
429.59	4582.77
429.78	4685.75
429.97	4674.05
430.16	4882.36
430.34	4809.80
430.53	5032.15
430.72	4875.34
430.91	4863.63
431.10	4903.42
431.28	5029.81
431.47	5076.62
431.66	5025.13
431.85	5060.24
432.03	5160.88
432.22	5125.77
432.41	5022.79
432.60	5177.26
432.79	5172.58
432.97	5432.38
433.16	5195.99
433.35	5205.35
433.54	5242.80
433.72	5423.02
433.91	5203.01
434.10	5348.12
434.28	5247.48
434.47	5390.25
434.66	5371.53
434.85	5488.56
435.03	5631.33
435.22	5612.60
435.41	5994.11
435.59	5542.39
435.78	5626.65
435.97	5502.60
436.16	5582.18
436.34	5673.46
436.53	5706.23
436.72	5870.06
436.90	5607.92
437.09	5743.67
437.28	5568.13
437.46	5692.18
437.65	5783.46
437.84	5802.19
438.02	5820.91
438.21	5865.38
438.40	5699.20
438.58	5935.60
438.77	5947.30
438.96	5996.45
439.14	5877.09
439.33	6258.59
439.52	6307.74
439.70	6176.67
439.89	6310.08
440.08	6291.36
440.26	6420.09
440.45	6305.40
440.63	6408.39
440.82	6473.92
441.01	6462.22
441.19	6448.18
441.38	6490.31
441.57	6670.53
441.75	6682.23
441.94	6752.45
442.12	6883.52
442.31	6700.95
442.50	6953.73
442.68	6963.09
442.87	6890.54
443.05	6897.56
443.24	6881.18
443.43	7098.84
443.61	6920.96
443.80	7159.70
443.98	6813.30
444.17	6672.87
444.35	7009.90
444.54	7183.10
444.73	6949.05
444.91	7105.87
445.10	7192.47
445.28	7073.10
445.47	7166.72
445.65	7094.16
445.84	7087.14
446.02	7314.17
446.21	7206.51
446.39	7162.04
446.58	7192.47
446.77	7016.93
446.95	6918.62
447.14	7185.44
447.32	7215.87
447.51	7337.58
447.69	7173.74
447.88	7288.43
448.06	7192.47
448.25	7297.79
448.43	7208.85
448.62	7262.68
448.80	7274.38
448.99	7346.94
449.17	7335.24
449.36	7328.22
449.54	7480.35
449.73	7606.74
449.91	7478.01
450.10	7588.02
450.28	7695.68
450.46	7550.57
450.65	7456.95
450.83	7616.10
451.02	7463.97
451.20	7782.28
451.39	7798.66
451.57	7756.54
451.76	7676.96
451.94	7861.86
452.13	7943.78
452.31	7913.35
452.49	7747.17
452.68	7843.14
452.86	7868.88
453.05	7915.69
453.23	8135.70
453.42	7915.69
453.60	7761.22
453.78	7847.82
453.97	8098.25
454.15	7927.39
454.34	8032.72
454.52	8124.00
454.70	8210.60
454.89	8210.60
455.07	8557.00
455.26	8229.32
455.44	8547.64
455.62	8297.20
455.81	8446.99
455.99	8362.73
456.17	8416.57
456.36	8383.80
456.54	8578.06
456.73	8535.93
456.91	8753.60
457.09	8667.00
457.28	8711.47
457.46	8788.71
457.64	8950.21
457.83	8779.35
458.01	8767.65
458.19	8868.29
458.38	8758.28
458.56	9050.85
458.74	9081.28
458.93	8950.21
459.11	9151.49
459.29	9142.13
459.48	8922.12
459.66	9107.02
459.84	9078.94
460.03	9263.84
460.21	9046.17
460.39	9048.51
460.57	9263.84
460.76	9472.15
460.94	9214.69
461.12	9589.17
461.31	9406.61
461.49	9378.53
461.67	9322.35
461.85	9619.60
462.04	9427.68
462.22	9577.47
462.40	9540.02
462.59	9572.79
462.77	9610.24
462.95	9603.22
463.13	9582.15
463.32	9310.65
463.50	9930.89
463.68	9898.13
463.86	9977.70
464.05	9619.60
464.23	9727.27
464.41	9804.50
464.59	9865.36
464.78	10221.12
464.96	9937.91
465.14	9809.19
465.32	9930.89
465.50	10080.69
465.69	10111.11
465.87	10129.84
466.05	10071.33
466.23	10071.33
466.41	10005.79
466.60	10298.36
466.78	9970.68
466.96	10441.13
467.14	10197.71
467.32	10141.54
467.51	10256.23
467.69	9996.43
467.87	10345.17
468.05	10553.48
468.23	10113.45
468.41	10260.91
468.60	10642.42
468.78	10546.45
468.96	10431.77
469.14	10576.88
469.32	10874.13
469.50	10384.96
469.69	10686.89
469.87	10640.08
470.05	10934.98
470.23	10848.38
470.41	10792.21
470.59	10934.98
470.77	10834.34
470.95	10911.58
471.14	11311.81
471.32	11030.94
471.50	11337.56
471.68	11227.55
471.86	11288.40
472.04	11377.34
472.22	11854.81
472.40	11208.83
472.58	11534.16
472.77	11344.58
472.95	11632.46
473.13	11868.86
473.31	11489.69
473.49	11637.14
473.67	11627.78
473.85	11796.30
474.03	12072.48
474.21	11985.88
474.39	12250.36
474.57	12002.27
474.75	12149.72
474.93	12297.17
475.12	12114.61
475.30	12313.56
475.48	12276.11
475.66	12416.54
475.84	12475.06
476.02	12877.63
476.20	12435.27
476.38	12851.88
476.56	13256.79
476.74	13048.49
476.92	12908.05
477.10	13135.09
477.28	13114.02
477.46	13411.27
477.64	13441.70
477.82	13422.97
478.00	13717.88
478.18	13657.03
478.36	14003.43
478.54	14291.31
478.72	14022.15
478.90	14202.37
479.08	14263.22
479.26	14485.58
479.44	14621.33
479.62	14628.35
479.80	14618.99
479.98	14752.40
480.16	15241.57
480.34	14810.91
480.52	14972.41
480.70	15321.15
480.88	15297.74
481.06	15353.91
481.24	15510.73
481.41	15527.11
481.59	15866.49
481.77	16049.05
481.95	16016.29
482.13	16294.81
482.31	15805.64
482.49	16428.22
482.67	16528.86
482.85	16498.44
483.03	16959.52
483.21	16898.67
483.39	17074.21
483.57	17097.61
483.74	17102.29
483.92	17451.03
484.10	17371.46
484.28	17373.80
484.46	17788.07
484.64	18108.72
484.82	17909.78
485.00	18232.77
485.18	18424.70
485.35	18789.82
485.53	18410.65
485.71	18853.02
485.89	19435.81
486.07	19033.24
486.25	19077.71
486.43	19082.39
486.61	19211.12
486.78	19667.52
486.96	19854.76
487.14	19920.30
487.32	19859.45
487.50	20416.49
487.68	20374.36
487.85	20549.90
488.03	20711.40
488.21	21057.80
488.39	20943.11
488.57	21245.04
488.75	21106.95
488.92	21362.07
489.10	21804.43
489.28	21809.11
489.46	22017.42
489.64	22022.10
489.81	22277.22
489.99	22487.87
490.17	22677.45
490.35	22803.84
490.53	22712.56
490.70	23311.74
490.88	23058.96
491.06	23288.33
491.24	23388.97
491.41	23110.45
491.59	23646.43
491.77	23688.56
491.95	23908.57
492.13	24116.88
492.30	24533.50
492.48	24086.45
492.66	24395.40
492.84	24540.52
493.01	24828.40
493.19	24730.10
493.37	25474.39
493.54	25200.55
493.72	25621.84
493.90	25139.69
494.08	25514.18
494.25	25804.41
494.43	25975.27
494.61	26043.14
494.79	25663.97
494.96	26300.60
495.14	26244.43
495.32	26649.34
495.49	26710.19
495.67	26574.44
495.85	26764.03
496.02	27192.34
496.20	27592.58
496.38	27379.59
496.55	27503.64
496.73	28077.07
496.91	27878.12
497.09	28219.84
497.26	28243.24
497.44	28446.87
497.62	28034.94
497.79	28685.61
497.97	28350.91
498.14	29048.39
498.32	28968.81
498.50	29546.92
498.67	29062.43
498.85	29453.30
499.03	29486.07
499.20	29528.20
499.38	29507.13
499.56	29825.45
499.73	30445.69
499.91	30345.05
500.08	30323.98
500.26	30061.84
500.44	30548.67
500.61	30309.94
500.79	30972.31
500.97	30904.43
501.14	31119.76
501.32	30932.52
501.49	31264.88
501.67	31030.82
501.84	31463.82
502.02	31232.11
502.20	31365.52
502.37	31952.99
502.55	31655.75
502.72	31557.44
502.90	32041.93
503.07	31655.75
503.25	32308.76
503.43	31938.95
503.60	32271.31
503.78	32418.76
503.95	32507.70
504.13	32465.57
504.30	32737.07
504.48	32561.53
504.65	33191.14
504.83	33167.73
505.01	33322.21
505.18	33399.44
505.36	33684.99
505.53	33219.22
505.71	33682.65
505.88	33769.25
506.06	33769.25
506.23	33977.56
506.41	33654.56
506.58	33589.03
506.76	34010.32
506.93	34440.98
507.11	34211.61
507.28	34691.42
507.46	34508.86
507.63	34813.13
507.81	34794.40
507.98	34387.15
508.16	34712.49
508.33	34855.26
508.50	34960.58
508.68	35330.39
508.85	35587.85
509.03	35192.30
509.20	35393.58
509.38	36149.57
509.55	35988.08
509.73	36051.27
509.90	36397.67
510.08	35945.95
510.25	36383.63
510.42	35978.72
510.60	36079.36
510.77	36093.40
510.95	36563.85
511.12	36463.21
511.30	36500.65
511.47	37067.06
511.64	37209.84
511.82	37310.48
511.99	36807.26
512.17	36987.49
512.34	37376.01
512.51	37649.86
512.69	37631.13
512.86	37869.87
513.04	37919.02
513.21	37825.40
513.38	37820.72
513.56	37926.04
513.73	38384.79
513.90	38321.59
514.08	38618.84
514.25	38462.02
514.43	38831.83
514.60	38696.08
514.77	38485.43
514.95	38471.39
515.12	38628.20
515.29	38693.74
515.47	39042.48
515.64	39360.79
515.81	39269.51
515.99	39089.29
516.16	39044.82
516.33	39555.05
516.51	39445.05
516.68	39592.50
516.85	39920.18
517.03	40250.19
517.20	39992.73
517.37	39428.66
517.54	39978.69
517.72	40020.82
517.89	39959.97
518.06	40048.91
518.24	40254.87
518.41	40018.48
518.58	40308.71
518.75	40240.83
518.93	40575.53
519.10	40500.63
519.27	41109.17
519.45	40739.36
519.62	41170.02
519.79	41336.20
519.96	40966.40
520.14	40851.71
520.31	41275.35
520.48	41282.37
520.65	40882.14
520.83	41560.89
521.00	41876.86
521.17	41684.94
521.34	41785.58
521.52	41841.76
521.69	41935.38
521.86	41808.99
522.03	42342.63
522.20	42663.28
522.38	42539.24
522.55	42604.77
522.72	42162.41
522.89	42497.11
523.07	42794.36
523.24	42396.46
523.41	42698.39
523.58	42902.02
523.75	42955.85
523.92	42792.01
524.10	43344.38
524.27	43199.27
524.44	42930.11
524.61	43241.40
524.78	43463.75
524.96	43299.91
525.13	43463.75
525.30	44016.11
525.47	43821.85
525.64	43903.77
525.81	44165.91
525.98	44229.10
526.16	43866.32
526.33	43590.14
526.50	44472.52
526.67	44280.60
526.84	44725.30
527.01	44217.40
527.18	44425.71
527.36	44582.52
527.53	44648.06
527.70	44556.78
527.87	44718.28
528.04	44392.94
528.21	45263.62
528.38	44839.98
528.55	44964.03
528.72	44655.08
528.89	44722.96
529.07	44776.79
529.24	44975.73
529.41	45111.49
529.58	45104.46
529.75	45319.79
529.92	45535.12
530.09	45476.61
530.26	45785.56
530.43	45703.64
530.60	45347.88
530.77	45371.28
530.94	45808.96
531.11	45694.28
531.28	46251.33
531.46	45783.22
531.63	46274.73
531.80	46181.11
531.97	46150.68
532.14	46213.88
532.31	46082.81
532.48	46270.05
532.65	46499.42
532.82	46204.52
532.99	46520.49
533.16	46422.19
533.33	46433.89
533.50	47098.60
533.67	46651.56
533.84	46845.82
534.01	46990.94
534.18	46909.02
534.35	47330.31
534.52	47133.71
534.69	47023.70
534.86	47096.26
535.03	46808.37
535.20	47267.12
535.37	47292.86
535.54	47466.06
535.71	47419.25
535.88	47484.79
536.05	47622.88
536.22	47662.67
536.38	47594.79
536.55	47700.12
536.72	48079.28
536.89	48147.16
537.06	48109.71
537.23	48060.56
537.40	48229.08
537.57	48245.46
537.74	47936.51
537.91	48659.74
538.08	47938.85
538.25	48004.39
538.42	48149.50
538.59	48512.28
538.75	47983.32
538.92	48533.35
539.09	48418.66
539.26	48250.14
539.43	48224.40
539.60	48622.29
539.77	48413.98
539.94	48882.09
540.11	48999.12
540.28	48982.73
540.44	49010.82
540.61	49109.12
540.78	48952.30
540.95	49027.20
541.12	48706.55
541.29	48898.47
541.46	49392.33
541.62	49324.45
541.79	49497.65
541.96	49315.09
542.13	49219.13
542.30	49411.05
542.47	49322.11
542.63	49780.85
542.80	49687.23
542.97	50216.19
543.14	50138.96
543.31	49991.50
543.48	50113.21
543.64	50110.87
543.81	50204.49
543.98	50183.43
544.15	50045.33
544.32	50513.44
544.48	51056.45
544.65	50253.64
544.82	50492.38
544.99	50550.89
545.16	50363.65
545.32	50438.54
545.49	50497.06
545.66	51042.40
545.83	51503.49
546.00	50946.44
546.16	50962.82
546.33	50878.57
546.50	50211.51
546.67	50983.89
546.83	50115.55
547.00	50731.11
547.17	50497.06
547.34	50925.38
547.50	51126.66
547.67	51217.94
547.84	51196.88
548.00	51255.39
548.17	51231.99
548.34	51473.06
548.51	51002.61
548.67	51683.71
548.84	51318.59
549.01	51143.05
549.18	51168.79
549.34	51512.85
549.51	51540.94
549.68	51372.42
549.84	51660.30
550.01	51749.24
550.18	51381.78
550.34	50953.46
550.51	51454.34
550.68	51662.64
550.84	50995.59
551.01	51625.20
551.18	51604.13
551.34	51126.66
551.51	51543.28
551.68	51887.34
551.84	51379.44
552.01	51611.15
552.18	51538.60
552.34	51683.71
552.51	52112.03
552.68	51845.21
552.84	52322.68
553.01	52355.44
553.18	52203.31
553.34	51959.89
553.51	51854.57
553.67	51941.17
553.84	52257.14
554.01	52371.83
554.17	52184.58
554.34	52207.99
554.51	52498.22
554.67	52224.37
554.84	52037.13
555.00	52060.54
555.17	51995.00
555.33	51995.00
555.50	52278.21
555.67	52266.50
555.83	52449.06
556.00	52491.19
556.16	52676.10
556.33	52587.16
556.50	52254.80
556.66	52444.38
556.83	52671.42
556.99	52680.78
557.16	52809.51
557.32	52804.83
557.49	52804.83
557.65	52636.31
557.82	52821.21
557.98	52809.51
558.15	52350.76
558.32	52818.87
558.48	52762.70
558.65	52889.09
558.81	53083.35
558.98	52971.00
559.14	53123.14
559.31	52828.23
559.47	52549.71
559.64	53160.59
559.80	52987.39
559.97	52975.69
560.13	52870.36
560.30	52729.93
560.46	53123.14
560.63	53097.39
560.79	53544.44
560.96	53427.41
561.12	53118.46
561.29	52966.32
561.45	52893.77
561.61	53439.11
561.78	53200.38
561.94	53418.05
562.11	53329.11
562.27	53474.22
562.44	53834.66
562.60	53497.62
562.77	53368.90
562.93	53048.24
563.10	53609.97
563.26	53315.06
563.42	53654.44
563.59	53537.41
563.75	53427.41
563.92	53600.61
564.08	53478.90
564.24	53455.50
564.41	53483.58
564.57	53394.64
564.74	53251.87
564.90	53558.48
565.07	53687.21
565.23	53661.46
565.39	53483.58
565.56	54150.63
565.72	53972.75
565.88	53886.15
566.05	53670.82
566.21	53483.58
566.38	53191.01
566.54	53556.14
566.70	54192.76
566.87	53792.53
567.03	54110.85
567.19	53977.43
567.36	54101.48
567.52	53783.17
567.68	53680.19
567.85	53624.01
568.01	53888.49
568.17	53860.41
568.34	54010.20
568.50	53895.52
568.66	53991.48
568.83	54145.95
568.99	53605.29
569.15	53916.58
569.32	53939.99
569.48	53954.03
569.64	53900.20
569.81	53942.33
569.97	53886.15
570.13	53947.01
570.30	53951.69
570.46	53965.73
570.62	54012.54
570.78	53759.76
570.95	53848.71
571.11	54181.06
571.27	54138.93
571.43	53705.93
571.60	53986.80
571.76	53731.68
571.92	53911.90
572.09	54284.04
572.25	54429.16
572.41	54457.24
572.57	54160.00
572.74	54426.82
572.90	54049.99
573.06	53827.64
573.22	53851.05
573.38	53902.54
573.55	54122.55
573.71	54284.04
573.87	54178.72
574.03	54127.23
574.20	54288.73
574.36	54197.44
574.52	54108.50
574.68	54122.55
574.84	54553.21
575.01	54021.90
575.17	54178.72
575.33	54167.02
575.49	54218.51
575.65	54384.69
575.82	54590.66
575.98	54227.87
576.14	54473.63
576.30	54525.12
576.46	54394.05
576.62	54225.53
576.79	54450.22
576.95	54103.82
577.11	54426.82
577.27	54333.20
577.43	54417.46
577.59	54450.22
577.75	54438.52
577.92	54277.02
578.08	54344.90
578.24	54176.38
578.40	54433.84
578.56	54323.83
578.72	54295.75
578.88	54770.88
579.04	54623.42
579.21	54450.22
579.37	54600.02
579.53	54859.82
579.69	54382.35
579.85	54412.77
580.01	54703.00
580.17	54564.91
580.33	54504.06
580.49	54798.96
580.65	54532.14
580.82	54775.56
580.98	54665.55
581.14	54646.83
581.30	54695.98
581.46	54305.11
581.62	54550.87
581.78	54529.80
581.94	54380.01
582.10	54480.65
582.26	54644.49
582.42	54609.38
582.58	54511.08
582.74	54440.86
582.90	54717.04
583.06	54583.63
583.22	54326.17
583.38	54277.02
583.54	54314.47
583.70	54513.42
583.86	54749.81
584.02	54281.70
584.18	54742.79
584.34	54220.85
584.50	54738.11
584.66	54471.29
584.82	54281.70
584.98	54354.26
585.14	55000.25
585.30	54316.81
585.46	54763.85
585.62	54595.34
585.78	54848.11
585.94	54777.90
586.10	54731.09
586.26	54665.55
586.42	54885.56
586.58	54710.02
586.74	54548.53
586.90	54461.93
587.06	54625.76
587.22	54876.20
587.38	54841.09
587.54	54941.74
587.70	55227.28
587.86	54986.21
588.02	55016.63
588.18	54625.76
588.34	54969.82
588.49	54857.48
588.65	54740.45
