SpectraSuite Data File
++++++++++++++++++++++++++++++++++++
Date: Thu Oct 24 13:21:21 EDT 2013
User: stostad
Dark Spectrum Present: No
Reference Spectrum Present: No
Number of Sampled Component Spectra: 1
Spectrometers: USB2+H05261
Integration Time (usec): 100000 (USB2+H05261)
Spectra Averaged: 1 (USB2+H05261)
Boxcar Smoothing: 0 (USB2+H05261)
Correct for Electrical Dark: No (USB2+H05261)
Strobe/Lamp Enabled: No (USB2+H05261)
Correct for Detector Non-linearity: No (USB2+H05261)
Correct for Stray Light: No (USB2+H05261)
Number of Pixels in Processed Spectrum: 2048
>>>>>Begin Processed Spectral Data<<<<<
365.73	524.28
365.92	524.28
366.12	524.28
366.32	524.28
366.52	491.51
366.72	486.83
366.91	456.40
367.11	435.34
367.31	477.47
367.51	461.09
367.70	372.15
367.90	472.79
368.10	465.77
368.30	468.11
368.49	468.11
368.69	540.66
368.89	447.04
369.09	491.51
369.28	538.32
369.48	451.72
369.68	491.51
369.87	533.64
370.07	503.22
370.27	571.09
370.47	575.77
370.66	746.63
370.86	847.27
371.06	858.98
371.25	933.87
371.45	978.34
371.65	931.53
371.84	858.98
372.04	882.38
372.24	936.21
372.44	901.11
372.63	945.58
372.83	994.73
373.03	990.05
373.22	1018.13
373.42	950.26
373.62	933.87
373.81	983.02
374.01	999.41
374.21	1020.47
374.40	1071.97
374.60	999.41
374.79	1062.60
374.99	1048.56
375.19	1034.52
375.38	1004.09
375.58	1039.20
375.78	1036.86
375.97	1062.60
376.17	1081.33
376.37	1086.01
376.56	1078.99
376.76	1090.69
376.95	1025.15
377.15	978.34
377.35	1121.12
377.54	1069.62
377.74	1125.80
377.93	1158.57
378.13	1111.75
378.33	1156.22
378.52	1118.78
378.72	1163.25
378.91	1207.72
379.11	1144.52
379.31	1125.80
379.50	1118.78
379.70	1217.08
379.89	1186.65
380.09	1151.54
380.28	1167.93
380.48	1184.31
380.68	1191.33
380.87	1221.76
381.07	1203.04
381.26	1226.44
381.46	1144.52
381.65	1193.67
381.85	1165.59
382.04	1214.74
382.24	1156.22
382.43	1198.35
382.63	1172.61
382.83	1224.10
383.02	1252.19
383.22	1256.87
383.41	1259.21
383.61	1203.04
383.80	1273.25
384.00	1184.31
384.19	1186.65
384.39	1299.00
384.58	1266.23
384.78	1291.98
384.97	1268.57
385.17	1308.36
385.36	1277.93
385.56	1280.27
385.75	1181.97
385.95	1296.66
386.14	1392.62
386.34	1383.26
386.53	1378.58
386.72	1249.85
386.92	1345.81
387.11	1390.28
387.31	1341.13
387.50	1261.55
387.70	1338.79
387.89	1394.96
388.09	1366.87
388.28	1409.00
388.48	1352.83
388.67	1352.83
388.86	1430.07
389.06	1294.32
389.25	1490.92
389.45	1406.66
389.64	1437.09
389.84	1420.71
390.03	1451.13
390.22	1521.35
390.42	1453.47
390.61	1476.88
390.81	1413.68
391.00	1472.20
391.19	1535.39
391.39	1430.07
391.58	1441.77
391.78	1575.18
391.97	1565.82
392.16	1462.83
392.36	1659.44
392.55	1563.48
392.75	1591.56
392.94	1617.31
393.13	1598.59
393.33	1586.88
393.52	1563.48
393.71	1591.56
393.91	1586.88
394.10	1631.35
394.29	1591.56
394.49	1542.41
394.68	1703.91
394.88	1570.50
395.07	1706.25
395.26	1757.74
395.46	1643.06
395.65	1689.87
395.84	1664.12
396.04	1755.40
396.23	1732.00
396.42	1645.40
396.62	1694.55
396.81	1767.10
397.00	1755.40
397.19	1715.61
397.39	1856.04
397.58	1790.51
397.77	1713.27
397.97	1820.94
398.16	1741.36
398.35	1783.49
398.55	1806.89
398.74	1886.47
398.93	1870.09
399.12	1825.62
399.32	1757.74
399.51	2017.54
399.70	1921.58
399.90	1949.67
400.09	1973.07
400.28	1933.28
400.47	1909.88
400.67	2062.01
400.86	2099.46
401.05	1914.56
401.24	1968.39
401.44	2031.58
401.63	2029.24
401.82	2045.63
402.01	2104.14
402.21	1980.09
402.40	2073.71
402.59	2176.70
402.78	2104.14
402.97	2127.55
403.17	2076.06
403.36	2136.91
403.55	2263.30
403.74	2237.55
403.93	2230.53
404.13	2237.55
404.32	2193.08
404.51	2310.11
404.70	2429.48
404.89	2373.30
405.09	2431.82
405.28	2296.07
405.47	2331.17
405.66	2459.90
405.85	2394.37
406.05	2373.30
406.24	2459.90
406.43	2452.88
406.62	2417.77
406.81	2502.03
407.00	2396.71
407.20	2396.71
407.39	2497.35
407.58	2541.82
407.77	2555.86
407.96	2562.89
408.15	2569.91
408.34	2689.28
408.54	2736.09
408.73	2633.10
408.92	2656.51
409.11	2630.76
409.30	2703.32
409.49	2705.66
409.68	2761.83
409.87	2771.19
410.07	2876.52
410.26	2818.00
410.45	2764.17
410.64	2738.43
410.83	2843.75
411.02	2920.99
411.21	2740.77
411.40	2841.41
411.59	2981.84
411.78	2904.60
411.98	2963.12
412.17	3028.65
412.36	3136.32
412.55	3061.42
412.74	3047.38
412.93	3124.62
413.12	3052.06
413.31	3236.96
413.50	3234.62
413.69	3206.53
413.88	3232.28
414.07	3304.84
414.26	3258.03
414.45	3400.80
414.64	3302.50
414.83	3353.99
415.02	3424.20
415.22	3344.63
415.41	3478.04
415.60	3426.54
415.79	3487.40
415.98	3545.91
416.17	3620.81
416.36	3543.57
416.55	3541.23
416.74	3686.34
416.93	3609.11
417.12	3740.18
417.31	3674.64
417.50	3772.94
417.69	3815.07
417.88	3845.50
418.07	3779.97
418.26	3913.38
418.45	3744.86
418.64	3997.64
418.83	3967.21
419.02	3955.51
419.21	4021.04
419.39	3992.95
419.58	3927.42
419.77	3932.10
419.96	4046.79
420.15	3896.99
420.34	3997.64
420.53	4112.32
420.72	4004.66
420.91	4081.89
421.10	4152.11
421.29	4194.24
421.48	4138.07
421.67	4189.56
421.86	4327.65
422.05	4081.89
422.24	4269.14
422.43	4262.12
422.61	4376.80
422.80	4205.94
422.99	4194.24
423.18	4329.99
423.37	4337.01
423.56	4327.65
423.75	4278.50
423.94	4238.71
424.13	3978.91
424.32	4191.90
424.50	4255.09
424.69	4435.32
424.88	4418.93
425.07	4407.23
425.26	4227.01
425.45	4276.16
425.64	4365.10
425.83	4147.43
426.01	4388.50
426.20	4332.33
426.39	4383.82
426.58	4404.89
426.77	4456.38
426.96	4575.75
427.15	4320.63
427.33	4505.53
427.52	4461.06
427.71	4624.90
427.90	4496.17
428.09	4575.75
428.28	4683.41
428.46	4641.28
428.65	4643.62
428.84	4891.72
429.03	4685.75
429.22	4732.56
429.40	4779.37
429.59	4774.69
429.78	4718.52
429.97	4545.32
430.16	4667.03
430.34	4865.97
430.53	4685.75
430.72	4915.12
430.91	4788.74
431.10	4821.50
431.28	4898.74
431.47	4924.49
431.66	5050.88
431.85	4945.55
432.03	5111.73
432.22	5020.45
432.41	4938.53
432.60	5097.69
432.79	5156.20
432.97	5193.65
433.16	5088.32
433.35	5163.22
433.54	5069.60
433.72	5301.31
433.91	5233.44
434.10	5327.06
434.28	5273.23
434.47	5221.74
434.66	5296.63
434.85	5444.09
435.03	5664.10
435.22	5753.04
435.41	5734.31
435.59	5738.99
435.78	5820.91
435.97	5657.07
436.16	5692.18
436.34	5743.67
436.53	5554.09
436.72	5710.91
436.90	5474.51
437.09	5624.31
437.28	5556.43
437.46	5472.17
437.65	5671.12
437.84	5617.29
438.02	5722.61
438.21	5664.10
438.40	5738.99
438.58	5832.62
438.77	5767.08
438.96	5923.90
439.14	6064.33
439.33	5956.66
439.52	6242.21
439.70	6148.59
439.89	6277.32
440.08	6242.21
440.26	6150.93
440.45	6169.65
440.63	6221.14
440.82	6576.91
441.01	6246.89
441.19	6483.28
441.38	6513.71
441.57	6729.04
441.75	6640.10
441.94	6590.95
442.12	6722.02
442.31	6686.91
442.50	6654.14
442.68	6513.71
442.87	6738.40
443.05	6820.32
443.24	6923.30
443.43	6899.90
443.61	6829.68
443.80	7112.89
443.98	6747.76
444.17	6602.65
444.35	6993.52
444.54	6951.39
444.73	6965.43
444.91	7077.78
445.10	7162.04
445.28	6958.41
445.47	6848.41
445.65	7150.34
445.84	7133.95
446.02	7040.33
446.21	7096.50
446.39	6916.28
446.58	7054.37
446.77	7052.03
446.95	6953.73
447.14	7054.37
447.32	7148.00
447.51	7026.29
447.69	7201.83
447.88	7101.19
448.06	6991.18
448.25	7019.27
448.43	7007.56
448.62	7192.47
448.80	7234.60
448.99	7155.02
449.17	7283.75
449.36	7136.29
449.54	7239.28
449.73	7405.46
449.91	7501.42
450.10	7581.00
450.28	7573.97
450.46	7562.27
450.65	7681.64
450.83	7698.02
451.02	7405.46
451.20	7653.55
451.39	7679.30
451.57	7541.21
451.76	7496.74
451.94	7808.03
452.13	7857.18
452.31	7747.17
452.49	7819.73
452.68	7875.90
452.86	7857.18
453.05	7873.56
453.23	7721.43
453.42	7786.96
453.60	7932.08
453.78	8011.65
453.97	7698.02
454.15	7913.35
454.34	8051.44
454.52	8095.91
454.70	7962.50
454.89	7943.78
455.07	8238.69
455.26	8131.02
455.44	8322.94
455.62	8173.15
455.81	8315.92
455.99	8163.79
456.17	8421.25
456.36	8339.33
456.54	8210.60
456.73	8325.29
456.91	8657.64
457.09	8566.36
457.28	8592.11
457.46	8463.38
457.64	8769.99
457.83	8720.84
458.01	8725.52
458.19	8723.18
458.38	8636.58
458.56	8938.51
458.74	9013.40
458.93	8819.14
459.11	8823.82
459.29	8931.48
459.48	8800.41
459.66	9034.47
459.84	9022.77
460.03	9006.38
460.21	9195.96
460.39	9097.66
460.57	9088.30
460.76	9174.90
460.94	9200.65
461.12	9500.23
461.31	9474.49
461.49	9312.99
461.67	9039.15
461.85	9378.53
462.04	9135.11
462.22	9638.33
462.40	9696.84
462.59	9474.49
462.77	9228.73
462.95	9685.14
463.13	9350.44
463.32	9488.53
463.50	9493.21
463.68	9682.80
463.86	9813.87
464.05	9584.49
464.23	9598.54
464.41	9760.03
464.59	9689.82
464.78	10141.54
464.96	9984.73
465.14	9692.16
465.32	9858.34
465.50	9930.89
465.69	9987.07
465.87	10183.67
466.05	10029.20
466.23	9956.64
466.41	9879.40
466.60	10108.77
466.78	9895.78
466.96	9989.41
467.14	10043.24
467.32	10080.69
467.51	10296.02
467.69	9998.77
467.87	10352.19
468.05	10267.93
468.23	10181.33
468.41	10064.30
468.60	10307.72
468.78	10293.68
468.96	10188.35
469.14	10368.57
469.32	10637.73
469.50	10237.50
469.69	10560.50
469.87	10593.26
470.05	10736.04
470.23	10757.10
470.41	10651.78
470.59	10974.77
470.77	10832.00
470.95	10743.06
471.14	10927.96
471.32	10740.72
471.50	10934.98
471.68	10981.79
471.86	10967.75
472.04	11143.29
472.22	11171.38
472.40	11150.31
472.58	11267.34
472.77	11356.28
472.95	11414.79
473.13	11847.79
473.31	11468.62
473.49	11777.58
473.67	11412.45
473.85	11569.27
474.03	11723.74
474.21	11866.52
474.39	12046.74
474.57	11960.14
474.75	11943.75
474.93	12212.92
475.12	11981.20
475.30	12276.11
475.48	12107.59
475.66	12140.36
475.84	12365.05
476.02	12383.77
476.20	12479.74
476.38	12737.20
476.56	12842.52
476.74	12664.64
476.92	12678.68
477.10	12891.67
477.28	13074.23
477.46	12910.40
477.64	12999.34
477.82	13315.31
478.00	13738.94
478.18	13586.81
478.36	13661.71
478.54	13675.75
478.72	14005.77
478.90	14073.64
479.08	13949.59
479.26	14181.31
479.44	14167.26
479.62	14232.80
479.80	14600.26
479.98	14403.66
480.16	15073.05
480.34	14897.51
480.52	14867.08
480.70	15089.43
480.88	14888.15
481.06	15096.46
481.24	15267.31
481.41	15150.29
481.59	15475.62
481.77	15688.61
481.95	15639.46
482.13	15946.07
482.31	15492.01
482.49	16116.93
482.67	16215.23
482.85	16620.14
483.03	16596.74
483.21	16709.08
483.39	16800.37
483.57	16683.34
483.74	16950.16
483.92	17413.59
484.10	17099.95
484.28	17334.01
484.46	17877.01
484.64	17869.99
484.82	17462.74
485.00	17827.86
485.18	17958.93
485.35	18361.50
485.53	18061.91
485.71	18438.74
485.89	18841.31
486.07	18775.78
486.25	18984.09
486.43	18941.96
486.61	19183.03
486.78	19140.90
486.96	19426.45
487.14	19667.52
487.32	19693.27
487.50	20011.58
487.68	20119.24
487.85	20264.36
488.03	20463.30
488.21	20690.34
488.39	20507.77
488.57	20994.61
488.75	20910.35
488.92	20936.09
489.10	21305.90
489.28	21371.43
489.46	21525.91
489.64	21844.22
489.81	21865.28
489.99	21951.88
490.17	21827.84
490.35	22607.23
490.53	22632.98
490.70	22932.57
490.88	22792.14
491.06	23014.49
491.24	22955.97
491.41	22993.42
491.59	23185.35
491.77	23358.55
491.95	23571.54
492.13	23702.61
492.30	24107.52
492.48	23754.10
492.66	24187.10
492.84	24020.92
493.01	24547.54
493.19	24573.28
493.37	24781.59
493.54	24741.80
493.72	24842.45
493.90	24854.15
494.08	25331.62
494.25	25441.62
494.43	25305.87
494.61	25621.84
494.79	25862.92
494.96	25668.66
495.14	26019.74
495.32	26267.83
495.49	26480.82
495.67	26272.51
495.85	26700.83
496.02	26785.09
496.20	26675.09
496.38	27213.41
496.55	26906.80
496.73	27714.28
496.91	27307.03
497.09	27555.13
497.26	27711.94
497.44	27424.06
497.62	27845.35
497.79	28013.87
497.97	28451.55
498.14	28694.97
498.32	28559.22
498.50	29013.28
498.67	29165.42
498.85	28868.17
499.03	29242.65
499.20	29376.06
499.38	29291.80
499.56	29518.84
499.73	29406.49
499.91	29518.84
500.08	29546.92
500.26	29603.10
500.44	29591.39
500.61	30347.39
500.79	30213.98
500.97	30108.65
501.14	30504.20
501.32	30602.50
501.49	30424.62
501.67	30728.89
501.84	30946.56
502.02	30930.18
502.20	31126.78
502.37	31063.59
502.55	31063.59
502.72	30962.95
502.90	31620.64
503.07	31304.67
503.25	31625.32
503.43	31435.74
503.60	31805.54
503.78	31974.06
503.95	31929.59
504.13	31999.80
504.30	32280.67
504.48	32278.33
504.65	32175.34
504.83	33188.80
505.01	32720.69
505.18	32659.84
505.36	33301.14
505.53	32746.44
505.71	33146.67
505.88	33209.86
506.06	33385.40
506.23	33755.21
506.41	33158.37
506.58	33607.75
506.76	33525.83
506.93	33722.44
507.11	33560.94
507.28	34485.45
507.46	33862.87
507.63	33846.49
507.81	34195.23
507.98	34181.18
508.16	33944.79
508.33	34192.89
508.50	34857.60
508.68	34569.71
508.85	34845.90
509.03	34881.00
509.20	34864.62
509.38	35079.95
509.55	34962.92
509.73	35318.68
509.90	35447.41
510.08	35213.36
510.25	35541.03
510.42	35861.69
510.60	35676.79
510.77	35828.92
510.95	35835.94
511.12	36093.40
511.30	36123.83
511.47	36290.01
511.64	36556.83
511.82	36407.03
511.99	36570.87
512.17	36666.83
512.34	36903.23
512.51	37184.09
512.69	36992.17
512.86	37078.77
513.04	37755.18
513.21	36769.82
513.38	37340.91
513.56	37586.66
513.73	37635.81
513.90	37607.73
514.08	37603.05
514.25	37820.72
514.43	38148.39
514.60	37855.82
514.77	37713.05
514.95	38031.36
515.12	38190.52
515.29	38000.94
515.47	38384.79
515.64	38555.64
515.81	38227.97
515.99	38211.59
516.16	38714.80
516.33	38574.37
516.51	39363.13
516.68	38981.62
516.85	39218.02
517.03	39285.89
517.20	39227.38
517.37	39515.26
517.54	39295.25
517.72	39372.49
517.89	39271.85
518.06	39672.08
518.24	39999.76
518.41	39505.90
518.58	39779.74
518.75	39423.98
518.93	39725.91
519.10	39936.56
519.27	40264.24
519.45	40067.63
519.62	40350.84
519.79	40460.84
519.96	40271.26
520.14	40500.63
520.31	40313.39
520.48	40690.21
520.65	40912.56
520.83	41174.70
521.00	41324.50
521.17	41151.30
521.34	41195.77
521.52	41432.16
521.69	40964.06
521.86	41141.94
522.03	41670.90
522.20	41558.55
522.38	42085.17
522.55	42122.62
522.72	41916.65
522.89	41635.79
523.07	42099.22
523.24	41869.84
523.41	42433.91
523.58	42134.32
523.75	42651.58
523.92	42213.90
524.10	42691.37
524.27	43007.34
524.44	42550.94
524.61	42607.11
524.78	42471.36
524.96	43009.68
525.13	42787.33
525.30	43510.56
525.47	43297.57
525.64	43377.15
525.81	43400.55
525.98	43608.86
526.16	42944.15
526.33	43199.27
526.50	43526.94
526.67	43629.93
526.84	43578.43
527.01	43988.03
527.18	43789.08
527.36	43910.79
527.53	43997.39
527.70	44170.59
527.87	43915.47
528.04	43828.87
528.21	44542.74
528.38	44060.58
528.55	44559.12
528.72	44060.58
528.89	44704.23
529.07	43887.39
529.24	45113.83
529.41	44996.80
529.58	44519.33
529.75	44406.98
529.92	45130.21
530.09	45062.33
530.26	44949.99
530.43	45134.89
530.60	44442.09
530.77	44837.64
530.94	45577.25
531.11	45366.60
531.28	45331.50
531.46	45600.66
531.63	45469.59
531.80	45258.94
531.97	45457.88
532.14	45879.18
532.31	45139.57
532.48	46024.29
532.65	46073.45
532.82	45453.20
532.99	45851.09
533.16	45663.85
533.33	46181.11
533.50	46110.89
533.67	46127.28
533.84	45558.53
534.01	46064.08
534.18	46192.81
534.35	46836.46
534.52	46454.95
534.69	46382.40
534.86	46464.32
535.03	46134.30
535.20	46651.56
535.37	46827.10
535.54	46988.60
535.71	46763.90
535.88	47091.58
536.05	46951.15
536.22	47136.05
536.38	47096.26
536.55	47433.30
536.72	47718.84
536.89	47196.90
537.06	47423.93
537.23	47646.29
537.40	47707.14
537.57	47072.85
537.74	47285.84
537.91	48100.35
538.08	47559.69
538.25	47309.25
538.42	47737.57
538.59	47496.49
538.75	47470.75
538.92	48009.07
539.09	48039.50
539.26	47803.10
539.43	47770.33
539.60	48013.75
539.77	47999.71
539.94	48245.46
540.11	48769.74
540.28	48554.41
540.44	48247.80
540.61	48381.21
540.78	48273.55
540.95	48495.90
541.12	48044.18
541.29	48451.43
541.46	48774.42
541.62	48725.27
541.79	48779.10
541.96	48531.01
542.13	48472.49
542.30	49139.55
542.47	48938.26
542.63	48978.05
542.80	49219.13
542.97	49474.24
543.14	49633.40
543.31	49638.08
543.48	49371.26
543.64	49895.54
543.81	49844.05
543.98	49354.88
544.15	49677.87
544.32	49586.59
544.48	49916.61
544.65	49918.95
544.82	49572.55
544.99	49979.80
545.16	49600.63
545.32	49769.15
545.49	50480.67
545.66	50639.83
545.83	50244.28
546.00	50408.12
546.16	50569.61
546.33	50466.63
546.50	49944.69
546.67	50157.68
546.83	49649.78
547.00	49677.87
547.17	50131.93
547.34	50059.38
547.50	50216.19
547.67	50925.38
547.84	50562.59
548.00	50475.99
548.17	50677.28
548.34	50644.51
548.51	50838.78
548.67	50717.07
548.84	50518.12
549.01	50703.03
549.18	50557.91
549.34	51028.36
549.51	50796.65
549.68	51089.21
549.84	50901.97
550.01	50845.80
550.18	50763.88
550.34	50913.67
550.51	50742.81
550.68	51079.85
550.84	51021.34
551.01	51243.69
551.18	50735.79
551.34	50756.86
551.51	51105.60
551.68	50808.35
551.84	50759.20
552.01	51189.86
552.18	51011.98
552.34	51107.94
552.51	51456.68
552.68	51208.58
552.84	51564.34
553.01	51505.83
553.18	51393.48
553.34	51444.98
553.51	51426.25
553.67	51444.98
553.84	51393.48
554.01	51667.33
554.17	51976.28
554.34	51817.12
554.51	51423.91
554.67	51880.31
554.84	51760.95
555.00	51587.75
555.17	51449.66
555.33	51770.31
555.50	51669.67
555.67	51887.34
555.83	51777.33
556.00	52051.17
556.16	52027.77
556.33	52053.51
556.50	51749.24
556.66	52002.02
556.83	51952.87
556.99	51950.53
557.16	52470.13
557.32	52481.83
557.49	52437.36
557.65	52069.90
557.82	52303.95
557.98	51866.27
558.15	52207.99
558.32	52259.48
558.48	52058.20
558.65	52444.38
558.81	52460.77
558.98	52163.52
559.14	52655.03
559.31	52271.18
559.47	52362.46
559.64	52526.30
559.80	52233.74
559.97	52428.00
560.13	52397.57
560.30	52725.25
560.46	52846.96
560.63	52399.91
560.79	52750.99
560.96	52732.27
561.12	52589.50
561.29	52287.57
561.45	52507.58
561.61	52547.37
561.78	52655.03
561.94	53151.23
562.11	52807.17
562.27	52875.04
562.44	52640.99
562.60	52699.50
562.77	52683.12
562.93	52584.82
563.10	52980.37
563.26	52509.92
563.42	53029.52
563.59	53109.10
563.75	52949.94
563.92	53172.29
564.08	52861.00
564.24	53188.67
564.41	52736.95
564.57	52814.19
564.74	52863.34
564.90	52903.13
565.07	53265.91
565.23	53127.82
565.39	53102.07
565.56	53457.84
565.72	53326.77
565.88	53261.23
566.05	53258.89
566.21	52893.77
566.38	52776.74
566.54	53078.67
566.70	53205.06
566.87	53153.57
567.03	53415.71
567.19	53797.21
567.36	53745.72
567.52	53158.25
567.68	53354.85
567.85	53265.91
568.01	53207.40
568.17	53064.63
568.34	53176.97
568.50	53090.37
568.66	53052.92
568.83	53694.23
568.99	53188.67
569.15	53614.65
569.32	53467.20
569.48	53195.70
569.64	53542.10
569.81	53389.96
569.97	53291.66
570.13	53450.81
570.30	53221.44
570.46	53408.68
570.62	53244.85
570.78	53172.29
570.95	53226.12
571.11	53825.30
571.27	53427.41
571.43	53237.83
571.60	53443.79
571.76	53256.55
571.92	53565.50
572.09	53586.57
572.25	53553.80
572.41	53401.66
572.57	53523.37
572.74	53872.11
572.90	53535.07
573.06	53499.97
573.22	53373.58
573.38	53579.54
573.55	53673.16
573.71	53881.47
573.87	53577.20
574.03	53724.66
574.20	53724.66
574.36	53811.26
574.52	53588.91
574.68	53635.72
574.84	53914.24
575.01	53710.61
575.17	53841.68
575.33	53539.75
575.49	53937.65
575.65	53928.28
575.82	54019.56
575.98	53607.63
576.14	54038.29
576.30	53954.03
576.46	53827.64
576.62	53675.51
576.79	53771.47
576.95	53518.69
577.11	53680.19
577.27	53719.98
577.43	53808.92
577.59	54108.50
577.75	54000.84
577.92	53691.89
578.08	53752.74
578.24	53790.19
578.40	54040.63
578.56	53937.65
578.72	54028.93
578.88	53937.65
579.04	54321.49
579.21	53680.19
579.37	53979.78
579.53	54092.12
579.69	53743.38
579.85	53771.47
580.01	53808.92
580.17	54035.95
580.33	53986.80
580.49	53918.92
580.65	54103.82
580.82	54078.08
580.98	53930.62
581.14	53502.31
581.30	54211.49
581.46	53691.89
581.62	54110.85
581.78	53794.87
581.94	54148.29
582.10	53806.58
582.26	53918.92
582.42	54019.56
582.58	53970.41
582.74	53935.30
582.90	54272.34
583.06	54078.08
583.22	53986.80
583.38	53811.26
583.54	53846.36
583.70	53794.87
583.86	53986.80
584.02	53867.43
584.18	54270.00
584.34	54054.67
584.50	53949.35
584.66	54054.67
584.82	53771.47
584.98	54281.70
585.14	53996.16
585.30	54134.25
585.46	54333.20
585.62	54169.36
585.78	54377.67
585.94	54227.87
586.10	54450.22
586.26	54202.13
586.42	54387.03
586.58	54312.13
586.74	54225.53
586.90	53895.52
587.06	54061.69
587.22	54349.58
587.38	53848.71
587.54	54543.84
587.70	54595.34
587.86	54415.11
588.02	54405.75
588.18	54422.14
588.34	54618.74
588.49	54239.57
588.65	54110.85
