SpectraSuite Data File
++++++++++++++++++++++++++++++++++++
Date: Thu Oct 24 13:21:13 EDT 2013
User: stostad
Dark Spectrum Present: No
Reference Spectrum Present: No
Number of Sampled Component Spectra: 1
Spectrometers: USB2+H05261
Integration Time (usec): 100000 (USB2+H05261)
Spectra Averaged: 1 (USB2+H05261)
Boxcar Smoothing: 0 (USB2+H05261)
Correct for Electrical Dark: No (USB2+H05261)
Strobe/Lamp Enabled: No (USB2+H05261)
Correct for Detector Non-linearity: No (USB2+H05261)
Correct for Stray Light: No (USB2+H05261)
Number of Pixels in Processed Spectrum: 2048
>>>>>Begin Processed Spectral Data<<<<<
365.73	475.13
365.92	475.13
366.12	475.13
366.32	479.81
366.52	444.70
366.72	486.83
366.91	454.06
367.11	463.43
367.31	491.51
367.51	458.74
367.70	531.30
367.90	489.17
368.10	475.13
368.30	440.02
368.49	414.27
368.69	447.04
368.89	465.77
369.09	496.19
369.28	430.66
369.48	496.19
369.68	484.49
369.87	493.85
370.07	472.79
370.27	557.05
370.47	547.69
370.66	657.69
370.86	692.80
371.06	763.01
371.25	674.07
371.45	650.67
371.65	720.88
371.84	669.39
372.04	727.91
372.24	669.39
372.44	690.46
372.63	711.52
372.83	709.18
373.03	734.93
373.22	755.99
373.42	767.70
373.62	723.23
373.81	791.10
374.01	753.65
374.21	730.25
374.40	821.53
374.60	772.38
374.79	767.70
374.99	788.76
375.19	746.63
375.38	763.01
375.58	755.99
375.78	821.53
375.97	784.08
376.17	912.81
376.37	777.06
376.56	784.08
376.76	699.82
376.95	723.23
377.15	791.10
377.35	718.54
377.54	807.48
377.74	779.40
377.93	741.95
378.13	802.80
378.33	798.12
378.52	755.99
378.72	802.80
378.91	788.76
379.11	823.87
379.31	751.31
379.50	795.78
379.70	795.78
379.89	816.85
380.09	814.51
380.28	770.04
380.48	807.48
380.68	805.14
380.87	777.06
381.07	786.42
381.26	798.12
381.46	816.85
381.65	805.14
381.85	809.83
382.04	847.27
382.24	788.76
382.43	837.91
382.63	784.08
382.83	912.81
383.02	884.72
383.22	854.30
383.41	767.70
383.61	812.17
383.80	814.51
384.00	798.12
384.19	870.68
384.39	805.14
384.58	774.72
384.78	887.06
384.97	823.87
385.17	805.14
385.36	856.64
385.56	856.64
385.75	800.46
385.95	858.98
386.14	828.55
386.34	844.93
386.53	903.45
386.72	814.51
386.92	873.02
387.11	894.08
387.31	795.78
387.50	784.08
387.70	866.00
387.89	910.47
388.09	858.98
388.28	830.89
388.48	873.02
388.67	908.13
388.86	868.34
389.06	887.06
389.25	917.49
389.45	851.96
389.64	858.98
389.84	887.06
390.03	880.04
390.22	866.00
390.42	866.00
390.61	821.53
390.81	938.55
391.00	917.49
391.19	884.72
391.39	1008.77
391.58	877.70
391.78	896.43
391.97	926.85
392.16	809.83
392.36	915.15
392.55	959.62
392.75	997.07
392.94	919.83
393.13	915.15
393.33	945.58
393.52	959.62
393.71	994.73
393.91	903.45
394.10	896.43
394.29	1015.79
394.49	1018.13
394.68	910.47
394.88	985.37
395.07	940.90
395.26	968.98
395.46	1015.79
395.65	1081.33
395.84	947.92
396.04	1032.18
396.23	992.39
396.42	1001.75
396.62	1130.48
396.81	1034.52
397.00	978.34
397.19	1020.47
397.39	1055.58
397.58	1057.92
397.77	1001.75
397.97	1097.71
398.16	1043.88
398.35	973.66
398.55	1001.75
398.74	1020.47
398.93	1020.47
399.12	999.41
399.32	987.71
399.51	1081.33
399.70	1074.31
399.90	1118.78
400.09	1074.31
400.28	1057.92
400.47	1076.65
400.67	1102.39
400.86	1109.41
401.05	1078.99
401.24	1132.82
401.44	1097.71
401.63	1172.61
401.82	1090.69
402.01	1071.97
402.21	1076.65
402.40	1078.99
402.59	1055.58
402.78	1151.54
402.97	1172.61
403.17	1088.35
403.36	1151.54
403.55	1095.37
403.74	1156.22
403.93	1287.29
404.13	1245.16
404.32	1263.89
404.51	1226.44
404.70	1266.23
404.89	1259.21
405.09	1273.25
405.28	1242.82
405.47	1277.93
405.66	1294.32
405.85	1273.25
406.05	1210.06
406.24	1261.55
406.43	1256.87
406.62	1317.72
406.81	1287.29
407.00	1308.36
407.20	1284.95
407.39	1345.81
407.58	1315.38
407.77	1376.24
407.96	1310.70
408.15	1366.87
408.34	1306.02
408.54	1331.76
408.73	1336.45
408.92	1294.32
409.11	1345.81
409.30	1369.21
409.49	1401.98
409.68	1390.28
409.87	1397.30
410.07	1352.83
410.26	1488.58
410.45	1467.52
410.64	1343.47
410.83	1394.96
411.02	1502.62
411.21	1504.96
411.40	1465.18
411.59	1516.67
411.78	1519.01
411.98	1439.43
412.17	1511.99
412.36	1497.94
412.55	1493.26
412.74	1551.78
412.93	1502.62
413.12	1502.62
413.31	1568.16
413.50	1631.35
413.69	1629.01
413.88	1647.74
414.07	1647.74
414.26	1619.65
414.45	1678.16
414.64	1638.38
414.83	1790.51
415.02	1619.65
415.22	1687.53
415.41	1664.12
415.60	1678.16
415.79	1673.48
415.98	1699.23
416.17	1680.50
416.36	1804.55
416.55	1713.27
416.74	1816.26
416.93	1687.53
417.12	1790.51
417.31	1790.51
417.50	1748.38
417.69	1839.66
417.88	1818.60
418.07	1732.00
418.26	1790.51
418.45	1778.81
418.64	1916.90
418.83	1895.83
419.02	1853.70
419.21	1795.19
419.39	1788.17
419.58	1865.41
419.77	1851.36
419.96	1959.03
420.15	1834.98
420.34	1879.45
420.53	1853.70
420.72	1900.52
420.91	1987.11
421.10	1907.54
421.29	1982.43
421.48	1928.60
421.67	1994.14
421.86	1942.64
422.05	1977.75
422.24	1891.15
422.43	2017.54
422.61	2038.61
422.80	2026.90
422.99	1933.28
423.18	1984.77
423.37	1994.14
423.56	1944.99
423.75	1984.77
423.94	2001.16
424.13	1842.00
424.32	1921.58
424.50	1928.60
424.69	2038.61
424.88	1984.77
425.07	1961.37
425.26	1989.46
425.45	2059.67
425.64	1989.46
425.83	1991.80
426.01	1973.07
426.20	2026.90
426.39	2078.40
426.58	2026.90
426.77	1998.82
426.96	2090.10
427.15	2064.35
427.33	2024.56
427.52	2010.52
427.71	2202.44
427.90	2038.61
428.09	2115.84
428.28	2099.46
428.46	2139.25
428.65	2092.44
428.84	2153.29
429.03	2169.68
429.22	2120.53
429.40	2090.10
429.59	2172.02
429.78	2064.35
429.97	2087.76
430.16	2127.55
430.34	2150.95
430.53	2190.74
430.72	2204.78
430.91	2059.67
431.10	2204.78
431.28	2253.94
431.47	2197.76
431.66	2174.36
431.85	2321.81
432.03	2298.41
432.22	2221.17
432.41	2244.57
432.60	2275.00
432.79	2317.13
432.97	2328.83
433.16	2377.98
433.35	2225.85
433.54	2275.00
433.72	2377.98
433.91	2328.83
434.10	2342.88
434.28	2296.07
434.47	2340.54
434.66	2394.37
434.85	2450.54
435.03	2555.86
435.22	2689.28
435.41	2918.65
435.59	2696.30
435.78	2672.89
435.97	2628.42
436.16	2438.84
436.34	2434.16
436.53	2513.74
436.72	2434.16
436.90	2452.88
437.09	2495.01
437.28	2349.90
437.46	2450.54
437.65	2431.82
437.84	2551.18
438.02	2377.98
438.21	2452.88
438.40	2420.11
438.58	2612.04
438.77	2593.31
438.96	2511.39
439.14	2558.21
439.33	2539.48
439.52	2616.72
439.70	2569.91
439.89	2668.21
440.08	2668.21
440.26	2600.34
440.45	2642.46
440.63	2724.38
440.82	2677.57
441.01	2715.02
441.19	2665.87
441.38	2724.38
441.57	2808.64
441.75	2771.19
441.94	2731.41
442.12	2731.41
442.31	2890.56
442.50	2888.22
442.68	2862.48
442.87	2853.11
443.05	2829.71
443.24	2920.99
443.43	3030.99
443.61	2995.89
443.80	2928.01
443.98	2810.98
444.17	2778.22
444.35	2958.44
444.54	2904.60
444.73	2937.37
444.91	2818.00
445.10	2836.73
445.28	2911.63
445.47	2853.11
445.65	2895.24
445.84	2918.65
446.02	3009.93
446.21	2986.52
446.39	3014.61
446.58	2949.08
446.77	3005.25
446.95	2864.82
447.14	3007.59
447.32	3038.02
447.51	2953.76
447.69	2946.73
447.88	2932.69
448.06	2986.52
448.25	3063.76
448.43	3012.27
448.62	2857.79
448.80	2963.12
448.99	3016.95
449.17	3035.67
449.36	3052.06
449.54	3070.78
449.73	3014.61
449.91	3141.00
450.10	3070.78
450.28	3131.64
450.46	3248.66
450.65	3124.62
450.83	3119.93
451.02	3131.64
451.20	3143.34
451.39	3122.27
451.57	2995.89
451.76	3145.68
451.94	3105.89
452.13	3208.87
452.31	3173.77
452.49	3192.49
452.68	3297.81
452.86	3178.45
453.05	3255.69
453.23	3157.38
453.42	3229.94
453.60	3225.26
453.78	3295.47
453.97	3251.00
454.15	3185.47
454.34	3234.62
454.52	3344.63
454.70	3309.52
454.89	3229.94
455.07	3246.32
455.26	3276.75
455.44	3332.92
455.62	3199.51
455.81	3328.24
455.99	3267.39
456.17	3414.84
456.36	3403.14
456.54	3365.69
456.73	3407.82
456.91	3435.91
457.09	3520.17
457.28	3503.78
457.46	3454.63
457.64	3702.73
457.83	3506.12
458.01	3368.03
458.19	3581.02
458.38	3461.65
458.56	3513.14
458.74	3351.65
458.93	3513.14
459.11	3485.06
459.29	3651.24
459.48	3503.78
459.66	3520.17
459.84	3562.30
460.03	3723.79
460.21	3637.19
460.39	3667.62
460.57	3702.73
460.76	3684.00
460.94	3691.02
461.12	3749.54
461.31	3655.92
461.49	3698.05
461.67	3679.32
461.85	3716.77
462.04	3651.24
462.22	4004.66
462.40	3812.73
462.59	3861.88
462.77	3768.26
462.95	3758.90
463.13	3889.97
463.32	3845.50
463.50	3845.50
463.68	3899.33
463.86	3810.39
464.05	3709.75
464.23	3840.82
464.41	3756.56
464.59	3880.61
464.78	3918.06
464.96	3957.85
465.14	3742.52
465.32	3850.18
465.50	3880.61
465.69	4025.72
465.87	3850.18
466.05	3999.98
466.23	3901.67
466.41	4039.76
466.60	3962.53
466.78	3941.46
466.96	3997.64
467.14	3943.80
467.32	3990.61
467.51	4107.64
467.69	3960.19
467.87	3960.19
468.05	4128.70
468.23	3962.53
468.41	4042.11
468.60	3911.04
468.78	4021.04
468.96	4011.68
469.14	4060.83
469.32	4067.85
469.50	4079.55
469.69	4053.81
469.87	4168.49
470.05	4145.09
470.23	4201.26
470.41	4203.60
470.59	4063.17
470.77	4245.73
470.95	4156.79
471.14	4241.05
471.32	4269.14
471.50	4259.78
471.68	4271.48
471.86	4241.05
472.04	4306.59
472.22	4320.63
472.40	4266.80
472.58	4329.99
472.77	4482.13
472.95	4400.21
473.13	4540.64
473.31	4418.93
473.49	4554.68
473.67	4561.70
473.85	4437.66
474.03	4566.39
474.21	4524.26
474.39	4585.11
474.57	4650.64
474.75	4589.79
474.93	4706.82
475.12	4713.84
475.30	4812.14
475.48	4699.80
475.66	4667.03
475.84	4718.52
476.02	4620.22
476.20	4814.48
476.38	4725.54
476.56	4814.48
476.74	4798.10
476.92	4770.01
477.10	4919.81
477.28	4983.00
477.46	4896.40
477.64	5088.32
477.82	5036.83
478.00	5062.58
478.18	5174.92
478.36	5111.73
478.54	5165.56
478.72	5289.61
478.90	5483.88
479.08	5231.10
479.26	5289.61
479.44	5359.83
479.62	5369.19
479.80	5523.66
479.98	5502.60
480.16	5640.69
480.34	5584.52
480.52	5600.90
480.70	5687.50
480.88	5607.92
481.06	5598.56
481.24	5612.60
481.41	5626.65
481.59	5865.38
481.77	5687.50
481.95	5834.96
482.13	5949.64
482.31	5778.78
482.49	6017.52
482.67	5947.30
482.85	6080.71
483.03	6197.74
483.21	6216.46
483.39	6228.17
483.57	6139.23
483.74	6164.97
483.92	6258.59
484.10	6195.40
484.28	6537.12
484.46	6473.92
484.64	6609.67
484.82	6389.66
485.00	6600.31
485.18	6803.94
485.35	6787.55
485.53	6637.76
485.71	6698.61
485.89	6806.28
486.07	6752.45
486.25	6944.37
486.43	6801.60
486.61	6986.50
486.78	7171.40
486.96	6993.52
487.14	7356.30
487.32	7150.34
487.50	7052.03
487.68	7309.49
487.85	7393.75
488.03	7517.80
488.21	7550.57
488.39	7363.33
488.57	7522.48
488.75	7520.14
488.92	7545.89
489.10	7613.76
489.28	7716.75
489.46	7845.48
489.64	7719.09
489.81	7887.61
489.99	7793.98
490.17	7990.59
490.35	8175.49
490.53	8044.42
490.70	8131.02
490.88	8152.09
491.06	8180.17
491.24	8255.07
491.41	8196.56
491.59	8428.27
491.77	8451.67
491.95	8304.22
492.13	8468.06
492.30	8655.30
492.48	8446.99
492.66	8505.51
492.84	8435.29
493.01	8669.34
493.19	8638.92
493.37	8877.65
493.54	8711.47
493.72	8835.52
493.90	8765.31
494.08	8894.04
494.25	9071.92
494.43	8924.46
494.61	9032.13
494.79	8973.61
494.96	9083.62
495.14	9275.54
495.32	9177.24
495.49	9193.62
495.67	9114.05
495.85	9516.62
496.02	9298.95
496.20	9320.01
496.38	9537.68
496.55	9514.28
496.73	9738.97
496.91	9362.14
497.09	9589.17
497.26	9640.67
497.44	9788.12
497.62	9760.03
497.79	9886.42
497.97	9914.51
498.14	10010.47
498.32	9949.62
498.50	9891.10
498.67	9963.66
498.85	10031.54
499.03	10141.54
499.20	9987.07
499.38	10050.26
499.56	10143.88
499.73	10101.75
499.91	10115.80
500.08	10361.55
500.26	10274.95
500.44	10441.13
500.61	10450.49
500.79	10576.88
500.97	10359.21
501.14	10806.25
501.32	10321.76
501.49	10478.58
501.67	10597.95
501.84	10871.79
502.02	10775.83
502.20	10890.51
502.37	10876.47
502.55	10640.08
502.72	10738.38
502.90	10647.10
503.07	10740.72
503.25	10824.98
503.43	10906.90
503.60	10923.28
503.78	11101.16
503.95	10974.77
504.13	10942.00
504.30	11066.05
504.48	11096.48
504.65	11164.36
504.83	11365.64
505.01	11262.66
505.18	11304.79
505.36	11393.73
505.53	11314.15
505.71	11304.79
505.88	11382.03
506.06	11316.49
506.23	11419.47
506.41	11421.81
506.58	11377.34
506.76	11506.07
506.93	11557.57
507.11	11679.27
507.28	11630.12
507.46	11578.63
507.63	11786.94
507.81	11803.32
507.98	11587.99
508.16	11660.55
508.33	11831.41
508.50	12095.89
508.68	11850.13
508.85	12023.33
509.03	12035.03
509.20	12074.82
509.38	12191.85
509.55	12161.42
509.73	12212.92
509.90	12114.61
510.08	12067.80
510.25	12109.93
510.42	12133.34
510.60	12182.49
510.77	12308.88
510.95	12313.56
511.12	12458.67
511.30	12542.93
511.47	12451.65
511.64	12177.81
511.82	12615.49
511.99	12500.80
512.17	12283.13
512.34	12339.30
512.51	12659.96
512.69	12833.16
512.86	12727.83
513.04	12798.05
513.21	12800.39
513.38	12503.14
513.56	12734.85
513.73	12746.56
513.90	12931.46
514.08	12779.32
514.25	12996.99
514.43	12952.52
514.60	12872.95
514.77	12774.64
514.95	13214.66
515.12	13013.38
515.29	12945.50
515.47	13123.38
515.64	13226.37
515.81	13390.20
515.99	13411.27
516.16	13259.13
516.33	13144.45
516.51	13324.67
516.68	13259.13
516.85	13263.82
517.03	13380.84
517.20	13418.29
517.37	13254.45
517.54	13249.77
517.72	13273.18
517.89	13460.42
518.06	13228.71
518.24	13575.11
518.41	13366.80
518.58	13584.47
518.75	13645.32
518.93	13465.10
519.10	13493.19
519.27	13769.37
519.45	13530.64
519.62	13870.01
519.79	13788.10
519.96	13706.18
520.14	14003.43
520.31	13741.29
520.48	13488.51
520.65	13912.14
520.83	13921.51
521.00	13909.80
521.17	13703.84
521.34	13905.12
521.52	14001.08
521.69	13975.34
521.86	13900.44
522.03	14300.67
522.20	14195.35
522.38	14064.28
522.55	14340.46
522.72	14031.51
522.89	14394.29
523.07	14232.80
523.24	14251.52
523.41	14204.71
523.58	14359.19
523.75	14497.28
523.92	14391.95
524.10	14363.87
524.27	14511.32
524.44	14511.32
524.61	14382.59
524.78	14525.36
524.96	14640.05
525.13	14375.57
525.30	14609.62
525.47	14721.97
525.64	14567.49
525.81	14787.50
525.98	14778.14
526.16	14686.86
526.33	14911.55
526.50	14974.75
526.67	14658.78
526.84	14850.70
527.01	14841.34
527.18	14864.74
527.36	14780.48
527.53	14747.72
527.70	14902.19
527.87	14899.85
528.04	14843.68
528.21	15316.47
528.38	14916.23
528.55	14979.43
528.72	14972.41
528.89	14799.21
529.07	15124.54
529.24	14937.30
529.41	14944.32
529.58	14923.26
529.75	15002.83
529.92	15122.20
530.09	15066.03
530.26	15082.41
530.43	15332.85
530.60	15007.52
530.77	14916.23
530.94	15166.67
531.11	15300.08
531.28	15232.21
531.46	15169.01
531.63	14930.28
531.80	15096.46
531.97	15374.98
532.14	15372.64
532.31	15597.33
532.48	15389.02
532.65	15384.34
532.82	15482.64
532.99	15279.02
533.16	15651.16
533.33	15442.85
533.50	15653.50
533.67	15489.67
533.84	15515.41
534.01	15515.41
534.18	15583.29
534.35	15571.58
534.52	15702.65
534.69	15740.10
534.86	15648.82
535.03	15440.51
535.20	15585.63
535.37	15740.10
535.54	16053.73
535.71	15878.19
535.88	15955.43
536.05	15871.17
536.22	15981.18
536.38	15899.26
536.55	15910.96
536.72	16072.46
536.89	16091.18
537.06	16091.18
537.23	15981.18
537.40	16020.97
537.57	16081.82
537.74	16266.72
537.91	15983.52
538.08	16018.63
538.25	16114.59
538.42	16006.92
538.59	16205.87
538.75	16079.48
538.92	16418.86
539.09	16168.42
539.26	16156.72
539.43	16137.99
539.60	16465.67
539.77	16460.99
539.94	16582.70
540.11	16596.74
540.28	16369.71
540.44	16652.91
540.61	16673.98
540.78	16716.11
540.95	16629.51
541.12	16688.02
541.29	16943.14
541.46	16847.18
541.62	16933.78
541.79	17226.34
541.96	16868.24
542.13	16968.88
542.30	17060.16
542.47	17032.08
542.63	17128.04
542.80	17048.46
542.97	16952.50
543.14	17575.08
543.31	17303.58
543.48	17263.79
543.64	17235.70
543.81	17095.27
543.98	17121.02
544.15	17242.73
544.32	17167.83
544.48	17397.20
544.65	17380.82
544.82	17411.25
544.99	17132.72
545.16	17399.54
545.32	17324.65
545.49	17823.18
545.66	18288.95
545.83	18216.39
546.00	18434.06
546.16	18162.56
546.33	17734.24
546.50	17432.31
546.67	17205.28
546.83	17177.19
547.00	17270.81
547.17	17074.21
547.34	17216.98
547.50	17296.56
547.67	17303.58
547.84	17497.84
548.00	17504.87
548.17	17568.06
548.34	17404.22
548.51	17502.53
548.67	17369.12
548.84	17439.33
549.01	17612.53
549.18	17406.56
549.34	17193.58
549.51	17413.59
549.68	17179.53
549.84	17549.34
550.01	17493.16
550.18	17682.75
550.34	17240.39
550.51	17303.58
550.68	17291.88
550.84	17249.75
551.01	17369.12
551.18	17308.26
551.34	17099.95
551.51	17467.42
551.68	17151.45
551.84	17502.53
552.01	17275.49
552.18	17537.63
552.34	17362.09
552.51	17497.84
552.68	17593.81
552.84	17397.20
553.01	17352.73
553.18	17467.42
553.34	17479.12
553.51	17146.76
553.67	17659.34
553.84	17685.09
554.01	17584.44
554.17	17605.51
554.34	17781.05
554.51	17247.41
554.67	17422.95
554.84	17657.00
555.00	17642.96
555.17	17383.16
555.33	17579.76
555.50	17664.02
555.67	17355.07
555.83	17432.31
556.00	17532.95
556.16	17764.67
556.33	17743.60
556.50	17671.04
556.66	17486.14
556.83	17193.58
556.99	17645.30
557.16	17823.18
557.32	17727.22
557.49	17820.84
557.65	17612.53
557.82	17610.19
557.98	17722.54
558.15	17563.38
558.32	17561.04
558.48	17745.94
558.65	17568.06
558.81	17963.61
558.98	17942.55
559.14	17750.62
559.31	17301.24
559.47	17729.56
559.64	17769.35
559.80	17673.39
559.97	17558.70
560.13	17722.54
560.30	17603.17
560.46	17797.43
560.63	17912.12
560.79	17785.73
560.96	18008.08
561.12	17954.25
561.29	18087.66
561.45	17867.65
561.61	17902.76
561.78	17879.35
561.94	17860.63
562.11	17898.08
562.27	17750.62
562.44	17767.01
562.60	17949.57
562.77	17879.35
562.93	17699.13
563.10	18200.01
563.26	17598.49
563.42	18045.53
563.59	17972.97
563.75	17994.04
563.92	18192.98
564.08	18050.21
564.24	17930.84
564.41	18001.06
564.57	17764.67
564.74	17696.79
564.90	17965.95
565.07	17998.72
565.23	17886.37
565.39	18036.17
565.56	18146.17
565.72	18061.91
565.88	17804.46
566.05	18061.91
566.21	17694.45
566.38	18005.74
566.54	17893.40
566.70	17951.91
566.87	18085.32
567.03	17972.97
567.19	18211.71
567.36	17858.29
567.52	17722.54
567.68	18078.30
567.85	17888.71
568.01	18181.28
568.17	17811.48
568.34	18073.62
568.50	17846.58
568.66	18153.20
568.83	18127.45
568.99	18078.30
569.15	18061.91
569.32	18052.55
569.48	18008.08
569.64	18017.44
569.81	18125.11
569.97	17771.69
570.13	17998.72
570.30	18001.06
570.46	18202.35
570.62	18090.00
570.78	17961.27
570.95	17881.69
571.11	18115.75
571.27	18064.25
571.43	18066.60
571.60	17858.29
571.76	17781.05
571.92	18061.91
572.09	17928.50
572.25	18125.11
572.41	18019.78
572.57	18143.83
572.74	18209.37
572.90	17963.61
573.06	18094.68
573.22	18391.93
573.38	18033.83
573.55	18232.77
573.71	18314.69
573.87	18104.04
574.03	18225.75
574.20	18073.62
574.36	18054.89
574.52	18036.17
574.68	17895.74
574.84	17970.63
575.01	18200.01
575.17	18097.02
575.33	18097.02
575.49	18022.12
575.65	18101.70
575.82	18017.44
575.98	18211.71
576.14	18258.52
576.30	18010.42
576.46	18260.86
576.62	18237.45
576.79	18319.37
576.95	17998.72
577.11	18195.32
577.27	18214.05
577.43	18214.05
577.59	18370.86
577.75	17996.38
577.92	18115.75
578.08	18071.28
578.24	18200.01
578.40	18377.89
578.56	18466.83
578.72	18668.11
578.88	18558.11
579.04	18256.18
579.21	18293.63
579.37	18471.51
579.53	18361.50
579.69	18181.28
579.85	18305.33
580.01	18148.51
580.17	18398.95
580.33	18279.58
580.49	18150.85
580.65	18200.01
580.82	18207.03
580.98	18143.83
581.14	18434.06
581.30	18197.67
581.46	18319.37
581.62	18223.41
581.78	18331.08
581.94	18391.93
582.10	18005.74
582.26	18045.53
582.42	18017.44
582.58	18370.86
582.74	18036.17
582.90	18382.57
583.06	18342.78
583.22	18127.45
583.38	18366.18
583.54	18370.86
583.70	18279.58
583.86	18380.23
584.02	18340.44
584.18	18553.43
584.34	18314.69
584.50	18445.76
584.66	18024.47
584.82	17963.61
584.98	18265.54
585.14	18445.76
585.30	18352.14
585.46	18235.11
585.62	17853.61
585.78	18370.86
585.94	18223.41
586.10	18441.08
586.26	18125.11
586.42	18691.52
586.58	18377.89
586.74	18174.26
586.90	18059.57
587.06	18054.89
587.22	18618.96
587.38	18354.48
587.54	18377.89
587.70	18490.23
587.86	18274.90
588.02	18277.24
588.18	18260.86
588.34	18125.11
588.49	18375.55
588.65	17930.84
588.81	18185.96
588.97	18551.09
589.13	18537.04
589.29	18436.40
589.45	18661.09
589.61	18284.26
589.77	18408.31
589.93	18347.46
590.08	18389.59
590.24	18029.15
590.40	18139.15
590.56	18286.61
590.72	18225.75
590.88	18012.76
591.04	18190.64
591.20	18281.92
591.35	18038.51
591.51	18553.43
591.67	18530.02
