SpectraSuite Data File
++++++++++++++++++++++++++++++++++++
Date: Thu Oct 24 13:21:15 EDT 2013
User: stostad
Dark Spectrum Present: No
Reference Spectrum Present: No
Number of Sampled Component Spectra: 1
Spectrometers: USB2+H05261
Integration Time (usec): 100000 (USB2+H05261)
Spectra Averaged: 1 (USB2+H05261)
Boxcar Smoothing: 0 (USB2+H05261)
Correct for Electrical Dark: No (USB2+H05261)
Strobe/Lamp Enabled: No (USB2+H05261)
Correct for Detector Non-linearity: No (USB2+H05261)
Correct for Stray Light: No (USB2+H05261)
Number of Pixels in Processed Spectrum: 2048
>>>>>Begin Processed Spectral Data<<<<<
365.73	554.71
365.92	554.71
366.12	554.71
366.32	545.34
366.52	440.02
366.72	461.09
366.91	477.47
367.11	433.00
367.31	468.11
367.51	444.70
367.70	470.45
367.90	486.83
368.10	416.62
368.30	407.25
368.49	496.19
368.69	468.11
368.89	507.90
369.09	484.49
369.28	454.06
369.48	468.11
369.68	484.49
369.87	538.32
370.07	594.50
370.27	514.92
370.47	571.09
370.66	770.04
370.86	748.97
371.06	910.47
371.25	760.67
371.45	791.10
371.65	814.51
371.84	798.12
372.04	720.88
372.24	819.19
372.44	898.77
372.63	840.25
372.83	875.36
373.03	842.59
373.22	884.72
373.42	877.70
373.62	866.00
373.81	940.90
374.01	877.70
374.21	922.17
374.40	858.98
374.60	924.51
374.79	938.55
374.99	959.62
375.19	957.28
375.38	964.30
375.58	945.58
375.78	908.13
375.97	931.53
376.17	1020.47
376.37	954.94
376.56	936.21
376.76	929.19
376.95	994.73
377.15	908.13
377.35	997.07
377.54	945.58
377.74	919.83
377.93	945.58
378.13	933.87
378.33	999.41
378.52	1025.15
378.72	945.58
378.91	1020.47
379.11	952.60
379.31	922.17
379.50	940.90
379.70	1043.88
379.89	971.32
380.09	1043.88
380.28	961.96
380.48	952.60
380.68	952.60
380.87	1025.15
381.07	952.60
381.26	994.73
381.46	943.24
381.65	983.02
381.85	1041.54
382.04	1018.13
382.24	964.30
382.43	1071.97
382.63	1034.52
382.83	964.30
383.02	1001.75
383.22	950.26
383.41	1071.97
383.61	1050.90
383.80	1074.31
384.00	1020.47
384.19	1081.33
384.39	1100.05
384.58	1060.26
384.78	1067.28
384.97	1025.15
385.17	1036.86
385.36	1055.58
385.56	1125.80
385.75	1069.62
385.95	1097.71
386.14	1118.78
386.34	1041.54
386.53	1041.54
386.72	1121.12
386.92	1153.88
387.11	1102.39
387.31	1109.41
387.50	1142.18
387.70	1137.50
387.89	1121.12
388.09	1050.90
388.28	1116.44
388.48	1123.46
388.67	1149.20
388.86	1177.29
389.06	1132.82
389.25	1088.35
389.45	1076.65
389.64	1097.71
389.84	1174.95
390.03	1254.53
390.22	1193.67
390.42	1104.73
390.61	1118.78
390.81	1137.50
391.00	1165.59
391.19	1233.46
391.39	1226.44
391.58	1280.27
391.78	1266.23
391.97	1188.99
392.16	1210.06
392.36	1303.68
392.55	1296.66
392.75	1287.29
392.94	1270.91
393.13	1228.78
393.33	1238.14
393.52	1289.64
393.71	1343.47
393.91	1256.87
394.10	1240.48
394.29	1277.93
394.49	1268.57
394.68	1399.64
394.88	1294.32
395.07	1404.32
395.26	1320.06
395.46	1380.92
395.65	1420.71
395.84	1383.26
396.04	1373.89
396.23	1418.36
396.42	1378.58
396.62	1315.38
396.81	1425.39
397.00	1359.85
397.19	1390.28
397.39	1380.92
397.58	1394.96
397.77	1385.60
397.97	1441.77
398.16	1493.26
398.35	1427.73
398.55	1437.09
398.74	1521.35
398.93	1596.25
399.12	1472.20
399.32	1390.28
399.51	1462.83
399.70	1493.26
399.90	1364.53
400.09	1472.20
400.28	1570.50
400.47	1430.07
400.67	1629.01
400.86	1558.80
401.05	1547.09
401.24	1507.30
401.44	1542.41
401.63	1668.80
401.82	1619.65
402.01	1565.82
402.21	1626.67
402.40	1558.80
402.59	1654.76
402.78	1678.16
402.97	1612.63
403.17	1682.85
403.36	1680.50
403.55	1736.68
403.74	1741.36
403.93	1774.13
404.13	1739.02
404.32	1783.49
404.51	1736.68
404.70	1795.19
404.89	1722.63
405.09	1895.83
405.28	1687.53
405.47	1778.81
405.66	1783.49
405.85	1771.79
406.05	1867.75
406.24	1867.75
406.43	1966.05
406.62	1928.60
406.81	1916.90
407.00	1860.73
407.20	1797.53
407.39	1935.62
407.58	1907.54
407.77	2008.18
407.96	1984.77
408.15	1961.37
408.34	1980.09
408.54	1973.07
408.73	1919.24
408.92	2010.52
409.11	2120.53
409.30	1973.07
409.49	2097.12
409.68	2022.22
409.87	2118.18
410.07	2125.21
410.26	2097.12
410.45	1966.05
410.64	2160.31
410.83	2134.57
411.02	2223.51
411.21	2204.78
411.40	2232.87
411.59	2169.68
411.78	2228.19
411.98	2249.25
412.17	2244.57
412.36	2373.30
412.55	2312.45
412.74	2368.62
412.93	2415.43
413.12	2370.96
413.31	2403.73
413.50	2464.58
413.69	2368.62
413.88	2401.39
414.07	2420.11
414.26	2490.33
414.45	2462.24
414.64	2466.92
414.83	2466.92
415.02	2504.37
415.22	2607.36
415.41	2710.34
415.60	2644.81
415.79	2586.29
415.98	2665.87
416.17	2597.99
416.36	2764.17
416.55	2675.23
416.74	2757.15
416.93	2654.17
417.12	2672.89
417.31	2794.60
417.50	2722.04
417.69	2801.62
417.88	2897.58
418.07	2904.60
418.26	2885.88
418.45	2799.28
418.64	2899.92
418.83	2895.24
419.02	2862.48
419.21	2958.44
419.39	2855.45
419.58	2878.86
419.77	2897.58
419.96	2977.16
420.15	2930.35
420.34	2888.22
420.53	3075.46
420.72	3070.78
420.91	3038.02
421.10	3117.59
421.29	3084.83
421.48	3026.31
421.67	3258.03
421.86	3141.00
422.05	3119.93
422.24	3087.17
422.43	3272.07
422.61	3173.77
422.80	3110.57
422.99	3222.92
423.18	3288.45
423.37	3236.96
423.56	3290.79
423.75	3183.13
423.94	3101.21
424.13	2920.99
424.32	3138.66
424.50	3089.51
424.69	3255.69
424.88	3302.50
425.07	3192.49
425.26	3344.63
425.45	3253.34
425.64	3054.40
425.83	3194.83
426.01	3101.21
426.20	3262.71
426.39	3316.54
426.58	3094.19
426.77	3262.71
426.96	3272.07
427.15	3206.53
427.33	3236.96
427.52	3314.20
427.71	3286.11
427.90	3398.46
428.09	3438.25
428.28	3389.10
428.46	3351.65
428.65	3410.16
428.84	3480.38
429.03	3517.83
429.22	3473.36
429.40	3417.18
429.59	3417.18
429.78	3412.50
429.97	3258.03
430.16	3461.65
430.34	3569.32
430.53	3585.70
430.72	3557.61
430.91	3578.68
431.10	3604.42
431.28	3618.47
431.47	3646.55
431.66	3765.92
431.85	3665.28
432.03	3751.88
432.22	3763.58
432.41	3789.33
432.60	3599.74
432.79	3611.45
432.97	3644.21
433.16	3819.75
433.35	3892.31
433.54	3899.33
433.72	3908.69
433.91	3779.97
434.10	3950.82
434.28	3808.05
434.47	3847.84
434.66	3843.16
434.85	3885.29
435.03	4072.53
435.22	4049.13
435.41	4355.74
435.59	4095.94
435.78	4222.33
435.97	4175.52
436.16	4084.23
436.34	3988.27
436.53	3899.33
436.72	4147.43
436.90	4035.08
437.09	4142.75
437.28	4070.19
437.46	4100.62
437.65	4163.81
437.84	4351.06
438.02	4257.43
438.21	4152.11
438.40	4128.70
438.58	4234.03
438.77	4449.36
438.96	4264.46
439.14	4313.61
439.33	4545.32
439.52	4531.28
439.70	4313.61
439.89	4477.44
440.08	4400.21
440.26	4390.84
440.45	4416.59
440.63	4531.28
440.82	4730.22
441.01	4608.51
441.19	4582.77
441.38	4730.22
441.57	4819.16
441.75	4720.86
441.94	4835.55
442.12	4950.23
442.31	4919.81
442.50	4896.40
442.68	4821.50
442.87	4975.98
443.05	5032.15
443.24	4994.70
443.43	4905.76
443.61	4968.96
443.80	5043.85
443.98	4924.49
444.17	4638.94
444.35	4929.17
444.54	4983.00
444.73	4997.04
444.91	5067.26
445.10	5100.03
445.28	4896.40
445.47	4980.66
445.65	4924.49
445.84	4980.66
446.02	5102.37
446.21	5076.62
446.39	5011.09
446.58	5067.26
446.77	5156.20
446.95	4823.84
447.14	5165.56
447.32	5184.29
447.51	5179.61
447.69	5123.43
447.88	5188.97
448.06	5085.98
448.25	5093.01
448.43	5303.65
448.62	5210.03
448.80	5172.58
448.99	5121.09
449.17	5069.60
449.36	5212.37
449.54	5280.25
449.73	5413.66
449.91	5245.14
450.10	5448.77
450.28	5446.43
450.46	5284.93
450.65	5350.46
450.83	5453.45
451.02	5341.10
451.20	5528.35
451.39	5458.13
451.57	5488.56
451.76	5310.68
451.94	5448.77
452.13	5540.05
452.31	5537.71
452.49	5497.92
452.68	5619.63
452.86	5455.79
453.05	5614.95
453.23	5624.31
453.42	5671.12
453.60	5591.54
453.78	5647.71
453.97	5659.42
454.15	5640.69
454.34	5568.13
454.52	5724.95
454.70	5757.72
454.89	5820.91
455.07	5734.31
455.26	5708.57
455.44	5795.17
455.62	5937.94
455.81	6012.84
455.99	5975.39
456.17	5834.96
456.36	5975.39
456.54	5928.58
456.73	6171.99
456.91	6127.52
457.09	6073.69
457.28	6183.70
457.46	6066.67
457.64	6267.95
457.83	6010.50
458.01	6209.44
458.19	6345.19
458.38	6134.54
458.56	6200.08
458.74	6183.70
458.93	6246.89
459.11	6286.68
459.29	6221.14
459.48	6441.15
459.66	6377.96
459.84	6415.41
460.03	6413.07
460.21	6478.60
460.39	6450.52
460.57	6373.28
460.76	6403.71
460.94	6485.62
461.12	6518.39
461.31	6569.88
461.49	6569.88
461.67	6363.92
461.85	6523.07
462.04	6565.20
462.22	6932.67
462.40	6707.98
462.59	6621.38
462.77	6663.51
462.95	6857.77
463.13	6768.83
463.32	6883.52
463.50	6888.20
463.68	6888.20
463.86	7045.01
464.05	6810.96
464.23	6644.78
464.41	6876.49
464.59	6951.39
464.78	7063.74
464.96	6932.67
465.14	6848.41
465.32	6956.07
465.50	6972.46
465.69	7063.74
465.87	7030.97
466.05	6958.41
466.23	6925.65
466.41	7124.59
466.60	7173.74
466.78	6995.86
466.96	7089.48
467.14	7178.42
467.32	7098.84
467.51	7302.47
467.69	7152.68
467.87	7213.53
468.05	7148.00
468.23	7042.67
468.41	7180.76
468.60	7248.64
468.78	7145.66
468.96	7431.20
469.14	7475.67
469.32	7550.57
469.50	7356.30
469.69	7302.47
469.87	7590.36
470.05	7393.75
470.23	7604.40
470.41	7506.10
470.59	7735.47
470.77	7662.91
470.95	7676.96
471.14	7683.98
471.32	7463.97
471.50	7595.04
471.68	7705.04
471.86	7737.81
472.04	7929.74
472.22	8009.31
472.40	7990.59
472.58	7805.69
472.77	8004.63
472.95	7971.86
473.13	8334.65
473.31	8091.23
473.49	8154.43
473.67	7985.91
473.85	8187.19
474.03	8224.64
474.21	8379.12
474.39	8446.99
474.57	8297.20
474.75	8425.93
474.93	8411.89
475.12	8489.12
475.30	8503.17
475.48	8367.42
475.66	8753.60
475.84	8461.04
476.02	8711.47
476.20	8664.66
476.38	8821.48
476.56	9174.90
476.74	8964.25
476.92	8795.73
477.10	9095.32
477.28	9083.62
477.46	9130.43
477.64	9205.33
477.82	9303.63
478.00	9570.45
478.18	9385.55
478.36	9549.39
478.54	9713.22
478.72	9605.56
478.90	9605.56
479.08	9966.00
479.26	9970.68
479.44	10092.39
479.62	10036.22
479.80	10113.45
479.98	10178.99
480.16	10244.52
480.34	10258.57
480.52	10136.86
480.70	10277.29
480.88	10361.55
481.06	10457.51
481.24	10169.63
481.41	10817.96
481.59	10703.27
481.77	10864.77
481.95	10647.10
482.13	10684.55
482.31	11199.46
482.49	11246.27
482.67	11335.21
482.85	11398.41
483.03	11583.31
483.21	11265.00
483.39	11499.05
483.57	11695.66
483.74	11508.41
483.92	11789.28
484.10	11918.01
484.28	11871.20
484.46	12269.09
484.64	12138.02
484.82	12229.30
485.00	12219.94
485.18	12456.33
485.35	12774.64
485.53	12634.21
485.71	12889.33
485.89	13046.15
486.07	12847.20
486.25	12856.56
486.43	13092.96
486.61	13261.48
486.78	13397.23
486.96	13453.40
487.14	13500.21
487.32	13542.34
487.50	13554.04
487.68	13900.44
487.85	13982.36
488.03	13870.01
488.21	14185.99
488.39	14197.69
488.57	14228.12
488.75	14160.24
488.92	14618.99
489.10	14693.88
489.28	14511.32
489.46	14927.94
489.64	14881.13
489.81	15164.33
489.99	15353.91
490.17	15260.29
490.35	15412.43
490.53	15442.85
490.70	15782.23
490.88	15426.47
491.06	15707.34
491.24	15864.15
491.41	15716.70
491.59	15742.44
491.77	16098.20
491.95	16240.98
492.13	16475.03
492.30	16112.25
492.48	16091.18
492.66	16339.28
492.84	16657.59
493.01	16744.19
493.19	16652.91
493.37	16901.01
493.54	16891.65
493.72	16833.13
493.90	17242.73
494.08	17085.91
494.25	17624.23
494.43	17525.93
494.61	17865.31
494.79	17521.25
494.96	17579.76
495.14	17699.13
495.32	18160.22
495.49	18111.07
495.67	17898.08
495.85	18190.64
496.02	18412.99
496.20	18141.49
496.38	18494.91
496.55	18405.97
496.73	18890.46
496.91	18764.07
497.09	18890.46
497.26	18850.67
497.44	19098.77
497.62	18986.43
497.79	19314.10
497.97	19480.28
498.14	19789.23
498.32	19435.81
498.50	19576.24
498.67	19896.89
498.85	19719.01
499.03	19901.58
499.20	20126.27
499.38	19894.55
499.56	20315.85
499.73	20194.14
499.91	19936.68
500.08	20505.43
500.26	20156.69
500.44	20332.23
500.61	20992.26
500.79	20561.61
500.97	20734.81
501.14	20765.23
501.32	21020.35
501.49	20823.75
501.67	20926.73
501.84	21200.57
502.02	21092.91
502.20	21069.50
502.37	21128.02
502.55	21282.49
502.72	21610.17
502.90	21362.07
503.07	21331.64
503.25	21369.09
503.43	21862.94
503.60	21652.30
503.78	22008.06
503.95	21226.32
504.13	21769.32
504.30	21755.28
504.48	22209.34
504.65	21996.35
504.83	22272.54
505.01	22288.92
505.18	22295.94
505.36	22679.79
505.53	22366.16
505.71	22574.47
505.88	22593.19
506.06	22679.79
506.23	22813.20
506.41	22677.45
506.58	22647.02
506.76	22970.02
506.93	23108.11
507.11	22939.59
507.28	23293.01
507.46	23269.61
507.63	23632.39
507.81	23410.04
507.98	23213.43
508.16	23445.15
508.33	23489.62
508.50	23578.56
508.68	23606.64
508.85	23826.65
509.03	23648.77
509.20	23672.18
509.38	23627.71
509.55	24137.94
509.73	23936.66
509.90	24533.50
510.08	24149.65
510.25	24519.45
510.42	24123.90
510.60	24229.23
510.77	24432.85
510.95	24793.29
511.12	24746.48
511.30	24854.15
511.47	24809.68
511.64	25036.71
511.82	24989.90
511.99	24655.20
512.17	25067.14
512.34	25062.46
512.51	25008.62
512.69	25256.72
512.86	25123.31
513.04	24875.21
513.21	25408.86
513.38	25640.57
513.56	25607.80
513.73	25598.44
513.90	25788.02
514.08	25668.66
514.25	26302.94
514.43	26251.45
514.60	26031.44
514.77	25834.83
514.95	26045.48
515.12	25876.96
515.29	25909.73
515.47	26398.90
515.64	26859.99
515.81	26148.46
515.99	26438.69
516.16	26419.97
516.33	26338.05
516.51	26677.43
516.68	26642.32
516.85	26593.17
517.03	27077.66
517.20	27126.81
517.37	26569.76
517.54	27255.54
517.72	26719.56
517.89	27098.72
518.06	26934.88
518.24	27260.22
518.41	26953.61
518.58	27063.61
518.75	27175.96
518.93	27367.88
519.10	27267.24
519.27	27410.01
519.45	27234.47
519.62	27421.72
519.79	27435.76
519.96	27585.55
520.14	27756.41
520.31	27466.19
520.48	27847.69
520.65	27557.47
520.83	27754.07
521.00	28451.55
521.17	27779.82
521.34	28294.74
521.52	28135.58
521.69	28128.56
521.86	28283.03
522.03	28137.92
522.20	28566.24
522.38	28566.24
522.55	28790.93
522.72	28781.57
522.89	28664.54
523.07	28491.34
523.24	28350.91
523.41	28587.30
523.58	29013.28
523.75	28814.34
523.92	29055.41
524.10	29017.96
524.27	28975.83
524.44	29139.67
524.61	29041.37
524.78	29214.57
524.96	29467.34
525.13	29390.11
525.30	29404.15
525.47	29687.36
525.64	29848.85
525.81	29729.48
525.98	29584.37
526.16	29537.56
526.33	29820.77
526.50	30125.04
526.67	29724.80
526.84	29923.75
527.01	30089.93
527.18	30029.07
527.36	30012.69
527.53	29937.79
527.70	30288.87
527.87	30106.31
528.04	30274.83
528.21	30363.77
528.38	30574.42
528.55	30277.17
528.72	30457.39
528.89	30019.71
529.07	30333.34
529.24	30160.14
529.41	30646.97
529.58	30604.84
529.75	30864.64
529.92	30696.13
530.09	30490.16
530.26	30937.20
530.43	30838.90
530.60	31028.48
530.77	30801.45
530.94	31215.72
531.11	30913.80
531.28	31051.89
531.46	31484.89
531.63	31466.16
531.80	30939.54
531.97	31716.60
532.14	31208.70
532.31	31398.29
532.48	31468.50
532.65	31424.03
532.82	31250.83
532.99	31515.31
533.16	31023.80
533.33	31606.59
533.50	31519.99
533.67	31580.85
533.84	31707.24
534.01	32081.72
534.18	31470.84
534.35	31744.69
534.52	31800.86
534.69	31910.86
534.86	31978.74
535.03	31850.01
535.20	31887.46
535.37	32554.51
535.54	32648.13
535.71	32128.53
535.88	32404.72
536.05	32758.14
536.22	32116.83
536.38	32142.58
536.55	32444.51
536.72	32353.23
536.89	32708.99
537.06	32727.71
537.23	33039.00
537.40	32610.68
537.57	32460.89
537.74	32517.06
537.91	32680.90
538.08	32650.47
538.25	32589.62
538.42	33036.66
538.59	33312.84
538.75	33053.05
538.92	32861.12
539.09	33062.41
539.26	33244.97
539.43	33050.70
539.60	32992.19
539.77	33151.35
539.94	33654.56
540.11	33717.76
540.28	33315.19
540.44	33317.53
540.61	33483.70
540.78	33132.62
540.95	33820.74
541.12	33736.48
541.29	33486.04
541.46	33963.51
541.62	34015.01
541.79	34375.45
541.96	33696.69
542.13	33443.91
542.30	34169.48
542.47	33752.87
542.63	34148.42
542.80	34192.89
542.97	34382.47
543.14	34906.75
543.31	34440.98
543.48	34368.43
543.64	34838.87
543.81	34494.82
543.98	34958.24
544.15	34593.12
544.32	35079.95
544.48	35201.66
544.65	34897.39
544.82	35019.10
544.99	34691.42
545.16	34705.46
545.32	34848.24
545.49	35557.42
545.66	35871.05
545.83	35835.94
546.00	36217.45
546.16	35475.50
546.33	35239.11
546.50	35077.61
546.67	35168.89
546.83	34672.70
547.00	34799.08
547.17	34960.58
547.34	35351.45
547.50	35250.81
547.67	35725.94
547.84	35512.95
548.00	35442.73
548.17	35725.94
548.34	35585.50
548.51	35796.15
548.67	35526.99
548.84	35459.12
549.01	35496.56
549.18	35379.54
549.34	35838.28
549.51	35491.88
549.68	35412.31
549.84	35920.20
550.01	35732.96
550.18	35438.05
550.34	35246.13
550.51	35749.34
550.68	35842.96
550.84	35758.70
551.01	35758.70
551.18	35845.30
551.34	35545.72
551.51	35557.42
551.68	35641.68
551.84	35702.53
552.01	35796.15
552.18	36329.80
552.34	35931.90
552.51	36051.27
552.68	35604.23
552.84	36163.62
553.01	36524.06
553.18	35749.34
553.34	36533.42
553.51	35878.07
553.67	36128.51
553.84	36315.75
554.01	36800.24
554.17	36479.59
554.34	36488.95
554.51	36257.24
554.67	36170.64
554.84	36243.20
555.00	36301.71
555.17	35613.59
555.33	36194.04
555.50	36451.50
555.67	36355.54
555.83	36652.79
556.00	36507.68
556.16	36615.34
556.33	36512.36
556.50	36498.31
556.66	36364.90
556.83	36219.79
556.99	36769.82
557.16	36467.89
557.32	37354.95
557.49	37572.62
557.65	36732.37
557.82	36734.71
557.98	37237.92
558.15	36641.09
558.32	36517.04
558.48	37036.64
558.65	37003.87
558.81	36959.40
558.98	37064.72
559.14	37223.88
559.31	36830.67
559.47	36985.15
559.64	37249.63
559.80	36737.05
559.97	37275.37
560.13	36769.82
560.30	36690.24
560.46	36769.82
560.63	37436.87
560.79	37251.97
560.96	37617.09
561.12	37174.73
561.29	36994.51
561.45	37120.90
561.61	37343.25
561.78	37406.44
561.94	37415.80
562.11	37258.99
562.27	37839.44
562.44	37825.40
562.60	37890.93
562.77	37333.89
562.93	37518.79
563.10	37352.61
563.26	37247.29
563.42	37507.08
563.59	37488.36
563.75	37373.67
563.92	37666.24
564.08	37205.16
564.24	37633.47
564.41	37661.56
564.57	37268.35
564.74	37331.54
564.90	37771.57
565.07	37769.22
565.23	37621.77
565.39	37912.00
565.56	37841.78
565.72	37572.62
565.88	37350.27
566.05	37624.11
566.21	37893.27
566.38	37640.50
566.54	38003.28
566.70	37909.66
566.87	37776.25
567.03	38024.34
567.19	38417.55
567.36	38185.84
567.52	37989.24
567.68	37851.14
567.85	38284.14
568.01	38314.57
568.17	37537.51
568.34	38176.48
568.50	38110.94
568.66	38199.88
568.83	37497.72
568.99	37766.88
569.15	37439.21
569.32	38185.84
569.48	37717.73
569.64	38174.14
569.81	37759.86
569.97	37537.51
570.13	38190.52
570.30	37773.91
570.46	38431.60
570.62	37949.45
570.78	38153.07
570.95	37926.04
571.11	38553.30
571.27	38134.35
571.43	37691.99
571.60	37860.51
571.76	37755.18
571.92	38337.98
572.09	37954.13
572.25	38749.91
572.41	38066.47
572.57	38209.25
572.74	38576.71
572.90	38256.06
573.06	38396.49
573.22	38129.67
573.38	38628.20
573.55	38422.23
573.71	38340.32
573.87	38429.26
574.03	38066.47
574.20	38588.41
574.36	38134.35
574.52	38167.12
574.68	37794.97
574.84	38457.34
575.01	38560.33
575.17	38567.35
575.33	38256.06
575.49	38218.61
575.65	38490.11
575.82	38230.31
575.98	38263.08
576.14	38637.56
576.30	38478.41
576.46	38162.43
576.62	38234.99
576.79	38614.16
576.95	37968.17
577.11	38567.35
577.27	38902.04
577.43	38724.16
577.59	38803.74
577.75	38555.64
577.92	38188.18
578.08	38244.35
578.24	38436.28
578.40	38911.41
578.56	38555.64
578.72	38307.55
578.88	39136.10
579.04	38490.11
579.21	38272.44
579.37	38590.75
579.53	39077.58
579.69	38700.76
579.85	38848.21
580.01	38684.37
580.17	38550.96
580.33	37991.58
580.49	38754.59
580.65	38728.84
580.82	38916.09
580.98	38754.59
581.14	38387.13
581.30	38583.73
581.46	38403.51
581.62	38146.05
581.78	38293.50
581.94	38506.49
582.10	38574.37
582.26	38209.25
582.42	38447.98
582.58	38501.81
582.74	38663.31
582.90	38693.74
583.06	38349.68
583.22	38452.66
583.38	38471.39
583.54	38176.48
583.70	38646.93
583.86	38457.34
584.02	38314.57
584.18	38850.55
584.34	38302.87
584.50	38803.74
584.66	38230.31
584.82	38382.45
584.98	38609.48
585.14	38770.97
585.30	38483.09
585.46	38981.62
585.62	38340.32
585.78	39063.54
585.94	38813.10
586.10	38752.25
586.26	39447.39
586.42	38782.68
586.58	38843.53
586.74	38588.41
586.90	38937.15
587.06	38328.61
587.22	39349.09
587.38	39115.03
587.54	39164.18
587.70	39875.71
587.86	38941.83
588.02	39421.64
588.18	39051.84
588.34	38642.24
588.49	39342.06
588.65	38955.88
588.81	38951.20
588.97	38717.14
589.13	39260.15
589.29	38962.90
589.45	38972.26
589.61	39201.63
589.77	39185.25
