SpectraSuite Data File
++++++++++++++++++++++++++++++++++++
Date: Thu Oct 24 13:21:30 EDT 2013
User: stostad
Dark Spectrum Present: No
Reference Spectrum Present: No
Number of Sampled Component Spectra: 1
Spectrometers: USB2+H05261
Integration Time (usec): 100000 (USB2+H05261)
Spectra Averaged: 1 (USB2+H05261)
Boxcar Smoothing: 0 (USB2+H05261)
Correct for Electrical Dark: No (USB2+H05261)
Strobe/Lamp Enabled: No (USB2+H05261)
Correct for Detector Non-linearity: No (USB2+H05261)
Correct for Stray Light: No (USB2+H05261)
Number of Pixels in Processed Spectrum: 2048
>>>>>Begin Processed Spectral Data<<<<<
365.73	533.64
365.92	533.64
366.12	533.64
366.32	451.72
366.52	477.47
366.72	475.13
366.91	414.27
367.11	447.04
367.31	414.27
367.51	433.00
367.70	437.68
367.90	507.90
368.10	430.66
368.30	425.98
368.49	437.68
368.69	524.28
368.89	496.19
369.09	449.38
369.28	505.56
369.48	496.19
369.68	428.32
369.87	526.62
370.07	571.09
370.27	559.39
370.47	704.50
370.66	1090.69
370.86	992.39
371.06	1095.37
371.25	1128.14
371.45	1083.67
371.65	992.39
371.84	1174.95
372.04	1170.27
372.24	1191.33
372.44	1184.31
372.63	1186.65
372.83	1076.65
373.03	1277.93
373.22	1259.21
373.42	1270.91
373.62	1240.48
373.81	1245.16
374.01	1207.72
374.21	1184.31
374.40	1193.67
374.60	1221.76
374.79	1289.64
374.99	1306.02
375.19	1284.95
375.38	1270.91
375.58	1259.21
375.78	1322.40
375.97	1296.66
376.17	1397.30
376.37	1317.72
376.56	1345.81
376.76	1273.25
376.95	1324.74
377.15	1399.64
377.35	1397.30
377.54	1416.02
377.74	1423.05
377.93	1406.66
378.13	1420.71
378.33	1423.05
378.52	1448.79
378.72	1413.68
378.91	1472.20
379.11	1376.24
379.31	1446.45
379.50	1371.55
379.70	1439.43
379.89	1493.26
380.09	1465.18
380.28	1446.45
380.48	1409.00
380.68	1404.32
380.87	1486.24
381.07	1479.22
381.26	1593.90
381.46	1614.97
381.65	1568.16
381.85	1598.59
382.04	1537.73
382.24	1591.56
382.43	1596.25
382.63	1659.44
382.83	1607.95
383.02	1582.20
383.22	1638.38
383.41	1586.88
383.61	1680.50
383.80	1729.66
384.00	1717.95
384.19	1678.16
384.39	1666.46
384.58	1696.89
384.78	1678.16
384.97	1727.32
385.17	1764.76
385.36	1678.16
385.56	1671.14
385.75	1715.61
385.95	1785.83
386.14	1689.87
386.34	1701.57
386.53	1746.04
386.72	1736.68
386.92	1877.11
387.11	1746.04
387.31	1825.62
387.50	1797.53
387.70	1823.28
387.89	1834.98
388.09	1856.04
388.28	1802.21
388.48	1870.09
388.67	1928.60
388.86	1909.88
389.06	1987.11
389.25	1919.24
389.45	1937.96
389.64	1928.60
389.84	1907.54
390.03	1987.11
390.22	2047.97
390.42	1959.03
390.61	1827.96
390.81	1991.80
391.00	1973.07
391.19	2033.93
391.39	2113.50
391.58	2155.63
391.78	2125.21
391.97	2176.70
392.16	2050.31
392.36	2214.15
392.55	2167.34
392.75	2193.08
392.94	2136.91
393.13	2172.02
393.33	2153.29
393.52	2265.64
393.71	2314.79
393.91	2197.76
394.10	2188.40
394.29	2230.53
394.49	2256.28
394.68	2317.13
394.88	2300.75
395.07	2338.20
395.26	2312.45
395.46	2354.58
395.65	2438.84
395.84	2361.60
396.04	2389.69
396.23	2459.90
396.42	2375.64
396.62	2427.14
396.81	2443.52
397.00	2509.05
397.19	2483.31
397.39	2478.63
397.58	2438.84
397.77	2530.12
397.97	2562.89
398.16	2487.99
398.35	2597.99
398.55	2609.70
398.74	2553.52
398.93	2698.64
399.12	2675.23
399.32	2581.61
399.51	2605.02
399.70	2626.08
399.90	2724.38
400.09	2771.19
400.28	2785.24
400.47	2932.69
400.67	2869.50
400.86	2836.73
401.05	2841.41
401.24	2818.00
401.44	2885.88
401.63	3021.63
401.82	2977.16
402.01	2829.71
402.21	2822.69
402.40	2909.29
402.59	3033.33
402.78	2925.67
402.97	3089.51
403.17	3098.87
403.36	3047.38
403.55	3038.02
403.74	3075.46
403.93	3155.04
404.13	3173.77
404.32	3269.73
404.51	3215.90
404.70	3335.26
404.89	3150.36
405.09	3143.34
405.28	3272.07
405.47	3375.05
405.66	3400.80
405.85	3337.60
406.05	3410.16
406.24	3428.88
406.43	3337.60
406.62	3522.51
406.81	3574.00
407.00	3562.30
407.20	3405.48
407.39	3478.04
407.58	3583.36
407.77	3585.70
407.96	3658.26
408.15	3688.68
408.34	3581.02
408.54	3714.43
408.73	3686.34
408.92	3712.09
409.11	3803.37
409.30	3836.14
409.49	3826.78
409.68	3824.44
409.87	3927.42
410.07	3932.10
410.26	3992.95
410.45	3751.88
410.64	3911.04
410.83	4009.34
411.02	3962.53
411.21	4166.15
411.40	4114.66
411.59	4259.78
411.78	4208.28
411.98	4180.20
412.17	4140.41
412.36	4266.80
412.55	4224.67
412.74	4388.50
412.93	4269.14
413.12	4280.84
413.31	4610.86
413.50	4538.30
413.69	4573.41
413.88	4580.43
414.07	4622.56
414.26	4592.13
414.45	4863.63
414.64	4678.73
414.83	4762.99
415.02	4828.53
415.22	4816.82
415.41	4887.04
415.60	4882.36
415.79	4751.29
415.98	4896.40
416.17	5074.28
416.36	5109.39
416.55	5069.60
416.74	5158.54
416.93	5043.85
417.12	5142.16
417.31	5139.82
417.50	5350.46
417.69	5336.42
417.88	5350.46
418.07	5408.98
418.26	5362.17
418.45	5472.17
418.64	5607.92
418.83	5568.13
419.02	5675.80
419.21	5699.20
419.39	5757.72
419.58	5678.14
419.77	5701.54
419.96	5720.27
420.15	5659.42
420.34	5785.80
420.53	5785.80
420.72	5937.94
420.91	6001.13
421.10	5849.00
421.29	5877.09
421.48	5802.19
421.67	6069.01
421.86	6099.44
422.05	5947.30
422.24	6005.81
422.43	6122.84
422.61	6300.72
422.80	6221.14
422.99	6249.23
423.18	6118.16
423.37	6239.87
423.56	6214.12
423.75	6033.90
423.94	6108.80
424.13	5701.54
424.32	5987.09
424.50	6223.48
424.69	6349.87
424.88	6232.85
425.07	6216.46
425.26	6202.42
425.45	6207.10
425.64	6157.95
425.83	6132.20
426.01	6396.68
426.20	6246.89
426.39	6317.11
426.58	6260.93
426.77	6368.60
426.96	6457.54
427.15	6274.98
427.33	6413.07
427.52	6279.66
427.71	6595.63
427.90	6438.81
428.09	6513.71
428.28	6710.32
428.46	6693.93
428.65	6637.76
428.84	6796.92
429.03	6817.98
429.22	6576.91
429.40	6750.10
429.59	6710.32
429.78	6597.97
429.97	6441.15
430.16	6834.36
430.34	6953.73
430.53	7194.81
430.72	6937.35
430.91	6808.62
431.10	7082.46
431.28	6984.16
431.47	7124.59
431.66	7119.91
431.85	7260.34
432.03	7286.09
432.22	7475.67
432.41	7346.94
432.60	7178.42
432.79	7262.68
432.97	7323.54
433.16	7485.03
433.35	7548.23
433.54	7234.60
433.72	7365.67
433.91	7515.46
434.10	7442.90
434.28	7325.88
434.47	7562.27
434.66	7485.03
434.85	7969.52
435.03	7831.43
435.22	7948.46
435.41	8215.28
435.59	8093.57
435.78	8032.72
435.97	8226.98
436.16	7974.21
436.34	8095.91
436.53	7847.82
436.72	8297.20
436.90	7962.50
437.09	8079.53
437.28	8168.47
437.46	8126.34
437.65	8194.22
437.84	8336.99
438.02	8168.47
438.21	8540.61
438.40	8191.88
438.58	8407.20
438.77	8657.64
438.96	8400.18
439.14	8746.58
439.33	8887.01
439.52	8917.44
439.70	8791.05
439.89	9048.51
440.08	9046.17
440.26	8924.46
440.45	8952.55
440.63	9132.77
440.82	9123.41
441.01	9345.76
441.19	9252.14
441.38	9315.33
441.57	9486.19
441.75	9638.33
441.94	9638.33
442.12	9701.52
442.31	9989.41
442.50	9870.04
442.68	9621.94
442.87	9888.76
443.05	9860.68
443.24	9975.36
443.43	9870.04
443.61	10003.45
443.80	10228.14
443.98	9863.02
444.17	9561.09
444.35	10019.83
444.54	10085.37
444.73	9966.00
444.91	10038.56
445.10	10319.42
445.28	10347.51
445.47	10057.28
445.65	10211.76
445.84	10230.48
446.02	10216.44
446.21	10347.51
446.39	10253.89
446.58	10340.49
446.77	10370.91
446.95	10090.05
447.14	10092.39
447.32	10600.29
447.51	10244.52
447.69	10260.91
447.88	10525.39
448.06	10342.83
448.25	10483.26
448.43	10600.29
448.62	10314.74
448.80	10305.38
448.99	10595.61
449.17	10600.29
449.36	10633.05
449.54	10881.15
449.73	11059.03
449.91	10993.50
450.10	10965.41
450.28	11243.93
450.46	11302.45
450.65	10937.32
450.83	11082.44
451.02	11169.04
451.20	11239.25
451.39	11054.35
451.57	11171.38
451.76	11063.71
451.94	11246.27
452.13	11234.57
452.31	11419.47
452.49	11337.56
452.68	11365.64
452.86	11300.11
453.05	11328.19
453.23	11407.77
453.42	11255.64
453.60	11360.96
453.78	11667.57
453.97	11417.13
454.15	11597.35
454.34	11414.79
454.52	11658.21
454.70	11817.36
454.89	11840.77
455.07	11817.36
455.26	11896.94
455.44	12156.74
455.62	11901.62
455.81	11969.50
455.99	12156.74
456.17	12301.86
456.36	12084.19
456.54	12493.78
456.73	12542.93
456.91	12638.89
457.09	12554.63
457.28	12884.65
457.46	12311.22
457.64	12650.60
457.83	12833.16
458.01	12451.65
458.19	12950.18
458.38	12655.28
458.56	12884.65
458.74	13050.83
458.93	13004.02
459.11	13130.41
459.29	13011.04
459.48	13071.89
459.66	13006.36
459.84	13275.52
460.03	13376.16
460.21	13429.99
460.39	13411.27
460.57	13312.97
460.76	13490.85
460.94	13493.19
461.12	13612.56
461.31	13596.17
461.49	13626.60
461.67	13591.49
461.85	13940.23
462.04	13537.66
462.22	13902.78
462.40	13965.98
462.59	13898.10
462.77	13891.08
462.95	14045.55
463.13	14052.58
463.32	13844.27
463.50	14326.42
463.68	14260.88
463.86	14450.47
464.05	14167.26
464.23	14104.07
464.41	14450.47
464.59	14251.52
464.78	14764.10
464.96	14391.95
465.14	14253.86
465.32	14670.48
465.50	14602.60
465.69	14831.97
465.87	14728.99
466.05	14665.80
466.23	14747.72
466.41	14607.28
466.60	15002.83
466.78	14691.54
466.96	14738.35
467.14	14796.87
467.32	15115.18
467.51	15356.25
467.69	14785.16
467.87	14944.32
468.05	15246.25
468.23	14824.95
468.41	14977.09
468.60	15370.30
468.78	15276.68
468.96	15150.29
469.14	15433.49
469.32	15775.21
469.50	15396.04
469.69	15644.14
469.87	15754.15
470.05	15744.78
470.23	15969.48
470.41	16056.08
470.59	16027.99
470.77	15775.21
470.95	15805.64
471.14	16271.40
471.32	15805.64
471.50	16339.28
471.68	16503.12
471.86	16559.29
472.04	16594.40
472.22	16732.49
472.40	16524.18
472.58	16690.36
472.77	16917.39
472.95	17163.15
473.13	17282.52
473.31	17013.35
473.49	17500.19
473.67	17097.61
473.85	17338.69
474.03	17607.85
474.21	17621.89
474.39	17755.30
474.57	17907.44
474.75	17970.63
474.93	18284.26
475.12	18284.26
475.30	18347.46
475.48	17998.72
475.66	18434.06
475.84	18412.99
476.02	18670.45
476.20	18834.29
476.38	18892.80
476.56	19131.54
476.74	18953.66
476.92	19307.08
477.10	19080.05
477.28	19611.35
477.46	19531.77
477.64	19667.52
477.82	19711.99
478.00	20475.01
478.18	20177.76
478.36	20477.35
478.54	20900.98
478.72	20697.36
478.90	20741.83
479.08	20922.05
479.26	21528.25
479.44	21259.09
479.62	21750.60
479.80	21862.94
479.98	22150.83
480.16	22368.50
480.34	21893.37
480.52	22384.88
480.70	22611.92
480.88	22347.44
481.06	22340.41
481.24	22410.63
481.41	22951.29
481.59	23047.26
481.77	23592.60
481.95	23590.26
482.13	23850.06
482.31	23922.62
482.49	24465.62
482.67	24252.63
482.85	24409.45
483.03	24896.28
483.21	24975.86
483.39	25528.22
483.57	25027.35
483.74	25584.40
483.92	25827.81
484.10	25649.93
484.28	26307.62
484.46	26483.16
484.64	27065.96
484.82	26520.61
485.00	26904.46
485.18	27227.45
485.35	27812.59
485.53	27225.11
485.71	27957.70
485.89	28196.43
486.07	27840.67
486.25	28570.92
486.43	28704.33
486.61	28603.69
486.78	28959.45
486.96	28999.24
487.14	29797.36
487.32	29886.30
487.50	30026.73
487.68	30029.07
487.85	30733.57
488.03	30923.16
488.21	31112.74
488.39	31335.09
488.57	31559.78
488.75	31447.44
488.92	31517.65
489.10	32063.00
489.28	32046.62
489.46	32606.00
489.64	32526.42
489.81	33369.02
489.99	32954.74
490.17	32870.48
490.35	34106.29
490.53	34110.97
490.70	34684.40
490.88	34218.63
491.06	34836.53
491.24	34469.07
491.41	34829.51
491.59	35063.57
491.77	35271.87
491.95	35707.21
492.13	35840.62
492.30	36360.22
492.48	36119.15
492.66	36041.91
492.84	36245.54
493.01	36966.42
493.19	37074.09
493.37	36833.01
493.54	37134.94
493.72	37387.72
493.90	37518.79
494.08	38052.43
494.25	38527.56
494.43	38389.47
494.61	38436.28
494.79	39037.80
494.96	38859.91
495.14	39152.48
495.32	39552.71
495.49	39632.29
495.67	39730.59
495.85	39833.58
496.02	40238.49
496.20	40662.13
496.38	40542.76
496.55	41017.89
496.73	41603.02
496.91	41549.19
497.09	41364.29
497.26	41495.36
497.44	41640.47
497.62	41860.48
497.79	42387.10
497.97	42274.76
498.14	43131.39
498.32	43264.80
498.50	43253.10
498.67	43501.20
498.85	43145.44
499.03	43339.70
499.20	43573.75
499.38	43505.88
499.56	44463.16
499.73	44444.43
499.91	44243.15
500.08	44861.05
500.26	44421.03
500.44	44751.04
500.61	44608.27
500.79	44755.72
500.97	45598.32
501.14	45872.16
501.32	45500.01
501.49	45450.86
501.67	46169.41
501.84	46394.10
502.02	46513.47
502.20	46616.45
502.37	46469.00
502.55	46361.33
502.72	46548.57
502.90	46326.22
503.07	46871.57
503.25	46986.25
503.43	47157.11
503.60	47419.25
503.78	47196.90
503.95	47421.59
504.13	47608.84
504.30	47819.49
504.48	47896.72
504.65	48144.82
504.83	48449.09
505.01	48505.26
505.18	48339.08
505.36	48746.34
505.53	48669.10
505.71	48802.51
505.88	48839.96
506.06	49200.40
506.23	49279.98
506.41	49240.19
506.58	49141.89
506.76	49418.07
506.93	49558.50
507.11	49930.65
507.28	50108.53
507.46	49897.88
507.63	50059.38
507.81	50134.28
507.98	50101.51
508.16	50052.36
508.33	50534.51
508.50	50644.51
508.68	50618.77
508.85	51049.42
509.03	50946.44
509.20	51243.69
509.38	51007.29
509.55	51154.75
509.73	51473.06
509.90	51501.15
510.08	52074.58
510.25	51793.71
510.42	51721.16
510.60	52135.43
510.77	52130.75
510.95	52154.16
511.12	52069.90
511.30	52456.09
511.47	52420.98
511.64	52418.64
511.82	52870.36
511.99	52453.75
512.17	52917.17
512.34	52858.66
512.51	52870.36
512.69	53298.68
512.86	53448.47
513.04	53506.99
513.21	53563.16
513.38	53102.07
513.56	53429.75
513.73	53614.65
513.90	53942.33
514.08	53696.57
514.25	54000.84
514.43	54239.57
514.60	53710.61
514.77	54064.03
514.95	54012.54
515.12	53958.71
515.29	54277.02
515.47	54630.44
515.64	54714.70
515.81	54487.67
515.99	54410.43
516.16	54600.02
516.33	54504.06
516.51	54911.31
516.68	54836.41
516.85	55217.92
517.03	54890.24
517.20	55356.01
517.37	54892.58
517.54	55023.65
517.72	55096.21
517.89	55044.72
518.06	55391.12
518.24	55484.74
518.41	55498.78
518.58	55463.67
518.75	55285.79
518.93	55484.74
519.10	55484.74
519.27	55725.81
519.45	56058.17
519.62	55889.65
519.79	56011.36
519.96	55962.21
520.14	56193.92
520.31	56079.24
520.48	56233.71
520.65	56002.00
520.83	56477.13
521.00	56404.57
521.17	56589.47
521.34	56266.48
521.52	56460.74
521.69	56615.22
521.86	56694.80
522.03	56573.09
522.20	56942.89
522.38	57160.56
522.55	57066.94
522.72	56970.98
522.89	57116.09
523.07	57382.91
523.24	57167.58
523.41	57481.22
523.58	57155.88
523.75	57474.20
523.92	57382.91
524.10	57476.54
524.27	57733.99
524.44	57481.22
524.61	57829.96
524.78	57792.51
524.96	57670.80
525.13	57928.26
525.30	58087.42
525.47	58164.65
525.64	57902.51
525.81	58169.33
525.98	58195.08
526.16	57930.60
526.33	58127.20
526.50	58192.74
526.67	58354.24
526.84	58227.85
527.01	58405.73
527.18	58370.62
527.36	58508.71
527.53	58766.17
527.70	58754.47
527.87	58745.11
528.04	58468.92
528.21	58925.33
528.38	58810.64
528.55	58887.88
528.72	58768.51
528.89	58553.18
529.07	58616.38
529.24	58677.23
529.41	59061.08
529.58	59119.59
529.75	59040.01
529.92	59220.23
530.09	59119.59
530.26	59164.06
530.43	59238.96
530.60	59075.12
530.77	59147.68
530.94	59381.73
531.11	59281.09
531.28	59341.94
531.46	59519.82
531.63	59503.44
531.80	59391.09
531.97	59648.55
532.14	59753.88
532.31	59686.00
532.48	59791.33
532.65	59924.74
532.82	59695.36
532.99	59643.87
533.16	59693.02
533.33	59969.21
533.50	60048.78
533.67	59807.71
533.84	60001.97
534.01	59934.10
534.18	60200.92
534.35	60214.96
534.52	60346.03
534.69	60303.90
534.86	60144.75
535.03	59966.87
535.20	60205.60
535.37	60402.21
535.54	60580.09
535.71	60334.33
535.88	60519.23
536.05	60404.55
536.22	60430.29
536.38	60460.72
536.55	60540.30
536.72	60584.77
536.89	60673.71
537.06	60828.18
537.23	60783.71
537.40	60987.34
537.57	60697.11
537.74	60748.60
537.91	60889.04
538.08	61001.38
538.25	60788.39
538.42	60968.61
538.59	61169.90
538.75	60879.67
538.92	61017.77
539.09	61001.38
539.26	61223.73
539.43	61242.46
539.60	61057.56
539.77	61116.07
539.94	61478.85
540.11	61221.39
540.28	61443.74
540.44	61455.45
540.61	61413.32
540.78	61326.72
540.95	61340.76
541.12	61453.11
541.29	61598.22
541.46	61630.99
541.62	61726.95
541.79	61883.76
541.96	61513.96
542.13	61680.14
542.30	61722.27
542.47	61652.05
542.63	61565.45
542.80	61970.36
542.97	62000.79
543.14	62152.93
543.31	62045.26
543.48	62059.30
543.64	62384.64
543.81	62195.06
543.98	62202.08
544.15	62162.29
544.32	62209.10
544.48	62578.90
544.65	62347.19
544.82	62480.60
544.99	62279.31
545.16	62541.45
545.32	62293.36
545.49	62450.17
545.66	62618.69
545.83	62625.71
546.00	63007.22
546.16	62782.53
546.33	62660.82
546.50	62646.78
546.67	62527.41
546.83	62382.30
547.00	62681.89
547.17	62576.56
547.34	62569.54
547.50	62632.74
547.67	62873.81
547.84	62892.54
548.00	63032.97
548.17	63337.24
548.34	62979.14
548.51	62901.90
548.67	62831.68
548.84	62817.64
549.01	62864.45
549.18	62911.26
549.34	63098.50
549.51	63004.88
549.68	63142.97
549.84	63096.16
550.01	63320.85
550.18	62983.82
550.34	63030.63
550.51	63121.91
550.68	63236.59
550.84	63028.29
551.01	63229.57
551.18	63234.25
551.34	63360.64
551.51	63323.19
551.68	63332.56
551.84	63217.87
552.01	63199.15
552.18	63327.87
552.34	63437.88
552.51	63580.65
552.68	63491.71
552.84	63564.27
553.01	63590.01
553.18	63510.44
553.34	63608.74
553.51	63428.52
553.67	63580.65
553.84	63791.30
554.01	63833.43
554.17	63791.30
554.34	63849.81
554.51	63732.79
554.67	63636.83
554.84	63800.66
555.00	63723.43
555.17	63543.20
555.33	63742.15
555.50	63814.71
555.67	63765.56
555.83	63807.68
556.00	63875.56
556.16	63927.05
556.33	63934.07
556.50	63821.73
556.66	63966.84
556.83	63582.99
556.99	64081.53
557.16	64226.64
557.32	64224.30
557.49	64144.72
557.65	64109.61
557.82	64044.08
557.98	64226.64
558.15	63920.03
558.32	64177.49
558.48	64135.36
558.65	64121.32
558.81	64278.13
558.98	64130.68
559.14	64257.07
559.31	64287.49
559.47	64280.47
559.64	64301.54
559.80	64289.84
559.97	64296.86
560.13	64383.46
560.30	64273.45
560.46	64561.34
560.63	64526.23
560.79	64505.16
560.96	64825.82
561.12	64413.88
561.29	64327.28
561.45	64448.99
561.61	64516.87
561.78	64542.61
561.94	64605.81
562.11	64687.73
562.27	64603.47
562.44	64640.92
562.60	64692.41
562.77	64580.06
562.93	64605.81
563.10	64697.09
563.26	64666.66
563.42	64779.01
563.59	64729.86
563.75	64699.43
563.92	64900.71
564.08	64783.69
564.24	64807.09
564.41	64673.68
564.57	64720.49
564.74	64818.80
564.90	64870.29
565.07	64919.44
565.23	64846.88
565.39	65073.91
565.56	65153.49
565.72	64811.77
565.88	64762.62
566.05	64867.95
566.21	64769.64
566.38	64690.07
566.54	64879.65
566.70	64945.18
566.87	65193.28
567.03	65045.83
567.19	65169.88
567.36	65127.75
567.52	64771.99
567.68	64977.95
567.85	64867.95
568.01	64975.61
568.17	64889.01
568.34	65109.02
568.50	64977.95
568.66	64821.14
568.83	65144.13
568.99	64970.93
569.15	65010.72
569.32	65083.28
569.48	64865.61
569.64	64954.55
569.81	65024.76
569.97	65052.85
570.13	65090.30
570.30	65076.26
570.46	65087.96
570.62	65127.75
570.78	65083.28
570.95	65045.83
571.11	65186.26
571.27	65104.34
571.43	64987.31
571.60	65146.47
571.76	65078.60
571.92	65333.71
572.09	65357.12
572.25	65401.59
572.41	65261.16
572.57	65172.22
572.74	65209.67
572.90	65319.67
573.06	65357.12
573.22	65087.96
573.38	65359.46
573.55	65268.18
573.71	65338.40
573.87	65307.97
574.03	65310.31
574.20	65165.20
574.36	65202.64
574.52	65298.61
574.68	65190.94
574.84	65396.91
575.01	65368.82
575.17	65387.55
575.33	65240.09
575.49	65291.58
575.65	65289.24
575.82	65420.31
575.98	65436.70
576.14	65535.00
576.30	65535.00
576.46	65441.38
576.62	65265.84
576.79	65193.28
576.95	65197.96
577.11	65474.15
577.27	65535.00
577.43	65535.00
577.59	65434.36
577.75	65535.00
577.92	65298.61
578.08	65387.55
578.24	65242.43
578.40	65535.00
578.56	65513.94
578.72	65535.00
578.88	65535.00
579.04	65535.00
579.21	65530.32
579.37	65535.00
579.53	65535.00
579.69	65436.70
579.85	65535.00
580.01	65513.94
580.17	65535.00
580.33	65485.85
580.49	65535.00
580.65	65535.00
580.82	65535.00
580.98	65535.00
581.14	65535.00
581.30	65535.00
581.46	65492.87
581.62	65535.00
581.78	65523.30
581.94	65511.59
582.10	65535.00
582.26	65535.00
582.42	65535.00
582.58	65535.00
582.74	65535.00
582.90	65535.00
583.06	65535.00
583.22	65506.91
583.38	65535.00
583.54	65535.00
583.70	65403.93
583.86	65535.00
584.02	65535.00
584.18	65535.00
584.34	65535.00
584.50	65535.00
584.66	65535.00
584.82	65535.00
584.98	65535.00
585.14	65530.32
585.30	65535.00
585.46	65535.00
585.62	65535.00
585.78	65535.00
585.94	65535.00
586.10	65535.00
586.26	65535.00
586.42	65535.00
586.58	65535.00
586.74	65535.00
586.90	65535.00
587.06	65535.00
587.22	65535.00
587.38	65535.00
