SpectraSuite Data File
++++++++++++++++++++++++++++++++++++
Date: Thu Oct 24 13:21:30 EDT 2013
User: stostad
Dark Spectrum Present: No
Reference Spectrum Present: No
Number of Sampled Component Spectra: 1
Spectrometers: USB2+H05261
Integration Time (usec): 100000 (USB2+H05261)
Spectra Averaged: 1 (USB2+H05261)
Boxcar Smoothing: 0 (USB2+H05261)
Correct for Electrical Dark: No (USB2+H05261)
Strobe/Lamp Enabled: No (USB2+H05261)
Correct for Detector Non-linearity: No (USB2+H05261)
Correct for Stray Light: No (USB2+H05261)
Number of Pixels in Processed Spectrum: 2048
>>>>>Begin Processed Spectral Data<<<<<
365.73	620.24
365.92	620.24
366.12	620.24
366.32	496.19
366.52	486.83
366.72	465.77
366.91	484.49
367.11	447.04
367.31	468.11
367.51	390.87
367.70	440.02
367.90	416.62
368.10	468.11
368.30	526.62
368.49	407.25
368.69	472.79
368.89	458.74
369.09	454.06
369.28	554.71
369.48	454.06
369.68	496.19
369.87	543.00
370.07	486.83
370.27	507.90
370.47	720.88
370.66	952.60
370.86	1078.99
371.06	1137.50
371.25	1132.82
371.45	1111.75
371.65	1125.80
371.84	1107.07
372.04	1146.86
372.24	1217.08
372.44	1104.73
372.63	1226.44
372.83	1144.52
373.03	1219.42
373.22	1165.59
373.42	1128.14
373.62	1172.61
373.81	1224.10
374.01	1289.64
374.21	1303.68
374.40	1299.00
374.60	1282.61
374.79	1350.49
374.99	1289.64
375.19	1336.45
375.38	1324.74
375.58	1385.60
375.78	1327.08
375.97	1343.47
376.17	1378.58
376.37	1348.15
376.56	1366.87
376.76	1380.92
376.95	1341.13
377.15	1371.55
377.35	1338.79
377.54	1425.39
377.74	1350.49
377.93	1413.68
378.13	1401.98
378.33	1462.83
378.52	1509.65
378.72	1401.98
378.91	1430.07
379.11	1437.09
379.31	1467.52
379.50	1486.24
379.70	1502.62
379.89	1514.33
380.09	1476.88
380.28	1495.60
380.48	1540.07
380.68	1565.82
380.87	1519.01
381.07	1537.73
381.26	1556.46
381.46	1570.50
381.65	1544.75
381.85	1565.82
382.04	1495.60
382.24	1568.16
382.43	1638.38
382.63	1507.30
382.83	1666.46
383.02	1589.22
383.22	1624.33
383.41	1685.19
383.61	1710.93
383.80	1703.91
384.00	1692.21
384.19	1673.48
384.39	1643.06
384.58	1678.16
384.78	1696.89
384.97	1692.21
385.17	1689.87
385.36	1774.13
385.56	1717.95
385.75	1771.79
385.95	1710.93
386.14	1769.44
386.34	1757.74
386.53	1902.86
386.72	1767.10
386.92	1834.98
387.11	1811.57
387.31	1905.20
387.50	1797.53
387.70	1825.62
387.89	1849.02
388.09	1942.64
388.28	1898.17
388.48	1956.69
388.67	1858.39
388.86	1975.41
389.06	1975.41
389.25	1975.41
389.45	1963.71
389.64	2026.90
389.84	1949.67
390.03	2036.27
390.22	2003.50
390.42	1940.30
390.61	2031.58
390.81	1982.43
391.00	2071.37
391.19	2022.22
391.39	2143.93
391.58	2139.25
391.78	2094.78
391.97	2090.10
392.16	2232.87
392.36	2165.00
392.55	2183.72
392.75	2120.53
392.94	2207.13
393.13	2181.38
393.33	2169.68
393.52	2204.78
393.71	2239.89
393.91	2317.13
394.10	2218.83
394.29	2389.69
394.49	2193.08
394.68	2338.20
394.88	2282.02
395.07	2335.85
395.26	2370.96
395.46	2366.28
395.65	2366.28
395.84	2396.71
396.04	2490.33
396.23	2420.11
396.42	2448.20
396.62	2476.29
396.81	2637.78
397.00	2427.14
397.19	2579.27
397.39	2523.10
397.58	2579.27
397.77	2424.80
397.97	2658.85
398.16	2670.55
398.35	2658.85
398.55	2635.44
398.74	2647.15
398.93	2754.81
399.12	2708.00
399.32	2715.02
399.51	2661.19
399.70	2693.96
399.90	2726.72
400.09	2829.71
400.28	2874.18
400.47	2883.54
400.67	2909.29
400.86	2939.71
401.05	2951.42
401.24	2855.45
401.44	2970.14
401.63	2956.10
401.82	3009.93
402.01	2963.12
402.21	2944.39
402.40	2991.20
402.59	3012.27
402.78	3073.12
402.97	3178.45
403.17	3087.17
403.36	3080.14
403.55	3103.55
403.74	3173.77
403.93	3084.83
404.13	3190.15
404.32	3255.69
404.51	3190.15
404.70	3229.94
404.89	3185.47
405.09	3377.39
405.28	3368.03
405.47	3398.46
405.66	3353.99
405.85	3379.73
406.05	3454.63
406.24	3480.38
406.43	3442.93
406.62	3569.32
406.81	3452.29
407.00	3440.59
407.20	3337.60
407.39	3494.42
407.58	3618.47
407.77	3735.50
407.96	3669.96
408.15	3709.75
408.34	3623.15
408.54	3688.68
408.73	3702.73
408.92	3651.24
409.11	3850.18
409.30	3887.63
409.49	3803.37
409.68	3880.61
409.87	3843.16
410.07	3957.85
410.26	4095.94
410.45	3969.55
410.64	4131.05
410.83	4030.40
411.02	4088.92
411.21	4259.78
411.40	4011.68
411.59	4252.75
411.78	4255.09
411.98	4093.60
412.17	4203.60
412.36	4250.41
412.55	4432.97
412.74	4409.57
412.93	4440.00
413.12	4358.08
413.31	4566.39
413.50	4482.13
413.69	4601.49
413.88	4568.73
414.07	4587.45
414.26	4716.18
414.45	4702.14
414.64	4674.05
414.83	4940.87
415.02	4851.93
415.22	4758.31
415.41	4940.87
415.60	4971.30
415.79	5071.94
415.98	5130.45
416.17	5149.18
416.36	5039.17
416.55	5172.58
416.74	5303.65
416.93	5088.32
417.12	5130.45
417.31	5261.52
417.50	5385.57
417.69	5617.29
417.88	5411.32
418.07	5570.48
418.26	5401.96
418.45	5561.11
418.64	5818.57
418.83	5579.84
419.02	5778.78
419.21	5797.51
419.39	5870.06
419.58	5727.29
419.77	5643.03
419.96	5687.50
420.15	5764.74
420.34	5825.59
420.53	6036.24
420.72	5998.79
420.91	5984.75
421.10	5956.66
421.29	6005.81
421.48	5970.71
421.67	6043.26
421.86	5991.77
422.05	6134.54
422.24	5851.34
422.43	6050.28
422.61	6148.59
422.80	6267.95
422.99	6188.38
423.18	6307.74
423.37	6239.87
423.56	6289.02
423.75	6148.59
423.94	6106.46
424.13	5734.31
424.32	6005.81
424.50	6370.94
424.69	6296.04
424.88	6485.62
425.07	6218.80
425.26	6113.48
425.45	6415.41
425.64	6171.99
425.83	6115.82
426.01	6382.64
426.20	6282.00
426.39	6207.10
426.58	6232.85
426.77	6370.94
426.96	6466.90
427.15	6410.73
427.33	6487.96
427.52	6427.11
427.71	6569.88
427.90	6616.69
428.09	6705.63
428.28	6581.59
428.46	6693.93
428.65	6675.21
428.84	6829.68
429.03	6846.07
429.22	6740.74
429.40	6768.83
429.59	6876.49
429.78	6548.82
429.97	6555.84
430.16	6876.49
430.34	6754.79
430.53	7005.22
430.72	7042.67
430.91	6993.52
431.10	7098.84
431.28	7323.54
431.47	7178.42
431.66	7377.37
431.85	7335.24
432.03	7421.84
432.22	7323.54
432.41	7396.09
432.60	7442.90
432.79	7342.26
432.97	7473.33
433.16	7571.63
433.35	7353.96
433.54	7419.50
433.72	7693.34
433.91	7723.77
434.10	7644.19
434.28	7695.68
434.47	7641.85
434.66	7836.11
434.85	7836.11
435.03	7943.78
435.22	7983.57
435.41	8250.39
435.59	8147.40
435.78	8166.13
435.97	8114.64
436.16	8039.74
436.34	7948.46
436.53	8046.76
436.72	8236.35
436.90	8074.85
437.09	8287.84
437.28	8154.43
437.46	8248.05
437.65	8301.88
437.84	8496.14
438.02	8388.48
438.21	8374.44
438.40	8290.18
438.58	8772.33
438.77	8634.24
438.96	8592.11
439.14	8758.28
439.33	8821.48
439.52	8894.04
439.70	8851.91
439.89	9207.67
440.08	9219.37
440.26	9207.67
440.45	9256.82
440.63	9242.78
440.82	9448.74
441.01	9076.60
441.19	9495.55
441.38	9605.56
441.57	9497.89
441.75	9528.32
441.94	9743.65
442.12	9834.93
442.31	9762.37
442.50	9767.06
442.68	9806.84
442.87	9980.04
443.05	9813.87
443.24	10054.94
443.43	10059.62
443.61	9954.30
443.80	10319.42
443.98	9750.67
444.17	9809.19
444.35	10148.56
444.54	10331.12
444.73	10349.85
444.91	10003.45
445.10	10417.72
445.28	10303.04
445.47	10178.99
445.65	10347.51
445.84	10377.94
446.02	10494.96
446.21	10335.81
446.39	10312.40
446.58	10310.06
446.77	10338.15
446.95	10195.37
447.14	10406.02
447.32	10408.36
447.51	10434.11
447.69	10377.94
447.88	10567.52
448.06	10466.88
448.25	10544.11
448.43	10537.09
448.62	10661.14
448.80	10485.60
448.99	10572.20
449.17	10698.59
449.36	10792.21
449.54	10766.46
449.73	11030.94
449.91	11026.26
450.10	11056.69
450.28	11014.56
450.46	11147.97
450.65	11183.08
450.83	11091.80
451.02	11194.78
451.20	11206.48
451.39	11143.29
451.57	11133.93
451.76	11147.97
451.94	11470.97
452.13	11499.05
452.31	11328.19
452.49	11445.22
452.68	11456.92
452.86	11674.59
453.05	11618.42
453.23	11805.66
453.42	11597.35
453.60	11269.68
453.78	11939.07
453.97	11758.85
454.15	11721.40
454.34	11590.33
454.52	12002.27
454.70	11779.92
454.89	11943.75
455.07	11913.33
455.26	12145.04
455.44	12449.31
455.62	12332.28
455.81	12039.72
455.99	12276.11
456.17	12308.88
456.36	12299.52
456.54	12599.10
456.73	12564.00
456.91	12671.66
457.09	12643.57
457.28	12826.14
457.46	12580.38
457.64	12884.65
457.83	12905.71
458.01	13034.44
458.19	13151.47
458.38	12879.97
458.56	13121.04
458.74	13067.21
458.93	13181.90
459.11	13200.62
459.29	13268.50
459.48	13256.79
459.66	13280.20
459.84	13132.75
460.03	13605.53
460.21	13724.90
460.39	13263.82
460.57	13514.25
460.76	13650.00
460.94	13645.32
461.12	13937.89
461.31	14083.00
461.49	13717.88
461.67	13738.94
461.85	13909.80
462.04	13870.01
462.22	14256.20
462.40	14265.57
462.59	14305.35
462.77	14022.15
462.95	14031.51
463.13	14068.96
463.32	14363.87
463.50	14611.96
463.68	14457.49
463.86	14366.21
464.05	14321.74
464.23	14211.73
464.41	14537.07
464.59	14150.88
464.78	14691.54
464.96	14420.04
465.14	14513.66
465.32	14717.29
465.50	14705.59
465.69	14972.41
465.87	14689.20
466.05	14792.19
466.23	15096.46
466.41	14981.77
466.60	15257.95
466.78	14895.17
466.96	15222.84
467.14	15037.94
467.32	15101.14
467.51	15318.81
467.69	14785.16
467.87	15307.10
468.05	15351.57
468.23	15279.02
468.41	15300.08
468.60	15204.12
468.78	15503.71
468.96	15562.22
469.14	15761.17
469.32	15969.48
469.50	15609.03
469.69	15784.57
469.87	15950.75
470.05	16191.83
470.23	16168.42
470.41	16137.99
470.59	16159.06
470.77	16212.89
470.95	16224.59
471.14	16695.04
471.32	16400.13
471.50	16477.37
471.68	16477.37
471.86	16805.05
472.04	16681.00
472.22	17191.23
472.40	16629.51
472.58	17048.46
472.77	16952.50
472.95	17209.96
473.13	17673.39
473.31	17408.90
473.49	17397.20
473.67	17256.77
473.85	17570.40
474.03	17621.89
474.21	17394.86
474.39	17640.62
474.57	17949.57
474.75	18059.57
474.93	18045.53
475.12	18141.49
475.30	18443.42
475.48	18235.11
475.66	18649.39
475.84	18340.44
476.02	19016.85
476.20	18649.39
476.38	19051.96
476.56	19449.85
476.74	19295.38
476.92	19487.30
477.10	19180.69
477.28	19756.46
477.46	19688.59
477.64	19747.10
477.82	20205.84
478.00	20716.08
478.18	20695.02
478.36	20657.57
478.54	21462.71
478.72	21104.61
478.90	21453.35
479.08	21429.94
479.26	21479.10
479.44	21598.46
479.62	21699.11
479.80	22094.66
479.98	21841.88
480.16	22597.87
480.34	21994.01
480.52	22579.15
480.70	22829.59
480.88	22483.19
481.06	22754.69
481.24	22691.49
481.41	23510.68
481.59	23503.66
481.77	23791.55
481.95	24077.09
482.13	24013.90
482.31	24226.89
482.49	24971.18
482.67	24512.43
482.85	25003.94
483.03	24793.29
483.21	25830.15
483.39	25788.02
483.57	25221.61
483.74	25724.83
483.92	26108.68
484.10	25891.01
484.28	26391.88
484.46	26962.97
484.64	27124.47
484.82	26764.03
485.00	27091.70
485.18	27721.30
485.35	27730.67
485.53	27821.95
485.71	28161.33
485.89	28453.89
486.07	28627.09
486.25	28367.29
486.43	28444.53
486.61	29039.03
486.78	29179.46
486.96	29907.37
487.14	29771.61
487.32	30110.99
487.50	30473.78
487.68	30761.66
487.85	30787.41
488.03	31077.63
488.21	31576.17
488.39	31503.61
488.57	31484.89
488.75	31747.03
488.92	32060.66
489.10	32315.78
489.28	32615.37
489.46	32765.16
489.64	32765.16
489.81	33645.20
489.99	33514.13
490.17	33916.70
490.35	34281.83
490.53	34239.70
490.70	34129.69
490.88	34471.41
491.06	35194.64
491.24	34684.40
491.41	35030.80
491.59	35634.66
491.77	35641.68
491.95	36112.13
492.13	36039.57
492.30	36343.84
492.48	36636.41
492.66	36470.23
492.84	36837.69
493.01	37024.93
493.19	37677.94
493.37	37801.99
493.54	37881.57
493.72	38279.46
493.90	37881.57
494.08	38518.20
494.25	38450.32
494.43	38373.08
494.61	39164.18
494.79	38904.38
494.96	39321.00
495.14	39501.22
495.32	40163.59
495.49	40416.37
495.67	40271.26
495.85	40685.53
496.02	40849.37
496.20	41265.99
496.38	40966.40
496.55	41446.21
496.73	42225.60
496.91	41432.16
497.09	41715.37
497.26	41961.12
497.44	42391.78
497.62	42122.62
497.79	43030.75
497.97	42859.89
498.14	42845.85
498.32	43494.18
498.50	43452.05
498.67	43777.38
498.85	44100.37
499.03	43983.35
499.20	43981.01
499.38	43990.37
499.56	44720.62
499.73	44949.99
499.91	45137.23
500.08	45301.07
500.26	44945.31
500.44	45015.52
500.61	45624.06
500.79	45492.99
500.97	45689.60
501.14	46110.89
501.32	46162.39
501.49	46169.41
501.67	46534.53
501.84	46574.32
502.02	46213.88
502.20	46869.23
502.37	46979.23
502.55	46742.84
502.72	46909.02
502.90	47622.88
503.07	47058.81
503.25	47398.19
503.43	47208.61
503.60	47742.25
503.78	47643.94
503.95	47819.49
504.13	47550.32
504.30	48353.13
504.48	48442.07
504.65	48816.55
504.83	48657.40
505.01	49401.69
505.18	48886.77
505.36	48971.03
505.53	48612.93
505.71	49350.20
505.88	49680.21
506.06	49436.80
506.23	49832.35
506.41	49322.11
506.58	49975.12
506.76	49773.83
506.93	50052.36
507.11	50342.58
507.28	50216.19
507.46	50330.88
507.63	50752.18
507.81	50703.03
507.98	50590.68
508.16	50618.77
508.33	51000.27
508.50	51199.22
508.68	51522.21
508.85	51524.55
509.03	51105.60
509.20	51337.31
509.38	51655.62
509.55	51599.45
509.73	51856.91
509.90	51737.54
510.08	52243.10
510.25	51901.38
510.42	52179.90
510.60	52310.97
510.77	52622.26
510.95	52416.30
511.12	52507.58
511.30	52643.33
511.47	53153.57
511.64	53064.63
511.82	53270.59
511.99	52823.55
512.17	53404.00
512.34	53198.04
512.51	53638.06
512.69	53516.35
512.86	53467.20
513.04	53822.96
513.21	53689.55
513.38	53930.62
513.56	53879.13
513.73	53853.39
513.90	53904.88
514.08	54035.95
514.25	54490.01
514.43	54134.25
514.60	54330.86
514.77	54190.42
514.95	54492.35
515.12	54183.40
515.29	54564.91
515.47	54815.35
515.64	54930.03
515.81	54738.11
515.99	55063.44
516.16	55138.34
516.33	55241.32
516.51	55456.65
516.68	55356.01
516.85	55313.88
517.03	55381.76
517.20	55395.80
517.37	55470.70
517.54	55463.67
517.72	55702.41
517.89	55421.55
518.06	55538.57
518.24	55569.00
518.41	55648.58
518.58	55749.22
518.75	55683.69
518.93	55786.67
519.10	56002.00
519.27	56102.64
519.45	56107.32
519.62	56294.56
519.79	56264.14
519.96	56374.14
520.14	56442.02
520.31	56142.43
520.48	56313.29
520.65	56776.72
520.83	57001.41
521.00	57062.26
521.17	56690.12
521.34	56708.84
521.52	56989.70
521.69	56856.29
521.86	56699.48
522.03	57144.18
522.20	57261.21
522.38	57581.86
522.55	57301.00
522.72	57308.02
522.89	57378.23
523.07	57600.58
523.24	57434.41
523.41	57565.48
523.58	57457.81
523.75	57612.29
523.92	57715.27
524.10	57733.99
524.27	57907.19
524.44	57902.51
524.61	58152.95
524.78	58049.97
524.96	58183.38
525.13	58115.50
525.30	58169.33
525.47	58281.68
525.64	58293.38
525.81	58312.11
525.98	58379.98
526.16	58473.60
526.33	58281.68
526.50	58553.18
526.67	58663.19
526.84	58794.26
527.01	58726.38
527.18	58763.83
527.36	58829.37
527.53	58869.15
527.70	58953.41
527.87	58801.28
528.04	59040.01
528.21	59089.16
528.38	59250.66
528.55	59341.94
528.72	59131.29
528.89	59138.32
529.07	59030.65
529.24	58927.67
529.41	59180.45
529.58	59288.11
529.75	59112.57
529.92	59501.10
530.09	59363.01
530.26	59386.41
530.43	59526.84
530.60	59447.27
530.77	59458.97
530.94	59711.75
531.11	59515.14
531.28	59793.67
531.46	59873.24
531.63	59767.92
531.80	59723.45
531.97	59695.36
532.14	59824.09
532.31	59838.14
532.48	60161.13
532.65	60149.43
532.82	59987.93
532.99	60088.57
533.16	59896.65
533.33	60163.47
533.50	60224.32
533.67	60404.55
533.84	60189.22
534.01	60381.14
534.18	60418.59
534.35	60568.38
534.52	60390.50
534.69	60212.62
534.86	60423.27
535.03	60413.91
535.20	60629.24
535.37	60823.50
535.54	60849.25
535.71	60584.77
535.88	60769.67
536.05	60760.31
536.22	60697.11
536.38	61095.00
536.55	60884.36
536.72	60898.40
536.89	60926.49
537.06	61247.14
537.23	61109.05
537.40	61059.90
537.57	60926.49
537.74	60893.72
537.91	61237.78
538.08	61190.97
538.25	61092.66
538.42	61359.48
538.59	61490.55
538.75	61174.58
538.92	61422.68
539.09	61420.34
539.26	61413.32
539.43	61368.85
539.60	61556.09
539.77	61235.44
539.94	61703.54
540.11	61682.48
540.28	61930.58
540.44	61661.41
540.61	61799.50
540.78	61429.70
540.95	61715.25
541.12	61748.01
541.29	61682.48
541.46	61808.87
541.62	62017.17
541.79	62056.96
541.96	61862.70
542.13	62115.48
542.30	61769.08
542.47	62117.82
542.63	62012.49
542.80	62237.19
542.97	62429.11
543.14	62501.67
543.31	62691.25
543.48	62511.03
543.64	62560.18
543.81	62454.86
543.98	62403.36
544.15	62408.04
544.32	62700.61
544.48	62606.99
544.65	62693.59
544.82	62590.61
544.99	62471.24
545.16	62890.19
545.32	62707.63
545.49	62756.78
545.66	63009.56
545.83	62937.01
546.00	63089.14
546.16	62892.54
546.33	63023.61
546.50	62691.25
546.67	62901.90
546.83	62532.09
547.00	62913.60
547.17	62775.51
547.34	62803.59
547.50	63042.33
547.67	63252.98
547.84	63229.57
548.00	63217.87
548.17	63260.00
548.34	63140.63
548.51	63124.25
548.67	63274.04
548.84	63157.02
549.01	63327.87
549.18	63327.87
549.34	63393.41
549.51	63433.20
549.68	63440.22
549.84	63386.39
550.01	63409.79
550.18	63206.17
550.34	63421.50
550.51	63426.18
550.68	63381.71
550.84	63365.32
551.01	63449.58
551.18	63510.44
551.34	63388.73
551.51	63355.96
551.68	63671.93
551.84	63751.51
552.01	63465.97
552.18	63622.78
552.34	63524.48
552.51	63751.51
552.68	63465.97
552.84	63831.09
553.01	63964.50
553.18	63840.45
553.34	63868.54
553.51	63634.48
553.67	63646.19
553.84	63955.14
554.01	64355.37
554.17	63987.91
554.34	64006.63
554.51	63957.48
554.67	63985.57
554.84	63980.88
555.00	64011.31
555.17	63812.37
555.33	63884.92
555.50	63985.57
555.67	64062.80
555.83	64058.12
556.00	64240.68
556.16	64217.28
556.33	64114.29
556.50	64116.64
556.66	64221.96
556.83	64191.53
556.99	64123.66
557.16	64301.54
557.32	64514.53
557.49	64437.29
557.65	64299.20
557.82	64395.16
557.98	64310.90
558.15	64289.84
558.32	64226.64
558.48	64306.22
558.65	64409.20
558.81	64631.55
558.98	64591.76
559.14	64460.69
559.31	64598.79
559.47	64530.91
559.64	64647.94
559.80	64661.98
559.97	64559.00
560.13	64535.59
560.30	64680.70
560.46	64664.32
560.63	64893.69
560.79	64954.55
560.96	64839.86
561.12	64701.77
561.29	64685.39
561.45	64685.39
561.61	64687.73
561.78	64678.36
561.94	64973.27
562.11	64928.80
562.27	64982.63
562.44	64767.30
562.60	64767.30
562.77	64933.48
562.93	64739.22
563.10	64949.87
563.26	64715.81
563.42	65116.04
563.59	64942.84
563.75	64931.14
563.92	65022.42
564.08	65106.68
564.24	65148.81
564.41	64865.61
564.57	64800.07
564.74	64814.12
564.90	65066.89
565.07	65008.38
565.23	65158.17
565.39	65139.45
565.56	65340.74
565.72	65251.80
565.88	65080.94
566.05	65080.94
566.21	65043.49
566.38	64961.57
566.54	65020.08
566.70	65219.03
566.87	65333.71
567.03	65258.82
567.19	65474.15
567.36	65368.82
567.52	65380.52
567.68	65441.38
567.85	65195.62
568.01	65223.71
568.17	65045.83
568.34	65312.65
568.50	65300.95
568.66	65467.12
568.83	65385.21
568.99	65151.15
569.15	65251.80
569.32	65319.67
569.48	65158.17
569.64	65382.87
569.81	65350.10
569.97	65167.54
570.13	65357.12
570.30	65434.36
570.46	65424.99
570.62	65410.95
570.78	65134.77
570.95	65242.43
571.11	65535.00
571.27	65410.95
571.43	65354.78
571.60	65471.81
571.76	65380.52
571.92	65429.68
572.09	65535.00
572.25	65535.00
572.41	65535.00
572.57	65471.81
572.74	65520.96
572.90	65535.00
573.06	65535.00
573.22	65469.46
573.38	65518.62
573.55	65530.32
573.71	65535.00
573.87	65535.00
574.03	65375.84
574.20	65535.00
574.36	65525.64
574.52	65535.00
574.68	65530.32
574.84	65535.00
575.01	65535.00
575.17	65535.00
575.33	65530.32
575.49	65535.00
575.65	65535.00
575.82	65535.00
575.98	65535.00
576.14	65535.00
576.30	65535.00
576.46	65535.00
576.62	65535.00
576.79	65535.00
576.95	65516.28
577.11	65535.00
577.27	65535.00
577.43	65535.00
577.59	65535.00
577.75	65535.00
577.92	65535.00
578.08	65535.00
578.24	65535.00
578.40	65535.00
578.56	65535.00
578.72	65535.00
578.88	65535.00
579.04	65535.00
579.21	65535.00
579.37	65535.00
579.53	65535.00
579.69	65535.00
579.85	65513.94
580.01	65535.00
580.17	65535.00
580.33	65535.00
580.49	65535.00
580.65	65535.00
580.82	65535.00
580.98	65535.00
581.14	65535.00
581.30	65535.00
581.46	65535.00
581.62	65535.00
581.78	65535.00
581.94	65535.00
582.10	65535.00
582.26	65535.00
582.42	65535.00
582.58	65535.00
582.74	65535.00
582.90	65535.00
583.06	65535.00
583.22	65535.00
583.38	65535.00
583.54	65535.00
583.70	65535.00
583.86	65535.00
584.02	65535.00
584.18	65535.00
584.34	65535.00
584.50	65535.00
584.66	65535.00
584.82	65535.00
584.98	65535.00
585.14	65535.00
585.30	65535.00
585.46	65535.00
585.62	65535.00
585.78	65535.00
585.94	65535.00
586.10	65535.00
586.26	65535.00
586.42	65535.00
586.58	65535.00
586.74	65535.00
586.90	65535.00
587.06	65535.00
587.22	65535.00
