SpectraSuite Data File
++++++++++++++++++++++++++++++++++++
Date: Thu Oct 24 13:21:42 EDT 2013
User: stostad
Dark Spectrum Present: No
Reference Spectrum Present: No
Number of Sampled Component Spectra: 1
Spectrometers: USB2+H05261
Integration Time (usec): 100000 (USB2+H05261)
Spectra Averaged: 1 (USB2+H05261)
Boxcar Smoothing: 0 (USB2+H05261)
Correct for Electrical Dark: No (USB2+H05261)
Strobe/Lamp Enabled: No (USB2+H05261)
Correct for Detector Non-linearity: No (USB2+H05261)
Correct for Stray Light: No (USB2+H05261)
Number of Pixels in Processed Spectrum: 2048
>>>>>Begin Processed Spectral Data<<<<<
365.73	599.18
365.92	599.18
366.12	599.18
366.32	475.13
366.52	472.79
366.72	465.77
366.91	442.36
367.11	475.13
367.31	470.45
367.51	512.58
367.70	465.77
367.90	449.38
368.10	444.70
368.30	524.28
368.49	470.45
368.69	468.11
368.89	512.58
369.09	416.62
369.28	491.51
369.48	521.94
369.68	521.94
369.87	545.34
370.07	496.19
370.27	573.43
370.47	770.04
370.66	1135.16
370.86	1233.46
371.06	1296.66
371.25	1334.11
371.45	1313.04
371.65	1331.76
371.84	1336.45
372.04	1327.08
372.24	1416.02
372.44	1345.81
372.63	1331.76
372.83	1406.66
373.03	1483.90
373.22	1313.04
373.42	1451.13
373.62	1593.90
373.81	1404.32
374.01	1600.93
374.21	1455.81
374.40	1502.62
374.60	1504.96
374.79	1519.01
374.99	1549.43
375.19	1540.07
375.38	1652.42
375.58	1521.35
375.78	1537.73
375.97	1647.74
376.17	1551.78
376.37	1577.52
376.56	1593.90
376.76	1619.65
376.95	1607.95
377.15	1678.16
377.35	1699.23
377.54	1591.56
377.74	1626.67
377.93	1699.23
378.13	1708.59
378.33	1727.32
378.52	1617.31
378.72	1746.04
378.91	1739.02
379.11	1722.63
379.31	1661.78
379.50	1671.14
379.70	1771.79
379.89	1795.19
380.09	1853.70
380.28	1830.30
380.48	1830.30
380.68	1856.04
380.87	1853.70
381.07	1774.13
381.26	1795.19
381.46	1991.80
381.65	1928.60
381.85	1919.24
382.04	1928.60
382.24	1996.48
382.43	1933.28
382.63	1982.43
382.83	2008.18
383.02	1980.09
383.22	1984.77
383.41	2012.86
383.61	2050.31
383.80	2052.65
384.00	1989.46
384.19	2099.46
384.39	2108.82
384.58	2087.76
384.78	2078.40
384.97	2141.59
385.17	2165.00
385.36	2080.74
385.56	2106.48
385.75	2090.10
385.95	2211.81
386.14	2120.53
386.34	2069.03
386.53	2094.78
386.72	2211.81
386.92	2211.81
387.11	2216.49
387.31	2277.34
387.50	2265.64
387.70	2225.85
387.89	2352.24
388.09	2321.81
388.28	2303.09
388.48	2375.64
388.67	2363.94
388.86	2370.96
389.06	2349.90
389.25	2342.88
389.45	2286.70
389.64	2457.56
389.84	2485.65
390.03	2544.16
390.22	2373.30
390.42	2487.99
390.61	2438.84
390.81	2490.33
391.00	2546.50
391.19	2583.95
391.39	2502.03
391.58	2581.61
391.78	2504.37
391.97	2663.53
392.16	2583.95
392.36	2768.85
392.55	2705.66
392.75	2665.87
392.94	2651.83
393.13	2773.53
393.33	2729.06
393.52	2757.15
393.71	2750.13
393.91	2733.75
394.10	2773.53
394.29	2806.30
394.49	2853.11
394.68	2942.05
394.88	2773.53
395.07	2839.07
395.26	2890.56
395.46	2967.80
395.65	2967.80
395.84	2984.18
396.04	2946.73
396.23	2981.84
396.42	3052.06
396.62	3082.49
396.81	2998.23
397.00	3084.83
397.19	3138.66
397.39	3077.80
397.58	3112.91
397.77	3169.09
397.97	3171.43
398.16	3243.98
398.35	3372.71
398.55	3269.73
398.74	3400.80
398.93	3389.10
399.12	3372.71
399.32	3332.92
399.51	3304.84
399.70	3363.35
399.90	3492.08
400.09	3485.06
400.28	3442.93
400.47	3520.17
400.67	3391.44
400.86	3482.72
401.05	3566.98
401.24	3520.17
401.44	3566.98
401.63	3606.77
401.82	3583.36
402.01	3686.34
402.21	3471.01
402.40	3658.26
402.59	3648.90
402.78	3676.98
402.97	3777.62
403.17	3801.03
403.36	3843.16
403.55	3840.82
403.74	3899.33
403.93	3836.14
404.13	3981.25
404.32	3854.86
404.51	3913.38
404.70	4194.24
404.89	4081.89
405.09	4095.94
405.28	4227.01
405.47	4060.83
405.66	4102.96
405.85	4189.56
406.05	4152.11
406.24	4119.34
406.43	4201.26
406.62	4358.08
406.81	4358.08
407.00	4257.43
407.20	4276.16
407.39	4379.14
407.58	4514.89
407.77	4498.51
407.96	4339.35
408.15	4486.81
408.34	4470.42
408.54	4615.54
408.73	4552.34
408.92	4489.15
409.11	4676.39
409.30	4770.01
409.49	4587.45
409.68	4774.69
409.87	4638.94
410.07	4861.29
410.26	4821.50
410.45	4725.54
410.64	4915.12
410.83	4889.38
411.02	5020.45
411.21	4961.94
411.40	4880.02
411.59	5186.63
411.78	5104.71
411.98	5071.94
412.17	5217.05
412.36	5273.23
412.55	5341.10
412.74	5458.13
412.93	5455.79
413.12	5427.70
413.31	5671.12
413.50	5518.98
413.69	5497.92
413.88	5596.22
414.07	5689.84
414.26	5671.12
414.45	5652.39
414.64	5771.76
414.83	5830.27
415.02	5764.74
415.22	6040.92
415.41	5984.75
415.60	6022.20
415.79	5902.83
415.98	6097.10
416.17	6277.32
416.36	6122.84
416.55	6193.06
416.74	6434.13
416.93	6303.06
417.12	6422.43
417.31	6558.18
417.50	6237.53
417.69	6612.01
417.88	6733.72
418.07	6551.16
418.26	6597.97
418.45	6658.82
418.64	6956.07
418.83	6883.52
419.02	6850.75
419.21	6988.84
419.39	7019.27
419.58	6754.79
419.77	6836.70
419.96	7098.84
420.15	6953.73
420.34	7037.99
420.53	7148.00
420.72	7173.74
420.91	7117.57
421.10	7407.80
421.29	7346.94
421.48	7183.10
421.67	7396.09
421.86	7337.58
422.05	7323.54
422.24	7241.62
422.43	7400.77
422.61	7478.01
422.80	7541.21
422.99	7819.73
423.18	7602.06
423.37	7707.38
423.56	7426.52
423.75	7447.58
423.94	7410.14
424.13	7082.46
424.32	7337.58
424.50	7508.44
424.69	7686.32
424.88	7784.62
425.07	7515.46
425.26	7520.14
425.45	7548.23
425.64	7588.02
425.83	7641.85
426.01	7674.62
426.20	7705.04
426.39	7686.32
426.58	7815.05
426.77	7695.68
426.96	7772.92
427.15	7810.37
427.33	7822.07
427.52	7749.51
427.71	8170.81
427.90	7857.18
428.09	8018.68
428.28	8222.30
428.46	8332.31
428.65	8215.28
428.84	8311.24
429.03	8318.26
429.22	8142.72
429.40	8121.66
429.59	8477.42
429.78	8180.17
429.97	8021.02
430.16	8407.20
430.34	8624.87
430.53	8685.73
430.72	8706.79
430.91	8519.55
431.10	8554.66
431.28	8849.57
431.47	9071.92
431.66	8781.69
431.85	8819.14
432.03	8908.08
432.22	9055.53
432.41	8982.98
432.60	9088.30
432.79	8954.89
432.97	9078.94
433.16	9308.31
433.35	9125.75
433.54	9338.74
433.72	9383.21
433.91	9387.89
434.10	9296.61
434.28	9294.27
434.47	9563.43
434.66	9685.14
434.85	9542.36
435.03	9951.96
435.22	9767.06
435.41	10129.84
435.59	9804.50
435.78	10003.45
435.97	9879.40
436.16	9734.29
436.34	9954.30
436.53	10073.67
436.72	10157.92
436.90	9989.41
437.09	10092.39
437.28	10005.79
437.46	9947.28
437.65	10136.86
437.84	10293.68
438.02	10242.18
438.21	10256.23
438.40	10097.07
438.58	10626.03
438.77	10630.71
438.96	10558.16
439.14	10876.47
439.33	11014.56
439.52	11080.10
439.70	10869.45
439.89	11225.21
440.08	11157.33
440.26	11241.59
440.45	11154.99
440.63	11339.90
440.82	11714.38
441.01	11290.74
441.19	11733.11
441.38	11702.68
441.57	11777.58
441.75	11908.65
441.94	12006.95
442.12	12255.04
442.31	12016.31
442.50	12063.12
442.68	12112.27
442.87	12287.81
443.05	12299.52
443.24	12514.84
443.43	12601.44
443.61	12418.88
443.80	12666.98
443.98	12156.74
444.17	12042.06
444.35	12421.22
444.54	12622.51
444.73	12528.89
444.91	12648.26
445.10	12671.66
445.28	12718.47
445.47	12819.11
445.65	12622.51
445.84	12908.05
446.02	13205.30
446.21	12865.92
446.39	12662.30
446.58	12709.11
446.77	12802.73
446.95	12592.08
447.14	12741.88
447.32	12975.93
447.51	12901.03
447.69	12758.26
447.88	12940.82
448.06	13053.17
448.25	13090.62
448.43	13235.73
448.62	13013.38
448.80	12891.67
448.99	13263.82
449.17	13458.08
449.36	13350.42
449.54	13446.38
449.73	13729.58
449.91	13909.80
450.10	13661.71
450.28	13853.63
450.46	13799.80
450.65	13935.55
450.83	13816.18
451.02	13764.69
451.20	14139.18
451.39	13830.23
451.57	13968.32
451.76	13855.97
451.94	14239.82
452.13	14246.84
452.31	14279.61
452.49	14122.79
452.68	14415.36
452.86	14494.94
453.05	14480.89
453.23	14530.05
453.42	14506.64
453.60	14471.53
453.78	14387.27
453.97	14307.69
454.15	14534.73
454.34	14314.72
454.52	14834.32
454.70	14829.63
454.89	15033.26
455.07	15019.22
455.26	15019.22
455.44	15311.78
455.62	15351.57
455.81	15421.79
455.99	15480.30
456.17	15524.77
456.36	15279.02
456.54	15742.44
456.73	15655.84
456.91	15971.82
457.09	15927.35
457.28	16177.78
457.46	15824.36
457.64	16294.81
457.83	16278.43
458.01	16042.03
458.19	16418.86
458.38	16341.62
458.56	16423.54
458.74	16669.30
458.93	16294.81
459.11	16657.59
459.29	16393.11
459.48	16638.87
459.66	16437.58
459.84	16980.59
460.03	16980.59
460.21	17081.23
460.39	16950.16
460.57	17078.89
460.76	17099.95
460.94	17036.76
461.12	17149.11
461.31	17422.95
461.49	17151.45
461.67	17390.18
461.85	17256.77
462.04	17441.67
462.22	18054.89
462.40	17949.57
462.59	17680.41
462.77	17729.56
462.95	17820.84
463.13	17954.25
463.32	17816.16
463.50	18394.27
463.68	18111.07
463.86	18333.42
464.05	17750.62
464.23	18136.81
464.41	18422.36
464.59	18120.43
464.78	18796.84
464.96	18391.93
465.14	18221.07
465.32	18761.73
465.50	18576.83
465.69	18679.82
465.87	18651.73
466.05	18633.00
466.23	18817.91
466.41	18946.64
466.60	19131.54
466.78	18640.03
466.96	18895.14
467.14	19115.16
467.32	19084.73
467.51	19311.76
467.69	18602.58
467.87	19403.04
468.05	19473.26
468.23	19140.90
468.41	19063.66
468.60	19129.20
468.78	19529.43
468.96	19311.76
469.14	19683.91
469.32	20112.22
469.50	19557.52
469.69	20084.14
469.87	20460.96
470.05	20123.93
470.23	20233.93
470.41	20498.41
470.59	20673.95
470.77	20280.74
470.95	20685.65
471.14	20613.10
471.32	20404.79
471.50	21048.44
471.68	21195.89
471.86	21177.17
472.04	21125.68
472.22	21422.92
472.40	21198.23
472.58	21710.81
472.77	21874.65
472.95	21685.06
473.13	22487.87
473.31	21797.41
473.49	22169.55
473.67	22480.85
473.85	22183.60
474.03	22441.06
474.21	22501.91
474.39	23070.66
474.57	22679.79
474.75	23318.76
474.93	23461.53
475.12	23410.04
475.30	23309.40
475.48	23356.21
475.66	23704.95
475.84	23939.00
476.02	23742.39
476.20	23960.06
476.38	24629.46
476.56	24418.81
476.74	24877.55
476.92	24769.89
477.10	24952.45
477.28	24985.22
477.46	25303.53
477.64	25575.03
477.82	25773.98
478.00	26228.04
478.18	26366.13
478.36	26436.35
478.54	26632.96
478.72	26370.82
478.90	27206.39
479.08	27084.68
479.26	27639.39
479.44	27686.20
479.62	28278.35
479.80	28201.11
479.98	28362.61
480.16	28886.89
480.34	28563.90
480.52	28868.17
480.70	29088.18
480.88	29158.39
481.06	29303.51
481.24	29556.28
481.41	29738.85
481.59	30218.66
481.77	30623.57
481.95	30808.47
482.13	30668.04
482.31	30904.43
482.49	31562.12
482.67	31793.84
482.85	31826.60
483.03	32109.81
483.21	32788.56
483.39	32708.99
483.57	32575.58
483.74	32781.54
483.92	33008.58
484.10	33062.41
484.28	33975.22
484.46	34387.15
484.64	35124.42
484.82	34607.16
485.00	34852.92
485.18	35292.94
485.35	35892.12
485.53	35651.04
485.71	36107.44
485.89	36528.74
486.07	36362.56
486.25	36573.21
486.43	36917.27
486.61	37617.09
486.78	37551.56
486.96	37846.46
487.14	38440.96
487.32	38321.59
487.50	38543.94
487.68	38986.30
487.85	39323.34
488.03	39732.93
488.21	40409.35
488.39	40617.66
488.57	40957.03
488.75	40999.16
488.92	41067.04
489.10	41834.74
489.28	41612.38
489.46	42115.60
489.64	41816.01
489.81	42684.35
489.99	42738.18
490.17	42880.95
490.35	43828.87
490.53	43601.84
490.70	44177.61
490.88	43789.08
491.06	44629.34
491.24	44692.53
491.41	44919.56
491.59	45177.02
491.77	45464.91
491.95	45244.90
492.13	45797.26
492.30	46202.18
492.48	46522.83
492.66	46639.86
492.84	46670.28
493.01	47707.14
493.19	47487.13
493.37	47648.63
493.54	47688.42
493.72	48402.28
493.90	48610.59
494.08	48940.60
494.25	49504.67
494.43	49165.29
494.61	49654.47
494.79	49790.22
494.96	49441.48
495.14	49652.12
495.32	50597.70
495.49	50213.85
495.67	50499.40
495.85	51016.66
496.02	50518.12
496.20	51199.22
496.38	51196.88
496.55	51271.78
496.73	52322.68
496.91	51952.87
497.09	52259.48
497.26	52292.25
497.44	52093.30
497.62	52844.62
497.79	53069.31
497.97	52835.25
498.14	53193.36
498.32	53413.37
498.50	53380.60
498.67	53846.36
498.85	53572.52
499.03	53708.27
499.20	53937.65
499.38	54033.61
499.56	54361.28
499.73	54307.45
499.91	54593.00
500.08	54953.44
500.26	54731.09
500.44	54798.96
500.61	55138.34
500.79	54972.16
500.97	55295.16
501.14	55662.62
501.32	55498.78
501.49	55494.10
501.67	55739.86
501.84	56060.51
502.02	56004.34
502.20	56023.06
502.37	56128.39
502.55	56090.94
502.72	56273.50
502.90	56444.36
503.07	56264.14
503.25	56449.04
503.43	56790.76
503.60	56900.76
503.78	56935.87
503.95	56697.14
504.13	56978.00
504.30	57144.18
504.48	57036.51
504.65	57223.76
504.83	57485.90
505.01	57771.44
505.18	57488.24
505.36	57668.46
505.53	57715.27
505.71	57958.69
505.88	57867.40
506.06	58099.12
506.23	58049.97
506.41	57982.09
506.58	58227.85
506.76	58424.45
506.93	58405.73
507.11	58599.99
507.28	58885.54
507.46	58599.99
507.63	58939.37
507.81	58883.20
507.98	58539.14
508.16	58962.78
508.33	59098.53
508.50	59269.39
508.68	59348.96
508.85	59517.48
509.03	59423.86
509.20	59283.43
509.38	59716.43
509.55	59774.94
509.73	59847.50
509.90	60058.15
510.08	59796.01
510.25	59908.35
510.42	59875.58
510.60	60467.74
510.77	60156.45
510.95	60519.23
511.12	60371.78
511.30	60341.35
511.47	60544.98
511.64	60446.68
511.82	60587.11
511.99	60437.31
512.17	60652.64
512.34	60594.13
512.51	61022.45
512.69	61190.97
512.86	61076.28
513.04	61315.01
513.21	61275.22
513.38	61181.60
513.56	61457.79
513.73	61425.02
513.90	61492.89
514.08	61577.15
514.25	61656.73
514.43	61635.67
514.60	61719.93
514.77	61670.78
514.95	61684.82
515.12	61712.91
515.29	61918.87
515.47	62152.93
515.64	62389.32
515.81	62234.84
515.99	62166.97
516.16	62375.28
516.33	62335.49
516.51	62485.28
516.68	62475.92
516.85	62424.43
517.03	62625.71
517.20	62564.86
517.37	62651.46
517.54	62677.21
517.72	62609.33
517.89	62700.61
518.06	62927.64
518.24	63084.46
518.41	62904.24
518.58	63140.63
518.75	62934.66
518.93	63072.76
519.10	62740.40
519.27	63360.64
519.45	63463.63
519.62	63388.73
519.79	63681.30
519.96	63423.84
520.14	63725.77
520.31	63440.22
520.48	63704.70
520.65	63730.45
520.83	63856.84
521.00	63838.11
521.17	63997.27
521.34	63868.54
521.52	63966.84
521.69	64011.31
521.86	64008.97
522.03	64126.00
522.20	64210.26
522.38	64502.82
522.55	64250.05
522.72	64577.72
522.89	64322.60
523.07	64594.10
523.24	64491.12
523.41	64601.13
523.58	64624.53
523.75	64856.24
523.92	64980.29
524.10	64839.86
524.27	64814.12
524.44	64881.99
524.61	64989.66
524.78	64860.93
524.96	65029.44
525.13	65186.26
525.30	65226.05
525.47	65230.73
525.64	65167.54
525.81	65366.48
525.98	65167.54
526.16	65120.73
526.33	65380.52
526.50	65532.66
526.67	65429.68
526.84	65535.00
527.01	65535.00
527.18	65535.00
527.36	65535.00
527.53	65535.00
527.70	65535.00
527.87	65535.00
528.04	65535.00
528.21	65535.00
528.38	65535.00
528.55	65535.00
528.72	65535.00
528.89	65535.00
529.07	65535.00
529.24	65535.00
529.41	65535.00
529.58	65535.00
529.75	65535.00
529.92	65535.00
530.09	65535.00
530.26	65535.00
530.43	65535.00
530.60	65535.00
530.77	65535.00
530.94	65535.00
531.11	65535.00
531.28	65535.00
531.46	65535.00
531.63	65535.00
531.80	65535.00
531.97	65535.00
532.14	65535.00
532.31	65535.00
532.48	65535.00
532.65	65535.00
532.82	65535.00
532.99	65535.00
533.16	65535.00
533.33	65535.00
533.50	65535.00
533.67	65535.00
533.84	65535.00
534.01	65535.00
534.18	65535.00
534.35	65535.00
534.52	65535.00
534.69	65535.00
534.86	65535.00
535.03	65535.00
535.20	65535.00
535.37	65535.00
535.54	65535.00
535.71	65535.00
535.88	65535.00
536.05	65535.00
536.22	65535.00
536.38	65535.00
536.55	65535.00
536.72	65535.00
536.89	65535.00
537.06	65535.00
537.23	65535.00
537.40	65535.00
537.57	65535.00
537.74	65535.00
537.91	65535.00
538.08	65535.00
538.25	65535.00
538.42	65535.00
538.59	65535.00
538.75	65535.00
538.92	65535.00
539.09	65535.00
539.26	65535.00
539.43	65535.00
539.60	65535.00
539.77	65535.00
539.94	65535.00
540.11	65535.00
540.28	65535.00
540.44	65535.00
540.61	65535.00
540.78	65535.00
540.95	65535.00
541.12	65535.00
541.29	65535.00
541.46	65535.00
541.62	65535.00
541.79	65535.00
541.96	65535.00
542.13	65535.00
542.30	65535.00
542.47	65535.00
542.63	65535.00
542.80	65535.00
542.97	65535.00
543.14	65535.00
543.31	65535.00
543.48	65535.00
543.64	65535.00
543.81	65535.00
543.98	65535.00
544.15	65535.00
544.32	65535.00
544.48	65535.00
544.65	65535.00
544.82	65535.00
544.99	65535.00
545.16	65535.00
545.32	65535.00
545.49	65535.00
545.66	65535.00
545.83	65535.00
546.00	65535.00
546.16	65535.00
546.33	65535.00
546.50	65535.00
546.67	65535.00
546.83	65535.00
547.00	65535.00
547.17	65535.00
547.34	65535.00
547.50	65535.00
547.67	65535.00
547.84	65535.00
548.00	65535.00
548.17	65535.00
548.34	65535.00
548.51	65535.00
548.67	65535.00
548.84	65535.00
549.01	65535.00
549.18	65535.00
549.34	65535.00
549.51	65535.00
549.68	65535.00
549.84	65535.00
550.01	65535.00
550.18	65535.00
550.34	65535.00
550.51	65535.00
550.68	65535.00
550.84	65535.00
551.01	65535.00
551.18	65535.00
551.34	65535.00
551.51	65535.00
551.68	65535.00
551.84	65535.00
552.01	65535.00
552.18	65535.00
552.34	65535.00
552.51	65535.00
552.68	65535.00
552.84	65535.00
553.01	65535.00
553.18	65535.00
553.34	65535.00
553.51	65535.00
553.67	65535.00
553.84	65535.00
554.01	65535.00
554.17	65535.00
554.34	65535.00
554.51	65535.00
554.67	65535.00
554.84	65535.00
555.00	65535.00
555.17	65535.00
555.33	65535.00
555.50	65535.00
555.67	65535.00
555.83	65535.00
556.00	65535.00
556.16	65535.00
556.33	65535.00
556.50	65535.00
556.66	65535.00
556.83	65535.00
556.99	65535.00
557.16	65535.00
557.32	65535.00
557.49	65535.00
557.65	65535.00
557.82	65535.00
557.98	65535.00
558.15	65535.00
558.32	65535.00
558.48	65535.00
558.65	65535.00
558.81	65535.00
558.98	65535.00
559.14	65535.00
559.31	65535.00
559.47	65535.00
559.64	65535.00
559.80	65535.00
559.97	65535.00
560.13	65535.00
560.30	65535.00
560.46	65535.00
560.63	65535.00
560.79	65535.00
560.96	65535.00
561.12	65535.00
561.29	65535.00
561.45	65535.00
561.61	65535.00
561.78	65535.00
561.94	65535.00
562.11	65535.00
562.27	65535.00
562.44	65535.00
562.60	65535.00
562.77	65535.00
562.93	65535.00
563.10	65535.00
563.26	65535.00
563.42	65535.00
563.59	65535.00
563.75	65535.00
563.92	65535.00
564.08	65535.00
564.24	65535.00
564.41	65535.00
564.57	65535.00
564.74	65535.00
564.90	65535.00
565.07	65535.00
565.23	65535.00
565.39	65535.00
565.56	65535.00
565.72	65535.00
565.88	65535.00
566.05	65535.00
566.21	65535.00
566.38	65535.00
566.54	65535.00
566.70	65535.00
566.87	65535.00
567.03	65535.00
567.19	65535.00
567.36	65535.00
567.52	65535.00
567.68	65535.00
567.85	65535.00
568.01	65535.00
568.17	65535.00
568.34	65535.00
568.50	65535.00
568.66	65535.00
568.83	65535.00
568.99	65535.00
569.15	65535.00
569.32	65535.00
569.48	65535.00
569.64	65535.00
569.81	65535.00
569.97	65535.00
570.13	65535.00
570.30	65535.00
570.46	65535.00
570.62	65535.00
570.78	65535.00
570.95	65535.00
571.11	65535.00
571.27	65535.00
571.43	65535.00
571.60	65535.00
571.76	65535.00
571.92	65535.00
572.09	65535.00
572.25	65535.00
572.41	65535.00
572.57	65535.00
572.74	65535.00
572.90	65535.00
573.06	65535.00
573.22	65535.00
573.38	65535.00
573.55	65535.00
573.71	65535.00
573.87	65535.00
574.03	65535.00
574.20	65535.00
574.36	65535.00
574.52	65535.00
574.68	65535.00
574.84	65535.00
575.01	65535.00
575.17	65535.00
575.33	65535.00
575.49	65535.00
575.65	65535.00
575.82	65535.00
575.98	65535.00
576.14	65535.00
576.30	65535.00
576.46	65535.00
576.62	65535.00
576.79	65535.00
576.95	65535.00
577.11	65535.00
577.27	65535.00
577.43	65535.00
577.59	65535.00
577.75	65535.00
577.92	65535.00
578.08	65535.00
578.24	65535.00
578.40	65535.00
578.56	65535.00
578.72	65535.00
578.88	65535.00
579.04	65535.00
579.21	65535.00
579.37	65535.00
579.53	65535.00
579.69	65535.00
579.85	65535.00
580.01	65535.00
580.17	65535.00
580.33	65535.00
580.49	65535.00
580.65	65535.00
580.82	65535.00
580.98	65535.00
581.14	65535.00
581.30	65535.00
581.46	65535.00
581.62	65535.00
581.78	65535.00
581.94	65535.00
582.10	65535.00
582.26	65535.00
582.42	65535.00
582.58	65535.00
582.74	65535.00
582.90	65535.00
583.06	65535.00
583.22	65535.00
583.38	65535.00
583.54	65535.00
583.70	65535.00
583.86	65535.00
584.02	65535.00
584.18	65535.00
584.34	65535.00
584.50	65535.00
584.66	65535.00
584.82	65535.00
584.98	65535.00
585.14	65535.00
585.30	65535.00
585.46	65535.00
585.62	65535.00
585.78	65535.00
585.94	65535.00
586.10	65535.00
586.26	65535.00
586.42	65535.00
586.58	65535.00
586.74	65535.00
586.90	65535.00
