SpectraSuite Data File
++++++++++++++++++++++++++++++++++++
Date: Thu Oct 24 13:21:37 EDT 2013
User: stostad
Dark Spectrum Present: No
Reference Spectrum Present: No
Number of Sampled Component Spectra: 1
Spectrometers: USB2+H05261
Integration Time (usec): 100000 (USB2+H05261)
Spectra Averaged: 1 (USB2+H05261)
Boxcar Smoothing: 0 (USB2+H05261)
Correct for Electrical Dark: No (USB2+H05261)
Strobe/Lamp Enabled: No (USB2+H05261)
Correct for Detector Non-linearity: No (USB2+H05261)
Correct for Stray Light: No (USB2+H05261)
Number of Pixels in Processed Spectrum: 2048
>>>>>Begin Processed Spectral Data<<<<<
365.73	521.94
365.92	521.94
366.12	521.94
366.32	524.28
366.52	414.27
366.72	526.62
366.91	465.77
367.11	479.81
367.31	458.74
367.51	470.45
367.70	510.24
367.90	479.81
368.10	496.19
368.30	535.98
368.49	416.62
368.69	498.53
368.89	475.13
369.09	486.83
369.28	505.56
369.48	477.47
369.68	564.07
369.87	510.24
370.07	540.66
370.27	528.96
370.47	755.99
370.66	1156.22
370.86	1186.65
371.06	1261.55
371.25	1355.17
371.45	1238.14
371.65	1364.53
371.84	1254.53
372.04	1315.38
372.24	1366.87
372.44	1291.98
372.63	1343.47
372.83	1320.06
373.03	1387.94
373.22	1376.24
373.42	1327.08
373.62	1392.62
373.81	1383.26
374.01	1465.18
374.21	1479.22
374.40	1591.56
374.60	1526.03
374.79	1469.86
374.99	1558.80
375.19	1479.22
375.38	1568.16
375.58	1425.39
375.78	1549.43
375.97	1542.41
376.17	1600.93
376.37	1624.33
376.56	1593.90
376.76	1584.54
376.95	1528.37
377.15	1668.80
377.35	1666.46
377.54	1638.38
377.74	1542.41
377.93	1673.48
378.13	1701.57
378.33	1584.54
378.52	1701.57
378.72	1769.44
378.91	1715.61
379.11	1696.89
379.31	1685.19
379.50	1767.10
379.70	1769.44
379.89	1802.21
380.09	1715.61
380.28	1713.27
380.48	1804.55
380.68	1715.61
380.87	1928.60
381.07	1884.13
381.26	1884.13
381.46	1809.23
381.65	1832.64
381.85	1907.54
382.04	1827.96
382.24	1844.34
382.43	1898.17
382.63	1912.22
382.83	1940.30
383.02	1994.14
383.22	2005.84
383.41	1966.05
383.61	1895.83
383.80	2106.48
384.00	2003.50
384.19	1928.60
384.39	1970.73
384.58	2010.52
384.78	2052.65
384.97	2111.16
385.17	2092.44
385.36	2008.18
385.56	2012.86
385.75	2017.54
385.95	2127.55
386.14	2078.40
386.34	2242.23
386.53	2134.57
386.72	2150.95
386.92	2090.10
387.11	2176.70
387.31	2197.76
387.50	2230.53
387.70	2263.30
387.89	2338.20
388.09	2265.64
388.28	2272.66
388.48	2267.98
388.67	2270.32
388.86	2265.64
389.06	2307.77
389.25	2260.96
389.45	2382.67
389.64	2356.92
389.84	2368.62
390.03	2401.39
390.22	2413.09
390.42	2286.70
390.61	2422.45
390.81	2396.71
391.00	2495.01
391.19	2537.14
391.39	2487.99
391.58	2628.42
391.78	2562.89
391.97	2614.38
392.16	2609.70
392.36	2719.70
392.55	2569.91
392.75	2600.34
392.94	2597.99
393.13	2562.89
393.33	2698.64
393.52	2747.79
393.71	2689.28
393.91	2782.90
394.10	2698.64
394.29	2759.49
394.49	2766.51
394.68	2733.75
394.88	2757.15
395.07	2911.63
395.26	2913.97
395.46	2806.30
395.65	2867.16
395.84	2979.50
396.04	2930.35
396.23	2988.86
396.42	3014.61
396.62	3019.29
396.81	2993.55
397.00	3110.57
397.19	3000.57
397.39	3126.96
397.58	3070.78
397.77	3014.61
397.97	3138.66
398.16	3180.79
398.35	3194.83
398.55	3148.02
398.74	3157.38
398.93	3243.98
399.12	3185.47
399.32	3283.77
399.51	3274.41
399.70	3187.81
399.90	3309.52
400.09	3447.61
400.28	3316.54
400.47	3473.36
400.67	3538.89
400.86	3440.59
401.05	3370.37
401.24	3609.11
401.44	3536.55
401.63	3564.64
401.82	3442.93
402.01	3471.01
402.21	3463.99
402.40	3566.98
402.59	3625.49
402.78	3747.20
402.97	3700.39
403.17	3737.84
403.36	3742.52
403.55	3616.13
403.74	3861.88
403.93	3911.04
404.13	3892.31
404.32	3882.95
404.51	3925.08
404.70	3967.21
404.89	3992.95
405.09	3859.54
405.28	4067.85
405.47	4131.05
405.66	4107.64
405.85	4135.73
406.05	4102.96
406.24	4131.05
406.43	4205.94
406.62	4306.59
406.81	4362.76
407.00	4152.11
407.20	4269.14
407.39	4126.36
407.58	4435.32
407.77	4379.14
407.96	4292.54
408.15	4395.53
408.34	4346.37
408.54	4514.89
408.73	4468.08
408.92	4550.00
409.11	4477.44
409.30	4589.79
409.49	4643.62
409.68	4732.56
409.87	4760.65
410.07	4613.20
410.26	4718.52
410.45	4835.55
410.64	4847.25
410.83	4784.06
411.02	4908.10
411.21	4894.06
411.40	5006.41
411.59	5057.90
411.78	5085.98
411.98	5050.88
412.17	5149.18
412.36	5343.44
412.55	5153.86
412.74	5439.40
412.93	5242.80
413.12	5352.81
413.31	5439.40
413.50	5462.81
413.69	5298.97
413.88	5458.13
414.07	5706.23
414.26	5507.28
414.45	5678.14
414.64	5678.14
414.83	5884.11
415.02	5851.34
415.22	6015.18
415.41	5949.64
415.60	5893.47
415.79	6050.28
415.98	6160.29
416.17	6279.66
416.36	6099.44
416.55	6228.17
416.74	6160.29
416.93	6127.52
417.12	6305.40
417.31	6366.26
417.50	6300.72
417.69	6438.81
417.88	6431.79
418.07	6462.22
418.26	6658.82
418.45	6654.14
418.64	6801.60
418.83	6691.59
419.02	6640.10
419.21	6843.73
419.39	6796.92
419.58	6916.28
419.77	6850.75
419.96	6995.86
420.15	7049.69
420.34	7068.42
420.53	7087.14
420.72	7021.61
420.91	7236.94
421.10	7295.45
421.29	7126.93
421.48	7126.93
421.67	7021.61
421.86	7183.10
422.05	7194.81
422.24	7201.83
422.43	7461.63
422.61	7508.44
422.80	7541.21
422.99	7555.25
423.18	7372.69
423.37	7538.87
423.56	7363.33
423.75	7632.49
423.94	7246.30
424.13	6899.90
424.32	7133.95
424.50	7377.37
424.69	7737.81
424.88	7688.66
425.07	7396.09
425.26	7382.05
425.45	7426.52
425.64	7522.48
425.83	7541.21
426.01	7644.19
426.20	7672.28
426.39	7749.51
426.58	7494.40
426.77	7681.64
426.96	7763.56
427.15	7758.88
427.33	7981.23
427.52	7810.37
427.71	7669.94
427.90	7911.01
428.09	7875.90
428.28	8126.34
428.46	8168.47
428.65	7969.52
428.84	8231.66
429.03	8161.45
429.22	8060.80
429.40	8128.68
429.59	8262.09
429.78	7974.21
429.97	7964.84
430.16	8269.11
430.34	8402.52
430.53	8505.51
430.72	8315.92
430.91	8505.51
431.10	8477.42
431.28	8720.84
431.47	8760.63
431.66	8624.87
431.85	8648.28
432.03	8791.05
432.22	8994.68
432.41	8912.76
432.60	8964.25
432.79	8739.56
432.97	8929.14
433.16	9221.71
433.35	9076.60
433.54	9048.51
433.72	9092.98
433.91	8985.32
434.10	9226.39
434.28	9240.44
434.47	9249.80
434.66	9245.12
434.85	9434.70
435.03	9687.48
435.22	9474.49
435.41	9942.60
435.59	9582.15
435.78	9724.93
435.97	9675.77
436.16	9591.52
436.34	9671.09
436.53	9715.56
436.72	9884.08
436.90	9682.80
437.09	9905.15
437.28	9689.82
437.46	9853.66
437.65	9991.75
437.84	10008.13
438.02	10101.75
438.21	10129.84
438.40	10015.15
438.58	10338.15
438.77	10698.59
438.96	10361.55
439.14	10787.53
439.33	10532.41
439.52	10693.91
439.70	10731.36
439.89	10998.18
440.08	11033.29
440.26	10949.03
440.45	10967.75
440.63	11225.21
440.82	11360.96
441.01	10993.50
441.19	11332.87
441.38	11646.51
441.57	11632.46
441.75	11480.33
441.94	11793.96
442.12	11833.75
442.31	11985.88
442.50	12091.21
442.68	12002.27
442.87	11864.18
443.05	12194.19
443.24	12119.29
443.43	12210.57
443.61	12210.57
443.80	12666.98
443.98	12025.67
444.17	11772.89
444.35	12156.74
444.54	12334.62
444.73	12477.40
444.91	12329.94
445.10	12463.35
445.28	12439.95
445.47	12442.29
445.65	12486.76
445.84	12681.02
446.02	12503.14
446.21	12617.83
446.39	12430.59
446.58	12662.30
446.77	12795.71
446.95	12425.90
447.14	12840.18
447.32	12755.92
447.51	12617.83
447.69	12514.84
447.88	12865.92
448.06	12868.27
448.25	12596.76
448.43	12734.85
448.62	12840.18
448.80	12706.77
448.99	13109.34
449.17	13109.34
449.36	12966.57
449.54	13092.96
449.73	13418.29
449.91	13399.57
450.10	13284.88
450.28	13570.43
450.46	13525.96
450.65	13460.42
450.83	13401.91
451.02	13572.77
451.20	13743.63
451.39	13666.39
451.57	13673.41
451.76	13617.24
451.94	13703.84
452.13	13832.57
452.31	13898.10
452.49	13460.42
452.68	14071.30
452.86	13973.00
453.05	13898.10
453.23	14115.77
453.42	14104.07
453.60	13848.95
453.78	14181.31
453.97	14099.39
454.15	14036.19
454.34	14129.81
454.52	14300.67
454.70	14324.08
454.89	14499.62
455.07	14853.04
455.26	14438.76
455.44	15089.43
455.62	14920.92
455.81	14782.82
455.99	15077.73
456.17	14864.74
456.36	14862.40
456.54	15229.87
456.73	15417.11
456.91	15372.64
457.09	15517.75
457.28	15637.12
457.46	15178.37
457.64	15728.40
457.83	15548.18
458.01	15880.53
458.19	16098.20
458.38	15857.13
458.56	16013.95
458.74	16023.31
458.93	16079.48
459.11	15985.86
459.29	16304.17
459.48	16367.37
459.66	16271.40
459.84	16273.74
460.03	16388.43
460.21	16496.10
460.39	16695.04
460.57	16390.77
460.76	16744.19
460.94	16636.53
461.12	16943.14
461.31	16795.68
461.49	16929.09
461.67	16950.16
461.85	17123.36
462.04	16922.07
462.22	17228.68
462.40	17476.78
462.59	17216.98
462.77	17193.58
462.95	17535.29
463.13	17490.82
463.32	17455.72
463.50	17481.46
463.68	17525.93
463.86	18026.81
464.05	17598.49
464.23	17563.38
464.41	17689.77
464.59	17668.70
464.78	17872.33
464.96	18050.21
465.14	17759.98
465.32	18052.55
465.50	18251.50
465.69	18188.30
465.87	18324.05
466.05	17949.57
466.23	18331.08
466.41	18195.32
466.60	18670.45
466.78	18338.10
466.96	18328.74
467.14	18441.08
467.32	18302.99
467.51	18895.14
467.69	18221.07
467.87	18787.48
468.05	18867.06
468.23	18628.32
468.41	18480.87
468.60	18874.08
468.78	19180.69
468.96	18684.50
469.14	19295.38
469.32	19262.61
469.50	18972.38
469.69	19576.24
469.87	19527.09
470.05	19688.59
470.23	20018.60
470.41	19892.21
470.59	19714.33
470.77	19688.59
470.95	19988.18
471.14	20294.79
471.32	19726.04
471.50	20053.71
471.68	20229.25
471.86	20081.80
472.04	20521.82
472.22	21099.93
472.40	20617.78
472.58	20772.25
472.77	20940.77
472.95	20776.94
473.13	21577.40
473.31	21102.27
473.49	21036.74
473.67	21366.75
473.85	21380.79
474.03	21982.31
474.21	21916.78
474.39	21886.35
474.57	22052.53
474.75	22642.34
474.93	22635.32
475.12	22560.42
475.30	22429.35
475.48	22672.77
475.66	23075.34
475.84	22604.89
476.02	22869.37
476.20	22852.99
476.38	23728.35
476.56	23875.80
476.74	23761.12
476.92	23772.82
477.10	23782.18
477.28	24610.73
477.46	24301.78
477.64	24802.66
477.82	24554.56
478.00	25678.02
478.18	25291.83
478.36	25521.20
478.54	25834.83
478.72	25762.28
478.90	25977.61
479.08	26359.11
479.26	26719.56
479.44	26892.76
479.62	26855.31
479.80	27159.58
479.98	27475.55
480.16	28065.36
480.34	27503.64
480.52	27931.95
480.70	28107.49
480.88	27646.41
481.06	28364.95
481.24	28009.19
481.41	28943.06
481.59	29172.44
481.77	29504.79
481.95	29579.69
482.13	29816.08
482.31	29476.71
482.49	30359.09
482.67	30143.76
482.85	30389.52
483.03	30955.93
483.21	31342.11
483.39	31566.81
483.57	31021.46
483.74	31569.15
483.92	32510.04
484.10	31784.48
484.28	32690.26
484.46	32781.54
484.64	33734.14
484.82	32795.59
485.00	33661.58
485.18	34223.31
485.35	34527.58
485.53	34550.99
485.71	34742.91
485.89	35101.01
486.07	35185.27
486.25	35000.37
486.43	35108.04
486.61	35653.38
486.78	36484.27
486.96	36648.11
487.14	36547.47
487.32	36943.02
487.50	37130.26
487.68	37453.25
487.85	37876.89
488.03	38464.36
488.21	39122.05
488.39	38864.60
488.57	38841.19
488.75	39182.91
488.92	39653.36
489.10	39423.98
489.28	40041.88
489.46	40699.58
489.64	40568.51
489.81	41392.37
489.99	41539.83
490.17	41296.41
490.35	42197.52
490.53	42777.97
490.70	42473.70
490.88	41806.65
491.06	42855.21
491.24	42773.29
491.41	43225.01
491.59	43697.80
491.77	43704.82
491.95	44198.68
492.13	44306.34
492.30	44500.61
492.48	44821.26
492.66	44818.92
492.84	45106.80
493.01	46024.29
493.19	45797.26
493.37	46457.29
493.54	45904.93
493.72	46616.45
493.90	46590.70
494.08	47044.77
494.25	47241.37
494.43	47428.62
494.61	47695.44
494.79	47973.96
494.96	47672.03
495.14	48231.42
495.32	48910.17
495.49	48863.36
495.67	48964.01
495.85	49265.94
496.02	49347.86
496.20	49441.48
496.38	49860.43
496.55	50099.17
496.73	50562.59
496.91	50087.46
497.09	50628.13
497.26	50555.57
497.44	50600.04
497.62	51168.79
497.79	51753.93
497.97	51306.88
498.14	51821.80
498.32	51943.51
498.50	52013.73
498.67	52374.17
498.85	51973.94
499.03	52500.56
499.20	52460.77
499.38	52507.58
499.56	53291.66
499.73	52968.66
499.91	53109.10
500.08	53258.89
500.26	53198.04
500.44	53137.18
500.61	53352.51
500.79	53476.56
500.97	54087.44
501.14	54307.45
501.32	54103.82
501.49	54239.57
501.67	54351.92
501.84	54506.40
502.02	54279.36
502.20	54988.55
502.37	55054.08
502.55	54850.45
502.72	54805.98
502.90	54941.74
503.07	54927.69
503.25	55182.81
503.43	55257.71
503.60	55590.06
503.78	55592.40
503.95	55564.32
504.13	55985.61
504.30	55803.05
504.48	55929.44
504.65	56097.96
504.83	56336.69
505.01	56500.53
505.18	56121.37
505.36	56435.00
505.53	56163.50
505.71	56605.86
505.88	56776.72
506.06	56502.87
506.23	56889.06
506.41	56786.08
506.58	56963.96
506.76	57055.24
506.93	57237.80
507.11	57109.07
507.28	57102.05
507.46	57375.89
507.63	57502.28
507.81	57471.85
507.98	57401.64
508.16	57822.93
508.33	57729.31
508.50	58035.92
508.68	58038.26
508.85	58284.02
509.03	58115.50
509.20	58099.12
509.38	58553.18
509.55	58199.76
509.73	58625.74
509.90	58660.85
510.08	58908.94
510.25	58775.53
510.42	59061.08
510.60	58897.24
510.77	58899.58
510.95	59089.16
511.12	59011.93
511.30	59093.85
511.47	59327.90
511.64	59173.42
511.82	59561.95
511.99	59215.55
512.17	59590.04
512.34	59421.52
512.51	59866.22
512.69	60065.17
512.86	59898.99
513.04	59901.33
513.21	60062.83
513.38	59999.63
513.56	60016.02
513.73	60079.21
513.90	60247.73
514.08	60074.53
514.25	60650.30
514.43	60526.25
514.60	60444.33
514.77	60397.52
514.95	60416.25
515.12	60589.45
515.29	60568.38
515.47	60867.97
515.64	60882.02
515.81	60762.65
515.99	61022.45
516.16	61064.58
516.33	61015.43
516.51	61153.52
516.68	61162.88
516.85	61169.90
517.03	61364.17
517.20	61605.24
517.37	61441.40
517.54	61471.83
517.72	61420.34
517.89	61387.57
518.06	61659.07
518.24	61553.75
518.41	61762.06
518.58	61883.76
518.75	61764.40
518.93	61904.83
519.10	61502.26
519.27	61916.53
519.45	62166.97
519.62	62255.91
519.79	62260.59
519.96	62157.61
520.14	62281.66
520.31	62312.08
520.48	62293.36
520.65	62501.67
520.83	62684.23
521.00	62791.89
521.17	62698.27
521.34	62735.72
521.52	62728.70
521.69	62717.00
521.86	62726.36
522.03	62897.22
522.20	63016.58
522.38	63166.38
522.55	63121.91
522.72	63075.10
522.89	63039.99
523.07	63288.09
523.24	63077.44
523.41	63334.90
523.58	63098.50
523.75	63524.48
523.92	63653.21
524.10	63475.33
524.27	63517.46
524.44	63613.42
524.61	63704.70
524.78	63461.29
524.96	63618.10
525.13	63856.84
525.30	63924.71
525.47	64020.67
525.64	63987.91
525.81	64030.04
525.98	64128.34
526.16	63833.43
526.33	64121.32
526.50	64236.00
526.67	64156.42
526.84	64310.90
527.01	64355.37
527.18	64348.35
527.36	64357.71
527.53	64385.80
527.70	64687.73
527.87	64530.91
528.04	64638.57
528.21	64774.33
528.38	64671.34
528.55	64802.41
528.72	64727.52
528.89	64781.35
529.07	64654.96
529.24	64769.64
529.41	64968.59
529.58	64919.44
529.75	64961.57
529.92	65209.67
530.09	65111.36
530.26	64994.34
530.43	65064.55
530.60	64903.06
530.77	64924.12
530.94	65123.07
531.11	65219.03
531.28	65375.84
531.46	65300.95
531.63	65298.61
531.80	65429.68
531.97	65535.00
532.14	65373.50
532.31	65338.40
532.48	65492.87
532.65	65535.00
532.82	65535.00
532.99	65535.00
533.16	65504.57
533.33	65535.00
533.50	65535.00
533.67	65535.00
533.84	65535.00
534.01	65535.00
534.18	65535.00
534.35	65535.00
534.52	65535.00
534.69	65535.00
534.86	65535.00
535.03	65535.00
535.20	65535.00
535.37	65535.00
535.54	65535.00
535.71	65535.00
535.88	65535.00
536.05	65535.00
536.22	65535.00
536.38	65535.00
536.55	65535.00
536.72	65535.00
536.89	65535.00
537.06	65535.00
537.23	65535.00
537.40	65535.00
537.57	65535.00
537.74	65535.00
537.91	65535.00
538.08	65535.00
538.25	65535.00
538.42	65535.00
538.59	65535.00
538.75	65535.00
538.92	65535.00
539.09	65535.00
539.26	65535.00
539.43	65535.00
539.60	65535.00
539.77	65535.00
539.94	65535.00
540.11	65535.00
540.28	65535.00
540.44	65535.00
540.61	65535.00
540.78	65535.00
540.95	65535.00
541.12	65535.00
541.29	65535.00
541.46	65535.00
541.62	65535.00
541.79	65535.00
541.96	65535.00
542.13	65535.00
542.30	65535.00
542.47	65535.00
542.63	65535.00
542.80	65535.00
542.97	65535.00
543.14	65535.00
543.31	65535.00
543.48	65535.00
543.64	65535.00
543.81	65535.00
543.98	65535.00
544.15	65535.00
544.32	65535.00
544.48	65535.00
544.65	65535.00
544.82	65535.00
544.99	65535.00
545.16	65535.00
545.32	65535.00
545.49	65535.00
545.66	65535.00
545.83	65535.00
546.00	65535.00
546.16	65535.00
546.33	65535.00
546.50	65535.00
546.67	65535.00
546.83	65535.00
547.00	65535.00
547.17	65535.00
547.34	65535.00
547.50	65535.00
547.67	65535.00
547.84	65535.00
548.00	65535.00
548.17	65535.00
548.34	65535.00
548.51	65535.00
548.67	65535.00
548.84	65535.00
549.01	65535.00
549.18	65535.00
549.34	65535.00
549.51	65535.00
549.68	65535.00
549.84	65535.00
550.01	65535.00
550.18	65535.00
550.34	65535.00
550.51	65535.00
550.68	65535.00
550.84	65535.00
551.01	65535.00
551.18	65535.00
551.34	65535.00
551.51	65535.00
551.68	65535.00
551.84	65535.00
552.01	65535.00
552.18	65535.00
552.34	65535.00
552.51	65535.00
552.68	65535.00
552.84	65535.00
553.01	65535.00
553.18	65535.00
553.34	65535.00
553.51	65535.00
553.67	65535.00
553.84	65535.00
554.01	65535.00
554.17	65535.00
554.34	65535.00
554.51	65535.00
554.67	65535.00
554.84	65535.00
555.00	65535.00
555.17	65535.00
555.33	65535.00
555.50	65535.00
555.67	65535.00
555.83	65535.00
556.00	65535.00
556.16	65535.00
556.33	65535.00
556.50	65535.00
556.66	65535.00
556.83	65535.00
556.99	65535.00
557.16	65535.00
557.32	65535.00
557.49	65535.00
557.65	65535.00
557.82	65535.00
557.98	65535.00
558.15	65535.00
558.32	65535.00
558.48	65535.00
558.65	65535.00
558.81	65535.00
558.98	65535.00
559.14	65535.00
559.31	65535.00
559.47	65535.00
559.64	65535.00
559.80	65535.00
559.97	65535.00
560.13	65535.00
560.30	65535.00
560.46	65535.00
560.63	65535.00
560.79	65535.00
560.96	65535.00
561.12	65535.00
561.29	65535.00
561.45	65535.00
561.61	65535.00
561.78	65535.00
561.94	65535.00
562.11	65535.00
562.27	65535.00
562.44	65535.00
562.60	65535.00
562.77	65535.00
562.93	65535.00
563.10	65535.00
563.26	65535.00
563.42	65535.00
563.59	65535.00
563.75	65535.00
563.92	65535.00
564.08	65535.00
564.24	65535.00
564.41	65535.00
564.57	65535.00
564.74	65535.00
564.90	65535.00
565.07	65535.00
565.23	65535.00
565.39	65535.00
565.56	65535.00
565.72	65535.00
565.88	65535.00
566.05	65535.00
566.21	65535.00
566.38	65535.00
566.54	65535.00
566.70	65535.00
566.87	65535.00
567.03	65535.00
567.19	65535.00
567.36	65535.00
567.52	65535.00
567.68	65535.00
567.85	65535.00
568.01	65535.00
568.17	65535.00
568.34	65535.00
568.50	65535.00
568.66	65535.00
568.83	65535.00
568.99	65535.00
569.15	65535.00
569.32	65535.00
569.48	65535.00
569.64	65535.00
569.81	65535.00
569.97	65535.00
570.13	65535.00
570.30	65535.00
570.46	65535.00
570.62	65535.00
570.78	65535.00
570.95	65535.00
571.11	65535.00
571.27	65535.00
571.43	65535.00
571.60	65535.00
571.76	65535.00
571.92	65535.00
572.09	65535.00
572.25	65535.00
572.41	65535.00
572.57	65535.00
572.74	65535.00
572.90	65535.00
573.06	65535.00
573.22	65535.00
573.38	65535.00
573.55	65535.00
573.71	65535.00
573.87	65535.00
574.03	65535.00
574.20	65535.00
574.36	65535.00
574.52	65535.00
574.68	65535.00
574.84	65535.00
575.01	65535.00
575.17	65535.00
575.33	65535.00
575.49	65535.00
575.65	65535.00
575.82	65535.00
575.98	65535.00
576.14	65535.00
576.30	65535.00
576.46	65535.00
576.62	65535.00
576.79	65535.00
576.95	65535.00
577.11	65535.00
577.27	65535.00
577.43	65535.00
577.59	65535.00
577.75	65535.00
577.92	65535.00
578.08	65535.00
578.24	65535.00
578.40	65535.00
578.56	65535.00
578.72	65535.00
578.88	65535.00
579.04	65535.00
579.21	65535.00
579.37	65535.00
579.53	65535.00
579.69	65535.00
579.85	65535.00
580.01	65535.00
580.17	65535.00
580.33	65535.00
580.49	65535.00
580.65	65535.00
580.82	65535.00
580.98	65535.00
581.14	65535.00
581.30	65535.00
581.46	65535.00
581.62	65535.00
581.78	65535.00
581.94	65535.00
582.10	65535.00
582.26	65535.00
582.42	65535.00
582.58	65535.00
582.74	65535.00
582.90	65535.00
583.06	65535.00
583.22	65535.00
583.38	65535.00
583.54	65535.00
583.70	65535.00
583.86	65535.00
584.02	65535.00
584.18	65535.00
584.34	65535.00
584.50	65535.00
584.66	65535.00
584.82	65535.00
584.98	65535.00
585.14	65535.00
585.30	65535.00
585.46	65535.00
585.62	65535.00
585.78	65535.00
585.94	65535.00
586.10	65535.00
586.26	65535.00
586.42	65535.00
586.58	65535.00
586.74	65535.00
586.90	65535.00
