SpectraSuite Data File
++++++++++++++++++++++++++++++++++++
Date: Thu Oct 24 13:21:08 EDT 2013
User: stostad
Dark Spectrum Present: No
Reference Spectrum Present: No
Number of Sampled Component Spectra: 1
Spectrometers: USB2+H05261
Integration Time (usec): 100000 (USB2+H05261)
Spectra Averaged: 1 (USB2+H05261)
Boxcar Smoothing: 0 (USB2+H05261)
Correct for Electrical Dark: No (USB2+H05261)
Strobe/Lamp Enabled: No (USB2+H05261)
Correct for Detector Non-linearity: No (USB2+H05261)
Correct for Stray Light: No (USB2+H05261)
Number of Pixels in Processed Spectrum: 2048
>>>>>Begin Processed Spectral Data<<<<<
365.73	496.19
365.92	496.19
366.12	496.19
366.32	535.98
366.52	514.92
366.72	550.03
366.91	451.72
367.11	416.62
367.31	458.74
367.51	433.00
367.70	425.98
367.90	526.62
368.10	425.98
368.30	362.78
368.49	444.70
368.69	472.79
368.89	489.17
369.09	521.94
369.28	543.00
369.48	498.53
369.68	449.38
369.87	510.24
370.07	543.00
370.27	601.52
370.47	596.84
370.66	627.26
370.86	681.10
371.06	746.63
371.25	741.95
371.45	622.58
371.65	676.41
371.84	716.20
372.04	732.59
372.24	779.40
372.44	734.93
372.63	760.67
372.83	744.29
373.03	758.33
373.22	805.14
373.42	720.88
373.62	788.76
373.81	800.46
374.01	791.10
374.21	812.17
374.40	772.38
374.60	760.67
374.79	819.19
374.99	767.70
375.19	788.76
375.38	755.99
375.58	809.83
375.78	837.91
375.97	798.12
376.17	880.04
376.37	781.74
376.56	798.12
376.76	830.89
376.95	746.63
377.15	795.78
377.35	915.15
377.54	765.36
377.74	781.74
377.93	866.00
378.13	851.96
378.33	739.61
378.52	814.51
378.72	842.59
378.91	791.10
379.11	772.38
379.31	835.57
379.50	800.46
379.70	777.06
379.89	791.10
380.09	826.21
380.28	802.80
380.48	866.00
380.68	734.93
380.87	809.83
381.07	908.13
381.26	863.66
381.46	905.79
381.65	835.57
381.85	849.61
382.04	933.87
382.24	952.60
382.43	849.61
382.63	837.91
382.83	821.53
383.02	915.15
383.22	882.38
383.41	910.47
383.61	877.70
383.80	922.17
384.00	903.45
384.19	856.64
384.39	847.27
384.58	919.83
384.78	957.28
384.97	828.55
385.17	917.49
385.36	971.32
385.56	849.61
385.75	891.74
385.95	968.98
386.14	901.11
386.34	889.40
386.53	940.90
386.72	919.83
386.92	964.30
387.11	954.94
387.31	891.74
387.50	851.96
387.70	990.05
387.89	912.81
388.09	891.74
388.28	917.49
388.48	882.38
388.67	938.55
388.86	980.68
389.06	990.05
389.25	938.55
389.45	954.94
389.64	978.34
389.84	917.49
390.03	1001.75
390.22	931.53
390.42	976.00
390.61	959.62
390.81	973.66
391.00	959.62
391.19	992.39
391.39	1036.86
391.58	1050.90
391.78	1036.86
391.97	1046.22
392.16	1118.78
392.36	1057.92
392.55	976.00
392.75	997.07
392.94	1097.71
393.13	959.62
393.33	1041.54
393.52	1029.84
393.71	954.94
393.91	1071.97
394.10	1081.33
394.29	1029.84
394.49	1142.18
394.68	1046.22
394.88	1036.86
395.07	1151.54
395.26	1111.75
395.46	1076.65
395.65	1114.10
395.84	1097.71
396.04	1193.67
396.23	1130.48
396.42	1062.60
396.62	1067.28
396.81	1025.15
397.00	1062.60
397.19	1034.52
397.39	1160.91
397.58	1102.39
397.77	1121.12
397.97	1174.95
398.16	1074.31
398.35	1137.50
398.55	1135.16
398.74	1074.31
398.93	1210.06
399.12	1135.16
399.32	1107.07
399.51	1203.04
399.70	1200.69
399.90	1224.10
400.09	1205.38
400.28	1231.12
400.47	1158.57
400.67	1198.35
400.86	1240.48
401.05	1306.02
401.24	1186.65
401.44	1331.76
401.63	1357.51
401.82	1203.04
402.01	1245.16
402.21	1355.17
402.40	1245.16
402.59	1242.82
402.78	1270.91
402.97	1287.29
403.17	1270.91
403.36	1301.34
403.55	1336.45
403.74	1348.15
403.93	1275.59
404.13	1394.96
404.32	1348.15
404.51	1348.15
404.70	1387.94
404.89	1291.98
405.09	1376.24
405.28	1343.47
405.47	1383.26
405.66	1441.77
405.85	1331.76
406.05	1437.09
406.24	1376.24
406.43	1423.05
406.62	1369.21
406.81	1465.18
407.00	1451.13
407.20	1554.12
407.39	1511.99
407.58	1514.33
407.77	1516.67
407.96	1526.03
408.15	1554.12
408.34	1406.66
408.54	1551.78
408.73	1579.86
408.92	1521.35
409.11	1528.37
409.30	1439.43
409.49	1614.97
409.68	1465.18
409.87	1556.46
410.07	1694.55
410.26	1603.27
410.45	1554.12
410.64	1636.03
410.83	1643.06
411.02	1654.76
411.21	1629.01
411.40	1671.14
411.59	1593.90
411.78	1732.00
411.98	1629.01
412.17	1678.16
412.36	1739.02
412.55	1647.74
412.74	1795.19
412.93	1680.50
413.12	1671.14
413.31	1720.29
413.50	1802.21
413.69	1776.47
413.88	1877.11
414.07	1795.19
414.26	1762.42
414.45	1755.40
414.64	1790.51
414.83	1874.77
415.02	1881.79
415.22	1867.75
415.41	1783.49
415.60	1919.24
415.79	1874.77
415.98	2045.63
416.17	1970.73
416.36	1809.23
416.55	1923.92
416.74	1944.99
416.93	1937.96
417.12	1916.90
417.31	1935.62
417.50	1987.11
417.69	2069.03
417.88	2047.97
418.07	1952.01
418.26	1994.14
418.45	2066.69
418.64	2101.80
418.83	2162.66
419.02	2104.14
419.21	2115.84
419.39	2176.70
419.58	2113.50
419.77	2165.00
419.96	2193.08
420.15	2186.06
420.34	2143.93
420.53	2106.48
420.72	2249.25
420.91	2211.81
421.10	2193.08
421.29	2162.66
421.48	2169.68
421.67	2143.93
421.86	2251.60
422.05	2207.13
422.24	2207.13
422.43	2141.59
422.61	2289.04
422.80	2193.08
422.99	2204.78
423.18	2366.28
423.37	2324.15
423.56	2251.60
423.75	2195.42
423.94	2125.21
424.13	2134.57
424.32	2078.40
424.50	2277.34
424.69	2305.43
424.88	2356.92
425.07	2265.64
425.26	2275.00
425.45	2335.85
425.64	2239.89
425.83	2200.10
426.01	2181.38
426.20	2289.04
426.39	2319.47
426.58	2277.34
426.77	2190.74
426.96	2291.38
427.15	2462.24
427.33	2422.45
427.52	2279.68
427.71	2289.04
427.90	2319.47
428.09	2394.37
428.28	2303.09
428.46	2466.92
428.65	2420.11
428.84	2487.99
429.03	2466.92
429.22	2417.77
429.40	2499.69
429.59	2466.92
429.78	2368.62
429.97	2436.50
430.16	2476.29
430.34	2497.35
430.53	2499.69
430.72	2431.82
430.91	2422.45
431.10	2445.86
431.28	2497.35
431.47	2602.68
431.66	2595.65
431.85	2607.36
432.03	2679.91
432.22	2630.76
432.41	2640.12
432.60	2492.67
432.79	2609.70
432.97	2647.15
433.16	2626.08
433.35	2595.65
433.54	2726.72
433.72	2609.70
433.91	2672.89
434.10	2726.72
434.28	2661.19
434.47	2782.90
434.66	2752.47
434.85	2764.17
435.03	2813.32
435.22	3112.91
435.41	3204.19
435.59	3056.74
435.78	3026.31
435.97	2991.20
436.16	2974.82
436.34	2951.42
436.53	2827.37
436.72	2827.37
436.90	2745.45
437.09	2855.45
437.28	2832.05
437.46	2836.73
437.65	2862.48
437.84	2988.86
438.02	3007.59
438.21	2850.77
438.40	2857.79
438.58	2953.76
438.77	2949.08
438.96	2885.88
439.14	2956.10
439.33	3094.19
439.52	2913.97
439.70	2977.16
439.89	3061.42
440.08	3133.98
440.26	3007.59
440.45	3115.25
440.63	3136.32
440.82	3232.28
441.01	3183.13
441.19	3199.51
441.38	3213.56
441.57	3173.77
441.75	3251.00
441.94	3412.50
442.12	3288.45
442.31	3297.81
442.50	3241.64
442.68	3349.31
442.87	3232.28
443.05	3276.75
443.24	3391.44
443.43	3323.56
443.61	3473.36
443.80	3463.99
443.98	3281.43
444.17	3218.24
444.35	3461.65
444.54	3368.03
444.73	3328.24
444.91	3428.88
445.10	3349.31
445.28	3517.83
445.47	3325.90
445.65	3473.36
445.84	3492.08
446.02	3407.82
446.21	3386.76
446.39	3405.48
446.58	3431.23
446.77	3342.28
446.95	3405.48
447.14	3384.41
447.32	3384.41
447.51	3382.07
447.69	3506.12
447.88	3393.78
448.06	3433.57
448.25	3466.33
448.43	3527.19
448.62	3480.38
448.80	3445.27
448.99	3473.36
449.17	3501.44
449.36	3440.59
449.54	3604.42
449.73	3653.58
449.91	3681.66
450.10	3485.06
450.28	3740.18
450.46	3730.81
450.65	3604.42
450.83	3728.47
451.02	3686.34
451.20	3613.79
451.39	3803.37
451.57	3796.35
451.76	3552.93
451.94	3684.00
452.13	3730.81
452.31	3770.60
452.49	3817.41
452.68	3803.37
452.86	3756.56
453.05	3812.73
453.23	3754.22
453.42	3700.39
453.60	3756.56
453.78	3908.69
453.97	3815.07
454.15	3794.01
454.34	3723.79
454.52	3843.16
454.70	3829.12
454.89	3866.56
455.07	3777.62
455.26	3981.25
455.44	3981.25
455.62	3990.61
455.81	4028.06
455.99	3971.89
456.17	3957.85
456.36	3957.85
456.54	3901.67
456.73	4154.45
456.91	4105.30
457.09	4159.13
457.28	4079.55
457.46	4035.08
457.64	4173.18
457.83	4201.26
458.01	4091.26
458.19	4117.00
458.38	4245.73
458.56	4159.13
458.74	4229.35
458.93	4271.48
459.11	4243.39
459.29	4210.62
459.48	4372.12
459.66	4170.83
459.84	4196.58
460.03	4365.10
460.21	4182.54
460.39	4393.19
460.57	4442.34
460.76	4386.16
460.94	4421.27
461.12	4542.98
461.31	4346.37
461.49	4449.36
461.67	4397.87
461.85	4437.66
462.04	4365.10
462.22	4774.69
462.40	4521.92
462.59	4475.10
462.77	4418.93
462.95	4372.12
463.13	4496.17
463.32	4561.70
463.50	4498.51
463.68	4449.36
463.86	4552.34
464.05	4299.56
464.23	4358.08
464.41	4606.17
464.59	4344.03
464.78	4702.14
464.96	4517.23
465.14	4489.15
465.32	4685.75
465.50	4561.70
465.69	4826.18
465.87	4730.22
466.05	4624.90
466.23	4601.49
466.41	4706.82
466.60	4690.43
466.78	4655.33
466.96	4734.90
467.14	4690.43
467.32	4865.97
467.51	4795.76
467.69	4716.18
467.87	4894.06
468.05	4947.89
468.23	4690.43
468.41	4662.35
468.60	4849.59
468.78	4833.21
468.96	4870.65
469.14	4889.38
469.32	4924.49
469.50	4908.10
469.69	4856.61
469.87	4922.15
470.05	4856.61
470.23	5001.72
470.41	4901.08
470.59	5071.94
470.77	4863.63
470.95	5116.41
471.14	5060.24
471.32	4861.29
471.50	5191.31
471.68	5076.62
471.86	5093.01
472.04	5006.41
472.22	5427.70
472.40	5172.58
472.58	5153.86
472.77	5383.23
472.95	5224.08
473.13	5624.31
473.31	5261.52
473.49	5310.68
473.67	5252.16
473.85	5298.97
474.03	5425.36
474.21	5518.98
474.39	5514.30
474.57	5518.98
474.75	5453.45
474.93	5565.79
475.12	5535.37
475.30	5746.02
475.48	5561.11
475.66	5724.95
475.84	5448.77
476.02	5657.07
476.20	5701.54
476.38	5767.08
476.56	6120.50
476.74	5701.54
476.92	5954.32
477.10	5902.83
477.28	6204.76
477.46	6047.94
477.64	6064.33
477.82	6043.26
478.00	6176.67
478.18	6256.25
478.36	6282.00
478.54	6317.11
478.72	6286.68
478.90	6361.58
479.08	6494.99
479.26	6588.61
479.44	6462.22
479.62	6509.03
479.80	6462.22
479.98	6719.68
480.16	6743.08
480.34	6637.76
480.52	6707.98
480.70	6820.32
480.88	6616.69
481.06	6785.21
481.24	6757.13
481.41	6885.86
481.59	7002.88
481.77	7049.69
481.95	7009.90
482.13	7262.68
482.31	6991.18
482.49	7353.96
482.67	7126.93
482.85	7218.21
483.03	7494.40
483.21	7520.14
483.39	7449.93
483.57	7414.82
483.74	7445.24
483.92	7712.07
484.10	7681.64
484.28	7889.95
484.46	7850.16
484.64	7976.55
484.82	7925.05
485.00	7859.52
485.18	8131.02
485.35	8222.30
485.53	8205.92
485.71	8121.66
485.89	8432.95
486.07	8320.60
486.25	8308.90
486.43	8390.82
486.61	8484.44
486.78	8697.43
486.96	8585.08
487.14	8692.75
487.32	8664.66
487.50	8690.41
487.68	8894.04
487.85	8868.29
488.03	9100.00
488.21	9085.96
488.39	9135.11
488.57	9188.94
488.75	9188.94
488.92	9355.12
489.10	9336.40
489.28	9261.50
489.46	9635.99
489.64	9352.78
489.81	9666.41
489.99	9600.88
490.17	9626.62
490.35	9841.95
490.53	9930.89
490.70	9937.91
490.88	9879.40
491.06	10001.11
491.24	9914.51
491.41	10183.67
491.59	10115.80
491.77	10394.32
491.95	10286.65
492.13	10242.18
492.30	10244.52
492.48	10230.48
492.66	10621.35
492.84	10490.28
493.01	10623.69
493.19	10759.44
493.37	10670.50
493.54	10745.40
493.72	10789.87
493.90	10953.71
494.08	10871.79
494.25	10958.39
494.43	11077.76
494.61	11117.54
494.79	11248.61
494.96	11377.34
495.14	11124.57
495.32	11199.46
495.49	11590.33
495.67	11541.18
495.85	11655.87
496.02	11782.26
496.20	11379.68
496.38	11576.29
496.55	11726.08
496.73	11957.80
496.91	11758.85
497.09	12006.95
497.26	12049.08
497.44	12212.92
497.62	11903.96
497.79	11946.09
497.97	12182.49
498.14	12245.68
498.32	12123.98
498.50	12273.77
498.67	12631.87
498.85	12367.39
499.03	12479.74
499.20	12552.29
499.38	12664.64
499.56	12538.25
499.73	12732.51
499.91	12737.20
500.08	12898.69
500.26	12779.32
500.44	13011.04
500.61	13071.89
500.79	12821.45
500.97	12968.91
501.14	13099.98
501.32	13310.63
501.49	13048.49
501.67	12961.89
501.84	13312.97
502.02	13151.47
502.20	13226.37
502.37	13252.11
502.55	13231.05
502.72	13165.51
502.90	13582.13
503.07	13385.52
503.25	13661.71
503.43	13399.57
503.60	13762.35
503.78	13631.28
503.95	13841.93
504.13	13827.88
504.30	14024.49
504.48	13598.51
504.65	14066.62
504.83	14249.18
505.01	14335.78
505.18	13916.83
505.36	14335.78
505.53	14059.60
505.71	14066.62
505.88	14260.88
506.06	14438.76
506.23	14462.17
506.41	14125.13
506.58	14314.72
506.76	14235.14
506.93	14532.39
507.11	14532.39
507.28	14293.65
507.46	14553.45
507.63	14572.18
507.81	14656.43
507.98	14368.55
508.16	14600.26
508.33	14726.65
508.50	14906.87
508.68	14794.53
508.85	14672.82
509.03	14888.15
509.20	14850.70
509.38	15005.17
509.55	15274.34
509.73	15140.93
509.90	14846.02
510.08	15096.46
510.25	15421.79
510.42	15227.53
510.60	15288.38
510.77	15407.75
510.95	15620.74
511.12	15248.59
511.30	15220.50
511.47	15461.58
511.64	15321.15
511.82	15719.04
511.99	15384.34
512.17	15672.23
512.34	15524.77
512.51	15857.13
512.69	16058.42
512.86	15920.32
513.04	16116.93
513.21	15786.91
513.38	16002.24
513.56	15885.22
513.73	15936.71
513.90	15934.37
514.08	15978.84
514.25	16091.18
514.43	16114.59
514.60	16135.65
514.77	16435.24
514.95	16531.20
515.12	15903.94
515.29	16353.32
515.47	16489.07
515.64	16622.48
515.81	16425.88
515.99	16460.99
516.16	16468.01
516.33	16774.62
516.51	16776.96
516.68	16964.20
516.85	16570.99
517.03	16659.93
517.20	16854.20
517.37	16872.92
517.54	16744.19
517.72	16868.24
517.89	16664.61
518.06	16812.07
518.24	16989.95
518.41	16889.31
518.58	17076.55
518.75	16692.70
518.93	17224.00
519.10	16985.27
519.27	16858.88
519.45	17298.90
519.62	17554.02
519.79	17216.98
519.96	17195.92
520.14	17053.14
520.31	17111.66
520.48	17043.78
520.65	17324.65
520.83	17598.49
521.00	17748.28
521.17	17596.15
521.34	17525.93
521.52	17472.10
521.69	17710.83
521.86	17858.29
522.03	17591.47
522.20	17486.14
522.38	17675.73
522.55	17692.11
522.72	17783.39
522.89	17806.80
523.07	18101.70
523.24	17914.46
523.41	17678.07
523.58	17912.12
523.75	18026.81
523.92	17832.54
524.10	18054.89
524.27	18338.10
524.44	18553.43
524.61	18061.91
524.78	18338.10
524.96	18382.57
525.13	18291.29
525.30	18216.39
525.47	18284.26
525.64	18115.75
525.81	18480.87
525.98	18342.78
526.16	18300.65
526.33	18396.61
526.50	18422.36
526.67	18246.82
526.84	18504.28
527.01	18569.81
527.18	18546.40
527.36	18558.11
527.53	18462.15
527.70	18850.67
527.87	18656.41
528.04	19073.03
528.21	18951.32
528.38	18775.78
528.55	18970.04
528.72	18841.31
528.89	18848.33
529.07	18967.70
529.24	18792.16
529.41	19108.13
529.58	18977.06
529.75	19271.97
529.92	19073.03
530.09	19180.69
530.26	19147.92
530.43	19351.55
530.60	19180.69
530.77	18998.13
530.94	19318.78
531.11	19616.03
531.28	19403.04
531.46	19506.02
531.63	19360.91
531.80	19129.20
531.97	19321.12
532.14	19470.92
532.31	19335.17
532.48	19576.24
532.65	19524.75
532.82	19580.92
532.99	19695.61
533.16	19508.37
533.33	19564.54
533.50	19817.32
533.67	19637.09
533.84	19735.40
534.01	19639.44
534.18	19873.49
534.35	19772.85
534.52	19711.99
534.69	19784.55
534.86	19583.26
535.03	19639.44
535.20	19765.82
535.37	19960.09
535.54	20037.33
535.71	20161.37
535.88	19831.36
536.05	20163.72
536.22	20175.42
536.38	20004.56
536.55	19915.62
536.72	20133.29
536.89	20388.41
537.06	20070.09
537.23	20308.83
537.40	20238.61
537.57	20521.82
537.74	20521.82
537.91	20357.98
538.08	20322.87
538.25	20119.24
538.42	20552.24
538.59	20491.39
538.75	20325.21
538.92	20439.90
539.09	20493.73
539.26	20496.07
539.43	20343.94
539.60	20833.11
539.77	20800.34
539.94	20910.35
540.11	20966.52
540.28	20847.15
540.44	21088.23
540.61	20678.63
540.78	20805.02
540.95	20856.51
541.12	21144.40
541.29	21312.92
541.46	21235.68
541.62	21259.09
541.79	21610.17
541.96	21177.17
542.13	21308.24
542.30	21266.11
542.47	21216.96
542.63	21074.18
542.80	21558.67
542.97	21614.85
543.14	21937.84
543.31	21694.43
543.48	21568.04
543.64	21860.60
543.81	21954.22
543.98	21813.79
544.15	21570.38
544.32	21752.94
544.48	21565.70
544.65	22171.89
544.82	21893.37
544.99	21731.87
545.16	21876.99
545.32	21855.92
545.49	22546.38
545.66	22665.75
545.83	22986.40
546.00	23117.47
546.16	22403.61
546.33	21979.97
546.50	21809.11
546.67	21788.05
546.83	21748.26
547.00	21699.11
547.17	22024.44
547.34	21893.37
547.50	22356.80
547.67	22300.62
547.84	22239.77
548.00	22359.14
548.17	22045.51
548.34	21762.30
548.51	22242.11
548.67	22167.21
548.84	21986.99
549.01	21912.10
549.18	22010.40
549.34	22249.13
549.51	22073.59
549.68	22164.87
549.84	22120.40
550.01	22136.79
550.18	21713.15
550.34	22174.24
550.51	22089.98
550.68	22141.47
550.84	21937.84
551.01	22092.32
551.18	22040.82
551.34	22036.14
551.51	22345.09
551.68	22258.49
551.84	22333.39
552.01	22214.02
552.18	22235.09
552.34	22258.49
552.51	22614.26
552.68	22190.62
552.84	22253.81
553.01	22441.06
553.18	22347.44
553.34	22499.57
553.51	22305.31
553.67	22326.37
553.84	22698.52
554.01	22623.62
554.17	22595.53
554.34	22874.06
554.51	22190.62
554.67	22312.33
554.84	22801.50
555.00	22328.71
555.17	22279.56
555.33	22537.02
555.50	22312.33
555.67	22307.65
555.83	22539.36
556.00	22541.70
556.16	22944.27
556.33	22686.81
556.50	22750.01
556.66	22391.91
556.83	22377.86
556.99	22778.09
557.16	22829.59
557.32	22642.34
557.49	23030.87
557.65	22649.36
557.82	22682.13
557.98	22808.52
558.15	22410.63
558.32	22920.87
558.48	22366.16
558.65	22345.09
558.81	22773.41
558.98	22611.92
559.14	22380.20
559.31	22574.47
559.47	22614.26
559.64	23215.77
559.80	22977.04
559.97	22864.69
560.13	22649.36
560.30	22955.97
560.46	22494.89
560.63	23150.24
560.79	23122.15
560.96	23054.28
561.12	22988.74
561.29	23108.11
561.45	22981.72
561.61	22925.55
561.78	22890.44
561.94	22993.42
562.11	23084.70
562.27	23073.00
562.44	23051.94
562.60	23412.38
562.77	23147.90
562.93	23229.82
563.10	23384.29
563.26	22710.22
563.42	23101.09
563.59	23590.26
563.75	23087.04
563.92	22869.37
564.08	23168.96
564.24	23257.90
564.41	22890.44
564.57	23063.64
564.74	23267.27
564.90	23157.26
565.07	23356.21
565.23	23012.15
565.39	23178.33
565.56	23412.38
565.72	23021.51
565.88	23215.77
566.05	23260.24
566.21	23288.33
566.38	23197.05
566.54	23433.44
566.70	23403.02
566.87	23407.70
567.03	23229.82
567.19	23051.94
567.36	23150.24
567.52	23302.37
567.68	23225.14
567.85	23108.11
568.01	23082.36
568.17	23227.48
568.34	23307.05
568.50	23608.98
568.66	23569.19
568.83	23482.59
568.99	23433.44
569.15	23255.56
569.32	23658.14
569.48	23250.88
569.64	23480.25
569.81	23234.50
569.97	23143.22
570.13	23281.31
570.30	22948.95
570.46	23672.18
570.62	23206.41
570.78	23166.62
570.95	23527.06
571.11	23173.64
571.27	23192.37
571.43	23508.34
571.60	23580.90
571.76	23461.53
571.92	23466.21
572.09	23601.96
572.25	23606.64
572.41	23821.97
572.57	23704.95
572.74	23939.00
572.90	23461.53
573.06	23264.92
573.22	23623.03
573.38	23419.40
573.55	23576.22
573.71	23721.33
573.87	23276.63
574.03	23424.08
574.20	23683.88
574.36	23637.07
574.52	23543.45
574.68	23569.19
574.84	23576.22
575.01	23300.03
575.17	23271.95
575.33	23447.49
575.49	23693.24
575.65	23737.71
575.82	23611.32
575.98	23321.10
576.14	23833.68
576.30	23777.50
576.46	23480.25
576.62	23721.33
576.79	23276.63
576.95	23468.55
577.11	23648.77
577.27	23730.69
577.43	23704.95
577.59	24126.24
577.75	23747.08
577.92	23711.97
578.08	23618.35
578.24	23810.27
578.40	23906.23
578.56	23798.57
578.72	23988.15
578.88	24147.31
579.04	23997.51
579.21	23864.10
579.37	24049.00
579.53	24116.88
579.69	23658.14
579.85	23667.50
580.01	23718.99
580.17	23819.63
580.33	23655.79
580.49	23798.57
580.65	23510.68
580.82	23913.25
580.98	23520.04
581.14	23887.51
581.30	24133.26
581.46	23901.55
581.62	23690.90
581.78	23477.91
581.94	23847.72
582.10	23447.49
582.26	23765.80
582.42	23538.77
582.58	23580.90
582.74	24065.39
582.90	23555.15
583.06	23974.11
583.22	23573.88
583.38	23501.32
583.54	23604.30
583.70	23711.97
583.86	23828.99
584.02	23857.08
584.18	23840.70
584.34	23812.61
584.50	23758.78
584.66	23754.10
584.82	23784.52
584.98	23709.63
585.14	23768.14
585.30	23927.30
585.46	23831.33
585.62	23953.04
585.78	23751.76
585.94	23606.64
586.10	23871.12
586.26	23899.21
586.42	24060.71
586.58	24084.11
586.74	23784.52
586.90	23770.48
587.06	23601.96
587.22	23908.57
587.38	24034.96
587.54	23775.16
587.70	24273.70
587.86	24093.47
588.02	24041.98
588.18	24357.96
588.34	23976.45
588.49	23920.28
588.65	23805.59
588.81	23534.09
588.97	23833.68
589.13	23651.11
589.29	23852.40
589.45	23971.77
589.61	23929.64
589.77	24458.60
589.93	23529.41
590.08	23763.46
590.24	23985.81
590.40	23957.72
590.56	24025.60
590.72	23878.15
590.88	23924.96
591.04	23548.13
