SpectraSuite Data File
++++++++++++++++++++++++++++++++++++
Date: Thu Oct 24 13:21:04 EDT 2013
User: stostad
Dark Spectrum Present: No
Reference Spectrum Present: No
Number of Sampled Component Spectra: 1
Spectrometers: USB2+H05261
Integration Time (usec): 100000 (USB2+H05261)
Spectra Averaged: 1 (USB2+H05261)
Boxcar Smoothing: 0 (USB2+H05261)
Correct for Electrical Dark: No (USB2+H05261)
Strobe/Lamp Enabled: No (USB2+H05261)
Correct for Detector Non-linearity: No (USB2+H05261)
Correct for Stray Light: No (USB2+H05261)
Number of Pixels in Processed Spectrum: 2048
>>>>>Begin Processed Spectral Data<<<<<
365.73	601.52
365.92	601.52
366.12	601.52
366.32	510.24
366.52	489.17
366.72	458.74
366.91	470.45
367.11	533.64
367.31	472.79
367.51	468.11
367.70	449.38
367.90	489.17
368.10	535.98
368.30	440.02
368.49	491.51
368.69	486.83
368.89	430.66
369.09	486.83
369.28	521.94
369.48	482.15
369.68	461.09
369.87	547.69
370.07	514.92
370.27	587.47
370.47	564.07
370.66	500.87
370.86	557.05
371.06	638.97
371.25	599.18
371.45	622.58
371.65	568.75
371.84	578.11
372.04	573.43
372.24	622.58
372.44	685.78
372.63	606.20
372.83	645.99
373.03	638.97
373.22	648.33
373.42	538.32
373.62	690.46
373.81	643.65
374.01	608.54
374.21	667.05
374.40	613.22
374.60	582.79
374.79	676.41
374.99	645.99
375.19	650.67
375.38	596.84
375.58	669.39
375.78	674.07
375.97	671.73
376.17	657.69
376.37	631.94
376.56	627.26
376.76	655.35
376.95	599.18
377.15	622.58
377.35	645.99
377.54	629.60
377.74	674.07
377.93	638.97
378.13	561.73
378.33	629.60
378.52	648.33
378.72	636.63
378.91	653.01
379.11	634.29
379.31	643.65
379.50	643.65
379.70	631.94
379.89	660.03
380.09	587.47
380.28	648.33
380.48	622.58
380.68	622.58
380.87	674.07
381.07	671.73
381.26	592.16
381.46	615.56
381.65	629.60
381.85	653.01
382.04	599.18
382.24	606.20
382.43	690.46
382.63	674.07
382.83	585.13
383.02	594.50
383.22	641.31
383.41	571.09
383.61	608.54
383.80	622.58
384.00	629.60
384.19	615.56
384.39	634.29
384.58	638.97
384.78	653.01
384.97	664.71
385.17	568.75
385.36	622.58
385.56	554.71
385.75	631.94
385.95	585.13
386.14	599.18
386.34	578.11
386.53	613.22
386.72	699.82
386.92	664.71
387.11	634.29
387.31	622.58
387.50	573.43
387.70	664.71
387.89	587.47
388.09	624.92
388.28	645.99
388.48	571.09
388.67	636.63
388.86	594.50
389.06	603.86
389.25	650.67
389.45	655.35
389.64	638.97
389.84	664.71
390.03	667.05
390.22	660.03
390.42	592.16
390.61	547.69
390.81	608.54
391.00	617.90
391.19	606.20
391.39	655.35
391.58	653.01
391.78	615.56
391.97	615.56
392.16	601.52
392.36	695.14
392.55	662.37
392.75	578.11
392.94	580.45
393.13	697.48
393.33	641.31
393.52	667.05
393.71	660.03
393.91	550.03
394.10	648.33
394.29	624.92
394.49	645.99
394.68	657.69
394.88	603.86
395.07	667.05
395.26	608.54
395.46	608.54
395.65	664.71
395.84	634.29
396.04	643.65
396.23	638.97
396.42	585.13
396.62	634.29
396.81	601.52
397.00	566.41
397.19	592.16
397.39	617.90
397.58	636.63
397.77	592.16
397.97	650.67
398.16	617.90
398.35	657.69
398.55	655.35
398.74	650.67
398.93	641.31
399.12	631.94
399.32	596.84
399.51	601.52
399.70	634.29
399.90	596.84
400.09	629.60
400.28	681.10
400.47	615.56
400.67	643.65
400.86	655.35
401.05	648.33
401.24	627.26
401.44	575.77
401.63	629.60
401.82	592.16
402.01	592.16
402.21	613.22
402.40	599.18
402.59	620.24
402.78	664.71
402.97	592.16
403.17	634.29
403.36	603.86
403.55	608.54
403.74	641.31
403.93	690.46
404.13	643.65
404.32	706.84
404.51	667.05
404.70	704.50
404.89	688.12
405.09	648.33
405.28	645.99
405.47	676.41
405.66	641.31
405.85	676.41
406.05	655.35
406.24	615.56
406.43	653.01
406.62	599.18
406.81	678.76
407.00	622.58
407.20	613.22
407.39	643.65
407.58	660.03
407.77	648.33
407.96	685.78
408.15	575.77
408.34	643.65
408.54	603.86
408.73	615.56
408.92	601.52
409.11	613.22
409.30	746.63
409.49	617.90
409.68	629.60
409.87	585.13
410.07	582.79
410.26	667.05
410.45	617.90
410.64	613.22
410.83	599.18
411.02	674.07
411.21	688.12
411.40	582.79
411.59	631.94
411.78	587.47
411.98	571.09
412.17	636.63
412.36	594.50
412.55	643.65
412.74	669.39
412.93	664.71
413.12	685.78
413.31	650.67
413.50	671.73
413.69	636.63
413.88	589.82
414.07	599.18
414.26	627.26
414.45	582.79
414.64	606.20
414.83	617.90
415.02	645.99
415.22	634.29
415.41	582.79
415.60	641.31
415.79	582.79
415.98	662.37
416.17	568.75
416.36	688.12
416.55	643.65
416.74	688.12
416.93	657.69
417.12	655.35
417.31	589.82
417.50	660.03
417.69	615.56
417.88	587.47
418.07	606.20
418.26	631.94
418.45	643.65
418.64	599.18
418.83	603.86
419.02	573.43
419.21	667.05
419.39	587.47
419.58	622.58
419.77	648.33
419.96	641.31
420.15	645.99
420.34	610.88
420.53	664.71
420.72	641.31
420.91	660.03
421.10	629.60
421.29	730.25
421.48	697.48
421.67	657.69
421.86	645.99
422.05	613.22
422.24	667.05
422.43	627.26
422.61	662.37
422.80	634.29
422.99	603.86
423.18	568.75
423.37	627.26
423.56	648.33
423.75	641.31
423.94	613.22
424.13	650.67
424.32	664.71
424.50	643.65
424.69	552.37
424.88	657.69
425.07	557.05
425.26	613.22
425.45	596.84
425.64	603.86
425.83	653.01
426.01	601.52
426.20	676.41
426.39	662.37
426.58	678.76
426.77	592.16
426.96	699.82
427.15	660.03
427.33	608.54
427.52	681.10
427.71	627.26
427.90	603.86
428.09	601.52
428.28	594.50
428.46	613.22
428.65	594.50
428.84	606.20
429.03	678.76
429.22	650.67
429.40	622.58
429.59	573.43
429.78	667.05
429.97	620.24
430.16	631.94
430.34	713.86
430.53	641.31
430.72	617.90
430.91	629.60
431.10	608.54
431.28	660.03
431.47	662.37
431.66	608.54
431.85	585.13
432.03	599.18
432.22	662.37
432.41	636.63
432.60	734.93
432.79	648.33
432.97	653.01
433.16	589.82
433.35	589.82
433.54	674.07
433.72	559.39
433.91	674.07
434.10	620.24
434.28	660.03
434.47	653.01
434.66	645.99
434.85	711.52
435.03	732.59
435.22	1046.22
435.41	1111.75
435.59	997.07
435.78	858.98
435.97	849.61
436.16	732.59
436.34	664.71
436.53	645.99
436.72	631.94
436.90	615.56
437.09	650.67
437.28	669.39
437.46	531.30
437.65	585.13
437.84	631.94
438.02	732.59
438.21	653.01
438.40	638.97
438.58	690.46
438.77	669.39
438.96	596.84
439.14	664.71
439.33	699.82
439.52	636.63
439.70	657.69
439.89	634.29
440.08	655.35
440.26	615.56
440.45	671.73
440.63	631.94
440.82	667.05
441.01	641.31
441.19	641.31
441.38	627.26
441.57	592.16
441.75	655.35
441.94	655.35
442.12	657.69
442.31	566.41
442.50	674.07
442.68	582.79
442.87	648.33
443.05	596.84
443.24	716.20
443.43	636.63
443.61	629.60
443.80	627.26
443.98	692.80
444.17	564.07
444.35	702.16
444.54	587.47
444.73	650.67
444.91	662.37
445.10	636.63
445.28	594.50
445.47	645.99
445.65	657.69
445.84	662.37
446.02	627.26
446.21	540.66
446.39	671.73
446.58	608.54
446.77	582.79
446.95	601.52
447.14	662.37
447.32	641.31
447.51	599.18
447.69	669.39
447.88	615.56
448.06	746.63
448.25	650.67
448.43	643.65
448.62	671.73
448.80	725.57
448.99	559.39
449.17	660.03
449.36	617.90
449.54	650.67
449.73	603.86
449.91	620.24
450.10	596.84
450.28	718.54
450.46	723.23
450.65	704.50
450.83	678.76
451.02	582.79
451.20	678.76
451.39	692.80
451.57	683.44
451.76	695.14
451.94	596.84
452.13	690.46
452.31	657.69
452.49	660.03
452.68	620.24
452.86	638.97
453.05	678.76
453.23	601.52
453.42	671.73
453.60	645.99
453.78	627.26
453.97	674.07
454.15	678.76
454.34	554.71
454.52	608.54
454.70	674.07
454.89	610.88
455.07	648.33
455.26	638.97
455.44	580.45
455.62	617.90
455.81	662.37
455.99	617.90
456.17	660.03
456.36	617.90
456.54	655.35
456.73	674.07
456.91	638.97
457.09	681.10
457.28	622.58
457.46	655.35
457.64	730.25
457.83	596.84
458.01	608.54
458.19	631.94
458.38	608.54
458.56	676.41
458.74	685.78
458.93	608.54
459.11	608.54
459.29	592.16
459.48	690.46
459.66	653.01
459.84	603.86
460.03	657.69
460.21	702.16
460.39	594.50
460.57	653.01
460.76	648.33
460.94	634.29
461.12	681.10
461.31	662.37
461.49	613.22
461.67	601.52
461.85	662.37
462.04	624.92
462.22	1036.86
462.40	690.46
462.59	645.99
462.77	638.97
462.95	631.94
463.13	653.01
463.32	671.73
463.50	645.99
463.68	657.69
463.86	645.99
464.05	653.01
464.23	685.78
464.41	648.33
464.59	620.24
464.78	573.43
464.96	660.03
465.14	713.86
465.32	667.05
465.50	620.24
465.69	615.56
465.87	606.20
466.05	681.10
466.23	608.54
466.41	655.35
466.60	559.39
466.78	643.65
466.96	641.31
467.14	664.71
467.32	692.80
467.51	624.92
467.69	702.16
467.87	718.54
468.05	660.03
468.23	669.39
468.41	664.71
468.60	585.13
468.78	657.69
468.96	690.46
469.14	702.16
469.32	653.01
469.50	685.78
469.69	660.03
469.87	629.60
470.05	608.54
470.23	657.69
470.41	627.26
470.59	631.94
470.77	655.35
470.95	681.10
471.14	622.58
471.32	624.92
471.50	695.14
471.68	657.69
471.86	627.26
472.04	671.73
472.22	624.92
472.40	657.69
472.58	566.41
472.77	692.80
472.95	608.54
473.13	671.73
473.31	669.39
473.49	566.41
473.67	603.86
473.85	613.22
474.03	643.65
474.21	725.57
474.39	624.92
474.57	638.97
474.75	645.99
474.93	641.31
475.12	622.58
475.30	667.05
475.48	657.69
475.66	634.29
475.84	674.07
476.02	643.65
476.20	669.39
476.38	643.65
476.56	617.90
476.74	627.26
476.92	608.54
477.10	622.58
477.28	650.67
477.46	660.03
477.64	706.84
477.82	676.41
478.00	674.07
478.18	674.07
478.36	638.97
478.54	662.37
478.72	711.52
478.90	585.13
479.08	711.52
479.26	620.24
479.44	741.95
479.62	629.60
479.80	631.94
479.98	631.94
480.16	592.16
480.34	704.50
480.52	636.63
480.70	692.80
480.88	660.03
481.06	643.65
481.24	655.35
481.41	627.26
481.59	650.67
481.77	643.65
481.95	676.41
482.13	741.95
482.31	713.86
482.49	615.56
482.67	692.80
482.85	697.48
483.03	727.91
483.21	674.07
483.39	622.58
483.57	631.94
483.74	711.52
483.92	711.52
484.10	641.31
484.28	643.65
484.46	748.97
484.64	601.52
484.82	709.18
485.00	627.26
485.18	760.67
485.35	683.44
485.53	713.86
485.71	725.57
485.89	702.16
486.07	681.10
486.25	657.69
486.43	688.12
486.61	758.33
486.78	638.97
486.96	699.82
487.14	692.80
487.32	704.50
487.50	681.10
487.68	711.52
487.85	678.76
488.03	685.78
488.21	692.80
488.39	697.48
488.57	727.91
488.75	737.27
488.92	695.14
489.10	676.41
489.28	683.44
489.46	667.05
489.64	709.18
489.81	638.97
489.99	638.97
490.17	627.26
490.35	653.01
490.53	723.23
490.70	676.41
490.88	634.29
491.06	727.91
491.24	685.78
491.41	713.86
491.59	631.94
491.77	674.07
491.95	688.12
492.13	763.01
492.30	638.97
492.48	641.31
492.66	636.63
492.84	641.31
493.01	653.01
493.19	688.12
493.37	706.84
493.54	727.91
493.72	706.84
493.90	648.33
494.08	660.03
494.25	664.71
494.43	739.61
494.61	667.05
494.79	641.31
494.96	650.67
495.14	650.67
495.32	634.29
495.49	725.57
495.67	699.82
495.85	636.63
496.02	706.84
496.20	744.29
496.38	653.01
496.55	643.65
496.73	681.10
496.91	683.44
497.09	676.41
497.26	699.82
497.44	671.73
497.62	662.37
497.79	678.76
497.97	669.39
498.14	702.16
498.32	674.07
498.50	636.63
498.67	718.54
498.85	671.73
499.03	634.29
499.20	676.41
499.38	629.60
499.56	610.88
499.73	676.41
499.91	648.33
500.08	655.35
500.26	645.99
500.44	629.60
500.61	653.01
500.79	657.69
500.97	685.78
501.14	645.99
501.32	650.67
501.49	622.58
501.67	634.29
501.84	711.52
502.02	582.79
502.20	760.67
502.37	603.86
502.55	624.92
502.72	608.54
502.90	620.24
503.07	674.07
503.25	664.71
503.43	655.35
503.60	690.46
503.78	650.67
503.95	627.26
504.13	660.03
504.30	667.05
504.48	645.99
504.65	653.01
504.83	606.20
505.01	669.39
505.18	660.03
505.36	622.58
505.53	608.54
505.71	606.20
505.88	641.31
506.06	664.71
506.23	697.48
506.41	664.71
506.58	664.71
506.76	620.24
506.93	676.41
507.11	681.10
507.28	606.20
507.46	622.58
507.63	667.05
507.81	688.12
507.98	667.05
508.16	636.63
508.33	617.90
508.50	631.94
508.68	671.73
508.85	650.67
509.03	653.01
509.20	620.24
509.38	599.18
509.55	688.12
509.73	664.71
509.90	617.90
510.08	561.73
510.25	678.76
510.42	634.29
510.60	699.82
510.77	643.65
510.95	636.63
511.12	699.82
511.30	688.12
511.47	629.60
511.64	660.03
511.82	608.54
511.99	739.61
512.17	645.99
512.34	592.16
512.51	603.86
512.69	620.24
512.86	655.35
513.04	685.78
513.21	601.52
513.38	615.56
513.56	622.58
513.73	627.26
513.90	681.10
514.08	641.31
514.25	615.56
514.43	643.65
514.60	596.84
514.77	629.60
514.95	641.31
515.12	671.73
515.29	622.58
515.47	575.77
515.64	648.33
515.81	624.92
515.99	653.01
516.16	697.48
516.33	725.57
516.51	692.80
516.68	561.73
516.85	622.58
517.03	669.39
517.20	657.69
517.37	627.26
517.54	702.16
517.72	606.20
517.89	730.25
518.06	660.03
518.24	624.92
518.41	720.88
518.58	678.76
518.75	653.01
518.93	662.37
519.10	723.23
519.27	662.37
519.45	613.22
519.62	669.39
519.79	650.67
519.96	622.58
520.14	706.84
520.31	695.14
520.48	629.60
520.65	568.75
520.83	606.20
521.00	704.50
521.17	608.54
521.34	674.07
521.52	624.92
521.69	657.69
521.86	699.82
522.03	622.58
522.20	674.07
522.38	550.03
522.55	629.60
522.72	613.22
522.89	713.86
523.07	671.73
523.24	641.31
523.41	617.90
523.58	631.94
523.75	622.58
523.92	669.39
524.10	683.44
524.27	636.63
524.44	634.29
524.61	741.95
524.78	655.35
524.96	599.18
525.13	688.12
525.30	561.73
525.47	636.63
525.64	706.84
525.81	631.94
525.98	624.92
526.16	657.69
526.33	589.82
526.50	713.86
526.67	582.79
526.84	655.35
527.01	582.79
527.18	606.20
527.36	615.56
527.53	692.80
527.70	631.94
527.87	650.67
528.04	697.48
528.21	650.67
528.38	631.94
528.55	669.39
528.72	587.47
528.89	702.16
529.07	627.26
529.24	622.58
529.41	641.31
529.58	681.10
529.75	655.35
529.92	699.82
530.09	688.12
530.26	627.26
530.43	631.94
530.60	653.01
530.77	620.24
530.94	676.41
531.11	587.47
531.28	620.24
531.46	580.45
531.63	664.71
531.80	620.24
531.97	657.69
532.14	631.94
532.31	641.31
532.48	690.46
532.65	660.03
532.82	631.94
532.99	601.52
533.16	716.20
533.33	706.84
533.50	638.97
533.67	674.07
533.84	674.07
534.01	641.31
534.18	685.78
534.35	685.78
534.52	732.59
534.69	716.20
534.86	596.84
535.03	634.29
535.20	681.10
535.37	669.39
535.54	627.26
535.71	650.67
535.88	638.97
536.05	685.78
536.22	720.88
536.38	669.39
536.55	669.39
536.72	767.70
536.89	664.71
537.06	629.60
537.23	727.91
537.40	758.33
537.57	662.37
537.74	809.83
537.91	746.63
538.08	727.91
538.25	805.14
538.42	711.52
538.59	753.65
538.75	739.61
538.92	760.67
539.09	734.93
539.26	711.52
539.43	791.10
539.60	737.27
539.77	826.21
539.94	819.19
540.11	807.48
540.28	837.91
540.44	880.04
540.61	936.21
540.78	940.90
540.95	1078.99
541.12	1137.50
541.29	1060.26
541.46	1130.48
541.62	1177.29
541.79	1158.57
541.96	1247.51
542.13	1121.12
542.30	1210.06
542.47	1078.99
542.63	1095.37
542.80	1081.33
542.97	1111.75
543.14	1097.71
543.31	1055.58
543.48	1053.24
543.64	987.71
543.81	1102.39
543.98	1020.47
544.15	1022.81
544.32	978.34
544.48	1064.94
544.65	1076.65
544.82	1069.62
544.99	1078.99
545.16	1097.71
545.32	1130.48
545.49	1432.41
545.66	1614.97
545.83	1849.02
546.00	1621.99
546.16	1416.02
546.33	1324.74
546.50	1212.40
546.67	1196.01
546.83	1006.43
547.00	978.34
547.17	919.83
547.34	894.08
547.50	833.23
547.67	903.45
547.84	922.17
548.00	896.43
548.17	816.85
548.34	737.27
548.51	802.80
548.67	732.59
548.84	887.06
549.01	880.04
549.18	870.68
549.34	816.85
549.51	863.66
549.68	851.96
549.84	868.34
550.01	737.27
550.18	781.74
550.34	807.48
550.51	755.99
550.68	795.78
550.84	786.42
551.01	692.80
551.18	819.19
551.34	802.80
551.51	772.38
551.68	734.93
551.84	741.95
552.01	791.10
552.18	763.01
552.34	751.31
552.51	723.23
552.68	765.36
552.84	716.20
553.01	753.65
553.18	697.48
553.34	653.01
553.51	690.46
553.67	739.61
553.84	779.40
554.01	690.46
554.17	725.57
554.34	629.60
554.51	685.78
554.67	704.50
554.84	653.01
555.00	669.39
555.17	660.03
555.33	704.50
555.50	690.46
555.67	702.16
555.83	629.60
556.00	603.86
556.16	748.97
556.33	692.80
556.50	671.73
556.66	606.20
556.83	580.45
556.99	671.73
557.16	674.07
557.32	599.18
557.49	620.24
557.65	606.20
557.82	608.54
557.98	669.39
558.15	657.69
558.32	725.57
558.48	608.54
558.65	730.25
558.81	695.14
558.98	606.20
559.14	681.10
559.31	655.35
559.47	702.16
559.64	660.03
559.80	690.46
559.97	690.46
560.13	674.07
560.30	643.65
560.46	622.58
560.63	587.47
560.79	660.03
560.96	683.44
561.12	697.48
561.29	662.37
561.45	655.35
561.61	655.35
561.78	718.54
561.94	603.86
562.11	636.63
562.27	664.71
562.44	603.86
562.60	676.41
562.77	627.26
562.93	587.47
563.10	676.41
563.26	613.22
563.42	695.14
563.59	688.12
563.75	681.10
563.92	681.10
564.08	732.59
564.24	657.69
564.41	662.37
564.57	622.58
564.74	660.03
564.90	601.52
565.07	664.71
565.23	596.84
565.39	610.88
565.56	737.27
565.72	613.22
565.88	697.48
566.05	664.71
566.21	662.37
566.38	622.58
566.54	662.37
566.70	610.88
566.87	716.20
567.03	657.69
567.19	648.33
567.36	660.03
567.52	643.65
567.68	685.78
567.85	606.20
568.01	685.78
568.17	709.18
568.34	711.52
568.50	718.54
568.66	627.26
568.83	709.18
568.99	678.76
569.15	613.22
569.32	571.09
569.48	662.37
569.64	690.46
569.81	568.75
569.97	566.41
570.13	580.45
570.30	709.18
570.46	645.99
570.62	713.86
570.78	638.97
570.95	608.54
571.11	681.10
571.27	624.92
571.43	660.03
571.60	653.01
571.76	669.39
571.92	648.33
572.09	655.35
572.25	636.63
572.41	643.65
572.57	685.78
572.74	629.60
572.90	676.41
573.06	615.56
573.22	629.60
573.38	627.26
573.55	606.20
573.71	629.60
573.87	667.05
574.03	624.92
574.20	620.24
574.36	704.50
574.52	629.60
574.68	620.24
574.84	667.05
575.01	648.33
575.17	664.71
575.33	657.69
575.49	718.54
575.65	706.84
575.82	683.44
575.98	697.48
576.14	641.31
576.30	627.26
576.46	711.52
576.62	800.46
576.79	786.42
576.95	772.38
577.11	791.10
577.27	723.23
577.43	763.01
577.59	690.46
577.75	709.18
577.92	692.80
578.08	699.82
578.24	681.10
578.40	709.18
578.56	786.42
578.72	816.85
578.88	816.85
579.04	847.27
579.21	760.67
579.37	723.23
579.53	699.82
579.69	770.04
579.85	784.08
580.01	777.06
580.17	751.31
580.33	674.07
580.49	699.82
580.65	730.25
580.82	763.01
580.98	730.25
581.14	702.16
581.30	779.40
581.46	718.54
581.62	760.67
581.78	692.80
581.94	671.73
582.10	753.65
582.26	744.29
582.42	704.50
582.58	697.48
582.74	755.99
582.90	748.97
583.06	758.33
583.22	758.33
583.38	734.93
583.54	727.91
583.70	704.50
583.86	716.20
584.02	737.27
584.18	814.51
584.34	713.86
584.50	725.57
584.66	732.59
584.82	716.20
584.98	709.18
585.14	688.12
585.30	748.97
585.46	718.54
585.62	786.42
585.78	770.04
585.94	706.84
586.10	692.80
586.26	751.31
586.42	816.85
586.58	727.91
586.74	744.29
586.90	791.10
587.06	849.61
587.22	863.66
587.38	781.74
587.54	779.40
587.70	812.17
587.86	833.23
588.02	718.54
588.18	739.61
588.34	746.63
588.49	669.39
588.65	704.50
588.81	737.27
588.97	664.71
589.13	725.57
589.29	697.48
589.45	723.23
589.61	678.76
589.77	695.14
589.93	655.35
590.08	629.60
590.24	678.76
590.40	674.07
590.56	798.12
590.72	753.65
590.88	751.31
591.04	671.73
591.20	709.18
591.35	734.93
591.51	690.46
591.67	709.18
591.83	716.20
591.99	786.42
592.15	763.01
592.31	676.41
592.46	681.10
592.62	812.17
592.78	711.52
592.94	755.99
593.10	765.36
593.26	699.82
593.41	765.36
593.57	758.33
593.73	746.63
593.89	763.01
594.05	732.59
594.20	723.23
594.36	704.50
594.52	713.86
594.68	671.73
594.84	685.78
594.99	699.82
595.15	699.82
595.31	688.12
595.47	685.78
595.62	702.16
595.78	653.01
595.94	730.25
596.10	699.82
596.25	662.37
596.41	676.41
596.57	681.10
596.73	744.29
596.88	671.73
597.04	620.24
597.20	704.50
597.36	638.97
597.51	674.07
597.67	690.46
597.83	685.78
597.99	655.35
598.14	676.41
598.30	685.78
598.46	641.31
598.61	713.86
598.77	739.61
598.93	678.76
599.09	727.91
599.24	685.78
599.40	674.07
599.56	683.44
599.71	716.20
599.87	681.10
600.03	746.63
600.18	732.59
600.34	706.84
600.50	664.71
600.65	671.73
600.81	706.84
600.97	631.94
601.12	725.57
601.28	667.05
601.44	716.20
601.59	671.73
601.75	636.63
601.91	657.69
602.06	737.27
602.22	690.46
602.37	695.14
602.53	683.44
602.69	739.61
602.84	620.24
603.00	664.71
603.16	737.27
603.31	685.78
603.47	608.54
603.62	641.31
603.78	662.37
603.94	641.31
604.09	720.88
604.25	741.95
604.40	699.82
604.56	674.07
604.71	601.52
604.87	690.46
605.03	709.18
605.18	727.91
605.34	697.48
605.49	631.94
605.65	664.71
605.80	664.71
605.96	671.73
606.12	699.82
606.27	636.63
606.43	727.91
606.58	716.20
606.74	688.12
606.89	739.61
607.05	758.33
607.20	734.93
607.36	709.18
607.51	739.61
607.67	737.27
607.82	746.63
607.98	704.50
608.13	727.91
608.29	711.52
608.44	645.99
608.60	777.06
608.75	716.20
608.91	770.04
609.06	798.12
609.22	812.17
609.37	798.12
609.53	854.30
609.68	830.89
609.84	837.91
