SpectraSuite Data File
++++++++++++++++++++++++++++++++++++
Date: Thu Oct 24 13:21:04 EDT 2013
User: stostad
Dark Spectrum Present: No
Reference Spectrum Present: No
Number of Sampled Component Spectra: 1
Spectrometers: USB2+H05261
Integration Time (usec): 100000 (USB2+H05261)
Spectra Averaged: 1 (USB2+H05261)
Boxcar Smoothing: 0 (USB2+H05261)
Correct for Electrical Dark: No (USB2+H05261)
Strobe/Lamp Enabled: No (USB2+H05261)
Correct for Detector Non-linearity: No (USB2+H05261)
Correct for Stray Light: No (USB2+H05261)
Number of Pixels in Processed Spectrum: 2048
>>>>>Begin Processed Spectral Data<<<<<
365.73	550.03
365.92	550.03
366.12	550.03
366.32	484.49
366.52	463.43
366.72	423.64
366.91	507.90
367.11	428.32
367.31	472.79
367.51	423.64
367.70	512.58
367.90	475.13
368.10	503.22
368.30	486.83
368.49	449.38
368.69	489.17
368.89	503.22
369.09	449.38
369.28	437.68
369.48	559.39
369.68	498.53
369.87	514.92
370.07	545.34
370.27	545.34
370.47	568.75
370.66	718.54
370.86	704.50
371.06	671.73
371.25	660.03
371.45	634.29
371.65	753.65
371.84	662.37
372.04	737.27
372.24	739.61
372.44	760.67
372.63	784.08
372.83	709.18
373.03	807.48
373.22	753.65
373.42	814.51
373.62	732.59
373.81	823.87
374.01	887.06
374.21	802.80
374.40	765.36
374.60	837.91
374.79	828.55
374.99	828.55
375.19	847.27
375.38	894.08
375.58	828.55
375.78	784.08
375.97	779.40
376.17	887.06
376.37	912.81
376.56	786.42
376.76	788.76
376.95	802.80
377.15	812.17
377.35	854.30
377.54	884.72
377.74	774.72
377.93	842.59
378.13	795.78
378.33	833.23
378.52	821.53
378.72	770.04
378.91	894.08
379.11	868.34
379.31	828.55
379.50	915.15
379.70	840.25
379.89	905.79
380.09	905.79
380.28	807.48
380.48	875.36
380.68	842.59
380.87	837.91
381.07	882.38
381.26	873.02
381.46	922.17
381.65	861.32
381.85	908.13
382.04	894.08
382.24	847.27
382.43	882.38
382.63	875.36
382.83	861.32
383.02	866.00
383.22	861.32
383.41	938.55
383.61	837.91
383.80	889.40
384.00	910.47
384.19	856.64
384.39	947.92
384.58	858.98
384.78	922.17
384.97	1025.15
385.17	908.13
385.36	805.14
385.56	924.51
385.75	870.68
385.95	966.64
386.14	931.53
386.34	844.93
386.53	866.00
386.72	898.77
386.92	905.79
387.11	903.45
387.31	966.64
387.50	901.11
387.70	954.94
387.89	985.37
388.09	983.02
388.28	957.28
388.48	973.66
388.67	957.28
388.86	964.30
389.06	954.94
389.25	952.60
389.45	905.79
389.64	994.73
389.84	947.92
390.03	999.41
390.22	957.28
390.42	908.13
390.61	957.28
390.81	1027.50
391.00	973.66
391.19	1081.33
391.39	950.26
391.58	1008.77
391.78	1001.75
391.97	1015.79
392.16	985.37
392.36	1025.15
392.55	1018.13
392.75	1025.15
392.94	966.64
393.13	1039.20
393.33	976.00
393.52	1071.97
393.71	1114.10
393.91	1022.81
394.10	1036.86
394.29	1020.47
394.49	957.28
394.68	1076.65
394.88	1020.47
395.07	1062.60
395.26	1104.73
395.46	1107.07
395.65	1146.86
395.84	1081.33
396.04	1139.84
396.23	1104.73
396.42	1027.50
396.62	1156.22
396.81	1008.77
397.00	1125.80
397.19	1177.29
397.39	1153.88
397.58	1165.59
397.77	1139.84
397.97	1118.78
398.16	1151.54
398.35	1107.07
398.55	1109.41
398.74	1144.52
398.93	1224.10
399.12	1170.27
399.32	1151.54
399.51	1142.18
399.70	1160.91
399.90	1181.97
400.09	1214.74
400.28	1294.32
400.47	1212.40
400.67	1224.10
400.86	1207.72
401.05	1188.99
401.24	1217.08
401.44	1277.93
401.63	1226.44
401.82	1291.98
402.01	1291.98
402.21	1322.40
402.40	1221.76
402.59	1294.32
402.78	1341.13
402.97	1256.87
403.17	1313.04
403.36	1263.89
403.55	1252.19
403.74	1306.02
403.93	1430.07
404.13	1334.11
404.32	1416.02
404.51	1425.39
404.70	1341.13
404.89	1399.64
405.09	1432.41
405.28	1401.98
405.47	1383.26
405.66	1404.32
405.85	1364.53
406.05	1401.98
406.24	1472.20
406.43	1418.36
406.62	1472.20
406.81	1476.88
407.00	1423.05
407.20	1397.30
407.39	1371.55
407.58	1453.47
407.77	1495.60
407.96	1547.09
408.15	1509.65
408.34	1497.94
408.54	1444.11
408.73	1526.03
408.92	1572.84
409.11	1650.08
409.30	1460.49
409.49	1614.97
409.68	1579.86
409.87	1575.18
410.07	1570.50
410.26	1652.42
410.45	1565.82
410.64	1530.71
410.83	1577.52
411.02	1659.44
411.21	1668.80
411.40	1621.99
411.59	1605.61
411.78	1710.93
411.98	1654.76
412.17	1621.99
412.36	1682.85
412.55	1753.06
412.74	1694.55
412.93	1797.53
413.12	1689.87
413.31	1755.40
413.50	1748.38
413.69	1760.08
413.88	1825.62
414.07	1797.53
414.26	1823.28
414.45	1837.32
414.64	1900.52
414.83	1776.47
415.02	1827.96
415.22	1912.22
415.41	1930.94
415.60	1820.94
415.79	1926.26
415.98	1900.52
416.17	1916.90
416.36	1905.20
416.55	1872.43
416.74	1870.09
416.93	1853.70
417.12	1980.09
417.31	2031.58
417.50	1923.92
417.69	2015.20
417.88	2047.97
418.07	1919.24
418.26	2015.20
418.45	2054.99
418.64	2162.66
418.83	2015.20
419.02	2022.22
419.21	2139.25
419.39	2047.97
419.58	2019.88
419.77	1996.48
419.96	2153.29
420.15	2165.00
420.34	2118.18
420.53	2165.00
420.72	2223.51
420.91	2186.06
421.10	2232.87
421.29	2211.81
421.48	2146.27
421.67	2087.76
421.86	2214.15
422.05	2307.77
422.24	2129.89
422.43	2286.70
422.61	2162.66
422.80	2211.81
422.99	2251.60
423.18	2172.02
423.37	2193.08
423.56	2282.02
423.75	2314.79
423.94	2349.90
424.13	2172.02
424.32	2169.68
424.50	2207.13
424.69	2305.43
424.88	2303.09
425.07	2176.70
425.26	2181.38
425.45	2214.15
425.64	2275.00
425.83	2289.04
426.01	2289.04
426.20	2242.23
426.39	2284.36
426.58	2246.91
426.77	2312.45
426.96	2396.71
427.15	2389.69
427.33	2230.53
427.52	2310.11
427.71	2270.32
427.90	2239.89
428.09	2331.17
428.28	2394.37
428.46	2377.98
428.65	2300.75
428.84	2455.22
429.03	2399.05
429.22	2359.26
429.40	2436.50
429.59	2403.73
429.78	2424.80
429.97	2434.16
430.16	2427.14
430.34	2509.05
430.53	2506.71
430.72	2448.20
430.91	2422.45
431.10	2485.65
431.28	2569.91
431.47	2541.82
431.66	2562.89
431.85	2642.46
432.03	2492.67
432.22	2717.36
432.41	2670.55
432.60	2509.05
432.79	2586.29
432.97	2612.04
433.16	2672.89
433.35	2623.74
433.54	2628.42
433.72	2693.96
433.91	2684.59
434.10	2740.77
434.28	2705.66
434.47	2654.17
434.66	2654.17
434.85	2787.58
435.03	2818.00
435.22	2993.55
435.41	3075.46
435.59	3080.14
435.78	2916.31
435.97	3009.93
436.16	2881.20
436.34	2780.56
436.53	2843.75
436.72	2806.30
436.90	2768.85
437.09	2757.15
437.28	2803.96
437.46	2775.88
437.65	2810.98
437.84	2876.52
438.02	2834.39
438.21	2977.16
438.40	2871.84
438.58	2946.73
438.77	2942.05
438.96	2913.97
439.14	3019.29
439.33	3117.59
439.52	2958.44
439.70	2972.48
439.89	3187.81
440.08	3026.31
440.26	3084.83
440.45	3082.49
440.63	3258.03
440.82	3297.81
441.01	3049.72
441.19	3155.04
441.38	3293.13
441.57	3234.62
441.75	3325.90
441.94	3192.49
442.12	3267.39
442.31	3260.37
442.50	3281.43
442.68	3349.31
442.87	3173.77
443.05	3428.88
443.24	3396.12
443.43	3492.08
443.61	3463.99
443.80	3370.37
443.98	3241.64
444.17	3274.41
444.35	3407.82
444.54	3344.63
444.73	3316.54
444.91	3478.04
445.10	3372.71
445.28	3471.01
445.47	3379.73
445.65	3428.88
445.84	3456.97
446.02	3536.55
446.21	3393.78
446.39	3428.88
446.58	3445.27
446.77	3468.67
446.95	3492.08
447.14	3400.80
447.32	3428.88
447.51	3405.48
447.69	3468.67
447.88	3410.16
448.06	3592.72
448.25	3442.93
448.43	3410.16
448.62	3676.98
448.80	3482.72
448.99	3433.57
449.17	3562.30
449.36	3410.16
449.54	3482.72
449.73	3599.74
449.91	3595.06
450.10	3637.19
450.28	3707.41
450.46	3571.66
450.65	3728.47
450.83	3595.06
451.02	3574.00
451.20	3665.28
451.39	3829.12
451.57	3637.19
451.76	3524.85
451.94	3712.09
452.13	3695.71
452.31	3749.54
452.49	3611.45
452.68	3875.93
452.86	3709.75
453.05	3662.94
453.23	3810.39
453.42	3786.99
453.60	3782.31
453.78	3840.82
453.97	3702.73
454.15	3770.60
454.34	3707.41
454.52	3939.12
454.70	3768.26
454.89	3838.48
455.07	3833.80
455.26	3892.31
455.44	3925.08
455.62	3932.10
455.81	3943.80
455.99	3941.46
456.17	3939.12
456.36	4049.13
456.54	3936.78
456.73	3960.19
456.91	4131.05
457.09	4077.21
457.28	4128.70
457.46	4128.70
457.64	4161.47
457.83	4163.81
458.01	4149.77
458.19	4315.95
458.38	4128.70
458.56	4308.93
458.74	4145.09
458.93	4318.29
459.11	4182.54
459.29	4124.02
459.48	4346.37
459.66	4266.80
459.84	4231.69
460.03	4540.64
460.21	4285.52
460.39	4271.48
460.57	4273.82
460.76	4407.23
460.94	4365.10
461.12	4418.93
461.31	4514.89
461.49	4425.95
461.67	4386.16
461.85	4498.51
462.04	4470.42
462.22	4793.42
462.40	4477.44
462.59	4512.55
462.77	4486.81
462.95	4425.95
463.13	4477.44
463.32	4322.97
463.50	4512.55
463.68	4585.11
463.86	4671.71
464.05	4458.72
464.23	4503.19
464.41	4519.57
464.59	4519.57
464.78	4690.43
464.96	4699.80
465.14	4514.89
465.32	4767.67
465.50	4627.24
465.69	4559.36
465.87	4667.03
466.05	4599.15
466.23	4676.39
466.41	4690.43
466.60	4704.48
466.78	4690.43
466.96	4624.90
467.14	4851.93
467.32	4713.84
467.51	4772.35
467.69	4662.35
467.87	4751.29
468.05	4905.76
468.23	4814.48
468.41	4807.46
468.60	4945.55
468.78	4779.37
468.96	4793.42
469.14	4828.53
469.32	4816.82
469.50	4826.18
469.69	4938.53
469.87	4926.83
470.05	4901.08
470.23	4950.23
470.41	4933.85
470.59	5118.75
470.77	4882.36
470.95	5018.11
471.14	5158.54
471.32	5123.43
471.50	5050.88
471.68	5104.71
471.86	5174.92
472.04	5270.89
472.22	5308.34
472.40	5050.88
472.58	5118.75
472.77	5305.99
472.95	5284.93
473.13	5479.19
473.31	5294.29
473.49	5362.17
473.67	5397.28
473.85	5455.79
474.03	5289.61
474.21	5432.38
474.39	5598.56
474.57	5507.28
474.75	5507.28
474.93	5523.66
475.12	5472.17
475.30	5439.40
475.48	5575.16
475.66	5551.75
475.84	5633.67
476.02	5706.23
476.20	5790.49
476.38	5975.39
476.56	6047.94
476.74	5898.15
476.92	5844.32
477.10	6076.03
477.28	5994.11
477.46	6010.50
477.64	6040.92
477.82	5893.47
478.00	6232.85
478.18	6179.01
478.36	6127.52
478.54	6298.38
478.72	6286.68
478.90	6314.77
479.08	6478.60
479.26	6555.84
479.44	6368.60
479.62	6689.25
479.80	6562.86
479.98	6434.13
480.16	6619.04
480.34	6565.20
480.52	6864.79
480.70	6581.59
480.88	6757.13
481.06	6871.81
481.24	6958.41
481.41	6834.36
481.59	7070.76
481.77	7035.65
481.95	7014.59
482.13	7222.89
482.31	7098.84
482.49	7190.13
482.67	7307.15
482.85	7262.68
483.03	7363.33
483.21	7349.28
483.39	7578.65
483.57	7466.31
483.74	7606.74
483.92	7864.20
484.10	7681.64
484.28	7861.86
484.46	8018.68
484.64	7964.84
484.82	7934.42
485.00	8028.04
485.18	8191.88
485.35	8189.53
485.53	8245.71
485.71	8311.24
485.89	8493.80
486.07	8409.54
486.25	8257.41
486.43	8659.98
486.61	8344.01
486.78	8709.13
486.96	8620.19
487.14	8793.39
487.32	8819.14
487.50	8777.01
487.68	8940.85
487.85	8915.10
488.03	9011.06
488.21	9130.43
488.39	9032.13
488.57	9156.18
488.75	9114.05
488.92	9336.40
489.10	9507.26
489.28	9551.73
489.46	9577.47
489.64	9362.14
489.81	9666.41
489.99	9617.26
490.17	9650.03
490.35	10003.45
490.53	9844.29
490.70	9736.63
490.88	9825.57
491.06	9912.17
491.24	10237.50
491.41	10066.64
491.59	10307.72
491.77	10352.19
491.95	10595.61
492.13	10415.38
492.30	10555.82
492.48	10553.48
492.66	10501.98
492.84	10644.76
493.01	10836.68
493.19	10759.44
493.37	10719.65
493.54	10637.73
493.72	11049.67
493.90	10808.59
494.08	10981.79
494.25	11246.27
494.43	11059.03
494.61	11449.90
494.79	11267.34
494.96	11211.17
495.14	11276.70
495.32	11316.49
495.49	11356.28
495.67	11405.43
495.85	11562.25
496.02	11712.04
496.20	11925.03
496.38	11899.28
496.55	11573.95
496.73	12184.83
496.91	11707.36
497.09	12020.99
497.26	12149.72
497.44	12060.78
497.62	12016.31
497.79	12322.92
497.97	12212.92
498.14	12512.50
498.32	12578.04
498.50	12718.47
498.67	12610.81
498.85	12491.44
499.03	12524.21
499.20	12737.20
499.38	12947.84
499.56	12856.56
499.73	12723.15
499.91	12510.16
500.08	12947.84
500.26	12760.60
500.44	12760.60
500.61	13097.64
500.79	12954.87
500.97	12828.48
501.14	13231.05
501.32	13163.17
501.49	13163.17
501.67	13076.57
501.84	13523.62
502.02	13413.61
502.20	13486.17
502.37	13577.45
502.55	13305.95
502.72	13425.31
502.90	13610.22
503.07	13495.53
503.25	13654.69
503.43	13525.96
503.60	13561.06
503.78	13743.63
503.95	13827.88
504.13	13652.34
504.30	14050.24
504.48	13872.36
504.65	13928.53
504.83	14225.78
505.01	14253.86
505.18	14047.90
505.36	14288.97
505.53	14097.05
505.71	14178.97
505.88	14363.87
506.06	14195.35
506.23	14352.16
506.41	14361.53
506.58	14242.16
506.76	14485.58
506.93	14719.63
507.11	14476.21
507.28	14707.93
507.46	14696.22
507.63	14583.88
507.81	14771.12
507.98	14544.09
508.16	14686.86
508.33	14923.26
508.50	15063.69
508.68	15049.64
508.85	15096.46
509.03	14717.29
509.20	14930.28
509.38	15264.97
509.55	15264.97
509.73	15360.94
509.90	15295.40
510.08	15276.68
510.25	15693.29
510.42	15452.22
510.60	15328.17
510.77	15489.67
510.95	15489.67
511.12	15632.44
511.30	15482.64
511.47	15761.17
511.64	15583.29
511.82	15896.92
511.99	15646.48
512.17	15709.68
512.34	15859.47
512.51	15981.18
512.69	16088.84
512.86	16060.76
513.04	16217.57
513.21	16011.60
513.38	15988.20
513.56	16013.95
513.73	15999.90
513.90	16152.04
514.08	16182.46
514.25	16383.75
514.43	16350.98
514.60	16376.73
514.77	16269.06
514.95	16381.41
515.12	16210.55
515.29	16350.98
515.47	16692.70
515.64	16692.70
515.81	16772.28
515.99	16650.57
516.16	16666.95
516.33	16685.68
516.51	17111.66
516.68	16524.18
516.85	16858.88
517.03	16889.31
517.20	16788.66
517.37	16926.75
517.54	16762.92
517.72	16922.07
517.89	16968.88
518.06	17432.31
518.24	17254.43
518.41	17050.80
518.58	17336.35
518.75	17205.28
518.93	17280.18
519.10	16971.22
519.27	17238.05
519.45	17425.29
519.62	17317.62
519.79	17497.84
519.96	17465.08
520.14	17605.51
520.31	17256.77
520.48	17706.15
520.65	17563.38
520.83	17701.47
521.00	17715.51
521.17	17432.31
521.34	17771.69
521.52	17743.60
521.69	17961.27
521.86	17724.88
522.03	17706.15
522.20	17844.24
522.38	18134.47
522.55	18008.08
522.72	18019.78
522.89	18085.32
523.07	18087.66
523.24	17996.38
523.41	17745.94
523.58	17989.36
523.75	18597.90
523.92	18078.30
524.10	18396.61
524.27	18232.77
524.44	18139.15
524.61	18370.86
524.78	18230.43
524.96	18534.70
525.13	18450.44
525.30	18649.39
525.47	18553.43
525.64	18698.54
525.81	18801.52
525.98	18731.31
526.16	18782.80
526.33	18726.63
526.50	18909.19
526.67	18630.66
526.84	18757.05
527.01	18787.48
527.18	18923.23
527.36	18904.51
527.53	18897.49
527.70	19176.01
527.87	19023.87
528.04	19173.67
528.21	19159.63
528.38	19176.01
528.55	19253.25
528.72	19199.41
528.89	18831.95
529.07	19094.09
529.24	18862.38
529.41	19126.86
529.58	19295.38
529.75	18974.72
529.92	19328.14
530.09	19445.17
530.26	19410.06
530.43	19620.71
530.60	19353.89
530.77	19314.10
530.94	19632.41
531.11	19529.43
531.28	19260.27
531.46	19768.16
531.63	19601.99
531.80	19578.58
531.97	19609.01
532.14	19810.29
532.31	19601.99
532.48	19571.56
532.65	19627.73
532.82	19503.68
532.99	19920.30
533.16	19578.58
533.33	19831.36
533.50	19974.13
533.67	19700.29
533.84	19679.22
534.01	19896.89
534.18	19866.47
534.35	20123.93
534.52	19960.09
534.69	20198.82
534.86	19807.95
535.03	20025.62
535.20	20231.59
535.37	20044.35
535.54	20236.27
535.71	20016.26
535.88	20133.29
536.05	20285.42
536.22	20547.56
536.38	20407.13
536.55	20215.21
536.72	20283.08
536.89	20587.35
537.06	20680.97
537.23	20496.07
537.40	20786.30
537.57	20379.04
537.74	20313.51
537.91	20678.63
538.08	20676.29
538.25	20510.11
538.42	20769.91
538.59	20594.37
538.75	20805.02
538.92	20702.04
539.09	21083.55
539.26	20716.08
539.43	20783.96
539.60	21027.37
539.77	20671.61
539.94	20966.52
540.11	21308.24
540.28	21294.19
540.44	21099.93
540.61	20908.01
540.78	21305.90
540.95	20908.01
541.12	21507.18
541.29	21287.17
541.46	21736.56
541.62	21591.44
541.79	21570.38
541.96	21589.10
542.13	21137.38
542.30	21521.23
542.47	21558.67
542.63	21570.38
542.80	21678.04
542.97	21998.70
543.14	22125.08
543.31	21991.67
543.48	22033.80
543.64	22082.95
543.81	21876.99
543.98	21832.52
544.15	21984.65
544.32	22019.76
544.48	22480.85
544.65	21923.80
544.82	22298.28
544.99	21722.51
545.16	21813.79
545.32	21926.14
545.49	22441.06
545.66	22862.35
545.83	22780.43
546.00	22972.36
546.16	22614.26
546.33	22647.02
546.50	22160.19
546.67	22539.36
546.83	22274.88
547.00	22178.92
547.17	22008.06
547.34	22705.54
547.50	22377.86
547.67	22249.13
547.84	22221.05
548.00	22441.06
548.17	22761.71
548.34	22340.41
548.51	22431.69
548.67	22321.69
548.84	22464.46
549.01	22340.41
549.18	22590.85
549.34	22309.99
549.51	22445.74
549.68	22434.03
549.84	22251.47
550.01	22270.20
550.18	22155.51
550.34	22338.07
550.51	22609.58
550.68	22974.70
550.84	22122.74
551.01	22792.14
551.18	22611.92
551.34	22562.76
551.51	22270.20
551.68	22455.10
551.84	22553.40
552.01	22572.13
552.18	22590.85
552.34	22588.51
552.51	23143.22
552.68	22565.10
552.84	23000.44
553.01	22693.83
553.18	22707.88
553.34	22459.78
553.51	22745.33
553.67	22597.87
553.84	22785.12
554.01	22773.41
554.17	22764.05
554.34	22668.09
554.51	23002.78
554.67	23136.20
554.84	22801.50
555.00	22902.14
555.17	22728.94
555.33	22906.82
555.50	23037.89
555.67	22986.40
555.83	22431.69
556.00	23016.83
556.16	23140.88
556.33	23023.85
556.50	22806.18
556.66	22794.48
556.83	22998.10
556.99	23103.43
557.16	23213.43
557.32	23161.94
557.49	23370.25
557.65	22742.99
557.82	22991.08
557.98	22785.12
558.15	22754.69
558.32	23248.54
558.48	23143.22
558.65	23335.14
558.81	23063.64
558.98	23096.41
559.14	23358.55
559.31	23323.44
559.47	23262.58
559.64	23396.00
559.80	23222.80
559.97	23257.90
560.13	23005.13
560.30	23035.55
560.46	23391.31
560.63	23388.97
560.79	23503.66
560.96	23805.59
561.12	23384.29
561.29	23115.13
561.45	23267.27
561.61	23520.04
561.78	23435.78
561.94	23735.37
562.11	23618.35
562.27	23524.72
562.44	23910.91
562.60	23325.78
562.77	23608.98
562.93	23447.49
563.10	23714.31
563.26	23536.43
563.42	23599.62
563.59	23428.76
563.75	23412.38
563.92	23800.91
564.08	23466.21
564.24	23690.90
564.41	23431.10
564.57	23592.60
564.74	23246.20
564.90	23686.22
565.07	23723.67
565.23	23693.24
565.39	23534.09
565.56	23871.12
565.72	23508.34
565.88	23896.87
566.05	23562.17
566.21	23534.09
566.38	23445.15
566.54	23374.93
566.70	23796.23
566.87	24329.87
567.03	23707.29
567.19	24123.90
567.36	23826.65
567.52	23690.90
567.68	23850.06
567.85	23833.68
568.01	23468.55
568.17	23438.12
568.34	23608.98
568.50	23840.70
568.66	23910.91
568.83	23716.65
568.99	23672.18
569.15	23707.29
569.32	23814.95
569.48	23608.98
569.64	23747.08
569.81	23728.35
569.97	23613.66
570.13	24147.31
570.30	23506.00
570.46	23805.59
570.62	23573.88
570.78	23718.99
570.95	23627.71
571.11	24205.82
571.27	23606.64
571.43	23655.79
571.60	23866.44
571.76	23768.14
571.92	23770.48
572.09	23468.55
572.25	23777.50
572.41	23793.89
572.57	24130.92
572.74	24233.91
572.90	23681.54
573.06	23934.32
573.22	23887.51
573.38	23922.62
573.55	23704.95
573.71	23850.06
573.87	23976.45
574.03	23700.26
574.20	24044.32
574.36	23899.21
574.52	24081.77
574.68	24217.52
574.84	24086.45
575.01	24159.01
575.17	24477.32
575.33	24093.47
575.49	24149.65
575.65	24163.69
575.82	24397.74
575.98	24004.53
576.14	23758.78
576.30	24254.97
576.46	24376.68
576.62	23873.46
576.79	23995.17
576.95	24004.53
577.11	24002.19
577.27	24290.08
577.43	23988.15
577.59	24170.71
577.75	24149.65
577.92	23674.52
578.08	23819.63
578.24	24170.71
578.40	24133.26
578.56	24257.31
578.72	24189.44
578.88	24364.98
579.04	24339.23
579.21	24247.95
579.37	24231.57
579.53	24414.13
579.69	24191.78
579.85	24428.17
580.01	24215.18
580.17	23910.91
580.33	24112.20
580.49	24409.45
580.65	24528.81
580.82	24149.65
580.98	24046.66
581.14	23962.40
581.30	24196.46
581.46	24507.75
581.62	24540.52
581.78	24144.97
581.94	24020.92
582.10	23882.83
582.26	24126.24
582.42	24016.24
582.58	24079.43
582.74	24425.83
582.90	24217.52
583.06	24496.05
583.22	24325.19
583.38	24376.68
583.54	24180.07
583.70	24247.95
583.86	24318.17
584.02	24135.60
584.18	24348.59
584.34	24400.08
584.50	24245.61
584.66	24339.23
584.82	24039.64
584.98	24376.68
585.14	24671.59
585.30	24077.09
585.46	24278.38
585.62	24285.40
585.78	24407.11
585.94	24187.10
586.10	24648.18
586.26	24404.77
586.42	24601.37
586.58	24168.37
586.74	24720.74
586.90	24357.96
587.06	24308.80
587.22	24554.56
587.38	24533.50
587.54	24664.57
587.70	24510.09
587.86	24425.83
588.02	24582.65
588.18	24278.38
588.34	24702.01
588.49	24350.93
588.65	24716.06
588.81	24493.71
588.97	24467.96
589.13	24503.07
589.29	24545.20
589.45	24517.11
589.61	24472.64
589.77	24294.76
589.93	24287.74
590.08	24381.36
590.24	24706.70
590.40	24278.38
590.56	24704.35
590.72	24332.21
590.88	24306.46
