SpectraSuite Data File
++++++++++++++++++++++++++++++++++++
Date: Thu Oct 24 13:21:31 EDT 2013
User: stostad
Dark Spectrum Present: No
Reference Spectrum Present: No
Number of Sampled Component Spectra: 1
Spectrometers: USB2+H05261
Integration Time (usec): 100000 (USB2+H05261)
Spectra Averaged: 1 (USB2+H05261)
Boxcar Smoothing: 0 (USB2+H05261)
Correct for Electrical Dark: No (USB2+H05261)
Strobe/Lamp Enabled: No (USB2+H05261)
Correct for Detector Non-linearity: No (USB2+H05261)
Correct for Stray Light: No (USB2+H05261)
Number of Pixels in Processed Spectrum: 2048
>>>>>Begin Processed Spectral Data<<<<<
365.73	594.50
365.92	594.50
366.12	594.50
366.32	514.92
366.52	449.38
366.72	465.77
366.91	500.87
367.11	514.92
367.31	500.87
367.51	433.00
367.70	442.36
367.90	535.98
368.10	486.83
368.30	510.24
368.49	381.51
368.69	566.41
368.89	543.00
369.09	484.49
369.28	503.22
369.48	447.04
369.68	461.09
369.87	564.07
370.07	491.51
370.27	510.24
370.47	645.99
370.66	1041.54
370.86	1076.65
371.06	1118.78
371.25	1144.52
371.45	1102.39
371.65	1280.27
371.84	1242.82
372.04	1228.78
372.24	1256.87
372.44	1294.32
372.63	1231.12
372.83	1336.45
373.03	1259.21
373.22	1306.02
373.42	1249.85
373.62	1366.87
373.81	1357.51
374.01	1282.61
374.21	1320.06
374.40	1327.08
374.60	1378.58
374.79	1397.30
374.99	1331.76
375.19	1336.45
375.38	1418.36
375.58	1413.68
375.78	1497.94
375.97	1434.75
376.17	1380.92
376.37	1533.05
376.56	1409.00
376.76	1476.88
376.95	1486.24
377.15	1462.83
377.35	1455.81
377.54	1376.24
377.74	1523.69
377.93	1390.28
378.13	1420.71
378.33	1556.46
378.52	1507.30
378.72	1523.69
378.91	1427.73
379.11	1605.61
379.31	1626.67
379.50	1575.18
379.70	1614.97
379.89	1488.58
380.09	1638.38
380.28	1640.72
380.48	1596.25
380.68	1654.76
380.87	1575.18
381.07	1673.48
381.26	1790.51
381.46	1717.95
381.65	1694.55
381.85	1633.69
382.04	1572.84
382.24	1790.51
382.43	1706.25
382.63	1762.42
382.83	1785.83
383.02	1823.28
383.22	1743.70
383.41	1703.91
383.61	1820.94
383.80	1797.53
384.00	1727.32
384.19	1720.29
384.39	1764.76
384.58	1757.74
384.78	1825.62
384.97	1867.75
385.17	1839.66
385.36	1905.20
385.56	1865.41
385.75	1928.60
385.95	1928.60
386.14	1940.30
386.34	1867.75
386.53	1912.22
386.72	1905.20
386.92	1921.58
387.11	1977.75
387.31	1980.09
387.50	1877.11
387.70	2003.50
387.89	1944.99
388.09	1982.43
388.28	2069.03
388.48	2108.82
388.67	2125.21
388.86	2022.22
389.06	2129.89
389.25	2113.50
389.45	2115.84
389.64	2115.84
389.84	2146.27
390.03	2246.91
390.22	2172.02
390.42	2069.03
390.61	2195.42
390.81	2209.47
391.00	2136.91
391.19	2090.10
391.39	2207.13
391.58	2251.60
391.78	2347.56
391.97	2361.60
392.16	2157.97
392.36	2209.47
392.55	2347.56
392.75	2349.90
392.94	2286.70
393.13	2377.98
393.33	2275.00
393.52	2401.39
393.71	2422.45
393.91	2438.84
394.10	2394.37
394.29	2495.01
394.49	2516.08
394.68	2459.90
394.88	2546.50
395.07	2527.78
395.26	2492.67
395.46	2583.95
395.65	2672.89
395.84	2583.95
396.04	2715.02
396.23	2593.31
396.42	2537.14
396.62	2656.51
396.81	2747.79
397.00	2684.59
397.19	2656.51
397.39	2675.23
397.58	2731.41
397.77	2733.75
397.97	2682.25
398.16	2813.32
398.35	2806.30
398.55	2829.71
398.74	2871.84
398.93	3009.93
399.12	3000.57
399.32	2925.67
399.51	3084.83
399.70	2956.10
399.90	3009.93
400.09	2946.73
400.28	3049.72
400.47	2998.23
400.67	3126.96
400.86	3014.61
401.05	3183.13
401.24	3126.96
401.44	3328.24
401.63	3260.37
401.82	3236.96
402.01	3073.12
402.21	3141.00
402.40	3255.69
402.59	3218.24
402.78	3337.60
402.97	3339.94
403.17	3304.84
403.36	3316.54
403.55	3405.48
403.74	3531.87
403.93	3543.57
404.13	3421.86
404.32	3550.59
404.51	3466.33
404.70	3552.93
404.89	3463.99
405.09	3646.55
405.28	3496.76
405.47	3578.68
405.66	3627.83
405.85	3698.05
406.05	3658.26
406.24	3658.26
406.43	3749.54
406.62	3765.92
406.81	3957.85
407.00	3786.99
407.20	3775.28
407.39	3815.07
407.58	3868.91
407.77	4028.06
407.96	3934.44
408.15	4117.00
408.34	3899.33
408.54	4056.15
408.73	4154.45
408.92	4056.15
409.11	4109.98
409.30	4147.43
409.49	4236.37
409.68	4231.69
409.87	4166.15
410.07	4266.80
410.26	4353.40
410.45	4332.33
410.64	4360.42
410.83	4468.08
411.02	4418.93
411.21	4475.10
411.40	4383.82
411.59	4491.49
411.78	4660.01
411.98	4585.11
412.17	4554.68
412.36	4770.01
412.55	4709.16
412.74	4835.55
412.93	4683.41
413.12	4856.61
413.31	4882.36
413.50	4896.40
413.69	4968.96
413.88	4985.34
414.07	4933.85
414.26	4990.02
414.45	5228.76
414.64	5128.11
414.83	5144.50
415.02	5240.46
415.22	5259.18
415.41	5481.53
415.60	5348.12
415.79	5263.86
415.98	5554.09
416.17	5380.89
416.36	5533.03
416.55	5551.75
416.74	5703.89
416.93	5593.88
417.12	5741.33
417.31	5834.96
417.50	5799.85
417.69	5769.42
417.88	5996.45
418.07	5823.25
418.26	6099.44
418.45	6029.22
418.64	6129.86
418.83	6012.84
419.02	6195.40
419.21	6298.38
419.39	6127.52
419.58	6162.63
419.77	6069.01
419.96	6312.42
420.15	6401.37
420.34	6342.85
420.53	6239.87
420.72	6483.28
420.91	6415.41
421.10	6509.03
421.29	6502.01
421.48	6420.09
421.67	6431.79
421.86	6497.33
422.05	6675.21
422.24	6642.44
422.43	6607.33
422.61	6586.27
422.80	6754.79
422.99	6698.61
423.18	6836.70
423.37	6932.67
423.56	6890.54
423.75	6712.66
423.94	6562.86
424.13	6242.21
424.32	6338.17
424.50	6850.75
424.69	6949.05
424.88	6906.92
425.07	6883.52
425.26	6750.10
425.45	6736.06
425.64	6813.30
425.83	6649.46
426.01	6815.64
426.20	6911.60
426.39	7040.33
426.58	6949.05
426.77	6705.63
426.96	6965.43
427.15	6766.49
427.33	7166.72
427.52	7084.80
427.71	7194.81
427.90	7070.76
428.09	7005.22
428.28	7393.75
428.46	7274.38
428.65	7162.04
428.84	7412.48
429.03	7442.90
429.22	7454.61
429.40	7531.84
429.59	7520.14
429.78	7155.02
429.97	7145.66
430.16	7573.97
430.34	7698.02
430.53	7683.98
430.72	7733.13
430.91	7693.34
431.10	7686.32
431.28	7707.38
431.47	7723.77
431.66	7995.27
431.85	7691.00
432.03	7925.05
432.22	8131.02
432.41	7957.82
432.60	7981.23
432.79	8182.51
432.97	8194.22
433.16	8334.65
433.35	8107.62
433.54	8154.43
433.72	8346.35
433.91	8292.52
434.10	8224.64
434.28	8341.67
434.47	8280.82
434.66	8428.27
434.85	8549.98
435.03	8566.36
435.22	8627.21
435.41	8903.40
435.59	8849.57
435.78	8697.43
435.97	8697.43
436.16	9036.81
436.34	8627.21
436.53	8657.64
436.72	8990.00
436.90	8744.24
437.09	8908.08
437.28	8837.86
437.46	8943.19
437.65	9067.24
437.84	8943.19
438.02	9219.37
438.21	9081.28
438.40	8973.61
438.58	9217.03
438.77	9413.63
438.96	9341.08
439.14	9685.14
439.33	9628.96
439.52	9729.61
439.70	9614.92
439.89	9951.96
440.08	9865.36
440.26	9940.26
440.45	9989.41
440.63	10012.81
440.82	10190.69
441.01	10181.33
441.19	10162.61
441.38	10319.42
441.57	10420.06
441.75	10413.04
441.94	10913.92
442.12	10509.01
442.31	10836.68
442.50	10869.45
442.68	10682.20
442.87	10705.61
443.05	10810.93
443.24	10817.96
443.43	11028.60
443.61	10850.72
443.80	11274.36
443.98	10892.85
444.17	10649.44
444.35	10782.85
444.54	11325.85
444.73	11204.14
444.91	11082.44
445.10	11171.38
445.28	11101.16
445.47	11035.63
445.65	11096.48
445.84	11351.60
446.02	11321.17
446.21	11154.99
446.39	11030.94
446.58	11314.15
446.77	11119.89
446.95	11236.91
447.14	11133.93
447.32	11534.16
447.51	11377.34
447.69	11208.83
447.88	11192.44
448.06	11599.70
448.25	11440.54
448.43	11595.01
448.62	11683.95
448.80	11499.05
448.99	11836.09
449.17	11819.71
449.36	11527.14
449.54	11896.94
449.73	11929.71
449.91	12149.72
450.10	11927.37
450.28	12191.85
450.46	12004.61
450.65	12131.00
450.83	11915.67
451.02	12084.19
451.20	12229.30
451.39	12248.02
451.57	12463.35
451.76	12056.10
451.94	12212.92
452.13	12561.66
452.31	12369.73
452.49	12044.40
452.68	12676.34
452.86	12393.14
453.05	12578.04
453.23	12603.78
453.42	12552.29
453.60	12704.43
453.78	12711.45
453.97	12674.00
454.15	12833.16
454.34	12636.55
454.52	12968.91
454.70	12987.63
454.89	13123.38
455.07	13034.44
455.26	13231.05
455.44	13345.73
455.62	13401.91
455.81	13233.39
455.99	13366.80
456.17	13444.04
456.36	13390.20
456.54	13448.72
456.73	13893.42
456.91	14085.34
457.09	13944.91
457.28	13912.14
457.46	13884.06
457.64	14394.29
457.83	14150.88
458.01	13977.68
458.19	14377.91
458.38	14080.66
458.56	14239.82
458.74	14242.16
458.93	14132.15
459.11	14342.80
459.29	14497.28
459.48	14525.36
459.66	14370.89
459.84	14630.69
460.03	14490.26
460.21	14841.34
460.39	14544.09
460.57	14803.89
460.76	15005.17
460.94	14965.39
461.12	14986.45
461.31	14897.51
461.49	15147.95
461.67	15049.64
461.85	15185.40
462.04	14967.73
462.22	15714.36
462.40	15384.34
462.59	15957.77
462.77	15463.92
462.95	15613.71
463.13	15503.71
463.32	15648.82
463.50	15690.95
463.68	15726.06
463.86	15761.17
464.05	15461.58
464.23	15667.55
464.41	15990.54
464.59	15737.76
464.78	16301.83
464.96	16088.84
465.14	15866.49
465.32	16093.52
465.50	16170.76
465.69	16175.44
465.87	16222.25
466.05	16313.53
466.23	16030.33
466.41	16313.53
466.60	16470.35
466.78	16510.14
466.96	16126.29
467.14	16514.82
467.32	16297.15
467.51	16758.24
467.69	16510.14
467.87	16706.74
468.05	17085.91
468.23	16681.00
468.41	16507.80
468.60	16830.79
468.78	16996.97
468.96	16884.62
469.14	17174.85
469.32	17390.18
469.50	16922.07
469.69	17359.75
469.87	17455.72
470.05	17275.49
470.23	17626.57
470.41	17486.14
470.59	17860.63
470.77	17621.89
470.95	17635.94
471.14	18237.45
471.32	17783.39
471.50	18321.71
471.68	17776.37
471.86	18200.01
472.04	18389.59
472.22	18682.16
472.40	18038.51
472.58	18513.64
472.77	18773.44
472.95	18820.25
473.13	19075.37
473.31	18892.80
473.49	19335.17
473.67	18920.89
473.85	19056.64
474.03	19520.07
474.21	19538.79
474.39	19349.21
474.57	19719.01
474.75	19943.70
474.93	19995.20
475.12	20109.88
475.30	20016.26
475.48	20144.99
475.66	20449.26
475.84	20416.49
476.02	20748.85
476.20	20489.05
476.38	21125.68
476.56	21378.45
476.74	21139.72
476.92	20798.00
477.10	20996.95
477.28	21715.49
477.46	21792.73
477.64	21692.08
477.82	22178.92
478.00	22677.45
478.18	22499.57
478.36	22642.34
478.54	22780.43
478.72	22773.41
478.90	23405.36
479.08	23058.96
479.26	23915.59
479.44	23819.63
479.62	24072.41
479.80	24348.59
479.98	24463.28
480.16	24678.61
480.34	24177.73
480.52	24980.54
480.70	25111.61
480.88	24723.08
481.06	25109.27
481.24	25350.34
481.41	25577.37
481.59	26106.34
481.77	26370.82
481.95	26429.33
482.13	26597.85
482.31	26410.60
482.49	27227.45
482.67	27178.30
482.85	27290.65
483.03	27871.10
483.21	27798.54
483.39	28371.97
483.57	28013.87
483.74	28369.63
483.92	28556.88
484.10	28669.22
484.28	29214.57
484.46	29315.21
484.64	29680.33
484.82	29301.17
485.00	29535.22
485.18	30260.79
485.35	30937.20
485.53	30522.93
485.71	31014.44
485.89	31351.48
486.07	31208.70
486.25	31026.14
486.43	31388.92
486.61	31765.75
486.78	32091.09
486.96	32039.59
487.14	32779.20
487.32	32753.46
487.50	33039.00
487.68	33102.20
487.85	34139.05
488.03	34195.23
488.21	34094.58
488.39	34686.74
488.57	34658.65
488.75	34763.98
488.92	35253.15
489.10	35550.40
489.28	35967.01
489.46	36308.73
489.64	36133.19
489.81	36538.10
489.99	36776.84
490.17	37249.63
490.35	37282.39
490.53	37095.15
490.70	37965.83
490.88	37778.59
491.06	38408.19
491.24	38298.19
491.41	38445.64
491.59	38756.93
491.77	39072.90
491.95	39533.99
492.13	39550.37
492.30	40268.92
492.48	39833.58
492.66	39948.26
492.84	40179.98
493.01	40603.61
493.19	40713.62
493.37	41097.47
493.54	41326.84
493.72	42003.25
493.90	41715.37
494.08	41621.75
494.25	42234.97
494.43	42323.91
494.61	42857.55
494.79	42717.12
494.96	42925.42
495.14	43384.17
495.32	44060.58
495.49	43718.87
495.67	44189.31
495.85	44308.68
496.02	44765.09
496.20	44734.66
496.38	44797.85
496.55	44645.72
496.73	45603.00
496.91	45392.35
497.09	45619.38
497.26	45839.39
497.44	45968.12
497.62	46066.42
497.79	46794.33
497.97	46649.22
498.14	47182.86
498.32	47185.20
498.50	47255.42
498.67	48243.12
498.85	47475.43
499.03	47566.71
499.20	47920.13
499.38	48245.46
499.56	48292.27
499.73	48467.81
499.91	48879.75
500.08	48949.96
500.26	48650.38
500.44	48992.09
500.61	49099.76
500.79	49008.48
500.97	49324.45
501.14	49998.52
501.32	49813.62
501.49	49560.84
501.67	49998.52
501.84	50368.33
502.02	50494.72
502.20	50295.77
502.37	50876.22
502.55	50735.79
502.72	50761.54
502.90	50703.03
503.07	51004.95
503.25	51157.09
503.43	50995.59
503.60	51447.32
503.78	51531.57
503.95	51456.68
504.13	51587.75
504.30	51489.45
504.48	51606.47
504.65	52278.21
504.83	52172.88
505.01	52481.83
505.18	52317.99
505.36	52729.93
505.53	52346.08
505.71	52832.91
505.88	53083.35
506.06	52701.84
506.23	53247.19
506.41	53200.38
506.58	53279.96
506.76	53368.90
506.93	53549.12
507.11	53455.50
507.28	53808.92
507.46	53757.42
507.63	53970.41
507.81	53869.77
507.98	53935.30
508.16	53949.35
508.33	54007.86
508.50	54232.55
508.68	54410.43
508.85	54424.48
509.03	54457.24
509.20	54464.27
509.38	54836.41
509.55	54731.09
509.73	55021.31
509.90	55175.79
510.08	55131.32
510.25	55121.96
510.42	55370.05
510.60	55384.10
510.77	55463.67
510.95	55835.82
511.12	55625.17
511.30	55669.64
511.47	55948.17
511.64	56002.00
511.82	56238.39
511.99	55845.18
512.17	56161.15
512.34	55994.98
512.51	56198.60
512.69	56404.57
512.86	56280.52
513.04	56793.10
513.21	56647.99
513.38	56294.56
513.56	56713.52
513.73	56659.69
513.90	56687.78
514.08	56896.08
514.25	57006.09
514.43	57001.41
514.60	57167.58
514.77	56996.73
514.95	57345.47
515.12	57296.31
515.29	57043.54
515.47	57623.99
515.64	57719.95
515.81	57532.71
515.99	57586.54
516.16	57738.68
516.33	57820.59
516.51	58033.58
516.68	57914.22
516.85	57949.32
517.03	57958.69
517.20	58197.42
517.37	58099.12
517.54	58251.25
517.72	57942.30
517.89	58403.39
518.06	58457.22
518.24	58621.06
518.41	58419.77
518.58	58562.54
518.75	58394.03
518.93	58464.24
519.10	58347.21
519.27	58822.34
519.45	58843.41
519.62	59058.74
519.79	58946.39
519.96	59070.44
520.14	58960.44
520.31	58679.57
520.48	59096.19
520.65	59161.72
520.83	59447.27
521.00	59576.00
521.17	59393.43
521.34	59554.93
521.52	59112.57
521.69	59421.52
521.86	59545.57
522.03	59707.07
522.20	59728.13
522.38	59906.01
522.55	59934.10
522.72	59821.75
522.89	59817.07
523.07	59920.05
523.24	60170.49
523.41	60289.86
523.58	59884.95
523.75	60392.84
523.92	60261.77
524.10	60364.76
524.27	60563.70
524.44	60308.58
524.61	60645.62
524.78	60547.32
524.96	60395.18
525.13	60603.49
525.30	60673.71
525.47	60882.02
525.64	60853.93
525.81	60760.31
525.98	60945.21
526.16	60764.99
526.33	60949.89
526.50	61162.88
526.67	60804.78
526.84	61078.62
527.01	61036.49
527.18	61008.40
527.36	61106.71
527.53	61158.20
527.70	61490.55
527.87	61549.07
528.04	61359.48
528.21	61425.02
528.38	61542.05
528.55	61656.73
528.72	61462.47
528.89	61497.58
529.07	61609.92
529.24	61565.45
529.41	61750.35
529.58	61869.72
529.75	61717.59
529.92	61790.14
530.09	61799.50
530.26	61860.36
530.43	61867.38
530.60	61712.91
530.77	61890.79
530.94	61961.00
531.11	62066.33
531.28	62246.55
531.46	62408.04
531.63	62218.46
531.80	62101.43
531.97	62361.23
532.14	62335.49
532.31	62349.53
532.48	62450.17
532.65	62532.09
532.82	62342.51
532.99	62541.45
533.16	62267.61
533.33	62553.16
533.50	62670.18
533.67	62667.84
533.84	62618.69
534.01	62766.15
534.18	62787.21
534.35	63014.24
534.52	62901.90
534.69	62869.13
534.86	62852.75
535.03	62815.30
535.20	62920.62
535.37	62796.57
535.54	63304.47
535.71	62967.43
535.88	63105.52
536.05	63173.40
536.22	63149.99
536.38	63168.72
536.55	63126.59
536.72	63262.34
536.89	63178.08
537.06	63292.77
537.23	63737.47
537.40	63505.76
537.57	63367.66
537.74	63252.98
537.91	63552.57
538.08	63491.71
538.25	63430.86
538.42	63723.43
538.59	63791.30
538.75	63503.42
538.92	63627.46
539.09	63852.15
539.26	63786.62
539.43	63636.83
539.60	63763.21
539.77	63732.79
539.94	64020.67
540.11	64116.64
540.28	64027.70
540.44	64086.21
540.61	64093.23
540.78	63847.47
540.95	63997.27
541.12	64058.12
541.29	64076.85
541.46	64275.79
541.62	64303.88
541.79	64238.34
541.96	64165.79
542.13	64158.76
542.30	64168.13
542.47	64163.45
542.63	64383.46
542.80	64654.96
542.97	64832.84
543.14	64722.83
543.31	64924.12
543.48	64825.82
543.64	64956.89
543.81	64884.33
543.98	64739.22
544.15	64853.90
544.32	64867.95
544.48	65048.17
544.65	64811.77
544.82	65001.36
544.99	64891.35
545.16	65090.30
545.32	65045.83
545.49	65160.51
545.66	65296.27
545.83	65394.57
546.00	65256.48
546.16	65319.67
546.33	65270.52
546.50	65078.60
546.67	65265.84
546.83	64949.87
547.00	65226.05
547.17	65078.60
547.34	65059.87
547.50	65265.84
547.67	65535.00
547.84	65415.63
548.00	65497.55
548.17	65535.00
548.34	65530.32
548.51	65535.00
548.67	65525.64
548.84	65303.29
549.01	65446.06
549.18	65535.00
549.34	65535.00
549.51	65535.00
549.68	65535.00
549.84	65469.46
550.01	65535.00
550.18	65535.00
550.34	65535.00
550.51	65535.00
550.68	65535.00
550.84	65535.00
551.01	65535.00
551.18	65535.00
551.34	65535.00
551.51	65535.00
551.68	65535.00
551.84	65535.00
552.01	65535.00
552.18	65535.00
552.34	65535.00
552.51	65535.00
552.68	65535.00
552.84	65535.00
553.01	65535.00
553.18	65535.00
553.34	65535.00
553.51	65535.00
553.67	65535.00
553.84	65535.00
554.01	65535.00
554.17	65535.00
554.34	65535.00
554.51	65535.00
554.67	65535.00
554.84	65535.00
555.00	65535.00
555.17	65535.00
555.33	65535.00
555.50	65535.00
555.67	65535.00
555.83	65535.00
556.00	65535.00
556.16	65535.00
556.33	65535.00
556.50	65535.00
556.66	65535.00
556.83	65535.00
556.99	65535.00
557.16	65535.00
557.32	65535.00
557.49	65535.00
557.65	65535.00
557.82	65535.00
557.98	65535.00
558.15	65535.00
558.32	65535.00
558.48	65535.00
558.65	65535.00
558.81	65535.00
558.98	65535.00
559.14	65535.00
559.31	65535.00
559.47	65535.00
559.64	65535.00
559.80	65535.00
559.97	65535.00
560.13	65535.00
560.30	65535.00
560.46	65535.00
560.63	65535.00
560.79	65535.00
560.96	65535.00
561.12	65535.00
561.29	65535.00
561.45	65535.00
561.61	65535.00
561.78	65535.00
561.94	65535.00
562.11	65535.00
562.27	65535.00
562.44	65535.00
562.60	65535.00
562.77	65535.00
562.93	65535.00
563.10	65535.00
563.26	65535.00
563.42	65535.00
563.59	65535.00
563.75	65535.00
563.92	65535.00
564.08	65535.00
564.24	65535.00
564.41	65535.00
564.57	65535.00
564.74	65535.00
564.90	65535.00
565.07	65535.00
565.23	65535.00
565.39	65535.00
565.56	65535.00
565.72	65535.00
565.88	65535.00
566.05	65535.00
566.21	65535.00
566.38	65535.00
566.54	65535.00
566.70	65535.00
566.87	65535.00
567.03	65535.00
567.19	65535.00
567.36	65535.00
567.52	65535.00
567.68	65535.00
567.85	65535.00
568.01	65535.00
568.17	65535.00
568.34	65535.00
568.50	65535.00
568.66	65535.00
568.83	65535.00
568.99	65535.00
569.15	65535.00
569.32	65535.00
569.48	65535.00
569.64	65535.00
569.81	65535.00
569.97	65535.00
570.13	65535.00
570.30	65535.00
570.46	65535.00
570.62	65535.00
570.78	65535.00
570.95	65535.00
571.11	65535.00
571.27	65535.00
571.43	65535.00
571.60	65535.00
571.76	65535.00
571.92	65535.00
572.09	65535.00
572.25	65535.00
572.41	65535.00
572.57	65535.00
572.74	65535.00
572.90	65535.00
573.06	65535.00
573.22	65535.00
573.38	65535.00
573.55	65535.00
573.71	65535.00
573.87	65535.00
574.03	65535.00
574.20	65535.00
574.36	65535.00
574.52	65535.00
574.68	65535.00
574.84	65535.00
575.01	65535.00
575.17	65535.00
575.33	65535.00
575.49	65535.00
575.65	65535.00
575.82	65535.00
575.98	65535.00
576.14	65535.00
576.30	65535.00
576.46	65535.00
576.62	65535.00
576.79	65535.00
576.95	65535.00
577.11	65535.00
577.27	65535.00
577.43	65535.00
577.59	65535.00
577.75	65535.00
577.92	65535.00
578.08	65535.00
578.24	65535.00
578.40	65535.00
578.56	65535.00
578.72	65535.00
578.88	65535.00
579.04	65535.00
579.21	65535.00
579.37	65535.00
579.53	65535.00
579.69	65535.00
579.85	65535.00
580.01	65535.00
580.17	65535.00
580.33	65535.00
580.49	65535.00
580.65	65535.00
580.82	65535.00
580.98	65535.00
581.14	65535.00
581.30	65535.00
581.46	65535.00
581.62	65535.00
581.78	65535.00
581.94	65535.00
582.10	65535.00
582.26	65535.00
582.42	65535.00
582.58	65535.00
582.74	65535.00
582.90	65535.00
583.06	65535.00
583.22	65535.00
583.38	65535.00
583.54	65535.00
583.70	65535.00
583.86	65535.00
584.02	65535.00
584.18	65535.00
584.34	65535.00
584.50	65535.00
584.66	65535.00
584.82	65535.00
584.98	65535.00
585.14	65535.00
585.30	65535.00
585.46	65535.00
585.62	65535.00
585.78	65535.00
585.94	65535.00
586.10	65535.00
586.26	65535.00
586.42	65535.00
586.58	65535.00
586.74	65535.00
586.90	65535.00
587.06	65535.00
