SpectraSuite Data File
++++++++++++++++++++++++++++++++++++
Date: Thu Oct 24 13:21:23 EDT 2013
User: stostad
Dark Spectrum Present: No
Reference Spectrum Present: No
Number of Sampled Component Spectra: 1
Spectrometers: USB2+H05261
Integration Time (usec): 100000 (USB2+H05261)
Spectra Averaged: 1 (USB2+H05261)
Boxcar Smoothing: 0 (USB2+H05261)
Correct for Electrical Dark: No (USB2+H05261)
Strobe/Lamp Enabled: No (USB2+H05261)
Correct for Detector Non-linearity: No (USB2+H05261)
Correct for Stray Light: No (USB2+H05261)
Number of Pixels in Processed Spectrum: 2048
>>>>>Begin Processed Spectral Data<<<<<
365.73	582.79
365.92	582.79
366.12	582.79
366.32	449.38
366.52	486.83
366.72	550.03
366.91	461.09
367.11	407.25
367.31	430.66
367.51	512.58
367.70	482.15
367.90	484.49
368.10	437.68
368.30	444.70
368.49	484.49
368.69	557.05
368.89	531.30
369.09	482.15
369.28	423.64
369.48	390.87
369.68	517.26
369.87	624.92
370.07	557.05
370.27	578.11
370.47	653.01
370.66	924.51
370.86	903.45
371.06	966.64
371.25	964.30
371.45	959.62
371.65	959.62
371.84	1018.13
372.04	1020.47
372.24	1008.77
372.44	976.00
372.63	1041.54
372.83	1006.43
373.03	1050.90
373.22	961.96
373.42	1064.94
373.62	1116.44
373.81	1139.84
374.01	1188.99
374.21	1048.56
374.40	1107.07
374.60	1181.97
374.79	1158.57
374.99	1132.82
375.19	1090.69
375.38	1167.93
375.58	1156.22
375.78	1135.16
375.97	1090.69
376.17	1224.10
376.37	1144.52
376.56	1128.14
376.76	1125.80
376.95	1170.27
377.15	1156.22
377.35	1193.67
377.54	1224.10
377.74	1252.19
377.93	1151.54
378.13	1203.04
378.33	1200.69
378.52	1228.78
378.72	1172.61
378.91	1214.74
379.11	1186.65
379.31	1191.33
379.50	1184.31
379.70	1308.36
379.89	1226.44
380.09	1233.46
380.28	1336.45
380.48	1235.80
380.68	1256.87
380.87	1282.61
381.07	1280.27
381.26	1320.06
381.46	1366.87
381.65	1301.34
381.85	1240.48
382.04	1259.21
382.24	1287.29
382.43	1366.87
382.63	1308.36
382.83	1310.70
383.02	1350.49
383.22	1444.11
383.41	1474.54
383.61	1366.87
383.80	1416.02
384.00	1289.64
384.19	1409.00
384.39	1394.96
384.58	1406.66
384.78	1401.98
384.97	1336.45
385.17	1444.11
385.36	1387.94
385.56	1380.92
385.75	1423.05
385.95	1413.68
386.14	1511.99
386.34	1490.92
386.53	1420.71
386.72	1390.28
386.92	1493.26
387.11	1462.83
387.31	1495.60
387.50	1486.24
387.70	1446.45
387.89	1486.24
388.09	1472.20
388.28	1497.94
388.48	1413.68
388.67	1490.92
388.86	1636.03
389.06	1572.84
389.25	1668.80
389.45	1619.65
389.64	1521.35
389.84	1575.18
390.03	1556.46
390.22	1645.40
390.42	1547.09
390.61	1589.22
390.81	1551.78
391.00	1582.20
391.19	1586.88
391.39	1572.84
391.58	1549.43
391.78	1556.46
391.97	1790.51
392.16	1703.91
392.36	1771.79
392.55	1727.32
392.75	1750.72
392.94	1685.19
393.13	1703.91
393.33	1792.85
393.52	1748.38
393.71	1753.06
393.91	1727.32
394.10	1757.74
394.29	1980.09
394.49	1884.13
394.68	1881.79
394.88	1842.00
395.07	1823.28
395.26	1940.30
395.46	1898.17
395.65	1874.77
395.84	1886.47
396.04	1942.64
396.23	1935.62
396.42	1984.77
396.62	2054.99
396.81	2029.24
397.00	1930.94
397.19	1966.05
397.39	1942.64
397.58	2010.52
397.77	1977.75
397.97	1975.41
398.16	1933.28
398.35	2125.21
398.55	2157.97
398.74	2076.06
398.93	2181.38
399.12	2094.78
399.32	2029.24
399.51	2083.08
399.70	2169.68
399.90	2078.40
400.09	2258.62
400.28	2340.54
400.47	2181.38
400.67	2310.11
400.86	2216.49
401.05	2190.74
401.24	2284.36
401.44	2349.90
401.63	2284.36
401.82	2300.75
402.01	2239.89
402.21	2251.60
402.40	2363.94
402.59	2345.22
402.78	2394.37
402.97	2368.62
403.17	2403.73
403.36	2324.15
403.55	2399.05
403.74	2450.54
403.93	2527.78
404.13	2621.40
404.32	2588.63
404.51	2476.29
404.70	2497.35
404.89	2628.42
405.09	2607.36
405.28	2581.61
405.47	2572.25
405.66	2705.66
405.85	2649.49
406.05	2719.70
406.24	2672.89
406.43	2670.55
406.62	2738.43
406.81	2719.70
407.00	2600.34
407.20	2841.41
407.39	2839.07
407.58	2829.71
407.77	2850.77
407.96	2827.37
408.15	2895.24
408.34	2911.63
408.54	2965.46
408.73	2946.73
408.92	3040.36
409.11	2883.54
409.30	3028.65
409.49	3040.36
409.68	3033.33
409.87	2977.16
410.07	3087.17
410.26	3131.64
410.45	3143.34
410.64	3026.31
410.83	3246.32
411.02	3283.77
411.21	3234.62
411.40	3185.47
411.59	3311.86
411.78	3309.52
411.98	3297.81
412.17	3314.20
412.36	3384.41
412.55	3445.27
412.74	3426.54
412.93	3501.44
413.12	3323.56
413.31	3536.55
413.50	3595.06
413.69	3616.13
413.88	3761.24
414.07	3721.45
414.26	3651.24
414.45	3679.32
414.64	3772.94
414.83	3798.69
415.02	3815.07
415.22	3899.33
415.41	3899.33
415.60	3873.59
415.79	3901.67
415.98	3929.76
416.17	3911.04
416.36	3920.40
416.55	3864.22
416.74	3936.78
416.93	4025.72
417.12	4119.34
417.31	4039.76
417.50	4133.39
417.69	4152.11
417.88	4287.86
418.07	4358.08
418.26	4329.99
418.45	4404.89
418.64	4297.22
418.83	4423.61
419.02	4325.31
419.21	4489.15
419.39	4500.85
419.58	4304.25
419.77	4510.21
419.96	4514.89
420.15	4428.29
420.34	4589.79
420.53	4585.11
420.72	4596.81
420.91	4589.79
421.10	4636.60
421.29	4793.42
421.48	4629.58
421.67	4746.61
421.86	4585.11
422.05	4781.71
422.24	4671.71
422.43	4807.46
422.61	4891.72
422.80	4880.02
422.99	4929.17
423.18	4781.71
423.37	4940.87
423.56	4840.23
423.75	4908.10
423.94	4697.46
424.13	4638.94
424.32	4444.68
424.50	4905.76
424.69	5160.88
424.88	4938.53
425.07	4842.57
425.26	4849.59
425.45	4908.10
425.64	4877.68
425.83	4985.34
426.01	5057.90
426.20	5116.41
426.39	4940.87
426.58	4931.51
426.77	4924.49
426.96	4924.49
427.15	5067.26
427.33	4999.38
427.52	4997.04
427.71	5048.54
427.90	5064.92
428.09	5198.33
428.28	5198.33
428.46	5149.18
428.65	5085.98
428.84	5163.22
429.03	5334.08
429.22	5231.10
429.40	5198.33
429.59	5380.89
429.78	5249.82
429.97	5064.92
430.16	5401.96
430.34	5474.51
430.53	5390.25
430.72	5462.81
430.91	5413.66
431.10	5481.53
431.28	5523.66
431.47	5586.86
431.66	5692.18
431.85	5638.35
432.03	5783.46
432.22	5905.17
432.41	5757.72
432.60	5617.29
432.79	5802.19
432.97	5727.29
433.16	5820.91
433.35	5638.35
433.54	5650.05
433.72	5853.68
433.91	5825.59
434.10	5832.62
434.28	5888.79
434.47	6052.63
434.66	6052.63
434.85	6148.59
435.03	6258.59
435.22	6118.16
435.41	6628.40
435.59	6375.62
435.78	6284.34
435.97	6317.11
436.16	6324.13
436.34	6148.59
436.53	6324.13
436.72	6328.81
436.90	6176.67
437.09	6244.55
437.28	6296.04
437.46	6274.98
437.65	6363.92
437.84	6448.18
438.02	6387.32
438.21	6544.14
438.40	6359.24
438.58	6614.35
438.77	6693.93
438.96	6705.63
439.14	6909.26
439.33	6810.96
439.52	6712.66
439.70	6771.17
439.89	7098.84
440.08	7049.69
440.26	7037.99
440.45	7033.31
440.63	7129.27
440.82	7346.94
441.01	7265.02
441.19	7349.28
441.38	7559.93
441.57	7475.67
441.75	7325.88
441.94	7588.02
442.12	7557.59
442.31	7791.64
442.50	7527.16
442.68	7456.95
442.87	7508.44
443.05	7707.38
443.24	7637.17
443.43	7644.19
443.61	7590.36
443.80	7880.58
443.98	7660.57
444.17	7559.93
444.35	7740.15
444.54	7971.86
444.73	7808.03
444.91	7899.31
445.10	7969.52
445.28	7953.14
445.47	7913.35
445.65	7789.30
445.84	7936.76
446.02	7948.46
446.21	8011.65
446.39	7810.37
446.58	7981.23
446.77	8088.89
446.95	7723.77
447.14	7878.24
447.32	7960.16
447.51	7906.33
447.69	8016.33
447.88	8053.78
448.06	7875.90
448.25	8021.02
448.43	8077.19
448.62	8088.89
448.80	8028.04
448.99	8133.36
449.17	8292.52
449.36	8131.02
449.54	8273.79
449.73	8278.47
449.91	8479.76
450.10	8250.39
450.28	8652.96
450.46	8601.47
450.65	8524.23
450.83	8491.46
451.02	8386.14
451.20	8636.58
451.39	8655.30
451.57	8723.18
451.76	8533.59
451.94	8699.77
452.13	8826.16
452.31	8634.24
452.49	8645.94
452.68	8854.25
452.86	8744.24
453.05	8819.14
453.23	8870.63
453.42	8798.07
453.60	8748.92
453.78	9088.30
453.97	8791.05
454.15	8758.28
454.34	8844.88
454.52	8917.44
454.70	9174.90
454.89	9160.86
455.07	9268.52
455.26	9184.26
455.44	9432.36
455.62	9348.10
455.81	9214.69
455.99	9350.44
456.17	9308.31
456.36	9336.40
456.54	9455.76
456.73	9657.05
456.91	9926.21
457.09	9694.50
457.28	9839.61
457.46	9537.68
457.64	9816.21
457.83	9844.29
458.01	9753.01
458.19	10122.82
458.38	10052.60
458.56	9984.73
458.74	10003.45
458.93	9968.34
459.11	9987.07
459.29	10073.67
459.48	9963.66
459.66	10106.43
459.84	10242.18
460.03	10511.35
460.21	10244.52
460.39	10438.79
460.57	10291.34
460.76	10249.21
460.94	10410.70
461.12	10399.00
461.31	10338.15
461.49	10651.78
461.67	10413.04
461.85	10661.14
462.04	10537.09
462.22	10970.09
462.40	10794.55
462.59	10820.30
462.77	10607.31
462.95	11047.33
463.13	10628.37
463.32	10745.40
463.50	10820.30
463.68	11009.88
463.86	11096.48
464.05	10644.76
464.23	11056.69
464.41	10923.28
464.59	10888.17
464.78	11309.47
464.96	11229.89
465.14	10963.07
465.32	11211.17
465.50	11391.39
465.69	11131.59
465.87	11199.46
466.05	11094.14
466.23	11353.94
466.41	11136.27
466.60	11648.85
466.78	11335.21
466.96	11302.45
467.14	11499.05
467.32	11215.85
467.51	11669.91
467.69	11176.06
467.87	11470.97
468.05	11833.75
468.23	11576.29
468.41	11585.65
468.60	11892.26
468.78	11709.70
468.96	11485.01
469.14	11726.08
469.32	12039.72
469.50	11690.98
469.69	11815.02
469.87	12159.08
470.05	12140.36
470.23	12236.32
470.41	12402.50
470.59	12250.36
470.77	12198.87
470.95	12439.95
471.14	12578.04
471.32	12187.17
471.50	12468.03
471.68	12390.80
471.86	12512.50
472.04	12564.00
472.22	13116.36
472.40	12861.24
472.58	12662.30
472.77	12910.40
472.95	13128.06
473.13	13479.15
473.31	12870.61
473.49	12982.95
473.67	13018.06
473.85	13415.95
474.03	13561.06
474.21	13605.53
474.39	13537.66
474.57	13401.91
474.75	13642.98
474.93	13722.56
475.12	13771.71
475.30	14008.11
475.48	13764.69
475.66	13996.40
475.84	14150.88
476.02	13998.74
476.20	14118.11
476.38	14422.38
476.56	14785.16
476.74	14590.90
476.92	14740.69
477.10	14721.97
477.28	14864.74
477.46	14913.89
477.64	15379.66
477.82	15143.27
478.00	15676.91
478.18	15105.82
478.36	15602.01
478.54	15847.77
478.72	15807.98
478.90	16119.27
479.08	16341.62
479.26	16119.27
479.44	16498.44
479.62	16386.09
479.80	16428.22
479.98	16901.01
480.16	16922.07
480.34	16732.49
480.52	17085.91
480.70	17245.07
480.88	17219.32
481.06	16959.52
481.24	17444.01
481.41	17472.10
481.59	17661.68
481.77	17884.03
481.95	17872.33
482.13	18295.97
482.31	18136.81
482.49	18607.26
482.67	18192.98
482.85	18686.84
483.03	18995.79
483.21	19211.12
483.39	19414.74
483.57	19391.34
483.74	19302.40
483.92	19594.96
484.10	19953.07
484.28	20006.90
484.46	20173.08
484.64	20416.49
484.82	20329.89
485.00	20741.83
485.18	20631.82
485.35	20807.36
485.53	20758.21
485.71	21085.89
485.89	21266.11
486.07	21310.58
486.25	21455.69
486.43	21839.54
486.61	21951.88
486.78	21879.33
486.96	22457.44
487.14	22382.54
487.32	22553.40
487.50	22555.74
487.68	22656.39
487.85	23248.54
488.03	23271.95
488.21	23456.85
488.39	23569.19
488.57	23793.89
488.75	23936.66
488.92	23866.44
489.10	24290.08
489.28	24545.20
489.46	24898.62
489.64	24517.11
489.81	25275.45
489.99	25120.97
490.17	25383.11
490.35	26029.10
490.53	25570.35
490.70	25965.90
490.88	25785.68
491.06	26562.74
491.24	26419.97
491.41	26214.00
491.59	26476.14
491.77	26838.92
491.95	27653.43
492.13	27056.59
492.30	27440.44
492.48	27653.43
492.66	27475.55
492.84	27648.75
493.01	28079.41
493.19	27906.21
493.37	28276.01
493.54	28091.11
493.72	28690.29
493.90	28540.49
494.08	28734.76
494.25	29369.04
494.43	29462.66
494.61	29261.38
494.79	29593.73
494.96	29549.26
495.14	29626.50
495.32	30192.91
495.49	30045.46
495.67	30363.77
495.85	30382.49
496.02	30808.47
496.20	30574.42
496.38	30646.97
496.55	30923.16
496.73	31711.92
496.91	31431.05
497.09	32034.91
497.26	31931.93
497.44	31974.06
497.62	31618.30
497.79	32278.33
497.97	32009.17
498.14	32367.27
498.32	32765.16
498.50	32818.99
498.67	33294.12
498.85	32840.06
499.03	33434.55
499.20	32971.13
499.38	33649.88
499.56	33811.38
499.73	33837.12
499.91	33914.36
500.08	33930.75
500.26	33867.55
500.44	34536.94
500.61	34078.20
500.79	34242.04
500.97	34703.12
501.14	34911.43
501.32	35082.29
501.49	34543.97
501.67	35159.53
501.84	35281.24
502.02	35241.45
502.20	35459.12
502.37	35225.06
502.55	35440.39
502.72	35414.65
502.90	35945.95
503.07	36240.86
503.25	35931.90
503.43	35676.79
503.60	36414.05
503.78	36311.07
503.95	36051.27
504.13	36306.39
504.30	36900.89
504.48	36917.27
504.65	37020.25
504.83	37240.26
505.01	37469.64
505.18	37242.60
505.36	37617.09
505.53	37614.75
505.71	37834.76
505.88	38185.84
506.06	37839.44
506.23	37961.15
506.41	37598.37
506.58	38363.72
506.76	38333.29
506.93	38808.42
507.11	38508.83
507.28	38871.62
507.46	38803.74
507.63	39133.76
507.81	39409.94
507.98	38625.86
508.16	38745.23
508.33	39061.20
508.50	39016.73
508.68	39707.19
508.85	40048.91
509.03	39845.28
509.20	40388.28
509.38	39742.30
509.55	40027.84
509.73	40025.50
509.90	40634.04
510.08	40517.01
510.25	40634.04
510.42	40676.17
510.60	41195.77
510.77	41336.20
510.95	41345.56
511.12	41006.19
511.30	41256.62
511.47	41418.12
511.64	41502.38
511.82	41830.05
511.99	41619.41
512.17	41724.73
512.34	41813.67
512.51	42249.01
512.69	42300.50
512.86	42380.08
513.04	42682.01
513.21	42204.54
513.38	42391.78
513.56	42759.25
513.73	42735.84
513.90	43133.73
514.08	43061.18
514.25	43267.14
514.43	42880.95
514.60	43412.26
514.77	43351.40
514.95	43536.30
515.12	43098.62
515.29	43608.86
515.47	43735.25
515.64	44142.50
515.81	43821.85
515.99	44102.71
516.16	44282.94
516.33	44289.96
516.51	44662.10
516.68	44493.58
516.85	44406.98
517.03	44612.95
517.20	45097.44
517.37	44538.05
517.54	44259.53
517.72	44954.67
517.89	44568.48
518.06	45148.93
518.24	45118.51
518.41	45652.15
518.58	45380.65
518.75	45296.39
518.93	45570.23
519.10	45750.45
519.27	45823.01
519.45	45741.09
519.62	45956.42
519.79	45975.14
519.96	46492.40
520.14	46183.45
520.31	45888.54
520.48	45958.76
520.65	46185.79
520.83	46745.18
521.00	46443.25
521.17	46387.08
521.34	46911.36
521.52	46693.69
521.69	46775.61
521.86	47068.17
522.03	46705.39
522.20	47232.01
522.38	47611.18
522.55	47665.01
522.72	47215.63
522.89	47702.46
523.07	47543.30
523.24	47402.87
523.41	47688.42
523.58	47789.06
523.75	47784.38
523.92	48325.04
524.10	48399.94
524.27	48439.73
524.44	47922.47
524.61	48701.87
524.78	48079.28
524.96	48294.61
525.13	48430.36
525.30	48772.08
525.47	48650.38
525.64	48481.86
525.81	48886.77
525.98	48924.22
526.16	48608.25
526.33	49425.09
526.50	49275.30
526.67	49006.14
526.84	49610.00
527.01	49528.08
527.18	49471.90
527.36	49242.53
527.53	49621.70
527.70	49315.09
527.87	49808.94
528.04	49614.68
528.21	49778.51
528.38	50223.22
528.55	50122.57
528.72	49677.87
528.89	50061.72
529.07	50120.23
529.24	50003.20
529.41	50012.57
529.58	50358.97
529.75	50314.50
529.92	50412.80
530.09	50387.05
530.26	50267.69
530.43	50396.42
530.60	50108.53
530.77	50707.71
530.94	50848.14
531.11	50543.87
531.28	51035.38
531.46	50995.59
531.63	50955.80
531.80	50960.48
531.97	51107.94
532.14	50564.93
532.31	51234.33
532.48	51147.73
532.65	51332.63
532.82	51295.18
532.99	51168.79
533.16	51187.52
533.33	51557.32
533.50	51576.04
533.67	51646.26
533.84	51501.15
534.01	51519.87
534.18	51859.25
534.35	51941.17
534.52	51718.82
534.69	51770.31
534.86	51716.48
535.03	51849.89
535.20	51978.62
535.37	52229.05
535.54	52289.91
535.71	52243.10
535.88	52212.67
536.05	52406.94
536.22	51931.81
536.38	52404.59
536.55	52509.92
536.72	52105.01
536.89	52222.03
537.06	52755.68
537.23	52776.74
537.40	52741.63
537.57	52884.40
537.74	52891.43
537.91	52666.73
538.08	52896.11
538.25	52657.37
538.42	52638.65
538.59	52832.91
538.75	52935.90
538.92	52947.60
539.09	52912.49
539.26	53085.69
539.43	52800.15
539.60	53045.90
539.77	53230.80
539.94	53553.80
540.11	53394.64
540.28	53457.84
540.44	53680.19
540.61	53359.53
540.78	53659.12
540.95	53687.21
541.12	53471.88
541.29	53532.73
541.46	53483.58
541.62	53844.02
541.79	53609.97
541.96	53745.72
542.13	53588.91
542.30	53895.52
542.47	54078.08
542.63	53851.05
542.80	53902.54
542.97	54333.20
543.14	54677.25
543.31	54604.70
543.48	54532.14
543.64	54513.42
543.81	54672.57
543.98	54447.88
544.15	54361.28
544.32	54639.81
544.48	54976.84
544.65	54735.77
544.82	54946.42
544.99	54557.89
545.16	54686.62
545.32	54506.40
545.49	55136.00
545.66	55002.59
545.83	55100.89
546.00	55323.24
546.16	54997.91
546.33	55114.94
546.50	54742.79
546.67	55018.97
546.83	54337.88
547.00	55025.99
547.17	54791.94
547.34	55229.62
547.50	55124.30
547.67	55660.28
547.84	55398.14
548.00	55688.37
548.17	55657.94
548.34	55522.19
548.51	55449.63
548.67	55316.22
548.84	55297.50
549.01	55374.73
549.18	55444.95
549.34	55480.06
549.51	55793.69
549.68	55554.96
549.84	55540.91
550.01	55613.47
550.18	55358.35
550.34	55489.42
550.51	55517.51
550.68	55657.94
550.84	55639.22
551.01	55882.63
551.18	55590.06
551.34	55377.08
551.51	55601.77
551.68	55653.26
551.84	55676.66
552.01	55559.64
552.18	55875.61
552.34	55863.91
552.51	56287.54
552.68	56100.30
552.84	56062.85
553.01	56306.27
553.18	55756.24
553.34	55957.53
553.51	55784.33
553.67	56189.24
553.84	56453.72
554.01	56404.57
554.17	56329.67
554.34	56413.93
554.51	56336.69
554.67	56268.82
554.84	56341.38
555.00	56142.43
555.17	56074.55
555.33	56231.37
555.50	56332.01
555.67	56306.27
555.83	56582.45
556.00	56559.05
556.16	56502.87
556.33	56580.11
556.50	56481.81
556.66	56289.88
556.83	56399.89
556.99	56774.37
557.16	56552.02
557.32	56739.27
557.49	57064.60
557.65	56378.82
557.82	56537.98
557.98	56608.20
558.15	56601.18
558.32	56994.39
558.48	56713.52
558.65	56851.61
558.81	56662.03
558.98	56772.03
559.14	56781.40
559.31	57050.56
559.47	56996.73
559.64	57111.41
559.80	56940.55
559.97	57080.98
560.13	56935.87
560.30	57027.15
560.46	57165.24
560.63	57116.09
560.79	57354.83
560.96	57581.86
561.12	57102.05
561.29	56931.19
561.45	57085.67
561.61	57186.31
561.78	57202.69
561.94	57394.62
562.11	57635.69
562.27	57244.82
562.44	57312.70
562.60	57242.48
562.77	57312.70
562.93	57130.14
563.10	57401.64
563.26	57066.94
563.42	57284.61
563.59	57312.70
563.75	57301.00
563.92	57385.25
564.08	57336.10
564.24	57584.20
564.41	57359.51
564.57	57373.55
564.74	57439.09
564.90	57364.19
565.07	57598.24
565.23	57513.98
565.39	57654.42
565.56	57806.55
565.72	57361.85
565.88	57694.21
566.05	57329.08
566.21	57329.08
566.38	57326.74
566.54	57310.36
566.70	57631.01
566.87	58073.37
567.03	57755.06
567.19	58134.23
567.36	57904.85
567.52	57645.05
567.68	57998.48
567.85	57411.00
568.01	57881.45
568.17	57717.61
568.34	57827.62
568.50	57862.72
568.66	57799.53
568.83	57942.30
568.99	57380.57
569.15	57635.69
569.32	57790.17
569.48	57516.32
569.64	57633.35
569.81	57579.52
569.97	57963.37
570.13	57712.93
570.30	57855.70
570.46	57696.55
570.62	57961.03
570.78	57687.18
570.95	57696.55
571.11	58244.23
571.27	57792.51
571.43	57834.64
571.60	57584.20
571.76	58035.92
571.92	57886.13
572.09	58066.35
572.25	58103.80
572.41	58068.69
572.57	57963.37
572.74	58255.93
572.90	58078.05
573.06	58094.44
573.22	57928.26
573.38	57846.34
573.55	57921.24
573.71	58347.21
573.87	58028.90
574.03	58038.26
574.20	58131.89
574.36	58094.44
574.52	57968.05
574.68	57954.00
574.84	58394.03
575.01	58143.59
575.17	58164.65
575.33	57965.71
575.49	58028.90
575.65	58218.49
575.82	58159.97
575.98	57958.69
576.14	58188.06
576.30	58190.40
576.46	58101.46
576.62	57956.35
576.79	58190.40
576.95	57918.90
577.11	58288.70
577.27	58117.84
577.43	58288.70
577.59	58054.65
577.75	58164.65
577.92	58117.84
578.08	58082.73
578.24	58085.07
578.40	58248.91
578.56	58148.27
578.72	58344.87
578.88	58623.40
579.04	58508.71
579.21	58410.41
579.37	58419.77
579.53	58321.47
579.69	58307.43
579.85	58328.49
580.01	58269.98
580.17	58368.28
580.33	58541.48
580.49	58508.71
580.65	58607.01
580.82	58361.26
580.98	58398.71
581.14	58267.64
581.30	58401.05
581.46	58251.25
581.62	58003.16
581.78	58248.91
581.94	58501.69
582.10	58092.10
582.26	58279.34
582.42	58387.00
582.58	58506.37
582.74	58511.05
582.90	58529.78
583.06	58293.38
583.22	58485.31
583.38	58363.60
583.54	58372.96
583.70	58216.14
583.86	58384.66
584.02	58480.63
584.18	58525.10
584.34	58677.23
584.50	58499.35
584.66	58394.03
584.82	58389.34
584.98	58574.25
585.14	58330.83
585.30	58445.52
585.46	58394.03
585.62	58286.36
585.78	58726.38
585.94	58464.24
586.10	58672.55
586.26	58515.73
586.42	58665.53
586.58	58457.22
586.74	58635.10
586.90	58424.45
587.06	58468.92
587.22	58494.67
587.38	58602.33
587.54	58822.34
587.70	59082.14
587.86	58702.98
588.02	58691.27
588.18	58618.72
