SpectraSuite Data File
++++++++++++++++++++++++++++++++++++
Date: Thu Oct 24 13:21:03 EDT 2013
User: stostad
Dark Spectrum Present: No
Reference Spectrum Present: No
Number of Sampled Component Spectra: 1
Spectrometers: USB2+H05261
Integration Time (usec): 100000 (USB2+H05261)
Spectra Averaged: 1 (USB2+H05261)
Boxcar Smoothing: 0 (USB2+H05261)
Correct for Electrical Dark: No (USB2+H05261)
Strobe/Lamp Enabled: No (USB2+H05261)
Correct for Detector Non-linearity: No (USB2+H05261)
Correct for Stray Light: No (USB2+H05261)
Number of Pixels in Processed Spectrum: 2048
>>>>>Begin Processed Spectral Data<<<<<
365.73	601.52
365.92	601.52
366.12	601.52
366.32	433.00
366.52	503.22
366.72	486.83
366.91	463.43
367.11	496.19
367.31	400.23
367.51	486.83
367.70	484.49
367.90	433.00
368.10	486.83
368.30	428.32
368.49	435.34
368.69	430.66
368.89	456.40
369.09	393.21
369.28	503.22
369.48	514.92
369.68	580.45
369.87	521.94
370.07	517.26
370.27	547.69
370.47	533.64
370.66	477.47
370.86	517.26
371.06	650.67
371.25	610.88
371.45	554.71
371.65	634.29
371.84	573.43
372.04	589.82
372.24	613.22
372.44	547.69
372.63	690.46
372.83	702.16
373.03	653.01
373.22	624.92
373.42	662.37
373.62	648.33
373.81	725.57
374.01	685.78
374.21	655.35
374.40	587.47
374.60	610.88
374.79	704.50
374.99	608.54
375.19	631.94
375.38	674.07
375.58	650.67
375.78	641.31
375.97	610.88
376.17	613.22
376.37	601.52
376.56	634.29
376.76	678.76
376.95	617.90
377.15	608.54
377.35	641.31
377.54	592.16
377.74	585.13
377.93	528.96
378.13	641.31
378.33	617.90
378.52	603.86
378.72	648.33
378.91	645.99
379.11	514.92
379.31	566.41
379.50	664.71
379.70	568.75
379.89	638.97
380.09	596.84
380.28	615.56
380.48	603.86
380.68	610.88
380.87	585.13
381.07	620.24
381.26	620.24
381.46	624.92
381.65	648.33
381.85	568.75
382.04	638.97
382.24	601.52
382.43	601.52
382.63	631.94
382.83	566.41
383.02	767.70
383.22	608.54
383.41	526.62
383.61	592.16
383.80	599.18
384.00	571.09
384.19	613.22
384.39	627.26
384.58	582.79
384.78	650.67
384.97	624.92
385.17	606.20
385.36	594.50
385.56	627.26
385.75	660.03
385.95	603.86
386.14	622.58
386.34	674.07
386.53	678.76
386.72	655.35
386.92	592.16
387.11	678.76
387.31	629.60
387.50	615.56
387.70	594.50
387.89	615.56
388.09	554.71
388.28	557.05
388.48	643.65
388.67	676.41
388.86	582.79
389.06	648.33
389.25	643.65
389.45	603.86
389.64	571.09
389.84	615.56
390.03	594.50
390.22	634.29
390.42	571.09
390.61	566.41
390.81	636.63
391.00	587.47
391.19	610.88
391.39	636.63
391.58	608.54
391.78	599.18
391.97	702.16
392.16	543.00
392.36	573.43
392.55	716.20
392.75	624.92
392.94	631.94
393.13	606.20
393.33	662.37
393.52	573.43
393.71	571.09
393.91	550.03
394.10	606.20
394.29	559.39
394.49	641.31
394.68	695.14
394.88	624.92
395.07	620.24
395.26	629.60
395.46	561.73
395.65	610.88
395.84	660.03
396.04	699.82
396.23	601.52
396.42	657.69
396.62	571.09
396.81	540.66
397.00	678.76
397.19	690.46
397.39	603.86
397.58	599.18
397.77	631.94
397.97	603.86
398.16	636.63
398.35	615.56
398.55	582.79
398.74	592.16
398.93	575.77
399.12	608.54
399.32	613.22
399.51	613.22
399.70	613.22
399.90	622.58
400.09	650.67
400.28	681.10
400.47	521.94
400.67	631.94
400.86	702.16
401.05	615.56
401.24	655.35
401.44	667.05
401.63	648.33
401.82	650.67
402.01	601.52
402.21	622.58
402.40	601.52
402.59	615.56
402.78	613.22
402.97	624.92
403.17	657.69
403.36	655.35
403.55	601.52
403.74	608.54
403.93	631.94
404.13	631.94
404.32	638.97
404.51	685.78
404.70	589.82
404.89	627.26
405.09	662.37
405.28	655.35
405.47	601.52
405.66	594.50
405.85	592.16
406.05	587.47
406.24	594.50
406.43	709.18
406.62	653.01
406.81	699.82
407.00	671.73
407.20	610.88
407.39	636.63
407.58	561.73
407.77	543.00
407.96	681.10
408.15	641.31
408.34	664.71
408.54	636.63
408.73	596.84
408.92	627.26
409.11	566.41
409.30	638.97
409.49	641.31
409.68	631.94
409.87	606.20
410.07	657.69
410.26	629.60
410.45	599.18
410.64	683.44
410.83	713.86
411.02	657.69
411.21	627.26
411.40	580.45
411.59	617.90
411.78	638.97
411.98	613.22
412.17	627.26
412.36	674.07
412.55	617.90
412.74	641.31
412.93	615.56
413.12	603.86
413.31	582.79
413.50	578.11
413.69	716.20
413.88	648.33
414.07	641.31
414.26	702.16
414.45	524.28
414.64	695.14
414.83	655.35
415.02	592.16
415.22	636.63
415.41	641.31
415.60	681.10
415.79	564.07
415.98	685.78
416.17	638.97
416.36	648.33
416.55	671.73
416.74	617.90
416.93	575.77
417.12	699.82
417.31	613.22
417.50	566.41
417.69	720.88
417.88	671.73
418.07	606.20
418.26	627.26
418.45	669.39
418.64	727.91
418.83	636.63
419.02	615.56
419.21	613.22
419.39	655.35
419.58	578.11
419.77	608.54
419.96	594.50
420.15	638.97
420.34	624.92
420.53	709.18
420.72	603.86
420.91	594.50
421.10	648.33
421.29	594.50
421.48	636.63
421.67	660.03
421.86	629.60
422.05	662.37
422.24	589.82
422.43	601.52
422.61	617.90
422.80	676.41
422.99	627.26
423.18	638.97
423.37	631.94
423.56	713.86
423.75	641.31
423.94	547.69
424.13	643.65
424.32	641.31
424.50	599.18
424.69	622.58
424.88	648.33
425.07	627.26
425.26	599.18
425.45	685.78
425.64	622.58
425.83	615.56
426.01	650.67
426.20	631.94
426.39	636.63
426.58	585.13
426.77	601.52
426.96	606.20
427.15	650.67
427.33	608.54
427.52	631.94
427.71	622.58
427.90	599.18
428.09	622.58
428.28	676.41
428.46	599.18
428.65	585.13
428.84	622.58
429.03	645.99
429.22	660.03
429.40	650.67
429.59	624.92
429.78	681.10
429.97	587.47
430.16	650.67
430.34	660.03
430.53	655.35
430.72	552.37
430.91	627.26
431.10	599.18
431.28	662.37
431.47	669.39
431.66	676.41
431.85	641.31
432.03	667.05
432.22	622.58
432.41	655.35
432.60	671.73
432.79	669.39
432.97	631.94
433.16	636.63
433.35	610.88
433.54	636.63
433.72	671.73
433.91	552.37
434.10	620.24
434.28	641.31
434.47	685.78
434.66	643.65
434.85	662.37
435.03	779.40
435.22	957.28
435.41	1043.88
435.59	1015.79
435.78	896.43
435.97	791.10
436.16	739.61
436.34	732.59
436.53	678.76
436.72	664.71
436.90	599.18
437.09	645.99
437.28	601.52
437.46	594.50
437.65	622.58
437.84	615.56
438.02	655.35
438.21	676.41
438.40	636.63
438.58	636.63
438.77	681.10
438.96	711.52
439.14	662.37
439.33	655.35
439.52	667.05
439.70	638.97
439.89	664.71
440.08	676.41
440.26	519.60
440.45	645.99
440.63	650.67
440.82	697.48
441.01	697.48
441.19	643.65
441.38	596.84
441.57	697.48
441.75	688.12
441.94	613.22
442.12	610.88
442.31	746.63
442.50	692.80
442.68	695.14
442.87	610.88
443.05	629.60
443.24	660.03
443.43	685.78
443.61	634.29
443.80	678.76
443.98	631.94
444.17	648.33
444.35	681.10
444.54	699.82
444.73	627.26
444.91	770.04
445.10	643.65
445.28	589.82
445.47	566.41
445.65	692.80
445.84	704.50
446.02	552.37
446.21	664.71
446.39	669.39
446.58	667.05
446.77	631.94
446.95	578.11
447.14	608.54
447.32	711.52
447.51	697.48
447.69	669.39
447.88	662.37
448.06	697.48
448.25	669.39
448.43	667.05
448.62	601.52
448.80	657.69
448.99	695.14
449.17	615.56
449.36	617.90
449.54	681.10
449.73	704.50
449.91	615.56
450.10	587.47
450.28	650.67
450.46	713.86
450.65	664.71
450.83	638.97
451.02	683.44
451.20	610.88
451.39	603.86
451.57	594.50
451.76	634.29
451.94	660.03
452.13	636.63
452.31	662.37
452.49	676.41
452.68	657.69
452.86	660.03
453.05	690.46
453.23	699.82
453.42	620.24
453.60	561.73
453.78	669.39
453.97	648.33
454.15	601.52
454.34	650.67
454.52	631.94
454.70	634.29
454.89	566.41
455.07	650.67
455.26	610.88
455.44	631.94
455.62	655.35
455.81	610.88
455.99	599.18
456.17	608.54
456.36	674.07
456.54	669.39
456.73	578.11
456.91	739.61
457.09	601.52
457.28	720.88
457.46	636.63
457.64	582.79
457.83	554.71
458.01	608.54
458.19	664.71
458.38	603.86
458.56	629.60
458.74	608.54
458.93	671.73
459.11	723.23
459.29	678.76
459.48	692.80
459.66	641.31
459.84	568.75
460.03	578.11
460.21	650.67
460.39	692.80
460.57	601.52
460.76	627.26
460.94	638.97
461.12	627.26
461.31	648.33
461.49	610.88
461.67	641.31
461.85	645.99
462.04	638.97
462.22	980.68
462.40	676.41
462.59	690.46
462.77	620.24
462.95	578.11
463.13	606.20
463.32	645.99
463.50	650.67
463.68	690.46
463.86	636.63
464.05	627.26
464.23	662.37
464.41	697.48
464.59	578.11
464.78	608.54
464.96	592.16
465.14	662.37
465.32	601.52
465.50	660.03
465.69	627.26
465.87	599.18
466.05	751.31
466.23	517.26
466.41	650.67
466.60	594.50
466.78	638.97
466.96	667.05
467.14	660.03
467.32	648.33
467.51	660.03
467.69	613.22
467.87	681.10
468.05	676.41
468.23	645.99
468.41	617.90
468.60	622.58
468.78	617.90
468.96	620.24
469.14	634.29
469.32	592.16
469.50	660.03
469.69	624.92
469.87	631.94
470.05	638.97
470.23	671.73
470.41	643.65
470.59	636.63
470.77	645.99
470.95	669.39
471.14	636.63
471.32	610.88
471.50	627.26
471.68	638.97
471.86	695.14
472.04	636.63
472.22	566.41
472.40	648.33
472.58	615.56
472.77	664.71
472.95	634.29
473.13	669.39
473.31	634.29
473.49	615.56
473.67	608.54
473.85	702.16
474.03	669.39
474.21	648.33
474.39	634.29
474.57	566.41
474.75	638.97
474.93	617.90
475.12	669.39
475.30	641.31
475.48	615.56
475.66	622.58
475.84	617.90
476.02	566.41
476.20	671.73
476.38	657.69
476.56	629.60
476.74	741.95
476.92	620.24
477.10	648.33
477.28	634.29
477.46	643.65
477.64	620.24
477.82	683.44
478.00	603.86
478.18	624.92
478.36	657.69
478.54	690.46
478.72	671.73
478.90	671.73
479.08	671.73
479.26	594.50
479.44	641.31
479.62	692.80
479.80	620.24
479.98	538.32
480.16	564.07
480.34	655.35
480.52	653.01
480.70	720.88
480.88	653.01
481.06	681.10
481.24	601.52
481.41	683.44
481.59	678.76
481.77	594.50
481.95	641.31
482.13	648.33
482.31	671.73
482.49	613.22
482.67	674.07
482.85	629.60
483.03	648.33
483.21	657.69
483.39	613.22
483.57	704.50
483.74	706.84
483.92	709.18
484.10	657.69
484.28	657.69
484.46	699.82
484.64	622.58
484.82	681.10
485.00	695.14
485.18	688.12
485.35	671.73
485.53	688.12
485.71	692.80
485.89	671.73
486.07	662.37
486.25	699.82
486.43	758.33
486.61	767.70
486.78	758.33
486.96	692.80
487.14	716.20
487.32	671.73
487.50	718.54
487.68	638.97
487.85	641.31
488.03	678.76
488.21	676.41
488.39	709.18
488.57	734.93
488.75	681.10
488.92	763.01
489.10	748.97
489.28	683.44
489.46	685.78
489.64	667.05
489.81	718.54
489.99	692.80
490.17	709.18
490.35	704.50
490.53	671.73
490.70	606.20
490.88	671.73
491.06	615.56
491.24	732.59
491.41	739.61
491.59	624.92
491.77	645.99
491.95	624.92
492.13	718.54
492.30	622.58
492.48	730.25
492.66	791.10
492.84	695.14
493.01	660.03
493.19	718.54
493.37	699.82
493.54	627.26
493.72	720.88
493.90	662.37
494.08	655.35
494.25	725.57
494.43	596.84
494.61	669.39
494.79	606.20
494.96	594.50
495.14	704.50
495.32	688.12
495.49	683.44
495.67	627.26
495.85	692.80
496.02	624.92
496.20	629.60
496.38	676.41
496.55	667.05
496.73	699.82
496.91	685.78
497.09	681.10
497.26	676.41
497.44	662.37
497.62	695.14
497.79	631.94
497.97	648.33
498.14	777.06
498.32	713.86
498.50	622.58
498.67	697.48
498.85	692.80
499.03	676.41
499.20	636.63
499.38	664.71
499.56	657.69
499.73	692.80
499.91	688.12
500.08	697.48
500.26	657.69
500.44	638.97
500.61	662.37
500.79	603.86
500.97	627.26
501.14	667.05
501.32	664.71
501.49	671.73
501.67	674.07
501.84	657.69
502.02	648.33
502.20	751.31
502.37	580.45
502.55	674.07
502.72	655.35
502.90	662.37
503.07	664.71
503.25	662.37
503.43	664.71
503.60	655.35
503.78	685.78
503.95	688.12
504.13	624.92
504.30	704.50
504.48	627.26
504.65	645.99
504.83	622.58
505.01	631.94
505.18	641.31
505.36	692.80
505.53	685.78
505.71	631.94
505.88	678.76
506.06	678.76
506.23	667.05
506.41	629.60
506.58	727.91
506.76	566.41
506.93	613.22
507.11	695.14
507.28	622.58
507.46	601.52
507.63	606.20
507.81	713.86
507.98	683.44
508.16	645.99
508.33	615.56
508.50	688.12
508.68	690.46
508.85	648.33
509.03	650.67
509.20	592.16
509.38	650.67
509.55	660.03
509.73	653.01
509.90	699.82
510.08	603.86
510.25	695.14
510.42	589.82
510.60	648.33
510.77	711.52
510.95	662.37
511.12	636.63
511.30	622.58
511.47	688.12
511.64	695.14
511.82	648.33
511.99	638.97
512.17	582.79
512.34	641.31
512.51	641.31
512.69	650.67
512.86	702.16
513.04	624.92
513.21	645.99
513.38	629.60
513.56	617.90
513.73	692.80
513.90	599.18
514.08	601.52
514.25	641.31
514.43	664.71
514.60	683.44
514.77	641.31
514.95	676.41
515.12	622.58
515.29	615.56
515.47	650.67
515.64	692.80
515.81	667.05
515.99	695.14
516.16	631.94
516.33	676.41
516.51	643.65
516.68	676.41
516.85	753.65
517.03	580.45
517.20	657.69
517.37	669.39
517.54	606.20
517.72	613.22
517.89	702.16
518.06	615.56
518.24	697.48
518.41	638.97
518.58	627.26
518.75	634.29
518.93	657.69
519.10	655.35
519.27	657.69
519.45	660.03
519.62	678.76
519.79	692.80
519.96	617.90
520.14	631.94
520.31	732.59
520.48	667.05
520.65	634.29
520.83	678.76
521.00	669.39
521.17	711.52
521.34	615.56
521.52	627.26
521.69	631.94
521.86	615.56
522.03	657.69
522.20	732.59
522.38	718.54
522.55	650.67
522.72	638.97
522.89	645.99
523.07	669.39
523.24	660.03
523.41	674.07
523.58	608.54
523.75	620.24
523.92	631.94
524.10	648.33
524.27	671.73
524.44	615.56
524.61	655.35
524.78	664.71
524.96	601.52
525.13	702.16
525.30	660.03
525.47	617.90
525.64	660.03
525.81	634.29
525.98	692.80
526.16	648.33
526.33	559.39
526.50	608.54
526.67	688.12
526.84	657.69
527.01	613.22
527.18	664.71
527.36	660.03
527.53	653.01
527.70	557.05
527.87	580.45
528.04	629.60
528.21	695.14
528.38	657.69
528.55	690.46
528.72	634.29
528.89	723.23
529.07	634.29
529.24	585.13
529.41	697.48
529.58	688.12
529.75	645.99
529.92	681.10
530.09	748.97
530.26	629.60
530.43	681.10
530.60	720.88
530.77	688.12
530.94	678.76
531.11	685.78
531.28	678.76
531.46	702.16
531.63	667.05
531.80	709.18
531.97	669.39
532.14	674.07
532.31	767.70
532.48	702.16
532.65	669.39
532.82	645.99
532.99	671.73
533.16	727.91
533.33	629.60
533.50	653.01
533.67	620.24
533.84	697.48
534.01	685.78
534.18	685.78
534.35	653.01
534.52	653.01
534.69	683.44
534.86	592.16
535.03	608.54
535.20	695.14
535.37	655.35
535.54	596.84
535.71	692.80
535.88	718.54
536.05	643.65
536.22	709.18
536.38	699.82
536.55	704.50
536.72	725.57
536.89	791.10
537.06	685.78
537.23	763.01
537.40	690.46
537.57	695.14
537.74	741.95
537.91	753.65
538.08	784.08
538.25	709.18
538.42	727.91
538.59	779.40
538.75	791.10
538.92	770.04
539.09	779.40
539.26	748.97
539.43	767.70
539.60	748.97
539.77	880.04
539.94	755.99
540.11	798.12
540.28	875.36
540.44	915.15
540.61	880.04
540.78	903.45
540.95	971.32
541.12	1090.69
541.29	1123.46
541.46	1193.67
541.62	1219.42
541.79	1261.55
541.96	1153.88
542.13	1196.01
542.30	1188.99
542.47	1135.16
542.63	1207.72
542.80	1076.65
542.97	1048.56
543.14	1158.57
543.31	1186.65
543.48	1188.99
543.64	1078.99
543.81	1008.77
543.98	1125.80
544.15	1118.78
544.32	1090.69
544.48	1158.57
544.65	1146.86
544.82	1111.75
544.99	1088.35
545.16	1069.62
545.32	1181.97
545.49	1469.86
545.66	1774.13
545.83	1923.92
546.00	1654.76
546.16	1509.65
546.33	1299.00
546.50	1205.38
546.67	1107.07
546.83	1050.90
547.00	1008.77
547.17	933.87
547.34	905.79
547.50	873.02
547.67	936.21
547.84	894.08
548.00	870.68
548.17	870.68
548.34	861.32
548.51	858.98
548.67	851.96
548.84	875.36
549.01	863.66
549.18	802.80
549.34	884.72
549.51	884.72
549.68	805.14
549.84	837.91
550.01	800.46
550.18	800.46
550.34	755.99
550.51	779.40
550.68	777.06
550.84	741.95
551.01	739.61
551.18	777.06
551.34	784.08
551.51	723.23
551.68	802.80
551.84	702.16
552.01	725.57
552.18	767.70
552.34	763.01
552.51	713.86
552.68	650.67
552.84	781.74
553.01	739.61
553.18	812.17
553.34	674.07
553.51	711.52
553.67	709.18
553.84	788.76
554.01	695.14
554.17	702.16
554.34	688.12
554.51	692.80
554.67	718.54
554.84	765.36
555.00	692.80
555.17	718.54
555.33	706.84
555.50	641.31
555.67	737.27
555.83	669.39
556.00	739.61
556.16	744.29
556.33	671.73
556.50	727.91
556.66	601.52
556.83	720.88
556.99	669.39
557.16	674.07
557.32	617.90
557.49	648.33
557.65	599.18
557.82	655.35
557.98	662.37
558.15	599.18
558.32	653.01
558.48	575.77
558.65	706.84
558.81	592.16
558.98	678.76
559.14	622.58
559.31	697.48
559.47	594.50
559.64	622.58
559.80	653.01
559.97	620.24
560.13	662.37
560.30	638.97
560.46	596.84
560.63	645.99
560.79	631.94
560.96	704.50
561.12	706.84
561.29	685.78
561.45	678.76
561.61	681.10
561.78	704.50
561.94	734.93
562.11	596.84
562.27	676.41
562.44	657.69
562.60	662.37
562.77	690.46
562.93	709.18
563.10	634.29
563.26	599.18
563.42	641.31
563.59	655.35
563.75	685.78
563.92	671.73
564.08	664.71
564.24	737.27
564.41	676.41
564.57	669.39
564.74	669.39
564.90	617.90
565.07	627.26
565.23	685.78
565.39	624.92
565.56	685.78
565.72	643.65
565.88	641.31
566.05	620.24
566.21	655.35
566.38	638.97
566.54	744.29
566.70	624.92
566.87	667.05
567.03	594.50
567.19	653.01
567.36	636.63
567.52	631.94
567.68	676.41
567.85	671.73
568.01	674.07
568.17	617.90
568.34	713.86
568.50	662.37
568.66	589.82
568.83	697.48
568.99	674.07
569.15	723.23
569.32	592.16
569.48	671.73
569.64	585.13
569.81	636.63
569.97	636.63
570.13	636.63
570.30	650.67
570.46	634.29
570.62	671.73
570.78	650.67
570.95	610.88
571.11	678.76
571.27	559.39
571.43	594.50
571.60	674.07
571.76	603.86
571.92	631.94
572.09	573.43
572.25	599.18
572.41	669.39
572.57	624.92
572.74	645.99
572.90	622.58
573.06	648.33
573.22	606.20
573.38	690.46
573.55	620.24
573.71	692.80
573.87	587.47
574.03	627.26
574.20	627.26
574.36	676.41
574.52	685.78
574.68	657.69
574.84	657.69
575.01	587.47
575.17	650.67
575.33	681.10
575.49	683.44
575.65	662.37
575.82	688.12
575.98	655.35
576.14	587.47
576.30	706.84
576.46	816.85
576.62	870.68
576.79	828.55
576.95	819.19
577.11	746.63
577.27	683.44
577.43	713.86
577.59	734.93
577.75	671.73
577.92	688.12
578.08	704.50
578.24	697.48
578.40	702.16
578.56	816.85
578.72	868.34
578.88	940.90
579.04	758.33
579.21	732.59
579.37	734.93
579.53	746.63
579.69	828.55
579.85	760.67
580.01	732.59
580.17	730.25
580.33	786.42
580.49	784.08
580.65	716.20
580.82	788.76
580.98	697.48
581.14	699.82
581.30	753.65
581.46	737.27
581.62	716.20
581.78	741.95
581.94	732.59
582.10	688.12
582.26	685.78
582.42	730.25
582.58	732.59
582.74	748.97
582.90	784.08
583.06	786.42
583.22	739.61
583.38	725.57
583.54	751.31
583.70	784.08
583.86	784.08
584.02	744.29
584.18	727.91
584.34	784.08
584.50	763.01
584.66	800.46
584.82	688.12
584.98	748.97
585.14	809.83
585.30	802.80
585.46	760.67
585.62	730.25
585.78	772.38
585.94	734.93
586.10	732.59
586.26	718.54
586.42	760.67
586.58	723.23
586.74	826.21
586.90	866.00
587.06	894.08
587.22	924.51
587.38	856.64
587.54	837.91
587.70	795.78
587.86	744.29
588.02	767.70
588.18	814.51
588.34	770.04
588.49	751.31
588.65	781.74
588.81	732.59
588.97	674.07
589.13	713.86
589.29	720.88
589.45	692.80
589.61	737.27
589.77	699.82
589.93	734.93
590.08	730.25
590.24	741.95
590.40	763.01
590.56	739.61
590.72	699.82
590.88	704.50
591.04	660.03
591.20	739.61
591.35	774.72
591.51	671.73
591.67	711.52
591.83	753.65
591.99	734.93
592.15	772.38
592.31	753.65
592.46	716.20
592.62	758.33
592.78	795.78
592.94	800.46
593.10	704.50
593.26	795.78
593.41	800.46
593.57	774.72
593.73	744.29
593.89	746.63
594.05	671.73
594.20	706.84
594.36	795.78
594.52	720.88
594.68	711.52
594.84	716.20
594.99	720.88
595.15	704.50
595.31	678.76
595.47	765.36
595.62	688.12
595.78	720.88
595.94	723.23
596.10	699.82
596.25	725.57
596.41	692.80
596.57	688.12
596.73	699.82
596.88	669.39
597.04	678.76
597.20	723.23
597.36	709.18
597.51	699.82
597.67	636.63
597.83	643.65
597.99	690.46
598.14	709.18
598.30	697.48
598.46	683.44
598.61	610.88
598.77	716.20
598.93	706.84
599.09	688.12
599.24	711.52
599.40	739.61
599.56	739.61
599.71	716.20
599.87	716.20
600.03	688.12
600.18	688.12
600.34	713.86
600.50	732.59
600.65	641.31
600.81	699.82
600.97	739.61
601.12	643.65
601.28	723.23
601.44	650.67
601.59	676.41
601.75	720.88
601.91	624.92
602.06	683.44
602.22	704.50
602.37	678.76
602.53	631.94
602.69	674.07
602.84	699.82
603.00	669.39
603.16	713.86
603.31	699.82
603.47	667.05
603.62	676.41
603.78	699.82
603.94	683.44
604.09	704.50
604.25	685.78
604.40	690.46
604.56	678.76
604.71	669.39
604.87	697.48
605.03	617.90
605.18	629.60
605.34	685.78
605.49	681.10
605.65	683.44
605.80	690.46
605.96	734.93
606.12	704.50
606.27	662.37
606.43	713.86
606.58	685.78
606.74	610.88
606.89	730.25
607.05	779.40
607.20	758.33
607.36	758.33
607.51	713.86
607.67	723.23
607.82	685.78
607.98	711.52
608.13	755.99
608.29	695.14
608.44	688.12
608.60	732.59
608.75	802.80
608.91	781.74
609.06	798.12
609.22	823.87
609.37	861.32
609.53	814.51
609.68	910.47
609.84	908.13
