SpectraSuite Data File
++++++++++++++++++++++++++++++++++++
Date: Thu Oct 24 13:21:26 EDT 2013
User: stostad
Dark Spectrum Present: No
Reference Spectrum Present: No
Number of Sampled Component Spectra: 1
Spectrometers: USB2+H05261
Integration Time (usec): 100000 (USB2+H05261)
Spectra Averaged: 1 (USB2+H05261)
Boxcar Smoothing: 0 (USB2+H05261)
Correct for Electrical Dark: No (USB2+H05261)
Strobe/Lamp Enabled: No (USB2+H05261)
Correct for Detector Non-linearity: No (USB2+H05261)
Correct for Stray Light: No (USB2+H05261)
Number of Pixels in Processed Spectrum: 2048
>>>>>Begin Processed Spectral Data<<<<<
365.73	582.79
365.92	582.79
366.12	582.79
366.32	507.90
366.52	388.53
366.72	503.22
366.91	433.00
367.11	435.34
367.31	472.79
367.51	449.38
367.70	442.36
367.90	440.02
368.10	461.09
368.30	451.72
368.49	418.96
368.69	433.00
368.89	461.09
369.09	463.43
369.28	444.70
369.48	526.62
369.68	533.64
369.87	528.96
370.07	528.96
370.27	559.39
370.47	669.39
370.66	938.55
370.86	957.28
371.06	877.70
371.25	1048.56
371.45	950.26
371.65	1015.79
371.84	1004.09
372.04	1020.47
372.24	1074.31
372.44	1109.41
372.63	1067.28
372.83	1102.39
373.03	994.73
373.22	1104.73
373.42	1074.31
373.62	1104.73
373.81	1111.75
374.01	1130.48
374.21	1142.18
374.40	1186.65
374.60	1165.59
374.79	1111.75
374.99	1224.10
375.19	1093.03
375.38	1186.65
375.58	1200.69
375.78	1191.33
375.97	1224.10
376.17	1219.42
376.37	1181.97
376.56	1167.93
376.76	1221.76
376.95	1235.80
377.15	1287.29
377.35	1231.12
377.54	1167.93
377.74	1107.07
377.93	1198.35
378.13	1193.67
378.33	1270.91
378.52	1217.08
378.72	1291.98
378.91	1306.02
379.11	1277.93
379.31	1282.61
379.50	1376.24
379.70	1266.23
379.89	1329.42
380.09	1364.53
380.28	1249.85
380.48	1329.42
380.68	1268.57
380.87	1294.32
381.07	1324.74
381.26	1366.87
381.46	1359.85
381.65	1359.85
381.85	1390.28
382.04	1362.19
382.24	1376.24
382.43	1362.19
382.63	1458.15
382.83	1390.28
383.02	1479.22
383.22	1469.86
383.41	1476.88
383.61	1493.26
383.80	1509.65
384.00	1521.35
384.19	1535.39
384.39	1521.35
384.58	1448.79
384.78	1493.26
384.97	1586.88
385.17	1500.28
385.36	1486.24
385.56	1441.77
385.75	1476.88
385.95	1570.50
386.14	1507.30
386.34	1598.59
386.53	1586.88
386.72	1514.33
386.92	1551.78
387.11	1596.25
387.31	1575.18
387.50	1636.03
387.70	1626.67
387.89	1596.25
388.09	1703.91
388.28	1647.74
388.48	1673.48
388.67	1610.29
388.86	1603.27
389.06	1673.48
389.25	1671.14
389.45	1741.36
389.64	1778.81
389.84	1710.93
390.03	1769.44
390.22	1802.21
390.42	1774.13
390.61	1753.06
390.81	1673.48
391.00	1729.66
391.19	1949.67
391.39	1682.85
391.58	1771.79
391.78	1799.87
391.97	1785.83
392.16	1867.75
392.36	1778.81
392.55	1823.28
392.75	1900.52
392.94	1844.34
393.13	1933.28
393.33	1886.47
393.52	1898.17
393.71	1975.41
393.91	1919.24
394.10	2033.93
394.29	2045.63
394.49	1916.90
394.68	1970.73
394.88	2001.16
395.07	2118.18
395.26	2087.76
395.46	2008.18
395.65	2022.22
395.84	2139.25
396.04	2078.40
396.23	2141.59
396.42	2073.71
396.62	2083.08
396.81	2155.63
397.00	2134.57
397.19	2174.36
397.39	2204.78
397.58	2193.08
397.77	2157.97
397.97	2167.34
398.16	2167.34
398.35	2246.91
398.55	2244.57
398.74	2230.53
398.93	2392.03
399.12	2258.62
399.32	2242.23
399.51	2342.88
399.70	2354.58
399.90	2370.96
400.09	2328.83
400.28	2413.09
400.47	2328.83
400.67	2490.33
400.86	2464.58
401.05	2483.31
401.24	2445.86
401.44	2523.10
401.63	2527.78
401.82	2490.33
402.01	2471.61
402.21	2572.25
402.40	2586.29
402.59	2537.14
402.78	2614.38
402.97	2509.05
403.17	2523.10
403.36	2562.89
403.55	2684.59
403.74	2602.68
403.93	2672.89
404.13	2700.98
404.32	2855.45
404.51	2897.58
404.70	2785.24
404.89	2778.22
405.09	2935.03
405.28	2808.64
405.47	2832.05
405.66	2942.05
405.85	2871.84
406.05	2850.77
406.24	2799.28
406.43	2939.71
406.62	3002.91
406.81	2960.78
407.00	2864.82
407.20	3045.04
407.39	3136.32
407.58	3040.36
407.77	3098.87
407.96	3133.98
408.15	3131.64
408.34	3148.02
408.54	3262.71
408.73	3246.32
408.92	3187.81
409.11	3311.86
409.30	3342.28
409.49	3375.05
409.68	3283.77
409.87	3241.64
410.07	3358.67
410.26	3471.01
410.45	3365.69
410.64	3410.16
410.83	3391.44
411.02	3431.23
411.21	3520.17
411.40	3529.53
411.59	3426.54
411.78	3583.36
411.98	3431.23
412.17	3599.74
412.36	3550.59
412.55	3709.75
412.74	3754.22
412.93	3686.34
413.12	3789.33
413.31	3686.34
413.50	3819.75
413.69	3939.12
413.88	3939.12
414.07	3889.97
414.26	4049.13
414.45	4014.02
414.64	4060.83
414.83	4030.40
415.02	4173.18
415.22	4138.07
415.41	4070.19
415.60	4126.36
415.79	4407.23
415.98	4442.34
416.17	4423.61
416.36	4355.74
416.55	4437.66
416.74	4456.38
416.93	4531.28
417.12	4470.42
417.31	4461.06
417.50	4449.36
417.69	4557.02
417.88	4571.07
418.07	4622.56
418.26	4498.51
418.45	4582.77
418.64	4648.30
418.83	4559.36
419.02	4617.88
419.21	4741.93
419.39	4849.59
419.58	4858.95
419.77	4758.31
419.96	4781.71
420.15	4840.23
420.34	4840.23
420.53	4844.91
420.72	4945.55
420.91	4929.17
421.10	5177.26
421.29	5210.03
421.48	5032.15
421.67	5050.88
421.86	5135.14
422.05	4924.49
422.24	5074.28
422.43	5188.97
422.61	5205.35
422.80	5324.72
422.99	5369.19
423.18	5184.29
423.37	5179.61
423.56	5212.37
423.75	5334.08
423.94	5341.10
424.13	4959.60
424.32	5069.60
424.50	5355.15
424.69	5502.60
424.88	5336.42
425.07	5153.86
425.26	5158.54
425.45	5104.71
425.64	5294.29
425.83	5256.84
426.01	5291.95
426.20	5275.57
426.39	5296.63
426.58	5352.81
426.77	5408.98
426.96	5420.68
427.15	5397.28
427.33	5483.88
427.52	5488.56
427.71	5624.31
427.90	5476.85
428.09	5565.79
428.28	5523.66
428.46	5710.91
428.65	5699.20
428.84	5923.90
429.03	5881.77
429.22	5680.48
429.40	5643.03
429.59	5734.31
429.78	5624.31
429.97	5600.90
430.16	5755.38
430.34	5944.96
430.53	5980.07
430.72	5811.55
430.91	5961.34
431.10	5830.27
431.28	5930.92
431.47	6078.37
431.66	6132.20
431.85	6221.14
432.03	6225.82
432.22	6197.74
432.41	6216.46
432.60	6160.29
432.79	6211.78
432.97	6370.94
433.16	6340.51
433.35	6174.33
433.54	6237.53
433.72	6429.45
433.91	6235.19
434.10	6326.47
434.28	6406.05
434.47	6452.86
434.66	6586.27
434.85	6612.01
435.03	6754.79
435.22	6700.95
435.41	6981.82
435.59	6951.39
435.78	6794.58
435.97	6848.41
436.16	6640.10
436.34	6761.81
436.53	6808.62
436.72	6857.77
436.90	6614.35
437.09	6817.98
437.28	6649.46
437.46	6902.24
437.65	7002.88
437.84	6899.90
438.02	7012.24
438.21	7023.95
438.40	6965.43
438.58	7096.50
438.77	7365.67
438.96	7253.32
439.14	7466.31
439.33	7480.35
439.52	7487.37
439.70	7344.60
439.89	7506.10
440.08	7604.40
440.26	7681.64
440.45	7651.21
440.63	7749.51
440.82	7894.63
441.01	7742.49
441.19	7719.09
441.38	7941.44
441.57	7976.55
441.75	8030.38
441.94	8116.98
442.12	8095.91
442.31	8358.05
442.50	8168.47
442.68	8187.19
442.87	8184.85
443.05	8201.24
443.24	8301.88
443.43	8493.80
443.61	8409.54
443.80	8826.16
443.98	8404.86
444.17	8039.74
444.35	8297.20
444.54	8549.98
444.73	8542.96
444.91	8454.02
445.10	8606.15
445.28	8512.53
445.47	8540.61
445.65	8454.02
445.84	8851.91
446.02	8671.68
446.21	8800.41
446.39	8594.45
446.58	8674.03
446.77	8594.45
446.95	8674.03
447.14	8833.18
447.32	8791.05
447.51	8828.50
447.69	8716.16
447.88	8659.98
448.06	8758.28
448.25	8812.12
448.43	8819.14
448.62	8917.44
448.80	8837.86
448.99	8901.06
449.17	8980.64
449.36	8795.73
449.54	9006.38
449.73	9102.34
449.91	9039.15
450.10	9287.25
450.28	9336.40
450.46	9383.21
450.65	9387.89
450.83	9212.35
451.02	9315.33
451.20	9626.62
451.39	9252.14
451.57	9322.35
451.76	9228.73
451.94	9369.16
452.13	9432.36
452.31	9530.66
452.49	9579.81
452.68	9434.70
452.86	9542.36
453.05	9839.61
453.23	9785.78
453.42	9633.64
453.60	9490.87
453.78	9724.93
453.97	9586.83
454.15	9788.12
454.34	9479.17
454.52	9736.63
454.70	9799.82
454.89	9956.64
455.07	9940.26
455.26	9827.91
455.44	10286.65
455.62	10111.11
455.81	9914.51
455.99	10239.84
456.17	10258.57
456.36	10115.80
456.54	10303.04
456.73	10450.49
456.91	10574.54
457.09	10518.37
457.28	10705.61
457.46	10469.22
457.64	10445.81
457.83	10562.84
458.01	10600.29
458.19	10949.03
458.38	10780.51
458.56	10963.07
458.74	10803.91
458.93	10867.11
459.11	10871.79
459.29	11124.57
459.48	10939.66
459.66	11023.92
459.84	10974.77
460.03	10977.11
460.21	11288.40
460.39	11215.85
460.57	11283.72
460.76	11255.64
460.94	11442.88
461.12	11438.20
461.31	11367.98
461.49	11377.34
461.67	11311.81
461.85	11791.62
462.04	11405.43
462.22	11887.58
462.40	11840.77
462.59	11662.89
462.77	11838.43
462.95	11576.29
463.13	11871.20
463.32	11721.40
463.50	12100.57
463.68	11892.26
463.86	12002.27
464.05	11747.15
464.23	11700.34
464.41	12140.36
464.59	11824.39
464.78	12255.04
464.96	12140.36
465.14	12002.27
465.32	12168.45
465.50	12236.32
465.69	12397.82
465.87	12219.94
466.05	12119.29
466.23	12329.94
466.41	12425.90
466.60	12816.77
466.78	12446.97
466.96	12528.89
467.14	12418.88
467.32	12592.08
467.51	12648.26
467.69	12229.30
467.87	12814.43
468.05	12411.86
468.23	12669.32
468.41	12704.43
468.60	12795.71
468.78	12805.07
468.96	12760.60
469.14	13142.11
469.32	13153.81
469.50	12734.85
469.69	13167.85
469.87	13097.64
470.05	13284.88
470.23	13256.79
470.41	13397.23
470.59	13413.61
470.77	13474.46
470.95	13184.24
471.14	13589.15
471.32	13022.74
471.50	13415.95
471.68	13825.54
471.86	13448.72
472.04	13921.51
472.22	14190.67
472.40	13715.54
472.58	14310.04
472.77	13891.08
472.95	14291.31
473.13	14628.35
473.31	14132.15
473.49	14431.74
473.67	14401.32
473.85	14513.66
474.03	14927.94
474.21	14562.81
474.39	14909.21
474.57	14810.91
474.75	14913.89
474.93	14932.62
475.12	14993.47
475.30	15246.25
475.48	15108.16
475.66	15288.38
475.84	15234.55
476.02	15541.16
476.20	15477.96
476.38	15812.66
476.56	15903.94
476.74	16060.76
476.92	15953.09
477.10	16037.35
477.28	16561.63
477.46	16460.99
477.64	16119.27
477.82	16662.27
478.00	17015.69
478.18	16528.86
478.36	17226.34
478.54	17434.65
478.72	17156.13
478.90	17448.69
479.08	17303.58
479.26	17743.60
479.44	17867.65
479.62	18085.32
479.80	17895.74
479.98	18302.99
480.16	18724.29
480.34	18480.87
480.52	18824.93
480.70	18487.89
480.88	18647.05
481.06	18881.10
481.24	18874.08
481.41	18986.43
481.59	19618.37
481.77	19571.56
481.95	19606.67
482.13	19742.42
482.31	19761.14
482.49	20219.89
482.67	20519.48
482.85	20334.57
483.03	20877.58
483.21	20865.88
483.39	21193.55
483.57	21135.04
483.74	21123.33
483.92	21589.10
484.10	21390.16
484.28	21696.77
484.46	22108.70
484.64	22490.21
484.82	21905.07
485.00	22136.79
485.18	22675.11
485.35	23094.07
485.53	22808.52
485.71	23391.31
485.89	23482.59
486.07	23506.00
486.25	23442.81
486.43	23531.75
486.61	23974.11
486.78	24177.73
486.96	24203.48
487.14	24964.15
487.32	24467.96
487.50	25029.69
487.68	24851.81
487.85	25666.31
488.03	25830.15
488.21	26263.15
488.39	25834.83
488.57	26162.51
488.75	26284.22
488.92	26265.49
489.10	26473.80
489.28	26974.67
489.46	27171.28
489.64	27124.47
489.81	27248.52
489.99	27800.88
490.17	27709.60
490.35	28126.22
490.53	28236.22
490.70	28437.51
490.88	28119.20
491.06	28753.48
491.24	29083.50
491.41	29067.11
491.59	29153.71
491.77	29216.91
491.95	29640.54
492.13	29579.69
492.30	29439.26
492.48	29748.21
492.66	30087.59
492.84	30328.66
493.01	30501.86
493.19	30553.35
493.37	31178.28
493.54	31065.93
493.72	31267.22
493.90	31543.40
494.08	31665.11
494.25	31814.90
494.43	32025.55
494.61	32313.44
494.79	32105.13
494.96	31805.54
495.14	32439.82
495.32	32964.10
495.49	33010.92
495.67	33266.03
495.85	33528.17
496.02	33457.96
496.20	33352.63
496.38	33546.90
496.55	34022.03
496.73	34483.11
496.91	34527.58
497.09	34899.73
497.26	34976.97
497.44	34892.71
497.62	34773.34
497.79	35007.39
497.97	35456.78
498.14	35747.00
498.32	36062.97
498.50	36018.50
498.67	35761.05
498.85	36421.08
499.03	36332.14
499.20	36226.81
499.38	36734.71
499.56	36442.14
499.73	36737.05
499.91	37024.93
500.08	37450.91
500.26	36884.50
500.44	37539.85
500.61	37600.71
500.79	37820.72
500.97	37834.76
501.14	38382.45
501.32	38433.94
501.49	38132.01
501.67	38305.21
501.84	38672.67
502.02	38742.89
502.20	39044.82
502.37	38836.51
502.55	38745.23
502.72	38883.32
502.90	39711.87
503.07	39459.09
503.25	39597.18
503.43	38848.21
503.60	39428.66
503.78	40304.02
503.95	40039.54
504.13	40158.91
504.30	40488.93
504.48	40020.82
504.65	40854.05
504.83	40971.08
505.01	41244.92
505.18	40947.67
505.36	41429.82
505.53	41001.50
505.71	41471.95
505.88	41638.13
506.06	41794.95
506.23	41818.35
506.41	41635.79
506.58	41785.58
506.76	41785.58
506.93	41958.78
507.11	41979.85
507.28	42117.94
507.46	42160.07
507.63	42686.69
507.81	43105.65
507.98	42082.83
508.16	42651.58
508.33	43049.47
508.50	43264.80
508.68	43412.26
508.85	43377.15
509.03	43688.44
509.20	43622.90
509.38	44053.56
509.55	44027.82
509.73	44105.06
509.90	44343.79
510.08	44301.66
510.25	44233.78
510.42	44435.07
510.60	44552.10
510.77	44697.21
510.95	44821.26
511.12	44952.33
511.30	45022.54
511.47	45317.45
511.64	45326.81
511.82	45495.33
511.99	45263.62
512.17	45275.32
512.34	45710.66
512.51	45635.77
512.69	46340.27
512.86	46106.21
513.04	46050.04
513.21	46302.82
513.38	46492.40
513.56	46476.02
513.73	46684.33
513.90	46461.97
514.08	46777.95
514.25	47075.19
514.43	47079.88
514.60	46887.95
514.77	47311.59
514.95	47107.96
515.12	46855.18
515.29	47257.76
515.47	47571.39
515.64	48411.64
515.81	47374.78
515.99	47665.01
516.16	47875.66
516.33	48048.86
516.51	48172.91
516.68	48472.49
516.85	48341.42
517.03	48299.30
517.20	48690.16
517.37	48451.43
517.54	48261.85
517.72	48954.64
517.89	48428.02
518.06	48978.05
518.24	49125.50
518.41	49191.04
518.58	49052.95
518.75	49083.37
518.93	49385.30
519.10	48835.28
519.27	49062.31
519.45	49935.33
519.62	49701.28
519.79	49659.15
519.96	49551.48
520.14	49574.89
520.31	49600.63
520.48	50157.68
520.65	49757.45
520.83	50195.13
521.00	50239.60
521.17	50447.91
521.34	50141.30
521.52	50560.25
521.69	50735.79
521.86	50658.56
522.03	50625.79
522.20	50768.56
522.38	51016.66
522.55	51217.94
522.72	50630.47
522.89	51091.55
523.07	51297.52
523.24	51187.52
523.41	51262.41
523.58	51367.74
523.75	51491.79
523.92	51948.19
524.10	51461.36
524.27	51501.15
524.44	51718.82
524.61	52039.47
524.78	51435.61
524.96	52067.56
525.13	51721.16
525.30	52416.30
525.47	52339.06
525.64	51859.25
525.81	51943.51
525.98	52701.84
526.16	52135.43
526.33	52577.79
526.50	52924.19
526.67	52161.18
526.84	52772.06
527.01	52781.42
527.18	52758.02
527.36	52931.22
527.53	52832.91
527.70	53027.18
527.87	53029.52
528.04	52853.98
528.21	53221.44
528.38	53350.17
528.55	53286.98
528.72	53146.54
528.89	53043.56
529.07	53432.09
529.24	53132.50
529.41	53537.41
529.58	53565.50
529.75	53797.21
529.92	53804.24
530.09	53687.21
530.26	53869.77
530.43	53829.98
530.60	53514.01
530.77	53708.27
530.94	54176.38
531.11	54017.22
531.28	53961.05
531.46	53972.75
531.63	54040.63
531.80	53944.67
531.97	54115.53
532.14	53996.16
532.31	54356.60
532.48	54534.48
532.65	54321.49
532.82	54202.13
532.99	54447.88
533.16	54239.57
533.33	54258.30
533.50	54555.55
533.67	54632.78
533.84	54623.42
534.01	54597.68
534.18	54686.62
534.35	55131.32
534.52	54915.99
534.69	54841.09
534.86	54859.82
535.03	54525.12
535.20	54946.42
535.37	55002.59
535.54	54986.21
535.71	55079.83
535.88	55325.58
536.05	55185.15
536.22	55255.37
536.38	55192.17
536.55	55330.26
536.72	55234.30
536.89	55449.63
537.06	55451.97
537.23	55845.18
537.40	55428.57
537.57	55884.97
537.74	55756.24
537.91	55578.36
538.08	55536.23
538.25	55622.83
538.42	56142.43
538.59	55917.74
538.75	55908.38
538.92	56044.13
539.09	56109.66
539.26	56081.58
539.43	56030.08
539.60	56081.58
539.77	56020.72
539.94	56460.74
540.11	56226.69
540.28	56161.15
540.44	56172.86
540.61	56140.09
540.78	56404.57
540.95	56306.27
541.12	56378.82
541.29	56348.40
541.46	56596.49
541.62	56561.39
541.79	57043.54
541.96	56327.33
542.13	56645.65
542.30	56636.28
542.47	56769.69
542.63	56790.76
542.80	56982.68
542.97	57071.62
543.14	57275.25
543.31	57249.50
543.48	57071.62
543.64	57207.37
543.81	57366.53
543.98	57251.84
544.15	57380.57
544.32	57450.79
544.48	57455.47
544.65	57331.42
544.82	57382.91
544.99	57188.65
545.16	57268.23
545.32	57504.62
545.49	57696.55
545.66	57897.83
545.83	57708.25
546.00	57998.48
546.16	57745.70
546.33	57729.31
546.50	57666.12
546.67	57719.95
546.83	57359.51
547.00	57469.51
547.17	57628.67
547.34	57584.20
547.50	57834.64
547.67	58351.90
547.84	58211.46
548.00	58017.20
548.17	58204.44
548.34	57928.26
548.51	58054.65
548.67	58206.78
548.84	58178.70
549.01	57963.37
549.18	58010.18
549.34	57984.43
549.51	58138.91
549.68	58178.70
549.84	58148.27
550.01	58138.91
550.18	57883.79
550.34	58019.54
550.51	58340.19
550.68	58316.79
550.84	58185.72
551.01	58485.31
551.18	58220.83
551.34	58003.16
551.51	58466.58
551.68	58445.52
551.84	58518.07
552.01	58363.60
552.18	58482.97
552.34	58501.69
552.51	58700.64
552.68	58501.69
552.84	58569.57
553.01	58731.06
553.18	58745.11
553.34	58712.34
553.51	58599.99
553.67	58578.93
553.84	58752.13
554.01	58965.12
554.17	58883.20
554.34	58834.05
554.51	58908.94
554.67	58848.09
554.84	58820.00
555.00	58621.06
555.17	58639.78
555.33	58852.77
555.50	59070.44
555.67	58955.75
555.83	58937.03
556.00	59063.42
556.16	59032.99
556.33	59107.89
556.50	58925.33
556.66	59065.76
556.83	58918.31
556.99	59337.26
557.16	59374.71
557.32	59344.28
557.49	59355.99
557.65	59145.34
557.82	59253.00
557.98	59250.66
558.15	59077.46
558.32	59409.82
558.48	59274.07
558.65	59522.16
558.81	59238.96
558.98	59566.63
559.14	59456.63
559.31	59503.44
559.47	59419.18
559.64	59341.94
559.80	59475.35
559.97	59494.08
560.13	59297.47
560.30	59384.07
560.46	59660.26
560.63	59674.30
560.79	59714.09
560.96	59941.12
561.12	59339.60
561.29	59625.15
561.45	59772.60
561.61	59629.83
561.78	59856.86
561.94	59693.02
562.11	60062.83
562.27	59971.55
562.44	59765.58
562.60	59786.64
562.77	59767.92
562.93	59716.43
563.10	59983.25
563.26	59604.08
563.42	59945.80
563.59	59845.16
563.75	59700.04
563.92	59955.16
564.08	59847.50
564.24	59964.52
564.41	59688.34
564.57	59800.69
564.74	59828.77
564.90	60060.49
565.07	59906.01
565.23	60233.69
565.39	60013.68
565.56	60315.61
565.72	59985.59
565.88	60367.10
566.05	60041.76
566.21	59927.08
566.38	59866.22
566.54	60001.97
566.70	60348.37
566.87	60252.41
567.03	60207.94
567.19	60598.81
567.36	60198.58
567.52	60179.85
567.68	60114.32
567.85	60055.81
568.01	60285.18
568.17	60336.67
568.34	60149.43
568.50	60383.48
568.66	60306.24
568.83	60245.39
568.99	60065.17
569.15	60273.48
569.32	60034.74
569.48	60114.32
569.64	60303.90
569.81	60182.19
569.97	60163.47
570.13	60470.08
570.30	60243.05
570.46	60299.22
570.62	60336.67
570.78	60044.10
570.95	60140.07
571.11	60350.71
571.27	60238.37
571.43	60165.81
571.60	60257.09
571.76	60250.07
571.92	60507.53
572.09	60610.51
572.25	60547.32
572.41	60439.65
572.57	60479.44
572.74	60746.26
572.90	60434.97
573.06	60397.52
573.22	60334.33
573.38	60266.45
573.55	60491.15
573.71	60839.89
573.87	60603.49
574.03	60652.64
574.20	60575.40
574.36	60406.89
574.52	60505.19
574.68	60453.70
574.84	60755.63
575.01	60711.16
575.17	60741.58
575.33	60736.90
575.49	60556.68
575.65	60701.79
575.82	60722.86
575.98	60509.87
576.14	60706.47
576.30	60619.88
576.46	60631.58
576.62	60308.58
576.79	60280.50
576.95	60596.47
577.11	60587.11
577.27	60772.01
577.43	60528.59
577.59	60708.82
577.75	60535.62
577.92	60575.40
578.08	60849.25
578.24	60598.81
578.40	60566.04
578.56	60629.24
578.72	60491.15
578.88	60870.31
579.04	60851.59
579.21	60846.91
579.37	60706.47
579.53	60975.64
579.69	60734.56
579.85	60729.88
580.01	60872.65
580.17	60680.73
580.33	60795.42
580.49	60851.59
580.65	60779.03
580.82	60669.03
580.98	60926.49
581.14	60877.33
581.30	60863.29
581.46	60821.16
581.62	60706.47
581.78	60711.16
581.94	61003.72
582.10	60732.22
582.26	60917.12
582.42	60439.65
582.58	60999.04
582.74	60910.10
582.90	60870.31
583.06	60764.99
583.22	60690.09
583.38	60921.80
583.54	60678.39
583.70	60713.50
583.86	60896.06
584.02	60818.82
584.18	61162.88
584.34	60753.29
584.50	60982.66
584.66	60760.31
584.82	60683.07
584.98	60903.08
585.14	60907.76
585.30	60788.39
585.46	60931.17
585.62	60800.10
585.78	60959.25
585.94	60870.31
586.10	60870.31
586.26	61073.94
586.42	61001.38
586.58	61080.96
586.74	60783.71
586.90	60856.27
587.06	60788.39
587.22	61207.35
587.38	60884.36
587.54	61223.73
587.70	61263.52
587.86	61144.16
588.02	61141.81
