SpectraSuite Data File
++++++++++++++++++++++++++++++++++++
Date: Thu Oct 24 13:21:06 EDT 2013
User: stostad
Dark Spectrum Present: No
Reference Spectrum Present: No
Number of Sampled Component Spectra: 1
Spectrometers: USB2+H05261
Integration Time (usec): 100000 (USB2+H05261)
Spectra Averaged: 1 (USB2+H05261)
Boxcar Smoothing: 0 (USB2+H05261)
Correct for Electrical Dark: No (USB2+H05261)
Strobe/Lamp Enabled: No (USB2+H05261)
Correct for Detector Non-linearity: No (USB2+H05261)
Correct for Stray Light: No (USB2+H05261)
Number of Pixels in Processed Spectrum: 2048
>>>>>Begin Processed Spectral Data<<<<<
365.73	592.16
365.92	592.16
366.12	592.16
366.32	493.85
366.52	451.72
366.72	512.58
366.91	418.96
367.11	393.21
367.31	414.27
367.51	433.00
367.70	442.36
367.90	444.70
368.10	526.62
368.30	486.83
368.49	435.34
368.69	437.68
368.89	540.66
369.09	550.03
369.28	435.34
369.48	477.47
369.68	498.53
369.87	545.34
370.07	510.24
370.27	519.60
370.47	571.09
370.66	676.41
370.86	716.20
371.06	744.29
371.25	690.46
371.45	744.29
371.65	763.01
371.84	706.84
372.04	753.65
372.24	793.44
372.44	702.16
372.63	784.08
372.83	737.27
373.03	732.59
373.22	704.50
373.42	812.17
373.62	814.51
373.81	800.46
374.01	765.36
374.21	760.67
374.40	779.40
374.60	772.38
374.79	819.19
374.99	772.38
375.19	882.38
375.38	877.70
375.58	777.06
375.78	861.32
375.97	800.46
376.17	863.66
376.37	791.10
376.56	842.59
376.76	868.34
376.95	765.36
377.15	905.79
377.35	798.12
377.54	802.80
377.74	800.46
377.93	807.48
378.13	854.30
378.33	849.61
378.52	812.17
378.72	830.89
378.91	798.12
379.11	842.59
379.31	851.96
379.50	819.19
379.70	837.91
379.89	830.89
380.09	870.68
380.28	880.04
380.48	915.15
380.68	858.98
380.87	903.45
381.07	875.36
381.26	875.36
381.46	830.89
381.65	959.62
381.85	873.02
382.04	772.38
382.24	875.36
382.43	800.46
382.63	856.64
382.83	926.85
383.02	884.72
383.22	912.81
383.41	910.47
383.61	875.36
383.80	968.98
384.00	917.49
384.19	894.08
384.39	901.11
384.58	823.87
384.78	912.81
384.97	945.58
385.17	896.43
385.36	896.43
385.56	854.30
385.75	919.83
385.95	931.53
386.14	950.26
386.34	961.96
386.53	919.83
386.72	919.83
386.92	856.64
387.11	938.55
387.31	1053.24
387.50	938.55
387.70	912.81
387.89	954.94
388.09	964.30
388.28	968.98
388.48	924.51
388.67	1015.79
388.86	910.47
389.06	976.00
389.25	940.90
389.45	936.21
389.64	1071.97
389.84	1015.79
390.03	987.71
390.22	1041.54
390.42	959.62
390.61	971.32
390.81	973.66
391.00	1013.45
391.19	936.21
391.39	997.07
391.58	1004.09
391.78	1006.43
391.97	1025.15
392.16	1041.54
392.36	1055.58
392.55	1032.18
392.75	1114.10
392.94	1076.65
393.13	1029.84
393.33	1043.88
393.52	1109.41
393.71	1027.50
393.91	1076.65
394.10	1015.79
394.29	1029.84
394.49	1083.67
394.68	1083.67
394.88	1104.73
395.07	1078.99
395.26	1088.35
395.46	1156.22
395.65	1083.67
395.84	1153.88
396.04	1137.50
396.23	1111.75
396.42	1118.78
396.62	1090.69
396.81	1146.86
397.00	1090.69
397.19	1163.25
397.39	1135.16
397.58	1139.84
397.77	1200.69
397.97	1177.29
398.16	1158.57
398.35	1165.59
398.55	1231.12
398.74	1210.06
398.93	1289.64
399.12	1214.74
399.32	1181.97
399.51	1200.69
399.70	1170.27
399.90	1172.61
400.09	1167.93
400.28	1249.85
400.47	1128.14
400.67	1270.91
400.86	1252.19
401.05	1268.57
401.24	1254.53
401.44	1282.61
401.63	1306.02
401.82	1256.87
402.01	1226.44
402.21	1306.02
402.40	1235.80
402.59	1280.27
402.78	1322.40
402.97	1315.38
403.17	1301.34
403.36	1270.91
403.55	1191.33
403.74	1380.92
403.93	1439.43
404.13	1397.30
404.32	1352.83
404.51	1322.40
404.70	1437.09
404.89	1394.96
405.09	1378.58
405.28	1380.92
405.47	1310.70
405.66	1469.86
405.85	1434.75
406.05	1371.55
406.24	1380.92
406.43	1469.86
406.62	1497.94
406.81	1481.56
407.00	1526.03
407.20	1406.66
407.39	1392.62
407.58	1514.33
407.77	1472.20
407.96	1411.34
408.15	1530.71
408.34	1516.67
408.54	1514.33
408.73	1514.33
408.92	1495.60
409.11	1575.18
409.30	1458.15
409.49	1526.03
409.68	1523.69
409.87	1511.99
410.07	1638.38
410.26	1549.43
410.45	1600.93
410.64	1586.88
410.83	1614.97
411.02	1558.80
411.21	1554.12
411.40	1610.29
411.59	1657.10
411.78	1675.82
411.98	1678.16
412.17	1767.10
412.36	1708.59
412.55	1722.63
412.74	1673.48
412.93	1708.59
413.12	1732.00
413.31	1902.86
413.50	1846.68
413.69	1820.94
413.88	1844.34
414.07	1734.34
414.26	1837.32
414.45	1844.34
414.64	1865.41
414.83	1839.66
415.02	1907.54
415.22	1919.24
415.41	1919.24
415.60	1809.23
415.79	2015.20
415.98	1975.41
416.17	1949.67
416.36	1905.20
416.55	1996.48
416.74	1996.48
416.93	1949.67
417.12	1952.01
417.31	2012.86
417.50	2057.33
417.69	2078.40
417.88	2005.84
418.07	2050.31
418.26	2029.24
418.45	2047.97
418.64	2141.59
418.83	2008.18
419.02	2214.15
419.21	2174.36
419.39	2263.30
419.58	2073.71
419.77	2085.42
419.96	2272.66
420.15	2183.72
420.34	2176.70
420.53	2202.44
420.72	2146.27
420.91	2275.00
421.10	2211.81
421.29	2225.85
421.48	2218.83
421.67	2193.08
421.86	2249.25
422.05	2317.13
422.24	2298.41
422.43	2265.64
422.61	2232.87
422.80	2328.83
422.99	2246.91
423.18	2197.76
423.37	2408.41
423.56	2342.88
423.75	2319.47
423.94	2181.38
424.13	2108.82
424.32	2265.64
424.50	2314.79
424.69	2303.09
424.88	2356.92
425.07	2340.54
425.26	2296.07
425.45	2286.70
425.64	2291.38
425.83	2265.64
426.01	2303.09
426.20	2284.36
426.39	2382.67
426.58	2321.81
426.77	2298.41
426.96	2370.96
427.15	2399.05
427.33	2377.98
427.52	2401.39
427.71	2385.01
427.90	2265.64
428.09	2347.56
428.28	2443.52
428.46	2427.14
428.65	2443.52
428.84	2429.48
429.03	2480.97
429.22	2469.27
429.40	2441.18
429.59	2478.63
429.78	2462.24
429.97	2394.37
430.16	2443.52
430.34	2513.74
430.53	2586.29
430.72	2466.92
430.91	2436.50
431.10	2438.84
431.28	2523.10
431.47	2663.53
431.66	2619.06
431.85	2476.29
432.03	2558.21
432.22	2644.81
432.41	2583.95
432.60	2574.59
432.79	2621.40
432.97	2705.66
433.16	2684.59
433.35	2609.70
433.54	2710.34
433.72	2726.72
433.91	2546.50
434.10	2663.53
434.28	2644.81
434.47	2782.90
434.66	2740.77
434.85	2855.45
435.03	2918.65
435.22	2977.16
435.41	3187.81
435.59	3159.72
435.78	3019.29
435.97	2986.52
436.16	2906.95
436.34	2794.60
436.53	2867.16
436.72	2951.42
436.90	2850.77
437.09	2850.77
437.28	2925.67
437.46	2883.54
437.65	2860.13
437.84	2930.35
438.02	2883.54
438.21	2878.86
438.40	2995.89
438.58	3073.12
438.77	3070.78
438.96	3049.72
439.14	2984.18
439.33	3091.85
439.52	3007.59
439.70	3234.62
439.89	3115.25
440.08	3091.85
440.26	3049.72
440.45	3138.66
440.63	3178.45
440.82	3325.90
441.01	3180.79
441.19	3227.60
441.38	3159.72
441.57	3295.47
441.75	3246.32
441.94	3274.41
442.12	3314.20
442.31	3265.05
442.50	3265.05
442.68	3316.54
442.87	3361.01
443.05	3407.82
443.24	3501.44
443.43	3375.05
443.61	3447.61
443.80	3524.85
443.98	3332.92
444.17	3180.79
444.35	3304.84
444.54	3510.80
444.73	3419.52
444.91	3372.71
445.10	3485.06
445.28	3382.07
445.47	3393.78
445.65	3417.18
445.84	3431.23
446.02	3597.40
446.21	3524.85
446.39	3363.35
446.58	3480.38
446.77	3391.44
446.95	3368.03
447.14	3487.40
447.32	3595.06
447.51	3569.32
447.69	3419.52
447.88	3602.08
448.06	3510.80
448.25	3522.51
448.43	3566.98
448.62	3552.93
448.80	3545.91
448.99	3527.19
449.17	3590.38
449.36	3581.02
449.54	3581.02
449.73	3496.76
449.91	3613.79
450.10	3700.39
450.28	3613.79
450.46	3667.62
450.65	3695.71
450.83	3639.53
451.02	3641.87
451.20	3602.08
451.39	3749.54
451.57	3669.96
451.76	3658.26
451.94	3712.09
452.13	3693.37
452.31	3794.01
452.49	3712.09
452.68	3864.22
452.86	3735.50
453.05	3995.29
453.23	3948.48
453.42	3768.26
453.60	3662.94
453.78	3768.26
453.97	3831.46
454.15	3779.97
454.34	3747.20
454.52	3934.44
454.70	3845.50
454.89	3911.04
455.07	3943.80
455.26	4028.06
455.44	4049.13
455.62	4042.11
455.81	4065.51
455.99	4119.34
456.17	3995.29
456.36	4002.32
456.54	4102.96
456.73	4152.11
456.91	4093.60
457.09	4245.73
457.28	4222.33
457.46	4124.02
457.64	4191.90
457.83	4184.88
458.01	4262.12
458.19	4304.25
458.38	4117.00
458.56	4285.52
458.74	4299.56
458.93	4334.67
459.11	4369.78
459.29	4215.30
459.48	4224.67
459.66	4201.26
459.84	4229.35
460.03	4475.10
460.21	4313.61
460.39	4376.80
460.57	4353.40
460.76	4416.59
460.94	4510.21
461.12	4421.27
461.31	4414.25
461.49	4400.21
461.67	4447.02
461.85	4503.19
462.04	4489.15
462.22	4835.55
462.40	4521.92
462.59	4519.57
462.77	4407.23
462.95	4610.86
463.13	4734.90
463.32	4465.74
463.50	4514.89
463.68	4660.01
463.86	4477.44
464.05	4559.36
464.23	4582.77
464.41	4575.75
464.59	4540.64
464.78	4564.04
464.96	4645.96
465.14	4634.26
465.32	4657.67
465.50	4751.29
465.69	4692.77
465.87	4697.46
466.05	4746.61
466.23	4720.86
466.41	4858.95
466.60	4800.44
466.78	4802.78
466.96	4802.78
467.14	4662.35
467.32	4901.08
467.51	4734.90
467.69	4660.01
467.87	4774.69
468.05	4777.03
468.23	4908.10
468.41	4877.68
468.60	4828.53
468.78	4919.81
468.96	4681.07
469.14	4779.37
469.32	5015.77
469.50	4858.95
469.69	4863.63
469.87	4964.28
470.05	4994.70
470.23	4987.68
470.41	4968.96
470.59	5022.79
470.77	4994.70
470.95	5029.81
471.14	5156.20
471.32	5118.75
471.50	5212.37
471.68	5200.67
471.86	5242.80
472.04	5287.27
472.22	5404.30
472.40	5238.12
472.58	5226.42
472.77	5111.73
472.95	5408.98
473.13	5493.24
473.31	5345.78
473.49	5256.84
473.67	5254.50
473.85	5408.98
474.03	5509.62
474.21	5533.03
474.39	5542.39
474.57	5547.07
474.75	5668.78
474.93	5633.67
475.12	5633.67
475.30	5563.45
475.48	5652.39
475.66	5680.48
475.84	5647.71
476.02	5760.06
476.20	5645.37
476.38	5853.68
476.56	6001.13
476.74	6115.82
476.92	5715.59
477.10	5753.04
477.28	5949.64
477.46	6094.76
477.64	6052.63
477.82	6160.29
478.00	6188.38
478.18	6237.53
478.36	6171.99
478.54	6361.58
478.72	6485.62
478.90	6471.58
479.08	6293.70
479.26	6487.96
479.44	6541.80
479.62	6349.87
479.80	6644.78
479.98	6715.00
480.16	6820.32
480.34	6750.10
480.52	6825.00
480.70	6841.39
480.88	6649.46
481.06	6883.52
481.24	6911.60
481.41	6848.41
481.59	7171.40
481.77	7082.46
481.95	7117.57
482.13	7103.53
482.31	7117.57
482.49	7351.62
482.67	7283.75
482.85	7417.16
483.03	7625.47
483.21	7613.76
483.39	7789.30
483.57	7414.82
483.74	7971.86
483.92	7847.82
484.10	7719.09
484.28	7808.03
484.46	7864.20
484.64	8271.45
484.82	7817.39
485.00	8030.38
485.18	8201.24
485.35	8238.69
485.53	8327.63
485.71	8463.38
485.89	8407.20
486.07	8432.95
486.25	8365.07
486.43	8603.81
486.61	8542.96
486.78	8482.10
486.96	8716.16
487.14	8800.41
487.32	8779.35
487.50	8872.97
487.68	8950.21
487.85	9181.92
488.03	9210.01
488.21	9074.26
488.39	9226.39
488.57	9327.03
488.75	9479.17
488.92	9415.98
489.10	9376.19
489.28	9472.15
489.46	9652.37
489.64	9638.33
489.81	9844.29
489.99	9652.37
490.17	9680.46
490.35	9996.43
490.53	9970.68
490.70	10113.45
490.88	10106.43
491.06	10136.86
491.24	10307.72
491.41	10363.89
491.59	10408.36
491.77	10326.44
491.95	10464.54
492.13	10455.17
492.30	10626.03
492.48	10532.41
492.66	10724.33
492.84	10506.66
493.01	10874.13
493.19	10698.59
493.37	10780.51
493.54	10939.66
493.72	10949.03
493.90	10939.66
494.08	11026.26
494.25	11178.40
494.43	11293.08
494.61	11358.62
494.79	11248.61
494.96	11215.85
495.14	11398.41
495.32	11449.90
495.49	11538.84
495.67	11690.98
495.85	11435.86
496.02	11667.57
496.20	11705.02
496.38	11899.28
496.55	11873.54
496.73	11971.84
496.91	11943.75
497.09	12142.70
497.26	12063.12
497.44	12053.76
497.62	12166.10
497.79	12512.50
497.97	12395.48
498.14	12423.56
498.32	12360.37
498.50	12592.08
498.67	12706.77
498.85	12627.19
499.03	12821.45
499.20	12734.85
499.38	12615.49
499.56	12732.51
499.73	12819.11
499.91	12772.30
500.08	13020.40
500.26	13057.85
500.44	13057.85
500.61	12994.65
500.79	13092.96
500.97	13125.72
501.14	13191.26
501.32	13327.01
501.49	13282.54
501.67	13242.75
501.84	13516.59
502.02	13521.27
502.20	13327.01
502.37	13610.22
502.55	13502.55
502.72	13385.52
502.90	13699.16
503.07	13694.47
503.25	13862.99
503.43	13469.78
503.60	13614.90
503.78	13963.64
503.95	13783.41
504.13	14017.47
504.30	14031.51
504.48	13792.78
504.65	13830.23
504.83	14127.47
505.01	14008.11
505.18	14026.83
505.36	14368.55
505.53	14101.73
505.71	14235.14
505.88	14487.92
506.06	14387.27
506.23	14483.24
506.41	14349.82
506.58	14588.56
506.76	14450.47
506.93	14740.69
507.11	14693.88
507.28	14794.53
507.46	14766.44
507.63	14773.46
507.81	14902.19
507.98	14794.53
508.16	14649.41
508.33	14897.51
508.50	14820.27
508.68	15080.07
508.85	15089.43
509.03	15281.36
509.20	14785.16
509.38	15154.97
509.55	15070.71
509.73	15382.00
509.90	15431.15
510.08	15517.75
510.25	15653.50
510.42	15243.91
510.60	15407.75
510.77	15529.45
510.95	15702.65
511.12	15545.84
511.30	15550.52
511.47	15676.91
511.64	15915.64
511.82	16042.03
511.99	15751.81
512.17	15807.98
512.34	15784.57
512.51	15941.39
512.69	15946.07
512.86	16177.78
513.04	16074.80
513.21	16168.42
513.38	16030.33
513.56	16161.40
513.73	16025.65
513.90	16339.28
514.08	16248.00
514.25	16358.00
514.43	16360.34
514.60	16318.22
514.77	16390.77
514.95	16374.39
515.12	16346.30
515.29	16669.30
515.47	16634.19
515.64	16791.00
515.81	16585.04
515.99	16610.78
516.16	16568.65
516.33	16760.58
516.51	16807.39
516.68	16945.48
516.85	17041.44
517.03	16767.60
517.20	17224.00
517.37	17097.61
517.54	16999.31
517.72	17041.44
517.89	16725.47
518.06	17207.62
518.24	17186.55
518.41	16999.31
518.58	17053.14
518.75	17008.67
518.93	17329.33
519.10	17036.76
519.27	17500.19
519.45	17282.52
519.62	17224.00
519.79	17479.12
519.96	17387.84
520.14	17411.25
520.31	17369.12
520.48	17619.55
520.65	17729.56
520.83	17881.69
521.00	17991.70
521.17	17799.77
521.34	17678.07
521.52	17954.25
521.69	17797.43
521.86	18101.70
522.03	17956.59
522.20	18090.00
522.38	18146.17
522.55	18251.50
522.72	18242.14
522.89	18202.35
523.07	18317.03
523.24	17771.69
523.41	17968.29
523.58	17947.23
523.75	18265.54
523.92	18326.39
524.10	18492.57
524.27	18459.81
524.44	18200.01
524.61	18780.46
524.78	18497.25
524.96	18567.47
525.13	18558.11
525.30	18621.30
525.47	18471.51
525.64	18665.77
525.81	18801.52
525.98	18759.39
526.16	18558.11
526.33	18789.82
526.50	18857.70
526.67	18614.28
526.84	19140.90
527.01	18604.92
527.18	19129.20
527.36	18771.10
527.53	18796.84
527.70	19431.13
527.87	18941.96
528.04	18946.64
528.21	19035.58
528.38	19042.60
528.55	19274.31
528.72	19035.58
528.89	19201.76
529.07	19115.16
529.24	19068.34
529.41	19264.95
529.58	19452.19
529.75	19286.01
529.92	19557.52
530.09	19480.28
530.26	19227.50
530.43	19482.62
530.60	19157.28
530.77	19381.98
530.94	19491.98
531.11	19398.36
531.28	19964.77
531.46	19810.29
531.63	19613.69
531.80	19482.62
531.97	19833.70
532.14	19817.32
532.31	19555.18
532.48	19704.97
532.65	19833.70
532.82	20037.33
532.99	19826.68
533.16	19695.61
533.33	19510.71
533.50	20133.29
533.67	19906.26
533.84	19676.88
534.01	19929.66
534.18	19885.19
534.35	20355.64
534.52	20060.73
534.69	20013.92
534.86	20210.53
535.03	19922.64
535.20	19873.49
535.37	20327.55
535.54	20266.70
535.71	20231.59
535.88	20463.30
536.05	20086.48
536.22	19873.49
536.38	20381.38
536.55	20601.40
536.72	20460.96
536.89	20643.52
537.06	20563.95
537.23	20500.75
537.40	20828.43
537.57	20538.20
537.74	20414.15
537.91	20575.65
538.08	20301.81
538.25	20610.76
538.42	20629.48
538.59	20741.83
538.75	20702.04
538.92	20767.57
539.09	21053.12
539.26	20870.56
539.43	20868.22
539.60	20875.24
539.77	20849.49
539.94	21415.90
540.11	21266.11
540.28	21179.51
540.44	21172.49
540.61	21111.63
540.78	20760.55
540.95	21156.10
541.12	21139.72
541.29	21411.22
541.46	21736.56
541.62	21553.99
541.79	21722.51
541.96	21790.39
542.13	21546.97
542.30	21696.77
542.47	21741.24
542.63	21710.81
542.80	21876.99
542.97	22017.42
543.14	22043.17
543.31	22127.42
543.48	22099.34
543.64	22490.21
543.81	22104.02
543.98	22120.40
544.15	21965.93
544.32	22148.49
544.48	22253.81
544.65	22003.38
544.82	22345.09
544.99	21916.78
545.16	22274.88
545.32	22148.49
545.49	23033.21
545.66	23194.71
545.83	23447.49
546.00	22867.03
546.16	23002.78
546.33	22670.43
546.50	22237.43
546.67	22735.96
546.83	22038.48
547.00	22115.72
547.17	21949.54
547.34	22192.96
547.50	22061.89
547.67	22408.29
547.84	22415.31
548.00	22628.30
548.17	22724.26
548.34	22242.11
548.51	22286.58
548.67	22370.84
548.84	22565.10
549.01	22363.82
549.18	22569.79
549.34	22288.92
549.51	22464.46
549.68	22417.65
549.84	22286.58
550.01	22281.90
550.18	22223.39
550.34	22431.69
550.51	22448.08
550.68	22551.06
550.84	22457.44
551.01	22607.23
551.18	22326.37
551.34	22211.68
551.51	22588.51
551.68	22429.35
551.84	21989.33
552.01	22647.02
552.18	22597.87
552.34	22750.01
552.51	22778.09
552.68	22534.68
552.84	22656.39
553.01	22679.79
553.18	22862.35
553.34	22838.95
553.51	22822.56
553.67	22754.69
553.84	23367.91
554.01	22941.93
554.17	22871.72
554.34	22714.90
554.51	22977.04
554.67	22916.19
554.84	22808.52
555.00	22822.56
555.17	22651.70
555.33	22775.75
555.50	22960.66
555.67	22796.82
555.83	22700.86
556.00	22829.59
556.16	23101.09
556.33	22801.50
556.50	22820.22
556.66	22820.22
556.83	22764.05
556.99	23285.99
557.16	23260.24
557.32	23229.82
557.49	23229.82
557.65	22881.08
557.82	23061.30
557.98	22726.60
558.15	23091.73
558.32	23101.09
558.48	22991.08
558.65	23152.58
558.81	23089.38
558.98	23330.46
559.14	23314.08
559.31	23108.11
559.47	23377.27
559.64	23297.69
559.80	23346.84
559.97	23442.81
560.13	22955.97
560.30	23183.01
560.46	23412.38
560.63	23241.52
560.79	23545.79
560.96	23536.43
561.12	23033.21
561.29	23550.47
561.45	23108.11
561.61	23243.86
561.78	23180.67
561.94	23250.88
562.11	23545.79
562.27	23742.39
562.44	23658.14
562.60	23625.37
562.77	23335.14
562.93	23414.72
563.10	23920.28
563.26	23388.97
563.42	23541.11
563.59	23639.41
563.75	23693.24
563.92	24013.90
564.08	23590.26
564.24	23307.05
564.41	23386.63
564.57	23419.40
564.74	23515.36
564.90	23763.46
565.07	23520.04
565.23	23592.60
565.39	23452.17
565.56	23873.46
565.72	23585.58
565.88	23683.88
566.05	23372.59
566.21	23473.23
566.38	23435.78
566.54	23920.28
566.70	23672.18
566.87	24091.13
567.03	23763.46
567.19	23943.68
567.36	23864.10
567.52	23536.43
567.68	23887.51
567.85	23564.51
568.01	23515.36
568.17	23882.83
568.34	24156.67
568.50	23754.10
568.66	23730.69
568.83	23939.00
568.99	23353.87
569.15	23908.57
569.32	23358.55
569.48	23520.04
569.64	23922.62
569.81	23875.80
569.97	23658.14
570.13	23735.37
570.30	23438.12
570.46	23831.33
570.62	23580.90
570.78	23655.79
570.95	23751.76
571.11	23690.90
571.27	23960.06
571.43	23590.26
571.60	23796.23
571.76	24056.03
571.92	23604.30
572.09	23665.16
572.25	23875.80
572.41	24231.57
572.57	24264.33
572.74	24081.77
572.90	23740.05
573.06	24159.01
573.22	24006.87
573.38	24032.62
573.55	23756.44
573.71	23728.35
573.87	23676.86
574.03	23892.19
574.20	23983.47
574.36	24149.65
574.52	23730.69
574.68	23831.33
574.84	23896.87
575.01	23639.41
575.17	24053.69
575.33	23714.31
575.49	24011.56
575.65	24175.39
575.82	23751.76
575.98	23953.04
576.14	24191.78
576.30	24404.77
576.46	23969.43
576.62	23988.15
576.79	24009.22
576.95	24032.62
577.11	24116.88
577.27	23730.69
577.43	23903.89
577.59	23899.21
577.75	23999.85
577.92	23681.54
578.08	23676.86
578.24	23793.89
578.40	24081.77
578.56	24444.56
578.72	24362.64
578.88	24456.26
579.04	24414.13
579.21	24088.79
579.37	24023.26
579.53	24053.69
579.69	23779.84
579.85	23978.79
580.01	24203.48
580.17	24271.36
580.33	24243.27
580.49	23997.51
580.65	24049.00
580.82	24114.54
580.98	23957.72
581.14	24187.10
581.30	24156.67
581.46	24320.51
581.62	23939.00
581.78	23695.58
581.94	24126.24
582.10	24074.75
582.26	24166.03
582.42	24357.96
582.58	24264.33
582.74	24308.80
582.90	24198.80
583.06	24098.16
583.22	24070.07
583.38	24177.73
583.54	24166.03
583.70	24168.37
583.86	24203.48
584.02	24086.45
584.18	24168.37
584.34	24077.09
584.50	24182.42
584.66	24081.77
584.82	23644.09
584.98	24004.53
585.14	24119.22
585.30	24163.69
585.46	23997.51
585.62	24226.89
585.78	24474.98
585.94	23953.04
586.10	24269.01
586.26	24126.24
586.42	24308.80
586.58	24397.74
586.74	24006.87
586.90	24299.44
587.06	24456.26
587.22	24655.20
587.38	24236.25
587.54	24519.45
587.70	24369.66
587.86	24184.76
588.02	24428.17
588.18	24280.72
588.34	24620.10
588.49	24341.57
588.65	24273.70
588.81	24067.73
588.97	24301.78
589.13	24074.75
589.29	24458.60
589.45	24119.22
589.61	24245.61
589.77	24430.51
589.93	24261.99
590.08	24416.47
590.24	24545.20
590.40	24301.78
590.56	24521.79
590.72	24318.17
590.88	24060.71
