SpectraSuite Data File
++++++++++++++++++++++++++++++++++++
Date: Thu Oct 24 13:21:40 EDT 2013
User: stostad
Dark Spectrum Present: No
Reference Spectrum Present: No
Number of Sampled Component Spectra: 1
Spectrometers: USB2+H05261
Integration Time (usec): 100000 (USB2+H05261)
Spectra Averaged: 1 (USB2+H05261)
Boxcar Smoothing: 0 (USB2+H05261)
Correct for Electrical Dark: No (USB2+H05261)
Strobe/Lamp Enabled: No (USB2+H05261)
Correct for Detector Non-linearity: No (USB2+H05261)
Correct for Stray Light: No (USB2+H05261)
Number of Pixels in Processed Spectrum: 2048
>>>>>Begin Processed Spectral Data<<<<<
365.73	624.92
365.92	624.92
366.12	624.92
366.32	500.87
366.52	470.45
366.72	493.85
366.91	437.68
367.11	479.81
367.31	496.19
367.51	430.66
367.70	557.05
367.90	458.74
368.10	449.38
368.30	482.15
368.49	454.06
368.69	463.43
368.89	594.50
369.09	482.15
369.28	559.39
369.48	486.83
369.68	519.60
369.87	486.83
370.07	514.92
370.27	629.60
370.47	678.76
370.66	1231.12
370.86	1317.72
371.06	1277.93
371.25	1327.08
371.45	1331.76
371.65	1334.11
371.84	1284.95
372.04	1387.94
372.24	1380.92
372.44	1310.70
372.63	1446.45
372.83	1465.18
373.03	1439.43
373.22	1495.60
373.42	1469.86
373.62	1540.07
373.81	1462.83
374.01	1521.35
374.21	1612.63
374.40	1582.20
374.60	1582.20
374.79	1565.82
374.99	1605.61
375.19	1554.12
375.38	1549.43
375.58	1607.95
375.78	1575.18
375.97	1600.93
376.17	1680.50
376.37	1680.50
376.56	1675.82
376.76	1703.91
376.95	1678.16
377.15	1682.85
377.35	1703.91
377.54	1694.55
377.74	1685.19
377.93	1706.25
378.13	1755.40
378.33	1764.76
378.52	1781.15
378.72	1748.38
378.91	1853.70
379.11	1636.03
379.31	1748.38
379.50	1825.62
379.70	1858.39
379.89	1900.52
380.09	1710.93
380.28	1928.60
380.48	1853.70
380.68	1846.68
380.87	1863.07
381.07	1923.92
381.26	1954.35
381.46	1928.60
381.65	1909.88
381.85	1959.03
382.04	2031.58
382.24	1966.05
382.43	1919.24
382.63	2052.65
382.83	1996.48
383.02	2010.52
383.22	1984.77
383.41	2113.50
383.61	1973.07
383.80	2113.50
384.00	2092.44
384.19	2181.38
384.39	2085.42
384.58	2108.82
384.78	2076.06
384.97	2047.97
385.17	2106.48
385.36	2193.08
385.56	2099.46
385.75	2127.55
385.95	2169.68
386.14	2284.36
386.34	2186.06
386.53	2235.21
386.72	2305.43
386.92	2317.13
387.11	2270.32
387.31	2279.68
387.50	2298.41
387.70	2335.85
387.89	2298.41
388.09	2385.01
388.28	2296.07
388.48	2347.56
388.67	2399.05
388.86	2413.09
389.06	2382.67
389.25	2495.01
389.45	2497.35
389.64	2499.69
389.84	2553.52
390.03	2600.34
390.22	2569.91
390.42	2548.84
390.61	2567.57
390.81	2605.02
391.00	2686.94
391.19	2569.91
391.39	2569.91
391.58	2665.87
391.78	2750.13
391.97	2775.88
392.16	2612.04
392.36	2813.32
392.55	2703.32
392.75	2794.60
392.94	2843.75
393.13	2773.53
393.33	2827.37
393.52	2911.63
393.71	2862.48
393.91	2846.09
394.10	2785.24
394.29	2740.77
394.49	2930.35
394.68	2932.69
394.88	3049.72
395.07	3138.66
395.26	2965.46
395.46	2991.20
395.65	3061.42
395.84	3061.42
396.04	3133.98
396.23	2986.52
396.42	3157.38
396.62	3171.43
396.81	3194.83
397.00	3141.00
397.19	3225.26
397.39	3248.66
397.58	3229.94
397.77	3379.73
397.97	3290.79
398.16	3274.41
398.35	3431.23
398.55	3246.32
398.74	3276.75
398.93	3403.14
399.12	3431.23
399.32	3328.24
399.51	3489.74
399.70	3604.42
399.90	3426.54
400.09	3459.31
400.28	3599.74
400.47	3557.61
400.67	3627.83
400.86	3562.30
401.05	3585.70
401.24	3583.36
401.44	3665.28
401.63	3651.24
401.82	3660.60
402.01	3653.58
402.21	3688.68
402.40	3688.68
402.59	3812.73
402.78	3871.25
402.97	3794.01
403.17	3920.40
403.36	3838.48
403.55	3918.06
403.74	3985.93
403.93	4166.15
404.13	4109.98
404.32	4042.11
404.51	4112.32
404.70	4140.41
404.89	4114.66
405.09	4271.48
405.28	4203.60
405.47	4273.82
405.66	4243.39
405.85	4133.39
406.05	4205.94
406.24	4397.87
406.43	4322.97
406.62	4369.78
406.81	4425.95
407.00	4404.89
407.20	4400.21
407.39	4341.69
407.58	4564.04
407.77	4379.14
407.96	4711.50
408.15	4507.87
408.34	4638.94
408.54	4713.84
408.73	4617.88
408.92	4723.20
409.11	4734.90
409.30	4795.76
409.49	4730.22
409.68	4938.53
409.87	4943.21
410.07	4994.70
410.26	5050.88
410.45	5004.07
410.64	5034.49
410.83	5093.01
411.02	5022.79
411.21	5149.18
411.40	5308.34
411.59	5172.58
411.78	5219.39
411.98	5238.12
412.17	5313.02
412.36	5488.56
412.55	5462.81
412.74	5579.84
412.93	5579.84
413.12	5392.59
413.31	5776.44
413.50	5502.60
413.69	5781.12
413.88	5685.16
414.07	5694.52
414.26	5802.19
414.45	5905.17
414.64	6129.86
414.83	6057.31
415.02	6111.14
415.22	6258.59
415.41	6195.40
415.60	6183.70
415.79	6186.04
415.98	6359.24
416.17	6537.12
416.36	6403.71
416.55	6267.95
416.74	6558.18
416.93	6438.81
417.12	6562.86
417.31	6640.10
417.50	6590.95
417.69	6682.23
417.88	6883.52
418.07	6764.15
418.26	6806.28
418.45	6825.00
418.64	7075.44
418.83	6942.03
419.02	7300.13
419.21	7176.08
419.39	7089.48
419.58	7260.34
419.77	7323.54
419.96	7197.15
420.15	7096.50
420.34	7302.47
420.53	7323.54
420.72	7396.09
420.91	7494.40
421.10	7384.39
421.29	7527.16
421.48	7452.27
421.67	7557.59
421.86	7637.17
422.05	7590.36
422.24	7595.04
422.43	7646.53
422.61	7840.79
422.80	7934.42
422.99	7744.83
423.18	7555.25
423.37	7920.37
423.56	7838.45
423.75	7831.43
423.94	7555.25
424.13	7164.38
424.32	7534.18
424.50	7772.92
424.69	8147.40
424.88	7758.88
425.07	7723.77
425.26	7770.58
425.45	7974.21
425.64	7845.48
425.83	7908.67
426.01	7864.20
426.20	7988.25
426.39	8042.08
426.58	8145.06
426.77	8138.04
426.96	8086.55
427.15	8105.28
427.33	8011.65
427.52	8255.07
427.71	8210.60
427.90	8102.93
428.09	8250.39
428.28	8549.98
428.46	8549.98
428.65	8344.01
428.84	8788.71
429.03	8657.64
429.22	8210.60
429.40	8657.64
429.59	8505.51
429.78	8325.29
429.97	8479.76
430.16	8643.60
430.34	8809.78
430.53	8917.44
430.72	8807.44
430.91	8975.95
431.10	8725.52
431.28	9100.00
431.47	9261.50
431.66	9247.46
431.85	9020.42
432.03	9160.86
432.22	9226.39
432.41	9355.12
432.60	9217.03
432.79	9242.78
432.97	9423.00
433.16	9500.23
433.35	9275.54
433.54	9404.27
433.72	9586.83
433.91	9619.60
434.10	9575.13
434.28	9493.21
434.47	9776.42
434.66	9778.76
434.85	9680.46
435.03	10036.22
435.22	9949.62
435.41	10326.44
435.59	10312.40
435.78	10143.88
435.97	10293.68
436.16	10012.81
436.34	10132.18
436.53	10066.64
436.72	10450.49
436.90	10270.27
437.09	10480.92
437.28	10265.59
437.46	10235.16
437.65	10516.03
437.84	10628.37
438.02	10611.99
438.21	10555.82
438.40	10389.64
438.58	11070.73
438.77	10972.43
438.96	11007.54
439.14	11080.10
439.33	11122.23
439.52	11328.19
439.70	11318.83
439.89	11662.89
440.08	11492.03
440.26	11414.79
440.45	11222.87
440.63	11744.81
440.82	11953.12
441.01	11913.33
441.19	12072.48
441.38	11999.93
441.57	11995.25
441.75	12201.21
441.94	12489.10
442.12	12624.85
442.31	12573.36
442.50	12594.42
442.68	12339.30
442.87	12372.07
443.05	12779.32
443.24	12629.53
443.43	12685.70
443.61	12882.31
443.80	13048.49
443.98	12674.00
444.17	12245.68
444.35	12510.16
444.54	13338.71
444.73	12929.12
444.91	12966.57
445.10	13137.43
445.28	12994.65
445.47	13102.32
445.65	13107.00
445.84	13252.11
446.02	13408.93
446.21	13165.51
446.39	13425.31
446.58	13657.03
446.77	13303.60
446.95	13039.12
447.14	13095.30
447.32	13303.60
447.51	13273.18
447.69	13532.98
447.88	13406.59
448.06	13518.93
448.25	13561.06
448.43	13301.26
448.62	13406.59
448.80	13296.58
448.99	13664.05
449.17	13589.15
449.36	13413.61
449.54	13970.66
449.73	14143.86
449.91	14148.54
450.10	14143.86
450.28	14293.65
450.46	14223.44
450.65	14092.37
450.83	14010.45
451.02	14003.43
451.20	14347.48
451.39	14366.21
451.57	14300.67
451.76	14300.67
451.94	14686.86
452.13	14895.17
452.31	14731.33
452.49	14537.07
452.68	14881.13
452.86	14635.37
453.05	14808.57
453.23	14892.83
453.42	14703.25
453.60	15110.50
453.78	15173.69
453.97	14806.23
454.15	14984.11
454.34	14932.62
454.52	15140.93
454.70	15262.63
454.89	15286.04
455.07	15407.75
455.26	15414.77
455.44	15676.91
455.62	15611.37
455.81	15477.96
455.99	15817.34
456.17	15761.17
456.36	15651.16
456.54	15950.75
456.73	16201.19
456.91	16486.73
457.09	16688.02
457.28	16540.57
457.46	16453.97
457.64	16552.27
457.83	16739.51
458.01	16634.19
458.19	16807.39
458.38	16898.67
458.56	16844.84
458.74	16929.09
458.93	16767.60
459.11	17123.36
459.29	17170.17
459.48	17343.37
459.66	17256.77
459.84	17394.86
460.03	17582.10
460.21	17481.46
460.39	17631.26
460.57	17331.67
460.76	17647.64
460.94	17565.72
461.12	17668.70
461.31	17767.01
461.49	17554.02
461.67	17621.89
461.85	18157.88
462.04	17968.29
462.22	18235.11
462.40	18375.55
462.59	18288.95
462.77	18162.56
462.95	17994.04
463.13	18218.73
463.32	18171.92
463.50	18668.11
463.68	18686.84
463.86	18618.96
464.05	18530.02
464.23	18747.69
464.41	18850.67
464.59	18513.64
464.78	19070.68
464.96	18958.34
465.14	18843.65
465.32	19056.64
465.50	19358.57
465.69	19400.70
465.87	19262.61
466.05	18984.09
466.23	19494.32
466.41	19185.37
466.60	19719.01
466.78	19522.41
466.96	19204.10
467.14	19695.61
467.32	19625.39
467.51	19716.67
467.69	19426.45
467.87	19943.70
468.05	20095.84
468.23	19576.24
468.41	19606.67
468.60	19609.01
468.78	20091.16
468.96	20306.49
469.14	20219.89
469.32	20842.47
469.50	20121.59
469.69	20526.50
469.87	20989.92
470.05	20376.70
470.23	20533.52
470.41	20727.78
470.59	21242.70
470.77	20652.89
470.95	21205.25
471.14	21750.60
471.32	20961.84
471.50	21769.32
471.68	21649.96
471.86	21233.34
472.04	21664.00
472.22	22530.00
472.40	21776.34
472.58	21837.20
472.77	21944.86
472.95	22396.59
473.13	22934.91
473.31	22190.62
473.49	22530.00
473.67	22537.02
473.85	22490.21
474.03	23161.94
474.21	23168.96
474.39	23489.62
474.57	23356.21
474.75	23688.56
474.93	23852.40
475.12	23709.63
475.30	24067.73
475.48	23714.31
475.66	24067.73
475.84	24212.84
476.02	24428.17
476.20	24554.56
476.38	24730.10
476.56	25404.17
476.74	25289.49
476.92	25205.23
477.10	25212.25
477.28	25830.15
477.46	25846.54
477.64	26129.74
477.82	26548.70
478.00	27166.60
478.18	26644.66
478.36	27028.51
478.54	27131.49
478.72	27328.10
478.90	28077.07
479.08	27981.10
479.26	28318.14
479.44	27866.42
479.62	28187.07
479.80	28737.10
479.98	28627.09
480.16	29598.41
480.34	29235.63
480.52	29530.54
480.70	29872.26
480.88	29373.72
481.06	29947.15
481.24	30235.04
481.41	30490.16
481.59	30604.84
481.77	31175.94
481.95	31283.60
482.13	31311.69
482.31	31367.86
482.49	32369.61
482.67	31840.65
482.85	32617.71
483.03	33017.94
483.21	33132.62
483.39	33495.41
483.57	33490.73
483.74	33809.04
483.92	34377.79
484.10	33649.88
484.28	34998.03
484.46	34810.79
484.64	35644.02
484.82	34909.09
485.00	35592.53
485.18	36336.82
485.35	36725.35
485.53	36313.41
485.71	37013.23
485.89	37565.60
486.07	37258.99
486.25	37095.15
486.43	37677.94
486.61	38469.04
486.78	38164.78
486.96	38752.25
487.14	39353.77
487.32	39218.02
487.50	39782.09
487.68	40128.48
487.85	40634.04
488.03	41001.50
488.21	41221.52
488.39	40872.78
488.57	41909.63
488.75	41759.84
488.92	42057.09
489.10	42241.99
489.28	42351.99
489.46	42878.61
489.64	42883.30
489.81	43632.27
489.99	43702.48
490.17	44062.93
490.35	44704.23
490.53	44430.39
490.70	45052.97
490.88	45045.95
491.06	45235.53
491.24	45516.40
491.41	45436.82
491.59	46248.99
491.77	46501.76
491.95	46946.47
492.13	47079.88
492.30	46700.71
492.48	46976.89
492.66	47349.04
492.84	47854.59
493.01	48261.85
493.19	48224.40
493.37	48612.93
493.54	48484.20
493.72	48935.92
493.90	48940.60
494.08	49654.47
494.25	49855.75
494.43	50054.70
494.61	50518.12
494.79	50464.29
494.96	50101.51
495.14	50293.43
495.32	51136.02
495.49	51100.92
495.67	51505.83
495.85	51456.68
496.02	51625.20
496.20	52114.37
496.38	51749.24
496.55	52308.63
496.73	52987.39
496.91	52168.20
497.09	53055.26
497.26	53116.12
497.44	52961.64
497.62	53382.94
497.79	53780.83
497.97	53481.24
498.14	53865.09
498.32	53862.75
498.50	54078.08
498.67	54490.01
498.85	54204.47
499.03	54649.17
499.20	54976.84
499.38	54672.57
499.56	54953.44
499.73	55009.61
499.91	55217.92
500.08	55498.78
500.26	55337.29
500.44	55353.67
500.61	55737.52
500.79	55711.77
500.97	55737.52
501.14	56112.00
501.32	56079.24
501.49	56081.58
501.67	56264.14
501.84	56563.73
502.02	56753.31
502.20	56933.53
502.37	56685.43
502.55	56552.02
502.72	56919.49
502.90	57001.41
503.07	56949.92
503.25	57071.62
503.43	57083.33
503.60	57375.89
503.78	57422.70
503.95	57247.16
504.13	57504.62
504.30	57731.65
504.48	57790.17
504.65	57668.46
504.83	57965.71
505.01	58101.46
505.18	57989.11
505.36	58354.24
505.53	58190.40
505.71	58532.12
505.88	58522.76
506.06	58265.30
506.23	58770.85
506.41	58763.83
506.58	58707.66
506.76	58820.00
506.93	59077.46
507.11	59147.68
507.28	59325.56
507.46	59189.81
507.63	59423.86
507.81	59501.10
507.98	59323.22
508.16	59299.81
508.33	59515.14
508.50	59756.22
508.68	59976.23
508.85	60020.70
509.03	59985.59
509.20	59838.14
509.38	60060.49
509.55	60093.25
509.73	60294.54
509.90	60357.74
510.08	60568.38
510.25	60516.89
510.42	60406.89
510.60	60683.07
510.77	60846.91
510.95	61076.28
511.12	60802.44
511.30	61013.08
511.47	61130.11
511.64	60837.54
511.82	61226.07
511.99	60720.52
512.17	61186.28
512.34	61315.01
512.51	61591.20
512.69	61525.66
512.86	61570.13
513.04	61609.92
513.21	61841.63
513.38	61680.14
513.56	61989.09
513.73	61904.83
513.90	62026.54
514.08	61944.62
514.25	62213.78
514.43	62202.08
514.60	62134.20
514.77	62066.33
514.95	62372.94
515.12	62258.25
515.29	62333.15
515.47	62532.09
515.64	62646.78
515.81	62658.48
515.99	62625.71
516.16	62705.29
516.33	62649.12
516.51	63002.54
516.68	62915.94
516.85	63056.37
517.03	63098.50
517.20	63124.25
517.37	63248.30
517.54	63121.91
517.72	62983.82
517.89	63213.19
518.06	63522.14
518.24	63402.77
518.41	63491.71
518.58	63458.94
518.75	63276.38
518.93	63674.27
519.10	63449.58
519.27	63522.14
519.45	63529.16
519.62	63903.65
519.79	63971.52
519.96	63938.75
520.14	63927.05
520.31	63781.94
520.48	64250.05
520.65	64030.04
520.83	64355.37
521.00	64486.44
521.17	64282.81
521.34	64303.88
521.52	64381.12
521.69	64378.78
521.86	64350.69
522.03	64540.27
522.20	64797.73
522.38	64940.50
522.55	64842.20
522.72	64919.44
522.89	64823.48
523.07	65020.08
523.24	64781.35
523.41	64982.63
523.58	65022.42
523.75	65289.24
523.92	65235.41
524.10	65181.58
524.27	65258.82
524.44	65251.80
524.61	65504.57
524.78	65525.64
524.96	65382.87
525.13	65436.70
525.30	65535.00
525.47	65535.00
525.64	65535.00
525.81	65535.00
525.98	65535.00
526.16	65499.89
526.33	65535.00
526.50	65535.00
526.67	65535.00
526.84	65535.00
527.01	65535.00
527.18	65535.00
527.36	65535.00
527.53	65535.00
527.70	65535.00
527.87	65535.00
528.04	65535.00
528.21	65535.00
528.38	65535.00
528.55	65535.00
528.72	65535.00
528.89	65535.00
529.07	65535.00
529.24	65535.00
529.41	65535.00
529.58	65535.00
529.75	65535.00
529.92	65535.00
530.09	65535.00
530.26	65535.00
530.43	65535.00
530.60	65535.00
530.77	65535.00
530.94	65535.00
531.11	65535.00
531.28	65535.00
531.46	65535.00
531.63	65535.00
531.80	65535.00
531.97	65535.00
532.14	65535.00
532.31	65535.00
532.48	65535.00
532.65	65535.00
532.82	65535.00
532.99	65535.00
533.16	65535.00
533.33	65535.00
533.50	65535.00
533.67	65535.00
533.84	65535.00
534.01	65535.00
534.18	65535.00
534.35	65535.00
534.52	65535.00
534.69	65535.00
534.86	65535.00
535.03	65535.00
535.20	65535.00
535.37	65535.00
535.54	65535.00
535.71	65535.00
535.88	65535.00
536.05	65535.00
536.22	65535.00
536.38	65535.00
536.55	65535.00
536.72	65535.00
536.89	65535.00
537.06	65535.00
537.23	65535.00
537.40	65535.00
537.57	65535.00
537.74	65535.00
537.91	65535.00
538.08	65535.00
538.25	65535.00
538.42	65535.00
538.59	65535.00
538.75	65535.00
538.92	65535.00
539.09	65535.00
539.26	65535.00
539.43	65535.00
539.60	65535.00
539.77	65535.00
539.94	65535.00
540.11	65535.00
540.28	65535.00
540.44	65535.00
540.61	65535.00
540.78	65535.00
540.95	65535.00
541.12	65535.00
541.29	65535.00
541.46	65535.00
541.62	65535.00
541.79	65535.00
541.96	65535.00
542.13	65535.00
542.30	65535.00
542.47	65535.00
542.63	65535.00
542.80	65535.00
542.97	65535.00
543.14	65535.00
543.31	65535.00
543.48	65535.00
543.64	65535.00
543.81	65535.00
543.98	65535.00
544.15	65535.00
544.32	65535.00
544.48	65535.00
544.65	65535.00
544.82	65535.00
544.99	65535.00
545.16	65535.00
545.32	65535.00
545.49	65535.00
545.66	65535.00
545.83	65535.00
546.00	65535.00
546.16	65535.00
546.33	65535.00
546.50	65535.00
546.67	65535.00
546.83	65535.00
547.00	65535.00
547.17	65535.00
547.34	65535.00
547.50	65535.00
547.67	65535.00
547.84	65535.00
548.00	65535.00
548.17	65535.00
548.34	65535.00
548.51	65535.00
548.67	65535.00
548.84	65535.00
549.01	65535.00
549.18	65535.00
549.34	65535.00
549.51	65535.00
549.68	65535.00
549.84	65535.00
550.01	65535.00
550.18	65535.00
550.34	65535.00
550.51	65535.00
550.68	65535.00
550.84	65535.00
551.01	65535.00
551.18	65535.00
551.34	65535.00
551.51	65535.00
551.68	65535.00
551.84	65535.00
552.01	65535.00
552.18	65535.00
552.34	65535.00
552.51	65535.00
552.68	65535.00
552.84	65535.00
553.01	65535.00
553.18	65535.00
553.34	65535.00
553.51	65535.00
553.67	65535.00
553.84	65535.00
554.01	65535.00
554.17	65535.00
554.34	65535.00
554.51	65535.00
554.67	65535.00
554.84	65535.00
555.00	65535.00
555.17	65535.00
555.33	65535.00
555.50	65535.00
555.67	65535.00
555.83	65535.00
556.00	65535.00
556.16	65535.00
556.33	65535.00
556.50	65535.00
556.66	65535.00
556.83	65535.00
556.99	65535.00
557.16	65535.00
557.32	65535.00
557.49	65535.00
557.65	65535.00
557.82	65535.00
557.98	65535.00
558.15	65535.00
558.32	65535.00
558.48	65535.00
558.65	65535.00
558.81	65535.00
558.98	65535.00
559.14	65535.00
559.31	65535.00
559.47	65535.00
559.64	65535.00
559.80	65535.00
559.97	65535.00
560.13	65535.00
560.30	65535.00
560.46	65535.00
560.63	65535.00
560.79	65535.00
560.96	65535.00
561.12	65535.00
561.29	65535.00
561.45	65535.00
561.61	65535.00
561.78	65535.00
561.94	65535.00
562.11	65535.00
562.27	65535.00
562.44	65535.00
562.60	65535.00
562.77	65535.00
562.93	65535.00
563.10	65535.00
563.26	65535.00
563.42	65535.00
563.59	65535.00
563.75	65535.00
563.92	65535.00
564.08	65535.00
564.24	65535.00
564.41	65535.00
564.57	65535.00
564.74	65535.00
564.90	65535.00
565.07	65535.00
565.23	65535.00
565.39	65535.00
565.56	65535.00
565.72	65535.00
565.88	65535.00
566.05	65535.00
566.21	65535.00
566.38	65535.00
566.54	65535.00
566.70	65535.00
566.87	65535.00
567.03	65535.00
567.19	65535.00
567.36	65535.00
567.52	65535.00
567.68	65535.00
567.85	65535.00
568.01	65535.00
568.17	65535.00
568.34	65535.00
568.50	65535.00
568.66	65535.00
568.83	65535.00
568.99	65535.00
569.15	65535.00
569.32	65535.00
569.48	65535.00
569.64	65535.00
569.81	65535.00
569.97	65535.00
570.13	65535.00
570.30	65535.00
570.46	65535.00
570.62	65535.00
570.78	65535.00
570.95	65535.00
571.11	65535.00
571.27	65535.00
571.43	65535.00
571.60	65535.00
571.76	65535.00
571.92	65535.00
572.09	65535.00
572.25	65535.00
572.41	65535.00
572.57	65535.00
572.74	65535.00
572.90	65535.00
573.06	65535.00
573.22	65535.00
573.38	65535.00
573.55	65535.00
573.71	65535.00
573.87	65535.00
574.03	65535.00
574.20	65535.00
574.36	65535.00
574.52	65535.00
574.68	65535.00
574.84	65535.00
575.01	65535.00
575.17	65535.00
575.33	65535.00
575.49	65535.00
575.65	65535.00
575.82	65535.00
575.98	65535.00
576.14	65535.00
576.30	65535.00
576.46	65535.00
576.62	65535.00
576.79	65535.00
576.95	65535.00
577.11	65535.00
577.27	65535.00
577.43	65535.00
577.59	65535.00
577.75	65535.00
577.92	65535.00
578.08	65535.00
578.24	65535.00
578.40	65535.00
578.56	65535.00
578.72	65535.00
578.88	65535.00
579.04	65535.00
579.21	65535.00
579.37	65535.00
579.53	65535.00
579.69	65535.00
579.85	65535.00
580.01	65535.00
580.17	65535.00
580.33	65535.00
580.49	65535.00
580.65	65535.00
580.82	65535.00
580.98	65535.00
581.14	65535.00
581.30	65535.00
581.46	65535.00
581.62	65535.00
581.78	65535.00
581.94	65535.00
582.10	65535.00
582.26	65535.00
582.42	65535.00
582.58	65535.00
582.74	65535.00
582.90	65535.00
583.06	65535.00
583.22	65535.00
583.38	65535.00
583.54	65535.00
583.70	65535.00
583.86	65535.00
584.02	65535.00
584.18	65535.00
584.34	65535.00
584.50	65535.00
584.66	65535.00
584.82	65535.00
584.98	65535.00
585.14	65535.00
585.30	65535.00
585.46	65535.00
585.62	65535.00
585.78	65535.00
585.94	65535.00
586.10	65535.00
586.26	65535.00
586.42	65535.00
586.58	65535.00
586.74	65535.00
586.90	65535.00
