SpectraSuite Data File
++++++++++++++++++++++++++++++++++++
Date: Thu Oct 24 13:21:45 EDT 2013
User: stostad
Dark Spectrum Present: No
Reference Spectrum Present: No
Number of Sampled Component Spectra: 1
Spectrometers: USB2+H05261
Integration Time (usec): 100000 (USB2+H05261)
Spectra Averaged: 1 (USB2+H05261)
Boxcar Smoothing: 0 (USB2+H05261)
Correct for Electrical Dark: No (USB2+H05261)
Strobe/Lamp Enabled: No (USB2+H05261)
Correct for Detector Non-linearity: No (USB2+H05261)
Correct for Stray Light: No (USB2+H05261)
Number of Pixels in Processed Spectrum: 2048
>>>>>Begin Processed Spectral Data<<<<<
365.73	866.00
365.92	866.00
366.12	866.00
366.32	711.52
366.52	690.46
366.72	744.29
366.91	695.14
367.11	645.99
367.31	697.48
367.51	688.12
367.70	685.78
367.90	688.12
368.10	702.16
368.30	678.76
368.49	713.86
368.69	699.82
368.89	678.76
369.09	650.67
369.28	685.78
369.48	748.97
369.68	795.78
369.87	723.23
370.07	784.08
370.27	849.61
370.47	1114.10
370.66	2071.37
370.86	2160.31
371.06	2253.94
371.25	2181.38
371.45	2204.78
371.65	2214.15
371.84	2228.19
372.04	2256.28
372.24	2235.21
372.44	2331.17
372.63	2403.73
372.83	2347.56
373.03	2305.43
373.22	2361.60
373.42	2394.37
373.62	2410.75
373.81	2443.52
374.01	2518.42
374.21	2452.88
374.40	2574.59
374.60	2562.89
374.79	2581.61
374.99	2654.17
375.19	2609.70
375.38	2640.12
375.58	2738.43
375.78	2665.87
375.97	2663.53
376.17	2801.62
376.37	2698.64
376.56	2705.66
376.76	2736.09
376.95	2862.48
377.15	2794.60
377.35	2850.77
377.54	2808.64
377.74	2937.37
377.93	2871.84
378.13	2878.86
378.33	3009.93
378.52	2930.35
378.72	2977.16
378.91	2986.52
379.11	3143.34
379.31	3023.97
379.50	2986.52
379.70	3070.78
379.89	3108.23
380.09	3056.74
380.28	3091.85
380.48	3157.38
380.68	3220.58
380.87	3208.87
381.07	3236.96
381.26	3201.85
381.46	3339.94
381.65	3192.49
381.85	3475.70
382.04	3307.18
382.24	3344.63
382.43	3368.03
382.63	3475.70
382.83	3426.54
383.02	3503.78
383.22	3566.98
383.41	3506.12
383.61	3651.24
383.80	3492.08
384.00	3623.15
384.19	3576.34
384.39	3473.36
384.58	3756.56
384.78	3658.26
384.97	3712.09
385.17	3559.95
385.36	3623.15
385.56	3747.20
385.75	3719.11
385.95	3929.76
386.14	3913.38
386.34	3852.52
386.53	3840.82
386.72	3908.69
386.92	3946.14
387.11	3990.61
387.31	3932.10
387.50	3847.84
387.70	3960.19
387.89	3964.87
388.09	4168.49
388.28	4128.70
388.48	4114.66
388.67	4100.62
388.86	4379.14
389.06	4184.88
389.25	4367.44
389.45	4276.16
389.64	4287.86
389.84	4339.35
390.03	4454.04
390.22	4451.70
390.42	4290.20
390.61	4390.84
390.81	4411.91
391.00	4608.51
391.19	4620.22
391.39	4737.24
391.58	4711.50
391.78	4706.82
391.97	4767.67
392.16	4620.22
392.36	4823.84
392.55	4823.84
392.75	4957.25
392.94	4821.50
393.13	4812.14
393.33	5067.26
393.52	4966.62
393.71	4926.83
393.91	5071.94
394.10	5097.69
394.29	5235.78
394.49	5109.39
394.68	5245.14
394.88	5090.67
395.07	5210.03
395.26	5270.89
395.46	5266.21
395.65	5427.70
395.84	5441.75
396.04	5507.28
396.23	5675.80
396.42	5383.23
396.62	5476.85
396.81	5540.05
397.00	5647.71
397.19	5689.84
397.39	5767.08
397.58	5626.65
397.77	5769.42
397.97	5877.09
398.16	5909.85
398.35	5856.02
398.55	6036.24
398.74	6061.99
398.93	6139.23
399.12	6104.12
399.32	5987.09
399.51	6221.14
399.70	6296.04
399.90	6136.88
400.09	6384.98
400.28	6413.07
400.47	6384.98
400.67	6494.99
400.86	6518.39
401.05	6340.51
401.24	6373.28
401.44	6609.67
401.63	6682.23
401.82	6654.14
402.01	6644.78
402.21	6686.91
402.40	6766.49
402.59	6698.61
402.78	6895.22
402.97	6853.09
403.17	7169.06
403.36	6963.09
403.55	7035.65
403.74	7169.06
403.93	7421.84
404.13	7487.37
404.32	7241.62
404.51	7274.38
404.70	7379.71
404.89	7164.38
405.09	7342.26
405.28	7400.77
405.47	7592.70
405.66	7571.63
405.85	7522.48
406.05	7698.02
406.24	7826.75
406.43	7627.81
406.62	7943.78
406.81	7950.80
407.00	7693.34
407.20	7796.32
407.39	7918.03
407.58	8255.07
407.77	8124.00
407.96	8116.98
408.15	8379.12
408.34	8311.24
408.54	8538.27
408.73	8418.91
408.92	8472.74
409.11	8395.50
409.30	8606.15
409.49	8849.57
409.68	8823.82
409.87	8720.84
410.07	8730.20
410.26	8987.66
410.45	9041.49
410.64	9029.79
410.83	9214.69
411.02	9081.28
411.21	9224.05
411.40	9210.01
411.59	9142.13
411.78	9516.62
411.98	9376.19
412.17	9507.26
412.36	9659.39
412.55	9788.12
412.74	10052.60
412.93	9867.70
413.12	9720.24
413.31	10265.59
413.50	10036.22
413.69	10214.10
413.88	10424.75
414.07	10321.76
414.26	10274.95
414.45	10630.71
414.64	10663.48
414.83	10995.84
415.02	10888.17
415.22	10942.00
415.41	10909.24
415.60	10913.92
415.79	11150.31
415.98	11227.55
416.17	11492.03
416.36	11283.72
416.55	11637.14
416.74	11641.82
416.93	11597.35
417.12	11901.62
417.31	11840.77
417.50	12030.35
417.69	12304.20
417.88	12449.31
418.07	12439.95
418.26	12313.56
418.45	12437.61
418.64	12723.15
418.83	12802.73
419.02	12685.70
419.21	12924.44
419.39	12636.55
419.58	12819.11
419.77	12844.86
419.96	12884.65
420.15	13034.44
420.34	13149.13
420.53	13151.47
420.72	13373.82
420.91	13401.91
421.10	13521.27
421.29	13650.00
421.48	13280.20
421.67	13689.79
421.86	13628.94
422.05	13708.52
422.24	13554.04
422.43	13743.63
422.61	14146.20
422.80	14045.55
422.99	14235.14
423.18	13975.34
423.37	14253.86
423.56	14246.84
423.75	14045.55
423.94	13827.88
424.13	13233.39
424.32	13703.84
424.50	14068.96
424.69	14459.83
424.88	14443.45
425.07	13914.48
425.26	14225.78
425.45	14293.65
425.64	13916.83
425.83	14118.11
426.01	14310.04
426.20	14244.50
426.39	14644.73
426.58	14347.48
426.77	14338.12
426.96	14853.04
427.15	14604.94
427.33	14949.00
427.52	14754.74
427.71	15042.62
427.90	14939.64
428.09	15211.14
428.28	15557.54
428.46	15377.32
428.65	15236.89
428.84	15770.53
429.03	15910.96
429.22	15396.04
429.40	15583.29
429.59	16088.84
429.78	15325.83
429.97	15335.19
430.16	15730.74
430.34	16168.42
430.53	16304.17
430.72	16053.73
430.91	15950.75
431.10	16159.06
431.28	16671.64
431.47	16634.19
431.66	16720.79
431.85	16781.64
432.03	17041.44
432.22	17205.28
432.41	17081.23
432.60	16973.56
432.79	17041.44
432.97	17254.43
433.16	17275.49
433.35	17231.02
433.54	17649.98
433.72	17802.11
433.91	17439.33
434.10	17846.58
434.28	17788.07
434.47	18033.83
434.66	18071.28
434.85	18155.54
435.03	18441.08
435.22	18338.10
435.41	19302.40
435.59	18497.25
435.78	18782.80
435.97	18911.53
436.16	18651.73
436.34	18490.23
436.53	18899.83
436.72	19271.97
436.90	18888.12
437.09	19215.80
437.28	18881.10
437.46	19187.71
437.65	19293.04
437.84	19470.92
438.02	19751.78
438.21	19765.82
438.40	19599.65
438.58	20201.16
438.77	20669.27
438.96	20030.30
439.14	21032.05
439.33	20992.26
439.52	21179.51
439.70	21128.02
439.89	21490.80
440.08	21408.88
440.26	21619.53
440.45	21462.71
440.63	22120.40
440.82	22574.47
441.01	21986.99
441.19	22422.33
441.38	22719.58
441.57	22698.52
441.75	22974.70
441.94	23073.00
442.12	22824.90
442.31	23616.01
442.50	23618.35
442.68	23487.28
442.87	23931.98
443.05	23559.83
443.24	24032.62
443.43	24049.00
443.61	24037.30
443.80	24608.39
443.98	23426.42
444.17	23047.26
444.35	24105.18
444.54	24552.22
444.73	24372.00
444.91	24308.80
445.10	24786.27
445.28	24514.77
445.47	24151.99
445.65	24755.85
445.84	24910.32
446.02	24954.79
446.21	25006.28
446.39	24900.96
446.58	25076.50
446.77	24865.85
446.95	24636.48
447.14	24865.85
447.32	25106.93
447.51	24835.42
447.69	24842.45
447.88	25174.80
448.06	25055.43
448.25	24957.13
448.43	25535.24
448.62	25610.14
448.80	25216.93
448.99	25649.93
449.17	25954.20
449.36	25727.17
449.54	26167.19
449.73	26693.81
449.91	26824.88
450.10	26703.17
450.28	26895.10
450.46	26703.17
450.65	26749.98
450.83	26946.59
451.02	26857.65
451.20	27262.56
451.39	27332.78
451.57	27627.68
451.76	26726.58
451.94	27536.40
452.13	27742.37
452.31	27772.80
452.49	27517.68
452.68	28240.90
452.86	27665.13
453.05	28166.01
453.23	28119.20
453.42	28238.56
453.60	28023.23
453.78	28528.79
453.97	28353.25
454.15	28121.54
454.34	28432.83
454.52	29069.45
454.70	29109.24
454.89	29006.26
455.07	29015.62
455.26	29333.93
455.44	29404.15
455.62	29455.64
455.81	29881.62
455.99	30153.12
456.17	30260.79
456.36	30127.38
456.54	30300.58
456.73	30522.93
456.91	31274.24
457.09	31276.58
457.28	31545.74
457.46	30710.17
457.64	31337.43
457.83	31667.45
458.01	31096.36
458.19	32233.86
458.38	31655.75
458.56	31983.42
458.74	31985.76
458.93	32275.99
459.11	32231.52
459.29	32587.28
459.48	32458.55
459.66	32591.96
459.84	32676.22
460.03	33251.99
460.21	33118.58
460.39	32978.15
460.57	32945.38
460.76	33542.22
460.94	34136.71
461.12	33919.04
461.31	33972.88
461.49	33642.86
461.67	34061.82
461.85	34665.67
462.04	34550.99
462.22	34684.40
462.40	35292.94
462.59	34890.37
462.77	34426.94
462.95	35229.74
463.13	35292.94
463.32	35477.84
463.50	35548.06
463.68	35351.45
463.86	35990.42
464.05	35058.88
464.23	35594.87
464.41	36182.34
464.59	35634.66
464.78	36945.36
464.96	36264.26
465.14	35812.54
465.32	36538.10
465.50	36488.95
465.69	37221.54
465.87	36657.47
466.05	36732.37
466.23	36774.50
466.41	37001.53
466.60	37984.55
466.78	36919.61
466.96	37137.28
467.14	37170.05
467.32	37387.72
467.51	38171.80
467.69	37120.90
467.87	37776.25
468.05	38279.46
468.23	37794.97
468.41	37841.78
468.60	38274.78
468.78	38944.17
468.96	38340.32
469.14	39005.03
469.32	39405.26
469.50	38059.45
469.69	39311.64
469.87	39777.40
470.05	39976.35
470.23	39861.66
470.41	40205.72
470.59	40161.25
470.77	40500.63
470.95	40301.68
471.14	41375.99
471.32	40222.11
471.50	41244.92
471.68	41354.93
471.86	41392.37
472.04	41940.06
472.22	42677.33
472.40	41607.70
472.58	42171.77
472.77	42710.10
472.95	43075.22
473.13	44121.44
473.31	42976.92
473.49	43194.59
473.67	43194.59
473.85	43969.30
474.03	44378.90
474.21	44631.68
474.39	44662.10
474.57	44395.28
474.75	45621.72
474.93	45345.54
475.12	45251.92
475.30	45808.96
475.48	45514.06
475.66	46000.89
475.84	46169.41
476.02	46890.29
476.20	46794.33
476.38	47241.37
476.56	48341.42
476.74	48041.84
476.92	48121.41
477.10	47709.48
477.28	48868.05
477.46	48708.89
477.64	49226.15
477.82	49748.09
478.00	50763.88
478.18	50382.37
478.36	50593.02
478.54	51215.60
478.72	51075.17
478.90	51391.14
479.08	51643.92
479.26	52472.47
479.44	52273.52
479.62	52507.58
479.80	52926.53
479.98	53214.42
480.16	54068.72
480.34	53434.43
480.52	53991.48
480.70	54054.67
480.88	53855.73
481.06	54241.92
481.24	54518.10
481.41	54878.54
481.59	55220.26
481.77	55611.13
481.95	55749.22
482.13	56051.15
482.31	55604.11
482.49	56715.86
482.67	56369.46
482.85	57113.75
483.03	57244.82
483.21	57469.51
483.39	57558.45
483.57	57558.45
483.74	57659.10
483.92	58262.96
484.10	58162.31
484.28	58646.80
484.46	59135.98
484.64	59363.01
484.82	58939.37
485.00	59215.55
485.18	59695.36
485.35	59845.16
485.53	60168.15
485.71	60289.86
485.89	60741.58
486.07	60734.56
486.25	60458.38
486.43	60956.91
486.61	61130.11
486.78	61261.18
486.96	61600.56
487.14	61790.14
487.32	61855.68
487.50	62138.88
487.68	62197.40
487.85	62700.61
488.03	62803.59
488.21	63063.39
488.39	63147.65
488.57	63430.86
488.75	63442.56
488.92	63650.87
489.10	63824.07
489.28	64008.97
489.46	64259.41
489.64	64189.19
489.81	64739.22
489.99	64797.73
490.17	64867.95
490.35	65350.10
490.53	65392.23
490.70	65462.44
490.88	65284.56
491.06	65535.00
491.24	65535.00
491.41	65535.00
491.59	65535.00
491.77	65535.00
491.95	65535.00
492.13	65535.00
492.30	65535.00
492.48	65535.00
492.66	65535.00
492.84	65535.00
493.01	65535.00
493.19	65535.00
493.37	65535.00
493.54	65535.00
493.72	65535.00
493.90	65535.00
494.08	65535.00
494.25	65535.00
494.43	65535.00
494.61	65535.00
494.79	65535.00
494.96	65535.00
495.14	65535.00
495.32	65535.00
495.49	65535.00
495.67	65535.00
495.85	65535.00
496.02	65535.00
496.20	65535.00
496.38	65535.00
496.55	65535.00
496.73	65535.00
496.91	65535.00
497.09	65535.00
497.26	65535.00
497.44	65535.00
497.62	65535.00
497.79	65535.00
497.97	65535.00
498.14	65535.00
498.32	65535.00
498.50	65535.00
498.67	65535.00
498.85	65535.00
499.03	65535.00
499.20	65535.00
499.38	65535.00
499.56	65535.00
499.73	65535.00
499.91	65535.00
500.08	65535.00
500.26	65535.00
500.44	65535.00
500.61	65535.00
500.79	65535.00
500.97	65535.00
501.14	65535.00
501.32	65535.00
501.49	65535.00
501.67	65535.00
501.84	65535.00
502.02	65535.00
502.20	65535.00
502.37	65535.00
502.55	65535.00
502.72	65535.00
502.90	65535.00
503.07	65535.00
503.25	65535.00
503.43	65535.00
503.60	65535.00
503.78	65535.00
503.95	65535.00
504.13	65535.00
504.30	65535.00
504.48	65535.00
504.65	65535.00
504.83	65535.00
505.01	65535.00
505.18	65535.00
505.36	65535.00
505.53	65535.00
505.71	65535.00
505.88	65535.00
506.06	65535.00
506.23	65535.00
506.41	65535.00
506.58	65535.00
506.76	65535.00
506.93	65535.00
507.11	65535.00
507.28	65535.00
507.46	65535.00
507.63	65535.00
507.81	65535.00
507.98	65535.00
508.16	65535.00
508.33	65535.00
508.50	65535.00
508.68	65535.00
508.85	65535.00
509.03	65535.00
509.20	65535.00
509.38	65535.00
509.55	65535.00
509.73	65535.00
509.90	65535.00
510.08	65535.00
510.25	65535.00
510.42	65535.00
510.60	65535.00
510.77	65535.00
510.95	65535.00
511.12	65535.00
511.30	65535.00
511.47	65535.00
511.64	65535.00
511.82	65535.00
511.99	65535.00
512.17	65535.00
512.34	65535.00
512.51	65535.00
512.69	65535.00
512.86	65535.00
513.04	65535.00
513.21	65535.00
513.38	65535.00
513.56	65535.00
513.73	65535.00
513.90	65535.00
514.08	65535.00
514.25	65535.00
514.43	65535.00
514.60	65535.00
514.77	65535.00
514.95	65535.00
515.12	65535.00
515.29	65535.00
515.47	65535.00
515.64	65535.00
515.81	65535.00
515.99	65535.00
516.16	65535.00
516.33	65535.00
516.51	65535.00
516.68	65535.00
516.85	65535.00
517.03	65535.00
517.20	65535.00
517.37	65535.00
517.54	65535.00
517.72	65535.00
517.89	65535.00
518.06	65535.00
518.24	65535.00
518.41	65535.00
518.58	65535.00
518.75	65535.00
518.93	65535.00
519.10	65535.00
519.27	65535.00
519.45	65535.00
519.62	65535.00
519.79	65535.00
519.96	65535.00
520.14	65535.00
520.31	65535.00
520.48	65535.00
520.65	65535.00
520.83	65535.00
521.00	65535.00
521.17	65535.00
521.34	65535.00
521.52	65535.00
521.69	65535.00
521.86	65535.00
522.03	65535.00
522.20	65535.00
522.38	65535.00
522.55	65535.00
522.72	65535.00
522.89	65535.00
523.07	65535.00
523.24	65535.00
523.41	65535.00
523.58	65535.00
523.75	65535.00
523.92	65535.00
524.10	65535.00
524.27	65535.00
524.44	65535.00
524.61	65535.00
524.78	65535.00
524.96	65535.00
525.13	65535.00
525.30	65535.00
525.47	65535.00
525.64	65535.00
525.81	65535.00
525.98	65535.00
526.16	65535.00
526.33	65535.00
526.50	65535.00
526.67	65535.00
526.84	65535.00
527.01	65535.00
527.18	65535.00
527.36	65535.00
527.53	65535.00
527.70	65535.00
527.87	65535.00
528.04	65535.00
528.21	65535.00
528.38	65535.00
528.55	65535.00
528.72	65535.00
528.89	65535.00
529.07	65535.00
529.24	65535.00
529.41	65535.00
529.58	65535.00
529.75	65535.00
529.92	65535.00
530.09	65535.00
530.26	65535.00
530.43	65535.00
530.60	65535.00
530.77	65535.00
530.94	65535.00
531.11	65535.00
531.28	65535.00
531.46	65535.00
531.63	65535.00
531.80	65535.00
531.97	65535.00
532.14	65535.00
532.31	65535.00
532.48	65535.00
532.65	65535.00
532.82	65535.00
532.99	65535.00
533.16	65535.00
533.33	65535.00
533.50	65535.00
533.67	65535.00
533.84	65535.00
534.01	65535.00
534.18	65535.00
534.35	65535.00
534.52	65535.00
534.69	65535.00
534.86	65535.00
535.03	65535.00
535.20	65535.00
535.37	65535.00
535.54	65535.00
535.71	65535.00
535.88	65535.00
536.05	65535.00
536.22	65535.00
536.38	65535.00
536.55	65535.00
536.72	65535.00
536.89	65535.00
537.06	65535.00
537.23	65535.00
537.40	65535.00
537.57	65535.00
537.74	65535.00
537.91	65535.00
538.08	65535.00
538.25	65535.00
538.42	65535.00
538.59	65535.00
538.75	65535.00
538.92	65535.00
539.09	65535.00
539.26	65535.00
539.43	65535.00
539.60	65535.00
539.77	65535.00
539.94	65535.00
540.11	65535.00
540.28	65535.00
540.44	65535.00
540.61	65535.00
540.78	65535.00
540.95	65535.00
541.12	65535.00
541.29	65535.00
541.46	65535.00
541.62	65535.00
541.79	65535.00
541.96	65535.00
542.13	65535.00
542.30	65535.00
542.47	65535.00
542.63	65535.00
542.80	65535.00
542.97	65535.00
543.14	65535.00
543.31	65535.00
543.48	65535.00
543.64	65535.00
543.81	65535.00
543.98	65535.00
544.15	65535.00
544.32	65535.00
544.48	65535.00
544.65	65535.00
544.82	65535.00
544.99	65535.00
545.16	65535.00
545.32	65535.00
545.49	65535.00
545.66	65535.00
545.83	65535.00
546.00	65535.00
546.16	65535.00
546.33	65535.00
546.50	65535.00
546.67	65535.00
546.83	65535.00
547.00	65535.00
547.17	65535.00
547.34	65535.00
547.50	65535.00
547.67	65535.00
547.84	65535.00
548.00	65535.00
548.17	65535.00
548.34	65535.00
548.51	65535.00
548.67	65535.00
548.84	65535.00
549.01	65535.00
549.18	65535.00
549.34	65535.00
549.51	65535.00
549.68	65535.00
549.84	65535.00
550.01	65535.00
550.18	65535.00
550.34	65535.00
550.51	65535.00
550.68	65535.00
550.84	65535.00
551.01	65535.00
551.18	65535.00
551.34	65535.00
551.51	65535.00
551.68	65535.00
551.84	65535.00
552.01	65535.00
552.18	65535.00
552.34	65535.00
552.51	65535.00
552.68	65535.00
552.84	65535.00
553.01	65535.00
553.18	65535.00
553.34	65535.00
553.51	65535.00
553.67	65535.00
553.84	65535.00
554.01	65535.00
554.17	65535.00
554.34	65535.00
554.51	65535.00
554.67	65535.00
554.84	65535.00
555.00	65535.00
555.17	65535.00
555.33	65535.00
555.50	65535.00
555.67	65535.00
555.83	65535.00
556.00	65535.00
556.16	65535.00
556.33	65535.00
556.50	65535.00
556.66	65535.00
556.83	65535.00
556.99	65535.00
557.16	65535.00
557.32	65535.00
557.49	65535.00
557.65	65535.00
557.82	65535.00
557.98	65535.00
558.15	65535.00
558.32	65535.00
558.48	65535.00
558.65	65535.00
558.81	65535.00
558.98	65535.00
559.14	65535.00
559.31	65535.00
559.47	65535.00
559.64	65535.00
559.80	65535.00
559.97	65535.00
560.13	65535.00
560.30	65535.00
560.46	65535.00
560.63	65535.00
560.79	65535.00
560.96	65535.00
561.12	65535.00
561.29	65535.00
561.45	65535.00
561.61	65535.00
561.78	65535.00
561.94	65535.00
562.11	65535.00
562.27	65535.00
562.44	65535.00
562.60	65535.00
562.77	65535.00
562.93	65535.00
563.10	65535.00
563.26	65535.00
563.42	65535.00
563.59	65535.00
563.75	65535.00
563.92	65535.00
564.08	65535.00
564.24	65535.00
564.41	65535.00
564.57	65535.00
564.74	65535.00
564.90	65535.00
565.07	65535.00
565.23	65535.00
565.39	65535.00
565.56	65535.00
565.72	65535.00
565.88	65535.00
566.05	65535.00
566.21	65535.00
566.38	65535.00
566.54	65535.00
566.70	65535.00
566.87	65535.00
567.03	65535.00
567.19	65535.00
567.36	65535.00
567.52	65535.00
567.68	65535.00
567.85	65535.00
568.01	65535.00
568.17	65535.00
568.34	65535.00
568.50	65535.00
568.66	65535.00
568.83	65535.00
568.99	65535.00
569.15	65535.00
569.32	65535.00
569.48	65535.00
569.64	65535.00
569.81	65535.00
569.97	65535.00
570.13	65535.00
570.30	65535.00
570.46	65535.00
570.62	65535.00
570.78	65535.00
570.95	65535.00
571.11	65535.00
571.27	65535.00
571.43	65535.00
571.60	65535.00
571.76	65535.00
571.92	65535.00
572.09	65535.00
572.25	65535.00
572.41	65535.00
572.57	65535.00
572.74	65535.00
572.90	65535.00
573.06	65535.00
573.22	65535.00
573.38	65535.00
573.55	65535.00
573.71	65535.00
573.87	65535.00
574.03	65535.00
574.20	65535.00
574.36	65535.00
574.52	65535.00
574.68	65535.00
574.84	65535.00
575.01	65535.00
575.17	65535.00
575.33	65535.00
575.49	65535.00
575.65	65535.00
575.82	65535.00
575.98	65535.00
576.14	65535.00
576.30	65535.00
576.46	65535.00
576.62	65535.00
576.79	65535.00
576.95	65535.00
577.11	65535.00
577.27	65535.00
577.43	65535.00
577.59	65535.00
577.75	65535.00
577.92	65535.00
578.08	65535.00
578.24	65535.00
578.40	65535.00
578.56	65535.00
578.72	65535.00
578.88	65535.00
579.04	65535.00
579.21	65535.00
579.37	65535.00
579.53	65535.00
579.69	65535.00
579.85	65535.00
580.01	65535.00
580.17	65535.00
580.33	65535.00
580.49	65535.00
580.65	65535.00
580.82	65535.00
580.98	65535.00
581.14	65535.00
581.30	65535.00
581.46	65535.00
581.62	65535.00
581.78	65535.00
581.94	65535.00
582.10	65535.00
582.26	65535.00
582.42	65535.00
582.58	65535.00
582.74	65535.00
582.90	65535.00
583.06	65535.00
583.22	65535.00
583.38	65535.00
583.54	65535.00
583.70	65535.00
583.86	65535.00
584.02	65535.00
584.18	65535.00
584.34	65535.00
584.50	65535.00
584.66	65535.00
584.82	65535.00
584.98	65535.00
585.14	65535.00
585.30	65535.00
585.46	65535.00
585.62	65535.00
