SpectraSuite Data File
++++++++++++++++++++++++++++++++++++
Date: Thu Oct 24 13:21:23 EDT 2013
User: stostad
Dark Spectrum Present: No
Reference Spectrum Present: No
Number of Sampled Component Spectra: 1
Spectrometers: USB2+H05261
Integration Time (usec): 100000 (USB2+H05261)
Spectra Averaged: 1 (USB2+H05261)
Boxcar Smoothing: 0 (USB2+H05261)
Correct for Electrical Dark: No (USB2+H05261)
Strobe/Lamp Enabled: No (USB2+H05261)
Correct for Detector Non-linearity: No (USB2+H05261)
Correct for Stray Light: No (USB2+H05261)
Number of Pixels in Processed Spectrum: 2048
>>>>>Begin Processed Spectral Data<<<<<
365.73	543.00
365.92	543.00
366.12	543.00
366.32	512.58
366.52	461.09
366.72	484.49
366.91	493.85
367.11	451.72
367.31	404.91
367.51	468.11
367.70	526.62
367.90	505.56
368.10	435.34
368.30	451.72
368.49	433.00
368.69	564.07
368.89	461.09
369.09	482.15
369.28	498.53
369.48	512.58
369.68	465.77
369.87	507.90
370.07	465.77
370.27	521.94
370.47	711.52
370.66	905.79
370.86	922.17
371.06	870.68
371.25	964.30
371.45	980.68
371.65	926.85
371.84	917.49
372.04	915.15
372.24	898.77
372.44	929.19
372.63	922.17
372.83	978.34
373.03	1025.15
373.22	1025.15
373.42	1074.31
373.62	992.39
373.81	1032.18
374.01	1109.41
374.21	1109.41
374.40	1095.37
374.60	1064.94
374.79	1046.22
374.99	1064.94
375.19	1022.81
375.38	1057.92
375.58	1111.75
375.78	1203.04
375.97	1078.99
376.17	1135.16
376.37	1111.75
376.56	1139.84
376.76	1055.58
376.95	1076.65
377.15	1093.03
377.35	1074.31
377.54	1151.54
377.74	1043.88
377.93	1097.71
378.13	1104.73
378.33	1146.86
378.52	1114.10
378.72	1263.89
378.91	1245.16
379.11	1123.46
379.31	1130.48
379.50	1163.25
379.70	1163.25
379.89	1165.59
380.09	1245.16
380.28	1224.10
380.48	1181.97
380.68	1144.52
380.87	1167.93
381.07	1235.80
381.26	1226.44
381.46	1224.10
381.65	1226.44
381.85	1291.98
382.04	1242.82
382.24	1188.99
382.43	1221.76
382.63	1165.59
382.83	1233.46
383.02	1158.57
383.22	1268.57
383.41	1282.61
383.61	1245.16
383.80	1299.00
384.00	1231.12
384.19	1371.55
384.39	1259.21
384.58	1277.93
384.78	1249.85
384.97	1282.61
385.17	1392.62
385.36	1308.36
385.56	1310.70
385.75	1310.70
385.95	1294.32
386.14	1352.83
386.34	1310.70
386.53	1334.11
386.72	1376.24
386.92	1423.05
387.11	1338.79
387.31	1348.15
387.50	1418.36
387.70	1413.68
387.89	1371.55
388.09	1488.58
388.28	1495.60
388.48	1446.45
388.67	1474.54
388.86	1516.67
389.06	1479.22
389.25	1455.81
389.45	1425.39
389.64	1476.88
389.84	1406.66
390.03	1526.03
390.22	1479.22
390.42	1540.07
390.61	1507.30
390.81	1516.67
391.00	1500.28
391.19	1542.41
391.39	1621.99
391.58	1614.97
391.78	1556.46
391.97	1572.84
392.16	1511.99
392.36	1593.90
392.55	1530.71
392.75	1598.59
392.94	1720.29
393.13	1621.99
393.33	1621.99
393.52	1710.93
393.71	1647.74
393.91	1654.76
394.10	1631.35
394.29	1647.74
394.49	1586.88
394.68	1678.16
394.88	1689.87
395.07	1832.64
395.26	1736.68
395.46	1668.80
395.65	1771.79
395.84	1820.94
396.04	1870.09
396.23	1671.14
396.42	1809.23
396.62	1823.28
396.81	1739.02
397.00	1886.47
397.19	1832.64
397.39	1846.68
397.58	1853.70
397.77	1877.11
397.97	1846.68
398.16	1877.11
398.35	1898.17
398.55	1937.96
398.74	1912.22
398.93	1930.94
399.12	1980.09
399.32	1926.26
399.51	1980.09
399.70	1996.48
399.90	1930.94
400.09	2008.18
400.28	2104.14
400.47	2141.59
400.67	2008.18
400.86	2092.44
401.05	2118.18
401.24	2129.89
401.44	2207.13
401.63	2134.57
401.82	2094.78
402.01	2143.93
402.21	2183.72
402.40	2010.52
402.59	2216.49
402.78	2207.13
402.97	2183.72
403.17	2139.25
403.36	2211.81
403.55	2239.89
403.74	2272.66
403.93	2349.90
404.13	2380.32
404.32	2260.96
404.51	2420.11
404.70	2380.32
404.89	2385.01
405.09	2415.43
405.28	2471.61
405.47	2349.90
405.66	2441.18
405.85	2509.05
406.05	2382.67
406.24	2417.77
406.43	2459.90
406.62	2551.18
406.81	2546.50
407.00	2560.55
407.20	2532.46
407.39	2513.74
407.58	2626.08
407.77	2686.94
407.96	2696.30
408.15	2693.96
408.34	2602.68
408.54	2590.97
408.73	2745.45
408.92	2780.56
409.11	2750.13
409.30	2715.02
409.49	2827.37
409.68	2841.41
409.87	2766.51
410.07	2878.86
410.26	2906.95
410.45	2787.58
410.64	2822.69
410.83	3042.70
411.02	2911.63
411.21	3005.25
411.40	2949.08
411.59	2995.89
411.78	2937.37
411.98	3082.49
412.17	3052.06
412.36	3070.78
412.55	3173.77
412.74	3222.92
412.93	3150.36
413.12	3098.87
413.31	3269.73
413.50	3145.68
413.69	3241.64
413.88	3211.22
414.07	3283.77
414.26	3391.44
414.45	3478.04
414.64	3428.88
414.83	3447.61
415.02	3480.38
415.22	3501.44
415.41	3550.59
415.60	3599.74
415.79	3557.61
415.98	3588.04
416.17	3688.68
416.36	3508.46
416.55	3630.17
416.74	3707.41
416.93	3726.13
417.12	3674.64
417.31	3712.09
417.50	3775.28
417.69	3847.84
417.88	3941.46
418.07	3906.35
418.26	3901.67
418.45	3969.55
418.64	4042.11
418.83	3918.06
419.02	4032.74
419.21	4086.58
419.39	4189.56
419.58	4002.32
419.77	3896.99
419.96	4131.05
420.15	4182.54
420.34	4212.96
420.53	4079.55
420.72	4241.05
420.91	4117.00
421.10	4250.41
421.29	4262.12
421.48	4194.24
421.67	4210.62
421.86	4351.06
422.05	4404.89
422.24	4241.05
422.43	4252.75
422.61	4344.03
422.80	4442.34
422.99	4318.29
423.18	4337.01
423.37	4442.34
423.56	4514.89
423.75	4416.59
423.94	4271.48
424.13	4133.39
424.32	4257.43
424.50	4449.36
424.69	4393.19
424.88	4507.87
425.07	4444.68
425.26	4400.21
425.45	4468.08
425.64	4280.84
425.83	4402.55
426.01	4437.66
426.20	4514.89
426.39	4510.21
426.58	4519.57
426.77	4526.60
426.96	4507.87
427.15	4568.73
427.33	4629.58
427.52	4461.06
427.71	4599.15
427.90	4568.73
428.09	4624.90
428.28	4592.13
428.46	4669.37
428.65	4737.24
428.84	4875.34
429.03	4816.82
429.22	4922.15
429.40	4870.65
429.59	4826.18
429.78	4699.80
429.97	4702.14
430.16	4823.84
430.34	4987.68
430.53	4994.70
430.72	5004.07
430.91	4952.57
431.10	4875.34
431.28	4905.76
431.47	5053.22
431.66	5142.16
431.85	5095.35
432.03	5111.73
432.22	5408.98
432.41	5135.14
432.60	5142.16
432.79	5158.54
432.97	5357.49
433.16	5259.18
433.35	5090.67
433.54	5371.53
433.72	5439.40
433.91	5427.70
434.10	5413.66
434.28	5313.02
434.47	5427.70
434.66	5460.47
434.85	5495.58
435.03	5703.89
435.22	5767.08
435.41	5902.83
435.59	5987.09
435.78	5802.19
435.97	5692.18
436.16	5753.04
436.34	5570.48
436.53	5724.95
436.72	5748.36
436.90	5636.01
437.09	5638.35
437.28	5734.31
437.46	5760.06
437.65	5790.49
437.84	5865.38
438.02	5827.93
438.21	5905.17
438.40	5778.78
438.58	5975.39
438.77	6127.52
438.96	6174.33
439.14	6176.67
439.33	6174.33
439.52	6258.59
439.70	6228.17
439.89	6331.15
440.08	6382.64
440.26	6511.37
440.45	6258.59
440.63	6523.07
440.82	6361.58
441.01	6377.96
441.19	6497.33
441.38	6602.65
441.57	6448.18
441.75	6626.06
441.94	6757.13
442.12	6857.77
442.31	6892.88
442.50	6984.16
442.68	6731.38
442.87	6925.65
443.05	7021.61
443.24	6988.84
443.43	7084.80
443.61	6979.48
443.80	7190.13
443.98	7007.56
444.17	6612.01
444.35	6885.86
444.54	7103.53
444.73	7026.29
444.91	7075.44
445.10	7115.23
445.28	7265.02
445.47	7014.59
445.65	7117.57
445.84	7084.80
446.02	7239.28
446.21	7178.42
446.39	7227.57
446.58	7236.94
446.77	7269.70
446.95	7176.08
447.14	7133.95
447.32	7265.02
447.51	7215.87
447.69	7349.28
447.88	7248.64
448.06	7412.48
448.25	7307.15
448.43	7407.80
448.62	7372.69
448.80	7260.34
448.99	7400.77
449.17	7463.97
449.36	7356.30
449.54	7440.56
449.73	7882.92
449.91	7658.23
450.10	7672.28
450.28	7691.00
450.46	7786.96
450.65	7801.01
450.83	7648.87
451.02	7672.28
451.20	7810.37
451.39	7754.19
451.57	7871.22
451.76	7747.17
451.94	7765.90
452.13	8128.68
452.31	7939.10
452.49	7772.92
452.68	7918.03
452.86	8180.17
453.05	7974.21
453.23	8070.17
453.42	7967.18
453.60	8116.98
453.78	8149.75
453.97	8042.08
454.15	8100.59
454.34	7801.01
454.52	8180.17
454.70	8273.79
454.89	8245.71
455.07	8301.88
455.26	8498.49
455.44	8400.18
455.62	8425.93
455.81	8517.21
455.99	8360.39
456.17	8287.84
456.36	8510.19
456.54	8692.75
456.73	8503.17
456.91	8788.71
457.09	8814.46
457.28	8997.02
457.46	8865.95
457.64	8833.18
457.83	8765.31
458.01	8798.07
458.19	8997.02
458.38	8910.42
458.56	9088.30
458.74	9146.81
458.93	9022.77
459.11	8933.82
459.29	9006.38
459.48	9046.17
459.66	9041.49
459.84	9301.29
460.03	9022.77
460.21	9170.22
460.39	9268.52
460.57	9366.82
460.76	9537.68
460.94	9500.23
461.12	9589.17
461.31	9502.58
461.49	9394.91
461.67	9411.29
461.85	9811.53
462.04	9628.96
462.22	10080.69
462.40	9834.93
462.59	9706.20
462.77	9776.42
462.95	9951.96
463.13	9589.17
463.32	9771.74
463.50	9865.36
463.68	9884.08
463.86	9879.40
464.05	9996.43
464.23	9741.31
464.41	9853.66
464.59	9685.14
464.78	10099.41
464.96	10153.24
465.14	9837.27
465.32	10040.90
465.50	10017.49
465.69	10249.21
465.87	10099.41
466.05	10087.71
466.23	10232.82
466.41	10300.70
466.60	10452.83
466.78	10232.82
466.96	10059.62
467.14	10293.68
467.32	10267.93
467.51	10370.91
467.69	10298.36
467.87	10415.38
468.05	10506.66
468.23	10415.38
468.41	10567.52
468.60	10352.19
468.78	10677.52
468.96	10558.16
469.14	10761.78
469.32	10904.56
469.50	10422.41
469.69	10579.22
469.87	10810.93
470.05	10848.38
470.23	10937.32
470.41	10972.43
470.59	11112.86
470.77	10757.10
470.95	11070.73
471.14	11162.01
471.32	10942.00
471.50	11176.06
471.68	11279.04
471.86	11255.64
472.04	11440.54
472.22	11630.12
472.40	11283.72
472.58	11267.34
472.77	11566.93
472.95	11808.00
473.13	12175.47
473.31	11569.27
473.49	11599.70
473.67	11826.73
473.85	11925.03
474.03	12233.98
474.21	12140.36
474.39	12142.70
474.57	12222.28
474.75	12535.91
474.93	12510.16
475.12	12224.62
475.30	12341.64
475.48	12423.56
475.66	12697.41
475.84	12549.95
476.02	12697.41
476.20	12636.55
476.38	12975.93
476.56	13406.59
476.74	12982.95
476.92	13114.02
477.10	13081.25
477.28	13301.26
477.46	13451.06
477.64	13689.79
477.82	13577.45
478.00	14101.73
478.18	13764.69
478.36	13975.34
478.54	14298.33
478.72	14099.39
478.90	14352.16
479.08	14340.46
479.26	14471.53
479.44	14684.52
479.62	14452.81
479.80	14544.09
479.98	14871.76
480.16	15384.34
480.34	14909.21
480.52	15166.67
480.70	15360.94
480.88	15119.86
481.06	15442.85
481.24	15520.09
481.41	15695.63
481.59	15988.20
481.77	16070.12
481.95	16086.50
482.13	16329.92
482.31	15990.54
482.49	16627.17
482.67	16592.06
482.85	16716.11
483.03	16716.11
483.21	17142.08
483.39	17069.53
483.57	17205.28
483.74	17312.94
483.92	17610.19
484.10	17547.00
484.28	17956.59
484.46	17935.53
484.64	18155.54
484.82	18146.17
485.00	18394.27
485.18	18555.77
485.35	18888.12
485.53	18881.10
485.71	18923.23
485.89	19452.19
486.07	19105.79
486.25	19124.52
486.43	19405.38
486.61	19627.73
486.78	19864.13
486.96	19887.53
487.14	20144.99
487.32	20329.89
487.50	20322.87
487.68	20673.95
487.85	20594.37
488.03	20816.72
488.21	21228.66
488.39	20978.22
488.57	21336.32
488.75	21392.50
488.92	21876.99
489.10	21671.02
489.28	22066.57
489.46	22422.33
489.64	22120.40
489.81	22698.52
489.99	22661.07
490.17	22530.00
490.35	22679.79
490.53	22953.63
490.70	23012.15
490.88	23098.75
491.06	23576.22
491.24	23332.80
491.41	23758.78
491.59	23541.11
491.77	23763.46
491.95	24182.42
492.13	24149.65
492.30	24271.36
492.48	24584.99
492.66	24589.67
492.84	24620.10
493.01	25158.42
493.19	25013.31
493.37	25305.87
493.54	25462.69
493.72	25486.09
493.90	25282.47
494.08	25844.20
494.25	25947.18
494.43	25926.11
494.61	26338.05
494.79	26221.02
494.96	26749.98
495.14	26635.30
495.32	26869.35
495.49	27072.98
495.67	26944.25
495.85	26953.61
496.02	27269.58
496.20	27655.77
496.38	27850.03
496.55	27866.42
496.73	28627.09
496.91	28133.24
497.09	28063.02
497.26	28613.05
497.44	28446.87
497.62	28870.51
497.79	28989.88
497.97	29151.37
498.14	29486.07
498.32	29273.08
498.50	29322.23
498.67	29771.61
498.85	29277.76
499.03	29734.17
499.20	29991.62
499.38	29844.17
499.56	29970.56
499.73	29933.11
499.91	30476.12
500.08	30366.11
500.26	30499.52
500.44	30686.76
500.61	31182.96
500.79	30885.71
500.97	31264.88
501.14	31318.71
501.32	31070.61
501.49	31115.08
501.67	31248.49
501.84	31597.23
502.02	31735.32
502.20	32147.26
502.37	32084.06
502.55	31908.52
502.72	31669.79
502.90	32046.62
503.07	32048.96
503.25	32397.70
503.43	32435.14
503.60	32512.38
503.78	32606.00
503.95	32425.78
504.13	32851.76
504.30	33027.30
504.48	33149.01
504.65	33015.60
504.83	33390.08
505.01	33867.55
505.18	33790.31
505.36	33787.97
505.53	33839.47
505.71	34036.07
505.88	33937.77
506.06	33968.19
506.23	34204.59
506.41	33972.88
506.58	34101.61
506.76	34335.66
506.93	34651.63
507.11	34490.13
507.28	34944.20
507.46	34937.18
507.63	34855.26
507.81	34831.85
507.98	34731.21
508.16	35248.47
508.33	34841.21
508.50	35395.92
508.68	35704.87
508.85	35927.22
509.03	35618.27
509.20	35386.56
509.38	35807.86
509.55	36175.32
509.73	36432.78
509.90	36357.88
510.08	36442.14
510.25	36627.04
510.42	36493.63
510.60	36690.24
510.77	36865.78
510.95	36931.31
511.12	36589.59
511.30	37240.26
511.47	37593.68
511.64	37200.47
511.82	37240.26
511.99	37336.23
512.17	37469.64
512.34	37315.16
512.51	38148.39
512.69	38160.09
512.86	37984.55
513.04	37912.00
513.21	38022.00
513.38	37963.49
513.56	38099.24
513.73	38195.20
513.90	38440.96
514.08	38831.83
514.25	38799.06
514.43	39007.37
514.60	38471.39
514.77	38873.96
514.95	39220.36
515.12	38356.70
515.29	38770.97
515.47	39377.17
515.64	39330.36
515.81	39342.06
515.99	39079.92
516.16	39934.22
516.33	39199.29
516.51	39821.87
516.68	39847.62
516.85	39948.26
517.03	39920.18
517.20	40364.88
517.37	39826.56
517.54	40074.65
517.72	40226.79
517.89	40257.21
518.06	40545.10
518.24	40755.75
518.41	40931.29
518.58	40788.52
518.75	40144.87
518.93	41148.96
519.10	40687.87
519.27	41144.28
519.45	41228.54
519.62	41303.43
519.79	41476.63
519.96	41340.88
520.14	41478.97
520.31	41024.91
520.48	40996.82
520.65	41961.12
520.83	41888.57
521.00	42021.98
521.17	42089.85
521.34	41799.63
521.52	42122.62
521.69	42087.51
521.86	42621.16
522.03	42330.93
522.20	42656.26
522.38	42721.80
522.55	43030.75
522.72	42773.29
522.89	43042.45
523.07	43173.52
523.24	42564.98
523.41	43009.68
523.58	42593.07
523.75	43056.50
523.92	42986.28
524.10	43552.69
524.27	43838.23
524.44	43494.18
524.61	43512.90
524.78	43683.76
524.96	43812.49
525.13	43686.10
525.30	43950.58
525.47	44266.55
525.64	44020.80
525.81	44821.26
525.98	44477.20
526.16	44034.84
526.33	44135.48
526.50	44685.51
526.67	44390.60
526.84	44605.93
527.01	44449.11
527.18	44446.77
527.36	44509.97
527.53	45123.19
527.70	45439.16
527.87	45017.86
528.04	45354.90
528.21	45296.39
528.38	45492.99
528.55	45202.77
528.72	45284.68
528.89	45322.13
529.07	45237.87
529.24	45132.55
529.41	45748.11
529.58	45574.91
529.75	45687.26
529.92	45818.33
530.09	45731.73
530.26	45727.05
530.43	45668.53
530.60	45539.80
530.77	45902.59
530.94	46216.22
531.11	46223.24
531.28	46532.19
531.46	46642.20
531.63	46300.48
531.80	46469.00
531.97	46597.73
532.14	46569.64
532.31	46628.15
532.48	46859.87
532.65	47222.65
532.82	46876.25
532.99	46726.46
533.16	46396.44
533.33	47248.39
533.50	47473.09
533.67	47019.02
533.84	46920.72
534.01	47199.24
534.18	47103.28
534.35	47615.86
534.52	47178.18
534.69	47812.46
534.86	47697.78
535.03	47253.08
535.20	47613.52
535.37	47679.05
535.54	47934.17
535.71	47819.49
535.88	47751.61
536.05	47512.88
536.22	47667.35
536.38	47892.04
536.55	47831.19
536.72	48032.47
536.89	48037.16
537.06	48413.98
537.23	48556.75
537.40	48493.56
537.57	48491.22
537.74	48421.00
537.91	48484.20
538.08	48493.56
538.25	48329.72
538.42	48500.58
538.59	48652.72
538.75	48435.05
538.92	48748.68
539.09	48964.01
539.26	48692.50
539.43	48470.15
539.60	48814.21
539.77	49069.33
539.94	49453.18
540.11	49298.70
540.28	48910.17
540.44	49572.55
540.61	49492.97
540.78	49373.60
540.95	49413.39
541.12	49621.70
541.29	49289.34
541.46	49888.52
541.62	50040.65
541.79	50021.93
541.96	49434.45
542.13	49752.77
542.30	50045.33
542.47	49727.02
542.63	49982.14
542.80	50080.44
542.97	50880.91
543.14	50712.39
543.31	50665.58
543.48	50478.33
543.64	50422.16
543.81	50541.53
543.98	50681.96
544.15	50330.88
544.32	50728.77
544.48	50927.72
544.65	50995.59
544.82	50712.39
544.99	50632.81
545.16	50913.67
545.32	50813.03
545.49	51049.42
545.66	51213.26
545.83	51526.89
546.00	51503.49
546.16	51437.95
546.33	51346.67
546.50	50539.19
546.67	51175.81
546.83	50651.53
547.00	51180.49
547.17	51068.15
547.34	51255.39
547.50	51484.76
547.67	51721.16
547.84	51599.45
548.00	51924.78
548.17	51854.57
548.34	51468.38
548.51	51524.55
548.67	51236.67
548.84	51569.02
549.01	51653.28
549.18	51664.99
549.34	51536.26
549.51	51517.53
549.68	51903.72
549.84	51618.17
550.01	51833.50
550.18	51515.19
550.34	51793.71
550.51	51557.32
550.68	52112.03
550.84	51880.31
551.01	52156.50
551.18	51742.22
551.34	52060.54
551.51	52044.15
551.68	52116.71
551.84	51978.62
552.01	51852.23
552.18	52158.84
552.34	52058.20
552.51	52495.88
552.68	52327.36
552.84	52182.24
553.01	52449.06
553.18	52690.14
553.34	52090.96
553.51	52341.40
553.67	52388.21
553.84	52870.36
554.01	52758.02
554.17	52610.56
554.34	52582.48
554.51	52769.72
554.67	52250.12
554.84	52566.09
555.00	52568.43
555.17	52399.91
555.33	52420.98
555.50	52676.10
555.67	52858.66
555.83	52676.10
556.00	52523.96
556.16	53015.47
556.33	53022.50
556.50	52713.55
556.66	53083.35
556.83	52626.95
556.99	53029.52
557.16	53052.92
557.32	53076.33
557.49	53347.83
557.65	52889.09
557.82	53235.48
557.98	53155.91
558.15	52875.04
558.32	52975.69
558.48	52928.87
558.65	53340.81
558.81	53315.06
558.98	53134.84
559.14	53240.17
559.31	53565.50
559.47	53380.60
559.64	53406.34
559.80	53315.06
559.97	53532.73
560.13	53319.74
560.30	53457.84
560.46	53640.40
560.63	53474.22
560.79	53799.55
560.96	53762.11
561.12	53567.84
561.29	53268.25
561.45	53216.76
561.61	53345.49
561.78	53151.23
561.94	53614.65
562.11	53829.98
562.27	54052.33
562.44	53680.19
562.60	53750.40
562.77	53462.52
562.93	53867.43
563.10	54155.32
563.26	53275.27
563.42	53712.95
563.59	53818.28
563.75	54019.56
563.92	54024.25
564.08	53668.48
564.24	53984.46
564.41	53820.62
564.57	53698.91
564.74	53748.06
564.90	54089.78
565.07	53829.98
565.23	54000.84
565.39	54005.52
565.56	54279.36
565.72	53991.48
565.88	53855.73
566.05	53612.31
566.21	53904.88
566.38	53975.09
566.54	53542.10
566.70	54113.19
566.87	54314.47
567.03	54265.32
567.19	54543.84
567.36	54380.01
567.52	54103.82
567.68	54277.02
567.85	54103.82
568.01	54078.08
568.17	54239.57
568.34	53986.80
568.50	53921.26
568.66	54059.35
568.83	54344.90
568.99	53972.75
569.15	54019.56
569.32	54103.82
569.48	53904.88
569.64	54258.30
569.81	54052.33
569.97	54052.33
570.13	54534.48
570.30	54211.49
570.46	54482.99
570.62	54248.94
570.78	54300.43
570.95	54066.38
571.11	54656.19
571.27	54396.39
571.43	54614.06
571.60	54356.60
571.76	54319.15
571.92	54365.96
572.09	54389.37
572.25	54520.44
572.41	54466.61
572.57	54864.50
572.74	54625.76
572.90	54288.73
573.06	54391.71
573.22	54454.90
573.38	54548.53
573.55	54398.73
573.71	54721.72
573.87	54511.08
574.03	54595.34
574.20	54578.95
574.36	54740.45
574.52	54384.69
574.68	54628.10
574.84	54602.36
575.01	54646.83
575.17	54939.39
575.33	54983.86
575.49	54466.61
575.65	54784.92
575.82	54761.51
575.98	54948.76
576.14	54824.71
576.30	54843.43
576.46	54529.80
576.62	54585.97
576.79	54527.46
576.95	54415.11
577.11	54588.31
577.27	54602.36
577.43	54347.24
577.59	54719.38
577.75	54752.15
577.92	54475.97
578.08	54667.89
578.24	54663.21
578.40	54990.89
578.56	55089.19
578.72	54639.81
578.88	54773.22
579.04	55042.38
579.21	54810.67
579.37	54562.57
579.53	55173.45
579.69	54939.39
579.85	54475.97
580.01	54852.80
580.17	54768.54
580.33	54628.10
580.49	55014.29
580.65	55210.90
580.82	55077.49
580.98	54754.49
581.14	54618.74
581.30	54796.62
581.46	54667.89
581.62	54761.51
581.78	54593.00
581.94	54719.38
582.10	54745.13
582.26	55103.23
582.42	55028.34
582.58	55056.42
582.74	54787.26
582.90	54988.55
583.06	54871.52
583.22	54857.48
583.38	54824.71
583.54	54838.75
583.70	54621.08
583.86	54855.14
584.02	54815.35
584.18	54962.80
584.34	55260.05
584.50	54955.78
584.66	54824.71
584.82	55035.36
584.98	54941.74
585.14	54941.74
585.30	55182.81
585.46	55077.49
585.62	54593.00
585.78	55143.02
585.94	54848.11
586.10	54901.95
586.26	55187.49
586.42	55330.26
586.58	55194.51
586.74	54920.67
586.90	54831.73
587.06	54988.55
587.22	55196.85
587.38	55161.75
587.54	55365.37
587.70	55662.62
587.86	55451.97
588.02	55037.70
588.18	55461.33
588.34	55351.33
588.49	54990.89
