SpectraSuite Data File
++++++++++++++++++++++++++++++++++++
Date: Thu Oct 24 13:21:28 EDT 2013
User: stostad
Dark Spectrum Present: No
Reference Spectrum Present: No
Number of Sampled Component Spectra: 1
Spectrometers: USB2+H05261
Integration Time (usec): 100000 (USB2+H05261)
Spectra Averaged: 1 (USB2+H05261)
Boxcar Smoothing: 0 (USB2+H05261)
Correct for Electrical Dark: No (USB2+H05261)
Strobe/Lamp Enabled: No (USB2+H05261)
Correct for Detector Non-linearity: No (USB2+H05261)
Correct for Stray Light: No (USB2+H05261)
Number of Pixels in Processed Spectrum: 2048
>>>>>Begin Processed Spectral Data<<<<<
365.73	512.58
365.92	512.58
366.12	512.58
366.32	451.72
366.52	491.51
366.72	484.49
366.91	458.74
367.11	461.09
367.31	421.30
367.51	442.36
367.70	449.38
367.90	407.25
368.10	458.74
368.30	528.96
368.49	456.40
368.69	540.66
368.89	545.34
369.09	484.49
369.28	486.83
369.48	543.00
369.68	451.72
369.87	538.32
370.07	486.83
370.27	543.00
370.47	664.71
370.66	992.39
370.86	929.19
371.06	1074.31
371.25	1130.48
371.45	1036.86
371.65	1179.63
371.84	1107.07
372.04	1076.65
372.24	1067.28
372.44	1081.33
372.63	1107.07
372.83	1125.80
373.03	1167.93
373.22	1240.48
373.42	1196.01
373.62	1205.38
373.81	1224.10
374.01	1205.38
374.21	1331.76
374.40	1231.12
374.60	1266.23
374.79	1277.93
374.99	1294.32
375.19	1219.42
375.38	1301.34
375.58	1291.98
375.78	1322.40
375.97	1256.87
376.17	1284.95
376.37	1359.85
376.56	1327.08
376.76	1266.23
376.95	1306.02
377.15	1280.27
377.35	1359.85
377.54	1320.06
377.74	1404.32
377.93	1465.18
378.13	1308.36
378.33	1334.11
378.52	1423.05
378.72	1336.45
378.91	1387.94
379.11	1350.49
379.31	1387.94
379.50	1376.24
379.70	1390.28
379.89	1448.79
380.09	1399.64
380.28	1444.11
380.48	1383.26
380.68	1343.47
380.87	1399.64
381.07	1439.43
381.26	1509.65
381.46	1493.26
381.65	1467.52
381.85	1467.52
382.04	1448.79
382.24	1575.18
382.43	1535.39
382.63	1537.73
382.83	1563.48
383.02	1598.59
383.22	1661.78
383.41	1542.41
383.61	1607.95
383.80	1579.86
384.00	1647.74
384.19	1636.03
384.39	1598.59
384.58	1647.74
384.78	1547.09
384.97	1621.99
385.17	1605.61
385.36	1650.08
385.56	1486.24
385.75	1650.08
385.95	1689.87
386.14	1708.59
386.34	1643.06
386.53	1788.17
386.72	1741.36
386.92	1596.25
387.11	1689.87
387.31	1767.10
387.50	1769.44
387.70	1741.36
387.89	1750.72
388.09	1818.60
388.28	1713.27
388.48	1760.08
388.67	1799.87
388.86	1905.20
389.06	1926.26
389.25	1863.07
389.45	1923.92
389.64	1879.45
389.84	1886.47
390.03	1937.96
390.22	1893.49
390.42	1851.36
390.61	1959.03
390.81	2012.86
391.00	1923.92
391.19	1921.58
391.39	1987.11
391.58	2015.20
391.78	1996.48
391.97	2015.20
392.16	1996.48
392.36	2059.67
392.55	2071.37
392.75	2122.87
392.94	2059.67
393.13	2052.65
393.33	2043.29
393.52	2115.84
393.71	2160.31
393.91	2003.50
394.10	2078.40
394.29	2181.38
394.49	2216.49
394.68	2139.25
394.88	2202.44
395.07	2321.81
395.26	2221.17
395.46	2225.85
395.65	2270.32
395.84	2263.30
396.04	2312.45
396.23	2305.43
396.42	2321.81
396.62	2415.43
396.81	2342.88
397.00	2361.60
397.19	2434.16
397.39	2392.03
397.58	2361.60
397.77	2502.03
397.97	2436.50
398.16	2424.80
398.35	2499.69
398.55	2539.48
398.74	2612.04
398.93	2471.61
399.12	2539.48
399.32	2544.16
399.51	2614.38
399.70	2576.93
399.90	2520.76
400.09	2586.29
400.28	2670.55
400.47	2537.14
400.67	2693.96
400.86	2691.62
401.05	2717.36
401.24	2724.38
401.44	2834.39
401.63	2785.24
401.82	2750.13
402.01	2785.24
402.21	2822.69
402.40	2881.20
402.59	2885.88
402.78	2855.45
402.97	2815.66
403.17	3000.57
403.36	2848.43
403.55	2967.80
403.74	3077.80
403.93	2958.44
404.13	3009.93
404.32	3162.06
404.51	2981.84
404.70	3056.74
404.89	3087.17
405.09	3162.06
405.28	3141.00
405.47	3185.47
405.66	3218.24
405.85	3176.11
406.05	3213.56
406.24	3248.66
406.43	3176.11
406.62	3375.05
406.81	3419.52
407.00	3215.90
407.20	3332.92
407.39	3199.51
407.58	3353.99
407.77	3421.86
407.96	3370.37
408.15	3508.46
408.34	3414.84
408.54	3566.98
408.73	3609.11
408.92	3569.32
409.11	3653.58
409.30	3618.47
409.49	3625.49
409.68	3700.39
409.87	3693.37
410.07	3637.19
410.26	3770.60
410.45	3627.83
410.64	3641.87
410.83	3721.45
411.02	3829.12
411.21	4007.00
411.40	4002.32
411.59	3957.85
411.78	4044.45
411.98	3859.54
412.17	4133.39
412.36	4156.79
412.55	4264.46
412.74	4100.62
412.93	4163.81
413.12	4135.73
413.31	4236.37
413.50	4189.56
413.69	4084.23
413.88	4400.21
414.07	4231.69
414.26	4430.63
414.45	4404.89
414.64	4456.38
414.83	4498.51
415.02	4671.71
415.22	4526.60
415.41	4697.46
415.60	4664.69
415.79	4744.27
415.98	4842.57
416.17	4695.11
416.36	4791.08
416.55	4716.18
416.74	4990.02
416.93	4924.49
417.12	4966.62
417.31	4985.34
417.50	5116.41
417.69	5097.69
417.88	5174.92
418.07	5048.54
418.26	5083.64
418.45	5097.69
418.64	5355.15
418.83	5174.92
419.02	5135.14
419.21	5460.47
419.39	5479.19
419.58	5444.09
419.77	5352.81
419.96	5380.89
420.15	5502.60
420.34	5593.88
420.53	5565.79
420.72	5701.54
420.91	5631.33
421.10	5624.31
421.29	5675.80
421.48	5753.04
421.67	5610.26
421.86	5715.59
422.05	5664.10
422.24	5731.97
422.43	5650.05
422.61	5708.57
422.80	5724.95
422.99	5806.87
423.18	5884.11
423.37	5851.34
423.56	5921.56
423.75	5902.83
423.94	5563.45
424.13	5533.03
424.32	5755.38
424.50	6003.47
424.69	6038.58
424.88	6029.22
425.07	5841.98
425.26	6022.20
425.45	5893.47
425.64	5746.02
425.83	5813.89
426.01	5912.19
426.20	6061.99
426.39	5923.90
426.58	5949.64
426.77	6024.54
426.96	6010.50
427.15	6029.22
427.33	6179.01
427.52	6317.11
427.71	6235.19
427.90	6026.88
428.09	6153.27
428.28	6375.62
428.46	6375.62
428.65	6443.49
428.84	6633.08
429.03	6647.12
429.22	6387.32
429.40	6403.71
429.59	6544.14
429.78	6090.07
429.97	6265.61
430.16	6321.79
430.34	6637.76
430.53	6640.10
430.72	6656.48
430.91	6546.48
431.10	6394.34
431.28	6850.75
431.47	6803.94
431.66	6787.55
431.85	6794.58
432.03	6970.12
432.22	6986.50
432.41	7089.48
432.60	6860.11
432.79	6911.60
432.97	7033.31
433.16	6998.20
433.35	7194.81
433.54	7091.82
433.72	7213.53
433.91	7255.66
434.10	7108.21
434.28	7234.60
434.47	7304.81
434.66	7454.61
434.85	7440.56
435.03	7478.01
435.22	7576.31
435.41	7719.09
435.59	7473.33
435.78	7669.94
435.97	7751.85
436.16	7482.69
436.34	7503.76
436.53	7557.59
436.72	7712.07
436.90	7363.33
437.09	7644.19
437.28	7508.44
437.46	7674.62
437.65	7660.57
437.84	7997.61
438.02	7981.23
438.21	7922.71
438.40	7700.36
438.58	8182.51
438.77	8212.94
438.96	8049.10
439.14	8121.66
439.33	8365.07
439.52	8514.87
439.70	8360.39
439.89	8542.96
440.08	8786.37
440.26	8720.84
440.45	8514.87
440.63	8683.39
440.82	8793.39
441.01	8730.20
441.19	8849.57
441.38	8903.40
441.57	8990.00
441.75	8936.17
441.94	9240.44
442.12	9287.25
442.31	9146.81
442.50	9303.63
442.68	9186.60
442.87	9305.97
443.05	9249.80
443.24	9638.33
443.43	9392.57
443.61	9490.87
443.80	9750.67
443.98	9310.65
444.17	9186.60
444.35	9514.28
444.54	9844.29
444.73	9760.03
444.91	9621.94
445.10	9727.27
445.28	9575.13
445.47	9603.22
445.65	9577.47
445.84	9731.95
446.02	9689.82
446.21	9799.82
446.39	9617.26
446.58	9762.37
446.77	10090.05
446.95	9493.21
447.14	9753.01
447.32	9870.04
447.51	9558.75
447.69	9860.68
447.88	9767.06
448.06	9788.12
448.25	9638.33
448.43	9888.76
448.62	9935.57
448.80	9874.72
448.99	10164.95
449.17	9961.32
449.36	10080.69
449.54	10167.29
449.73	10317.08
449.91	10445.81
450.10	10333.47
450.28	10413.04
450.46	10438.79
450.65	10326.44
450.83	10399.00
451.02	10359.21
451.20	10630.71
451.39	10518.37
451.57	10417.72
451.76	10630.71
451.94	10670.50
452.13	10927.96
452.31	10698.59
452.49	10555.82
452.68	10731.36
452.86	10614.33
453.05	10768.80
453.23	10995.84
453.42	10855.40
453.60	10693.91
453.78	11073.07
453.97	10927.96
454.15	10895.19
454.34	11117.54
454.52	11367.98
454.70	11068.39
454.89	11377.34
455.07	11447.56
455.26	11421.81
455.44	11398.41
455.62	11133.93
455.81	11330.53
455.99	11339.90
456.17	11674.59
456.36	11517.78
456.54	11627.78
456.73	11915.67
456.91	12102.91
457.09	12208.23
457.28	12152.06
457.46	11784.60
457.64	11990.56
457.83	11946.09
458.01	12081.85
458.19	12257.39
458.38	12025.67
458.56	12219.94
458.74	12484.42
458.93	12212.92
459.11	12318.24
459.29	12430.59
459.48	12479.74
459.66	12404.84
459.84	12470.37
460.03	12734.85
460.21	12856.56
460.39	12652.94
460.57	12791.03
460.76	12699.75
460.94	12776.98
461.12	12856.56
461.31	12947.84
461.49	12835.50
461.67	12769.96
461.85	13233.39
462.04	13266.16
462.22	13427.65
462.40	13338.71
462.59	13476.80
462.77	13411.27
462.95	13362.12
463.13	13158.49
463.32	13341.05
463.50	13584.47
463.68	13568.09
463.86	13437.02
464.05	13282.54
464.23	13319.99
464.41	13579.79
464.59	13418.29
464.78	14099.39
464.96	13881.72
465.14	13429.99
465.32	13860.65
465.50	13909.80
465.69	14085.34
465.87	13752.99
466.05	13778.73
466.23	13919.17
466.41	13980.02
466.60	14176.62
466.78	14080.66
466.96	14155.56
467.14	14068.96
467.32	14097.05
467.51	14251.52
467.69	14019.81
467.87	14274.93
468.05	14494.94
468.23	14176.62
468.41	14225.78
468.60	14335.78
468.78	14923.26
468.96	14380.25
469.14	14635.37
469.32	15143.27
469.50	14382.59
469.69	14934.96
469.87	15098.80
470.05	15063.69
470.23	15112.84
470.41	15358.60
470.59	15255.61
470.77	15187.74
470.95	15321.15
471.14	15477.96
471.32	15169.01
471.50	15627.76
471.68	15632.44
471.86	15618.39
472.04	15503.71
472.22	16121.61
472.40	15693.29
472.58	16093.52
472.77	16030.33
472.95	16093.52
473.13	16587.38
473.31	16027.99
473.49	16184.80
473.67	16229.27
473.85	16393.11
474.03	16772.28
474.21	16945.48
474.39	17003.99
474.57	16741.85
474.75	17268.47
474.93	17163.15
475.12	17202.94
475.30	17273.15
475.48	17116.34
475.66	17352.73
475.84	17444.01
476.02	17598.49
476.20	17905.10
476.38	18085.32
476.56	18373.21
476.74	18174.26
476.92	17881.69
477.10	18019.78
477.28	18356.82
477.46	18815.57
477.64	18635.35
477.82	18970.04
478.00	18986.43
478.18	19056.64
478.36	19379.64
478.54	19398.36
478.72	19506.02
478.90	19747.10
479.08	20217.55
479.26	19906.26
479.44	20507.77
479.62	20423.51
479.80	20542.88
479.98	20910.35
480.16	21249.72
480.34	21153.76
480.52	21268.45
480.70	21195.89
480.88	21083.55
481.06	21240.36
481.24	21474.42
481.41	21799.75
481.59	22256.15
481.77	22225.73
481.95	22394.25
482.13	22724.26
482.31	22501.91
482.49	23192.37
482.67	23187.69
482.85	23218.11
483.03	23740.05
483.21	23641.75
483.39	23864.10
483.57	23852.40
483.74	24074.75
483.92	24416.47
484.10	24203.48
484.28	24830.74
484.46	25090.54
484.64	25418.22
484.82	24954.79
485.00	25315.23
485.18	25961.22
485.35	26242.09
485.53	26246.77
485.71	26204.64
485.89	27016.80
486.07	26513.59
486.25	26850.63
486.43	26934.88
486.61	27037.87
486.78	27461.51
486.96	27941.32
487.14	28215.16
487.32	27992.81
487.50	28304.10
487.68	28297.08
487.85	28837.74
488.03	29127.97
488.21	29479.05
488.39	29483.73
488.57	29326.91
488.75	29467.34
488.92	29972.90
489.10	30635.27
489.28	30331.00
489.46	30862.30
489.64	30553.35
489.81	31496.59
489.99	31257.85
490.17	31695.53
490.35	31936.61
490.53	32180.03
490.70	32304.07
490.88	32615.37
491.06	32767.50
491.24	32847.08
491.41	32561.53
491.59	33006.23
491.77	33565.62
491.95	33322.21
492.13	33436.89
492.30	34132.03
492.48	33771.59
492.66	34258.42
492.84	34345.02
493.01	34841.21
493.19	35136.12
493.37	35164.21
493.54	35292.94
493.72	35791.47
493.90	35761.05
494.08	36339.16
494.25	36378.95
494.43	36449.16
494.61	36549.81
494.79	36957.06
494.96	36664.49
495.14	36804.92
495.32	37268.35
495.49	37619.43
495.67	37862.85
495.85	37776.25
496.02	38494.79
496.20	38515.86
496.38	38469.04
496.55	38543.94
496.73	39552.71
496.91	39077.58
497.09	39512.92
497.26	39761.02
497.44	39662.72
497.62	40196.36
497.79	40357.86
497.97	40807.24
498.14	40989.80
498.32	41017.89
498.50	40664.47
498.67	41015.55
498.85	41064.70
499.03	41340.88
499.20	41373.65
499.38	41968.15
499.56	42148.37
499.73	42312.20
499.91	42347.31
500.08	42607.11
500.26	42185.82
500.44	42375.40
500.61	42880.95
500.79	42747.54
500.97	43035.43
501.14	43540.99
501.32	43468.43
501.49	43363.11
501.67	43852.28
501.84	43779.72
502.02	44013.77
502.20	44037.18
502.37	44215.06
502.55	43894.41
502.72	44222.08
502.90	44652.74
503.07	44783.81
503.25	44657.42
503.43	45048.29
503.60	45490.65
503.78	44980.42
503.95	45212.13
504.13	44882.11
504.30	45652.15
504.48	45549.17
504.65	45951.74
504.83	46380.06
505.01	46546.23
505.18	46188.13
505.36	46483.04
505.53	46085.15
505.71	46637.51
505.88	46363.67
506.06	46623.47
506.23	47168.82
506.41	46653.90
506.58	47292.86
506.76	47384.15
506.93	47800.76
507.11	47840.55
507.28	47786.72
507.46	47868.64
507.63	48172.91
507.81	48591.86
507.98	47775.02
508.16	48198.65
508.33	48428.02
508.50	48533.35
508.68	48734.63
508.85	48912.52
509.03	48713.57
509.20	49027.20
509.38	49357.22
509.55	49261.26
509.73	49516.37
509.90	49567.87
510.08	49837.03
510.25	49593.61
510.42	50061.72
510.60	50064.06
510.77	49743.41
510.95	50127.25
511.12	50206.83
511.30	49881.50
511.47	50831.75
511.64	50234.92
511.82	50850.48
511.99	50401.10
512.17	50827.07
512.34	50946.44
512.51	51192.20
512.69	51351.35
512.86	51494.13
513.04	51531.57
513.21	51475.40
513.38	51519.87
513.56	51767.97
513.73	51269.43
513.90	51892.02
514.08	51992.66
514.25	51924.78
514.43	51847.55
514.60	52102.67
514.77	52526.30
514.95	52463.11
515.12	52048.83
515.29	52488.85
515.47	52533.32
515.64	53284.64
515.81	52472.47
515.99	52725.25
516.16	52872.70
516.33	52776.74
516.51	52959.30
516.68	53071.65
516.85	53123.14
517.03	53455.50
517.20	53558.48
517.37	53333.79
517.54	53446.13
517.72	53364.21
517.89	53684.87
518.06	53715.29
518.24	53640.40
518.41	53640.40
518.58	53649.76
518.75	53897.86
518.93	53949.35
519.10	53628.69
519.27	54211.49
519.45	54096.80
519.62	54031.27
519.79	54368.30
519.96	54443.20
520.14	54546.18
520.31	53876.79
520.48	54384.69
520.65	54480.65
520.83	54915.99
521.00	54747.47
521.17	54890.24
521.34	54754.49
521.52	54944.08
521.69	54810.67
521.86	55154.72
522.03	55231.96
522.20	55276.43
522.38	55540.91
522.55	55695.39
522.72	55281.11
522.89	55363.03
523.07	55760.92
523.24	55695.39
523.41	55835.82
523.58	55416.86
523.75	55714.11
523.92	55657.94
524.10	55978.59
524.27	56177.54
524.44	56095.62
524.61	55950.51
524.78	56182.22
524.96	56135.41
525.13	56079.24
525.30	56743.95
525.47	56594.15
525.64	56303.93
525.81	56399.89
525.98	56523.94
526.16	56413.93
526.33	56617.56
526.50	56938.21
526.67	56561.39
526.84	56858.63
527.01	56755.65
527.18	56804.80
527.36	56851.61
527.53	57106.73
527.70	57055.24
527.87	57141.84
528.04	57088.01
528.21	57450.79
528.38	57380.57
528.55	57385.25
528.72	57080.98
528.89	57272.91
529.07	57293.97
529.24	57275.25
529.41	57581.86
529.58	57682.50
529.75	57698.89
529.92	57420.36
530.09	57588.88
530.26	57528.03
530.43	57729.31
530.60	57254.18
530.77	57680.16
530.94	58120.18
531.11	57799.53
531.28	58021.88
531.46	58073.37
531.63	57851.02
531.80	57923.58
531.97	58068.69
532.14	58045.29
532.31	58127.20
532.48	58213.80
532.65	58452.54
532.82	57998.48
532.99	58309.77
533.16	58244.23
533.33	58387.00
533.50	58646.80
533.67	58466.58
533.84	58344.87
534.01	58433.81
534.18	58656.17
534.35	58796.60
534.52	58707.66
534.69	58890.22
534.86	58843.41
535.03	58497.01
535.20	58754.47
535.37	58883.20
535.54	59079.80
535.71	58976.82
535.88	58770.85
536.05	58995.54
536.22	59128.95
536.38	59084.48
536.55	59068.10
536.72	59171.08
536.89	59281.09
537.06	59262.36
537.23	59482.37
537.40	59629.83
537.57	59285.77
537.74	59096.19
537.91	59669.62
538.08	59428.54
538.25	59238.96
538.42	59784.30
538.59	59847.50
538.75	59402.80
538.92	59786.64
539.09	59690.68
539.26	59632.17
539.43	59608.76
539.60	59793.67
539.77	59550.25
539.94	60055.81
540.11	60032.40
540.28	59966.87
540.44	59992.61
540.61	59983.25
540.78	60104.96
540.95	59980.91
541.12	60030.06
541.29	60161.13
541.46	60189.22
541.62	60285.18
541.79	60247.73
541.96	60025.38
542.13	60128.36
542.30	60226.66
542.47	60240.71
542.63	60341.35
542.80	60451.36
542.97	60711.16
543.14	60907.76
543.31	60825.84
543.48	60722.86
543.64	60992.02
543.81	60598.81
543.98	60701.79
544.15	60591.79
544.32	61013.08
544.48	61165.22
544.65	60987.34
544.82	61193.31
544.99	60837.54
545.16	61066.92
545.32	60956.91
545.49	61078.62
545.66	61272.88
545.83	61446.08
546.00	61518.64
546.16	61303.31
546.33	61261.18
546.50	61095.00
546.67	61212.03
546.83	60800.10
547.00	61134.79
547.17	61097.34
547.34	61155.86
547.50	61394.59
547.67	61694.18
547.84	61525.66
548.00	61740.99
548.17	61558.43
548.34	61595.88
548.51	61504.60
548.67	61516.30
548.84	61343.10
549.01	61584.18
549.18	61528.00
549.34	61680.14
549.51	61581.84
549.68	61701.20
549.84	61614.60
550.01	61820.57
550.18	61579.49
550.34	61790.14
550.51	61698.86
550.68	61694.18
550.84	61586.52
551.01	61965.68
551.18	61694.18
551.34	61719.93
551.51	61752.69
551.68	62038.24
551.84	61865.04
552.01	61869.72
552.18	61907.17
552.34	61858.02
552.51	62298.04
552.68	62108.46
552.84	62113.14
553.01	62141.22
553.18	62014.83
553.34	62340.17
553.51	62007.81
553.67	62162.29
553.84	62501.67
554.01	62319.10
554.17	62494.64
554.34	62464.22
554.51	62471.24
554.67	62401.02
554.84	62389.32
555.00	62204.42
555.17	62298.04
555.33	62237.19
555.50	62363.57
555.67	62576.56
555.83	62520.39
556.00	62541.45
556.16	62611.67
556.33	62532.09
556.50	62614.01
556.66	62433.79
556.83	62597.63
556.99	62592.95
557.16	62789.55
557.32	63016.58
557.49	62944.03
557.65	62499.33
557.82	62754.44
557.98	62532.09
558.15	62461.88
558.32	62752.10
558.48	62796.57
558.65	62719.34
558.81	63025.95
558.98	62890.19
559.14	62871.47
559.31	62904.24
559.47	63051.69
559.64	63030.63
559.80	62859.77
559.97	63021.26
560.13	62859.77
560.30	62913.60
560.46	63171.06
560.63	63220.21
560.79	63107.86
560.96	63416.82
561.12	63124.25
561.29	63016.58
561.45	63159.36
561.61	63051.69
561.78	63100.84
561.94	63243.62
562.11	63405.11
562.27	63489.37
562.44	63215.53
562.60	63395.75
562.77	63304.47
562.93	63145.31
563.10	63231.91
563.26	63119.57
563.42	63433.20
563.59	63358.30
563.75	63323.19
563.92	63700.02
564.08	63419.16
564.24	63524.48
564.41	63337.24
564.57	63311.49
564.74	63295.11
564.90	63620.44
565.07	63362.98
565.23	63529.16
565.39	63622.78
565.56	63674.27
565.72	63461.29
565.88	63643.85
566.05	63454.26
566.21	63498.73
566.38	63458.94
566.54	63412.13
566.70	63655.55
566.87	63636.83
567.03	63428.52
567.19	63819.39
567.36	63756.19
567.52	63526.82
567.68	63730.45
567.85	63421.50
568.01	63690.66
568.17	63681.30
568.34	63550.23
568.50	63585.33
568.66	63732.79
568.83	63931.73
568.99	63667.25
569.15	63758.53
569.32	63648.53
569.48	63676.61
569.64	63704.70
569.81	63716.40
569.97	63475.33
570.13	63620.44
570.30	63854.50
570.46	63835.77
570.62	63742.15
570.78	63824.07
570.95	63756.19
571.11	63905.99
571.27	63791.30
571.43	63730.45
571.60	63774.92
571.76	63781.94
571.92	63683.64
572.09	63943.44
572.25	63999.61
572.41	63873.22
572.57	63908.33
572.74	64001.95
572.90	63693.00
573.06	63966.84
573.22	63936.41
573.38	63891.94
573.55	64062.80
573.71	64273.45
573.87	64102.59
574.03	63767.90
574.20	63866.20
574.36	64130.68
574.52	63964.50
574.68	63962.16
574.84	64128.34
575.01	63898.97
575.17	63973.86
575.33	64067.48
575.49	64212.60
575.65	64275.79
575.82	64128.34
575.98	64212.60
576.14	63983.22
576.30	64144.72
576.46	63927.05
576.62	63852.15
576.79	63920.03
576.95	64100.25
577.11	64102.59
577.27	64121.32
577.43	64069.82
577.59	64081.53
577.75	64374.09
577.92	64018.33
578.08	64109.61
578.24	64067.48
578.40	64245.36
578.56	64149.40
578.72	64182.17
578.88	64191.53
579.04	64271.11
579.21	64058.12
579.37	64261.75
579.53	64320.26
579.69	63856.84
579.85	64175.15
580.01	64156.42
580.17	64079.19
580.33	64142.38
580.49	64331.96
580.65	64418.56
580.82	64296.86
580.98	64126.00
581.14	64530.91
581.30	64420.90
581.46	64273.45
581.62	64116.64
581.78	64144.72
581.94	64341.33
582.10	64093.23
582.26	64294.52
582.42	64250.05
582.58	64228.98
582.74	64392.82
582.90	64336.65
583.06	64285.15
583.22	64306.22
583.38	64266.43
583.54	64111.95
583.70	64081.53
583.86	64493.46
584.02	64317.92
584.18	64458.35
584.34	64402.18
584.50	64294.52
584.66	64308.56
584.82	64268.77
584.98	64395.16
585.14	64200.89
585.30	64411.54
585.46	64523.89
585.62	64191.53
585.78	64308.56
585.94	64320.26
586.10	64378.78
586.26	64374.09
586.42	64530.91
586.58	64427.93
586.74	64395.16
586.90	64285.15
587.06	64289.84
587.22	64467.72
587.38	64287.49
587.54	64718.15
