SpectraSuite Data File
++++++++++++++++++++++++++++++++++++
Date: Thu Oct 24 13:21:41 EDT 2013
User: stostad
Dark Spectrum Present: No
Reference Spectrum Present: No
Number of Sampled Component Spectra: 1
Spectrometers: USB2+H05261
Integration Time (usec): 100000 (USB2+H05261)
Spectra Averaged: 1 (USB2+H05261)
Boxcar Smoothing: 0 (USB2+H05261)
Correct for Electrical Dark: No (USB2+H05261)
Strobe/Lamp Enabled: No (USB2+H05261)
Correct for Detector Non-linearity: No (USB2+H05261)
Correct for Stray Light: No (USB2+H05261)
Number of Pixels in Processed Spectrum: 2048
>>>>>Begin Processed Spectral Data<<<<<
365.73	613.22
365.92	613.22
366.12	613.22
366.32	535.98
366.52	521.94
366.72	543.00
366.91	470.45
367.11	472.79
367.31	449.38
367.51	463.43
367.70	463.43
367.90	528.96
368.10	479.81
368.30	477.47
368.49	477.47
368.69	547.69
368.89	545.34
369.09	507.90
369.28	524.28
369.48	585.13
369.68	561.73
369.87	575.77
370.07	559.39
370.27	603.86
370.47	814.51
370.66	1451.13
370.86	1476.88
371.06	1504.96
371.25	1640.72
371.45	1540.07
371.65	1544.75
371.84	1535.39
372.04	1526.03
372.24	1586.88
372.44	1713.27
372.63	1638.38
372.83	1713.27
373.03	1750.72
373.22	1701.57
373.42	1682.85
373.62	1652.42
373.81	1746.04
374.01	1727.32
374.21	1701.57
374.40	1713.27
374.60	1846.68
374.79	1717.95
374.99	1741.36
375.19	1902.86
375.38	1771.79
375.58	1820.94
375.78	1937.96
375.97	1898.17
376.17	1944.99
376.37	1919.24
376.56	1781.15
376.76	1921.58
376.95	1942.64
377.15	1991.80
377.35	1937.96
377.54	1888.81
377.74	1994.14
377.93	1996.48
378.13	2085.42
378.33	2036.27
378.52	1994.14
378.72	2062.01
378.91	2047.97
379.11	2083.08
379.31	2054.99
379.50	2122.87
379.70	2106.48
379.89	2139.25
380.09	2214.15
380.28	2181.38
380.48	2127.55
380.68	2155.63
380.87	2155.63
381.07	2148.61
381.26	2122.87
381.46	2300.75
381.65	2314.79
381.85	2326.49
382.04	2321.81
382.24	2321.81
382.43	2349.90
382.63	2312.45
382.83	2401.39
383.02	2483.31
383.22	2377.98
383.41	2396.71
383.61	2370.96
383.80	2576.93
384.00	2502.03
384.19	2516.08
384.39	2471.61
384.58	2375.64
384.78	2518.42
384.97	2642.46
385.17	2562.89
385.36	2499.69
385.56	2560.55
385.75	2567.57
385.95	2635.44
386.14	2654.17
386.34	2663.53
386.53	2738.43
386.72	2724.38
386.92	2700.98
387.11	2792.26
387.31	2757.15
387.50	2647.15
387.70	2743.11
387.89	2691.62
388.09	2843.75
388.28	2808.64
388.48	2885.88
388.67	2953.76
388.86	2878.86
389.06	2993.55
389.25	2930.35
389.45	2913.97
389.64	3023.97
389.84	2935.03
390.03	2904.60
390.22	2991.20
390.42	3068.44
390.61	2972.48
390.81	3000.57
391.00	3138.66
391.19	3040.36
391.39	3173.77
391.58	3019.29
391.78	3269.73
391.97	3208.87
392.16	3119.93
392.36	3368.03
392.55	3255.69
392.75	3293.13
392.94	3323.56
393.13	3272.07
393.33	3187.81
393.52	3410.16
393.71	3475.70
393.91	3302.50
394.10	3574.00
394.29	3442.93
394.49	3548.25
394.68	3578.68
394.88	3353.99
395.07	3627.83
395.26	3592.72
395.46	3566.98
395.65	3674.64
395.84	3538.89
396.04	3756.56
396.23	3705.07
396.42	3606.77
396.62	3770.60
396.81	3880.61
397.00	3878.27
397.19	3836.14
397.39	3845.50
397.58	3899.33
397.77	3758.90
397.97	4004.66
398.16	4044.45
398.35	4028.06
398.55	3892.31
398.74	4042.11
398.93	4119.34
399.12	4072.53
399.32	4060.83
399.51	4121.68
399.70	4290.20
399.90	4208.28
400.09	4229.35
400.28	4395.53
400.47	4248.07
400.67	4381.48
400.86	4318.29
401.05	4409.57
401.24	4418.93
401.44	4329.99
401.63	4442.34
401.82	4603.83
402.01	4528.94
402.21	4484.47
402.40	4610.86
402.59	4624.90
402.78	4648.30
402.97	4662.35
403.17	4760.65
403.36	4723.20
403.55	4737.24
403.74	4842.57
403.93	4924.49
404.13	4973.64
404.32	4812.14
404.51	4851.93
404.70	5085.98
404.89	5032.15
405.09	5100.03
405.28	5067.26
405.47	5064.92
405.66	4940.87
405.85	5128.11
406.05	5050.88
406.24	5210.03
406.43	5200.67
406.62	5425.36
406.81	5472.17
407.00	5081.30
407.20	5200.67
407.39	5380.89
407.58	5408.98
407.77	5483.88
407.96	5537.71
408.15	5699.20
408.34	5488.56
408.54	5556.43
408.73	5540.05
408.92	5617.29
409.11	5708.57
409.30	5736.65
409.49	5895.81
409.68	5760.06
409.87	5942.62
410.07	5980.07
410.26	6057.31
410.45	6022.20
410.64	6080.71
410.83	6214.12
411.02	6300.72
411.21	6394.34
411.40	6214.12
411.59	6338.17
411.78	6366.26
411.98	6525.41
412.17	6422.43
412.36	6539.46
412.55	6518.39
412.74	6602.65
412.93	6628.40
413.12	6710.32
413.31	6890.54
413.50	6942.03
413.69	6862.45
413.88	7183.10
414.07	7070.76
414.26	7133.95
414.45	7082.46
414.64	7267.36
414.83	7346.94
415.02	7150.34
415.22	7398.43
415.41	7435.88
415.60	7527.16
415.79	7489.71
415.98	7716.75
416.17	7761.22
416.36	7857.18
416.55	7829.09
416.74	7819.73
416.93	7824.41
417.12	8035.06
417.31	8091.23
417.50	8187.19
417.69	8503.17
417.88	8276.13
418.07	8280.82
418.26	8163.79
418.45	8468.06
418.64	8549.98
418.83	8533.59
419.02	8507.85
419.21	8718.50
419.39	8676.37
419.58	8655.30
419.77	8669.34
419.96	8819.14
420.15	8901.06
420.34	8870.63
420.53	8779.35
420.72	8840.20
420.91	9055.53
421.10	9146.81
421.29	9071.92
421.48	8985.32
421.67	9238.09
421.86	9177.24
422.05	9270.86
422.24	9102.34
422.43	9263.84
422.61	9348.10
422.80	9495.55
422.99	9586.83
423.18	9530.66
423.37	9481.51
423.56	9343.42
423.75	9256.82
423.94	9294.27
424.13	8858.93
424.32	9139.79
424.50	9715.56
424.69	9717.90
424.88	9776.42
425.07	9533.00
425.26	9467.47
425.45	9507.26
425.64	9441.72
425.83	9628.96
426.01	9689.82
426.20	9687.48
426.39	9591.52
426.58	9535.34
426.77	9874.72
426.96	9900.47
427.15	9727.27
427.33	9921.53
427.52	9771.74
427.71	10087.71
427.90	10068.98
428.09	10012.81
428.28	10141.54
428.46	10291.34
428.65	10267.93
428.84	10448.15
429.03	10551.14
429.22	10237.50
429.40	10462.19
429.59	10279.63
429.78	10178.99
429.97	10139.20
430.16	10534.75
430.34	10827.32
430.53	10883.49
430.72	10555.82
430.91	10810.93
431.10	10752.42
431.28	11047.33
431.47	11192.44
431.66	11040.31
431.85	11178.40
432.03	11262.66
432.22	11552.88
432.41	11346.92
432.60	11360.96
432.79	11463.94
432.97	11412.45
433.16	11379.68
433.35	11698.00
433.54	11726.08
433.72	11702.68
433.91	11709.70
434.10	11770.55
434.28	11625.44
434.47	11948.43
434.66	11908.65
434.85	12210.57
435.03	12304.20
435.22	12121.63
435.41	12723.15
435.59	12395.48
435.78	12526.55
435.97	12559.31
436.16	12278.45
436.34	12372.07
436.53	12479.74
436.72	12627.19
436.90	12496.12
437.09	12788.69
437.28	12432.93
437.46	12629.53
437.65	12945.50
437.84	12996.99
438.02	13102.32
438.21	12922.10
438.40	12844.86
438.58	13202.96
438.77	13472.12
438.96	13226.37
439.14	13846.61
439.33	13713.20
439.52	13706.18
439.70	14073.64
439.89	14150.88
440.08	14176.62
440.26	14314.72
440.45	14167.26
440.63	14420.04
440.82	14541.75
441.01	14338.12
441.19	14719.63
441.38	14909.21
441.57	14628.35
441.75	14927.94
441.94	15192.42
442.12	15084.75
442.31	15515.41
442.50	15620.74
442.68	15426.47
442.87	15431.15
443.05	15690.95
443.24	15878.19
443.43	15826.70
443.61	15672.23
443.80	16521.84
443.98	15435.83
444.17	15204.12
444.35	15751.81
444.54	16205.87
444.73	16243.32
444.91	16135.65
445.10	16343.96
445.28	16098.20
445.47	16065.44
445.65	15997.56
445.84	16280.77
446.02	16439.92
446.21	16257.36
446.39	16533.54
446.58	16526.52
446.77	16580.36
446.95	15955.43
447.14	16470.35
447.32	16599.08
447.51	16278.43
447.69	16346.30
447.88	16196.51
448.06	16528.86
448.25	16472.69
448.43	16456.31
448.62	16629.51
448.80	16655.25
448.99	16479.71
449.17	16847.18
449.36	17083.57
449.54	17083.57
449.73	17518.91
449.91	17628.92
450.10	17509.55
450.28	17364.43
450.46	17671.04
450.65	17893.40
450.83	17635.94
451.02	17671.04
451.20	17717.86
451.39	17804.46
451.57	17860.63
451.76	17467.42
451.94	17767.01
452.13	18162.56
452.31	18010.42
452.49	17881.69
452.68	18270.22
452.86	18307.67
453.05	18122.77
453.23	18520.66
453.42	18127.45
453.60	18429.38
453.78	18768.76
453.97	18263.20
454.15	18190.64
454.34	18185.96
454.52	18958.34
454.70	18911.53
454.89	19061.32
455.07	19023.87
455.26	19208.78
455.44	19580.92
455.62	19166.65
455.81	19405.38
455.99	19552.84
456.17	19761.14
456.36	19840.72
456.54	19711.99
456.73	19929.66
456.91	20521.82
457.09	20084.14
457.28	20421.17
457.46	20271.38
457.64	20643.52
457.83	20472.67
458.01	20205.84
458.19	20987.58
458.38	20755.87
458.56	21010.99
458.74	20709.06
458.93	20793.32
459.11	20905.66
459.29	21013.33
459.48	20922.05
459.66	21219.30
459.84	21301.22
460.03	21607.83
460.21	21708.47
460.39	21596.12
460.57	21448.67
460.76	21626.55
460.94	22094.66
461.12	21991.67
461.31	22057.21
461.49	22132.11
461.67	22237.43
461.85	22459.78
462.04	22345.09
462.22	22883.42
462.40	22717.24
462.59	22881.08
462.77	22817.88
462.95	22867.03
463.13	22977.04
463.32	22881.08
463.50	22923.21
463.68	22984.06
463.86	23447.49
464.05	23021.51
464.23	23033.21
464.41	23630.05
464.59	22998.10
464.78	23733.03
464.96	23583.24
465.14	23175.98
465.32	23576.22
465.50	23723.67
465.69	23974.11
465.87	23967.09
466.05	23843.04
466.23	23971.77
466.41	24159.01
466.60	24711.38
466.78	24325.19
466.96	24067.73
467.14	24383.70
467.32	24444.56
467.51	24592.01
467.69	23929.64
467.87	24596.69
468.05	24706.70
468.23	24491.37
468.41	24620.10
468.60	24877.55
468.78	25102.25
468.96	24781.59
469.14	25336.30
469.32	25710.78
469.50	25135.01
469.69	25596.10
469.87	25956.54
470.05	25724.83
470.23	25923.77
470.41	26403.58
470.59	26113.36
470.77	26169.53
470.95	26225.70
471.14	26834.24
471.32	26073.57
471.50	26827.22
471.68	26813.18
471.86	26993.40
472.04	27047.23
472.22	28027.92
472.40	27501.29
472.58	27515.34
472.77	27843.01
472.95	27950.68
473.13	28451.55
473.31	27580.87
473.49	28109.83
473.67	28170.69
473.85	28723.05
474.03	29163.08
474.21	28629.43
474.39	29252.02
474.57	29212.23
474.75	29575.01
474.93	29788.00
475.12	29572.67
475.30	29930.77
475.48	30057.16
475.66	30373.13
475.84	30265.47
476.02	30548.67
476.20	30401.22
476.38	31197.00
476.56	32245.56
476.74	31817.24
476.92	31835.97
477.10	31676.81
477.28	31960.02
477.46	32168.32
477.64	32414.08
477.82	32987.51
478.00	33579.67
478.18	33036.66
478.36	33656.90
478.54	34199.91
478.72	33804.36
478.90	34494.82
479.08	34541.63
479.26	35145.48
479.44	35299.96
479.62	35388.90
479.80	36114.47
479.98	36070.00
480.16	37146.64
480.34	36636.41
480.52	36992.17
480.70	37078.77
480.88	37060.04
481.06	37378.36
481.24	37584.32
481.41	37942.42
481.59	38316.91
481.77	38660.97
481.95	39220.36
482.13	39150.14
482.31	39122.05
482.49	40470.20
482.67	40142.53
482.85	40554.46
483.03	40957.03
483.21	41448.55
483.39	41691.96
483.57	41600.68
483.74	42143.69
483.92	42085.17
484.10	42543.92
484.28	43143.09
484.46	43445.02
484.64	44189.31
484.82	43650.99
485.00	44133.14
485.18	45059.99
485.35	45787.90
485.53	45198.09
485.71	45743.43
485.89	46464.32
486.07	45930.67
486.25	46382.40
486.43	46443.25
486.61	46857.52
486.78	47531.60
486.96	47351.38
487.14	48240.78
487.32	48109.71
487.50	48311.00
487.68	48699.53
487.85	49551.48
488.03	49708.30
488.21	50267.69
488.39	50138.96
488.57	50564.93
488.75	50520.46
488.92	51222.62
489.10	51695.41
489.28	51901.38
489.46	52046.49
489.64	52105.01
489.81	52343.74
489.99	52622.26
490.17	52861.00
490.35	53247.19
490.53	53537.41
490.70	53495.28
490.88	53638.06
491.06	53841.68
491.24	53848.71
491.41	54426.82
491.59	54464.27
491.77	54813.01
491.95	54876.20
492.13	54986.21
492.30	55309.20
492.48	55285.79
492.66	55533.89
492.84	55831.14
493.01	56039.45
493.19	56044.13
493.37	56367.12
493.54	56477.13
493.72	56676.07
493.90	56837.57
494.08	57095.03
494.25	57230.78
494.43	57301.00
494.61	57411.00
494.79	57670.80
494.96	57600.58
495.14	57797.19
495.32	58110.82
495.49	58260.62
495.67	58340.19
495.85	58527.44
496.02	58590.63
496.20	59075.12
496.38	58969.80
496.55	59133.63
496.73	59716.43
496.91	59540.89
497.09	59662.60
497.26	59732.81
497.44	59613.44
497.62	59826.43
497.79	60530.93
497.97	60067.51
498.14	60519.23
498.32	60388.16
498.50	60552.00
498.67	60760.31
498.85	60608.17
499.03	60940.53
499.20	60992.02
499.38	60893.72
499.56	61209.69
499.73	61385.23
499.91	61481.19
500.08	61616.94
500.26	61460.13
500.44	61499.92
500.61	61996.11
500.79	61593.54
500.97	62075.69
501.14	62302.72
501.32	61979.73
501.49	62209.10
501.67	62312.08
501.84	62564.86
502.02	62496.98
502.20	62485.28
502.37	62831.68
502.55	62876.15
502.72	62836.36
502.90	62646.78
503.07	62878.49
503.25	63171.06
503.43	63159.36
503.60	63257.66
503.78	63323.19
503.95	63316.17
504.13	63320.85
504.30	63487.03
504.48	63421.50
504.65	63819.39
504.83	63852.15
505.01	63980.88
505.18	63983.22
505.36	64203.24
505.53	63969.18
505.71	64196.21
505.88	64299.20
506.06	63983.22
506.23	64577.72
506.41	64348.35
506.58	64601.13
506.76	64486.44
506.93	64748.58
507.11	64664.32
507.28	64928.80
507.46	64973.27
507.63	65031.78
507.81	65055.19
507.98	64877.31
508.16	65186.26
508.33	65078.60
508.50	65312.65
508.68	65483.51
508.85	65535.00
509.03	65535.00
509.20	65535.00
509.38	65535.00
509.55	65535.00
509.73	65535.00
509.90	65535.00
510.08	65535.00
510.25	65535.00
510.42	65535.00
510.60	65535.00
510.77	65535.00
510.95	65535.00
511.12	65535.00
511.30	65535.00
511.47	65535.00
511.64	65535.00
511.82	65535.00
511.99	65535.00
512.17	65535.00
512.34	65535.00
512.51	65535.00
512.69	65535.00
512.86	65535.00
513.04	65535.00
513.21	65535.00
513.38	65535.00
513.56	65535.00
513.73	65535.00
513.90	65535.00
514.08	65535.00
514.25	65535.00
514.43	65535.00
514.60	65535.00
514.77	65535.00
514.95	65535.00
515.12	65535.00
515.29	65535.00
515.47	65535.00
515.64	65535.00
515.81	65535.00
515.99	65535.00
516.16	65535.00
516.33	65535.00
516.51	65535.00
516.68	65535.00
516.85	65535.00
517.03	65535.00
517.20	65535.00
517.37	65535.00
517.54	65535.00
517.72	65535.00
517.89	65535.00
518.06	65535.00
518.24	65535.00
518.41	65535.00
518.58	65535.00
518.75	65535.00
518.93	65535.00
519.10	65535.00
519.27	65535.00
519.45	65535.00
519.62	65535.00
519.79	65535.00
519.96	65535.00
520.14	65535.00
520.31	65535.00
520.48	65535.00
520.65	65535.00
520.83	65535.00
521.00	65535.00
521.17	65535.00
521.34	65535.00
521.52	65535.00
521.69	65535.00
521.86	65535.00
522.03	65535.00
522.20	65535.00
522.38	65535.00
522.55	65535.00
522.72	65535.00
522.89	65535.00
523.07	65535.00
523.24	65535.00
523.41	65535.00
523.58	65535.00
523.75	65535.00
523.92	65535.00
524.10	65535.00
524.27	65535.00
524.44	65535.00
524.61	65535.00
524.78	65535.00
524.96	65535.00
525.13	65535.00
525.30	65535.00
525.47	65535.00
525.64	65535.00
525.81	65535.00
525.98	65535.00
526.16	65535.00
526.33	65535.00
526.50	65535.00
526.67	65535.00
526.84	65535.00
527.01	65535.00
527.18	65535.00
527.36	65535.00
527.53	65535.00
527.70	65535.00
527.87	65535.00
528.04	65535.00
528.21	65535.00
528.38	65535.00
528.55	65535.00
528.72	65535.00
528.89	65535.00
529.07	65535.00
529.24	65535.00
529.41	65535.00
529.58	65535.00
529.75	65535.00
529.92	65535.00
530.09	65535.00
530.26	65535.00
530.43	65535.00
530.60	65535.00
530.77	65535.00
530.94	65535.00
531.11	65535.00
531.28	65535.00
531.46	65535.00
531.63	65535.00
531.80	65535.00
531.97	65535.00
532.14	65535.00
532.31	65535.00
532.48	65535.00
532.65	65535.00
532.82	65535.00
532.99	65535.00
533.16	65535.00
533.33	65535.00
533.50	65535.00
533.67	65535.00
533.84	65535.00
534.01	65535.00
534.18	65535.00
534.35	65535.00
534.52	65535.00
534.69	65535.00
534.86	65535.00
535.03	65535.00
535.20	65535.00
535.37	65535.00
535.54	65535.00
535.71	65535.00
535.88	65535.00
536.05	65535.00
536.22	65535.00
536.38	65535.00
536.55	65535.00
536.72	65535.00
536.89	65535.00
537.06	65535.00
537.23	65535.00
537.40	65535.00
537.57	65535.00
537.74	65535.00
537.91	65535.00
538.08	65535.00
538.25	65535.00
538.42	65535.00
538.59	65535.00
538.75	65535.00
538.92	65535.00
539.09	65535.00
539.26	65535.00
539.43	65535.00
539.60	65535.00
539.77	65535.00
539.94	65535.00
540.11	65535.00
540.28	65535.00
540.44	65535.00
540.61	65535.00
540.78	65535.00
540.95	65535.00
541.12	65535.00
541.29	65535.00
541.46	65535.00
541.62	65535.00
541.79	65535.00
541.96	65535.00
542.13	65535.00
542.30	65535.00
542.47	65535.00
542.63	65535.00
542.80	65535.00
542.97	65535.00
543.14	65535.00
543.31	65535.00
543.48	65535.00
543.64	65535.00
543.81	65535.00
543.98	65535.00
544.15	65535.00
544.32	65535.00
544.48	65535.00
544.65	65535.00
544.82	65535.00
544.99	65535.00
545.16	65535.00
545.32	65535.00
545.49	65535.00
545.66	65535.00
545.83	65535.00
546.00	65535.00
546.16	65535.00
546.33	65535.00
546.50	65535.00
546.67	65535.00
546.83	65535.00
547.00	65535.00
547.17	65535.00
547.34	65535.00
547.50	65535.00
547.67	65535.00
547.84	65535.00
548.00	65535.00
548.17	65535.00
548.34	65535.00
548.51	65535.00
548.67	65535.00
548.84	65535.00
549.01	65535.00
549.18	65535.00
549.34	65535.00
549.51	65535.00
549.68	65535.00
549.84	65535.00
550.01	65535.00
550.18	65535.00
550.34	65535.00
550.51	65535.00
550.68	65535.00
550.84	65535.00
551.01	65535.00
551.18	65535.00
551.34	65535.00
551.51	65535.00
551.68	65535.00
551.84	65535.00
552.01	65535.00
552.18	65535.00
552.34	65535.00
552.51	65535.00
552.68	65535.00
552.84	65535.00
553.01	65535.00
553.18	65535.00
553.34	65535.00
553.51	65535.00
553.67	65535.00
553.84	65535.00
554.01	65535.00
554.17	65535.00
554.34	65535.00
554.51	65535.00
554.67	65535.00
554.84	65535.00
555.00	65535.00
555.17	65535.00
555.33	65535.00
555.50	65535.00
555.67	65535.00
555.83	65535.00
556.00	65535.00
556.16	65535.00
556.33	65535.00
556.50	65535.00
556.66	65535.00
556.83	65535.00
556.99	65535.00
557.16	65535.00
557.32	65535.00
557.49	65535.00
557.65	65535.00
557.82	65535.00
557.98	65535.00
558.15	65535.00
558.32	65535.00
558.48	65535.00
558.65	65535.00
558.81	65535.00
558.98	65535.00
559.14	65535.00
559.31	65535.00
559.47	65535.00
559.64	65535.00
559.80	65535.00
559.97	65535.00
560.13	65535.00
560.30	65535.00
560.46	65535.00
560.63	65535.00
560.79	65535.00
560.96	65535.00
561.12	65535.00
561.29	65535.00
561.45	65535.00
561.61	65535.00
561.78	65535.00
561.94	65535.00
562.11	65535.00
562.27	65535.00
562.44	65535.00
562.60	65535.00
562.77	65535.00
562.93	65535.00
563.10	65535.00
563.26	65535.00
563.42	65535.00
563.59	65535.00
563.75	65535.00
563.92	65535.00
564.08	65535.00
564.24	65535.00
564.41	65535.00
564.57	65535.00
564.74	65535.00
564.90	65535.00
565.07	65535.00
565.23	65535.00
565.39	65535.00
565.56	65535.00
565.72	65535.00
565.88	65535.00
566.05	65535.00
566.21	65535.00
566.38	65535.00
566.54	65535.00
566.70	65535.00
566.87	65535.00
567.03	65535.00
567.19	65535.00
567.36	65535.00
567.52	65535.00
567.68	65535.00
567.85	65535.00
568.01	65535.00
568.17	65535.00
568.34	65535.00
568.50	65535.00
568.66	65535.00
568.83	65535.00
568.99	65535.00
569.15	65535.00
569.32	65535.00
569.48	65535.00
569.64	65535.00
569.81	65535.00
569.97	65535.00
570.13	65535.00
570.30	65535.00
570.46	65535.00
570.62	65535.00
570.78	65535.00
570.95	65535.00
571.11	65535.00
571.27	65535.00
571.43	65535.00
571.60	65535.00
571.76	65535.00
571.92	65535.00
572.09	65535.00
572.25	65535.00
572.41	65535.00
572.57	65535.00
572.74	65535.00
572.90	65535.00
573.06	65535.00
573.22	65535.00
573.38	65535.00
573.55	65535.00
573.71	65535.00
573.87	65535.00
574.03	65535.00
574.20	65535.00
574.36	65535.00
574.52	65535.00
574.68	65535.00
574.84	65535.00
575.01	65535.00
575.17	65535.00
575.33	65535.00
575.49	65535.00
575.65	65535.00
575.82	65535.00
575.98	65535.00
576.14	65535.00
576.30	65535.00
576.46	65535.00
576.62	65535.00
576.79	65535.00
576.95	65535.00
577.11	65535.00
577.27	65535.00
577.43	65535.00
577.59	65535.00
577.75	65535.00
577.92	65535.00
578.08	65535.00
578.24	65535.00
578.40	65535.00
578.56	65535.00
578.72	65535.00
578.88	65535.00
579.04	65535.00
579.21	65535.00
579.37	65535.00
579.53	65535.00
579.69	65535.00
579.85	65535.00
580.01	65535.00
580.17	65535.00
580.33	65535.00
580.49	65535.00
580.65	65535.00
580.82	65535.00
580.98	65535.00
581.14	65535.00
581.30	65535.00
581.46	65535.00
581.62	65535.00
581.78	65535.00
581.94	65535.00
582.10	65535.00
582.26	65535.00
582.42	65535.00
582.58	65535.00
582.74	65535.00
582.90	65535.00
583.06	65535.00
583.22	65535.00
583.38	65535.00
583.54	65535.00
583.70	65535.00
583.86	65535.00
584.02	65535.00
584.18	65535.00
584.34	65535.00
584.50	65535.00
584.66	65535.00
584.82	65535.00
584.98	65535.00
585.14	65535.00
585.30	65535.00
585.46	65535.00
585.62	65535.00
585.78	65535.00
585.94	65535.00
586.10	65535.00
586.26	65535.00
586.42	65535.00
