SpectraSuite Data File
++++++++++++++++++++++++++++++++++++
Date: Thu Oct 24 13:21:18 EDT 2013
User: stostad
Dark Spectrum Present: No
Reference Spectrum Present: No
Number of Sampled Component Spectra: 1
Spectrometers: USB2+H05261
Integration Time (usec): 100000 (USB2+H05261)
Spectra Averaged: 1 (USB2+H05261)
Boxcar Smoothing: 0 (USB2+H05261)
Correct for Electrical Dark: No (USB2+H05261)
Strobe/Lamp Enabled: No (USB2+H05261)
Correct for Detector Non-linearity: No (USB2+H05261)
Correct for Stray Light: No (USB2+H05261)
Number of Pixels in Processed Spectrum: 2048
>>>>>Begin Processed Spectral Data<<<<<
365.73	535.98
365.92	535.98
366.12	535.98
366.32	503.22
366.52	514.92
366.72	456.40
366.91	416.62
367.11	397.89
367.31	458.74
367.51	463.43
367.70	463.43
367.90	486.83
368.10	451.72
368.30	451.72
368.49	456.40
368.69	493.85
368.89	447.04
369.09	484.49
369.28	451.72
369.48	500.87
369.68	437.68
369.87	475.13
370.07	484.49
370.27	578.11
370.47	615.56
370.66	690.46
370.86	753.65
371.06	842.59
371.25	905.79
371.45	851.96
371.65	889.40
371.84	905.79
372.04	915.15
372.24	814.51
372.44	821.53
372.63	851.96
372.83	905.79
373.03	854.30
373.22	823.87
373.42	880.04
373.62	961.96
373.81	971.32
374.01	950.26
374.21	912.81
374.40	912.81
374.60	961.96
374.79	1006.43
374.99	910.47
375.19	1004.09
375.38	1008.77
375.58	976.00
375.78	961.96
375.97	1006.43
376.17	917.49
376.37	961.96
376.56	1008.77
376.76	976.00
376.95	1020.47
377.15	990.05
377.35	1027.50
377.54	1083.67
377.74	938.55
377.93	945.58
378.13	1067.28
378.33	980.68
378.52	952.60
378.72	1034.52
378.91	1022.81
379.11	973.66
379.31	964.30
379.50	1083.67
379.70	884.72
379.89	990.05
380.09	1041.54
380.28	1046.22
380.48	992.39
380.68	1064.94
380.87	1078.99
381.07	1078.99
381.26	1067.28
381.46	1062.60
381.65	1132.82
381.85	1074.31
382.04	1004.09
382.24	1114.10
382.43	1076.65
382.63	1069.62
382.83	1128.14
383.02	1043.88
383.22	1062.60
383.41	1071.97
383.61	1158.57
383.80	1149.20
384.00	1179.63
384.19	1116.44
384.39	1163.25
384.58	1121.12
384.78	1111.75
384.97	1114.10
385.17	1046.22
385.36	1142.18
385.56	1149.20
385.75	1198.35
385.95	1128.14
386.14	1100.05
386.34	1100.05
386.53	1221.76
386.72	1174.95
386.92	1174.95
387.11	1284.95
387.31	1163.25
387.50	1163.25
387.70	1235.80
387.89	1273.25
388.09	1240.48
388.28	1249.85
388.48	1252.19
388.67	1275.59
388.86	1181.97
389.06	1287.29
389.25	1277.93
389.45	1259.21
389.64	1282.61
389.84	1327.08
390.03	1249.85
390.22	1245.16
390.42	1184.31
390.61	1282.61
390.81	1331.76
391.00	1362.19
391.19	1345.81
391.39	1266.23
391.58	1331.76
391.78	1315.38
391.97	1294.32
392.16	1306.02
392.36	1350.49
392.55	1387.94
392.75	1399.64
392.94	1313.04
393.13	1401.98
393.33	1329.42
393.52	1327.08
393.71	1416.02
393.91	1352.83
394.10	1364.53
394.29	1369.21
394.49	1343.47
394.68	1397.30
394.88	1519.01
395.07	1472.20
395.26	1404.32
395.46	1521.35
395.65	1598.59
395.84	1533.05
396.04	1542.41
396.23	1476.88
396.42	1497.94
396.62	1486.24
396.81	1570.50
397.00	1439.43
397.19	1465.18
397.39	1507.30
397.58	1607.95
397.77	1509.65
397.97	1526.03
398.16	1568.16
398.35	1661.78
398.55	1565.82
398.74	1647.74
398.93	1640.72
399.12	1675.82
399.32	1605.61
399.51	1640.72
399.70	1549.43
399.90	1619.65
400.09	1774.13
400.28	1652.42
400.47	1600.93
400.67	1774.13
400.86	1753.06
401.05	1675.82
401.24	1795.19
401.44	1769.44
401.63	1816.26
401.82	1760.08
402.01	1710.93
402.21	1729.66
402.40	1769.44
402.59	1802.21
402.78	1713.27
402.97	1830.30
403.17	1844.34
403.36	1834.98
403.55	1802.21
403.74	1834.98
403.93	1963.71
404.13	2033.93
404.32	1970.73
404.51	1956.69
404.70	1963.71
404.89	1996.48
405.09	1998.82
405.28	1940.30
405.47	1858.39
405.66	1926.26
405.85	2073.71
406.05	1935.62
406.24	2111.16
406.43	1956.69
406.62	2087.76
406.81	2153.29
407.00	2012.86
407.20	2090.10
407.39	2022.22
407.58	2181.38
407.77	2059.67
407.96	2125.21
408.15	2148.61
408.34	2099.46
408.54	2237.55
408.73	2160.31
408.92	2244.57
409.11	2277.34
409.30	2256.28
409.49	2211.81
409.68	2263.30
409.87	2237.55
410.07	2246.91
410.26	2370.96
410.45	2380.32
410.64	2324.15
410.83	2321.81
411.02	2324.15
411.21	2375.64
411.40	2349.90
411.59	2434.16
411.78	2422.45
411.98	2410.75
412.17	2495.01
412.36	2438.84
412.55	2518.42
412.74	2663.53
412.93	2827.37
413.12	2590.97
413.31	2623.74
413.50	2614.38
413.69	2712.68
413.88	2612.04
414.07	2661.19
414.26	2672.89
414.45	2780.56
414.64	2825.03
414.83	2750.13
415.02	2799.28
415.22	2902.26
415.41	2895.24
415.60	2843.75
415.79	2967.80
415.98	2923.33
416.17	3040.36
416.36	2942.05
416.55	2930.35
416.74	2974.82
416.93	2841.41
417.12	3103.55
417.31	3112.91
417.50	2958.44
417.69	3112.91
417.88	3136.32
418.07	3035.67
418.26	3281.43
418.45	3143.34
418.64	3396.12
418.83	3204.19
419.02	3311.86
419.21	3260.37
419.39	3232.28
419.58	3197.17
419.77	3162.06
419.96	3281.43
420.15	3300.16
420.34	3309.52
420.53	3286.11
420.72	3358.67
420.91	3400.80
421.10	3379.73
421.29	3382.07
421.48	3363.35
421.67	3424.20
421.86	3353.99
422.05	3375.05
422.24	3382.07
422.43	3461.65
422.61	3501.44
422.80	3531.87
422.99	3606.77
423.18	3471.01
423.37	3435.91
423.56	3564.64
423.75	3412.50
423.94	3412.50
424.13	3332.92
424.32	3454.63
424.50	3365.69
424.69	3667.62
424.88	3599.74
425.07	3566.98
425.26	3468.67
425.45	3569.32
425.64	3602.08
425.83	3527.19
426.01	3515.48
426.20	3559.95
426.39	3611.45
426.58	3595.06
426.77	3620.81
426.96	3611.45
427.15	3581.02
427.33	3712.09
427.52	3723.79
427.71	3749.54
427.90	3655.92
428.09	3646.55
428.28	3782.31
428.46	3770.60
428.65	3810.39
428.84	3861.88
429.03	3817.41
429.22	3723.79
429.40	3941.46
429.59	3777.62
429.78	3723.79
429.97	3672.30
430.16	3845.50
430.34	3887.63
430.53	3946.14
430.72	4007.00
430.91	3847.84
431.10	4067.85
431.28	4077.21
431.47	3997.64
431.66	4086.58
431.85	4004.66
432.03	4117.00
432.22	4145.09
432.41	4100.62
432.60	4227.01
432.79	4135.73
432.97	4095.94
433.16	4177.86
433.35	4329.99
433.54	4255.09
433.72	4390.84
433.91	4229.35
434.10	4245.73
434.28	4109.98
434.47	4287.86
434.66	4414.25
434.85	4229.35
435.03	4521.92
435.22	4746.61
435.41	4767.67
435.59	4669.37
435.78	4603.83
435.97	4702.14
436.16	4489.15
436.34	4463.40
436.53	4440.00
436.72	4589.79
436.90	4440.00
437.09	4414.25
437.28	4447.02
437.46	4587.45
437.65	4472.76
437.84	4695.11
438.02	4638.94
438.21	4676.39
438.40	4695.11
438.58	4812.14
438.77	4746.61
438.96	4744.27
439.14	4905.76
439.33	4915.12
439.52	4945.55
439.70	4889.38
439.89	4814.48
440.08	4947.89
440.26	4997.04
440.45	4973.64
440.63	5060.24
440.82	5191.31
441.01	5170.24
441.19	5186.63
441.38	5355.15
441.57	5259.18
441.75	5261.52
441.94	5191.31
442.12	5336.42
442.31	5469.83
442.50	5465.15
442.68	5444.09
442.87	5348.12
443.05	5439.40
443.24	5507.28
443.43	5514.30
443.61	5647.71
443.80	5757.72
443.98	5465.15
444.17	5404.30
444.35	5596.22
444.54	5626.65
444.73	5565.79
444.91	5509.62
445.10	5666.44
445.28	5771.76
445.47	5572.82
445.65	5598.56
445.84	5645.37
446.02	5757.72
446.21	5633.67
446.39	5626.65
446.58	5650.05
446.77	5544.73
446.95	5558.77
447.14	5589.20
447.32	5860.70
447.51	5746.02
447.69	5844.32
447.88	5638.35
448.06	5788.14
448.25	5643.03
448.43	5750.70
448.62	5762.40
448.80	5851.34
448.99	5837.30
449.17	5785.80
449.36	5743.67
449.54	5994.11
449.73	6001.13
449.91	6045.60
450.10	5799.85
450.28	6087.73
450.46	5996.45
450.65	5987.09
450.83	6120.50
451.02	5947.30
451.20	6176.67
451.39	6050.28
451.57	6111.14
451.76	6118.16
451.94	6059.65
452.13	6300.72
452.31	6274.98
452.49	6246.89
452.68	6160.29
452.86	6267.95
453.05	6214.12
453.23	6499.67
453.42	6291.36
453.60	6267.95
453.78	6331.15
453.97	6366.26
454.15	6375.62
454.34	6354.55
454.52	6487.96
454.70	6232.85
454.89	6342.85
455.07	6537.12
455.26	6579.25
455.44	6621.38
455.62	6492.65
455.81	6607.33
455.99	6731.38
456.17	6661.16
456.36	6665.85
456.54	6665.85
456.73	6775.85
456.91	6902.24
457.09	6792.23
457.28	6974.80
457.46	6778.19
457.64	7045.01
457.83	6986.50
458.01	6932.67
458.19	7019.27
458.38	6946.71
458.56	7136.29
458.74	7007.56
458.93	7077.78
459.11	7180.76
459.29	7115.23
459.48	7068.42
459.66	6967.77
459.84	7201.83
460.03	7447.58
460.21	7325.88
460.39	7087.14
460.57	7138.63
460.76	7433.54
460.94	7417.16
461.12	7274.38
461.31	7461.63
461.49	7440.56
461.67	7412.48
461.85	7630.15
462.04	7576.31
462.22	7775.26
462.40	7674.62
462.59	7482.69
462.77	7618.44
462.95	7665.25
463.13	7625.47
463.32	7534.18
463.50	7648.87
463.68	7749.51
463.86	7908.67
464.05	7531.84
464.23	7772.92
464.41	7831.43
464.59	7578.65
464.78	7854.84
464.96	7948.46
465.14	7819.73
465.32	7810.37
465.50	7929.74
465.69	7903.99
465.87	7850.16
466.05	7962.50
466.23	8028.04
466.41	7992.93
466.60	8091.23
466.78	7906.33
466.96	7925.05
467.14	7948.46
467.32	7929.74
467.51	8161.45
467.69	7798.66
467.87	8407.20
468.05	8189.53
468.23	8063.15
468.41	8135.70
468.60	8198.90
468.78	8400.18
468.96	8234.00
469.14	8369.76
469.32	8320.60
469.50	8109.96
469.69	8432.95
469.87	8489.12
470.05	8493.80
470.23	8599.13
470.41	8582.74
470.59	8585.08
470.77	8659.98
470.95	8397.84
471.14	8498.49
471.32	8816.80
471.50	8716.16
471.68	8805.10
471.86	8793.39
472.04	8793.39
472.22	8973.61
472.40	8894.04
472.58	8929.14
472.77	9078.94
472.95	9043.83
473.13	9439.38
473.31	9039.15
473.49	8980.64
473.67	9123.41
473.85	9312.99
474.03	9160.86
474.21	9385.55
474.39	9493.21
474.57	9481.51
474.75	9418.32
474.93	9694.50
475.12	9575.13
475.30	9743.65
475.48	9565.77
475.66	9696.84
475.84	9811.53
476.02	9745.99
476.20	9687.48
476.38	9975.36
476.56	10146.22
476.74	10221.12
476.92	10171.97
477.10	10108.77
477.28	10513.69
477.46	10429.43
477.64	10541.77
477.82	10721.99
478.00	10939.66
478.18	10670.50
478.36	10913.92
478.54	10993.50
478.72	11159.67
478.90	11052.01
479.08	11222.87
479.26	11274.36
479.44	11169.04
479.62	11293.08
479.80	11449.90
479.98	11475.65
480.16	11763.53
480.34	11676.93
480.52	11831.41
480.70	11974.18
480.88	11716.72
481.06	11962.48
481.24	12004.61
481.41	11929.71
481.59	12334.62
481.77	12280.79
481.95	12231.64
482.13	12706.77
482.31	12475.06
482.49	13008.70
482.67	12573.36
482.85	12802.73
483.03	13032.10
483.21	13249.77
483.39	13085.94
483.57	13226.37
483.74	13394.89
483.92	13598.51
484.10	13268.50
484.28	13610.22
484.46	13816.18
484.64	14008.11
484.82	13650.00
485.00	13954.27
485.18	14223.44
485.35	14164.92
485.53	14356.85
485.71	14698.56
485.89	14370.89
486.07	14586.22
486.25	14684.52
486.43	14803.89
486.61	14853.04
486.78	15084.75
486.96	15183.06
487.14	15314.13
487.32	15295.40
487.50	15667.55
487.68	15674.57
487.85	16222.25
488.03	16264.38
488.21	16255.02
488.39	15981.18
488.57	16292.47
488.75	16297.15
488.92	16697.38
489.10	16833.13
489.28	16741.85
489.46	16856.54
489.64	16783.98
489.81	17315.28
489.99	17261.45
490.17	17015.69
490.35	17483.80
490.53	17549.34
490.70	17736.58
490.88	17834.88
491.06	18068.94
491.24	17834.88
491.41	18153.20
491.59	18211.71
491.77	18106.38
491.95	18279.58
492.13	18457.46
492.30	18511.30
492.48	18513.64
492.66	18728.97
492.84	18970.04
493.01	19468.58
493.19	19073.03
493.37	19552.84
493.54	19112.81
493.72	19335.17
493.90	19660.50
494.08	19597.31
494.25	20023.28
494.43	19932.00
494.61	20285.42
494.79	19789.23
494.96	20128.61
495.14	20257.34
495.32	20711.40
495.49	20528.84
495.67	20582.67
495.85	20678.63
496.02	20947.79
496.20	20933.75
496.38	20903.32
496.55	21238.02
496.73	21867.63
496.91	21458.03
497.09	21516.54
497.26	21818.47
497.44	21422.92
497.62	21909.75
497.79	21972.95
497.97	21837.20
498.14	22415.31
498.32	22485.53
498.50	22202.32
498.67	22569.79
498.85	22600.21
499.03	22675.11
499.20	22810.86
499.38	22754.69
499.56	22738.30
499.73	22913.84
499.91	23110.45
500.08	23332.80
500.26	23094.07
500.44	23367.91
500.61	23754.10
500.79	23391.31
500.97	23564.51
501.14	23627.71
501.32	23548.13
501.49	23695.58
501.67	23536.43
501.84	24308.80
502.02	24252.63
502.20	24231.57
502.37	23782.18
502.55	24519.45
502.72	24622.44
502.90	24589.67
503.07	24266.67
503.25	24922.02
503.43	24563.92
503.60	24732.44
503.78	24711.38
503.95	24849.47
504.13	25090.54
504.30	25106.93
504.48	25270.76
504.65	25427.58
504.83	25614.82
505.01	25699.08
505.18	25326.94
505.36	25853.56
505.53	25671.00
505.71	25816.11
505.88	26162.51
506.06	25614.82
506.23	26087.61
506.41	26066.55
506.58	26029.10
506.76	26029.10
506.93	26256.13
507.11	26183.57
507.28	26424.65
507.46	27058.93
507.63	26370.82
507.81	26679.77
507.98	26256.13
508.16	26824.88
508.33	26808.50
508.50	26785.09
508.68	27417.04
508.85	27487.25
509.03	27190.00
509.20	27178.30
509.38	27564.49
509.55	27489.59
509.73	27679.18
509.90	28109.83
510.08	27700.24
510.25	27421.72
510.42	27812.59
510.60	28048.98
510.77	28217.50
510.95	28156.64
511.12	28109.83
511.30	28102.81
511.47	28423.47
511.64	28559.22
511.82	28701.99
511.99	28432.83
512.17	28528.79
512.34	28662.20
512.51	28858.81
512.69	28833.06
512.86	28936.04
513.04	29380.74
513.21	29064.77
513.38	29078.82
513.56	29137.33
513.73	29205.20
513.90	29235.63
514.08	29170.10
514.25	29701.40
514.43	29792.68
514.60	29556.28
514.77	29802.04
514.95	29677.99
515.12	29509.47
515.29	29570.33
515.47	29961.20
515.64	30057.16
515.81	30000.99
515.99	29862.90
516.16	30291.21
516.33	30125.04
516.51	30410.58
516.68	30452.71
516.85	30246.74
517.03	30682.08
517.20	30838.90
517.37	30691.44
517.54	30471.43
517.72	30874.01
517.89	31000.40
518.06	30899.75
518.24	31002.74
518.41	30857.62
518.58	31161.89
518.75	30962.95
518.93	31571.49
519.10	31101.04
519.27	31094.02
519.45	31136.15
519.62	31421.69
519.79	31630.00
519.96	31545.74
520.14	31658.09
520.31	31419.35
520.48	31852.35
520.65	31555.10
520.83	32065.34
521.00	32250.24
521.17	31943.63
521.34	32488.98
521.52	32388.33
521.69	32088.74
521.86	32421.10
522.03	32339.18
522.20	32627.07
522.38	32835.38
522.55	32725.37
522.72	32919.63
522.89	32809.63
523.07	33088.15
523.24	32528.77
523.41	33039.00
523.58	33233.27
523.75	33287.10
523.92	32769.84
524.10	33392.42
524.27	33347.95
524.44	33598.39
524.61	32921.98
524.78	32982.83
524.96	33467.32
525.13	33764.57
525.30	33525.83
525.47	33612.43
525.64	33776.27
525.81	33921.38
525.98	34265.44
526.16	34045.43
526.33	33582.01
526.50	34541.63
526.67	33820.74
526.84	33811.38
527.01	34291.19
527.18	34220.97
527.36	34206.93
527.53	34293.53
527.70	34747.59
527.87	34483.11
528.04	34520.56
528.21	34583.76
528.38	34876.32
528.55	34653.97
528.72	34639.93
528.89	34574.39
529.07	34806.11
529.24	34876.32
529.41	34782.70
529.58	34969.94
529.75	34707.80
529.92	35515.29
530.09	35365.49
530.26	35173.57
530.43	35253.15
530.60	35353.79
530.77	35395.92
530.94	35667.42
531.11	35358.47
531.28	35531.67
531.46	35791.47
531.63	35725.94
531.80	35508.27
531.97	35482.52
532.14	35599.55
532.31	35728.28
532.48	35489.54
532.65	35929.56
532.82	35831.26
532.99	36259.58
533.16	35835.94
533.33	35840.62
533.50	36308.73
533.67	36002.12
533.84	36266.60
534.01	36266.60
534.18	36077.02
534.35	36376.61
534.52	36751.09
534.69	36444.48
534.86	36521.72
535.03	36510.02
535.20	36421.08
535.37	36308.73
535.54	37205.16
535.71	36753.43
535.88	36811.95
536.05	37198.13
536.22	36928.97
536.38	37490.70
536.55	37141.96
536.72	36882.16
536.89	37577.30
537.06	37305.80
537.23	37471.98
537.40	37237.92
537.57	37118.56
537.74	37518.79
537.91	36811.95
538.08	36989.83
538.25	37041.32
538.42	37530.49
538.59	37912.00
538.75	37420.48
538.92	37628.79
539.09	37832.42
539.26	37816.04
539.43	37794.97
539.60	37860.51
539.77	37661.56
539.94	38436.28
540.11	38190.52
540.28	38057.11
540.44	38422.23
540.61	37895.61
540.78	38167.12
540.95	38323.93
541.12	38677.35
541.29	37944.76
541.46	38656.29
541.62	38583.73
541.79	38878.64
541.96	38513.52
542.13	38305.21
542.30	38691.40
542.47	39054.18
542.63	38684.37
542.80	38843.53
542.97	39372.49
543.14	39632.29
543.31	39140.78
543.48	39278.87
543.64	39438.03
543.81	39466.11
543.98	39693.15
544.15	39742.30
544.32	39264.83
544.48	39765.70
544.65	39613.57
544.82	39885.07
544.99	39442.71
545.16	39842.94
545.32	39543.35
545.49	40238.49
545.66	41053.00
545.83	40243.17
546.00	40804.90
546.16	40601.27
546.33	40334.45
546.50	39718.89
546.67	40332.11
546.83	39887.41
547.00	39997.41
547.17	40383.60
547.34	39910.82
547.50	40016.14
547.67	40495.95
547.84	40942.99
548.00	41020.23
548.17	40622.34
548.34	40231.47
548.51	40357.86
548.67	40748.73
548.84	40540.42
549.01	40369.56
549.18	40437.44
549.34	40627.02
549.51	41043.63
549.68	41383.01
549.84	40987.46
550.01	40163.59
550.18	40727.66
550.34	40533.40
550.51	40559.14
550.68	40882.14
550.84	40418.71
551.01	40828.30
551.18	40547.44
551.34	40605.95
551.51	40442.12
551.68	40921.93
551.84	40781.49
552.01	40781.49
552.18	41139.60
552.34	41097.47
552.51	41184.07
552.68	40652.76
552.84	41446.21
553.01	41511.74
553.18	41429.82
553.34	41483.66
553.51	41113.85
553.67	41631.11
553.84	41942.40
554.01	41457.91
554.17	41776.22
554.34	41490.68
554.51	41500.04
554.67	41600.68
554.84	41755.16
555.00	41439.18
555.17	41401.74
555.33	41823.03
555.50	41284.71
555.67	41638.13
555.83	41347.90
556.00	41663.88
556.16	42047.72
556.33	41684.94
556.50	41436.84
556.66	41907.29
556.83	41373.65
556.99	41956.44
557.16	41750.48
557.32	42103.90
557.49	42319.23
557.65	41773.88
557.82	41937.72
557.98	42057.09
558.15	42038.36
558.32	42281.78
558.48	41813.67
558.65	42466.68
558.81	42787.33
558.98	42307.52
559.14	42333.27
559.31	42213.90
559.47	42099.22
559.64	42312.20
559.80	41830.05
559.97	42658.60
560.13	42293.48
560.30	42157.73
560.46	42602.43
560.63	42946.49
560.79	42813.08
560.96	42412.85
561.12	43005.00
561.29	42682.01
561.45	42567.32
561.61	42979.26
561.78	42492.43
561.94	42869.25
562.11	42740.52
562.27	42731.16
562.44	43150.12
562.60	42782.65
562.77	43061.18
562.93	42464.34
563.10	43063.52
563.26	42375.40
563.42	42794.36
563.59	43180.54
563.75	42902.02
563.92	42890.32
564.08	42316.89
564.24	42770.95
564.41	43096.28
564.57	42600.09
564.74	42988.62
564.90	43477.79
565.07	43175.86
565.23	43777.38
565.39	43246.08
565.56	43295.23
565.72	42946.49
565.88	43391.19
566.05	43086.92
566.21	42754.57
566.38	43030.75
566.54	42784.99
566.70	43122.03
566.87	43421.62
567.03	43262.46
567.19	43632.27
567.36	43533.96
567.52	43236.72
567.68	43393.53
567.85	43023.73
568.01	43487.15
568.17	43283.53
568.34	43423.96
568.50	43569.07
568.66	43260.12
568.83	43545.67
568.99	43213.31
569.15	43395.87
569.32	43461.41
569.48	43564.39
569.64	43576.09
569.81	43157.14
569.97	43342.04
570.13	43318.64
570.30	43573.75
570.46	43646.31
570.62	43756.32
570.78	43421.62
570.95	43529.28
571.11	43519.92
571.27	43529.28
571.43	43430.98
571.60	43407.58
571.76	43222.67
571.92	43213.31
572.09	43536.30
572.25	43529.28
572.41	43791.42
572.57	43761.00
572.74	43899.09
572.90	43812.49
573.06	43676.74
573.22	43732.91
573.38	43246.08
573.55	43559.71
573.71	44020.80
573.87	43753.97
574.03	43503.54
574.20	43505.88
574.36	43763.34
574.52	43557.37
574.68	43634.61
574.84	44048.88
575.01	43746.95
575.17	43688.44
575.33	43955.26
575.49	43693.12
575.65	43751.63
575.82	43866.32
575.98	44016.11
576.14	43725.89
576.30	43807.81
576.46	43878.02
576.62	43658.01
576.79	43768.02
576.95	43606.52
577.11	43983.35
577.27	43770.36
577.43	43999.73
577.59	44168.25
577.75	44172.93
577.92	43782.06
578.08	44020.80
578.24	44027.82
578.40	43821.85
578.56	43966.96
578.72	44039.52
578.88	44580.18
579.04	44650.40
579.21	44116.76
579.37	44240.81
579.53	44219.74
579.69	44172.93
579.85	43859.30
580.01	43983.35
580.17	44205.70
580.33	43959.94
580.49	44598.91
580.65	44170.59
580.82	44414.01
580.98	43990.37
581.14	43882.70
581.30	44179.95
581.46	44128.46
581.62	43805.47
581.78	43676.74
581.94	44121.44
582.10	43660.35
582.26	44067.61
582.42	43709.50
582.58	44025.48
582.74	44212.72
582.90	44196.34
583.06	44147.18
583.22	44414.01
583.38	43920.15
583.54	43885.04
583.70	43540.99
583.86	43950.58
584.02	43887.39
584.18	44559.12
584.34	44259.53
584.50	44376.56
584.66	43995.05
584.82	44069.95
584.98	44069.95
585.14	43920.15
585.30	44112.08
585.46	44332.09
585.62	44058.24
585.78	44158.89
585.94	44121.44
586.10	44425.71
586.26	44650.40
586.42	44631.68
586.58	44268.89
586.74	44383.58
586.90	44275.91
587.06	43985.69
587.22	44362.51
587.38	44030.16
587.54	44662.10
587.70	44605.93
587.86	44790.83
588.02	44467.84
588.18	43962.28
588.34	44889.13
588.49	44500.61
588.65	44151.87
588.81	44198.68
588.97	44652.74
589.13	44500.61
589.29	44669.12
589.45	44797.85
