SpectraSuite Data File
++++++++++++++++++++++++++++++++++++
Date: Thu Oct 24 13:21:39 EDT 2013
User: stostad
Dark Spectrum Present: No
Reference Spectrum Present: No
Number of Sampled Component Spectra: 1
Spectrometers: USB2+H05261
Integration Time (usec): 100000 (USB2+H05261)
Spectra Averaged: 1 (USB2+H05261)
Boxcar Smoothing: 0 (USB2+H05261)
Correct for Electrical Dark: No (USB2+H05261)
Strobe/Lamp Enabled: No (USB2+H05261)
Correct for Detector Non-linearity: No (USB2+H05261)
Correct for Stray Light: No (USB2+H05261)
Number of Pixels in Processed Spectrum: 2048
>>>>>Begin Processed Spectral Data<<<<<
365.73	629.60
365.92	629.60
366.12	629.60
366.32	496.19
366.52	458.74
366.72	482.15
366.91	503.22
367.11	559.39
367.31	437.68
367.51	521.94
367.70	489.17
367.90	454.06
368.10	500.87
368.30	437.68
368.49	440.02
368.69	491.51
368.89	606.20
369.09	465.77
369.28	540.66
369.48	470.45
369.68	482.15
369.87	470.45
370.07	543.00
370.27	573.43
370.47	713.86
370.66	1128.14
370.86	1142.18
371.06	1219.42
371.25	1364.53
371.45	1345.81
371.65	1263.89
371.84	1341.13
372.04	1270.91
372.24	1322.40
372.44	1413.68
372.63	1409.00
372.83	1406.66
373.03	1371.55
373.22	1364.53
373.42	1519.01
373.62	1345.81
373.81	1439.43
374.01	1500.28
374.21	1409.00
374.40	1458.15
374.60	1476.88
374.79	1530.71
374.99	1509.65
375.19	1490.92
375.38	1561.14
375.58	1570.50
375.78	1507.30
375.97	1570.50
376.17	1504.96
376.37	1643.06
376.56	1572.84
376.76	1593.90
376.95	1645.40
377.15	1488.58
377.35	1572.84
377.54	1598.59
377.74	1675.82
377.93	1605.61
378.13	1664.12
378.33	1598.59
378.52	1598.59
378.72	1661.78
378.91	1703.91
379.11	1673.48
379.31	1636.03
379.50	1785.83
379.70	1736.68
379.89	1750.72
380.09	1785.83
380.28	1806.89
380.48	1844.34
380.68	1729.66
380.87	1706.25
381.07	1748.38
381.26	1870.09
381.46	1830.30
381.65	1837.32
381.85	1778.81
382.04	1884.13
382.24	1844.34
382.43	1851.36
382.63	1912.22
382.83	1872.43
383.02	1851.36
383.22	1930.94
383.41	1884.13
383.61	1867.75
383.80	1926.26
384.00	1916.90
384.19	1940.30
384.39	1980.09
384.58	2054.99
384.78	2010.52
384.97	2019.88
385.17	1982.43
385.36	2038.61
385.56	2069.03
385.75	1930.94
385.95	2092.44
386.14	2057.33
386.34	2118.18
386.53	2064.35
386.72	2115.84
386.92	2139.25
387.11	2160.31
387.31	2155.63
387.50	2129.89
387.70	2232.87
387.89	2167.34
388.09	2202.44
388.28	2183.72
388.48	2221.17
388.67	2197.76
388.86	2310.11
389.06	2284.36
389.25	2366.28
389.45	2377.98
389.64	2319.47
389.84	2417.77
390.03	2431.82
390.22	2408.41
390.42	2396.71
390.61	2289.04
390.81	2345.22
391.00	2434.16
391.19	2502.03
391.39	2485.65
391.58	2576.93
391.78	2431.82
391.97	2548.84
392.16	2427.14
392.36	2581.61
392.55	2619.06
392.75	2679.91
392.94	2541.82
393.13	2614.38
393.33	2621.40
393.52	2672.89
393.71	2619.06
393.91	2731.41
394.10	2602.68
394.29	2780.56
394.49	2649.49
394.68	2857.79
394.88	2696.30
395.07	2839.07
395.26	2766.51
395.46	2862.48
395.65	2822.69
395.84	2871.84
396.04	2960.78
396.23	2829.71
396.42	3030.99
396.62	2855.45
396.81	2949.08
397.00	2974.82
397.19	3070.78
397.39	3023.97
397.58	3061.42
397.77	3108.23
397.97	3098.87
398.16	3063.76
398.35	3054.40
398.55	3136.32
398.74	3016.95
398.93	3070.78
399.12	3293.13
399.32	3028.65
399.51	3173.77
399.70	3164.40
399.90	3241.64
400.09	3180.79
400.28	3337.60
400.47	3335.26
400.67	3421.86
400.86	3283.77
401.05	3447.61
401.24	3283.77
401.44	3520.17
401.63	3445.27
401.82	3529.53
402.01	3487.40
402.21	3637.19
402.40	3578.68
402.59	3592.72
402.78	3566.98
402.97	3611.45
403.17	3630.17
403.36	3576.34
403.55	3529.53
403.74	3798.69
403.93	3859.54
404.13	3803.37
404.32	3768.26
404.51	3756.56
404.70	3922.74
404.89	3819.75
405.09	3864.22
405.28	3964.87
405.47	3847.84
405.66	4053.81
405.85	4016.36
406.05	4084.23
406.24	4128.70
406.43	4227.01
406.62	4140.41
406.81	4222.33
407.00	4093.60
407.20	4131.05
407.39	4224.67
407.58	4234.03
407.77	4203.60
407.96	4135.73
408.15	4318.29
408.34	4348.72
408.54	4468.08
408.73	4255.09
408.92	4411.91
409.11	4517.23
409.30	4449.36
409.49	4535.96
409.68	4615.54
409.87	4578.09
410.07	4725.54
410.26	4667.03
410.45	4678.73
410.64	4734.90
410.83	4751.29
411.02	4828.53
411.21	4861.29
411.40	4758.31
411.59	4851.93
411.78	4793.42
411.98	4842.57
412.17	4994.70
412.36	5008.75
412.55	4961.94
412.74	5228.76
412.93	5214.71
413.12	5203.01
413.31	5376.21
413.50	5149.18
413.69	5291.95
413.88	5500.26
414.07	5556.43
414.26	5406.64
414.45	5530.69
414.64	5493.24
414.83	5579.84
415.02	5802.19
415.22	5741.33
415.41	5980.07
415.60	5827.93
415.79	5820.91
415.98	5956.66
416.17	6012.84
416.36	5998.79
416.55	6005.81
416.74	6162.63
416.93	5996.45
417.12	6251.57
417.31	6190.72
417.50	6223.48
417.69	6502.01
417.88	6375.62
418.07	6438.81
418.26	6431.79
418.45	6445.84
418.64	6574.56
418.83	6392.00
419.02	6647.12
419.21	6635.42
419.39	6612.01
419.58	6677.55
419.77	6602.65
419.96	6817.98
420.15	6927.99
420.34	6871.81
420.53	6867.13
420.72	6998.20
420.91	7096.50
421.10	7171.40
421.29	6995.86
421.48	6874.15
421.67	7045.01
421.86	7056.72
422.05	7155.02
422.24	7087.14
422.43	7323.54
422.61	7199.49
422.80	7485.03
422.99	7449.93
423.18	7323.54
423.37	7440.56
423.56	7396.09
423.75	7155.02
423.94	7201.83
424.13	6731.38
424.32	7073.10
424.50	7328.22
424.69	7552.91
424.88	7351.62
425.07	7225.23
425.26	7068.42
425.45	7321.20
425.64	7389.07
425.83	7346.94
426.01	7442.90
426.20	7405.46
426.39	7482.69
426.58	7370.35
426.77	7389.07
426.96	7627.81
427.15	7419.50
427.33	7655.89
427.52	7681.64
427.71	7896.97
427.90	7765.90
428.09	7709.72
428.28	8023.36
428.46	7812.71
428.65	7864.20
428.84	8006.97
429.03	8086.55
429.22	7733.13
429.40	7950.80
429.59	8168.47
429.78	7770.58
429.97	7651.21
430.16	8159.11
430.34	8313.58
430.53	8325.29
430.72	8327.63
430.91	8217.62
431.10	8360.39
431.28	8477.42
431.47	8608.49
431.66	8519.55
431.85	8416.57
432.03	8744.24
432.22	8594.45
432.41	8791.05
432.60	8894.04
432.79	8699.77
432.97	8819.14
433.16	8847.22
433.35	8613.17
433.54	9029.79
433.72	8964.25
433.91	8910.42
434.10	8805.10
434.28	8837.86
434.47	9074.26
434.66	9151.49
434.85	9238.09
435.03	9521.30
435.22	9312.99
435.41	9533.00
435.59	9582.15
435.78	9760.03
435.97	9715.56
436.16	9568.11
436.34	9523.64
436.53	9441.72
436.72	9614.92
436.90	9387.89
437.09	9647.69
437.28	9511.94
437.46	9565.77
437.65	9816.21
437.84	9778.76
438.02	9757.69
438.21	10094.73
438.40	9984.73
438.58	10230.48
438.77	10260.91
438.96	9977.70
439.14	10368.57
439.33	10476.24
439.52	10424.75
439.70	10874.13
439.89	10890.51
440.08	10874.13
440.26	10731.36
440.45	10691.57
440.63	10871.79
440.82	11243.93
441.01	10991.16
441.19	10953.71
441.38	11068.39
441.57	11248.61
441.75	11520.12
441.94	11578.63
442.12	11686.29
442.31	11733.11
442.50	11826.73
442.68	11604.38
442.87	11777.58
443.05	11857.15
443.24	11976.52
443.43	11889.92
443.61	11910.99
443.80	12138.02
443.98	11653.53
444.17	11494.37
444.35	11999.93
444.54	12196.53
444.73	12046.74
444.91	12383.77
445.10	12131.00
445.28	12051.42
445.47	12297.17
445.65	11997.59
445.84	12444.63
446.02	12327.60
446.21	12397.82
446.39	12358.03
446.58	12301.86
446.77	12517.18
446.95	12182.49
447.14	12358.03
447.32	12659.96
447.51	12262.07
447.69	12203.55
447.88	12367.39
448.06	12416.54
448.25	12306.54
448.43	12814.43
448.62	12585.06
448.80	12596.76
448.99	12772.30
449.17	12620.17
449.36	12826.14
449.54	12973.59
449.73	13060.19
449.91	13334.03
450.10	13217.01
450.28	13298.92
450.46	13422.97
450.65	13191.26
450.83	13312.97
451.02	13095.30
451.20	13434.68
451.39	13371.48
451.57	13422.97
451.76	13350.42
451.94	13575.11
452.13	13668.73
452.31	13631.28
452.49	13727.24
452.68	13862.99
452.86	13820.86
453.05	14045.55
453.23	13884.06
453.42	13827.88
453.60	13628.94
453.78	14092.37
453.97	13973.00
454.15	14043.21
454.34	14169.60
454.52	14064.28
454.70	14356.85
454.89	14303.01
455.07	14373.23
455.26	14178.97
455.44	14796.87
455.62	14537.07
455.81	14647.07
455.99	14743.03
456.17	14595.58
456.36	14932.62
456.54	14876.44
456.73	14927.94
456.91	15328.17
457.09	15241.57
457.28	15098.80
457.46	15023.90
457.64	15379.66
457.83	15494.35
458.01	15211.14
458.19	15894.58
458.38	15513.07
458.56	15817.34
458.74	15737.76
458.93	15737.76
459.11	15714.36
459.29	15843.09
459.48	15908.62
459.66	15913.30
459.84	16004.58
460.03	16233.96
460.21	16070.12
460.39	16147.36
460.57	16187.14
460.76	16205.87
460.94	16468.01
461.12	16365.03
461.31	16615.46
461.49	16519.50
461.67	16491.41
461.85	16709.08
462.04	16437.58
462.22	17139.74
462.40	16992.29
462.59	16954.84
462.77	17008.67
462.95	17427.63
463.13	16863.56
463.32	17392.52
463.50	17256.77
463.68	17170.17
463.86	17511.89
464.05	17060.16
464.23	17184.21
464.41	17418.27
464.59	17268.47
464.78	17909.78
464.96	17233.36
465.14	17539.97
465.32	17846.58
465.50	17678.07
465.69	18059.57
465.87	17914.46
466.05	17951.91
466.23	17994.04
466.41	17825.52
466.60	18326.39
466.78	17869.99
466.96	17994.04
467.14	18326.39
467.32	18033.83
467.51	18686.84
467.69	17886.37
467.87	18382.57
468.05	18689.18
468.23	18525.34
468.41	18539.38
468.60	18504.28
468.78	18897.49
468.96	18911.53
469.14	19040.26
469.32	19187.71
469.50	18710.24
469.69	19066.00
469.87	19351.55
470.05	19056.64
470.23	19646.46
470.41	19405.38
470.59	19438.15
470.77	19527.09
470.95	19545.81
471.14	20173.08
471.32	19461.55
471.50	19917.96
471.68	20063.07
471.86	20229.25
472.04	20285.42
472.22	20622.46
472.40	20222.23
472.58	20470.33
472.77	20428.20
472.95	20854.17
473.13	21509.52
473.31	20973.54
473.49	20718.42
473.67	20886.94
473.85	20940.77
474.03	21645.27
474.21	21472.07
474.39	21942.52
474.57	21769.32
474.75	22040.82
474.93	22328.71
475.12	22286.58
475.30	22237.43
475.48	22539.36
475.66	22588.51
475.84	22541.70
476.02	22677.45
476.20	22504.25
476.38	23283.65
476.56	23660.48
476.74	23536.43
476.92	23438.12
477.10	23632.39
477.28	24353.27
477.46	23990.49
477.64	23669.84
477.82	24341.57
478.00	24774.57
478.18	24683.29
478.36	24968.84
478.54	25600.78
478.72	25525.88
478.90	25565.67
479.08	25736.53
479.26	26295.92
479.44	26410.60
479.62	26422.31
479.80	26885.73
479.98	26829.56
480.16	27782.16
480.34	26965.31
480.52	27543.42
480.70	27346.82
480.88	27433.42
481.06	27707.26
481.24	28023.23
481.41	28421.13
481.59	28470.28
481.77	29083.50
481.95	29319.89
482.13	29439.26
482.31	29165.42
482.49	29933.11
482.67	29729.48
482.85	30178.87
483.03	30677.40
483.21	30878.69
483.39	31346.79
483.57	31222.75
483.74	31138.49
483.92	31545.74
484.10	31260.20
484.28	32175.34
484.46	32961.76
484.64	33237.95
484.82	32582.60
485.00	33242.63
485.18	33401.79
485.35	34089.90
485.53	34073.52
485.71	34206.93
485.89	34405.88
486.07	34824.83
486.25	34649.29
486.43	35372.52
486.61	35330.39
486.78	35590.19
486.96	36208.09
487.14	36673.85
487.32	36645.77
487.50	36704.28
487.68	37158.34
487.85	37544.53
488.03	38305.21
488.21	38075.84
488.39	38511.17
488.57	38698.42
488.75	38841.19
488.92	39072.90
489.10	39798.47
489.28	39777.40
489.46	40238.49
489.64	39985.71
489.81	40898.52
489.99	41010.87
490.17	41095.13
490.35	41539.83
490.53	41067.04
490.70	41933.04
490.88	41579.62
491.06	42611.79
491.24	42572.00
491.41	43068.20
491.59	43009.68
491.77	43496.52
491.95	43887.39
492.13	43548.01
492.30	44074.63
492.48	44275.91
492.66	44591.89
492.84	44636.36
493.01	45010.84
493.19	45184.04
493.37	45603.00
493.54	45713.00
493.72	46368.35
493.90	46293.46
494.08	46571.98
494.25	47232.01
494.43	46794.33
494.61	47428.62
494.79	47608.84
494.96	47466.06
495.14	47576.07
495.32	48191.63
495.49	48318.02
495.67	48797.83
495.85	48446.75
496.02	48966.35
496.20	49340.83
496.38	49074.01
496.55	49591.27
496.73	50153.00
496.91	50136.62
497.09	50188.11
497.26	50433.86
497.44	50052.36
497.62	50583.66
497.79	51077.51
497.97	51255.39
498.14	51393.48
498.32	51763.29
498.50	51332.63
498.67	51950.53
498.85	51648.60
499.03	52301.61
499.20	52144.80
499.38	52245.44
499.56	52666.73
499.73	52460.77
499.91	52931.22
500.08	53081.01
500.26	52917.17
500.44	53010.79
500.61	53516.35
500.79	53158.25
500.97	53492.94
501.14	53998.50
501.32	53890.83
501.49	53722.32
501.67	53731.68
501.84	54340.22
502.02	54237.23
502.20	54433.84
502.37	54564.91
502.55	54497.03
502.72	54440.86
502.90	54625.76
503.07	54724.07
503.25	54775.56
503.43	54611.72
503.60	55117.28
503.78	55119.62
503.95	54880.88
504.13	55475.38
504.30	55529.21
504.48	55402.82
504.65	55711.77
504.83	56161.15
505.01	56112.00
505.18	55845.18
505.36	56102.64
505.53	56200.94
505.71	56472.45
505.88	56413.93
506.06	56233.71
506.23	56540.32
506.41	56472.45
506.58	56594.15
506.76	56790.76
506.93	56996.73
507.11	56842.25
507.28	57183.97
507.46	57073.96
507.63	57574.84
507.81	57560.79
507.98	57167.58
508.16	57345.47
508.33	57626.33
508.50	57708.25
508.68	57862.72
508.85	58143.59
509.03	57895.49
509.20	57902.51
509.38	58248.91
509.55	58199.76
509.73	58443.18
509.90	58522.76
510.08	58445.52
510.25	58410.41
510.42	58777.87
510.60	58731.06
510.77	58766.17
510.95	59028.31
511.12	58817.66
511.30	58997.88
511.47	59182.79
511.64	59070.44
511.82	59257.68
511.99	59068.10
512.17	59103.21
512.34	59358.33
512.51	59547.91
512.69	59793.67
512.86	59669.62
513.04	59913.03
513.21	59753.88
513.38	59807.71
513.56	59957.50
513.73	59969.21
513.90	60179.85
514.08	60111.98
514.25	60238.37
514.43	60348.37
514.60	60111.98
514.77	60371.78
514.95	60449.02
515.12	60458.38
515.29	60612.85
515.47	60755.63
515.64	60956.91
515.81	61006.06
515.99	60891.38
516.16	60835.20
516.33	60818.82
516.51	61172.24
516.68	61104.37
516.85	61109.05
517.03	61109.05
517.20	61200.33
517.37	61076.28
517.54	61291.61
517.72	61350.12
517.89	61544.39
518.06	61436.72
518.24	61504.60
518.41	61544.39
518.58	61453.11
518.75	61425.02
518.93	61808.87
519.10	61689.50
519.27	61951.64
519.45	61851.00
519.62	61993.77
519.79	62129.52
519.96	62082.71
520.14	62141.22
520.31	62021.86
520.48	62188.03
520.65	62059.30
520.83	62398.68
521.00	62504.01
521.17	62419.75
521.34	62454.86
521.52	62777.85
521.69	62464.22
521.86	62625.71
522.03	62808.28
522.20	62836.36
522.38	63079.78
522.55	62979.14
522.72	63016.58
522.89	63117.23
523.07	63065.73
523.24	63049.35
523.41	63189.78
523.58	63086.80
523.75	63489.37
523.92	63355.96
524.10	63407.45
524.27	63465.97
524.44	63374.69
524.61	63423.84
524.78	63412.13
524.96	63606.40
525.13	63655.55
525.30	63910.67
525.47	63819.39
525.64	63894.28
525.81	63978.54
525.98	63870.88
526.16	63859.18
526.33	63882.58
526.50	64102.59
526.67	63901.31
526.84	64287.49
527.01	64191.53
527.18	64315.58
527.36	64257.07
527.53	64163.45
527.70	64371.75
527.87	64556.66
528.04	64456.01
528.21	64720.49
528.38	64491.12
528.55	64671.34
528.72	64353.03
528.89	64474.74
529.07	64528.57
529.24	64587.08
529.41	64800.07
529.58	64900.71
529.75	64741.56
529.92	64952.21
530.09	64809.43
530.26	64942.84
530.43	65050.51
530.60	64793.05
530.77	64872.63
530.94	65200.30
531.11	65083.28
531.28	65254.14
531.46	65106.68
531.63	65221.37
531.80	65359.46
531.97	65317.33
532.14	65413.29
532.31	65450.74
532.48	65535.00
532.65	65535.00
532.82	65535.00
532.99	65535.00
533.16	65378.18
533.33	65535.00
533.50	65535.00
533.67	65535.00
533.84	65535.00
534.01	65535.00
534.18	65535.00
534.35	65535.00
534.52	65535.00
534.69	65535.00
534.86	65535.00
535.03	65535.00
535.20	65535.00
535.37	65535.00
535.54	65535.00
535.71	65535.00
535.88	65535.00
536.05	65535.00
536.22	65535.00
536.38	65535.00
536.55	65535.00
536.72	65535.00
536.89	65535.00
537.06	65535.00
537.23	65535.00
537.40	65535.00
537.57	65535.00
537.74	65535.00
537.91	65535.00
538.08	65535.00
538.25	65535.00
538.42	65535.00
538.59	65535.00
538.75	65535.00
538.92	65535.00
539.09	65535.00
539.26	65535.00
539.43	65535.00
539.60	65535.00
539.77	65535.00
539.94	65535.00
540.11	65535.00
540.28	65535.00
540.44	65535.00
540.61	65535.00
540.78	65535.00
540.95	65535.00
541.12	65535.00
541.29	65535.00
541.46	65535.00
541.62	65535.00
541.79	65535.00
541.96	65535.00
542.13	65535.00
542.30	65535.00
542.47	65535.00
542.63	65535.00
542.80	65535.00
542.97	65535.00
543.14	65535.00
543.31	65535.00
543.48	65535.00
543.64	65535.00
543.81	65535.00
543.98	65535.00
544.15	65535.00
544.32	65535.00
544.48	65535.00
544.65	65535.00
544.82	65535.00
544.99	65535.00
545.16	65535.00
545.32	65535.00
545.49	65535.00
545.66	65535.00
545.83	65535.00
546.00	65535.00
546.16	65535.00
546.33	65535.00
546.50	65535.00
546.67	65535.00
546.83	65535.00
547.00	65535.00
547.17	65535.00
547.34	65535.00
547.50	65535.00
547.67	65535.00
547.84	65535.00
548.00	65535.00
548.17	65535.00
548.34	65535.00
548.51	65535.00
548.67	65535.00
548.84	65535.00
549.01	65535.00
549.18	65535.00
549.34	65535.00
549.51	65535.00
549.68	65535.00
549.84	65535.00
550.01	65535.00
550.18	65535.00
550.34	65535.00
550.51	65535.00
550.68	65535.00
550.84	65535.00
551.01	65535.00
551.18	65535.00
551.34	65535.00
551.51	65535.00
551.68	65535.00
551.84	65535.00
552.01	65535.00
552.18	65535.00
552.34	65535.00
552.51	65535.00
552.68	65535.00
552.84	65535.00
553.01	65535.00
553.18	65535.00
553.34	65535.00
553.51	65535.00
553.67	65535.00
553.84	65535.00
554.01	65535.00
554.17	65535.00
554.34	65535.00
554.51	65535.00
554.67	65535.00
554.84	65535.00
555.00	65535.00
555.17	65535.00
555.33	65535.00
555.50	65535.00
555.67	65535.00
555.83	65535.00
556.00	65535.00
556.16	65535.00
556.33	65535.00
556.50	65535.00
556.66	65535.00
556.83	65535.00
556.99	65535.00
557.16	65535.00
557.32	65535.00
557.49	65535.00
557.65	65535.00
557.82	65535.00
557.98	65535.00
558.15	65535.00
558.32	65535.00
558.48	65535.00
558.65	65535.00
558.81	65535.00
558.98	65535.00
559.14	65535.00
559.31	65535.00
559.47	65535.00
559.64	65535.00
559.80	65535.00
559.97	65535.00
560.13	65535.00
560.30	65535.00
560.46	65535.00
560.63	65535.00
560.79	65535.00
560.96	65535.00
561.12	65535.00
561.29	65535.00
561.45	65535.00
561.61	65535.00
561.78	65535.00
561.94	65535.00
562.11	65535.00
562.27	65535.00
562.44	65535.00
562.60	65535.00
562.77	65535.00
562.93	65535.00
563.10	65535.00
563.26	65535.00
563.42	65535.00
563.59	65535.00
563.75	65535.00
563.92	65535.00
564.08	65535.00
564.24	65535.00
564.41	65535.00
564.57	65535.00
564.74	65535.00
564.90	65535.00
565.07	65535.00
565.23	65535.00
565.39	65535.00
565.56	65535.00
565.72	65535.00
565.88	65535.00
566.05	65535.00
566.21	65535.00
566.38	65535.00
566.54	65535.00
566.70	65535.00
566.87	65535.00
567.03	65535.00
567.19	65535.00
567.36	65535.00
567.52	65535.00
567.68	65535.00
567.85	65535.00
568.01	65535.00
568.17	65535.00
568.34	65535.00
568.50	65535.00
568.66	65535.00
568.83	65535.00
568.99	65535.00
569.15	65535.00
569.32	65535.00
569.48	65535.00
569.64	65535.00
569.81	65535.00
569.97	65535.00
570.13	65535.00
570.30	65535.00
570.46	65535.00
570.62	65535.00
570.78	65535.00
570.95	65535.00
571.11	65535.00
571.27	65535.00
571.43	65535.00
571.60	65535.00
571.76	65535.00
571.92	65535.00
572.09	65535.00
572.25	65535.00
572.41	65535.00
572.57	65535.00
572.74	65535.00
572.90	65535.00
573.06	65535.00
573.22	65535.00
573.38	65535.00
573.55	65535.00
573.71	65535.00
573.87	65535.00
574.03	65535.00
574.20	65535.00
574.36	65535.00
574.52	65535.00
574.68	65535.00
574.84	65535.00
575.01	65535.00
575.17	65535.00
575.33	65535.00
575.49	65535.00
575.65	65535.00
575.82	65535.00
575.98	65535.00
576.14	65535.00
576.30	65535.00
576.46	65535.00
576.62	65535.00
576.79	65535.00
576.95	65535.00
577.11	65535.00
577.27	65535.00
577.43	65535.00
577.59	65535.00
577.75	65535.00
577.92	65535.00
578.08	65535.00
578.24	65535.00
578.40	65535.00
578.56	65535.00
578.72	65535.00
578.88	65535.00
579.04	65535.00
579.21	65535.00
579.37	65535.00
579.53	65535.00
579.69	65535.00
579.85	65535.00
580.01	65535.00
580.17	65535.00
580.33	65535.00
580.49	65535.00
580.65	65535.00
580.82	65535.00
580.98	65535.00
581.14	65535.00
581.30	65535.00
581.46	65535.00
581.62	65535.00
581.78	65535.00
581.94	65535.00
582.10	65535.00
582.26	65535.00
582.42	65535.00
582.58	65535.00
582.74	65535.00
582.90	65535.00
583.06	65535.00
583.22	65535.00
583.38	65535.00
583.54	65535.00
583.70	65535.00
583.86	65535.00
584.02	65535.00
584.18	65535.00
584.34	65535.00
584.50	65535.00
584.66	65535.00
584.82	65535.00
584.98	65535.00
585.14	65535.00
585.30	65535.00
585.46	65535.00
585.62	65535.00
585.78	65535.00
585.94	65535.00
586.10	65535.00
586.26	65535.00
586.42	65535.00
586.58	65535.00
586.74	65535.00
586.90	65535.00
587.06	65535.00
