SpectraSuite Data File
++++++++++++++++++++++++++++++++++++
Date: Thu Oct 24 13:21:11 EDT 2013
User: stostad
Dark Spectrum Present: No
Reference Spectrum Present: No
Number of Sampled Component Spectra: 1
Spectrometers: USB2+H05261
Integration Time (usec): 100000 (USB2+H05261)
Spectra Averaged: 1 (USB2+H05261)
Boxcar Smoothing: 0 (USB2+H05261)
Correct for Electrical Dark: No (USB2+H05261)
Strobe/Lamp Enabled: No (USB2+H05261)
Correct for Detector Non-linearity: No (USB2+H05261)
Correct for Stray Light: No (USB2+H05261)
Number of Pixels in Processed Spectrum: 2048
>>>>>Begin Processed Spectral Data<<<<<
365.73	512.58
365.92	512.58
366.12	512.58
366.32	489.17
366.52	374.49
366.72	444.70
366.91	425.98
367.11	458.74
367.31	477.47
367.51	402.57
367.70	498.53
367.90	360.44
368.10	463.43
368.30	465.77
368.49	440.02
368.69	444.70
368.89	437.68
369.09	465.77
369.28	444.70
369.48	505.56
369.68	479.81
369.87	482.15
370.07	582.79
370.27	528.96
370.47	573.43
370.66	732.59
370.86	697.48
371.06	751.31
371.25	781.74
371.45	692.80
371.65	767.70
371.84	741.95
372.04	657.69
372.24	706.84
372.44	798.12
372.63	809.83
372.83	767.70
373.03	770.04
373.22	760.67
373.42	828.55
373.62	748.97
373.81	704.50
374.01	763.01
374.21	755.99
374.40	753.65
374.60	779.40
374.79	788.76
374.99	788.76
375.19	851.96
375.38	877.70
375.58	901.11
375.78	854.30
375.97	786.42
376.17	816.85
376.37	777.06
376.56	826.21
376.76	884.72
376.95	877.70
377.15	851.96
377.35	828.55
377.54	826.21
377.74	809.83
377.93	833.23
378.13	842.59
378.33	823.87
378.52	898.77
378.72	884.72
378.91	903.45
379.11	866.00
379.31	861.32
379.50	891.74
379.70	837.91
379.89	856.64
380.09	819.19
380.28	901.11
380.48	912.81
380.68	847.27
380.87	866.00
381.07	863.66
381.26	950.26
381.46	807.48
381.65	821.53
381.85	854.30
382.04	891.74
382.24	894.08
382.43	882.38
382.63	887.06
382.83	851.96
383.02	922.17
383.22	936.21
383.41	926.85
383.61	870.68
383.80	908.13
384.00	894.08
384.19	875.36
384.39	926.85
384.58	910.47
384.78	915.15
384.97	854.30
385.17	887.06
385.36	936.21
385.56	1006.43
385.75	844.93
385.95	945.58
386.14	919.83
386.34	1015.79
386.53	936.21
386.72	985.37
386.92	954.94
387.11	985.37
387.31	980.68
387.50	1020.47
387.70	971.32
387.89	983.02
388.09	910.47
388.28	938.55
388.48	966.64
388.67	1027.50
388.86	933.87
389.06	997.07
389.25	1078.99
389.45	1011.11
389.64	985.37
389.84	1100.05
390.03	978.34
390.22	1029.84
390.42	1041.54
390.61	1088.35
390.81	1025.15
391.00	1027.50
391.19	1027.50
391.39	1046.22
391.58	1048.56
391.78	1001.75
391.97	1057.92
392.16	999.41
392.36	980.68
392.55	1088.35
392.75	1001.75
392.94	1076.65
393.13	1086.01
393.33	1034.52
393.52	1057.92
393.71	1102.39
393.91	1050.90
394.10	1109.41
394.29	1074.31
394.49	1128.14
394.68	1109.41
394.88	1074.31
395.07	1132.82
395.26	1097.71
395.46	1137.50
395.65	1146.86
395.84	1158.57
396.04	1130.48
396.23	1090.69
396.42	1102.39
396.62	1144.52
396.81	1200.69
397.00	1111.75
397.19	1078.99
397.39	1151.54
397.58	1123.46
397.77	1144.52
397.97	1205.38
398.16	1165.59
398.35	1184.31
398.55	1200.69
398.74	1275.59
398.93	1273.25
399.12	1163.25
399.32	1139.84
399.51	1231.12
399.70	1275.59
399.90	1240.48
400.09	1247.51
400.28	1282.61
400.47	1212.40
400.67	1282.61
400.86	1303.68
401.05	1306.02
401.24	1320.06
401.44	1224.10
401.63	1303.68
401.82	1306.02
402.01	1296.66
402.21	1299.00
402.40	1306.02
402.59	1299.00
402.78	1334.11
402.97	1350.49
403.17	1350.49
403.36	1329.42
403.55	1348.15
403.74	1357.51
403.93	1413.68
404.13	1423.05
404.32	1411.34
404.51	1392.62
404.70	1474.54
404.89	1469.86
405.09	1439.43
405.28	1434.75
405.47	1467.52
405.66	1453.47
405.85	1453.47
406.05	1575.18
406.24	1441.77
406.43	1451.13
406.62	1598.59
406.81	1540.07
407.00	1528.37
407.20	1488.58
407.39	1409.00
407.58	1519.01
407.77	1540.07
407.96	1561.14
408.15	1565.82
408.34	1511.99
408.54	1652.42
408.73	1565.82
408.92	1530.71
409.11	1596.25
409.30	1530.71
409.49	1664.12
409.68	1661.78
409.87	1596.25
410.07	1614.97
410.26	1685.19
410.45	1668.80
410.64	1762.42
410.83	1785.83
411.02	1764.76
411.21	1703.91
411.40	1842.00
411.59	1724.97
411.78	1727.32
411.98	1701.57
412.17	1741.36
412.36	1856.04
412.55	1790.51
412.74	1839.66
412.93	1818.60
413.12	1802.21
413.31	1858.39
413.50	1849.02
413.69	1877.11
413.88	1954.35
414.07	1916.90
414.26	2015.20
414.45	1912.22
414.64	1863.07
414.83	1909.88
415.02	1973.07
415.22	1977.75
415.41	2069.03
415.60	1898.17
415.79	1940.30
415.98	2155.63
416.17	1942.64
416.36	2101.80
416.55	2101.80
416.74	2073.71
416.93	1984.77
417.12	2029.24
417.31	2174.36
417.50	2083.08
417.69	2172.02
417.88	2284.36
418.07	2179.04
418.26	2113.50
418.45	2092.44
418.64	2204.78
418.83	2195.42
419.02	2305.43
419.21	2263.30
419.39	2120.53
419.58	2249.25
419.77	2195.42
419.96	2342.88
420.15	2370.96
420.34	2289.04
420.53	2265.64
420.72	2296.07
420.91	2265.64
421.10	2363.94
421.29	2354.58
421.48	2401.39
421.67	2342.88
421.86	2368.62
422.05	2377.98
422.24	2270.32
422.43	2342.88
422.61	2455.22
422.80	2373.30
422.99	2389.69
423.18	2382.67
423.37	2441.18
423.56	2452.88
423.75	2312.45
423.94	2445.86
424.13	2328.83
424.32	2377.98
424.50	2499.69
424.69	2415.43
424.88	2424.80
425.07	2410.75
425.26	2443.52
425.45	2562.89
425.64	2410.75
425.83	2399.05
426.01	2321.81
426.20	2487.99
426.39	2410.75
426.58	2438.84
426.77	2333.51
426.96	2373.30
427.15	2534.80
427.33	2466.92
427.52	2504.37
427.71	2527.78
427.90	2560.55
428.09	2483.31
428.28	2576.93
428.46	2424.80
428.65	2588.63
428.84	2595.65
429.03	2700.98
429.22	2586.29
429.40	2583.95
429.59	2635.44
429.78	2408.41
429.97	2445.86
430.16	2586.29
430.34	2736.09
430.53	2698.64
430.72	2630.76
430.91	2644.81
431.10	2675.23
431.28	2612.04
431.47	2656.51
431.66	2881.20
431.85	2677.57
432.03	2878.86
432.22	2778.22
432.41	2768.85
432.60	2871.84
432.79	2813.32
432.97	2782.90
433.16	2855.45
433.35	2754.81
433.54	2885.88
433.72	2813.32
433.91	2888.22
434.10	2916.31
434.28	2895.24
434.47	2860.13
434.66	2888.22
434.85	2965.46
435.03	3038.02
435.22	3105.89
435.41	3447.61
435.59	3293.13
435.78	3286.11
435.97	3126.96
436.16	3110.57
436.34	3030.99
436.53	2960.78
436.72	3094.19
436.90	2993.55
437.09	2974.82
437.28	3026.31
437.46	3021.63
437.65	3019.29
437.84	2970.14
438.02	3049.72
438.21	2993.55
438.40	3019.29
438.58	3117.59
438.77	3178.45
438.96	3236.96
439.14	3222.92
439.33	3288.45
439.52	3204.19
439.70	3276.75
439.89	3253.34
440.08	3304.84
440.26	3426.54
440.45	3421.86
440.63	3258.03
440.82	3471.01
441.01	3309.52
441.19	3384.41
441.38	3344.63
441.57	3358.67
441.75	3463.99
441.94	3574.00
442.12	3627.83
442.31	3541.23
442.50	3637.19
442.68	3545.91
442.87	3585.70
443.05	3555.27
443.24	3627.83
443.43	3686.34
443.61	3613.79
443.80	3740.18
443.98	3581.02
444.17	3417.18
444.35	3599.74
444.54	3756.56
444.73	3618.47
444.91	3775.28
445.10	3740.18
445.28	3620.81
445.47	3592.72
445.65	3698.05
445.84	3758.90
446.02	3644.21
446.21	3691.02
446.39	3749.54
446.58	3723.79
446.77	3751.88
446.95	3679.32
447.14	3796.35
447.32	3735.50
447.51	3730.81
447.69	3735.50
447.88	3726.13
448.06	3735.50
448.25	3744.86
448.43	3779.97
448.62	3756.56
448.80	3936.78
448.99	3927.42
449.17	3754.22
449.36	3880.61
449.54	3805.71
449.73	3913.38
449.91	3754.22
450.10	3871.25
450.28	3927.42
450.46	4009.34
450.65	3908.69
450.83	3922.74
451.02	3941.46
451.20	3936.78
451.39	3957.85
451.57	3964.87
451.76	3875.93
451.94	4042.11
452.13	3922.74
452.31	3969.55
452.49	4016.36
452.68	4084.23
452.86	4154.45
453.05	4042.11
453.23	4018.70
453.42	3990.61
453.60	3843.16
453.78	4142.75
453.97	4065.51
454.15	4121.68
454.34	4081.89
454.52	4149.77
454.70	4294.88
454.89	4236.37
455.07	4205.94
455.26	4210.62
455.44	4320.63
455.62	4147.43
455.81	4262.12
455.99	4304.25
456.17	4381.48
456.36	4397.87
456.54	4266.80
456.73	4367.44
456.91	4332.33
457.09	4447.02
457.28	4603.83
457.46	4493.83
457.64	4472.76
457.83	4475.10
458.01	4458.72
458.19	4498.51
458.38	4489.15
458.56	4652.98
458.74	4463.40
458.93	4489.15
459.11	4519.57
459.29	4585.11
459.48	4514.89
459.66	4589.79
459.84	4624.90
460.03	4807.46
460.21	4683.41
460.39	4634.26
460.57	4660.01
460.76	4821.50
460.94	4547.66
461.12	4774.69
461.31	4652.98
461.49	4601.49
461.67	4603.83
461.85	4898.74
462.04	4737.24
462.22	5034.49
462.40	4699.80
462.59	4844.91
462.77	4798.10
462.95	4908.10
463.13	4896.40
463.32	4882.36
463.50	4931.51
463.68	4997.04
463.86	4865.97
464.05	4943.21
464.23	4915.12
464.41	4861.29
464.59	4844.91
464.78	5102.37
464.96	5046.20
465.14	4889.38
465.32	4952.57
465.50	5055.56
465.69	5137.48
465.87	4994.70
466.05	4999.38
466.23	5069.60
466.41	5013.43
466.60	5170.24
466.78	5121.09
466.96	5071.94
467.14	5191.31
467.32	5221.74
467.51	5238.12
467.69	5090.67
467.87	5043.85
468.05	5144.50
468.23	5188.97
468.41	5027.47
468.60	5090.67
468.78	5191.31
468.96	5296.63
469.14	5125.77
469.32	5444.09
469.50	5200.67
469.69	5446.43
469.87	5352.81
470.05	5366.85
470.23	5338.76
470.41	5348.12
470.59	5441.75
470.77	5577.50
470.95	5329.40
471.14	5612.60
471.32	5397.28
471.50	5497.92
471.68	5455.79
471.86	5568.13
472.04	5680.48
472.22	5582.18
472.40	5675.80
472.58	5593.88
472.77	5717.93
472.95	5895.81
473.13	5891.13
473.31	5710.91
473.49	5757.72
473.67	5687.50
473.85	5799.85
474.03	5956.66
474.21	5806.87
474.39	6024.54
474.57	5750.70
474.75	5947.30
474.93	6069.01
475.12	5923.90
475.30	6071.35
475.48	5970.71
475.66	6204.76
475.84	6005.81
476.02	6382.64
476.20	6076.03
476.38	6216.46
476.56	6544.14
476.74	6401.37
476.92	6464.56
477.10	6328.81
477.28	6424.77
477.46	6511.37
477.64	6450.52
477.82	6572.22
478.00	6761.81
478.18	6703.29
478.36	6862.45
478.54	6897.56
478.72	6825.00
478.90	6813.30
479.08	7021.61
479.26	6965.43
479.44	7122.25
479.62	7204.17
479.80	7082.46
479.98	7145.66
480.16	7438.22
480.34	7248.64
480.52	7260.34
480.70	7382.05
480.88	7260.34
481.06	7164.38
481.24	7534.18
481.41	7611.42
481.59	7531.84
481.77	7859.52
481.95	7695.68
482.13	7730.79
482.31	7602.06
482.49	7698.02
482.67	7861.86
482.85	8009.31
483.03	8283.16
483.21	8152.09
483.39	8116.98
483.57	8070.17
483.74	8290.18
483.92	8428.27
484.10	8049.10
484.28	8498.49
484.46	8575.72
484.64	8681.05
484.82	8608.49
485.00	8713.81
485.18	8908.08
485.35	9034.47
485.53	8812.12
485.71	9060.21
485.89	8826.16
486.07	8940.85
486.25	8943.19
486.43	9200.65
486.61	9266.18
486.78	9373.85
486.96	9350.44
487.14	9444.06
487.32	9542.36
487.50	9392.57
487.68	9785.78
487.85	9692.16
488.03	9884.08
488.21	9886.42
488.39	9940.26
488.57	9877.06
488.75	10024.51
488.92	10216.44
489.10	10167.29
489.28	10284.31
489.46	10277.29
489.64	10457.51
489.81	10855.40
489.99	10384.96
490.17	10658.80
490.35	10871.79
490.53	10745.40
490.70	10785.19
490.88	10834.34
491.06	10937.32
491.24	10829.66
491.41	11016.90
491.59	11087.12
491.77	10960.73
491.95	11375.00
492.13	11344.58
492.30	11578.63
492.48	11389.05
492.66	11580.97
492.84	11595.01
493.01	11597.35
493.19	11646.51
493.37	11714.38
493.54	11976.52
493.72	11824.39
493.90	11868.86
494.08	11976.52
494.25	12067.80
494.43	12135.68
494.61	12095.89
494.79	12355.69
494.96	12203.55
495.14	12028.01
495.32	12395.48
495.49	12538.25
495.67	12589.74
495.85	12655.28
496.02	12578.04
496.20	12613.15
496.38	12655.28
496.55	12959.55
496.73	13046.15
496.91	12828.48
497.09	13027.42
497.26	13212.32
497.44	12945.50
497.62	13170.19
497.79	13357.44
497.97	13039.12
498.14	13472.12
498.32	13671.07
498.50	13474.46
498.67	13584.47
498.85	13497.87
499.03	13642.98
499.20	13752.99
499.38	13778.73
499.56	13748.31
499.73	13738.94
499.91	14120.45
500.08	13987.04
500.26	13752.99
500.44	13865.33
500.61	14270.25
500.79	14040.87
500.97	14305.35
501.14	14258.54
501.32	14258.54
501.49	14284.29
501.67	14272.59
501.84	14251.52
502.02	14314.72
502.20	14338.12
502.37	14616.65
502.55	14321.74
502.72	14532.39
502.90	14565.15
503.07	14623.67
503.25	14946.66
503.43	14724.31
503.60	14883.47
503.78	14822.61
503.95	14778.14
504.13	15009.86
504.30	15199.44
504.48	15201.78
504.65	15410.09
504.83	15304.76
505.01	15606.69
505.18	15417.11
505.36	15363.28
505.53	15220.50
505.71	15508.39
505.88	15709.68
506.06	15641.80
506.23	15339.87
506.41	15648.82
506.58	15756.49
506.76	15297.74
506.93	15538.82
507.11	15723.72
507.28	15955.43
507.46	15946.07
507.63	16060.76
507.81	15824.36
507.98	15936.71
508.16	16027.99
508.33	16088.84
508.50	16182.46
508.68	16304.17
508.85	16388.43
509.03	16435.24
509.20	16411.84
509.38	16578.01
509.55	16589.72
509.73	16535.88
509.90	16828.45
510.08	16266.72
510.25	16634.19
510.42	16496.10
510.60	16746.53
510.77	16657.59
510.95	17006.33
511.12	16879.94
511.30	16849.52
511.47	16793.34
511.64	16950.16
511.82	17170.17
511.99	17142.08
512.17	17298.90
512.34	17207.62
512.51	17369.12
512.69	17294.22
512.86	17158.47
513.04	17341.03
513.21	17352.73
513.38	17322.30
513.56	17446.35
513.73	17390.18
513.90	17490.82
514.08	17226.34
514.25	17659.34
514.43	17900.42
514.60	17851.27
514.77	17610.19
514.95	17767.01
515.12	17652.32
515.29	17537.63
515.47	17905.10
515.64	18108.72
515.81	18054.89
515.99	18265.54
516.16	17940.21
516.33	17972.97
516.51	18242.14
516.68	18300.65
516.85	18185.96
517.03	18359.16
517.20	18263.20
517.37	18422.36
517.54	18405.97
517.72	18396.61
517.89	18286.61
518.06	18576.83
518.24	18644.71
518.41	18518.32
518.58	18672.79
518.75	18572.15
518.93	18614.28
519.10	18806.20
519.27	18764.07
519.45	18574.49
519.62	19087.07
519.79	18925.57
519.96	18586.19
520.14	18551.09
520.31	18820.25
520.48	19208.78
520.65	19328.14
520.83	19192.39
521.00	19225.16
521.17	19239.20
521.34	19084.73
521.52	19084.73
521.69	18998.13
521.86	19534.11
522.03	19337.51
522.20	19353.89
522.38	19440.49
522.55	19627.73
522.72	19042.60
522.89	19468.58
523.07	19403.04
523.24	19396.02
523.41	19466.24
523.58	19527.09
523.75	19882.85
523.92	19637.09
524.10	20074.77
524.27	19789.23
524.44	19529.43
524.61	19901.58
524.78	19817.32
524.96	19922.64
525.13	20173.08
525.30	20166.06
525.47	20088.82
525.64	19777.53
525.81	19899.23
525.98	20191.80
526.16	20250.32
526.33	20112.22
526.50	20343.94
526.67	20386.07
526.84	20549.90
527.01	20280.74
527.18	20201.16
527.36	20475.01
527.53	20397.77
527.70	20472.67
527.87	20573.31
528.04	20629.48
528.21	20823.75
528.38	20664.59
528.55	20720.76
528.72	20563.95
528.89	20711.40
529.07	20989.92
529.24	20592.03
529.41	20816.72
529.58	20882.26
529.75	20554.58
529.92	20950.14
530.09	21076.52
530.26	20744.17
530.43	20950.14
530.60	20961.84
530.77	21088.23
530.94	21149.08
531.11	20875.24
531.28	20999.29
531.46	20980.56
531.63	21029.71
531.80	21177.17
531.97	21149.08
532.14	21214.62
532.31	21231.00
532.48	21645.27
532.65	21493.14
532.82	21352.71
532.99	21486.12
533.16	21355.05
533.33	21523.57
533.50	21451.01
533.67	21664.00
533.84	21247.38
534.01	21699.11
534.18	21490.80
534.35	21820.81
534.52	21720.17
534.69	21891.03
534.86	21294.19
535.03	21333.98
535.20	21923.80
535.37	21703.79
535.54	21799.75
535.71	21792.73
535.88	21743.58
536.05	21640.59
536.22	21743.58
536.38	21907.41
536.55	21991.67
536.72	21816.13
536.89	22223.39
537.06	22457.44
537.23	22267.86
537.40	22118.06
537.57	21668.68
537.74	22518.29
537.91	22185.94
538.08	21919.12
538.25	22192.96
538.42	22349.78
538.59	22309.99
538.75	22279.56
538.92	22497.23
539.09	22450.42
539.26	22602.55
539.43	22679.79
539.60	22586.17
539.77	22677.45
539.94	22677.45
540.11	22890.44
540.28	23005.13
540.44	22728.94
540.61	22764.05
540.78	23047.26
540.95	22843.63
541.12	22560.42
541.29	23047.26
541.46	23026.19
541.62	23325.78
541.79	23489.62
541.96	23145.56
542.13	23243.86
542.30	23407.70
542.47	23180.67
542.63	23545.79
542.80	23278.97
542.97	23681.54
543.14	23985.81
543.31	23569.19
543.48	23557.49
543.64	23836.02
543.81	23882.83
543.98	23768.14
544.15	23578.56
544.32	23983.47
544.48	23913.25
544.65	23728.35
544.82	23997.51
544.99	23475.57
545.16	23833.68
545.32	23569.19
545.49	24519.45
545.66	24844.79
545.83	24954.79
546.00	24561.58
546.16	24257.31
546.33	24168.37
546.50	23990.49
546.67	23950.70
546.83	23608.98
547.00	24311.14
547.17	23894.53
547.34	23939.00
547.50	24095.82
547.67	23901.55
547.84	24372.00
548.00	24343.91
548.17	24004.53
548.34	23807.93
548.51	24285.40
548.67	23917.93
548.84	24088.79
549.01	24135.60
549.18	24390.72
549.34	24039.64
549.51	24224.54
549.68	24261.99
549.84	24191.78
550.01	24212.84
550.18	23836.02
550.34	24315.83
550.51	24184.76
550.68	24006.87
550.84	23718.99
551.01	24023.26
551.18	23946.02
551.34	23812.61
551.51	23948.36
551.68	24273.70
551.84	24432.85
552.01	24205.82
552.18	24219.86
552.34	23978.79
552.51	24364.98
552.68	24147.31
552.84	24453.92
553.01	24460.94
553.18	24348.59
553.34	24697.33
553.51	24128.58
553.67	24362.64
553.84	24669.25
554.01	24493.71
554.17	24484.34
554.34	24720.74
554.51	24601.37
554.67	24718.40
554.84	24739.46
555.00	24383.70
555.17	24175.39
555.33	24137.94
555.50	24067.73
555.67	24648.18
555.83	24402.43
556.00	24486.68
556.16	24575.62
556.33	24805.00
556.50	24496.05
556.66	24486.68
556.83	24905.64
556.99	24919.68
557.16	24772.23
557.32	24903.30
557.49	25001.60
557.65	24692.65
557.82	25127.99
557.98	24636.48
558.15	24870.53
558.32	24929.05
558.48	24566.26
558.65	25130.33
558.81	24931.39
558.98	24982.88
559.14	25025.01
559.31	24783.93
559.47	24936.07
559.64	24840.11
559.80	24746.48
559.97	25181.82
560.13	24978.20
560.30	24814.36
560.46	25104.59
560.63	24926.71
560.79	25151.40
560.96	25053.09
561.12	24774.57
561.29	25240.34
561.45	25532.90
561.61	25102.25
561.78	25170.12
561.94	25179.48
562.11	25132.67
562.27	25345.66
562.44	25387.79
562.60	25682.70
562.77	25067.14
562.93	25221.61
563.10	25184.16
563.26	25036.71
563.42	24936.07
563.59	25387.79
563.75	25277.79
563.92	25750.57
564.08	25156.08
564.24	25343.32
564.41	25212.25
564.57	25336.30
564.74	25472.05
564.90	25736.53
565.07	25397.15
565.23	25668.66
565.39	25120.97
565.56	25516.52
565.72	25352.68
565.88	25242.68
566.05	25137.35
566.21	25441.62
566.38	25055.43
566.54	25539.93
566.70	25380.77
566.87	25703.76
567.03	25404.17
567.19	25757.60
567.36	25778.66
567.52	25645.25
567.68	25385.45
567.85	25563.33
568.01	25446.30
568.17	25607.80
568.34	25708.44
568.50	25610.14
568.66	25701.42
568.83	25443.96
568.99	25277.79
569.15	25287.15
569.32	25284.81
569.48	25376.09
569.64	25411.20
569.81	25329.28
569.97	25345.66
570.13	25919.09
570.30	25572.69
570.46	25469.71
570.62	25907.39
570.78	25387.79
570.95	25399.49
571.11	25804.41
571.27	25628.87
571.43	25525.88
571.60	25600.78
571.76	25443.96
571.92	25769.30
572.09	25722.49
572.25	25790.36
572.41	25738.87
572.57	25837.17
572.74	25954.20
572.90	25912.07
573.06	25703.76
573.22	25738.87
573.38	25518.86
573.55	25535.24
573.71	25898.03
573.87	25839.51
574.03	25436.94
574.20	26115.70
574.36	25715.47
574.52	25862.92
574.68	25565.67
574.84	26038.46
575.01	25640.57
575.17	26148.46
575.33	25923.77
575.49	26197.62
575.65	25673.34
575.82	25797.38
575.98	25839.51
576.14	25757.60
576.30	25708.44
576.46	25958.88
576.62	25958.88
576.79	26094.63
576.95	25621.84
577.11	25968.24
577.27	26026.76
577.43	25783.34
577.59	25928.45
577.75	25675.68
577.92	25654.61
578.08	25773.98
578.24	25607.80
578.40	26209.32
578.56	26253.79
578.72	26003.35
578.88	26258.47
579.04	25862.92
579.21	25909.73
579.37	26003.35
579.53	25965.90
579.69	25862.92
579.85	25729.51
580.01	25518.86
580.17	25710.78
580.33	26118.04
580.49	26040.80
580.65	25720.15
580.82	26132.08
580.98	26024.42
581.14	26082.93
581.30	25940.16
581.46	25589.08
581.62	26089.95
581.78	25612.48
581.94	25645.25
582.10	25542.27
582.26	25752.91
582.42	25738.87
582.58	25771.64
582.74	25851.22
582.90	25862.92
583.06	26239.75
583.22	25759.94
583.38	26099.31
583.54	25984.63
583.70	26092.29
583.86	26019.74
584.02	25661.63
584.18	25949.52
584.34	26026.76
584.50	26155.49
584.66	25837.17
584.82	25862.92
584.98	26022.08
585.14	26274.85
585.30	26244.43
585.46	25778.66
585.62	26029.10
585.78	25713.13
585.94	25900.37
586.10	26099.31
586.26	25891.01
586.42	25902.71
586.58	25792.70
586.74	25930.80
586.90	25926.11
587.06	26015.05
587.22	26436.35
587.38	26068.89
587.54	25895.69
587.70	26370.82
587.86	26115.70
588.02	26429.33
588.18	26300.60
588.34	25977.61
588.49	25921.43
588.65	25827.81
588.81	25539.93
588.97	26115.70
589.13	26017.40
589.29	25893.35
589.45	26429.33
589.61	26155.49
589.77	26111.02
589.93	26139.10
590.08	26300.60
590.24	26057.18
590.40	26347.41
590.56	26338.05
590.72	26295.92
