SpectraSuite Data File
++++++++++++++++++++++++++++++++++++
Date: Thu Oct 24 13:21:01 EDT 2013
User: stostad
Dark Spectrum Present: No
Reference Spectrum Present: No
Number of Sampled Component Spectra: 1
Spectrometers: USB2+H05261
Integration Time (usec): 100000 (USB2+H05261)
Spectra Averaged: 1 (USB2+H05261)
Boxcar Smoothing: 0 (USB2+H05261)
Correct for Electrical Dark: No (USB2+H05261)
Strobe/Lamp Enabled: No (USB2+H05261)
Correct for Detector Non-linearity: No (USB2+H05261)
Correct for Stray Light: No (USB2+H05261)
Number of Pixels in Processed Spectrum: 2048
>>>>>Begin Processed Spectral Data<<<<<
365.73	564.07
365.92	564.07
366.12	564.07
366.32	437.68
366.52	442.36
366.72	519.60
366.91	472.79
367.11	447.04
367.31	449.38
367.51	491.51
367.70	484.49
367.90	421.30
368.10	491.51
368.30	407.25
368.49	414.27
368.69	451.72
368.89	470.45
369.09	496.19
369.28	500.87
369.48	507.90
369.68	573.43
369.87	484.49
370.07	461.09
370.27	566.41
370.47	557.05
370.66	493.85
370.86	557.05
371.06	571.09
371.25	631.94
371.45	578.11
371.65	564.07
371.84	601.52
372.04	629.60
372.24	561.73
372.44	655.35
372.63	557.05
372.83	664.71
373.03	655.35
373.22	589.82
373.42	653.01
373.62	622.58
373.81	653.01
374.01	645.99
374.21	629.60
374.40	662.37
374.60	575.77
374.79	664.71
374.99	643.65
375.19	657.69
375.38	617.90
375.58	688.12
375.78	543.00
375.97	603.86
376.17	741.95
376.37	592.16
376.56	587.47
376.76	622.58
376.95	671.73
377.15	638.97
377.35	634.29
377.54	667.05
377.74	650.67
377.93	610.88
378.13	645.99
378.33	571.09
378.52	571.09
378.72	709.18
378.91	718.54
379.11	561.73
379.31	596.84
379.50	624.92
379.70	575.77
379.89	606.20
380.09	568.75
380.28	592.16
380.48	657.69
380.68	645.99
380.87	587.47
381.07	702.16
381.26	634.29
381.46	662.37
381.65	594.50
381.85	585.13
382.04	650.67
382.24	578.11
382.43	585.13
382.63	589.82
382.83	568.75
383.02	608.54
383.22	638.97
383.41	599.18
383.61	706.84
383.80	606.20
384.00	631.94
384.19	660.03
384.39	615.56
384.58	599.18
384.78	669.39
384.97	578.11
385.17	697.48
385.36	662.37
385.56	601.52
385.75	653.01
385.95	582.79
386.14	610.88
386.34	613.22
386.53	627.26
386.72	599.18
386.92	620.24
387.11	683.44
387.31	664.71
387.50	634.29
387.70	606.20
387.89	596.84
388.09	631.94
388.28	627.26
388.48	613.22
388.67	610.88
388.86	667.05
389.06	645.99
389.25	645.99
389.45	608.54
389.64	596.84
389.84	533.64
390.03	601.52
390.22	603.86
390.42	603.86
390.61	575.77
390.81	550.03
391.00	660.03
391.19	629.60
391.39	676.41
391.58	636.63
391.78	613.22
391.97	592.16
392.16	610.88
392.36	636.63
392.55	648.33
392.75	641.31
392.94	568.75
393.13	664.71
393.33	599.18
393.52	592.16
393.71	596.84
393.91	613.22
394.10	645.99
394.29	624.92
394.49	589.82
394.68	629.60
394.88	674.07
395.07	690.46
395.26	636.63
395.46	596.84
395.65	669.39
395.84	580.45
396.04	706.84
396.23	622.58
396.42	695.14
396.62	678.76
396.81	697.48
397.00	624.92
397.19	695.14
397.39	622.58
397.58	636.63
397.77	641.31
397.97	674.07
398.16	629.60
398.35	606.20
398.55	653.01
398.74	631.94
398.93	622.58
399.12	631.94
399.32	622.58
399.51	690.46
399.70	660.03
399.90	557.05
400.09	664.71
400.28	601.52
400.47	634.29
400.67	671.73
400.86	568.75
401.05	638.97
401.24	624.92
401.44	653.01
401.63	648.33
401.82	578.11
402.01	638.97
402.21	594.50
402.40	594.50
402.59	566.41
402.78	592.16
402.97	610.88
403.17	638.97
403.36	543.00
403.55	636.63
403.74	662.37
403.93	688.12
404.13	763.01
404.32	671.73
404.51	671.73
404.70	688.12
404.89	650.67
405.09	671.73
405.28	606.20
405.47	601.52
405.66	634.29
405.85	695.14
406.05	648.33
406.24	641.31
406.43	674.07
406.62	610.88
406.81	671.73
407.00	655.35
407.20	678.76
407.39	624.92
407.58	603.86
407.77	660.03
407.96	617.90
408.15	631.94
408.34	629.60
408.54	559.39
408.73	669.39
408.92	624.92
409.11	695.14
409.30	683.44
409.49	606.20
409.68	594.50
409.87	627.26
410.07	627.26
410.26	653.01
410.45	589.82
410.64	580.45
410.83	624.92
411.02	606.20
411.21	702.16
411.40	678.76
411.59	615.56
411.78	615.56
411.98	669.39
412.17	594.50
412.36	669.39
412.55	627.26
412.74	660.03
412.93	645.99
413.12	622.58
413.31	627.26
413.50	636.63
413.69	573.43
413.88	610.88
414.07	655.35
414.26	580.45
414.45	587.47
414.64	599.18
414.83	653.01
415.02	653.01
415.22	641.31
415.41	615.56
415.60	601.52
415.79	571.09
415.98	648.33
416.17	575.77
416.36	678.76
416.55	660.03
416.74	638.97
416.93	667.05
417.12	587.47
417.31	550.03
417.50	587.47
417.69	624.92
417.88	641.31
418.07	578.11
418.26	608.54
418.45	613.22
418.64	610.88
418.83	603.86
419.02	667.05
419.21	603.86
419.39	568.75
419.58	566.41
419.77	692.80
419.96	634.29
420.15	643.65
420.34	603.86
420.53	690.46
420.72	608.54
420.91	634.29
421.10	638.97
421.29	634.29
421.48	641.31
421.67	547.69
421.86	650.67
422.05	606.20
422.24	559.39
422.43	608.54
422.61	655.35
422.80	650.67
422.99	692.80
423.18	638.97
423.37	664.71
423.56	667.05
423.75	606.20
423.94	624.92
424.13	671.73
424.32	571.09
424.50	678.76
424.69	690.46
424.88	676.41
425.07	638.97
425.26	645.99
425.45	655.35
425.64	674.07
425.83	667.05
426.01	634.29
426.20	662.37
426.39	601.52
426.58	610.88
426.77	564.07
426.96	676.41
427.15	589.82
427.33	667.05
427.52	711.52
427.71	657.69
427.90	601.52
428.09	624.92
428.28	657.69
428.46	648.33
428.65	622.58
428.84	669.39
429.03	669.39
429.22	631.94
429.40	575.77
429.59	634.29
429.78	683.44
429.97	685.78
430.16	631.94
430.34	528.96
430.53	695.14
430.72	594.50
430.91	613.22
431.10	594.50
431.28	629.60
431.47	573.43
431.66	631.94
431.85	664.71
432.03	711.52
432.22	702.16
432.41	585.13
432.60	660.03
432.79	662.37
432.97	631.94
433.16	634.29
433.35	678.76
433.54	610.88
433.72	655.35
433.91	662.37
434.10	620.24
434.28	681.10
434.47	681.10
434.66	641.31
434.85	730.25
435.03	828.55
435.22	971.32
435.41	1109.41
435.59	1064.94
435.78	954.94
435.97	938.55
436.16	753.65
436.34	671.73
436.53	667.05
436.72	683.44
436.90	599.18
437.09	676.41
437.28	650.67
437.46	678.76
437.65	620.24
437.84	674.07
438.02	669.39
438.21	617.90
438.40	676.41
438.58	634.29
438.77	617.90
438.96	610.88
439.14	653.01
439.33	575.77
439.52	669.39
439.70	631.94
439.89	664.71
440.08	638.97
440.26	645.99
440.45	650.67
440.63	678.76
440.82	592.16
441.01	697.48
441.19	678.76
441.38	627.26
441.57	617.90
441.75	702.16
441.94	636.63
442.12	657.69
442.31	601.52
442.50	580.45
442.68	657.69
442.87	571.09
443.05	641.31
443.24	608.54
443.43	587.47
443.61	678.76
443.80	683.44
443.98	615.56
444.17	629.60
444.35	662.37
444.54	601.52
444.73	596.84
444.91	636.63
445.10	599.18
445.28	620.24
445.47	634.29
445.65	692.80
445.84	620.24
446.02	643.65
446.21	674.07
446.39	660.03
446.58	676.41
446.77	622.58
446.95	690.46
447.14	692.80
447.32	671.73
447.51	627.26
447.69	580.45
447.88	589.82
448.06	688.12
448.25	568.75
448.43	685.78
448.62	589.82
448.80	713.86
448.99	627.26
449.17	671.73
449.36	683.44
449.54	608.54
449.73	657.69
449.91	662.37
450.10	608.54
450.28	709.18
450.46	643.65
450.65	596.84
450.83	660.03
451.02	664.71
451.20	645.99
451.39	561.73
451.57	657.69
451.76	669.39
451.94	685.78
452.13	685.78
452.31	594.50
452.49	648.33
452.68	653.01
452.86	660.03
453.05	798.12
453.23	667.05
453.42	587.47
453.60	690.46
453.78	706.84
453.97	617.90
454.15	575.77
454.34	669.39
454.52	662.37
454.70	622.58
454.89	667.05
455.07	643.65
455.26	697.48
455.44	655.35
455.62	676.41
455.81	636.63
455.99	585.13
456.17	648.33
456.36	634.29
456.54	592.16
456.73	620.24
456.91	650.67
457.09	636.63
457.28	653.01
457.46	711.52
457.64	634.29
457.83	662.37
458.01	676.41
458.19	650.67
458.38	596.84
458.56	627.26
458.74	631.94
458.93	688.12
459.11	674.07
459.29	692.80
459.48	653.01
459.66	662.37
459.84	699.82
460.03	777.06
460.21	676.41
460.39	622.58
460.57	676.41
460.76	664.71
460.94	669.39
461.12	645.99
461.31	620.24
461.49	624.92
461.67	671.73
461.85	685.78
462.04	671.73
462.22	994.73
462.40	669.39
462.59	667.05
462.77	641.31
462.95	713.86
463.13	688.12
463.32	634.29
463.50	681.10
463.68	589.82
463.86	568.75
464.05	599.18
464.23	660.03
464.41	706.84
464.59	606.20
464.78	610.88
464.96	606.20
465.14	627.26
465.32	634.29
465.50	655.35
465.69	657.69
465.87	645.99
466.05	660.03
466.23	613.22
466.41	594.50
466.60	594.50
466.78	559.39
466.96	629.60
467.14	671.73
467.32	699.82
467.51	655.35
467.69	638.97
467.87	674.07
468.05	690.46
468.23	702.16
468.41	636.63
468.60	610.88
468.78	671.73
468.96	601.52
469.14	606.20
469.32	650.67
469.50	636.63
469.69	688.12
469.87	697.48
470.05	622.58
470.23	648.33
470.41	610.88
470.59	631.94
470.77	653.01
470.95	622.58
471.14	697.48
471.32	638.97
471.50	676.41
471.68	648.33
471.86	620.24
472.04	599.18
472.22	589.82
472.40	606.20
472.58	594.50
472.77	648.33
472.95	629.60
473.13	655.35
473.31	638.97
473.49	617.90
473.67	603.86
473.85	741.95
474.03	594.50
474.21	667.05
474.39	671.73
474.57	699.82
474.75	674.07
474.93	690.46
475.12	641.31
475.30	678.76
475.48	732.59
475.66	627.26
475.84	716.20
476.02	643.65
476.20	667.05
476.38	723.23
476.56	617.90
476.74	653.01
476.92	622.58
477.10	634.29
477.28	669.39
477.46	669.39
477.64	643.65
477.82	617.90
478.00	634.29
478.18	629.60
478.36	620.24
478.54	650.67
478.72	706.84
478.90	592.16
479.08	650.67
479.26	657.69
479.44	615.56
479.62	610.88
479.80	589.82
479.98	608.54
480.16	615.56
480.34	653.01
480.52	671.73
480.70	706.84
480.88	730.25
481.06	692.80
481.24	596.84
481.41	603.86
481.59	636.63
481.77	720.88
481.95	653.01
482.13	667.05
482.31	636.63
482.49	622.58
482.67	648.33
482.85	629.60
483.03	711.52
483.21	603.86
483.39	660.03
483.57	685.78
483.74	678.76
483.92	681.10
484.10	737.27
484.28	763.01
484.46	716.20
484.64	695.14
484.82	678.76
485.00	713.86
485.18	690.46
485.35	727.91
485.53	760.67
485.71	779.40
485.89	657.69
486.07	685.78
486.25	746.63
486.43	657.69
486.61	727.91
486.78	631.94
486.96	751.31
487.14	706.84
487.32	713.86
487.50	763.01
487.68	683.44
487.85	617.90
488.03	699.82
488.21	730.25
488.39	763.01
488.57	653.01
488.75	711.52
488.92	744.29
489.10	777.06
489.28	793.44
489.46	737.27
489.64	704.50
489.81	709.18
489.99	751.31
490.17	636.63
490.35	751.31
490.53	723.23
490.70	709.18
490.88	718.54
491.06	734.93
491.24	699.82
491.41	760.67
491.59	725.57
491.77	734.93
491.95	688.12
492.13	730.25
492.30	718.54
492.48	697.48
492.66	718.54
492.84	664.71
493.01	741.95
493.19	629.60
493.37	702.16
493.54	671.73
493.72	716.20
493.90	798.12
494.08	648.33
494.25	704.50
494.43	662.37
494.61	706.84
494.79	727.91
494.96	638.97
495.14	753.65
495.32	751.31
495.49	667.05
495.67	676.41
495.85	692.80
496.02	664.71
496.20	713.86
496.38	636.63
496.55	657.69
496.73	699.82
496.91	650.67
497.09	718.54
497.26	713.86
497.44	674.07
497.62	669.39
497.79	653.01
497.97	697.48
498.14	627.26
498.32	725.57
498.50	657.69
498.67	674.07
498.85	667.05
499.03	653.01
499.20	631.94
499.38	657.69
499.56	704.50
499.73	692.80
499.91	718.54
500.08	702.16
500.26	702.16
500.44	645.99
500.61	645.99
500.79	585.13
500.97	667.05
501.14	662.37
501.32	655.35
501.49	643.65
501.67	585.13
501.84	634.29
502.02	664.71
502.20	554.71
502.37	674.07
502.55	599.18
502.72	641.31
502.90	683.44
503.07	699.82
503.25	641.31
503.43	578.11
503.60	589.82
503.78	650.67
503.95	643.65
504.13	634.29
504.30	596.84
504.48	674.07
504.65	699.82
504.83	662.37
505.01	636.63
505.18	664.71
505.36	636.63
505.53	655.35
505.71	655.35
505.88	676.41
506.06	573.43
506.23	671.73
506.41	643.65
506.58	617.90
506.76	660.03
506.93	629.60
507.11	690.46
507.28	660.03
507.46	643.65
507.63	608.54
507.81	692.80
507.98	573.43
508.16	681.10
508.33	662.37
508.50	645.99
508.68	645.99
508.85	678.76
509.03	594.50
509.20	692.80
509.38	669.39
509.55	713.86
509.73	629.60
509.90	601.52
510.08	690.46
510.25	660.03
510.42	564.07
510.60	617.90
510.77	655.35
510.95	643.65
511.12	709.18
511.30	676.41
511.47	683.44
511.64	706.84
511.82	634.29
511.99	634.29
512.17	688.12
512.34	538.32
512.51	657.69
512.69	631.94
512.86	716.20
513.04	627.26
513.21	627.26
513.38	657.69
513.56	596.84
513.73	653.01
513.90	655.35
514.08	718.54
514.25	648.33
514.43	688.12
514.60	676.41
514.77	741.95
514.95	631.94
515.12	592.16
515.29	660.03
515.47	599.18
515.64	641.31
515.81	610.88
515.99	674.07
516.16	622.58
516.33	636.63
516.51	664.71
516.68	559.39
516.85	643.65
517.03	688.12
517.20	641.31
517.37	683.44
517.54	671.73
517.72	744.29
517.89	592.16
518.06	557.05
518.24	716.20
518.41	671.73
518.58	667.05
518.75	657.69
518.93	613.22
519.10	613.22
519.27	669.39
519.45	716.20
519.62	620.24
519.79	664.71
519.96	610.88
520.14	636.63
520.31	683.44
520.48	589.82
520.65	613.22
520.83	594.50
521.00	669.39
521.17	603.86
521.34	624.92
521.52	653.01
521.69	627.26
521.86	657.69
522.03	667.05
522.20	650.67
522.38	631.94
522.55	645.99
522.72	645.99
522.89	695.14
523.07	662.37
523.24	695.14
523.41	657.69
523.58	610.88
523.75	688.12
523.92	678.76
524.10	634.29
524.27	582.79
524.44	580.45
524.61	629.60
524.78	655.35
524.96	653.01
525.13	681.10
525.30	681.10
525.47	674.07
525.64	660.03
525.81	629.60
525.98	653.01
526.16	589.82
526.33	650.67
526.50	624.92
526.67	627.26
526.84	683.44
527.01	688.12
527.18	683.44
527.36	699.82
527.53	676.41
527.70	657.69
527.87	685.78
528.04	683.44
528.21	608.54
528.38	662.37
528.55	636.63
528.72	692.80
528.89	664.71
529.07	594.50
529.24	667.05
529.41	641.31
529.58	631.94
529.75	671.73
529.92	634.29
530.09	650.67
530.26	671.73
530.43	704.50
530.60	580.45
530.77	667.05
530.94	660.03
531.11	631.94
531.28	692.80
531.46	517.26
531.63	627.26
531.80	688.12
531.97	685.78
532.14	601.52
532.31	695.14
532.48	615.56
532.65	676.41
532.82	674.07
532.99	603.86
533.16	713.86
533.33	643.65
533.50	697.48
533.67	688.12
533.84	704.50
534.01	678.76
534.18	720.88
534.35	662.37
534.52	631.94
534.69	695.14
534.86	718.54
535.03	645.99
535.20	683.44
535.37	674.07
535.54	723.23
535.71	674.07
535.88	674.07
536.05	641.31
536.22	741.95
536.38	669.39
536.55	685.78
536.72	760.67
536.89	667.05
537.06	692.80
537.23	697.48
537.40	667.05
537.57	664.71
537.74	746.63
537.91	713.86
538.08	814.51
538.25	774.72
538.42	786.42
538.59	816.85
538.75	678.76
538.92	786.42
539.09	760.67
539.26	772.38
539.43	863.66
539.60	840.25
539.77	861.32
539.94	802.80
540.11	896.43
540.28	940.90
540.44	1062.60
540.61	994.73
540.78	973.66
540.95	1060.26
541.12	1165.59
541.29	1196.01
541.46	1252.19
541.62	1317.72
541.79	1254.53
541.96	1263.89
542.13	1308.36
542.30	1315.38
542.47	1275.59
542.63	1231.12
542.80	1203.04
542.97	1287.29
543.14	1327.08
543.31	1284.95
543.48	1287.29
543.64	1245.16
543.81	1231.12
543.98	1254.53
544.15	1327.08
544.32	1277.93
544.48	1217.08
544.65	1184.31
544.82	1165.59
544.99	1198.35
545.16	1165.59
545.32	1338.79
545.49	1614.97
545.66	1994.14
545.83	2111.16
546.00	1959.03
546.16	1701.57
546.33	1514.33
546.50	1392.62
546.67	1282.61
546.83	1125.80
547.00	1086.01
547.17	971.32
547.34	980.68
547.50	945.58
547.67	987.71
547.84	1013.45
548.00	915.15
548.17	985.37
548.34	919.83
548.51	952.60
548.67	931.53
548.84	807.48
549.01	912.81
549.18	873.02
549.34	847.27
549.51	861.32
549.68	938.55
549.84	760.67
550.01	880.04
550.18	861.32
550.34	858.98
550.51	770.04
550.68	847.27
550.84	777.06
551.01	760.67
551.18	844.93
551.34	753.65
551.51	739.61
551.68	732.59
551.84	753.65
552.01	744.29
552.18	821.53
552.34	798.12
552.51	777.06
552.68	795.78
552.84	730.25
553.01	821.53
553.18	753.65
553.34	765.36
553.51	727.91
553.67	676.41
553.84	800.46
554.01	737.27
554.17	746.63
554.34	702.16
554.51	674.07
554.67	657.69
554.84	723.23
555.00	692.80
555.17	683.44
555.33	557.05
555.50	631.94
555.67	669.39
555.83	732.59
556.00	702.16
556.16	678.76
556.33	716.20
556.50	671.73
556.66	734.93
556.83	653.01
556.99	674.07
557.16	641.31
557.32	662.37
557.49	688.12
557.65	657.69
557.82	589.82
557.98	601.52
558.15	669.39
558.32	690.46
558.48	713.86
558.65	662.37
558.81	641.31
558.98	692.80
559.14	636.63
559.31	716.20
559.47	653.01
559.64	699.82
559.80	676.41
559.97	596.84
560.13	660.03
560.30	636.63
560.46	645.99
560.63	627.26
560.79	683.44
560.96	706.84
561.12	653.01
561.29	641.31
561.45	683.44
561.61	662.37
561.78	711.52
561.94	636.63
562.11	655.35
562.27	678.76
562.44	692.80
562.60	720.88
562.77	657.69
562.93	716.20
563.10	744.29
563.26	664.71
563.42	683.44
563.59	641.31
563.75	601.52
563.92	688.12
564.08	681.10
564.24	674.07
564.41	692.80
564.57	636.63
564.74	645.99
564.90	695.14
565.07	620.24
565.23	718.54
565.39	638.97
565.56	704.50
565.72	617.90
565.88	622.58
566.05	653.01
566.21	641.31
566.38	695.14
566.54	674.07
566.70	685.78
566.87	650.67
567.03	664.71
567.19	589.82
567.36	641.31
567.52	699.82
567.68	690.46
567.85	748.97
568.01	653.01
568.17	711.52
568.34	690.46
568.50	643.65
568.66	655.35
568.83	737.27
568.99	667.05
569.15	676.41
569.32	636.63
569.48	606.20
569.64	622.58
569.81	718.54
569.97	585.13
570.13	624.92
570.30	676.41
570.46	678.76
570.62	655.35
570.78	683.44
570.95	620.24
571.11	657.69
571.27	641.31
571.43	599.18
571.60	699.82
571.76	615.56
571.92	580.45
572.09	655.35
572.25	690.46
572.41	767.70
572.57	660.03
572.74	683.44
572.90	615.56
573.06	606.20
573.22	690.46
573.38	624.92
573.55	732.59
573.71	636.63
573.87	629.60
574.03	641.31
574.20	580.45
574.36	697.48
574.52	704.50
574.68	678.76
574.84	648.33
575.01	720.88
575.17	655.35
575.33	704.50
575.49	674.07
575.65	653.01
575.82	711.52
575.98	739.61
576.14	645.99
576.30	692.80
576.46	777.06
576.62	837.91
576.79	992.39
576.95	898.77
577.11	793.44
577.27	805.14
577.43	725.57
577.59	720.88
577.75	704.50
577.92	650.67
578.08	690.46
578.24	596.84
578.40	723.23
578.56	809.83
578.72	901.11
578.88	976.00
579.04	870.68
579.21	833.23
579.37	702.16
579.53	737.27
579.69	779.40
579.85	784.08
580.01	816.85
580.17	791.10
580.33	767.70
580.49	781.74
580.65	746.63
580.82	718.54
580.98	718.54
581.14	725.57
581.30	739.61
581.46	753.65
581.62	791.10
581.78	737.27
581.94	760.67
582.10	748.97
582.26	784.08
582.42	725.57
582.58	748.97
582.74	786.42
582.90	791.10
583.06	814.51
583.22	795.78
583.38	812.17
583.54	786.42
583.70	788.76
583.86	823.87
584.02	774.72
584.18	819.19
584.34	737.27
584.50	800.46
584.66	737.27
584.82	758.33
584.98	858.98
585.14	718.54
585.30	798.12
585.46	800.46
585.62	795.78
585.78	788.76
585.94	835.57
586.10	784.08
586.26	777.06
586.42	821.53
586.58	706.84
586.74	891.74
586.90	957.28
587.06	889.40
587.22	903.45
587.38	814.51
587.54	844.93
587.70	873.02
587.86	856.64
588.02	819.19
588.18	805.14
588.34	866.00
588.49	784.08
588.65	798.12
588.81	713.86
588.97	755.99
589.13	767.70
589.29	720.88
589.45	781.74
589.61	716.20
589.77	713.86
589.93	823.87
590.08	688.12
590.24	751.31
590.40	727.91
590.56	748.97
590.72	716.20
590.88	748.97
591.04	760.67
591.20	681.10
591.35	774.72
591.51	739.61
591.67	763.01
591.83	755.99
591.99	737.27
592.15	777.06
592.31	765.36
592.46	837.91
592.62	795.78
592.78	837.91
592.94	826.21
593.10	819.19
593.26	786.42
593.41	870.68
593.57	826.21
593.73	744.29
593.89	730.25
594.05	746.63
594.20	753.65
594.36	770.04
594.52	727.91
594.68	723.23
594.84	681.10
594.99	730.25
595.15	730.25
595.31	741.95
595.47	746.63
595.62	709.18
595.78	660.03
595.94	676.41
596.10	706.84
596.25	674.07
596.41	674.07
596.57	711.52
596.73	704.50
596.88	695.14
597.04	683.44
597.20	653.01
597.36	674.07
597.51	634.29
597.67	664.71
597.83	702.16
597.99	723.23
598.14	730.25
598.30	662.37
598.46	676.41
598.61	774.72
598.77	744.29
598.93	709.18
599.09	725.57
599.24	751.31
599.40	772.38
599.56	732.59
599.71	807.48
599.87	781.74
600.03	758.33
600.18	800.46
600.34	730.25
600.50	730.25
600.65	718.54
600.81	681.10
600.97	702.16
601.12	692.80
601.28	713.86
601.44	702.16
601.59	702.16
601.75	629.60
601.91	664.71
602.06	624.92
602.22	732.59
602.37	692.80
602.53	697.48
602.69	657.69
602.84	631.94
603.00	671.73
603.16	681.10
603.31	601.52
603.47	669.39
603.62	608.54
603.78	720.88
603.94	709.18
604.09	732.59
604.25	758.33
604.40	624.92
604.56	704.50
604.71	671.73
604.87	723.23
605.03	734.93
605.18	702.16
605.34	667.05
605.49	748.97
605.65	685.78
605.80	629.60
605.96	692.80
606.12	664.71
606.27	755.99
606.43	692.80
606.58	727.91
606.74	660.03
606.89	760.67
607.05	753.65
607.20	809.83
607.36	716.20
607.51	709.18
607.67	723.23
607.82	732.59
607.98	690.46
608.13	760.67
608.29	812.17
608.44	767.70
608.60	723.23
608.75	805.14
608.91	812.17
609.06	793.44
609.22	952.60
609.37	868.34
609.53	823.87
609.68	971.32
609.84	880.04
