SpectraSuite Data File
++++++++++++++++++++++++++++++++++++
Date: Thu Oct 24 13:21:21 EDT 2013
User: stostad
Dark Spectrum Present: No
Reference Spectrum Present: No
Number of Sampled Component Spectra: 1
Spectrometers: USB2+H05261
Integration Time (usec): 100000 (USB2+H05261)
Spectra Averaged: 1 (USB2+H05261)
Boxcar Smoothing: 0 (USB2+H05261)
Correct for Electrical Dark: No (USB2+H05261)
Strobe/Lamp Enabled: No (USB2+H05261)
Correct for Detector Non-linearity: No (USB2+H05261)
Correct for Stray Light: No (USB2+H05261)
Number of Pixels in Processed Spectrum: 2048
>>>>>Begin Processed Spectral Data<<<<<
365.73	500.87
365.92	500.87
366.12	500.87
366.32	496.19
366.52	468.11
366.72	465.77
366.91	472.79
367.11	451.72
367.31	451.72
367.51	458.74
367.70	449.38
367.90	538.32
368.10	418.96
368.30	503.22
368.49	479.81
368.69	580.45
368.89	411.93
369.09	404.91
369.28	510.24
369.48	543.00
369.68	517.26
369.87	533.64
370.07	580.45
370.27	620.24
370.47	645.99
370.66	924.51
370.86	917.49
371.06	875.36
371.25	1020.47
371.45	936.21
371.65	894.08
371.84	896.43
372.04	952.60
372.24	945.58
372.44	947.92
372.63	964.30
372.83	1015.79
373.03	973.66
373.22	1020.47
373.42	1039.20
373.62	929.19
373.81	1027.50
374.01	1102.39
374.21	1036.86
374.40	1022.81
374.60	1067.28
374.79	1076.65
374.99	1057.92
375.19	1146.86
375.38	1137.50
375.58	1093.03
375.78	1100.05
375.97	1102.39
376.17	1093.03
376.37	1060.26
376.56	1137.50
376.76	1090.69
376.95	1102.39
377.15	1128.14
377.35	1076.65
377.54	1083.67
377.74	1114.10
377.93	1118.78
378.13	1078.99
378.33	1090.69
378.52	1146.86
378.72	1149.20
378.91	1181.97
379.11	1107.07
379.31	1137.50
379.50	1240.48
379.70	1144.52
379.89	1184.31
380.09	1107.07
380.28	1221.76
380.48	1128.14
380.68	1116.44
380.87	1151.54
381.07	1142.18
381.26	1240.48
381.46	1188.99
381.65	1205.38
381.85	1273.25
382.04	1221.76
382.24	1245.16
382.43	1212.40
382.63	1266.23
382.83	1242.82
383.02	1291.98
383.22	1266.23
383.41	1235.80
383.61	1301.34
383.80	1245.16
384.00	1282.61
384.19	1327.08
384.39	1383.26
384.58	1217.08
384.78	1315.38
384.97	1322.40
385.17	1390.28
385.36	1355.17
385.56	1249.85
385.75	1341.13
385.95	1322.40
386.14	1413.68
386.34	1404.32
386.53	1437.09
386.72	1345.81
386.92	1336.45
387.11	1390.28
387.31	1348.15
387.50	1460.49
387.70	1383.26
387.89	1345.81
388.09	1362.19
388.28	1427.73
388.48	1441.77
388.67	1437.09
388.86	1439.43
389.06	1476.88
389.25	1394.96
389.45	1418.36
389.64	1495.60
389.84	1526.03
390.03	1451.13
390.22	1486.24
390.42	1469.86
390.61	1378.58
390.81	1526.03
391.00	1554.12
391.19	1495.60
391.39	1570.50
391.58	1591.56
391.78	1509.65
391.97	1626.67
392.16	1533.05
392.36	1526.03
392.55	1600.93
392.75	1561.14
392.94	1619.65
393.13	1570.50
393.33	1598.59
393.52	1654.76
393.71	1593.90
393.91	1699.23
394.10	1636.03
394.29	1640.72
394.49	1699.23
394.68	1685.19
394.88	1657.10
395.07	1675.82
395.26	1757.74
395.46	1629.01
395.65	1834.98
395.84	1703.91
396.04	1771.79
396.23	1830.30
396.42	1811.57
396.62	1823.28
396.81	1767.10
397.00	1785.83
397.19	1732.00
397.39	1811.57
397.58	1781.15
397.77	1926.26
397.97	1877.11
398.16	1881.79
398.35	2008.18
398.55	1827.96
398.74	1867.75
398.93	2026.90
399.12	1863.07
399.32	1877.11
399.51	1912.22
399.70	1909.88
399.90	2064.35
400.09	2012.86
400.28	2083.08
400.47	2043.29
400.67	2085.42
400.86	1930.94
401.05	2064.35
401.24	2062.01
401.44	2085.42
401.63	2026.90
401.82	2143.93
402.01	2078.40
402.21	2162.66
402.40	2106.48
402.59	2225.85
402.78	2118.18
402.97	2202.44
403.17	2263.30
403.36	2256.28
403.55	2195.42
403.74	2286.70
403.93	2300.75
404.13	2305.43
404.32	2377.98
404.51	2380.32
404.70	2434.16
404.89	2321.81
405.09	2422.45
405.28	2307.77
405.47	2312.45
405.66	2326.49
405.85	2394.37
406.05	2406.07
406.24	2427.14
406.43	2424.80
406.62	2438.84
406.81	2562.89
407.00	2464.58
407.20	2403.73
407.39	2532.46
407.58	2612.04
407.77	2651.83
407.96	2672.89
408.15	2635.44
408.34	2555.86
408.54	2614.38
408.73	2572.25
408.92	2764.17
409.11	2693.96
409.30	2754.81
409.49	2712.68
409.68	2700.98
409.87	2796.94
410.07	2780.56
410.26	2867.16
410.45	2864.82
410.64	2818.00
410.83	2862.48
411.02	2897.58
411.21	2958.44
411.40	2972.48
411.59	3056.74
411.78	3023.97
411.98	2979.50
412.17	3112.91
412.36	3162.06
412.55	3197.17
412.74	3159.72
412.93	3152.70
413.12	3033.33
413.31	3206.53
413.50	3215.90
413.69	3272.07
413.88	3363.35
414.07	3293.13
414.26	3379.73
414.45	3447.61
414.64	3297.81
414.83	3452.29
415.02	3475.70
415.22	3534.21
415.41	3346.97
415.60	3473.36
415.79	3463.99
415.98	3623.15
416.17	3538.89
416.36	3660.60
416.55	3559.95
416.74	3599.74
416.93	3712.09
417.12	3721.45
417.31	3754.22
417.50	3864.22
417.69	3861.88
417.88	3754.22
418.07	3946.14
418.26	3836.14
418.45	3955.51
418.64	3995.29
418.83	3969.55
419.02	4025.72
419.21	3988.27
419.39	3995.29
419.58	4067.85
419.77	4081.89
419.96	4159.13
420.15	4088.92
420.34	4117.00
420.53	4222.33
420.72	4079.55
420.91	4177.86
421.10	4374.46
421.29	4201.26
421.48	4215.30
421.67	4327.65
421.86	4294.88
422.05	4257.43
422.24	4299.56
422.43	4215.30
422.61	4367.44
422.80	4510.21
422.99	4269.14
423.18	4423.61
423.37	4489.15
423.56	4367.44
423.75	4355.74
423.94	4234.03
424.13	4035.08
424.32	4166.15
424.50	4435.32
424.69	4542.98
424.88	4444.68
425.07	4372.12
425.26	4273.82
425.45	4372.12
425.64	4308.93
425.83	4311.27
426.01	4468.08
426.20	4444.68
426.39	4521.92
426.58	4514.89
426.77	4430.63
426.96	4571.07
427.15	4582.77
427.33	4674.05
427.52	4573.41
427.71	4692.77
427.90	4449.36
428.09	4660.01
428.28	4683.41
428.46	4725.54
428.65	4692.77
428.84	4887.04
429.03	4805.12
429.22	4734.90
429.40	4954.91
429.59	4781.71
429.78	4603.83
429.97	4582.77
430.16	4762.99
430.34	4894.06
430.53	4961.94
430.72	4882.36
430.91	4858.95
431.10	4929.17
431.28	5093.01
431.47	5022.79
431.66	5188.97
431.85	5121.09
432.03	5160.88
432.22	5275.57
432.41	5177.26
432.60	5170.24
432.79	5207.69
432.97	5261.52
433.16	5144.50
433.35	5195.99
433.54	5210.03
433.72	5441.75
433.91	5336.42
434.10	5362.17
434.28	5359.83
434.47	5446.43
434.66	5483.88
434.85	5474.51
435.03	5673.46
435.22	5785.80
435.41	5785.80
435.59	5741.33
435.78	5755.38
435.97	5762.40
436.16	5643.03
436.34	5547.07
436.53	5554.09
436.72	5757.72
436.90	5600.90
437.09	5757.72
437.28	5598.56
437.46	5797.51
437.65	5671.12
437.84	5813.89
438.02	5860.70
438.21	5802.19
438.40	5767.08
438.58	5893.47
438.77	6092.41
438.96	5928.58
439.14	6115.82
439.33	6190.72
439.52	6125.18
439.70	6319.45
439.89	6319.45
440.08	6452.86
440.26	6401.37
440.45	6319.45
440.63	6483.28
440.82	6520.73
441.01	6417.75
441.19	6452.86
441.38	6480.94
441.57	6532.44
441.75	6509.03
441.94	6829.68
442.12	6855.43
442.31	6832.02
442.50	6883.52
442.68	6860.11
442.87	6888.20
443.05	6867.13
443.24	7019.27
443.43	7002.88
443.61	7171.40
443.80	7157.36
443.98	6920.96
444.17	6679.89
444.35	7063.74
444.54	6939.69
444.73	7108.21
444.91	6974.80
445.10	7176.08
445.28	7124.59
445.47	7290.77
445.65	7059.06
445.84	7269.70
446.02	7335.24
446.21	7220.55
446.39	7026.29
446.58	7166.72
446.77	7087.14
446.95	7035.65
447.14	7307.15
447.32	7250.98
447.51	7148.00
447.69	7108.21
447.88	7403.11
448.06	7349.28
448.25	7396.09
448.43	7281.41
448.62	7384.39
448.80	7456.95
448.99	7133.95
449.17	7330.56
449.36	7407.80
449.54	7503.76
449.73	7468.65
449.91	7407.80
450.10	7588.02
450.28	7723.77
450.46	7782.28
450.65	7850.16
450.83	7700.36
451.02	7691.00
451.20	7588.02
451.39	7667.60
451.57	7854.84
451.76	7611.42
451.94	7838.45
452.13	7969.52
452.31	7939.10
452.49	7918.03
452.68	7990.59
452.86	7836.11
453.05	8161.45
453.23	8002.29
453.42	7962.50
453.60	7861.86
453.78	8121.66
453.97	8056.12
454.15	7896.97
454.34	7932.08
454.52	8135.70
454.70	8018.68
454.89	8262.09
455.07	8215.28
455.26	8276.13
455.44	8472.74
455.62	8425.93
455.81	8505.51
455.99	8421.25
456.17	8421.25
456.36	8500.83
456.54	8575.72
456.73	8657.64
456.91	8819.14
457.09	8702.11
457.28	8966.59
457.46	8739.56
457.64	8814.46
457.83	8805.10
458.01	8865.95
458.19	9053.19
458.38	8842.54
458.56	9041.49
458.74	8924.46
458.93	9039.15
459.11	8961.91
459.29	8992.34
459.48	9071.92
459.66	8929.14
459.84	9242.78
460.03	9348.10
460.21	9186.60
460.39	9200.65
460.57	9235.75
460.76	9144.47
460.94	9207.67
461.12	9423.00
461.31	9343.42
461.49	9439.38
461.67	9348.10
461.85	9465.13
462.04	9568.11
462.22	9809.19
462.40	9760.03
462.59	9788.12
462.77	9474.49
462.95	9565.77
463.13	9556.41
463.32	9790.46
463.50	9846.63
463.68	9879.40
463.86	9848.97
464.05	9710.88
464.23	9891.10
464.41	10040.90
464.59	9867.70
464.78	10235.16
464.96	9982.38
465.14	9886.42
465.32	9991.75
465.50	10094.73
465.69	10076.01
465.87	10171.97
466.05	10012.81
466.23	10186.01
466.41	10108.77
466.60	10429.43
466.78	10125.16
466.96	10462.19
467.14	10216.44
467.32	10209.42
467.51	10450.49
467.69	10073.67
467.87	10246.87
468.05	10586.24
468.23	10523.05
468.41	10349.85
468.60	10342.83
468.78	10459.85
468.96	10595.61
469.14	10541.77
469.32	10850.72
469.50	10422.41
469.69	10675.18
469.87	10909.24
470.05	10801.57
470.23	11082.44
470.41	11005.20
470.59	10953.71
470.77	10934.98
470.95	10752.42
471.14	11138.61
471.32	11115.20
471.50	11133.93
471.68	11396.07
471.86	11035.63
472.04	11286.06
472.22	11487.35
472.40	11456.92
472.58	11531.82
472.77	11606.72
472.95	11819.71
473.13	12175.47
473.31	11403.09
473.49	11583.31
473.67	11522.46
473.85	11751.83
474.03	12004.61
474.21	11880.56
474.39	12297.17
474.57	12273.77
474.75	12222.28
474.93	12458.67
475.12	12444.63
475.30	12512.50
475.48	12365.05
475.66	12362.71
475.84	12294.83
476.02	12786.35
476.20	12723.15
476.38	12968.91
476.56	13170.19
476.74	13015.72
476.92	13076.57
477.10	13195.94
477.28	13266.16
477.46	13259.13
477.64	13308.29
477.82	13448.72
478.00	13844.27
478.18	13652.34
478.36	14057.26
478.54	13965.98
478.72	14101.73
478.90	14111.09
479.08	14508.98
479.26	14530.05
479.44	14841.34
479.62	14874.10
479.80	14817.93
479.98	14951.34
480.16	15302.42
480.34	14853.04
480.52	15520.09
480.70	15328.17
480.88	15087.09
481.06	15236.89
481.24	15513.07
481.41	15496.69
481.59	15908.62
481.77	15929.69
481.95	16030.33
482.13	16145.02
482.31	16451.63
482.49	16491.41
482.67	16657.59
482.85	16800.37
483.03	16826.11
483.21	17214.64
483.39	17060.16
483.57	17125.70
483.74	17296.56
483.92	17348.05
484.10	17509.55
484.28	17809.14
484.46	18185.96
484.64	18258.52
484.82	17844.24
485.00	18122.77
485.18	18691.52
485.35	18693.86
485.53	18726.63
485.71	19040.26
485.89	19143.24
486.07	18941.96
486.25	18967.70
486.43	19262.61
486.61	19578.58
486.78	19784.55
486.96	19967.11
487.14	20236.27
487.32	20018.60
487.50	19967.11
487.68	20428.20
487.85	20594.37
488.03	20959.50
488.21	21018.01
488.39	20695.02
488.57	21315.26
488.75	21214.62
488.92	21362.07
489.10	21619.53
489.28	21841.88
489.46	21982.31
489.64	22080.61
489.81	22698.52
489.99	22792.14
490.17	22466.80
490.35	23070.66
490.53	22960.66
490.70	23283.65
490.88	23133.86
491.06	23405.36
491.24	23419.40
491.41	23754.10
491.59	23948.36
491.77	23997.51
491.95	24032.62
492.13	24184.76
492.30	24231.57
492.48	24191.78
492.66	24694.99
492.84	24346.25
493.01	24788.61
493.19	25111.61
493.37	24987.56
493.54	24915.00
493.72	25228.63
493.90	25741.21
494.08	25638.23
494.25	26143.78
494.43	25893.35
494.61	26001.01
494.79	26443.37
494.96	26286.56
495.14	26263.15
495.32	26658.70
495.49	26766.37
495.67	27147.87
495.85	27145.53
496.02	27218.09
496.20	27412.35
496.38	27564.49
496.55	27779.82
496.73	28168.35
496.91	27751.73
497.09	28034.94
497.26	28056.00
497.44	28051.32
497.62	28376.66
497.79	28680.92
497.97	28566.24
498.14	29057.75
498.32	28847.10
498.50	29340.96
498.67	29284.78
498.85	29200.52
499.03	29427.56
499.20	29886.30
499.38	29675.65
499.56	29900.34
499.73	30085.25
499.91	29998.65
500.08	29905.02
500.26	30050.14
500.44	30284.19
500.61	30377.81
500.79	30841.24
500.97	30981.67
501.14	31323.39
501.32	30969.97
501.49	30857.62
501.67	31435.74
501.84	31384.24
502.02	31707.24
502.20	31494.25
502.37	31810.22
502.55	31590.21
502.72	31704.90
502.90	32133.21
503.07	31477.86
503.25	32339.18
503.43	32467.91
503.60	32451.53
503.78	32755.80
503.95	32149.60
504.13	32629.41
504.30	32891.55
504.48	32589.62
504.65	33036.66
504.83	33427.53
505.01	33530.51
505.18	33315.19
505.36	33624.14
505.53	33619.46
505.71	33462.64
505.88	33949.47
506.06	33523.49
506.23	33797.34
506.41	34148.42
506.58	33956.49
506.76	34026.71
506.93	34438.64
507.11	34405.88
507.28	34642.27
507.46	34759.30
507.63	34476.09
507.81	34888.03
507.98	34342.68
508.16	34539.29
508.33	35098.67
508.50	34806.11
508.68	35044.84
508.85	35468.48
509.03	35452.09
509.20	35552.74
509.38	35873.39
509.55	35756.36
509.73	36308.73
509.90	36776.84
510.08	36243.20
510.25	36133.19
510.42	35866.37
510.60	36797.90
510.77	36687.90
510.95	36844.71
511.12	36605.98
511.30	36753.43
511.47	37172.39
511.64	36851.73
511.82	37574.96
511.99	36503.00
512.17	37455.59
512.34	37579.64
512.51	37963.49
512.69	37956.47
512.86	37720.07
513.04	38246.69
513.21	37961.15
513.38	38012.64
513.56	38012.64
513.73	38190.52
513.90	38543.94
514.08	38223.29
514.25	38412.87
514.43	38869.28
514.60	38230.31
514.77	38405.85
514.95	38897.36
515.12	38363.72
515.29	38834.17
515.47	39182.91
515.64	39438.03
515.81	39447.39
515.99	39281.21
516.16	39187.59
516.33	39583.14
516.51	39810.17
516.68	39566.76
516.85	39683.78
517.03	39990.39
517.20	39814.85
517.37	39440.37
517.54	39899.11
517.72	40271.26
517.89	40187.00
518.06	39913.16
518.24	40100.40
518.41	40505.31
518.58	40198.70
518.75	40348.50
518.93	40942.99
519.10	40198.70
519.27	40620.00
519.45	40818.94
519.62	41256.62
519.79	41195.77
519.96	41184.07
520.14	41329.18
520.31	40840.01
520.48	41357.27
520.65	41392.37
520.83	41816.01
521.00	41687.28
521.17	41366.63
521.34	42026.66
521.52	41717.71
521.69	41883.89
521.86	42295.82
522.03	42092.19
522.20	42541.58
522.38	42667.97
522.55	42260.71
522.72	42703.07
522.89	42646.90
523.07	42780.31
523.24	42649.24
523.41	42824.78
523.58	42682.01
523.75	43049.47
523.92	43400.55
524.10	43243.74
524.27	43468.43
524.44	43180.54
524.61	43203.95
524.78	43524.60
524.96	43463.75
525.13	43901.43
525.30	43866.32
525.47	43871.00
525.64	44133.14
525.81	43990.37
525.98	44210.38
526.16	43688.44
526.33	44582.52
526.50	44266.55
526.67	44439.75
526.84	44648.06
527.01	44711.25
527.18	44643.38
527.36	44498.26
527.53	44299.32
527.70	44711.25
527.87	44737.00
528.04	44858.71
528.21	45137.23
528.38	45102.12
528.55	45057.65
528.72	45001.48
528.89	44603.59
529.07	45280.00
529.24	45038.93
529.41	45471.93
529.58	45815.99
529.75	45804.28
529.92	45514.06
530.09	45401.71
530.26	45713.00
530.43	45181.70
530.60	45347.88
530.77	45745.77
530.94	46087.49
531.11	45848.75
531.28	46361.33
531.46	46181.11
531.63	46492.40
531.80	46277.07
531.97	46408.14
532.14	46330.90
532.31	46466.66
532.48	46256.01
532.65	46621.13
532.82	46689.01
532.99	47021.36
533.16	46452.61
533.33	46831.78
533.50	47114.98
533.67	47164.14
533.84	46532.19
534.01	46951.15
534.18	47372.44
534.35	47531.60
534.52	47318.61
534.69	47859.27
534.86	47248.39
535.03	47098.60
535.20	47079.88
535.37	47536.28
535.54	47615.86
535.71	47454.36
535.88	48086.31
536.05	47524.58
536.22	48100.35
536.38	47667.35
536.55	47892.04
536.72	48184.61
536.89	47798.42
537.06	48215.04
537.23	48285.25
537.40	48044.18
537.57	47941.19
537.74	48238.44
537.91	48519.31
538.08	48130.78
538.25	48453.77
538.42	48421.00
538.59	48294.61
538.75	48844.64
538.92	48959.33
539.09	48643.35
539.26	48591.86
539.43	48495.90
539.60	48533.35
539.77	48648.03
539.94	49380.62
540.11	48980.39
540.28	49043.59
540.44	49031.88
540.61	48809.53
540.78	49074.01
540.95	49106.78
541.12	49193.38
541.29	49172.31
541.46	49382.96
541.62	49738.72
541.79	49958.73
541.96	49439.14
542.13	49322.11
542.30	49764.47
542.47	49834.69
542.63	49638.08
542.80	49579.57
542.97	50181.09
543.14	50333.22
543.31	50293.43
543.48	49977.46
543.64	50567.27
543.81	50408.12
543.98	50085.12
544.15	50340.24
544.32	50384.71
544.48	51049.42
544.65	50707.71
544.82	50621.11
544.99	50344.92
545.16	50354.29
545.32	50894.95
545.49	51119.64
545.66	51061.13
545.83	50958.14
546.00	51641.58
546.16	51276.46
546.33	51138.36
546.50	50761.54
546.67	51171.13
546.83	50532.17
547.00	50461.95
547.17	50527.48
547.34	51021.34
547.50	50775.58
547.67	51622.86
547.84	51239.01
548.00	51529.23
548.17	51873.29
548.34	51587.75
548.51	51517.53
548.67	51447.32
548.84	51281.14
549.01	51129.00
549.18	51374.76
549.34	51536.26
549.51	51756.27
549.68	51756.27
549.84	51700.09
550.01	51292.84
550.18	51456.68
550.34	51505.83
550.51	51554.98
550.68	51693.07
550.84	51494.13
551.01	52051.17
551.18	51723.50
551.34	51803.08
551.51	51789.03
551.68	51793.71
551.84	51929.47
552.01	51793.71
552.18	52027.77
552.34	51997.34
552.51	52355.44
552.68	51831.16
552.84	52088.62
553.01	52364.81
553.18	51950.53
553.34	52062.88
553.51	51913.08
553.67	52451.41
553.84	52575.45
554.01	52633.97
554.17	52397.57
554.34	52238.42
554.51	52561.41
554.67	52690.14
554.84	52926.53
555.00	52240.76
555.17	52144.80
555.33	52741.63
555.50	52640.99
555.67	52561.41
555.83	52636.31
556.00	52748.65
556.16	52893.77
556.33	52399.91
556.50	52376.51
556.66	52626.95
556.83	52477.15
556.99	52886.74
557.16	52659.71
557.32	53153.57
557.49	52982.71
557.65	52406.94
557.82	52971.00
557.98	53055.26
558.15	52804.83
558.32	52781.42
558.48	53008.45
558.65	53104.41
558.81	52851.64
558.98	53174.63
559.14	53235.48
559.31	52985.05
559.47	53347.83
559.64	53202.72
559.80	53090.37
559.97	52935.90
560.13	52823.55
560.30	53240.17
560.46	53066.97
560.63	53331.45
560.79	53647.42
560.96	53626.35
561.12	53485.92
561.29	53343.15
561.45	53558.48
561.61	53427.41
561.78	53195.70
561.94	53504.65
562.11	53757.42
562.27	53729.34
562.44	53488.26
562.60	53516.35
562.77	53619.33
562.93	53588.91
563.10	53696.57
563.26	53476.56
563.42	53925.94
563.59	53525.71
563.75	53638.06
563.92	53558.48
564.08	53719.98
564.24	53691.89
564.41	53333.79
564.57	53642.74
564.74	53694.23
564.90	53862.75
565.07	53932.96
565.23	53867.43
565.39	54092.12
565.56	53942.33
565.72	54082.76
565.88	54185.74
566.05	53951.69
566.21	53687.21
566.38	53560.82
566.54	53909.56
566.70	54314.47
566.87	53958.71
567.03	54061.69
567.19	54270.00
567.36	53970.41
567.52	53670.82
567.68	53944.67
567.85	53762.11
568.01	54078.08
568.17	53799.55
568.34	54042.97
568.50	54087.44
568.66	54157.66
568.83	54232.55
568.99	53635.72
569.15	53923.60
569.32	54028.93
569.48	53787.85
569.64	54017.22
569.81	54071.06
569.97	53907.22
570.13	53925.94
570.30	53851.05
570.46	54274.68
570.62	54129.57
570.78	53799.55
570.95	53876.79
571.11	54440.86
571.27	54241.92
571.43	53951.69
571.60	54094.46
571.76	54019.56
571.92	54305.11
572.09	54211.49
572.25	54485.33
572.41	54478.31
572.57	54506.40
572.74	54410.43
572.90	54347.24
573.06	54061.69
573.22	54258.30
573.38	54124.89
573.55	54115.53
573.71	54564.91
573.87	54614.06
574.03	54356.60
574.20	54567.25
574.36	54529.80
574.52	54447.88
574.68	54330.86
574.84	54389.37
575.01	54480.65
575.17	54749.81
575.33	54384.69
575.49	54387.03
575.65	54515.76
575.82	54798.96
575.98	54209.15
576.14	54733.43
576.30	54405.75
576.46	54319.15
576.62	54377.67
576.79	54410.43
576.95	54307.45
577.11	54635.13
577.27	54738.11
577.43	54274.68
577.59	54562.57
577.75	54237.23
577.92	54583.63
578.08	54492.35
578.24	54527.46
578.40	54663.21
578.56	54443.20
578.72	54852.80
578.88	54763.85
579.04	54944.08
579.21	54658.53
579.37	54796.62
579.53	54653.85
579.69	54644.49
579.85	54681.94
580.01	54972.16
580.17	54628.10
580.33	54988.55
580.49	55021.31
580.65	54972.16
580.82	54841.09
580.98	54724.07
581.14	54700.66
581.30	54663.21
581.46	54632.78
581.62	54611.72
581.78	54490.01
581.94	54731.09
582.10	54618.74
582.26	54719.38
582.42	54742.79
582.58	54688.96
582.74	54915.99
582.90	54876.20
583.06	54962.80
583.22	54515.76
583.38	54813.01
583.54	54642.15
583.70	54787.26
583.86	54843.43
584.02	54745.13
584.18	54986.21
584.34	55098.55
584.50	54932.37
584.66	54894.92
584.82	54562.57
584.98	55086.85
585.14	54850.45
585.30	54787.26
585.46	54796.62
585.62	54817.69
585.78	55084.51
585.94	54684.28
586.10	54869.18
586.26	54768.54
586.42	55117.28
586.58	54939.39
586.74	54782.58
586.90	54752.15
587.06	54798.96
587.22	55037.70
587.38	54677.25
587.54	54962.80
587.70	55325.58
587.86	55082.17
588.02	55021.31
588.18	55037.70
588.34	55021.31
588.49	54869.18
