SpectraSuite Data File
++++++++++++++++++++++++++++++++++++
Date: Thu Oct 24 13:21:08 EDT 2013
User: stostad
Dark Spectrum Present: No
Reference Spectrum Present: No
Number of Sampled Component Spectra: 1
Spectrometers: USB2+H05261
Integration Time (usec): 100000 (USB2+H05261)
Spectra Averaged: 1 (USB2+H05261)
Boxcar Smoothing: 0 (USB2+H05261)
Correct for Electrical Dark: No (USB2+H05261)
Strobe/Lamp Enabled: No (USB2+H05261)
Correct for Detector Non-linearity: No (USB2+H05261)
Correct for Stray Light: No (USB2+H05261)
Number of Pixels in Processed Spectrum: 2048
>>>>>Begin Processed Spectral Data<<<<<
365.73	564.07
365.92	564.07
366.12	564.07
366.32	390.87
366.52	470.45
366.72	486.83
366.91	479.81
367.11	428.32
367.31	475.13
367.51	423.64
367.70	482.15
367.90	374.49
368.10	486.83
368.30	449.38
368.49	423.64
368.69	430.66
368.89	526.62
369.09	456.40
369.28	449.38
369.48	468.11
369.68	543.00
369.87	519.60
370.07	507.90
370.27	578.11
370.47	617.90
370.66	683.44
370.86	674.07
371.06	720.88
371.25	739.61
371.45	734.93
371.65	744.29
371.84	720.88
372.04	744.29
372.24	739.61
372.44	746.63
372.63	751.31
372.83	753.65
373.03	767.70
373.22	786.42
373.42	807.48
373.62	784.08
373.81	779.40
374.01	774.72
374.21	833.23
374.40	854.30
374.60	784.08
374.79	772.38
374.99	873.02
375.19	786.42
375.38	821.53
375.58	807.48
375.78	746.63
375.97	833.23
376.17	795.78
376.37	823.87
376.56	800.46
376.76	854.30
376.95	847.27
377.15	774.72
377.35	828.55
377.54	767.70
377.74	779.40
377.93	800.46
378.13	774.72
378.33	844.93
378.52	800.46
378.72	837.91
378.91	868.34
379.11	821.53
379.31	873.02
379.50	772.38
379.70	858.98
379.89	889.40
380.09	830.89
380.28	828.55
380.48	901.11
380.68	861.32
380.87	784.08
381.07	809.83
381.26	866.00
381.46	908.13
381.65	798.12
381.85	842.59
382.04	816.85
382.24	868.34
382.43	765.36
382.63	793.44
382.83	870.68
383.02	891.74
383.22	917.49
383.41	840.25
383.61	856.64
383.80	896.43
384.00	882.38
384.19	854.30
384.39	933.87
384.58	791.10
384.78	854.30
384.97	847.27
385.17	933.87
385.36	924.51
385.56	901.11
385.75	858.98
385.95	880.04
386.14	929.19
386.34	931.53
386.53	966.64
386.72	933.87
386.92	924.51
387.11	947.92
387.31	957.28
387.50	880.04
387.70	945.58
387.89	912.81
388.09	889.40
388.28	903.45
388.48	903.45
388.67	884.72
388.86	957.28
389.06	978.34
389.25	1008.77
389.45	980.68
389.64	856.64
389.84	973.66
390.03	964.30
390.22	1039.20
390.42	912.81
390.61	971.32
390.81	933.87
391.00	952.60
391.19	976.00
391.39	978.34
391.58	1004.09
391.78	1039.20
391.97	990.05
392.16	933.87
392.36	1039.20
392.55	957.28
392.75	1013.45
392.94	990.05
393.13	1001.75
393.33	1055.58
393.52	961.96
393.71	1123.46
393.91	1060.26
394.10	1055.58
394.29	1020.47
394.49	1008.77
394.68	1041.54
394.88	1083.67
395.07	1107.07
395.26	1046.22
395.46	1048.56
395.65	1060.26
395.84	1022.81
396.04	1097.71
396.23	1074.31
396.42	1095.37
396.62	1090.69
396.81	1071.97
397.00	1071.97
397.19	1156.22
397.39	1130.48
397.58	1170.27
397.77	1057.92
397.97	1123.46
398.16	1128.14
398.35	1114.10
398.55	1088.35
398.74	1167.93
398.93	1217.08
399.12	1128.14
399.32	1074.31
399.51	1170.27
399.70	1139.84
399.90	1186.65
400.09	1228.78
400.28	1259.21
400.47	1118.78
400.67	1146.86
400.86	1231.12
401.05	1121.12
401.24	1313.04
401.44	1247.51
401.63	1249.85
401.82	1282.61
402.01	1263.89
402.21	1256.87
402.40	1193.67
402.59	1270.91
402.78	1277.93
402.97	1238.14
403.17	1284.95
403.36	1313.04
403.55	1233.46
403.74	1331.76
403.93	1322.40
404.13	1362.19
404.32	1399.64
404.51	1371.55
404.70	1329.42
404.89	1387.94
405.09	1352.83
405.28	1355.17
405.47	1327.08
405.66	1359.85
405.85	1348.15
406.05	1409.00
406.24	1399.64
406.43	1348.15
406.62	1409.00
406.81	1453.47
407.00	1446.45
407.20	1383.26
407.39	1385.60
407.58	1495.60
407.77	1526.03
407.96	1511.99
408.15	1434.75
408.34	1554.12
408.54	1420.71
408.73	1425.39
408.92	1497.94
409.11	1504.96
409.30	1591.56
409.49	1554.12
409.68	1469.86
409.87	1579.86
410.07	1591.56
410.26	1575.18
410.45	1516.67
410.64	1582.20
410.83	1540.07
411.02	1593.90
411.21	1554.12
411.40	1621.99
411.59	1619.65
411.78	1544.75
411.98	1706.25
412.17	1666.46
412.36	1694.55
412.55	1612.63
412.74	1722.63
412.93	1753.06
413.12	1685.19
413.31	1771.79
413.50	1682.85
413.69	1795.19
413.88	1778.81
414.07	1797.53
414.26	1760.08
414.45	1834.98
414.64	1834.98
414.83	1849.02
415.02	1790.51
415.22	1809.23
415.41	1933.28
415.60	1858.39
415.79	1872.43
415.98	1837.32
416.17	1879.45
416.36	1959.03
416.55	1933.28
416.74	1888.81
416.93	1867.75
417.12	1959.03
417.31	1994.14
417.50	1884.13
417.69	1940.30
417.88	2047.97
418.07	1884.13
418.26	2024.56
418.45	2033.93
418.64	2076.06
418.83	2033.93
419.02	2066.69
419.21	2157.97
419.39	2106.48
419.58	1973.07
419.77	2136.91
419.96	2146.27
420.15	2125.21
420.34	2099.46
420.53	2155.63
420.72	2146.27
420.91	2160.31
421.10	2010.52
421.29	2223.51
421.48	2183.72
421.67	2106.48
421.86	2200.10
422.05	2225.85
422.24	2218.83
422.43	2218.83
422.61	2153.29
422.80	2207.13
422.99	2265.64
423.18	2319.47
423.37	2333.51
423.56	2193.08
423.75	2256.28
423.94	2267.98
424.13	2101.80
424.32	2244.57
424.50	2246.91
424.69	2146.27
424.88	2232.87
425.07	2321.81
425.26	2380.32
425.45	2228.19
425.64	2195.42
425.83	2251.60
426.01	2359.26
426.20	2176.70
426.39	2260.96
426.58	2263.30
426.77	2237.55
426.96	2293.72
427.15	2289.04
427.33	2284.36
427.52	2347.56
427.71	2399.05
427.90	2354.58
428.09	2345.22
428.28	2417.77
428.46	2361.60
428.65	2415.43
428.84	2401.39
429.03	2469.27
429.22	2382.67
429.40	2427.14
429.59	2471.61
429.78	2361.60
429.97	2450.54
430.16	2424.80
430.34	2583.95
430.53	2476.29
430.72	2429.48
430.91	2534.80
431.10	2487.99
431.28	2448.20
431.47	2572.25
431.66	2504.37
431.85	2457.56
432.03	2560.55
432.22	2539.48
432.41	2572.25
432.60	2605.02
432.79	2553.52
432.97	2619.06
433.16	2635.44
433.35	2670.55
433.54	2605.02
433.72	2597.99
433.91	2679.91
434.10	2691.62
434.28	2567.57
434.47	2576.93
434.66	2696.30
434.85	2698.64
435.03	2785.24
435.22	2869.50
435.41	3241.64
435.59	3138.66
435.78	2993.55
435.97	2937.37
436.16	2829.71
436.34	2682.25
436.53	2682.25
436.72	2745.45
436.90	2792.26
437.09	2752.47
437.28	2754.81
437.46	2876.52
437.65	2773.53
437.84	2956.10
438.02	2787.58
438.21	2773.53
438.40	2747.79
438.58	2799.28
438.77	2986.52
438.96	2885.88
439.14	2995.89
439.33	3075.46
439.52	2956.10
439.70	3061.42
439.89	3084.83
440.08	3047.38
440.26	2965.46
440.45	3005.25
440.63	3112.91
440.82	3138.66
441.01	3080.14
441.19	3185.47
441.38	3286.11
441.57	3206.53
441.75	3255.69
441.94	3297.81
442.12	3183.13
442.31	3178.45
442.50	3314.20
442.68	3199.51
442.87	3323.56
443.05	3283.77
443.24	3358.67
443.43	3353.99
443.61	3375.05
443.80	3449.95
443.98	3363.35
444.17	3304.84
444.35	3499.10
444.54	3330.58
444.73	3283.77
444.91	3499.10
445.10	3323.56
445.28	3396.12
445.47	3286.11
445.65	3424.20
445.84	3377.39
446.02	3433.57
446.21	3468.67
446.39	3328.24
446.58	3440.59
446.77	3435.91
446.95	3412.50
447.14	3353.99
447.32	3449.95
447.51	3524.85
447.69	3527.19
447.88	3499.10
448.06	3386.76
448.25	3419.52
448.43	3403.14
448.62	3393.78
448.80	3494.42
448.99	3456.97
449.17	3496.76
449.36	3424.20
449.54	3515.48
449.73	3485.06
449.91	3604.42
450.10	3555.27
450.28	3662.94
450.46	3574.00
450.65	3660.60
450.83	3529.53
451.02	3522.51
451.20	3805.71
451.39	3639.53
451.57	3597.40
451.76	3681.66
451.94	3616.13
452.13	3662.94
452.31	3658.26
452.49	3695.71
452.68	3705.07
452.86	3669.96
453.05	3782.31
453.23	3805.71
453.42	3730.81
453.60	3609.11
453.78	3669.96
453.97	3772.94
454.15	3735.50
454.34	3688.68
454.52	3784.65
454.70	3735.50
454.89	3847.84
455.07	3796.35
455.26	3805.71
455.44	3908.69
455.62	3782.31
455.81	3932.10
455.99	3894.65
456.17	3868.91
456.36	3950.82
456.54	3999.98
456.73	3906.35
456.91	4051.47
457.09	3904.01
457.28	3936.78
457.46	3967.21
457.64	4084.23
457.83	4128.70
458.01	3964.87
458.19	4100.62
458.38	4086.58
458.56	4147.43
458.74	4077.21
458.93	4107.64
459.11	4131.05
459.29	4025.72
459.48	4329.99
459.66	4252.75
459.84	4320.63
460.03	4470.42
460.21	4203.60
460.39	4133.39
460.57	4292.54
460.76	4241.05
460.94	4236.37
461.12	4402.55
461.31	4365.10
461.49	4304.25
461.67	4362.76
461.85	4344.03
462.04	4224.67
462.22	4582.77
462.40	4503.19
462.59	4283.18
462.77	4432.97
462.95	4397.87
463.13	4601.49
463.32	4353.40
463.50	4559.36
463.68	4456.38
463.86	4486.81
464.05	4409.57
464.23	4440.00
464.41	4500.85
464.59	4568.73
464.78	4470.42
464.96	4465.74
465.14	4477.44
465.32	4606.17
465.50	4587.45
465.69	4678.73
465.87	4587.45
466.05	4594.47
466.23	4571.07
466.41	4739.58
466.60	4699.80
466.78	4594.47
466.96	4688.09
467.14	4592.13
467.32	4716.18
467.51	4641.28
467.69	4702.14
467.87	4903.42
468.05	4734.90
468.23	4702.14
468.41	4711.50
468.60	4741.93
468.78	4819.16
468.96	4800.44
469.14	4702.14
469.32	4847.25
469.50	4912.78
469.69	4807.46
469.87	4826.18
470.05	4990.02
470.23	4905.76
470.41	4994.70
470.59	4961.94
470.77	5046.20
470.95	4929.17
471.14	5029.81
471.32	5011.09
471.50	5076.62
471.68	4938.53
471.86	5055.56
472.04	5123.43
472.22	5198.33
472.40	5050.88
472.58	5153.86
472.77	5184.29
472.95	5179.61
473.13	5301.31
473.31	5057.90
473.49	5116.41
473.67	5291.95
473.85	5259.18
474.03	5486.22
474.21	5479.19
474.39	5434.72
474.57	5345.78
474.75	5383.23
474.93	5535.37
475.12	5284.93
475.30	5621.97
475.48	5444.09
475.66	5551.75
475.84	5535.37
476.02	5659.42
476.20	5626.65
476.38	5731.97
476.56	5921.56
476.74	5905.17
476.92	5834.96
477.10	5811.55
477.28	5851.34
477.46	5954.32
477.64	5916.87
477.82	5982.41
478.00	6045.60
478.18	5935.60
478.36	6223.48
478.54	6265.61
478.72	6125.18
478.90	6354.55
479.08	6141.57
479.26	6335.83
479.44	6464.56
479.62	6352.21
479.80	6399.02
479.98	6487.96
480.16	6614.35
480.34	6541.80
480.52	6597.97
480.70	6527.75
480.88	6768.83
481.06	6597.97
481.24	6752.45
481.41	6750.10
481.59	6803.94
481.77	6813.30
481.95	6916.28
482.13	7073.10
482.31	6918.62
482.49	7110.55
482.67	6939.69
482.85	7019.27
483.03	7449.93
483.21	7342.26
483.39	7541.21
483.57	7281.41
483.74	7541.21
483.92	7693.34
484.10	7510.78
484.28	7625.47
484.46	7817.39
484.64	7822.07
484.82	7688.66
485.00	7810.37
485.18	8152.09
485.35	8081.87
485.53	8039.74
485.71	8039.74
485.89	8290.18
486.07	8128.68
486.25	8152.09
486.43	8327.63
486.61	8273.79
486.78	8578.06
486.96	8486.78
487.14	8482.10
487.32	8629.56
487.50	8737.22
487.68	8755.94
487.85	8683.39
488.03	8919.78
488.21	8788.71
488.39	8849.57
488.57	9032.13
488.75	8980.64
488.92	9233.41
489.10	9275.54
489.28	9362.14
489.46	9516.62
489.64	9465.13
489.81	9493.21
489.99	9654.71
490.17	9603.22
490.35	9645.35
490.53	9643.01
490.70	9722.59
490.88	9682.80
491.06	9820.89
491.24	9856.00
491.41	9792.80
491.59	10083.03
491.77	10033.88
491.95	10090.05
492.13	10235.16
492.30	10267.93
492.48	10094.73
492.66	10417.72
492.84	10178.99
493.01	10448.15
493.19	10506.66
493.37	10523.05
493.54	10609.65
493.72	10703.27
493.90	10757.10
494.08	10782.85
494.25	10747.74
494.43	10796.89
494.61	10857.75
494.79	11136.27
494.96	11066.05
495.14	11169.04
495.32	11105.84
495.49	11339.90
495.67	11412.45
495.85	11405.43
496.02	11562.25
496.20	11435.86
496.38	11662.89
496.55	11508.41
496.73	11742.47
496.91	11456.92
497.09	11985.88
497.26	11726.08
497.44	11831.41
497.62	11903.96
497.79	12077.16
497.97	11946.09
498.14	12205.89
498.32	12215.26
498.50	12191.85
498.67	12229.30
498.85	12248.02
499.03	12336.96
499.20	12152.06
499.38	12463.35
499.56	12226.96
499.73	12503.14
499.91	12503.14
500.08	12472.71
500.26	12224.62
500.44	12669.32
500.61	12863.58
500.79	12594.42
500.97	12704.43
501.14	12816.77
501.32	12947.84
501.49	12704.43
501.67	12933.80
501.84	13352.76
502.02	12929.12
502.20	13149.13
502.37	13202.96
502.55	13116.36
502.72	13174.88
502.90	13015.72
503.07	13209.98
503.25	13542.34
503.43	13144.45
503.60	13345.73
503.78	13455.74
503.95	13811.50
504.13	13518.93
504.30	13420.63
504.48	13556.38
504.65	13584.47
504.83	13888.74
505.01	13593.83
505.18	13748.31
505.36	14143.86
505.53	13769.37
505.71	13879.38
505.88	14139.18
506.06	14010.45
506.23	13804.48
506.41	14031.51
506.58	14101.73
506.76	13996.40
506.93	14134.50
507.11	13991.72
507.28	14125.13
507.46	14232.80
507.63	14427.06
507.81	14508.98
507.98	14202.37
508.16	14448.13
508.33	14588.56
508.50	14494.94
508.68	14441.11
508.85	14572.18
509.03	14469.19
509.20	14728.99
509.38	15049.64
509.55	14972.41
509.73	14883.47
509.90	14902.19
510.08	14839.00
510.25	14902.19
510.42	14794.53
510.60	14707.93
510.77	15173.69
510.95	15222.84
511.12	15379.66
511.30	15286.04
511.47	15300.08
511.64	15356.25
511.82	15365.62
511.99	15417.11
512.17	15218.16
512.34	15473.28
512.51	15737.76
512.69	15477.96
512.86	15583.29
513.04	15749.46
513.21	15541.16
513.38	15463.92
513.56	15580.95
513.73	15672.23
513.90	15747.12
514.08	15693.29
514.25	15941.39
514.43	15964.79
514.60	15920.32
514.77	15782.23
514.95	15920.32
515.12	15819.68
515.29	16149.70
515.47	15906.28
515.64	16248.00
515.81	16222.25
515.99	15995.22
516.16	16030.33
516.33	16381.41
516.51	16601.42
516.68	16407.16
516.85	16510.14
517.03	16519.50
517.20	16386.09
517.37	16425.88
517.54	16678.66
517.72	16334.60
517.89	16599.08
518.06	16589.72
518.24	16463.33
518.41	16627.17
518.58	16830.79
518.75	16505.46
518.93	16573.33
519.10	16599.08
519.27	16823.77
519.45	16828.45
519.62	17111.66
519.79	16786.32
519.96	16833.13
520.14	16861.22
520.31	16688.02
520.48	17195.92
520.65	17170.17
520.83	17319.96
521.00	17219.32
521.17	17268.47
521.34	17036.76
521.52	17341.03
521.69	17525.93
521.86	17359.75
522.03	17556.36
522.20	17266.13
522.38	17549.34
522.55	17352.73
522.72	17322.30
522.89	17600.83
523.07	17933.18
523.24	17621.89
523.41	17694.45
523.58	17507.21
523.75	17811.48
523.92	17556.36
524.10	18132.13
524.27	17820.84
524.44	17965.95
524.61	17996.38
524.78	17923.82
524.96	17914.46
525.13	18005.74
525.30	18160.22
525.47	18181.28
525.64	18200.01
525.81	18174.26
525.98	18200.01
526.16	17886.37
526.33	18195.32
526.50	18022.12
526.67	18181.28
526.84	18298.31
527.01	18501.93
527.18	18169.58
527.36	18281.92
527.53	18427.04
527.70	18581.51
527.87	18359.16
528.04	18511.30
528.21	18562.79
528.38	18232.77
528.55	18506.62
528.72	18319.37
528.89	18614.28
529.07	18569.81
529.24	18427.04
529.41	18539.38
529.58	18918.55
529.75	18815.57
529.92	18883.44
530.09	18518.32
530.26	18792.16
530.43	18948.98
530.60	18593.22
530.77	18965.36
530.94	18834.29
531.11	19014.51
531.28	18934.93
531.46	18930.25
531.63	19164.31
531.80	18932.59
531.97	18925.57
532.14	19524.75
532.31	19058.98
532.48	19335.17
532.65	19438.15
532.82	19229.84
532.99	19068.34
533.16	19211.12
533.33	18932.59
533.50	19293.04
533.67	19225.16
533.84	19248.57
534.01	19089.41
534.18	19344.53
534.35	19557.52
534.52	19522.41
534.69	19550.49
534.86	19482.62
535.03	19208.78
535.20	19267.29
535.37	19688.59
535.54	19501.34
535.71	19906.26
535.88	19548.15
536.05	19786.89
536.22	19768.16
536.38	20020.94
536.55	19887.53
536.72	19831.36
536.89	20093.50
537.06	19850.08
537.23	20332.23
537.40	19861.79
537.57	19985.83
537.74	20070.09
537.91	20191.80
538.08	19988.18
538.25	19868.81
538.42	19826.68
538.59	20166.06
538.75	20126.27
538.92	20236.27
539.09	19915.62
539.26	20194.14
539.43	20198.82
539.60	19995.20
539.77	20390.75
539.94	20299.47
540.11	20437.56
540.28	20685.65
540.44	20285.42
540.61	20634.16
540.78	20402.45
540.95	20779.28
541.12	20823.75
541.29	20886.94
541.46	20800.34
541.62	21078.86
541.79	21142.06
541.96	20903.32
542.13	21142.06
542.30	20933.75
542.47	21041.42
542.63	21083.55
542.80	21064.82
542.97	21209.93
543.14	21633.57
543.31	21549.31
543.48	21397.18
543.64	21589.10
543.81	21408.88
543.98	21352.71
544.15	21500.16
544.32	21247.38
544.48	21488.46
544.65	21259.09
544.82	21305.90
544.99	21172.49
545.16	21542.29
545.32	21387.82
545.49	21783.37
545.66	22621.28
545.83	22623.62
546.00	22480.85
546.16	22155.51
546.33	21977.63
546.50	21778.68
546.67	21408.88
546.83	21495.48
547.00	21256.75
547.17	21319.94
547.34	21326.96
547.50	21696.77
547.67	21710.81
547.84	21635.91
548.00	21699.11
548.17	21561.02
548.34	21799.75
548.51	21668.68
548.67	21624.21
548.84	21874.65
549.01	21626.55
549.18	21542.29
549.34	21923.80
549.51	21916.78
549.68	21774.00
549.84	21551.65
550.01	21947.20
550.18	21614.85
550.34	21685.06
550.51	21802.09
550.68	21783.37
550.84	21488.46
551.01	21434.63
551.18	21891.03
551.34	21783.37
551.51	21692.08
551.68	21738.90
551.84	21654.64
552.01	21886.35
552.18	21914.44
552.34	21865.28
552.51	21991.67
552.68	21921.46
552.84	21778.68
553.01	22008.06
553.18	21940.18
553.34	21825.50
553.51	21970.61
553.67	22354.46
553.84	21841.88
554.01	22216.36
554.17	21972.95
554.34	22015.08
554.51	22085.30
554.67	22319.35
554.84	22171.89
555.00	21816.13
555.17	21900.39
555.33	22089.98
555.50	22284.24
555.67	22104.02
555.83	22108.70
556.00	22045.51
556.16	22342.75
556.33	22349.78
556.50	21933.16
556.66	22195.30
556.83	21806.77
556.99	22389.56
557.16	22286.58
557.32	22698.52
557.49	22508.93
557.65	22302.96
557.82	22396.59
557.98	22317.01
558.15	22249.13
558.32	22473.82
558.48	22136.79
558.65	22661.07
558.81	22504.25
558.98	22335.73
559.14	22471.48
559.31	22487.87
559.47	22422.33
559.64	22457.44
559.80	22565.10
559.97	22284.24
560.13	22445.74
560.30	22342.75
560.46	22239.77
560.63	22649.36
560.79	22801.50
560.96	22656.39
561.12	22555.74
561.29	22375.52
561.45	22462.12
561.61	22541.70
561.78	22845.97
561.94	22878.74
562.11	22829.59
562.27	22862.35
562.44	22827.24
562.60	22876.40
562.77	22672.77
562.93	22530.00
563.10	22735.96
563.26	22490.21
563.42	22909.16
563.59	22750.01
563.75	22728.94
563.92	22817.88
564.08	22616.60
564.24	22768.73
564.41	22703.20
564.57	22665.75
564.74	22862.35
564.90	22836.61
565.07	22735.96
565.23	22860.01
565.39	23005.13
565.56	22764.05
565.72	22698.52
565.88	22724.26
566.05	23065.98
566.21	22384.88
566.38	22366.16
566.54	22831.93
566.70	23047.26
566.87	23227.48
567.03	23005.13
567.19	23056.62
567.36	23065.98
567.52	22892.78
567.68	22843.63
567.85	22548.72
568.01	22869.37
568.17	23002.78
568.34	22761.71
568.50	23056.62
568.66	22885.76
568.83	23096.41
568.99	22834.27
569.15	22803.84
569.32	22459.78
569.48	23133.86
569.64	22871.72
569.81	22576.81
569.97	22794.48
570.13	22845.97
570.30	23082.36
570.46	22925.55
570.62	22787.46
570.78	22820.22
570.95	22773.41
571.11	23236.84
571.27	22822.56
571.43	22621.28
571.60	23178.33
571.76	22792.14
571.92	23208.75
572.09	22981.72
572.25	23236.84
572.41	23335.14
572.57	23070.66
572.74	23190.03
572.90	23026.19
573.06	23110.45
573.22	22871.72
573.38	23037.89
573.55	22464.46
573.71	23138.54
573.87	23026.19
574.03	22841.29
574.20	22986.40
574.36	22721.92
574.52	23023.85
574.68	23002.78
574.84	23302.37
575.01	23489.62
575.17	22981.72
575.33	23403.02
575.49	23222.80
575.65	22923.21
575.82	23054.28
575.98	23129.17
576.14	22944.27
576.30	23288.33
576.46	23236.84
576.62	23204.07
576.79	23463.87
576.95	23140.88
577.11	23208.75
577.27	23288.33
577.43	23370.25
577.59	23435.78
577.75	23098.75
577.92	23138.54
578.08	23257.90
578.24	22986.40
578.40	23021.51
578.56	23501.32
578.72	23604.30
578.88	23847.72
579.04	23489.62
579.21	23302.37
579.37	23616.01
579.53	23166.62
579.69	23204.07
579.85	23168.96
580.01	23618.35
580.17	23164.28
580.33	23183.01
580.49	23119.81
580.65	23250.88
580.82	23161.94
580.98	23311.74
581.14	23323.44
581.30	23459.19
581.46	23447.49
581.62	23063.64
581.78	23145.56
581.94	23410.04
582.10	23199.39
582.26	23295.35
582.42	23105.77
582.58	23208.75
582.74	23421.74
582.90	23358.55
583.06	23658.14
583.22	23278.97
583.38	23445.15
583.54	23164.28
583.70	23152.58
583.86	23260.24
584.02	23419.40
584.18	23545.79
584.34	23300.03
584.50	23384.29
584.66	23044.91
584.82	23461.53
584.98	23388.97
585.14	23110.45
585.30	23262.58
585.46	23653.45
585.62	22991.08
585.78	23396.00
585.94	23578.56
586.10	23503.66
586.26	23608.98
586.42	23433.44
586.58	23384.29
586.74	23227.48
586.90	23381.95
587.06	23388.97
587.22	23655.79
587.38	23611.32
587.54	23473.23
587.70	23805.59
587.86	23466.21
588.02	23676.86
588.18	23611.32
588.34	23372.59
588.49	23515.36
588.65	23386.63
588.81	23623.03
588.97	23789.20
589.13	23278.97
589.29	23405.36
589.45	23578.56
589.61	23452.17
589.77	23594.94
589.93	23592.60
590.08	23480.25
590.24	23510.68
590.40	23302.37
590.56	23821.97
590.72	23459.19
590.88	23515.36
591.04	23215.77
