SpectraSuite Data File
++++++++++++++++++++++++++++++++++++
Date: Thu Oct 24 13:21:37 EDT 2013
User: stostad
Dark Spectrum Present: No
Reference Spectrum Present: No
Number of Sampled Component Spectra: 1
Spectrometers: USB2+H05261
Integration Time (usec): 100000 (USB2+H05261)
Spectra Averaged: 1 (USB2+H05261)
Boxcar Smoothing: 0 (USB2+H05261)
Correct for Electrical Dark: No (USB2+H05261)
Strobe/Lamp Enabled: No (USB2+H05261)
Correct for Detector Non-linearity: No (USB2+H05261)
Correct for Stray Light: No (USB2+H05261)
Number of Pixels in Processed Spectrum: 2048
>>>>>Begin Processed Spectral Data<<<<<
365.73	557.05
365.92	557.05
366.12	557.05
366.32	512.58
366.52	463.43
366.72	475.13
366.91	402.57
367.11	433.00
367.31	491.51
367.51	557.05
367.70	454.06
367.90	425.98
368.10	482.15
368.30	430.66
368.49	451.72
368.69	498.53
368.89	561.73
369.09	498.53
369.28	489.17
369.48	489.17
369.68	547.69
369.87	531.30
370.07	545.34
370.27	528.96
370.47	709.18
370.66	1200.69
370.86	1128.14
371.06	1184.31
371.25	1317.72
371.45	1249.85
371.65	1317.72
371.84	1287.29
372.04	1348.15
372.24	1261.55
372.44	1343.47
372.63	1334.11
372.83	1413.68
373.03	1390.28
373.22	1425.39
373.42	1329.42
373.62	1392.62
373.81	1462.83
374.01	1371.55
374.21	1549.43
374.40	1549.43
374.60	1521.35
374.79	1523.69
374.99	1476.88
375.19	1526.03
375.38	1619.65
375.58	1579.86
375.78	1523.69
375.97	1544.75
376.17	1577.52
376.37	1603.27
376.56	1575.18
376.76	1633.69
376.95	1659.44
377.15	1659.44
377.35	1636.03
377.54	1633.69
377.74	1668.80
377.93	1652.42
378.13	1694.55
378.33	1694.55
378.52	1703.91
378.72	1724.97
378.91	1678.16
379.11	1617.31
379.31	1661.78
379.50	1746.04
379.70	1842.00
379.89	1769.44
380.09	1736.68
380.28	1837.32
380.48	1783.49
380.68	1823.28
380.87	1781.15
381.07	1706.25
381.26	1797.53
381.46	1806.89
381.65	1739.02
381.85	1823.28
382.04	1863.07
382.24	1879.45
382.43	1849.02
382.63	1977.75
382.83	1874.77
383.02	1989.46
383.22	2012.86
383.41	1980.09
383.61	1949.67
383.80	2038.61
384.00	1989.46
384.19	1973.07
384.39	1956.69
384.58	2001.16
384.78	2001.16
384.97	1980.09
385.17	1991.80
385.36	2057.33
385.56	2024.56
385.75	2033.93
385.95	2078.40
386.14	2188.40
386.34	2045.63
386.53	2062.01
386.72	2190.74
386.92	2193.08
387.11	2221.17
387.31	2258.62
387.50	2186.06
387.70	2251.60
387.89	2176.70
388.09	2218.83
388.28	2256.28
388.48	2244.57
388.67	2300.75
388.86	2375.64
389.06	2312.45
389.25	2321.81
389.45	2326.49
389.64	2289.04
389.84	2356.92
390.03	2459.90
390.22	2389.69
390.42	2385.01
390.61	2366.28
390.81	2417.77
391.00	2492.67
391.19	2473.95
391.39	2448.20
391.58	2366.28
391.78	2576.93
391.97	2534.80
392.16	2539.48
392.36	2443.52
392.55	2513.74
392.75	2649.49
392.94	2602.68
393.13	2651.83
393.33	2595.65
393.52	2712.68
393.71	2724.38
393.91	2633.10
394.10	2729.06
394.29	2686.94
394.49	2874.18
394.68	2775.88
394.88	2864.82
395.07	2911.63
395.26	2853.11
395.46	2888.22
395.65	2848.43
395.84	2813.32
396.04	2984.18
396.23	3012.27
396.42	2970.14
396.62	2923.33
396.81	2874.18
397.00	2911.63
397.19	3026.31
397.39	2939.71
397.58	2991.20
397.77	3005.25
397.97	3056.74
398.16	3117.59
398.35	3190.15
398.55	3197.17
398.74	3262.71
398.93	3169.09
399.12	3103.55
399.32	3126.96
399.51	3098.87
399.70	3251.00
399.90	3248.66
400.09	3386.76
400.28	3475.70
400.47	3295.47
400.67	3382.07
400.86	3377.39
401.05	3459.31
401.24	3515.48
401.44	3529.53
401.63	3536.55
401.82	3510.80
402.01	3569.32
402.21	3496.76
402.40	3632.51
402.59	3653.58
402.78	3531.87
402.97	3571.66
403.17	3705.07
403.36	3524.85
403.55	3714.43
403.74	3859.54
403.93	3794.01
404.13	3995.29
404.32	3791.67
404.51	3861.88
404.70	3864.22
404.89	3882.95
405.09	4049.13
405.28	4058.49
405.47	4028.06
405.66	4077.21
405.85	4060.83
406.05	4021.04
406.24	4100.62
406.43	4105.30
406.62	4262.12
406.81	4219.99
407.00	4124.02
407.20	4133.39
407.39	4208.28
407.58	4327.65
407.77	4393.19
407.96	4461.06
408.15	4465.74
408.34	4308.93
408.54	4437.66
408.73	4512.55
408.92	4578.09
409.11	4575.75
409.30	4718.52
409.49	4554.68
409.68	4557.02
409.87	4652.98
410.07	4645.96
410.26	4793.42
410.45	4795.76
410.64	4641.28
410.83	4807.46
411.02	5006.41
411.21	4915.12
411.40	4854.27
411.59	5060.24
411.78	4961.94
411.98	4919.81
412.17	5149.18
412.36	5041.51
412.55	5289.61
412.74	5184.29
412.93	5085.98
413.12	5071.94
413.31	5432.38
413.50	5493.24
413.69	5301.31
413.88	5530.69
414.07	5558.77
414.26	5504.94
414.45	5600.90
414.64	5654.73
414.83	5680.48
415.02	5743.67
415.22	5834.96
415.41	5886.45
415.60	5867.72
415.79	5823.25
415.98	6146.25
416.17	5998.79
416.36	5989.43
416.55	6146.25
416.74	6286.68
416.93	6139.23
417.12	6118.16
417.31	6197.74
417.50	6251.57
417.69	6303.06
417.88	6478.60
418.07	6403.71
418.26	6424.77
418.45	6745.42
418.64	6710.32
418.83	6572.22
419.02	6778.19
419.21	6785.21
419.39	6808.62
419.58	6705.63
419.77	6829.68
419.96	6918.62
420.15	7117.57
420.34	6939.69
420.53	7021.61
420.72	7169.06
420.91	7101.19
421.10	7211.19
421.29	7227.57
421.48	6972.46
421.67	7318.86
421.86	7227.57
422.05	7321.20
422.24	7096.50
422.43	7323.54
422.61	7372.69
422.80	7489.71
422.99	7321.20
423.18	7384.39
423.37	7527.16
423.56	7346.94
423.75	7363.33
423.94	7164.38
424.13	6729.04
424.32	7042.67
424.50	7400.77
424.69	7573.97
424.88	7555.25
425.07	7377.37
425.26	7414.82
425.45	7501.42
425.64	7459.29
425.83	7588.02
426.01	7611.42
426.20	7515.46
426.39	7545.89
426.58	7478.01
426.77	7489.71
426.96	7815.05
427.15	7634.83
427.33	7749.51
427.52	7749.51
427.71	7911.01
427.90	7903.99
428.09	7836.11
428.28	7878.24
428.46	7901.65
428.65	7843.14
428.84	8198.90
429.03	8355.71
429.22	7969.52
429.40	8102.93
429.59	8138.04
429.78	8009.31
429.97	8016.33
430.16	8276.13
430.34	8688.07
430.53	8355.71
430.72	8294.86
430.91	8533.59
431.10	8566.36
431.28	8580.40
431.47	8622.53
431.66	8695.09
431.85	8568.70
432.03	8793.39
432.22	8901.06
432.41	8842.54
432.60	8812.12
432.79	8676.37
432.97	8931.48
433.16	8922.12
433.35	8901.06
433.54	9055.53
433.72	9160.86
433.91	9039.15
434.10	9060.21
434.28	8940.85
434.47	9132.77
434.66	9376.19
434.85	9404.27
435.03	9619.60
435.22	9612.58
435.41	9898.13
435.59	9687.48
435.78	9881.74
435.97	9750.67
436.16	9430.02
436.34	9577.47
436.53	9598.54
436.72	9863.02
436.90	9561.09
437.09	9928.55
437.28	9893.44
437.46	9949.62
437.65	9790.46
437.84	9973.02
438.02	9956.64
438.21	10005.79
438.40	10026.86
438.58	10207.08
438.77	10401.34
438.96	10281.97
439.14	10483.26
439.33	10633.05
439.52	10422.41
439.70	10771.15
439.89	10911.58
440.08	10766.46
440.26	11117.54
440.45	11131.59
440.63	10785.19
440.82	11283.72
441.01	11316.49
441.19	11208.83
441.38	11255.64
441.57	11281.38
441.75	11557.57
441.94	11742.47
442.12	11733.11
442.31	11988.22
442.50	11737.79
442.68	11676.93
442.87	11908.65
443.05	12035.03
443.24	12191.85
443.43	12035.03
443.61	12264.41
443.80	12507.82
443.98	11838.43
444.17	11805.66
444.35	11990.56
444.54	12472.71
444.73	12065.46
444.91	12491.44
445.10	12187.17
445.28	12425.90
445.47	12339.30
445.65	12149.72
445.84	12552.29
446.02	12622.51
446.21	12643.57
446.39	12400.16
446.58	12697.41
446.77	12706.77
446.95	12329.94
447.14	12479.74
447.32	12814.43
447.51	12624.85
447.69	12692.73
447.88	12496.12
448.06	12594.42
448.25	12540.59
448.43	12716.13
448.62	12706.77
448.80	12674.00
448.99	12819.11
449.17	12767.62
449.36	12856.56
449.54	13078.91
449.73	13317.65
449.91	13235.73
450.10	13228.71
450.28	13462.76
450.46	13376.16
450.65	13191.26
450.83	13181.90
451.02	13476.80
451.20	13453.40
451.39	13579.79
451.57	13493.19
451.76	13455.74
451.94	13453.40
452.13	13820.86
452.31	13720.22
452.49	13685.11
452.68	13855.97
452.86	13666.39
453.05	14188.33
453.23	13764.69
453.42	14057.26
453.60	13851.29
453.78	14031.51
453.97	14017.47
454.15	13731.92
454.34	14204.71
454.52	14424.72
454.70	14204.71
454.89	14193.01
455.07	14401.32
455.26	14831.97
455.44	14618.99
455.62	14691.54
455.81	14801.55
455.99	15019.22
456.17	14890.49
456.36	14883.47
456.54	15346.89
456.73	15267.31
456.91	15484.98
457.09	15646.48
457.28	15690.95
457.46	15372.64
457.64	15637.12
457.83	15679.25
458.01	15585.63
458.19	16084.16
458.38	15407.75
458.56	16011.60
458.74	16074.80
458.93	15782.23
459.11	15740.10
459.29	16325.24
459.48	16191.83
459.66	15882.88
459.84	16201.19
460.03	16409.50
460.21	16402.47
460.39	16393.11
460.57	16456.31
460.76	16603.76
460.94	16535.88
461.12	16643.55
461.31	16641.21
461.49	16702.06
461.67	16805.05
461.85	16938.46
462.04	16599.08
462.22	17469.76
462.40	17270.81
462.59	16957.18
462.77	16947.82
462.95	17380.82
463.13	17069.53
463.32	17249.75
463.50	17523.59
463.68	17605.51
463.86	17692.11
464.05	17118.68
464.23	17247.41
464.41	17750.62
464.59	17509.55
464.78	18045.53
464.96	17563.38
465.14	17617.21
465.32	17877.01
465.50	18029.15
465.69	18148.51
465.87	18122.77
466.05	17834.88
466.23	18031.49
466.41	18249.16
466.60	18780.46
466.78	18167.24
466.96	18150.85
467.14	18235.11
467.32	18473.85
467.51	18738.33
467.69	18188.30
467.87	18441.08
468.05	18537.04
468.23	18625.98
468.41	18532.36
468.60	18867.06
468.78	18750.03
468.96	18757.05
469.14	18836.63
469.32	19449.85
469.50	18773.44
469.69	19080.05
469.87	19517.73
470.05	19564.54
470.23	19433.47
470.41	19859.45
470.59	19889.87
470.77	19740.08
470.95	19847.74
471.14	20152.01
471.32	19714.33
471.50	20374.36
471.68	20137.97
471.86	20180.10
472.04	20538.20
472.22	20910.35
472.40	20489.05
472.58	20641.18
472.77	20821.41
472.95	20973.54
473.13	21572.72
473.31	20840.13
473.49	21170.15
473.67	21219.30
473.85	21411.22
474.03	21991.67
474.21	21869.97
474.39	22001.04
474.57	21912.10
474.75	22326.37
474.93	22485.53
475.12	22546.38
475.30	22632.98
475.48	22501.91
475.66	22462.12
475.84	22600.21
476.02	23157.26
476.20	22937.25
476.38	23587.92
476.56	23941.34
476.74	24072.41
476.92	23981.13
477.10	23587.92
477.28	24280.72
477.46	24194.12
477.64	24390.72
477.82	24971.18
478.00	25144.38
478.18	25083.52
478.36	25362.04
478.54	25570.35
478.72	25752.91
478.90	26026.76
479.08	26017.40
479.26	26759.34
479.44	26661.04
479.62	26817.86
479.80	27075.32
479.98	26995.74
480.16	28077.07
480.34	27395.97
480.52	27709.60
480.70	28114.52
480.88	27749.39
481.06	27873.44
481.24	28121.54
481.41	28219.84
481.59	29277.76
481.77	29003.92
481.95	29134.99
482.13	29420.53
482.31	29465.00
482.49	30518.25
482.67	30398.88
482.85	30382.49
483.03	30478.46
483.21	31274.24
483.39	31424.03
483.57	31129.12
483.74	31681.49
483.92	31693.19
484.10	31960.02
484.28	32437.48
484.46	32795.59
484.64	33621.80
484.82	32575.58
485.00	33514.13
485.18	34195.23
485.35	34593.12
485.53	34871.64
485.71	34448.00
485.89	35047.18
486.07	34787.38
486.25	35201.66
486.43	35637.00
486.61	35779.77
486.78	35824.24
486.96	35882.75
487.14	36954.72
487.32	36732.37
487.50	37462.61
487.68	37258.99
487.85	37530.49
488.03	38396.49
488.21	38616.50
488.39	38749.91
488.57	39133.76
488.75	39086.95
488.92	39548.03
489.10	39707.19
489.28	40079.33
489.46	40119.12
489.64	40912.56
489.81	40858.73
489.99	41172.36
490.17	41518.76
490.35	41720.05
490.53	42307.52
490.70	42424.55
490.88	42131.98
491.06	42801.38
491.24	42974.58
491.41	42693.71
491.59	43597.16
491.77	43100.97
491.95	44189.31
492.13	44231.44
492.30	44559.12
492.48	44641.04
492.66	44697.21
492.84	45031.91
493.01	45785.56
493.19	45701.30
493.37	46010.25
493.54	46028.98
493.72	46349.63
493.90	46485.38
494.08	46967.53
494.25	47604.16
494.43	47154.77
494.61	47931.83
494.79	47482.45
494.96	48067.58
495.14	47950.56
495.32	48596.54
495.49	48608.25
495.67	48753.36
495.85	49287.00
496.02	49184.02
496.20	49240.19
496.38	49518.71
496.55	49914.26
496.73	50834.10
496.91	50380.03
497.09	50223.22
497.26	50824.73
497.44	50820.05
497.62	50838.78
497.79	51182.84
497.97	51173.47
498.14	51739.88
498.32	51810.10
498.50	51620.52
498.67	52364.81
498.85	52140.11
499.03	52563.75
499.20	52650.35
499.38	52552.05
499.56	52959.30
499.73	53041.22
499.91	53195.70
500.08	53343.15
500.26	52905.47
500.44	53680.19
500.61	53474.22
500.79	53415.71
500.97	53862.75
501.14	53961.05
501.32	53986.80
501.49	54092.12
501.67	54061.69
501.84	54494.69
502.02	54553.21
502.20	54578.95
502.37	54688.96
502.55	54677.25
502.72	54789.60
502.90	54822.37
503.07	55037.70
503.25	55011.95
503.43	54946.42
503.60	55367.71
503.78	55360.69
503.95	55770.28
504.13	55821.78
504.30	55791.35
504.48	55594.74
504.65	56030.08
504.83	56205.62
505.01	56512.23
505.18	56147.11
505.36	56343.72
505.53	56413.93
505.71	56528.62
505.88	56608.20
506.06	56397.55
506.23	56928.85
506.41	56750.97
506.58	56931.19
506.76	56772.03
506.93	57291.63
507.11	57055.24
507.28	57427.38
507.46	57443.77
507.63	57513.98
507.81	57652.08
507.98	57429.72
508.16	57394.62
508.33	57867.40
508.50	57989.11
508.68	58080.39
508.85	58197.42
509.03	57818.25
509.20	58316.79
509.38	57979.75
509.55	58309.77
509.73	58447.86
509.90	58555.52
510.08	58707.66
510.25	58724.04
510.42	58635.10
510.60	58822.34
510.77	58878.52
510.95	58967.46
511.12	59004.91
511.30	59150.02
511.47	59171.08
511.64	59475.35
511.82	59318.54
511.99	59105.55
512.17	59524.50
512.34	59473.01
512.51	59618.13
512.69	60009.00
512.86	59868.56
513.04	59849.84
513.21	60081.55
513.38	59824.09
513.56	60020.70
513.73	59945.80
513.90	60308.58
514.08	60275.82
514.25	60467.74
514.43	60299.22
514.60	60292.20
514.77	60278.16
514.95	60500.51
515.12	60374.12
515.29	60552.00
515.47	61116.07
515.64	60865.63
515.81	60891.38
515.99	60921.80
516.16	60985.00
516.33	60793.07
516.51	61254.16
516.68	61144.16
516.85	61102.03
517.03	61197.99
517.20	61333.74
517.37	61389.91
517.54	61265.86
517.72	61392.25
517.89	61560.77
518.06	61804.19
518.24	61553.75
518.41	61815.89
518.58	61752.69
518.75	61647.37
518.93	62026.54
519.10	61794.82
519.27	61928.23
519.45	62071.01
519.62	62042.92
519.79	62129.52
519.96	62162.29
520.14	61939.94
520.31	61958.66
520.48	62255.91
520.65	62328.47
520.83	62583.58
521.00	62639.76
521.17	62625.71
521.34	62543.80
521.52	62815.30
521.69	62649.12
521.86	62834.02
522.03	62808.28
522.20	63084.46
522.38	63044.67
522.55	63061.05
522.72	63164.04
522.89	63142.97
523.07	63302.13
523.24	63126.59
523.41	63283.40
523.58	63236.59
523.75	63543.20
523.92	63257.66
524.10	63428.52
524.27	63423.84
524.44	63611.08
524.61	63681.30
524.78	63646.19
524.96	63711.72
525.13	63831.09
525.30	63751.51
525.47	63999.61
525.64	63884.92
525.81	63793.64
525.98	63994.93
526.16	63751.51
526.33	64100.25
526.50	64231.32
526.67	64088.55
526.84	64268.77
527.01	64280.47
527.18	64217.28
527.36	64399.84
527.53	64308.56
527.70	64643.26
527.87	64521.55
528.04	64519.21
528.21	64849.22
528.38	64673.68
528.55	64687.73
528.72	64601.13
528.89	64786.03
529.07	64657.30
529.24	64643.26
529.41	64961.57
529.58	64945.18
529.75	65125.41
529.92	65038.81
530.09	64903.06
530.26	64896.03
530.43	65064.55
530.60	64849.22
530.77	64982.63
530.94	65193.28
531.11	65111.36
531.28	65200.30
531.46	65219.03
531.63	65429.68
531.80	65284.56
531.97	65439.04
532.14	65401.59
532.31	65527.98
532.48	65535.00
532.65	65535.00
532.82	65535.00
532.99	65535.00
533.16	65535.00
533.33	65535.00
533.50	65535.00
533.67	65535.00
533.84	65535.00
534.01	65535.00
534.18	65535.00
534.35	65535.00
534.52	65535.00
534.69	65535.00
534.86	65535.00
535.03	65535.00
535.20	65535.00
535.37	65535.00
535.54	65535.00
535.71	65535.00
535.88	65535.00
536.05	65535.00
536.22	65535.00
536.38	65535.00
536.55	65535.00
536.72	65535.00
536.89	65535.00
537.06	65535.00
537.23	65535.00
537.40	65535.00
537.57	65535.00
537.74	65535.00
537.91	65535.00
538.08	65535.00
538.25	65535.00
538.42	65535.00
538.59	65535.00
538.75	65535.00
538.92	65535.00
539.09	65535.00
539.26	65535.00
539.43	65535.00
539.60	65535.00
539.77	65535.00
539.94	65535.00
540.11	65535.00
540.28	65535.00
540.44	65535.00
540.61	65535.00
540.78	65535.00
540.95	65535.00
541.12	65535.00
541.29	65535.00
541.46	65535.00
541.62	65535.00
541.79	65535.00
541.96	65535.00
542.13	65535.00
542.30	65535.00
542.47	65535.00
542.63	65535.00
542.80	65535.00
542.97	65535.00
543.14	65535.00
543.31	65535.00
543.48	65535.00
543.64	65535.00
543.81	65535.00
543.98	65535.00
544.15	65535.00
544.32	65535.00
544.48	65535.00
544.65	65535.00
544.82	65535.00
544.99	65535.00
545.16	65535.00
545.32	65535.00
545.49	65535.00
545.66	65535.00
545.83	65535.00
546.00	65535.00
546.16	65535.00
546.33	65535.00
546.50	65535.00
546.67	65535.00
546.83	65535.00
547.00	65535.00
547.17	65535.00
547.34	65535.00
547.50	65535.00
547.67	65535.00
547.84	65535.00
548.00	65535.00
548.17	65535.00
548.34	65535.00
548.51	65535.00
548.67	65535.00
548.84	65535.00
549.01	65535.00
549.18	65535.00
549.34	65535.00
549.51	65535.00
549.68	65535.00
549.84	65535.00
550.01	65535.00
550.18	65535.00
550.34	65535.00
550.51	65535.00
550.68	65535.00
550.84	65535.00
551.01	65535.00
551.18	65535.00
551.34	65535.00
551.51	65535.00
551.68	65535.00
551.84	65535.00
552.01	65535.00
552.18	65535.00
552.34	65535.00
552.51	65535.00
552.68	65535.00
552.84	65535.00
553.01	65535.00
553.18	65535.00
553.34	65535.00
553.51	65535.00
553.67	65535.00
553.84	65535.00
554.01	65535.00
554.17	65535.00
554.34	65535.00
554.51	65535.00
554.67	65535.00
554.84	65535.00
555.00	65535.00
555.17	65535.00
555.33	65535.00
555.50	65535.00
555.67	65535.00
555.83	65535.00
556.00	65535.00
556.16	65535.00
556.33	65535.00
556.50	65535.00
556.66	65535.00
556.83	65535.00
556.99	65535.00
557.16	65535.00
557.32	65535.00
557.49	65535.00
557.65	65535.00
557.82	65535.00
557.98	65535.00
558.15	65535.00
558.32	65535.00
558.48	65535.00
558.65	65535.00
558.81	65535.00
558.98	65535.00
559.14	65535.00
559.31	65535.00
559.47	65535.00
559.64	65535.00
559.80	65535.00
559.97	65535.00
560.13	65535.00
560.30	65535.00
560.46	65535.00
560.63	65535.00
560.79	65535.00
560.96	65535.00
561.12	65535.00
561.29	65535.00
561.45	65535.00
561.61	65535.00
561.78	65535.00
561.94	65535.00
562.11	65535.00
562.27	65535.00
562.44	65535.00
562.60	65535.00
562.77	65535.00
562.93	65535.00
563.10	65535.00
563.26	65535.00
563.42	65535.00
563.59	65535.00
563.75	65535.00
563.92	65535.00
564.08	65535.00
564.24	65535.00
564.41	65535.00
564.57	65535.00
564.74	65535.00
564.90	65535.00
565.07	65535.00
565.23	65535.00
565.39	65535.00
565.56	65535.00
565.72	65535.00
565.88	65535.00
566.05	65535.00
566.21	65535.00
566.38	65535.00
566.54	65535.00
566.70	65535.00
566.87	65535.00
567.03	65535.00
567.19	65535.00
567.36	65535.00
567.52	65535.00
567.68	65535.00
567.85	65535.00
568.01	65535.00
568.17	65535.00
568.34	65535.00
568.50	65535.00
568.66	65535.00
568.83	65535.00
568.99	65535.00
569.15	65535.00
569.32	65535.00
569.48	65535.00
569.64	65535.00
569.81	65535.00
569.97	65535.00
570.13	65535.00
570.30	65535.00
570.46	65535.00
570.62	65535.00
570.78	65535.00
570.95	65535.00
571.11	65535.00
571.27	65535.00
571.43	65535.00
571.60	65535.00
571.76	65535.00
571.92	65535.00
572.09	65535.00
572.25	65535.00
572.41	65535.00
572.57	65535.00
572.74	65535.00
572.90	65535.00
573.06	65535.00
573.22	65535.00
573.38	65535.00
573.55	65535.00
573.71	65535.00
573.87	65535.00
574.03	65535.00
574.20	65535.00
574.36	65535.00
574.52	65535.00
574.68	65535.00
574.84	65535.00
575.01	65535.00
575.17	65535.00
575.33	65535.00
575.49	65535.00
575.65	65535.00
575.82	65535.00
575.98	65535.00
576.14	65535.00
576.30	65535.00
576.46	65535.00
576.62	65535.00
576.79	65535.00
576.95	65535.00
577.11	65535.00
577.27	65535.00
577.43	65535.00
577.59	65535.00
577.75	65535.00
577.92	65535.00
578.08	65535.00
578.24	65535.00
578.40	65535.00
578.56	65535.00
578.72	65535.00
578.88	65535.00
579.04	65535.00
579.21	65535.00
579.37	65535.00
579.53	65535.00
579.69	65535.00
579.85	65535.00
580.01	65535.00
580.17	65535.00
580.33	65535.00
580.49	65535.00
580.65	65535.00
580.82	65535.00
580.98	65535.00
581.14	65535.00
581.30	65535.00
581.46	65535.00
581.62	65535.00
581.78	65535.00
581.94	65535.00
582.10	65535.00
582.26	65535.00
582.42	65535.00
582.58	65535.00
582.74	65535.00
582.90	65535.00
583.06	65535.00
583.22	65535.00
583.38	65535.00
583.54	65535.00
583.70	65535.00
583.86	65535.00
584.02	65535.00
584.18	65535.00
584.34	65535.00
584.50	65535.00
584.66	65535.00
584.82	65535.00
584.98	65535.00
585.14	65535.00
585.30	65535.00
585.46	65535.00
585.62	65535.00
585.78	65535.00
585.94	65535.00
586.10	65535.00
586.26	65535.00
586.42	65535.00
586.58	65535.00
586.74	65535.00
586.90	65535.00
587.06	65535.00
