SpectraSuite Data File
++++++++++++++++++++++++++++++++++++
Date: Thu Oct 24 13:21:09 EDT 2013
User: stostad
Dark Spectrum Present: No
Reference Spectrum Present: No
Number of Sampled Component Spectra: 1
Spectrometers: USB2+H05261
Integration Time (usec): 100000 (USB2+H05261)
Spectra Averaged: 1 (USB2+H05261)
Boxcar Smoothing: 0 (USB2+H05261)
Correct for Electrical Dark: No (USB2+H05261)
Strobe/Lamp Enabled: No (USB2+H05261)
Correct for Detector Non-linearity: No (USB2+H05261)
Correct for Stray Light: No (USB2+H05261)
Number of Pixels in Processed Spectrum: 2048
>>>>>Begin Processed Spectral Data<<<<<
365.73	540.66
365.92	540.66
366.12	540.66
366.32	411.93
366.52	425.98
366.72	407.25
366.91	493.85
367.11	418.96
367.31	440.02
367.51	484.49
367.70	388.53
367.90	493.85
368.10	421.30
368.30	369.80
368.49	421.30
368.69	503.22
368.89	475.13
369.09	545.34
369.28	543.00
369.48	512.58
369.68	521.94
369.87	486.83
370.07	547.69
370.27	517.26
370.47	599.18
370.66	653.01
370.86	767.70
371.06	718.54
371.25	732.59
371.45	741.95
371.65	770.04
371.84	791.10
372.04	669.39
372.24	692.80
372.44	763.01
372.63	739.61
372.83	763.01
373.03	777.06
373.22	765.36
373.42	765.36
373.62	772.38
373.81	849.61
374.01	760.67
374.21	793.44
374.40	826.21
374.60	821.53
374.79	765.36
374.99	851.96
375.19	807.48
375.38	866.00
375.58	866.00
375.78	770.04
375.97	791.10
376.17	861.32
376.37	809.83
376.56	823.87
376.76	842.59
376.95	800.46
377.15	849.61
377.35	821.53
377.54	812.17
377.74	889.40
377.93	828.55
378.13	847.27
378.33	770.04
378.52	884.72
378.72	835.57
378.91	863.66
379.11	891.74
379.31	826.21
379.50	844.93
379.70	943.24
379.89	931.53
380.09	823.87
380.28	816.85
380.48	870.68
380.68	884.72
380.87	833.23
381.07	924.51
381.26	866.00
381.46	891.74
381.65	903.45
381.85	861.32
382.04	882.38
382.24	884.72
382.43	849.61
382.63	851.96
382.83	868.34
383.02	943.24
383.22	891.74
383.41	877.70
383.61	968.98
383.80	905.79
384.00	919.83
384.19	887.06
384.39	978.34
384.58	854.30
384.78	898.77
384.97	903.45
385.17	861.32
385.36	835.57
385.56	940.90
385.75	929.19
385.95	950.26
386.14	957.28
386.34	919.83
386.53	973.66
386.72	1008.77
386.92	938.55
387.11	968.98
387.31	964.30
387.50	961.96
387.70	961.96
387.89	990.05
388.09	950.26
388.28	873.02
388.48	929.19
388.67	1011.11
388.86	1041.54
389.06	976.00
389.25	980.68
389.45	983.02
389.64	1025.15
389.84	1048.56
390.03	997.07
390.22	997.07
390.42	938.55
390.61	994.73
390.81	952.60
391.00	966.64
391.19	1001.75
391.39	987.71
391.58	1090.69
391.78	1004.09
391.97	1018.13
392.16	1074.31
392.36	1048.56
392.55	1022.81
392.75	1062.60
392.94	1078.99
393.13	1011.11
393.33	1060.26
393.52	1006.43
393.71	1118.78
393.91	1100.05
394.10	1060.26
394.29	1111.75
394.49	1060.26
394.68	1144.52
394.88	1071.97
395.07	1053.24
395.26	1076.65
395.46	1184.31
395.65	1142.18
395.84	1132.82
396.04	1146.86
396.23	1109.41
396.42	1057.92
396.62	1074.31
396.81	1135.16
397.00	1156.22
397.19	1104.73
397.39	1219.42
397.58	1200.69
397.77	1118.78
397.97	1158.57
398.16	1121.12
398.35	1184.31
398.55	1273.25
398.74	1186.65
398.93	1263.89
399.12	1205.38
399.32	1252.19
399.51	1114.10
399.70	1238.14
399.90	1205.38
400.09	1212.40
400.28	1214.74
400.47	1247.51
400.67	1188.99
400.86	1214.74
401.05	1315.38
401.24	1235.80
401.44	1327.08
401.63	1277.93
401.82	1261.55
402.01	1207.72
402.21	1284.95
402.40	1259.21
402.59	1245.16
402.78	1364.53
402.97	1303.68
403.17	1291.98
403.36	1341.13
403.55	1362.19
403.74	1444.11
403.93	1547.09
404.13	1495.60
404.32	1409.00
404.51	1455.81
404.70	1359.85
404.89	1355.17
405.09	1561.14
405.28	1425.39
405.47	1427.73
405.66	1434.75
405.85	1493.26
406.05	1465.18
406.24	1394.96
406.43	1469.86
406.62	1563.48
406.81	1561.14
407.00	1416.02
407.20	1514.33
407.39	1544.75
407.58	1479.22
407.77	1586.88
407.96	1598.59
408.15	1547.09
408.34	1516.67
408.54	1568.16
408.73	1558.80
408.92	1633.69
409.11	1659.44
409.30	1638.38
409.49	1570.50
409.68	1528.37
409.87	1659.44
410.07	1589.22
410.26	1696.89
410.45	1619.65
410.64	1603.27
410.83	1636.03
411.02	1706.25
411.21	1739.02
411.40	1666.46
411.59	1722.63
411.78	1715.61
411.98	1647.74
412.17	1727.32
412.36	1783.49
412.55	1820.94
412.74	1881.79
412.93	1764.76
413.12	1769.44
413.31	1884.13
413.50	1842.00
413.69	1839.66
413.88	1933.28
414.07	1952.01
414.26	1956.69
414.45	1884.13
414.64	1954.35
414.83	1837.32
415.02	2005.84
415.22	2033.93
415.41	2005.84
415.60	2012.86
415.79	1902.86
415.98	2026.90
416.17	1989.46
416.36	1998.82
416.55	2092.44
416.74	2134.57
416.93	2033.93
417.12	2106.48
417.31	2099.46
417.50	2108.82
417.69	2106.48
417.88	2148.61
418.07	2024.56
418.26	2113.50
418.45	2132.23
418.64	2223.51
418.83	2249.25
419.02	2260.96
419.21	2186.06
419.39	2239.89
419.58	2179.04
419.77	2200.10
419.96	2193.08
420.15	2225.85
420.34	2141.59
420.53	2129.89
420.72	2310.11
420.91	2284.36
421.10	2293.72
421.29	2380.32
421.48	2305.43
421.67	2406.07
421.86	2321.81
422.05	2356.92
422.24	2310.11
422.43	2361.60
422.61	2377.98
422.80	2480.97
422.99	2394.37
423.18	2420.11
423.37	2525.44
423.56	2377.98
423.75	2392.03
423.94	2354.58
424.13	2275.00
424.32	2256.28
424.50	2370.96
424.69	2509.05
424.88	2424.80
425.07	2314.79
425.26	2422.45
425.45	2347.56
425.64	2413.09
425.83	2380.32
426.01	2485.65
426.20	2483.31
426.39	2530.12
426.58	2361.60
426.77	2518.42
426.96	2504.37
427.15	2361.60
427.33	2541.82
427.52	2466.92
427.71	2555.86
427.90	2623.74
428.09	2581.61
428.28	2576.93
428.46	2509.05
428.65	2553.52
428.84	2581.61
429.03	2672.89
429.22	2593.31
429.40	2679.91
429.59	2581.61
429.78	2459.90
429.97	2370.96
430.16	2609.70
430.34	2565.23
430.53	2719.70
430.72	2752.47
430.91	2567.57
431.10	2583.95
431.28	2651.83
431.47	2675.23
431.66	2787.58
431.85	2595.65
432.03	2647.15
432.22	2785.24
432.41	2810.98
432.60	2670.55
432.79	2796.94
432.97	2810.98
433.16	2820.35
433.35	2860.13
433.54	2785.24
433.72	2733.75
433.91	2752.47
434.10	2836.73
434.28	2815.66
434.47	2785.24
434.66	2752.47
434.85	2925.67
435.03	3047.38
435.22	3185.47
435.41	3342.28
435.59	3279.09
435.78	3145.68
435.97	3115.25
436.16	3047.38
436.34	3002.91
436.53	2923.33
436.72	2916.31
436.90	2897.58
437.09	2895.24
437.28	2970.14
437.46	3002.91
437.65	3049.72
437.84	3077.80
438.02	3026.31
438.21	3082.49
438.40	3103.55
438.58	3164.40
438.77	3225.26
438.96	3129.30
439.14	3103.55
439.33	3316.54
439.52	3204.19
439.70	3304.84
439.89	3201.85
440.08	3232.28
440.26	3258.03
440.45	3234.62
440.63	3330.58
440.82	3325.90
441.01	3286.11
441.19	3365.69
441.38	3398.46
441.57	3377.39
441.75	3342.28
441.94	3548.25
442.12	3365.69
442.31	3545.91
442.50	3559.95
442.68	3492.08
442.87	3424.20
443.05	3534.21
443.24	3545.91
443.43	3550.59
443.61	3517.83
443.80	3726.13
443.98	3604.42
444.17	3417.18
444.35	3630.17
444.54	3641.87
444.73	3691.02
444.91	3623.15
445.10	3709.75
445.28	3641.87
445.47	3548.25
445.65	3698.05
445.84	3588.04
446.02	3637.19
446.21	3742.52
446.39	3637.19
446.58	3695.71
446.77	3794.01
446.95	3555.27
447.14	3576.34
447.32	3681.66
447.51	3658.26
447.69	3777.62
447.88	3784.65
448.06	3763.58
448.25	3719.11
448.43	3641.87
448.62	3742.52
448.80	3658.26
448.99	3782.31
449.17	3878.27
449.36	3812.73
449.54	3712.09
449.73	3733.15
449.91	3833.80
450.10	3845.50
450.28	3896.99
450.46	3948.48
450.65	3915.72
450.83	3812.73
451.02	3857.20
451.20	3915.72
451.39	3871.25
451.57	3983.59
451.76	3960.19
451.94	3901.67
452.13	3992.95
452.31	4039.76
452.49	3983.59
452.68	4009.34
452.86	3918.06
453.05	4037.42
453.23	3946.14
453.42	3904.01
453.60	3936.78
453.78	4135.73
453.97	4042.11
454.15	4032.74
454.34	3875.93
454.52	4093.60
454.70	4037.42
454.89	4133.39
455.07	4266.80
455.26	4093.60
455.44	4173.18
455.62	4210.62
455.81	4170.83
455.99	4201.26
456.17	4306.59
456.36	4297.22
456.54	4159.13
456.73	4229.35
456.91	4414.25
457.09	4322.97
457.28	4273.82
457.46	4432.97
457.64	4238.71
457.83	4400.21
458.01	4287.86
458.19	4519.57
458.38	4294.88
458.56	4568.73
458.74	4475.10
458.93	4489.15
459.11	4613.20
459.29	4409.57
459.48	4479.79
459.66	4463.40
459.84	4589.79
460.03	4720.86
460.21	4526.60
460.39	4664.69
460.57	4510.21
460.76	4568.73
460.94	4744.27
461.12	4554.68
461.31	4664.69
461.49	4695.11
461.67	4528.94
461.85	4720.86
462.04	4695.11
462.22	5046.20
462.40	4781.71
462.59	4870.65
462.77	4706.82
462.95	4784.06
463.13	4667.03
463.32	4805.12
463.50	4760.65
463.68	4861.29
463.86	4784.06
464.05	4786.40
464.23	4957.25
464.41	4882.36
464.59	4851.93
464.78	4915.12
464.96	5015.77
465.14	4952.57
465.32	4945.55
465.50	4968.96
465.69	4842.57
465.87	4901.08
466.05	5001.72
466.23	4990.02
466.41	4894.06
466.60	5020.45
466.78	5011.09
466.96	5107.05
467.14	4905.76
467.32	5158.54
467.51	5011.09
467.69	5078.96
467.87	5151.52
468.05	5123.43
468.23	5085.98
468.41	5235.78
468.60	5055.56
468.78	5186.63
468.96	5177.26
469.14	5247.48
469.32	5114.07
469.50	5083.64
469.69	5153.86
469.87	5338.76
470.05	5329.40
470.23	5289.61
470.41	5289.61
470.59	5369.19
470.77	5270.89
470.95	5291.95
471.14	5444.09
471.32	5320.04
471.50	5516.64
471.68	5364.51
471.86	5614.95
472.04	5416.00
472.22	5696.86
472.40	5467.49
472.58	5647.71
472.77	5589.20
472.95	5614.95
473.13	5753.04
473.31	5626.65
473.49	5657.07
473.67	5650.05
473.85	5659.42
474.03	5870.06
474.21	5643.03
474.39	5888.79
474.57	5806.87
474.75	5914.53
474.93	5949.64
475.12	5837.30
475.30	6150.93
475.48	6092.41
475.66	6136.88
475.84	6031.56
476.02	6076.03
476.20	6179.01
476.38	6345.19
476.56	6370.94
476.74	6427.11
476.92	6368.60
477.10	6377.96
477.28	6342.85
477.46	6375.62
477.64	6359.24
477.82	6590.95
478.00	6558.18
478.18	6560.52
478.36	6712.66
478.54	6637.76
478.72	6586.27
478.90	6656.48
479.08	6836.70
479.26	6710.32
479.44	6857.77
479.62	6909.26
479.80	6972.46
479.98	7014.59
480.16	7115.23
480.34	7321.20
480.52	7368.01
480.70	7126.93
480.88	7166.72
481.06	7342.26
481.24	7250.98
481.41	7335.24
481.59	7440.56
481.77	7534.18
481.95	7566.95
482.13	7707.38
482.31	7599.72
482.49	7864.20
482.67	7709.72
482.85	7840.79
483.03	7934.42
483.21	7964.84
483.39	8084.21
483.57	7918.03
483.74	8166.13
483.92	8329.97
484.10	8042.08
484.28	8276.13
484.46	8308.90
484.64	8285.50
484.82	8538.27
485.00	8510.19
485.18	8809.78
485.35	8753.60
485.53	8528.91
485.71	8879.99
485.89	8858.93
486.07	8758.28
486.25	8901.06
486.43	8912.76
486.61	9027.45
486.78	9179.58
486.96	9336.40
487.14	9390.23
487.32	9259.16
487.50	9444.06
487.68	9383.21
487.85	9584.49
488.03	9689.82
488.21	9811.53
488.39	9537.68
488.57	9841.95
488.75	9877.06
488.92	9951.96
489.10	10148.56
489.28	10083.03
489.46	10066.64
489.64	10106.43
489.81	10333.47
489.99	10366.23
490.17	10204.74
490.35	10478.58
490.53	10548.79
490.70	10569.86
490.88	10719.65
491.06	10888.17
491.24	10764.12
491.41	10745.40
491.59	10953.71
491.77	10967.75
491.95	11061.37
492.13	11124.57
492.30	11227.55
492.48	11290.74
492.66	11356.28
492.84	11234.57
493.01	11440.54
493.19	11365.64
493.37	11403.09
493.54	11428.84
493.72	11690.98
493.90	11616.08
494.08	11609.06
494.25	11578.63
494.43	11524.80
494.61	11981.20
494.79	11744.81
494.96	11817.36
495.14	12243.34
495.32	12329.94
495.49	12149.72
495.67	12173.13
495.85	12294.83
496.02	12336.96
496.20	12528.89
496.38	12432.93
496.55	12636.55
496.73	13078.91
496.91	12889.33
497.09	12610.81
497.26	12599.10
497.44	12699.75
497.62	12912.74
497.79	13053.17
497.97	12858.90
498.14	13114.02
498.32	13301.26
498.50	13055.51
498.67	13149.13
498.85	13242.75
499.03	13404.25
499.20	13537.66
499.38	13418.29
499.56	13544.68
499.73	13619.58
499.91	13652.34
500.08	13914.48
500.26	13607.87
500.44	13738.94
500.61	13844.27
500.79	13685.11
500.97	14050.24
501.14	14090.02
501.32	13855.97
501.49	13898.10
501.67	14003.43
501.84	14223.44
502.02	14122.79
502.20	14342.80
502.37	14305.35
502.55	14286.63
502.72	14171.94
502.90	14558.13
503.07	14352.16
503.25	14649.41
503.43	14705.59
503.60	14867.08
503.78	14675.16
503.95	14525.36
504.13	14700.90
504.30	14698.56
504.48	14930.28
504.65	14862.40
504.83	15075.39
505.01	15133.90
505.18	15105.82
505.36	15059.01
505.53	14663.46
505.71	15211.14
505.88	15267.31
506.06	15080.07
506.23	15199.44
506.41	15288.38
506.58	15143.27
506.76	15290.72
506.93	15372.64
507.11	15585.63
507.28	15728.40
507.46	15442.85
507.63	15550.52
507.81	15917.98
507.98	15604.35
508.16	15623.08
508.33	15815.00
508.50	16046.71
508.68	16037.35
508.85	16271.40
509.03	15920.32
509.20	15936.71
509.38	16259.70
509.55	16116.93
509.73	16442.26
509.90	16217.57
510.08	16311.19
510.25	16353.32
510.42	16393.11
510.60	16402.47
510.77	16540.57
510.95	16496.10
511.12	16479.71
511.30	16746.53
511.47	16318.22
511.64	16393.11
511.82	16861.22
511.99	16531.20
512.17	16875.26
512.34	16905.69
512.51	16893.99
512.69	16861.22
512.86	16809.73
513.04	17291.88
513.21	17270.81
513.38	17034.42
513.56	17032.08
513.73	17411.25
513.90	16950.16
514.08	17209.96
514.25	17427.63
514.43	17502.53
514.60	17270.81
514.77	17334.01
514.95	17556.36
515.12	17277.83
515.29	17715.51
515.47	17722.54
515.64	17788.07
515.81	17591.47
515.99	17762.33
516.16	17900.42
516.33	17968.29
516.51	18017.44
516.68	17963.61
516.85	17706.15
517.03	18118.09
517.20	17975.31
517.37	17898.08
517.54	18094.68
517.72	17963.61
517.89	18005.74
518.06	18214.05
518.24	17898.08
518.41	18314.69
518.58	18324.05
518.75	18045.53
518.93	18345.12
519.10	18382.57
519.27	18094.68
519.45	18422.36
519.62	18427.04
519.79	18841.31
519.96	18602.58
520.14	18782.80
520.31	18457.46
520.48	18853.02
520.65	18558.11
520.83	18878.76
521.00	18974.72
521.17	18644.71
521.34	18845.99
521.52	18806.20
521.69	18883.44
521.86	18761.73
522.03	18609.60
522.20	19089.41
522.38	19054.30
522.55	19178.35
522.72	18909.19
522.89	19337.51
523.07	19323.46
523.24	19190.05
523.41	19349.21
523.58	19433.47
523.75	19234.52
523.92	19550.49
524.10	19447.51
524.27	19349.21
524.44	19592.62
524.61	19386.66
524.78	19744.76
524.96	19445.17
525.13	19480.28
525.30	20042.01
525.47	20269.04
525.64	19627.73
525.81	19814.98
525.98	20004.56
526.16	19527.09
526.33	19627.73
526.50	20044.35
526.67	19796.25
526.84	20034.99
527.01	20175.42
527.18	20147.33
527.36	19934.34
527.53	20350.96
527.70	20383.73
527.87	20386.07
528.04	20376.70
528.21	20198.82
528.38	20135.63
528.55	20430.54
528.72	20252.66
528.89	20393.09
529.07	20510.11
529.24	20126.27
529.41	20585.01
529.58	20786.30
529.75	20264.36
529.92	20692.68
530.09	20512.46
530.26	20465.64
530.43	20837.79
530.60	20435.22
530.77	20851.83
530.94	20919.71
531.11	20805.02
531.28	20919.71
531.46	20526.50
531.63	20727.78
531.80	20638.84
531.97	20917.37
532.14	20854.17
532.31	20697.36
532.48	20957.16
532.65	21268.45
532.82	20919.71
532.99	21076.52
533.16	20987.58
533.33	20842.47
533.50	21324.62
533.67	21184.19
533.84	21259.09
534.01	21160.78
534.18	21537.61
534.35	21530.59
534.52	21135.04
534.69	21205.25
534.86	21128.02
535.03	21420.58
535.20	21371.43
535.37	21605.49
535.54	21614.85
535.71	21605.49
535.88	21394.84
536.05	21598.46
536.22	21624.21
536.38	21645.27
536.55	21818.47
536.72	21752.94
536.89	21764.64
537.06	21834.86
537.23	21991.67
537.40	21912.10
537.57	21776.34
537.74	21720.17
537.91	21818.47
538.08	22040.82
538.25	21893.37
538.42	22204.66
538.59	22003.38
538.75	21731.87
538.92	22263.18
539.09	22050.19
539.26	21951.88
539.43	22263.18
539.60	22232.75
539.77	21996.35
539.94	22588.51
540.11	22415.31
540.28	22452.76
540.44	22560.42
540.61	22345.09
540.78	22478.50
540.95	22473.82
541.12	22665.75
541.29	22726.60
541.46	22632.98
541.62	23274.29
541.79	23168.96
541.96	22843.63
542.13	23047.26
542.30	22663.41
542.47	23136.20
542.63	23215.77
542.80	23222.80
542.97	23178.33
543.14	23414.72
543.31	23417.06
543.48	23285.99
543.64	23321.10
543.81	23218.11
543.98	23515.36
544.15	23482.59
544.32	23412.38
544.48	23431.10
544.65	23147.90
544.82	23503.66
544.99	22951.29
545.16	23426.42
545.32	23765.80
545.49	24313.48
545.66	24318.17
545.83	24318.17
546.00	24276.04
546.16	24166.03
546.33	23873.46
546.50	23768.14
546.67	23655.79
546.83	23288.33
547.00	23431.10
547.17	23393.65
547.34	23517.70
547.50	23536.43
547.67	23826.65
547.84	23779.84
548.00	23714.31
548.17	23967.09
548.34	23590.26
548.51	23501.32
548.67	23576.22
548.84	23337.48
549.01	23630.05
549.18	23756.44
549.34	23749.42
549.51	23651.11
549.68	24133.26
549.84	23807.93
550.01	23803.25
550.18	23871.12
550.34	23594.94
550.51	23721.33
550.68	23545.79
550.84	23520.04
551.01	23784.52
551.18	23854.74
551.34	23805.59
551.51	23824.31
551.68	24046.66
551.84	23747.08
552.01	23447.49
552.18	23997.51
552.34	24276.04
552.51	24240.93
552.68	23836.02
552.84	23896.87
553.01	24137.94
553.18	23798.57
553.34	24151.99
553.51	23871.12
553.67	24130.92
553.84	24404.77
554.01	24486.68
554.17	24224.54
554.34	24374.34
554.51	24063.05
554.67	24409.45
554.84	24362.64
555.00	24114.54
555.17	23751.76
555.33	23700.26
555.50	24070.07
555.67	24236.25
555.83	24369.66
556.00	24439.87
556.16	24304.12
556.33	24411.79
556.50	24512.43
556.66	24032.62
556.83	24250.29
556.99	24409.45
557.16	24837.76
557.32	24776.91
557.49	24517.11
557.65	24350.93
557.82	24451.58
557.98	24503.07
558.15	24009.22
558.32	24561.58
558.48	24458.60
558.65	24650.52
558.81	24620.10
558.98	24706.70
559.14	24517.11
559.31	24613.07
559.47	24400.08
559.64	24463.28
559.80	24718.40
559.97	25116.29
560.13	24304.12
560.30	24535.84
560.46	24711.38
560.63	24500.73
560.79	24655.20
560.96	24613.07
561.12	24720.74
561.29	24697.33
561.45	24786.27
561.61	24503.07
561.78	24559.24
561.94	24587.33
562.11	24999.26
562.27	24762.87
562.44	24830.74
562.60	24517.11
562.77	25010.96
562.93	24678.61
563.10	25123.31
563.26	24673.93
563.42	24907.98
563.59	25053.09
563.75	25036.71
563.92	25348.00
564.08	25071.82
564.24	25010.96
564.41	24629.46
564.57	24552.22
564.74	24978.20
564.90	25039.05
565.07	24830.74
565.23	25015.65
565.39	24978.20
565.56	25078.84
565.72	24861.17
565.88	24683.29
566.05	25001.60
566.21	25209.91
566.38	24718.40
566.54	25076.50
566.70	25202.89
566.87	25394.81
567.03	25064.80
567.19	25355.02
567.36	25125.65
567.52	24886.92
567.68	25242.68
567.85	25074.16
568.01	25245.02
568.17	24912.66
568.34	25090.54
568.50	25259.06
568.66	25163.10
568.83	25331.62
568.99	25041.39
569.15	25017.99
569.32	24664.57
569.48	24673.93
569.64	25106.93
569.81	25078.84
569.97	24922.02
570.13	25233.32
570.30	25137.35
570.46	25212.25
570.62	25158.42
570.78	25287.15
570.95	25245.02
571.11	25352.68
571.27	25209.91
571.43	25378.43
571.60	25305.87
571.76	25261.40
571.92	25195.87
572.09	25273.10
572.25	25369.07
572.41	25504.82
572.57	25617.16
572.74	25546.95
572.90	25067.14
573.06	25041.39
573.22	25443.96
573.38	25289.49
573.55	24879.89
573.71	25530.56
573.87	25060.12
574.03	25172.46
574.20	25362.04
574.36	25497.80
574.52	25277.79
574.68	25568.01
574.84	25366.73
575.01	25369.07
575.17	25142.03
575.33	25039.05
575.49	25448.64
575.65	25591.42
575.82	25514.18
575.98	25504.82
576.14	25575.03
576.30	25933.14
576.46	25521.20
576.62	25425.24
576.79	25523.54
576.95	25378.43
577.11	25584.40
577.27	25710.78
577.43	25577.37
577.59	25408.86
577.75	25422.90
577.92	25359.70
578.08	25345.66
578.24	25806.75
578.40	25514.18
578.56	25816.11
578.72	25741.21
578.88	25694.40
579.04	25584.40
579.21	25535.24
579.37	25481.41
579.53	25696.74
579.69	25685.04
579.85	25563.33
580.01	25340.98
580.17	25542.27
580.33	25462.69
580.49	25303.53
580.65	25568.01
580.82	25614.82
580.98	25280.13
581.14	25179.48
581.30	25720.15
581.46	25558.65
581.62	25497.80
581.78	25022.67
581.94	25476.73
582.10	25310.55
582.26	25385.45
582.42	25532.90
582.58	25301.19
582.74	25390.13
582.90	25619.50
583.06	25909.73
583.22	25280.13
583.38	25191.19
583.54	25357.36
583.70	25514.18
583.86	25624.18
584.02	25722.49
584.18	25649.93
584.34	25649.93
584.50	25502.48
584.66	25355.02
584.82	25174.80
584.98	25546.95
585.14	25525.88
585.30	25476.73
585.46	25565.67
585.62	25448.64
585.78	25469.71
585.94	25706.10
586.10	25544.61
586.26	25951.86
586.42	25598.44
586.58	26082.93
586.74	25535.24
586.90	25996.33
587.06	25525.88
587.22	25853.56
587.38	25474.39
587.54	25654.61
587.70	26169.53
587.86	25816.11
588.02	25832.49
588.18	25362.04
588.34	25647.59
588.49	25879.30
588.65	25521.20
588.81	25647.59
588.97	25441.62
589.13	25544.61
589.29	25844.20
589.45	25675.68
589.61	25799.73
589.77	25614.82
589.93	25692.06
590.08	25612.48
590.24	25687.38
590.40	25776.32
590.56	25668.66
590.72	25841.85
