SpectraSuite Data File
++++++++++++++++++++++++++++++++++++
Date: Thu Oct 24 13:20:59 EDT 2013
User: stostad
Dark Spectrum Present: No
Reference Spectrum Present: No
Number of Sampled Component Spectra: 1
Spectrometers: USB2+H05261
Integration Time (usec): 100000 (USB2+H05261)
Spectra Averaged: 1 (USB2+H05261)
Boxcar Smoothing: 0 (USB2+H05261)
Correct for Electrical Dark: No (USB2+H05261)
Strobe/Lamp Enabled: No (USB2+H05261)
Correct for Detector Non-linearity: No (USB2+H05261)
Correct for Stray Light: No (USB2+H05261)
Number of Pixels in Processed Spectrum: 2048
>>>>>Begin Processed Spectral Data<<<<<
365.73	517.26
365.92	517.26
366.12	517.26
366.32	507.90
366.52	468.11
366.72	475.13
366.91	425.98
367.11	393.21
367.31	451.72
367.51	491.51
367.70	468.11
367.90	409.59
368.10	435.34
368.30	479.81
368.49	479.81
368.69	512.58
368.89	491.51
369.09	482.15
369.28	535.98
369.48	507.90
369.68	519.60
369.87	454.06
370.07	472.79
370.27	535.98
370.47	489.17
370.66	463.43
370.86	571.09
371.06	512.58
371.25	624.92
371.45	547.69
371.65	592.16
371.84	610.88
372.04	571.09
372.24	573.43
372.44	561.73
372.63	594.50
372.83	657.69
373.03	643.65
373.22	592.16
373.42	610.88
373.62	660.03
373.81	634.29
374.01	690.46
374.21	653.01
374.40	603.86
374.60	622.58
374.79	688.12
374.99	657.69
375.19	648.33
375.38	571.09
375.58	582.79
375.78	615.56
375.97	629.60
376.17	681.10
376.37	655.35
376.56	547.69
376.76	653.01
376.95	629.60
377.15	571.09
377.35	653.01
377.54	622.58
377.74	648.33
377.93	634.29
378.13	624.92
378.33	634.29
378.52	650.67
378.72	685.78
378.91	690.46
379.11	620.24
379.31	587.47
379.50	636.63
379.70	634.29
379.89	690.46
380.09	622.58
380.28	634.29
380.48	622.58
380.68	657.69
380.87	627.26
381.07	624.92
381.26	667.05
381.46	596.84
381.65	697.48
381.85	571.09
382.04	561.73
382.24	634.29
382.43	601.52
382.63	571.09
382.83	643.65
383.02	629.60
383.22	624.92
383.41	631.94
383.61	585.13
383.80	643.65
384.00	601.52
384.19	594.50
384.39	592.16
384.58	615.56
384.78	613.22
384.97	622.58
385.17	573.43
385.36	617.90
385.56	664.71
385.75	629.60
385.95	643.65
386.14	575.77
386.34	568.75
386.53	608.54
386.72	638.97
386.92	547.69
387.11	617.90
387.31	674.07
387.50	608.54
387.70	627.26
387.89	643.65
388.09	615.56
388.28	648.33
388.48	631.94
388.67	678.76
388.86	650.67
389.06	660.03
389.25	648.33
389.45	685.78
389.64	589.82
389.84	617.90
390.03	608.54
390.22	589.82
390.42	608.54
390.61	627.26
390.81	622.58
391.00	688.12
391.19	657.69
391.39	585.13
391.58	624.92
391.78	580.45
391.97	627.26
392.16	538.32
392.36	641.31
392.55	585.13
392.75	676.41
392.94	678.76
393.13	697.48
393.33	622.58
393.52	603.86
393.71	617.90
393.91	678.76
394.10	580.45
394.29	629.60
394.49	587.47
394.68	568.75
394.88	634.29
395.07	690.46
395.26	638.97
395.46	638.97
395.65	557.05
395.84	655.35
396.04	603.86
396.23	627.26
396.42	678.76
396.62	653.01
396.81	671.73
397.00	587.47
397.19	636.63
397.39	613.22
397.58	566.41
397.77	582.79
397.97	702.16
398.16	622.58
398.35	601.52
398.55	660.03
398.74	573.43
398.93	683.44
399.12	615.56
399.32	615.56
399.51	713.86
399.70	571.09
399.90	552.37
400.09	648.33
400.28	636.63
400.47	697.48
400.67	636.63
400.86	650.67
401.05	557.05
401.24	641.31
401.44	620.24
401.63	643.65
401.82	638.97
402.01	725.57
402.21	627.26
402.40	653.01
402.59	629.60
402.78	655.35
402.97	653.01
403.17	587.47
403.36	678.76
403.55	674.07
403.74	681.10
403.93	608.54
404.13	699.82
404.32	678.76
404.51	669.39
404.70	760.67
404.89	685.78
405.09	601.52
405.28	617.90
405.47	510.24
405.66	580.45
405.85	601.52
406.05	669.39
406.24	617.90
406.43	636.63
406.62	690.46
406.81	624.92
407.00	683.44
407.20	676.41
407.39	660.03
407.58	662.37
407.77	655.35
407.96	617.90
408.15	613.22
408.34	664.71
408.54	617.90
408.73	603.86
408.92	660.03
409.11	636.63
409.30	615.56
409.49	580.45
409.68	603.86
409.87	620.24
410.07	683.44
410.26	620.24
410.45	608.54
410.64	580.45
410.83	627.26
411.02	552.37
411.21	704.50
411.40	624.92
411.59	641.31
411.78	681.10
411.98	601.52
412.17	627.26
412.36	648.33
412.55	690.46
412.74	631.94
412.93	716.20
413.12	606.20
413.31	660.03
413.50	645.99
413.69	683.44
413.88	695.14
414.07	657.69
414.26	657.69
414.45	622.58
414.64	638.97
414.83	636.63
415.02	561.73
415.22	674.07
415.41	636.63
415.60	615.56
415.79	655.35
415.98	636.63
416.17	653.01
416.36	622.58
416.55	601.52
416.74	617.90
416.93	655.35
417.12	557.05
417.31	613.22
417.50	645.99
417.69	634.29
417.88	650.67
418.07	634.29
418.26	585.13
418.45	552.37
418.64	697.48
418.83	641.31
419.02	610.88
419.21	638.97
419.39	582.79
419.58	603.86
419.77	557.05
419.96	622.58
420.15	568.75
420.34	627.26
420.53	589.82
420.72	674.07
420.91	667.05
421.10	608.54
421.29	657.69
421.48	683.44
421.67	599.18
421.86	634.29
422.05	653.01
422.24	645.99
422.43	629.60
422.61	585.13
422.80	627.26
422.99	608.54
423.18	622.58
423.37	648.33
423.56	622.58
423.75	603.86
423.94	622.58
424.13	667.05
424.32	629.60
424.50	645.99
424.69	697.48
424.88	681.10
425.07	636.63
425.26	543.00
425.45	608.54
425.64	634.29
425.83	667.05
426.01	599.18
426.20	608.54
426.39	594.50
426.58	638.97
426.77	589.82
426.96	655.35
427.15	664.71
427.33	692.80
427.52	645.99
427.71	683.44
427.90	620.24
428.09	636.63
428.28	615.56
428.46	620.24
428.65	606.20
428.84	622.58
429.03	643.65
429.22	582.79
429.40	606.20
429.59	641.31
429.78	669.39
429.97	580.45
430.16	667.05
430.34	671.73
430.53	641.31
430.72	582.79
430.91	615.56
431.10	526.62
431.28	608.54
431.47	587.47
431.66	648.33
431.85	676.41
432.03	594.50
432.22	615.56
432.41	638.97
432.60	634.29
432.79	592.16
432.97	603.86
433.16	695.14
433.35	671.73
433.54	627.26
433.72	678.76
433.91	641.31
434.10	655.35
434.28	671.73
434.47	606.20
434.66	718.54
434.85	662.37
435.03	807.48
435.22	1022.81
435.41	1177.29
435.59	1004.09
435.78	1006.43
435.97	924.51
436.16	802.80
436.34	758.33
436.53	613.22
436.72	695.14
436.90	730.25
437.09	613.22
437.28	631.94
437.46	634.29
437.65	667.05
437.84	631.94
438.02	657.69
438.21	690.46
438.40	601.52
438.58	638.97
438.77	643.65
438.96	587.47
439.14	627.26
439.33	643.65
439.52	629.60
439.70	634.29
439.89	624.92
440.08	678.76
440.26	699.82
440.45	636.63
440.63	685.78
440.82	636.63
441.01	594.50
441.19	615.56
441.38	688.12
441.57	638.97
441.75	664.71
441.94	638.97
442.12	664.71
442.31	573.43
442.50	662.37
442.68	601.52
442.87	650.67
443.05	667.05
443.24	667.05
443.43	660.03
443.61	608.54
443.80	657.69
443.98	636.63
444.17	653.01
444.35	601.52
444.54	543.00
444.73	622.58
444.91	692.80
445.10	634.29
445.28	636.63
445.47	634.29
445.65	678.76
445.84	599.18
446.02	631.94
446.21	657.69
446.39	678.76
446.58	587.47
446.77	746.63
446.95	629.60
447.14	671.73
447.32	634.29
447.51	671.73
447.69	613.22
447.88	608.54
448.06	636.63
448.25	664.71
448.43	622.58
448.62	669.39
448.80	655.35
448.99	678.76
449.17	554.71
449.36	620.24
449.54	643.65
449.73	552.37
449.91	615.56
450.10	606.20
450.28	648.33
450.46	653.01
450.65	596.84
450.83	648.33
451.02	648.33
451.20	650.67
451.39	653.01
451.57	631.94
451.76	697.48
451.94	685.78
452.13	692.80
452.31	667.05
452.49	669.39
452.68	601.52
452.86	664.71
453.05	674.07
453.23	589.82
453.42	582.79
453.60	638.97
453.78	594.50
453.97	613.22
454.15	638.97
454.34	674.07
454.52	606.20
454.70	629.60
454.89	650.67
455.07	603.86
455.26	667.05
455.44	678.76
455.62	662.37
455.81	606.20
455.99	638.97
456.17	671.73
456.36	650.67
456.54	634.29
456.73	695.14
456.91	603.86
457.09	610.88
457.28	636.63
457.46	650.67
457.64	631.94
457.83	589.82
458.01	606.20
458.19	601.52
458.38	627.26
458.56	620.24
458.74	592.16
458.93	671.73
459.11	603.86
459.29	667.05
459.48	650.67
459.66	653.01
459.84	624.92
460.03	629.60
460.21	706.84
460.39	704.50
460.57	653.01
460.76	615.56
460.94	594.50
461.12	638.97
461.31	699.82
461.49	634.29
461.67	580.45
461.85	608.54
462.04	547.69
462.22	936.21
462.40	657.69
462.59	664.71
462.77	671.73
462.95	678.76
463.13	664.71
463.32	692.80
463.50	645.99
463.68	648.33
463.86	596.84
464.05	655.35
464.23	636.63
464.41	674.07
464.59	643.65
464.78	603.86
464.96	634.29
465.14	620.24
465.32	695.14
465.50	711.52
465.69	620.24
465.87	669.39
466.05	645.99
466.23	559.39
466.41	615.56
466.60	645.99
466.78	606.20
466.96	634.29
467.14	638.97
467.32	594.50
467.51	620.24
467.69	671.73
467.87	725.57
468.05	564.07
468.23	603.86
468.41	622.58
468.60	648.33
468.78	613.22
468.96	641.31
469.14	648.33
469.32	545.34
469.50	606.20
469.69	613.22
469.87	599.18
470.05	610.88
470.23	683.44
470.41	641.31
470.59	664.71
470.77	615.56
470.95	566.41
471.14	655.35
471.32	641.31
471.50	702.16
471.68	669.39
471.86	692.80
472.04	578.11
472.22	678.76
472.40	641.31
472.58	561.73
472.77	629.60
472.95	648.33
473.13	667.05
473.31	629.60
473.49	594.50
473.67	643.65
473.85	664.71
474.03	667.05
474.21	648.33
474.39	657.69
474.57	667.05
474.75	592.16
474.93	594.50
475.12	624.92
475.30	578.11
475.48	697.48
475.66	592.16
475.84	657.69
476.02	678.76
476.20	730.25
476.38	671.73
476.56	610.88
476.74	575.77
476.92	564.07
477.10	610.88
477.28	624.92
477.46	648.33
477.64	688.12
477.82	683.44
478.00	653.01
478.18	587.47
478.36	638.97
478.54	608.54
478.72	629.60
478.90	592.16
479.08	594.50
479.26	671.73
479.44	624.92
479.62	594.50
479.80	641.31
479.98	629.60
480.16	589.82
480.34	674.07
480.52	704.50
480.70	695.14
480.88	678.76
481.06	667.05
481.24	613.22
481.41	692.80
481.59	676.41
481.77	711.52
481.95	650.67
482.13	624.92
482.31	683.44
482.49	667.05
482.67	664.71
482.85	638.97
483.03	657.69
483.21	692.80
483.39	723.23
483.57	641.31
483.74	772.38
483.92	692.80
484.10	713.86
484.28	648.33
484.46	692.80
484.64	643.65
484.82	702.16
485.00	739.61
485.18	795.78
485.35	683.44
485.53	739.61
485.71	683.44
485.89	704.50
486.07	692.80
486.25	807.48
486.43	713.86
486.61	683.44
486.78	709.18
486.96	748.97
487.14	699.82
487.32	730.25
487.50	720.88
487.68	788.76
487.85	702.16
488.03	676.41
488.21	734.93
488.39	732.59
488.57	688.12
488.75	727.91
488.92	718.54
489.10	777.06
489.28	765.36
489.46	744.29
489.64	723.23
489.81	683.44
489.99	718.54
490.17	648.33
490.35	704.50
490.53	683.44
490.70	685.78
490.88	739.61
491.06	695.14
491.24	702.16
491.41	732.59
491.59	744.29
491.77	727.91
491.95	716.20
492.13	716.20
492.30	671.73
492.48	671.73
492.66	681.10
492.84	669.39
493.01	678.76
493.19	676.41
493.37	734.93
493.54	737.27
493.72	692.80
493.90	690.46
494.08	657.69
494.25	737.27
494.43	713.86
494.61	660.03
494.79	732.59
494.96	760.67
495.14	718.54
495.32	636.63
495.49	657.69
495.67	653.01
495.85	676.41
496.02	760.67
496.20	638.97
496.38	681.10
496.55	681.10
496.73	683.44
496.91	718.54
497.09	746.63
497.26	645.99
497.44	725.57
497.62	753.65
497.79	683.44
497.97	681.10
498.14	688.12
498.32	688.12
498.50	648.33
498.67	613.22
498.85	674.07
499.03	571.09
499.20	655.35
499.38	697.48
499.56	655.35
499.73	692.80
499.91	683.44
500.08	653.01
500.26	685.78
500.44	685.78
500.61	723.23
500.79	641.31
500.97	634.29
501.14	664.71
501.32	692.80
501.49	753.65
501.67	653.01
501.84	638.97
502.02	676.41
502.20	697.48
502.37	676.41
502.55	641.31
502.72	664.71
502.90	699.82
503.07	645.99
503.25	594.50
503.43	599.18
503.60	636.63
503.78	641.31
503.95	634.29
504.13	650.67
504.30	660.03
504.48	638.97
504.65	643.65
504.83	664.71
505.01	589.82
505.18	664.71
505.36	622.58
505.53	645.99
505.71	557.05
505.88	657.69
506.06	594.50
506.23	599.18
506.41	596.84
506.58	636.63
506.76	634.29
506.93	657.69
507.11	667.05
507.28	615.56
507.46	603.86
507.63	746.63
507.81	585.13
507.98	603.86
508.16	655.35
508.33	631.94
508.50	657.69
508.68	641.31
508.85	653.01
509.03	601.52
509.20	601.52
509.38	662.37
509.55	634.29
509.73	622.58
509.90	671.73
510.08	641.31
510.25	634.29
510.42	615.56
510.60	620.24
510.77	681.10
510.95	667.05
511.12	580.45
511.30	629.60
511.47	697.48
511.64	711.52
511.82	678.76
511.99	608.54
512.17	667.05
512.34	592.16
512.51	620.24
512.69	634.29
512.86	683.44
513.04	645.99
513.21	657.69
513.38	634.29
513.56	610.88
513.73	606.20
513.90	671.73
514.08	608.54
514.25	723.23
514.43	648.33
514.60	681.10
514.77	613.22
514.95	653.01
515.12	653.01
515.29	667.05
515.47	657.69
515.64	638.97
515.81	638.97
515.99	669.39
516.16	634.29
516.33	641.31
516.51	662.37
516.68	617.90
516.85	683.44
517.03	695.14
517.20	688.12
517.37	631.94
517.54	667.05
517.72	671.73
517.89	664.71
518.06	643.65
518.24	674.07
518.41	608.54
518.58	622.58
518.75	627.26
518.93	575.77
519.10	566.41
519.27	580.45
519.45	657.69
519.62	692.80
519.79	671.73
519.96	608.54
520.14	664.71
520.31	653.01
520.48	648.33
520.65	636.63
520.83	650.67
521.00	624.92
521.17	648.33
521.34	655.35
521.52	638.97
521.69	641.31
521.86	660.03
522.03	655.35
522.20	613.22
522.38	582.79
522.55	624.92
522.72	664.71
522.89	641.31
523.07	610.88
523.24	636.63
523.41	566.41
523.58	599.18
523.75	613.22
523.92	657.69
524.10	643.65
524.27	678.76
524.44	718.54
524.61	671.73
524.78	697.48
524.96	660.03
525.13	674.07
525.30	629.60
525.47	706.84
525.64	784.08
525.81	650.67
525.98	629.60
526.16	641.31
526.33	634.29
526.50	704.50
526.67	685.78
526.84	706.84
527.01	657.69
527.18	622.58
527.36	699.82
527.53	608.54
527.70	641.31
527.87	634.29
528.04	669.39
528.21	718.54
528.38	718.54
528.55	660.03
528.72	620.24
528.89	608.54
529.07	685.78
529.24	636.63
529.41	650.67
529.58	653.01
529.75	603.86
529.92	617.90
530.09	606.20
530.26	662.37
530.43	620.24
530.60	678.76
530.77	638.97
530.94	643.65
531.11	636.63
531.28	634.29
531.46	608.54
531.63	671.73
531.80	638.97
531.97	624.92
532.14	755.99
532.31	634.29
532.48	678.76
532.65	648.33
532.82	674.07
532.99	716.20
533.16	718.54
533.33	720.88
533.50	688.12
533.67	706.84
533.84	730.25
534.01	681.10
534.18	645.99
534.35	681.10
534.52	704.50
534.69	697.48
534.86	692.80
535.03	669.39
535.20	645.99
535.37	713.86
535.54	669.39
535.71	683.44
535.88	699.82
536.05	744.29
536.22	657.69
536.38	681.10
536.55	690.46
536.72	763.01
536.89	645.99
537.06	737.27
537.23	779.40
537.40	720.88
537.57	751.31
537.74	758.33
537.91	763.01
538.08	720.88
538.25	695.14
538.42	746.63
538.59	786.42
538.75	737.27
538.92	781.74
539.09	751.31
539.26	744.29
539.43	926.85
539.60	870.68
539.77	868.34
539.94	901.11
540.11	922.17
540.28	954.94
540.44	915.15
540.61	1027.50
540.78	1029.84
540.95	1074.31
541.12	1200.69
541.29	1224.10
541.46	1322.40
541.62	1231.12
541.79	1240.48
541.96	1252.19
542.13	1296.66
542.30	1198.35
542.47	1254.53
542.63	1259.21
542.80	1196.01
542.97	1240.48
543.14	1252.19
543.31	1231.12
543.48	1219.42
543.64	1156.22
543.81	1231.12
543.98	1259.21
544.15	1198.35
544.32	1165.59
544.48	1235.80
544.65	1282.61
544.82	1198.35
544.99	1238.14
545.16	1188.99
545.32	1196.01
545.49	1638.38
545.66	1949.67
545.83	2172.02
546.00	1970.73
546.16	1678.16
546.33	1467.52
546.50	1296.66
546.67	1238.14
546.83	1109.41
547.00	1095.37
547.17	976.00
547.34	997.07
547.50	966.64
547.67	997.07
547.84	1008.77
548.00	933.87
548.17	908.13
548.34	870.68
548.51	903.45
548.67	926.85
548.84	957.28
549.01	889.40
549.18	908.13
549.34	901.11
549.51	924.51
549.68	924.51
549.84	901.11
550.01	814.51
550.18	861.32
550.34	823.87
550.51	849.61
550.68	856.64
550.84	826.21
551.01	791.10
551.18	751.31
551.34	821.53
551.51	772.38
551.68	760.67
551.84	835.57
552.01	709.18
552.18	777.06
552.34	823.87
552.51	779.40
552.68	758.33
552.84	716.20
553.01	812.17
553.18	770.04
553.34	746.63
553.51	805.14
553.67	753.65
553.84	711.52
554.01	814.51
554.17	699.82
554.34	676.41
554.51	674.07
554.67	730.25
554.84	645.99
555.00	777.06
555.17	706.84
555.33	692.80
555.50	688.12
555.67	711.52
555.83	763.01
556.00	634.29
556.16	786.42
556.33	681.10
556.50	662.37
556.66	671.73
556.83	660.03
556.99	641.31
557.16	641.31
557.32	645.99
557.49	650.67
557.65	667.05
557.82	650.67
557.98	744.29
558.15	650.67
558.32	603.86
558.48	645.99
558.65	617.90
558.81	723.23
558.98	662.37
559.14	699.82
559.31	674.07
559.47	641.31
559.64	571.09
559.80	720.88
559.97	657.69
560.13	741.95
560.30	688.12
560.46	655.35
560.63	650.67
560.79	697.48
560.96	678.76
561.12	638.97
561.29	709.18
561.45	671.73
561.61	725.57
561.78	713.86
561.94	674.07
562.11	671.73
562.27	664.71
562.44	699.82
562.60	634.29
562.77	692.80
562.93	683.44
563.10	627.26
563.26	653.01
563.42	636.63
563.59	627.26
563.75	706.84
563.92	678.76
564.08	683.44
564.24	653.01
564.41	681.10
564.57	641.31
564.74	671.73
564.90	692.80
565.07	695.14
565.23	709.18
565.39	692.80
565.56	660.03
565.72	589.82
565.88	667.05
566.05	641.31
566.21	615.56
566.38	704.50
566.54	704.50
566.70	650.67
566.87	674.07
567.03	589.82
567.19	667.05
567.36	720.88
567.52	676.41
567.68	566.41
567.85	653.01
568.01	798.12
568.17	638.97
568.34	688.12
568.50	660.03
568.66	692.80
568.83	631.94
568.99	620.24
569.15	653.01
569.32	629.60
569.48	624.92
569.64	690.46
569.81	617.90
569.97	723.23
570.13	650.67
570.30	629.60
570.46	685.78
570.62	648.33
570.78	674.07
570.95	681.10
571.11	678.76
571.27	690.46
571.43	676.41
571.60	655.35
571.76	645.99
571.92	688.12
572.09	660.03
572.25	727.91
572.41	641.31
572.57	653.01
572.74	681.10
572.90	662.37
573.06	660.03
573.22	662.37
573.38	704.50
573.55	662.37
573.71	645.99
573.87	697.48
574.03	636.63
574.20	699.82
574.36	730.25
574.52	678.76
574.68	671.73
574.84	643.65
575.01	653.01
575.17	634.29
575.33	706.84
575.49	664.71
575.65	645.99
575.82	711.52
575.98	664.71
576.14	624.92
576.30	760.67
576.46	788.76
576.62	847.27
576.79	943.24
576.95	903.45
577.11	807.48
577.27	725.57
577.43	791.10
577.59	830.89
577.75	744.29
577.92	706.84
578.08	697.48
578.24	657.69
578.40	683.44
578.56	739.61
578.72	837.91
578.88	877.70
579.04	884.72
579.21	784.08
579.37	725.57
579.53	833.23
579.69	858.98
579.85	816.85
580.01	791.10
580.17	732.59
580.33	748.97
580.49	753.65
580.65	777.06
580.82	716.20
580.98	690.46
581.14	800.46
581.30	755.99
581.46	763.01
581.62	732.59
581.78	753.65
581.94	779.40
582.10	758.33
582.26	767.70
582.42	800.46
582.58	765.36
582.74	816.85
582.90	786.42
583.06	788.76
583.22	840.25
583.38	812.17
583.54	755.99
583.70	786.42
583.86	751.31
584.02	779.40
584.18	774.72
584.34	840.25
584.50	854.30
584.66	802.80
584.82	795.78
584.98	814.51
585.14	744.29
585.30	711.52
585.46	760.67
585.62	765.36
585.78	753.65
585.94	763.01
586.10	751.31
586.26	739.61
586.42	702.16
586.58	793.44
586.74	800.46
586.90	840.25
587.06	940.90
587.22	898.77
587.38	908.13
587.54	823.87
587.70	833.23
587.86	767.70
588.02	802.80
588.18	765.36
588.34	763.01
588.49	720.88
588.65	758.33
588.81	753.65
588.97	770.04
589.13	725.57
589.29	772.38
589.45	697.48
589.61	683.44
589.77	711.52
589.93	748.97
590.08	730.25
590.24	718.54
590.40	676.41
590.56	723.23
590.72	697.48
590.88	800.46
591.04	746.63
591.20	706.84
591.35	711.52
591.51	774.72
591.67	674.07
591.83	779.40
591.99	755.99
592.15	816.85
592.31	777.06
592.46	807.48
592.62	821.53
592.78	786.42
592.94	866.00
593.10	777.06
593.26	877.70
593.41	816.85
593.57	725.57
593.73	774.72
593.89	744.29
594.05	744.29
594.20	713.86
594.36	711.52
594.52	739.61
594.68	741.95
594.84	671.73
594.99	662.37
595.15	638.97
595.31	718.54
595.47	685.78
595.62	704.50
595.78	770.04
595.94	685.78
596.10	781.74
596.25	727.91
596.41	655.35
596.57	660.03
596.73	678.76
596.88	723.23
597.04	683.44
597.20	706.84
597.36	699.82
597.51	641.31
597.67	664.71
597.83	732.59
597.99	678.76
598.14	702.16
598.30	809.83
598.46	699.82
598.61	720.88
598.77	732.59
598.93	718.54
599.09	634.29
599.24	812.17
599.40	725.57
599.56	732.59
599.71	760.67
599.87	739.61
600.03	674.07
600.18	777.06
600.34	720.88
600.50	755.99
600.65	704.50
600.81	770.04
600.97	655.35
601.12	723.23
601.28	760.67
601.44	645.99
601.59	685.78
601.75	716.20
601.91	720.88
602.06	730.25
602.22	681.10
602.37	683.44
602.53	720.88
602.69	704.50
602.84	669.39
603.00	697.48
603.16	641.31
603.31	716.20
603.47	697.48
603.62	702.16
603.78	660.03
603.94	716.20
604.09	657.69
604.25	620.24
604.40	697.48
604.56	678.76
604.71	683.44
604.87	657.69
605.03	702.16
605.18	716.20
605.34	674.07
605.49	610.88
605.65	695.14
605.80	648.33
605.96	685.78
606.12	676.41
606.27	732.59
606.43	723.23
606.58	645.99
606.74	688.12
606.89	711.52
607.05	727.91
607.20	746.63
607.36	751.31
607.51	641.31
607.67	737.27
607.82	739.61
607.98	730.25
608.13	737.27
608.29	772.38
608.44	753.65
608.60	751.31
608.75	793.44
608.91	739.61
609.06	767.70
609.22	880.04
609.37	863.66
609.53	870.68
609.68	896.43
