SpectraSuite Data File
++++++++++++++++++++++++++++++++++++
Date: Thu Oct 24 13:21:34 EDT 2013
User: stostad
Dark Spectrum Present: No
Reference Spectrum Present: No
Number of Sampled Component Spectra: 1
Spectrometers: USB2+H05261
Integration Time (usec): 100000 (USB2+H05261)
Spectra Averaged: 1 (USB2+H05261)
Boxcar Smoothing: 0 (USB2+H05261)
Correct for Electrical Dark: No (USB2+H05261)
Strobe/Lamp Enabled: No (USB2+H05261)
Correct for Detector Non-linearity: No (USB2+H05261)
Correct for Stray Light: No (USB2+H05261)
Number of Pixels in Processed Spectrum: 2048
>>>>>Begin Processed Spectral Data<<<<<
365.73	545.34
365.92	545.34
366.12	545.34
366.32	550.03
366.52	505.56
366.72	535.98
366.91	442.36
367.11	465.77
367.31	430.66
367.51	444.70
367.70	465.77
367.90	470.45
368.10	393.21
368.30	458.74
368.49	411.93
368.69	531.30
368.89	512.58
369.09	550.03
369.28	512.58
369.48	526.62
369.68	521.94
369.87	582.79
370.07	566.41
370.27	543.00
370.47	718.54
370.66	1167.93
370.86	1172.61
371.06	1179.63
371.25	1245.16
371.45	1263.89
371.65	1252.19
371.84	1282.61
372.04	1240.48
372.24	1256.87
372.44	1336.45
372.63	1294.32
372.83	1352.83
373.03	1273.25
373.22	1284.95
373.42	1458.15
373.62	1409.00
373.81	1313.04
374.01	1481.56
374.21	1448.79
374.40	1444.11
374.60	1460.49
374.79	1394.96
374.99	1511.99
375.19	1458.15
375.38	1467.52
375.58	1514.33
375.78	1582.20
375.97	1488.58
376.17	1568.16
376.37	1476.88
376.56	1535.39
376.76	1533.05
376.95	1549.43
377.15	1500.28
377.35	1528.37
377.54	1526.03
377.74	1619.65
377.93	1551.78
378.13	1682.85
378.33	1708.59
378.52	1666.46
378.72	1671.14
378.91	1659.44
379.11	1732.00
379.31	1617.31
379.50	1645.40
379.70	1717.95
379.89	1743.70
380.09	1732.00
380.28	1743.70
380.48	1753.06
380.68	1741.36
380.87	1640.72
381.07	1799.87
381.26	1720.29
381.46	1797.53
381.65	1816.26
381.85	1799.87
382.04	1820.94
382.24	1795.19
382.43	1849.02
382.63	1865.41
382.83	1905.20
383.02	1914.56
383.22	1921.58
383.41	1853.70
383.61	1916.90
383.80	1872.43
384.00	2019.88
384.19	1900.52
384.39	1973.07
384.58	1984.77
384.78	1914.56
384.97	1877.11
385.17	1877.11
385.36	1959.03
385.56	2038.61
385.75	1935.62
385.95	2017.54
386.14	1989.46
386.34	1942.64
386.53	2104.14
386.72	2024.56
386.92	2118.18
387.11	2132.23
387.31	2146.27
387.50	2108.82
387.70	2179.04
387.89	2066.69
388.09	2263.30
388.28	2207.13
388.48	2251.60
388.67	2237.55
388.86	2197.76
389.06	2143.93
389.25	2223.51
389.45	2293.72
389.64	2230.53
389.84	2193.08
390.03	2263.30
390.22	2282.02
390.42	2305.43
390.61	2394.37
390.81	2368.62
391.00	2483.31
391.19	2485.65
391.39	2434.16
391.58	2448.20
391.78	2448.20
391.97	2354.58
392.16	2487.99
392.36	2546.50
392.55	2464.58
392.75	2499.69
392.94	2427.14
393.13	2541.82
393.33	2497.35
393.52	2633.10
393.71	2518.42
393.91	2640.12
394.10	2605.02
394.29	2640.12
394.49	2614.38
394.68	2691.62
394.88	2724.38
395.07	2773.53
395.26	2825.03
395.46	2752.47
395.65	2806.30
395.84	2703.32
396.04	2864.82
396.23	2942.05
396.42	2932.69
396.62	2998.23
396.81	2780.56
397.00	2796.94
397.19	2883.54
397.39	2923.33
397.58	2939.71
397.77	2850.77
397.97	2972.48
398.16	2967.80
398.35	3059.08
398.55	2991.20
398.74	3143.34
398.93	3077.80
399.12	3110.57
399.32	3005.25
399.51	3136.32
399.70	3225.26
399.90	3131.64
400.09	3323.56
400.28	3239.30
400.47	3234.62
400.67	3382.07
400.86	3332.92
401.05	3346.97
401.24	3325.90
401.44	3361.01
401.63	3379.73
401.82	3496.76
402.01	3419.52
402.21	3293.13
402.40	3386.76
402.59	3616.13
402.78	3485.06
402.97	3562.30
403.17	3705.07
403.36	3646.55
403.55	3599.74
403.74	3655.92
403.93	3676.98
404.13	3716.77
404.32	3805.71
404.51	3679.32
404.70	3794.01
404.89	3845.50
405.09	3875.93
405.28	3939.12
405.47	3871.25
405.66	3946.14
405.85	3922.74
406.05	3866.56
406.24	3913.38
406.43	4004.66
406.62	4077.21
406.81	4060.83
407.00	4065.51
407.20	4023.38
407.39	4065.51
407.58	4231.69
407.77	4294.88
407.96	4138.07
408.15	4278.50
408.34	4201.26
408.54	4301.90
408.73	4290.20
408.92	4329.99
409.11	4308.93
409.30	4308.93
409.49	4404.89
409.68	4493.83
409.87	4505.53
410.07	4599.15
410.26	4578.09
410.45	4685.75
410.64	4514.89
410.83	4615.54
411.02	4868.31
411.21	4905.76
411.40	4744.27
411.59	4851.93
411.78	4898.74
411.98	4849.59
412.17	4938.53
412.36	5081.30
412.55	4975.98
412.74	5076.62
412.93	5050.88
413.12	5018.11
413.31	5303.65
413.50	5261.52
413.69	5142.16
413.88	5273.23
414.07	5406.64
414.26	5380.89
414.45	5631.33
414.64	5493.24
414.83	5621.97
415.02	5640.69
415.22	5696.86
415.41	5753.04
415.60	5654.73
415.79	5799.85
415.98	5954.32
416.17	5816.23
416.36	5863.04
416.55	5954.32
416.74	5928.58
416.93	5970.71
417.12	6031.56
417.31	6094.76
417.50	6225.82
417.69	6340.51
417.88	6253.91
418.07	6200.08
418.26	6560.52
418.45	6408.39
418.64	6558.18
418.83	6494.99
419.02	6579.25
419.21	6616.69
419.39	6703.29
419.58	6509.03
419.77	6593.29
419.96	6654.14
420.15	6672.87
420.34	6787.55
420.53	6761.81
420.72	6743.08
420.91	6869.47
421.10	6927.99
421.29	7040.33
421.48	6857.77
421.67	6951.39
421.86	7028.63
422.05	6895.22
422.24	6920.96
422.43	7136.29
422.61	7026.29
422.80	7307.15
422.99	7328.22
423.18	7290.77
423.37	7262.68
423.56	7155.02
423.75	7194.81
423.94	6986.50
424.13	6576.91
424.32	6906.92
424.50	7328.22
424.69	7351.62
424.88	7351.62
425.07	7239.28
425.26	7204.17
425.45	7162.04
425.64	7297.79
425.83	7173.74
426.01	7321.20
426.20	7351.62
426.39	7534.18
426.58	7384.39
426.77	7487.37
426.96	7438.22
427.15	7368.01
427.33	7524.82
427.52	7569.29
427.71	7721.43
427.90	7620.78
428.09	7810.37
428.28	7894.63
428.46	7789.30
428.65	7669.94
428.84	8072.51
429.03	8030.38
429.22	7932.08
429.40	8081.87
429.59	8037.40
429.78	7880.58
429.97	7478.01
430.16	7971.86
430.34	8056.12
430.53	8037.40
430.72	8280.82
430.91	8128.68
431.10	8098.25
431.28	8400.18
431.47	8269.11
431.66	8393.16
431.85	8327.63
432.03	8669.34
432.22	8657.64
432.41	8638.92
432.60	8477.42
432.79	8606.15
432.97	8737.22
433.16	8631.90
433.35	8671.68
433.54	8919.78
433.72	9231.07
433.91	9022.77
434.10	8980.64
434.28	8954.89
434.47	8966.59
434.66	8915.10
434.85	9191.28
435.03	9097.66
435.22	9334.06
435.41	9584.49
435.59	9474.49
435.78	9406.61
435.97	9493.21
436.16	9296.61
436.34	9254.48
436.53	9654.71
436.72	9425.34
436.90	9289.59
437.09	9446.40
437.28	9350.44
437.46	9558.75
437.65	9544.70
437.84	9753.01
438.02	9820.89
438.21	9500.23
438.40	9638.33
438.58	10001.11
438.77	10370.91
438.96	9951.96
439.14	10356.87
439.33	10366.23
439.52	10377.94
439.70	10375.59
439.89	10679.86
440.08	10609.65
440.26	10574.54
440.45	10422.41
440.63	10738.38
440.82	11122.23
441.01	10796.89
441.19	10981.79
441.38	11066.05
441.57	11122.23
441.75	11393.73
441.94	11489.69
442.12	11496.71
442.31	11522.46
442.50	11653.53
442.68	11295.43
442.87	11370.32
443.05	11564.59
443.24	11702.68
443.43	11840.77
443.61	11585.65
443.80	12009.29
443.98	11550.54
444.17	11367.98
444.35	11552.88
444.54	12053.76
444.73	11742.47
444.91	11910.99
445.10	11922.69
445.28	11922.69
445.47	11861.84
445.65	11950.78
445.84	12016.31
446.02	12264.41
446.21	12168.45
446.39	12198.87
446.58	12217.60
446.77	12283.13
446.95	12037.38
447.14	12121.63
447.32	12212.92
447.51	12343.99
447.69	12095.89
447.88	12374.41
448.06	12362.71
448.25	12318.24
448.43	12379.09
448.62	12205.89
448.80	12465.69
448.99	12355.69
449.17	12439.95
449.36	12505.48
449.54	12461.01
449.73	12842.52
449.91	12971.25
450.10	12898.69
450.28	13022.74
450.46	13151.47
450.65	13043.81
450.83	13032.10
451.02	13018.06
451.20	13453.40
451.39	13074.23
451.57	13226.37
451.76	13034.44
451.94	13268.50
452.13	13256.79
452.31	13605.53
452.49	13247.43
452.68	13518.93
452.86	13282.54
453.05	13451.06
453.23	13724.90
453.42	13521.27
453.60	13310.63
453.78	13788.10
453.97	13619.58
454.15	13654.69
454.34	13589.15
454.52	13907.46
454.70	13933.21
454.89	13818.52
455.07	14033.85
455.26	14122.79
455.44	14359.19
455.62	14391.95
455.81	14038.53
455.99	14443.45
456.17	14581.54
456.36	14104.07
456.54	14523.02
456.73	14761.76
456.91	15267.31
457.09	14956.02
457.28	15040.28
457.46	15051.99
457.64	15183.06
457.83	14813.25
458.01	15070.71
458.19	15454.56
458.38	15080.07
458.56	15346.89
458.74	15274.34
458.93	15468.60
459.11	15393.70
459.29	15428.81
459.48	15697.97
459.66	15400.72
459.84	15630.10
460.03	15978.84
460.21	15756.49
460.39	15730.74
460.57	15873.51
460.76	15981.18
460.94	15983.52
461.12	15964.79
461.31	16212.89
461.49	16020.97
461.67	16023.31
461.85	16484.39
462.04	16255.02
462.22	16840.15
462.40	16734.83
462.59	16580.36
462.77	16341.62
462.95	16741.85
463.13	16971.22
463.32	16580.36
463.50	16613.12
463.68	16929.09
463.86	16945.48
464.05	16884.62
464.23	16882.28
464.41	17156.13
464.59	16772.28
464.78	17525.93
464.96	17308.26
465.14	17123.36
465.32	17153.79
465.50	17357.41
465.69	17614.87
465.87	17284.86
466.05	17268.47
466.23	17568.06
466.41	17432.31
466.60	17778.71
466.78	17778.71
466.96	17757.64
467.14	17774.03
467.32	17862.97
467.51	18029.15
467.69	17659.34
467.87	17741.26
468.05	17942.55
468.23	17886.37
468.41	17647.64
468.60	18295.97
468.78	18572.15
468.96	18108.72
469.14	18436.40
469.32	18649.39
469.50	18230.43
469.69	18462.15
469.87	18960.68
470.05	18820.25
470.23	19201.76
470.41	19019.19
470.59	19176.01
470.77	18923.23
470.95	18927.91
471.14	19625.39
471.32	19014.51
471.50	19611.35
471.68	19356.23
471.86	19543.47
472.04	19440.49
472.22	20119.24
472.40	20056.05
472.58	19924.98
472.77	19981.15
472.95	20067.75
473.13	20805.02
473.31	20285.42
473.49	20802.68
473.67	20266.70
473.85	20540.54
474.03	20884.60
474.21	20961.84
474.39	21287.17
474.57	20819.07
474.75	21287.17
474.93	21954.22
475.12	21542.29
475.30	21764.64
475.48	21713.15
475.66	22080.61
475.84	22054.87
476.02	22017.42
476.20	22384.88
476.38	22436.38
476.56	22972.36
476.74	22869.37
476.92	23175.98
477.10	22911.50
477.28	23281.31
477.46	23316.42
477.64	23676.86
477.82	23875.80
478.00	24407.11
478.18	24151.99
478.36	24587.33
478.54	24903.30
478.72	24617.75
478.90	24987.56
479.08	25247.36
479.26	25369.07
479.44	25394.81
479.62	25869.94
479.80	25862.92
479.98	25891.01
480.16	26745.30
480.34	26424.65
480.52	26820.20
480.70	26897.44
480.88	26527.63
481.06	27014.46
481.24	26890.41
481.41	27608.96
481.59	27985.79
481.77	28479.64
481.95	28458.57
482.13	28584.96
482.31	28589.64
482.49	29111.58
482.67	29001.58
482.85	29429.90
483.03	29923.75
483.21	30029.07
483.39	30352.07
483.57	29869.92
483.74	30384.83
483.92	31089.34
484.10	30574.42
484.28	31112.74
484.46	31913.20
484.64	32273.65
484.82	31805.54
485.00	32161.30
485.18	32301.73
485.35	33422.85
485.53	33186.46
485.71	33371.36
485.89	33687.33
486.07	33329.23
486.25	33912.02
486.43	33776.27
486.61	34314.59
486.78	34522.90
486.96	34951.22
487.14	35414.65
487.32	35833.60
487.50	35412.31
487.68	35803.17
487.85	36795.56
488.03	36807.26
488.21	37132.60
488.39	37031.96
488.57	37202.82
488.75	37731.78
488.92	37963.49
489.10	38073.49
489.28	38380.10
489.46	38501.81
489.64	39021.41
489.81	39548.03
489.99	39454.41
490.17	39438.03
490.35	40086.36
490.53	39849.96
490.70	40758.09
490.88	40414.03
491.06	41205.13
491.24	40985.12
491.41	41322.16
491.59	42082.83
491.77	42014.96
491.95	42604.77
492.13	42611.79
492.30	42569.66
492.48	42990.96
492.66	43103.31
492.84	43456.73
493.01	43962.28
493.19	44013.77
493.37	44236.12
493.54	44308.68
493.72	45076.38
493.90	44821.26
494.08	45202.77
494.25	45687.26
494.43	45291.71
494.61	45846.41
494.79	46326.22
494.96	45823.01
495.14	46213.88
495.32	46899.65
495.49	46890.29
495.67	47168.82
495.85	47435.64
496.02	47779.70
496.20	47927.15
496.38	48020.77
496.55	48072.26
496.73	49198.06
496.91	48123.75
497.09	49172.31
497.26	49050.61
497.44	48774.42
497.62	49378.28
497.79	49736.38
497.97	49507.01
498.14	50483.01
498.32	50373.01
498.50	50408.12
498.67	50534.51
498.85	50642.17
499.03	50941.76
499.20	50850.48
499.38	51278.80
499.56	51337.31
499.73	51538.60
499.91	51655.62
500.08	52121.39
500.26	51414.55
500.44	51952.87
500.61	52200.97
500.79	52048.83
500.97	52418.64
501.14	52921.85
501.32	52633.97
501.49	52624.60
501.67	52947.60
501.84	53240.17
502.02	52870.36
502.20	53205.06
502.37	53406.34
502.55	53364.21
502.72	53418.05
502.90	53495.28
503.07	53717.64
503.25	53567.84
503.43	53839.34
503.60	54066.38
503.78	54260.64
503.95	53986.80
504.13	54052.33
504.30	54494.69
504.48	54288.73
504.65	54944.08
504.83	54930.03
505.01	54962.80
505.18	54817.69
505.36	54986.21
505.53	55002.59
505.71	54976.84
505.88	55447.29
506.06	55173.45
506.23	55538.57
506.41	55519.85
506.58	55529.21
506.76	55896.67
506.93	55929.44
507.11	55908.38
507.28	56212.65
507.46	56217.33
507.63	56329.67
507.81	56303.93
507.98	56128.39
508.16	56193.92
508.33	56720.54
508.50	56617.56
508.68	56917.15
508.85	56662.03
509.03	56786.08
509.20	56963.96
509.38	57148.86
509.55	57172.27
509.73	57228.44
509.90	57394.62
510.08	57485.90
510.25	57279.93
510.42	57427.38
510.60	57497.60
510.77	57750.38
510.95	58028.90
511.12	57935.28
511.30	57977.41
511.47	57928.26
511.64	58035.92
511.82	58260.62
511.99	57860.38
512.17	58192.74
512.34	58131.89
512.51	58592.97
512.69	58738.08
512.86	58688.93
513.04	58894.90
513.21	58791.92
513.38	58712.34
513.56	58862.13
513.73	58805.96
513.90	59131.29
514.08	58995.54
514.25	59454.29
514.43	59131.29
514.60	59283.43
514.77	59288.11
514.95	59547.91
515.12	59489.40
515.29	59222.58
515.47	59817.07
515.64	59936.44
515.81	59702.38
515.99	59788.98
516.16	59877.93
516.33	59781.96
516.51	60095.60
516.68	60018.36
516.85	60140.07
517.03	60175.17
517.20	60336.67
517.37	60140.07
517.54	60083.89
517.72	60327.31
517.89	60327.31
518.06	60603.49
518.24	60650.30
518.41	60626.90
518.58	60577.75
518.75	60430.29
518.93	60748.60
519.10	60458.38
519.27	60797.76
519.45	61069.26
519.62	61116.07
519.79	60921.80
519.96	60954.57
520.14	61090.32
520.31	61137.13
520.48	61174.58
520.65	61085.64
520.83	61509.28
521.00	61544.39
521.17	61497.58
521.34	61591.20
521.52	61607.58
521.69	61567.79
521.86	61794.82
522.03	61666.09
522.20	61961.00
522.38	62005.47
522.55	62035.90
522.72	61932.92
522.89	62040.58
523.07	62138.88
523.24	62045.26
523.41	62141.22
523.58	62003.13
523.75	62419.75
523.92	62319.10
524.10	62557.84
524.27	62515.71
524.44	62489.96
524.61	62468.90
524.78	62438.47
524.96	62642.10
525.13	62700.61
525.30	62829.34
525.47	62859.77
525.64	62686.57
525.81	62784.87
525.98	63063.39
526.16	62810.62
526.33	62913.60
526.50	63018.92
526.67	63063.39
526.84	63110.20
527.01	63227.23
527.18	63372.34
527.36	63224.89
527.53	63194.46
527.70	63402.77
527.87	63353.62
528.04	63355.96
528.21	63370.00
528.38	63388.73
528.55	63655.55
528.72	63611.08
528.89	63447.24
529.07	63810.03
529.24	63276.38
529.41	63772.58
529.58	63758.53
529.75	63913.01
529.92	63821.73
530.09	64008.97
530.26	63742.15
530.43	63732.79
530.60	63819.39
530.77	63891.94
530.94	64062.80
531.11	64069.82
531.28	64140.04
531.46	64158.76
531.63	64362.39
531.80	64282.81
531.97	64268.77
532.14	64336.65
532.31	64322.60
532.48	64308.56
532.65	64685.39
532.82	64561.34
532.99	64423.25
533.16	64434.95
533.33	64500.48
533.50	64631.55
533.67	64402.18
533.84	64509.85
534.01	64811.77
534.18	64764.96
534.35	64856.24
534.52	64661.98
534.69	65066.89
534.86	64858.59
535.03	64685.39
535.20	64867.95
535.37	64987.31
535.54	65389.89
535.71	64903.06
535.88	65277.54
536.05	65169.88
536.22	65104.34
536.38	65392.23
536.55	65179.24
536.72	65158.17
536.89	65223.71
537.06	65359.46
537.23	65535.00
537.40	65312.65
537.57	65230.73
537.74	65499.89
537.91	65443.72
538.08	65478.83
538.25	65518.62
538.42	65535.00
538.59	65535.00
538.75	65535.00
538.92	65535.00
539.09	65535.00
539.26	65535.00
539.43	65535.00
539.60	65535.00
539.77	65535.00
539.94	65535.00
540.11	65535.00
540.28	65535.00
540.44	65535.00
540.61	65535.00
540.78	65535.00
540.95	65535.00
541.12	65535.00
541.29	65535.00
541.46	65535.00
541.62	65535.00
541.79	65535.00
541.96	65535.00
542.13	65535.00
542.30	65535.00
542.47	65535.00
542.63	65535.00
542.80	65535.00
542.97	65535.00
543.14	65535.00
543.31	65535.00
543.48	65535.00
543.64	65535.00
543.81	65535.00
543.98	65535.00
544.15	65535.00
544.32	65535.00
544.48	65535.00
544.65	65535.00
544.82	65535.00
544.99	65535.00
545.16	65535.00
545.32	65535.00
545.49	65535.00
545.66	65535.00
545.83	65535.00
546.00	65535.00
546.16	65535.00
546.33	65535.00
546.50	65535.00
546.67	65535.00
546.83	65535.00
547.00	65535.00
547.17	65535.00
547.34	65535.00
547.50	65535.00
547.67	65535.00
547.84	65535.00
548.00	65535.00
548.17	65535.00
548.34	65535.00
548.51	65535.00
548.67	65535.00
548.84	65535.00
549.01	65535.00
549.18	65535.00
549.34	65535.00
549.51	65535.00
549.68	65535.00
549.84	65535.00
550.01	65535.00
550.18	65535.00
550.34	65535.00
550.51	65535.00
550.68	65535.00
550.84	65535.00
551.01	65535.00
551.18	65535.00
551.34	65535.00
551.51	65535.00
551.68	65535.00
551.84	65535.00
552.01	65535.00
552.18	65535.00
552.34	65535.00
552.51	65535.00
552.68	65535.00
552.84	65535.00
553.01	65535.00
553.18	65535.00
553.34	65535.00
553.51	65535.00
553.67	65535.00
553.84	65535.00
554.01	65535.00
554.17	65535.00
554.34	65535.00
554.51	65535.00
554.67	65535.00
554.84	65535.00
555.00	65535.00
555.17	65535.00
555.33	65535.00
555.50	65535.00
555.67	65535.00
555.83	65535.00
556.00	65535.00
556.16	65535.00
556.33	65535.00
556.50	65535.00
556.66	65535.00
556.83	65535.00
556.99	65535.00
557.16	65535.00
557.32	65535.00
557.49	65535.00
557.65	65535.00
557.82	65535.00
557.98	65535.00
558.15	65535.00
558.32	65535.00
558.48	65535.00
558.65	65535.00
558.81	65535.00
558.98	65535.00
559.14	65535.00
559.31	65535.00
559.47	65535.00
559.64	65535.00
559.80	65535.00
559.97	65535.00
560.13	65535.00
560.30	65535.00
560.46	65535.00
560.63	65535.00
560.79	65535.00
560.96	65535.00
561.12	65535.00
561.29	65535.00
561.45	65535.00
561.61	65535.00
561.78	65535.00
561.94	65535.00
562.11	65535.00
562.27	65535.00
562.44	65535.00
562.60	65535.00
562.77	65535.00
562.93	65535.00
563.10	65535.00
563.26	65535.00
563.42	65535.00
563.59	65535.00
563.75	65535.00
563.92	65535.00
564.08	65535.00
564.24	65535.00
564.41	65535.00
564.57	65535.00
564.74	65535.00
564.90	65535.00
565.07	65535.00
565.23	65535.00
565.39	65535.00
565.56	65535.00
565.72	65535.00
565.88	65535.00
566.05	65535.00
566.21	65535.00
566.38	65535.00
566.54	65535.00
566.70	65535.00
566.87	65535.00
567.03	65535.00
567.19	65535.00
567.36	65535.00
567.52	65535.00
567.68	65535.00
567.85	65535.00
568.01	65535.00
568.17	65535.00
568.34	65535.00
568.50	65535.00
568.66	65535.00
568.83	65535.00
568.99	65535.00
569.15	65535.00
569.32	65535.00
569.48	65535.00
569.64	65535.00
569.81	65535.00
569.97	65535.00
570.13	65535.00
570.30	65535.00
570.46	65535.00
570.62	65535.00
570.78	65535.00
570.95	65535.00
571.11	65535.00
571.27	65535.00
571.43	65535.00
571.60	65535.00
571.76	65535.00
571.92	65535.00
572.09	65535.00
572.25	65535.00
572.41	65535.00
572.57	65535.00
572.74	65535.00
572.90	65535.00
573.06	65535.00
573.22	65535.00
573.38	65535.00
573.55	65535.00
573.71	65535.00
573.87	65535.00
574.03	65535.00
574.20	65535.00
574.36	65535.00
574.52	65535.00
574.68	65535.00
574.84	65535.00
575.01	65535.00
575.17	65535.00
575.33	65535.00
575.49	65535.00
575.65	65535.00
575.82	65535.00
575.98	65535.00
576.14	65535.00
576.30	65535.00
576.46	65535.00
576.62	65535.00
576.79	65535.00
576.95	65535.00
577.11	65535.00
577.27	65535.00
577.43	65535.00
577.59	65535.00
577.75	65535.00
577.92	65535.00
578.08	65535.00
578.24	65535.00
578.40	65535.00
578.56	65535.00
578.72	65535.00
578.88	65535.00
579.04	65535.00
579.21	65535.00
579.37	65535.00
579.53	65535.00
579.69	65535.00
579.85	65535.00
580.01	65535.00
580.17	65535.00
580.33	65535.00
580.49	65535.00
580.65	65535.00
580.82	65535.00
580.98	65535.00
581.14	65535.00
581.30	65535.00
581.46	65535.00
581.62	65535.00
581.78	65535.00
581.94	65535.00
582.10	65535.00
582.26	65535.00
582.42	65535.00
582.58	65535.00
582.74	65535.00
582.90	65535.00
583.06	65535.00
583.22	65535.00
583.38	65535.00
583.54	65535.00
583.70	65535.00
583.86	65535.00
584.02	65535.00
584.18	65535.00
584.34	65535.00
584.50	65535.00
584.66	65535.00
584.82	65535.00
584.98	65535.00
585.14	65535.00
585.30	65535.00
585.46	65535.00
585.62	65535.00
585.78	65535.00
585.94	65535.00
586.10	65535.00
586.26	65535.00
586.42	65535.00
586.58	65535.00
586.74	65535.00
586.90	65535.00
587.06	65535.00
