SpectraSuite Data File
++++++++++++++++++++++++++++++++++++
Date: Thu Oct 24 13:21:22 EDT 2013
User: stostad
Dark Spectrum Present: No
Reference Spectrum Present: No
Number of Sampled Component Spectra: 1
Spectrometers: USB2+H05261
Integration Time (usec): 100000 (USB2+H05261)
Spectra Averaged: 1 (USB2+H05261)
Boxcar Smoothing: 0 (USB2+H05261)
Correct for Electrical Dark: No (USB2+H05261)
Strobe/Lamp Enabled: No (USB2+H05261)
Correct for Detector Non-linearity: No (USB2+H05261)
Correct for Stray Light: No (USB2+H05261)
Number of Pixels in Processed Spectrum: 2048
>>>>>Begin Processed Spectral Data<<<<<
365.73	561.73
365.92	561.73
366.12	561.73
366.32	498.53
366.52	425.98
366.72	458.74
366.91	491.51
367.11	456.40
367.31	418.96
367.51	449.38
367.70	477.47
367.90	507.90
368.10	496.19
368.30	461.09
368.49	486.83
368.69	498.53
368.89	435.34
369.09	500.87
369.28	547.69
369.48	571.09
369.68	538.32
369.87	517.26
370.07	601.52
370.27	512.58
370.47	636.63
370.66	898.77
370.86	835.57
371.06	880.04
371.25	987.71
371.45	922.17
371.65	929.19
371.84	896.43
372.04	929.19
372.24	940.90
372.44	957.28
372.63	976.00
372.83	978.34
373.03	1020.47
373.22	959.62
373.42	1050.90
373.62	1025.15
373.81	985.37
374.01	1025.15
374.21	1071.97
374.40	997.07
374.60	1146.86
374.79	1018.13
374.99	973.66
375.19	1067.28
375.38	1053.24
375.58	1132.82
375.78	1029.84
375.97	1074.31
376.17	1128.14
376.37	1025.15
376.56	1090.69
376.76	1078.99
376.95	1088.35
377.15	1053.24
377.35	1029.84
377.54	1111.75
377.74	1086.01
377.93	1142.18
378.13	1053.24
378.33	1097.71
378.52	1128.14
378.72	1160.91
378.91	1093.03
379.11	1160.91
379.31	1093.03
379.50	1188.99
379.70	1137.50
379.89	1165.59
380.09	1062.60
380.28	1156.22
380.48	1214.74
380.68	1172.61
380.87	1200.69
381.07	1193.67
381.26	1207.72
381.46	1263.89
381.65	1219.42
381.85	1228.78
382.04	1203.04
382.24	1256.87
382.43	1179.63
382.63	1228.78
382.83	1207.72
383.02	1291.98
383.22	1240.48
383.41	1219.42
383.61	1256.87
383.80	1299.00
384.00	1252.19
384.19	1277.93
384.39	1306.02
384.58	1219.42
384.78	1313.04
384.97	1376.24
385.17	1277.93
385.36	1303.68
385.56	1336.45
385.75	1362.19
385.95	1343.47
386.14	1341.13
386.34	1299.00
386.53	1299.00
386.72	1451.13
386.92	1348.15
387.11	1378.58
387.31	1287.29
387.50	1338.79
387.70	1418.36
387.89	1455.81
388.09	1394.96
388.28	1427.73
388.48	1394.96
388.67	1441.77
388.86	1444.11
389.06	1446.45
389.25	1397.30
389.45	1406.66
389.64	1446.45
389.84	1500.28
390.03	1448.79
390.22	1469.86
390.42	1413.68
390.61	1385.60
390.81	1516.67
391.00	1509.65
391.19	1563.48
391.39	1570.50
391.58	1565.82
391.78	1624.33
391.97	1589.22
392.16	1575.18
392.36	1572.84
392.55	1631.35
392.75	1631.35
392.94	1636.03
393.13	1584.54
393.33	1643.06
393.52	1519.01
393.71	1605.61
393.91	1675.82
394.10	1626.67
394.29	1657.10
394.49	1659.44
394.68	1680.50
394.88	1673.48
395.07	1680.50
395.26	1696.89
395.46	1689.87
395.65	1755.40
395.84	1710.93
396.04	1783.49
396.23	1806.89
396.42	1760.08
396.62	1797.53
396.81	1785.83
397.00	1820.94
397.19	1748.38
397.39	1816.26
397.58	1778.81
397.77	1832.64
397.97	1764.76
398.16	1863.07
398.35	1874.77
398.55	1996.48
398.74	1895.83
398.93	2015.20
399.12	1952.01
399.32	1849.02
399.51	1860.73
399.70	1912.22
399.90	1926.26
400.09	1996.48
400.28	1991.80
400.47	1914.56
400.67	2024.56
400.86	2045.63
401.05	1973.07
401.24	2080.74
401.44	2008.18
401.63	2040.95
401.82	2155.63
402.01	2122.87
402.21	2143.93
402.40	2076.06
402.59	2108.82
402.78	2157.97
402.97	2174.36
403.17	2183.72
403.36	2181.38
403.55	2143.93
403.74	2293.72
403.93	2258.62
404.13	2342.88
404.32	2352.24
404.51	2230.53
404.70	2368.62
404.89	2408.41
405.09	2408.41
405.28	2352.24
405.47	2457.56
405.66	2509.05
405.85	2406.07
406.05	2415.43
406.24	2469.27
406.43	2502.03
406.62	2555.86
406.81	2593.31
407.00	2504.37
407.20	2462.24
407.39	2413.09
407.58	2574.59
407.77	2520.76
407.96	2670.55
408.15	2651.83
408.34	2626.08
408.54	2581.61
408.73	2605.02
408.92	2672.89
409.11	2792.26
409.30	2773.53
409.49	2752.47
409.68	2736.09
409.87	2738.43
410.07	2773.53
410.26	2806.30
410.45	2729.06
410.64	2874.18
410.83	2832.05
411.02	2857.79
411.21	2956.10
411.40	2939.71
411.59	2984.18
411.78	2988.86
411.98	3038.02
412.17	3157.38
412.36	2995.89
412.55	3070.78
412.74	3096.53
412.93	3133.98
413.12	3089.51
413.31	3295.47
413.50	3178.45
413.69	3201.85
413.88	3375.05
414.07	3316.54
414.26	3386.76
414.45	3377.39
414.64	3480.38
414.83	3349.31
415.02	3424.20
415.22	3471.01
415.41	3555.27
415.60	3389.10
415.79	3517.83
415.98	3583.36
416.17	3592.72
416.36	3641.87
416.55	3726.13
416.74	3721.45
416.93	3541.23
417.12	3674.64
417.31	3779.97
417.50	3651.24
417.69	3875.93
417.88	3885.29
418.07	3763.58
418.26	3843.16
418.45	3920.40
418.64	4039.76
418.83	3969.55
419.02	4009.34
419.21	4030.40
419.39	4084.23
419.58	3955.51
419.77	4177.86
419.96	4065.51
420.15	4049.13
420.34	4161.47
420.53	4058.49
420.72	4102.96
420.91	4156.79
421.10	4236.37
421.29	4180.20
421.48	4107.64
421.67	4269.14
421.86	4329.99
422.05	4339.35
422.24	4283.18
422.43	4245.73
422.61	4299.56
422.80	4442.34
422.99	4311.27
423.18	4437.66
423.37	4526.60
423.56	4444.68
423.75	4468.08
423.94	4367.44
424.13	4198.92
424.32	4236.37
424.50	4271.48
424.69	4395.53
424.88	4585.11
425.07	4287.86
425.26	4409.57
425.45	4432.97
425.64	4229.35
425.83	4440.00
426.01	4456.38
426.20	4421.27
426.39	4512.55
426.58	4547.66
426.77	4486.81
426.96	4545.32
427.15	4444.68
427.33	4641.28
427.52	4589.79
427.71	4615.54
427.90	4596.81
428.09	4582.77
428.28	4753.63
428.46	4737.24
428.65	4683.41
428.84	4615.54
429.03	4762.99
429.22	4685.75
429.40	4709.16
429.59	4802.78
429.78	4631.92
429.97	4479.79
430.16	4833.21
430.34	4947.89
430.53	5076.62
430.72	4905.76
430.91	4950.23
431.10	4905.76
431.28	5076.62
431.47	5025.13
431.66	5001.72
431.85	5095.35
432.03	5184.29
432.22	5235.78
432.41	5210.03
432.60	5268.55
432.79	5153.86
432.97	5181.95
433.16	5305.99
433.35	5130.45
433.54	5341.10
433.72	5259.18
433.91	5252.16
434.10	5217.05
434.28	5245.14
434.47	5310.68
434.66	5348.12
434.85	5420.68
435.03	5584.52
435.22	5741.33
435.41	5998.79
435.59	5724.95
435.78	5741.33
435.97	5813.89
436.16	5614.95
436.34	5554.09
436.53	5738.99
436.72	5682.82
436.90	5617.29
437.09	5720.27
437.28	5647.71
437.46	5565.79
437.65	5643.03
437.84	5867.72
438.02	5898.15
438.21	5877.09
438.40	5893.47
438.58	5893.47
438.77	6087.73
438.96	5959.00
439.14	5912.19
439.33	6094.76
439.52	6078.37
439.70	6176.67
439.89	6272.64
440.08	6331.15
440.26	6277.32
440.45	6331.15
440.63	6494.99
440.82	6609.67
441.01	6471.58
441.19	6389.66
441.38	6462.22
441.57	6438.81
441.75	6558.18
441.94	6815.64
442.12	6663.51
442.31	6932.67
442.50	6864.79
442.68	6827.34
442.87	6752.45
443.05	6902.24
443.24	6944.37
443.43	6984.16
443.61	7176.08
443.80	7201.83
443.98	7000.54
444.17	6696.27
444.35	6834.36
444.54	7023.95
444.73	7187.79
444.91	7157.36
445.10	7042.67
445.28	7040.33
445.47	6951.39
445.65	7002.88
445.84	7068.42
446.02	7269.70
446.21	7307.15
446.39	7005.22
446.58	7005.22
446.77	7370.35
446.95	6974.80
447.14	6960.75
447.32	7258.00
447.51	7009.90
447.69	7166.72
447.88	7112.89
448.06	7218.21
448.25	7267.36
448.43	7276.73
448.62	7307.15
448.80	7297.79
448.99	7276.73
449.17	7548.23
449.36	7372.69
449.54	7452.27
449.73	7478.01
449.91	7478.01
450.10	7475.67
450.28	7747.17
450.46	7791.64
450.65	7784.62
450.83	7595.04
451.02	7602.06
451.20	7754.19
451.39	7777.60
451.57	7751.85
451.76	7672.28
451.94	7655.89
452.13	7822.07
452.31	7597.38
452.49	7899.31
452.68	7688.66
452.86	7810.37
453.05	7974.21
453.23	8049.10
453.42	7826.75
453.60	7829.09
453.78	7864.20
453.97	7927.39
454.15	7990.59
454.34	7967.18
454.52	8170.81
454.70	7946.12
454.89	8226.98
455.07	8182.51
455.26	8189.53
455.44	8336.99
455.62	8248.05
455.81	8344.01
455.99	8407.20
456.17	8407.20
456.36	8311.24
456.54	8706.79
456.73	8484.44
456.91	8648.28
457.09	8404.86
457.28	8772.33
457.46	8667.00
457.64	8702.11
457.83	8741.90
458.01	8723.18
458.19	8940.85
458.38	8767.65
458.56	8945.53
458.74	8954.89
458.93	8884.67
459.11	8856.59
459.29	8978.30
459.48	8912.76
459.66	8903.40
459.84	9008.72
460.03	9081.28
460.21	9247.46
460.39	9146.81
460.57	9029.79
460.76	9364.48
460.94	9565.77
461.12	9434.70
461.31	9343.42
461.49	9460.45
461.67	9327.03
461.85	9408.95
462.04	9371.50
462.22	9715.56
462.40	9713.22
462.59	9577.47
462.77	9638.33
462.95	9767.06
463.13	9617.26
463.32	9685.14
463.50	9846.63
463.68	9837.27
463.86	9858.34
464.05	9568.11
464.23	9586.83
464.41	9853.66
464.59	9839.61
464.78	10160.27
464.96	9961.32
465.14	9830.25
465.32	9865.36
465.50	9848.97
465.69	10132.18
465.87	10061.96
466.05	10244.52
466.23	9884.08
466.41	10026.86
466.60	10195.37
466.78	10104.09
466.96	10125.16
467.14	10178.99
467.32	10052.60
467.51	10314.74
467.69	10197.71
467.87	10216.44
468.05	10483.26
468.23	10157.92
468.41	10349.85
468.60	10319.42
468.78	10307.72
468.96	10532.41
469.14	10534.75
469.32	10647.10
469.50	10509.01
469.69	10546.45
469.87	10670.50
470.05	10803.91
470.23	10871.79
470.41	10689.23
470.59	10998.18
470.77	11070.73
470.95	10890.51
471.14	11131.59
471.32	10693.91
471.50	11082.44
471.68	11262.66
471.86	11157.33
472.04	11103.50
472.22	11405.43
472.40	11473.31
472.58	11215.85
472.77	11597.35
472.95	11676.93
473.13	11822.05
473.31	11255.64
473.49	11812.68
473.67	11562.25
473.85	11831.41
474.03	11906.31
474.21	12077.16
474.39	12222.28
474.57	12042.06
474.75	12229.30
474.93	12449.31
475.12	12173.13
475.30	12477.40
475.48	12180.15
475.66	12397.82
475.84	12414.20
476.02	12540.59
476.20	12784.01
476.38	12535.91
476.56	12994.65
476.74	12952.52
476.92	12936.14
477.10	13137.43
477.28	13369.14
477.46	13284.88
477.64	13167.85
477.82	13160.83
478.00	13951.93
478.18	13783.41
478.36	13827.88
478.54	14015.13
478.72	13965.98
478.90	14314.72
479.08	14464.51
479.26	14431.74
479.44	14532.39
479.62	14581.54
479.80	14626.01
479.98	14850.70
480.16	14991.13
480.34	14761.76
480.52	15105.82
480.70	15176.03
480.88	14913.89
481.06	15110.50
481.24	15332.85
481.41	15459.24
481.59	15824.36
481.77	15688.61
481.95	15882.88
482.13	16175.44
482.31	15908.62
482.49	16320.56
482.67	16346.30
482.85	16468.01
483.03	16629.51
483.21	16727.81
483.39	17242.73
483.57	17057.82
483.74	17287.20
483.92	17429.97
484.10	17446.35
484.28	17802.11
484.46	17631.26
484.64	18171.92
484.82	17893.40
485.00	17909.78
485.18	18078.30
485.35	18562.79
485.53	18766.42
485.71	18686.84
485.89	18867.06
486.07	19075.37
486.25	19157.28
486.43	19257.93
486.61	19456.87
486.78	19421.77
486.96	19866.47
487.14	20004.56
487.32	20233.93
487.50	20187.12
487.68	20463.30
487.85	20463.30
488.03	20779.28
488.21	20807.36
488.39	20753.53
488.57	21198.23
488.75	21383.13
488.92	21422.92
489.10	21706.13
489.28	21745.92
489.46	21963.59
489.64	22066.57
489.81	22281.90
489.99	22607.23
490.17	22419.99
490.35	23021.51
490.53	22731.28
490.70	23026.19
490.88	22925.55
491.06	23281.31
491.24	23257.90
491.41	23297.69
491.59	23489.62
491.77	23623.03
491.95	23892.19
492.13	24210.50
492.30	23924.96
492.48	24285.40
492.66	24540.52
492.84	24322.85
493.01	24662.22
493.19	24491.37
493.37	24793.29
493.54	25003.94
493.72	25146.72
493.90	25570.35
494.08	25420.56
494.25	25905.05
494.43	25589.08
494.61	25956.54
494.79	26080.59
494.96	26033.78
495.14	26450.39
495.32	26843.60
495.49	26731.26
495.67	26733.60
495.85	27136.17
496.02	27087.02
496.20	27194.68
496.38	27140.85
496.55	27431.08
496.73	27938.97
496.91	27934.29
497.09	28189.41
497.26	27971.74
497.44	28100.47
497.62	28580.28
497.79	28545.17
497.97	28341.55
498.14	28847.10
498.32	29024.98
498.50	29301.17
498.67	29373.72
498.85	29106.90
499.03	29511.81
499.20	29483.73
499.38	29755.23
499.56	29565.65
499.73	29624.16
499.91	30108.65
500.08	30377.81
500.26	30050.14
500.44	29961.20
500.61	30630.59
500.79	30298.23
500.97	30471.43
501.14	31082.31
501.32	31070.61
501.49	30618.89
501.67	30909.11
501.84	31442.76
502.02	31445.10
502.20	31393.61
502.37	31704.90
502.55	31501.27
502.72	31765.75
502.90	31402.97
503.07	31608.93
503.25	32065.34
503.43	32322.80
503.60	31934.27
503.78	32552.17
503.95	31990.44
504.13	32730.05
504.30	32648.13
504.48	32425.78
504.65	32690.26
504.83	33141.99
505.01	33104.54
505.18	33240.29
505.36	33455.62
505.53	33415.83
505.71	33699.03
505.88	33481.36
506.06	33460.30
506.23	33626.48
506.41	33628.82
506.58	33706.05
506.76	33888.62
506.93	34459.71
507.11	34380.13
507.28	34494.82
507.46	34660.99
507.63	34906.75
507.81	34539.29
507.98	34611.84
508.16	34309.91
508.33	34586.10
508.50	35079.95
508.68	35086.97
508.85	35342.09
509.03	35414.65
509.20	35180.59
509.38	35714.23
509.55	35849.99
509.73	35665.08
509.90	36217.45
510.08	35723.60
510.25	36144.89
510.42	36215.11
510.60	35686.15
510.77	36212.77
510.95	36835.35
511.12	36430.44
511.30	36912.59
511.47	36907.91
511.64	36631.72
511.82	36755.77
511.99	36767.48
512.17	37088.13
512.34	37399.42
512.51	37581.98
512.69	37820.72
512.86	37560.92
513.04	37703.69
513.21	37937.74
513.38	37689.65
513.56	38019.66
513.73	37308.14
513.90	38450.32
514.08	38155.41
514.25	38735.87
514.43	38665.65
514.60	38281.80
514.77	38649.27
514.95	38171.80
515.12	38354.36
515.29	38462.02
515.47	38965.24
515.64	39000.35
515.81	38632.88
515.99	39065.88
516.16	39356.11
516.33	39316.32
516.51	39817.19
516.68	39625.27
516.85	39346.75
517.03	39805.49
517.20	39681.44
517.37	40060.61
517.54	39849.96
517.72	40051.25
517.89	39936.56
518.06	39950.60
518.24	40109.76
518.41	40210.40
518.58	40409.35
518.75	40126.14
518.93	40280.62
519.10	40297.00
519.27	40212.74
519.45	40744.05
519.62	40842.35
519.79	41024.91
519.96	40879.80
520.14	41214.49
520.31	40818.94
520.48	40877.46
520.65	41153.64
520.83	41581.96
521.00	41563.23
521.17	41380.67
521.34	41916.65
521.52	41706.01
521.69	41537.49
521.86	41593.66
522.03	42052.41
522.20	42129.64
522.38	42396.46
522.55	42232.63
522.72	42354.33
522.89	42398.80
523.07	42951.17
523.24	42534.56
523.41	42773.29
523.58	42518.17
523.75	43037.77
523.92	42569.66
524.10	42621.16
524.27	43580.78
524.44	43014.37
524.61	42988.62
524.78	43320.98
524.96	43028.41
525.13	43627.59
525.30	43510.56
525.47	43653.33
525.64	43739.93
525.81	43775.04
525.98	43723.55
526.16	43466.09
526.33	43871.00
526.50	44126.12
526.67	43875.68
526.84	44357.83
527.01	44252.51
527.18	44219.74
527.36	44617.63
527.53	44596.57
527.70	44671.46
527.87	44463.16
528.04	44561.46
528.21	44666.78
528.38	45158.30
528.55	45092.76
528.72	45088.08
528.89	44755.72
529.07	44912.54
529.24	44594.23
529.41	44945.31
529.58	45380.65
529.75	45301.07
529.92	45563.21
530.09	45315.11
530.26	45586.61
530.43	45137.23
530.60	45198.09
530.77	45289.37
530.94	45806.62
531.11	45844.07
531.28	45909.61
531.46	45715.34
531.63	45680.24
531.80	45741.09
531.97	46040.68
532.14	46394.10
532.31	45741.09
532.48	46281.75
532.65	46738.16
532.82	46092.17
532.99	46284.09
533.16	46452.61
533.33	46466.66
533.50	46597.73
533.67	46651.56
533.84	46445.59
534.01	46873.91
534.18	46670.28
534.35	47608.84
534.52	46801.35
534.69	47009.66
534.86	47311.59
535.03	46960.51
535.20	46845.82
535.37	46759.22
535.54	47311.59
535.71	47264.78
535.88	47402.87
536.05	47236.69
536.22	47470.75
536.38	47203.92
536.55	47697.78
536.72	47936.51
536.89	47955.24
537.06	48163.54
537.23	48514.62
537.40	48254.82
537.57	48357.81
537.74	47819.49
537.91	48165.88
538.08	48051.20
538.25	47894.38
538.42	48142.48
538.59	48367.17
538.75	48123.75
538.92	48280.57
539.09	48205.67
539.26	48502.92
539.43	48589.52
539.60	48474.84
539.77	48449.09
539.94	49045.93
540.11	49123.16
540.28	48856.34
540.44	48961.67
540.61	48673.78
540.78	48769.74
540.95	49029.54
541.12	48907.83
541.29	49055.29
541.46	49233.17
541.62	49668.51
541.79	49621.70
541.96	49165.29
542.13	49024.86
542.30	49511.69
542.47	49212.10
542.63	49546.80
542.80	49776.17
542.97	50209.17
543.14	50319.18
543.31	50408.12
543.48	50057.04
543.64	50153.00
543.81	50099.17
543.98	49890.86
544.15	50164.70
544.32	50323.86
544.48	50529.83
544.65	50323.86
544.82	50529.83
544.99	50295.77
545.16	50440.89
545.32	50422.16
545.49	50976.87
545.66	50988.57
545.83	51121.98
546.00	51229.65
546.16	51028.36
546.33	50782.60
546.50	50890.27
546.67	51093.89
546.83	49932.99
547.00	50670.26
547.17	50567.27
547.34	50604.72
547.50	50981.55
547.67	51437.95
547.84	51260.07
548.00	51468.38
548.17	51327.95
548.34	51288.16
548.51	51323.27
548.67	51154.75
548.84	51201.56
549.01	51231.99
549.18	51072.83
549.34	51086.87
549.51	51552.64
549.68	51793.71
549.84	51604.13
550.01	51267.09
550.18	50925.38
550.34	51484.76
550.51	51292.84
550.68	51409.87
550.84	51276.46
551.01	51597.11
551.18	51629.88
551.34	51271.78
551.51	51459.02
551.68	51639.24
551.84	51695.41
552.01	51423.91
552.18	51833.50
552.34	51285.82
552.51	52037.13
552.68	51966.91
552.84	51917.76
553.01	52114.37
553.18	51770.31
553.34	51980.96
553.51	51852.23
553.67	51985.64
553.84	52266.50
554.01	52603.54
554.17	52378.85
554.34	52479.49
554.51	52385.87
554.67	52388.21
554.84	52250.12
555.00	52308.63
555.17	51885.00
555.33	52343.74
555.50	51903.72
555.67	52231.40
555.83	52734.61
556.00	52364.81
556.16	52715.89
556.33	52416.30
556.50	52374.17
556.66	52734.61
556.83	52151.82
556.99	52357.78
557.16	52652.69
557.32	52783.76
557.49	52907.81
557.65	52856.32
557.82	52566.09
557.98	52617.58
558.15	52392.89
558.32	52825.89
558.48	52530.98
558.65	52671.42
558.81	52690.14
558.98	52837.59
559.14	53006.11
559.31	53064.63
559.47	52921.85
559.64	53165.27
559.80	52790.78
559.97	53092.71
560.13	52697.16
560.30	53017.82
560.46	53048.24
560.63	53258.89
560.79	53240.17
560.96	53425.07
561.12	53188.67
561.29	53134.84
561.45	52949.94
561.61	53137.18
561.78	53148.88
561.94	53509.33
562.11	53382.94
562.27	53635.72
562.44	53371.24
562.60	53652.10
562.77	53228.46
562.93	53439.11
563.10	53602.95
563.26	53364.21
563.42	53900.20
563.59	53497.62
563.75	53408.68
563.92	53694.23
564.08	53350.17
564.24	53668.48
564.41	53474.22
564.57	53160.59
564.74	53181.65
564.90	53729.34
565.07	53574.86
565.23	53680.19
565.39	53712.95
565.56	54316.81
565.72	53975.09
565.88	53961.05
566.05	53858.07
566.21	53684.87
566.38	53670.82
566.54	53614.65
566.70	53848.71
566.87	54064.03
567.03	53640.40
567.19	54279.36
567.36	54167.02
567.52	53783.17
567.68	53750.40
567.85	53647.42
568.01	53853.39
568.17	53661.46
568.34	54024.25
568.50	53525.71
568.66	54017.22
568.83	54307.45
568.99	53834.66
569.15	54071.06
569.32	53858.07
569.48	53808.92
569.64	53879.13
569.81	53455.50
569.97	53600.61
570.13	54042.97
570.30	53684.87
570.46	54005.52
570.62	53839.34
570.78	53811.26
570.95	53844.02
571.11	54232.55
571.27	53790.19
571.43	53963.39
571.60	53846.36
571.76	53813.60
571.92	54431.50
572.09	54047.65
572.25	54225.53
572.41	54190.42
572.57	53939.99
572.74	54227.87
572.90	54075.74
573.06	53794.87
573.22	53968.07
573.38	54382.35
573.55	54042.97
573.71	54057.01
573.87	54183.40
574.03	53947.01
574.20	54356.60
574.36	54272.34
574.52	54068.72
574.68	54225.53
574.84	54337.88
575.01	54110.85
575.17	54337.88
575.33	54101.48
575.49	54281.70
575.65	54354.26
575.82	54202.13
575.98	54490.01
576.14	54234.89
576.30	54108.50
576.46	54057.01
576.62	54057.01
576.79	53867.43
576.95	54248.94
577.11	54443.20
577.27	54237.23
577.43	54424.48
577.59	54279.36
577.75	54454.90
577.92	54103.82
578.08	53935.30
578.24	54234.89
578.40	54024.25
578.56	54307.45
578.72	54199.79
578.88	54628.10
579.04	54747.47
579.21	54506.40
579.37	54649.17
579.53	54710.02
579.69	54277.02
579.85	54101.48
580.01	54529.80
580.17	54412.77
580.33	54616.40
580.49	54436.18
580.65	54726.41
580.82	54534.48
580.98	54522.78
581.14	54380.01
581.30	54829.39
581.46	54375.33
581.62	54721.72
581.78	54590.66
581.94	54508.74
582.10	54372.99
582.26	54459.58
582.42	54459.58
582.58	54457.24
582.74	54504.06
582.90	54513.42
583.06	54810.67
583.22	54468.95
583.38	54576.61
583.54	54417.46
583.70	54611.72
583.86	54585.97
584.02	54204.47
584.18	54534.48
584.34	54593.00
584.50	54986.21
584.66	54527.46
584.82	54635.13
584.98	54541.50
585.14	54590.66
585.30	54438.52
585.46	54539.16
585.62	54284.04
585.78	54864.50
585.94	54527.46
586.10	54969.82
586.26	54777.90
586.42	54691.30
586.58	54930.03
586.74	54546.18
586.90	54452.56
587.06	54499.37
587.22	54848.11
587.38	54813.01
587.54	54822.37
587.70	55133.66
587.86	54527.46
588.02	54934.71
588.18	54770.88
588.34	55040.04
588.49	55042.38
588.65	54674.91
