SpectraSuite Data File
++++++++++++++++++++++++++++++++++++
Date: Thu Oct 24 13:21:42 EDT 2013
User: stostad
Dark Spectrum Present: No
Reference Spectrum Present: No
Number of Sampled Component Spectra: 1
Spectrometers: USB2+H05261
Integration Time (usec): 100000 (USB2+H05261)
Spectra Averaged: 1 (USB2+H05261)
Boxcar Smoothing: 0 (USB2+H05261)
Correct for Electrical Dark: No (USB2+H05261)
Strobe/Lamp Enabled: No (USB2+H05261)
Correct for Detector Non-linearity: No (USB2+H05261)
Correct for Stray Light: No (USB2+H05261)
Number of Pixels in Processed Spectrum: 2048
>>>>>Begin Processed Spectral Data<<<<<
365.73	564.07
365.92	564.07
366.12	564.07
366.32	514.92
366.52	479.81
366.72	472.79
366.91	479.81
367.11	475.13
367.31	491.51
367.51	477.47
367.70	531.30
367.90	449.38
368.10	411.93
368.30	496.19
368.49	482.15
368.69	524.28
368.89	505.56
369.09	507.90
369.28	496.19
369.48	547.69
369.68	545.34
369.87	629.60
370.07	566.41
370.27	582.79
370.47	767.70
370.66	1352.83
370.86	1394.96
371.06	1394.96
371.25	1439.43
371.45	1362.19
371.65	1458.15
371.84	1481.56
372.04	1458.15
372.24	1500.28
372.44	1458.15
372.63	1502.62
372.83	1523.69
373.03	1507.30
373.22	1551.78
373.42	1504.96
373.62	1617.31
373.81	1551.78
374.01	1603.27
374.21	1614.97
374.40	1626.67
374.60	1652.42
374.79	1675.82
374.99	1619.65
375.19	1732.00
375.38	1790.51
375.58	1647.74
375.78	1788.17
375.97	1741.36
376.17	1741.36
376.37	1802.21
376.56	1769.44
376.76	1804.55
376.95	1788.17
377.15	1762.42
377.35	1811.57
377.54	1884.13
377.74	1732.00
377.93	1811.57
378.13	1898.17
378.33	1834.98
378.52	1921.58
378.72	1853.70
378.91	1860.73
379.11	1933.28
379.31	1914.56
379.50	1872.43
379.70	1856.04
379.89	1998.82
380.09	1893.49
380.28	1989.46
380.48	1959.03
380.68	2008.18
380.87	2022.22
381.07	1989.46
381.26	2139.25
381.46	2101.80
381.65	2026.90
381.85	2052.65
382.04	2132.23
382.24	2127.55
382.43	2099.46
382.63	2104.14
382.83	2080.74
383.02	2115.84
383.22	2218.83
383.41	2174.36
383.61	2183.72
383.80	2197.76
384.00	2211.81
384.19	2125.21
384.39	2207.13
384.58	2270.32
384.78	2179.04
384.97	2223.51
385.17	2260.96
385.36	2284.36
385.56	2282.02
385.75	2291.38
385.95	2291.38
386.14	2312.45
386.34	2303.09
386.53	2410.75
386.72	2377.98
386.92	2354.58
387.11	2370.96
387.31	2382.67
387.50	2307.77
387.70	2499.69
387.89	2518.42
388.09	2502.03
388.28	2473.95
388.48	2579.27
388.67	2509.05
388.86	2567.57
389.06	2626.08
389.25	2654.17
389.45	2672.89
389.64	2663.53
389.84	2635.44
390.03	2712.68
390.22	2637.78
390.42	2677.57
390.61	2724.38
390.81	2703.32
391.00	2759.49
391.19	2761.83
391.39	2715.02
391.58	2876.52
391.78	2904.60
391.97	2860.13
392.16	2787.58
392.36	3052.06
392.55	2904.60
392.75	2979.50
392.94	2995.89
393.13	2977.16
393.33	2942.05
393.52	2960.78
393.71	2951.42
393.91	3070.78
394.10	3059.08
394.29	3080.14
394.49	3023.97
394.68	3155.04
394.88	3166.74
395.07	3208.87
395.26	3208.87
395.46	3215.90
395.65	3342.28
395.84	3300.16
396.04	3344.63
396.23	3304.84
396.42	3199.51
396.62	3463.99
396.81	3417.18
397.00	3407.82
397.19	3363.35
397.39	3428.88
397.58	3466.33
397.77	3435.91
397.97	3410.16
398.16	3574.00
398.35	3534.21
398.55	3562.30
398.74	3503.78
398.93	3665.28
399.12	3681.66
399.32	3566.98
399.51	3620.81
399.70	3740.18
399.90	3679.32
400.09	3845.50
400.28	3866.56
400.47	3866.56
400.67	3960.19
400.86	3798.69
401.05	3824.44
401.24	3922.74
401.44	3878.27
401.63	4023.38
401.82	3971.89
402.01	3960.19
402.21	4105.30
402.40	4044.45
402.59	3969.55
402.78	4060.83
402.97	4091.26
403.17	4217.65
403.36	4119.34
403.55	4191.90
403.74	4341.69
403.93	4280.84
404.13	4421.27
404.32	4496.17
404.51	4432.97
404.70	4341.69
404.89	4386.16
405.09	4428.29
405.28	4489.15
405.47	4444.68
405.66	4514.89
405.85	4554.68
406.05	4491.49
406.24	4716.18
406.43	4655.33
406.62	4725.54
406.81	4706.82
407.00	4652.98
407.20	4566.39
407.39	4699.80
407.58	4894.06
407.77	4823.84
407.96	4978.32
408.15	4957.25
408.34	4950.23
408.54	4945.55
408.73	4945.55
408.92	5041.51
409.11	5191.31
409.30	5107.05
409.49	5212.37
409.68	5275.57
409.87	5210.03
410.07	5327.06
410.26	5430.04
410.45	5240.46
410.64	5373.87
410.83	5572.82
411.02	5305.99
411.21	5558.77
411.40	5462.81
411.59	5563.45
411.78	5556.43
411.98	5750.70
412.17	5640.69
412.36	5834.96
412.55	5940.28
412.74	6050.28
412.93	5923.90
413.12	5956.66
413.31	6244.55
413.50	6061.99
413.69	6010.50
413.88	6326.47
414.07	6253.91
414.26	6211.78
414.45	6267.95
414.64	6413.07
414.83	6434.13
415.02	6532.44
415.22	6747.76
415.41	6572.22
415.60	6656.48
415.79	6661.16
415.98	6815.64
416.17	6806.28
416.36	6806.28
416.55	6902.24
416.74	7005.22
416.93	6986.50
417.12	7087.14
417.31	7194.81
417.50	7094.16
417.69	7368.01
417.88	7351.62
418.07	7229.91
418.26	7262.68
418.45	7456.95
418.64	7639.51
418.83	7503.76
419.02	7541.21
419.21	7754.19
419.39	7627.81
419.58	7641.85
419.77	7382.05
419.96	7857.18
420.15	7871.22
420.34	7960.16
420.53	7829.09
420.72	7927.39
420.91	7964.84
421.10	7943.78
421.29	8105.28
421.48	7981.23
421.67	8119.32
421.86	8037.40
422.05	8177.83
422.24	8166.13
422.43	8329.97
422.61	8255.07
422.80	8418.91
422.99	8208.26
423.18	8372.10
423.37	8276.13
423.56	8360.39
423.75	8189.53
423.94	8468.06
424.13	7946.12
424.32	8093.57
424.50	8505.51
424.69	8727.86
424.88	8489.12
425.07	8287.84
425.26	8484.44
425.45	8414.23
425.64	8255.07
425.83	8358.05
426.01	8439.97
426.20	8446.99
426.39	8538.27
426.58	8559.34
426.77	8327.63
426.96	8575.72
427.15	8622.53
427.33	8915.10
427.52	8793.39
427.71	8882.33
427.90	8767.65
428.09	8924.46
428.28	9207.67
428.46	8980.64
428.65	8945.53
428.84	9029.79
429.03	9366.82
429.22	8971.27
429.40	9249.80
429.59	9238.09
429.78	9001.70
429.97	8905.74
430.16	9420.66
430.34	9617.26
430.53	9603.22
430.72	9458.10
430.91	9558.75
431.10	9448.74
431.28	9586.83
431.47	9839.61
431.66	9767.06
431.85	9778.76
432.03	9947.28
432.22	10221.12
432.41	10136.86
432.60	10148.56
432.79	10050.26
432.97	10352.19
433.16	10157.92
433.35	9942.60
433.54	10352.19
433.72	10335.81
433.91	10260.91
434.10	10501.98
434.28	10377.94
434.47	10480.92
434.66	10555.82
434.85	10626.03
435.03	10724.33
435.22	10890.51
435.41	11232.23
435.59	10937.32
435.78	11103.50
435.97	11229.89
436.16	10974.77
436.34	10951.37
436.53	10946.69
436.72	11194.78
436.90	11028.60
437.09	11119.89
437.28	10888.17
437.46	11293.08
437.65	11363.30
437.84	11363.30
438.02	11325.85
438.21	11485.01
438.40	11445.22
438.58	11859.49
438.77	11936.73
438.96	11775.24
439.14	12020.99
439.33	12109.93
439.52	12285.47
439.70	12088.87
439.89	12631.87
440.08	12376.75
440.26	12421.22
440.45	12343.99
440.63	12748.90
440.82	13078.91
441.01	12772.30
441.19	12959.55
441.38	12985.29
441.57	12905.71
441.75	13329.35
441.94	13516.59
442.12	13312.97
442.31	13837.25
442.50	13696.82
442.68	13373.82
442.87	13563.40
443.05	13811.50
443.24	14061.94
443.43	13907.46
443.61	14043.21
443.80	14326.42
443.98	13591.49
444.17	13350.42
444.35	13886.40
444.54	14075.98
444.73	14164.92
444.91	14214.07
445.10	14335.78
445.28	14122.79
445.47	14218.75
445.65	14223.44
445.84	14300.67
446.02	14237.48
446.21	14256.20
446.39	14398.98
446.58	14281.95
446.77	14431.74
446.95	14120.45
447.14	14246.84
447.32	14626.01
447.51	14373.23
447.69	14597.92
447.88	14604.94
448.06	14602.60
448.25	14867.08
448.43	14864.74
448.62	14895.17
448.80	14422.38
448.99	14930.28
449.17	15000.49
449.36	15218.16
449.54	15035.60
449.73	15321.15
449.91	15344.55
450.10	15456.90
450.28	15550.52
450.46	15604.35
450.65	15283.70
450.83	15419.45
451.02	15503.71
451.20	15571.58
451.39	15426.47
451.57	15690.95
451.76	15744.78
451.94	15679.25
452.13	15868.83
452.31	15915.64
452.49	15765.85
452.68	16180.12
452.86	16042.03
453.05	16294.81
453.23	16353.32
453.42	16020.97
453.60	16273.74
453.78	16308.85
453.97	16119.27
454.15	16011.60
454.34	16245.66
454.52	16767.60
454.70	16762.92
454.89	16505.46
455.07	16924.41
455.26	16903.35
455.44	17156.13
455.62	17214.64
455.81	17041.44
455.99	17137.40
456.17	17401.88
456.36	17305.92
456.54	17710.83
456.73	17568.06
456.91	17858.29
457.09	17436.99
457.28	18090.00
457.46	17752.96
457.64	18022.12
457.83	18204.69
458.01	17954.25
458.19	18204.69
458.38	18136.81
458.56	18572.15
458.74	18263.20
458.93	18597.90
459.11	18710.24
459.29	18586.19
459.48	18546.40
459.66	18661.09
459.84	18904.51
460.03	19300.06
460.21	19016.85
460.39	19115.16
460.57	19082.39
460.76	19379.64
460.94	19318.78
461.12	19066.00
461.31	19697.95
461.49	19178.35
461.67	19491.98
461.85	19751.78
462.04	19655.82
462.22	19910.94
462.40	20091.16
462.59	19985.83
462.77	19786.89
462.95	20325.21
463.13	19871.15
463.32	20313.51
463.50	20262.02
463.68	20477.35
463.86	20388.41
464.05	20126.27
464.23	20463.30
464.41	20507.77
464.59	20400.11
464.78	20828.43
464.96	20706.72
465.14	20568.63
465.32	20973.54
465.50	20638.84
465.69	20912.69
465.87	21188.87
466.05	20915.03
466.23	21228.66
466.41	21160.78
466.60	21443.99
466.78	21071.84
466.96	21118.65
467.14	21626.55
467.32	21397.18
467.51	21816.13
467.69	21193.55
467.87	21448.67
468.05	22174.24
468.23	21376.11
468.41	21425.26
468.60	21589.10
468.78	22221.05
468.96	21769.32
469.14	22405.95
469.32	22668.09
469.50	21895.71
469.69	22520.63
469.87	22675.11
470.05	22490.21
470.23	22934.91
470.41	22625.96
470.59	23112.79
470.77	23040.23
470.95	22899.80
471.14	23548.13
471.32	23117.47
471.50	23704.95
471.68	23215.77
471.86	23740.05
472.04	23899.21
472.22	24428.17
472.40	24034.96
472.58	24437.53
472.77	24540.52
472.95	24243.27
473.13	25048.41
473.31	24704.35
473.49	24575.62
473.67	24744.14
473.85	24985.22
474.03	25256.72
474.21	25280.13
474.39	25708.44
474.57	25490.77
474.75	25886.32
474.93	26162.51
475.12	26171.87
475.30	26644.66
475.48	26382.52
475.66	26635.30
475.84	26459.76
476.02	27197.02
476.20	26977.01
476.38	27716.62
476.56	27789.18
476.74	28044.30
476.92	27821.95
477.10	27721.30
477.28	28126.22
477.46	28273.67
477.64	28439.85
477.82	28727.74
478.00	29457.98
478.18	29273.08
478.36	29584.37
478.54	30260.79
478.72	30054.82
478.90	30153.12
479.08	30658.68
479.26	30869.33
479.44	31112.74
479.62	31309.35
479.80	31697.88
479.98	31622.98
480.16	32222.16
480.34	32105.13
480.52	32414.08
480.70	32868.14
480.88	32334.50
481.06	32781.54
481.24	33020.28
481.41	33338.59
481.59	33872.23
481.77	34307.57
481.95	34583.76
482.13	34848.24
482.31	34817.81
482.49	35510.61
482.67	35028.46
482.85	35871.05
483.03	36203.41
483.21	36252.56
483.39	36907.91
483.57	36924.29
483.74	36891.52
483.92	37476.66
484.10	37209.84
484.28	37694.33
484.46	38569.69
484.64	39108.01
484.82	38234.99
485.00	39049.50
485.18	39136.10
485.35	40212.74
485.53	39913.16
485.71	40751.07
485.89	41223.86
486.07	40587.23
486.25	40971.08
486.43	41043.63
486.61	41453.23
486.78	42560.30
486.96	42225.60
487.14	43098.62
487.32	43302.25
487.50	43405.23
487.68	44013.77
487.85	44144.84
488.03	44964.03
488.21	44968.71
488.39	44552.10
488.57	45193.40
488.75	45689.60
488.92	45965.78
489.10	46424.53
489.28	46614.11
489.46	46887.95
489.64	46794.33
489.81	47819.49
489.99	47430.96
490.17	48299.30
490.35	48582.50
490.53	48765.06
490.70	48973.37
490.88	48713.57
491.06	49481.27
491.24	49565.52
491.41	49724.68
491.59	50267.69
491.77	50307.47
491.95	50635.15
492.13	50857.50
492.30	50721.75
492.48	51098.58
492.66	51489.45
492.84	51587.75
493.01	51955.21
493.19	52020.75
493.37	52273.52
493.54	51983.30
493.72	52690.14
493.90	52879.72
494.08	53212.08
494.25	53539.75
494.43	53619.33
494.61	53827.64
494.79	54134.25
494.96	53439.11
495.14	54021.90
495.32	54431.50
495.49	54445.54
495.67	54623.42
495.85	54869.18
496.02	55037.70
496.20	55323.24
496.38	55136.00
496.55	55622.83
496.73	56210.31
496.91	55913.06
497.09	56137.75
497.26	56051.15
497.44	56168.18
497.62	56273.50
497.79	56774.37
497.97	56605.86
498.14	57029.49
498.32	57183.97
498.50	57329.08
498.67	57183.97
498.85	57382.91
499.03	57616.97
499.20	57537.39
499.38	57932.94
499.56	58021.88
499.73	57813.57
499.91	57879.11
500.08	58253.59
500.26	58028.90
500.44	58585.95
500.61	58501.69
500.79	58417.43
500.97	58639.78
501.14	58974.48
501.32	58808.30
501.49	58993.20
501.67	59091.51
501.84	59355.99
502.02	59283.43
502.20	59341.94
502.37	59613.44
502.55	59494.08
502.72	59437.90
502.90	59709.41
503.07	59678.98
503.25	59931.76
503.43	59772.60
503.60	60121.34
503.78	60163.47
503.95	60168.15
504.13	60336.67
504.30	60537.96
504.48	60390.50
504.65	60645.62
504.83	60870.31
505.01	60919.46
505.18	60708.82
505.36	60912.44
505.53	60982.66
505.71	61130.11
505.88	61291.61
506.06	61057.56
506.23	61219.05
506.41	61193.31
506.58	61286.93
506.76	61387.57
506.93	61736.31
507.11	61537.36
507.28	61755.03
507.46	61771.42
507.63	61972.70
507.81	62155.27
507.98	61780.78
508.16	62047.60
508.33	62038.24
508.50	62286.34
508.68	62515.71
508.85	62576.56
509.03	62405.70
509.20	62464.22
509.38	62728.70
509.55	62742.74
509.73	62749.76
509.90	62986.16
510.08	62951.05
510.25	63011.90
510.42	63096.16
510.60	63299.79
510.77	63213.19
510.95	63487.03
511.12	63365.32
511.30	63325.53
511.47	63622.78
511.64	63494.05
511.82	63641.51
511.99	63545.54
512.17	63810.03
512.34	63807.68
512.51	64051.10
512.69	64203.24
512.86	64044.08
513.04	64374.09
513.21	64172.81
513.38	64313.24
513.56	64313.24
513.73	64343.67
513.90	64640.92
514.08	64474.74
514.25	64783.69
514.43	64743.90
514.60	64622.19
514.77	64652.62
514.95	64830.50
515.12	64757.94
515.29	64886.67
515.47	65029.44
515.64	65144.13
515.81	65188.60
515.99	65066.89
516.16	65258.82
516.33	65179.24
516.51	65450.74
516.68	65518.62
516.85	65535.00
517.03	65535.00
517.20	65535.00
517.37	65535.00
517.54	65535.00
517.72	65535.00
517.89	65535.00
518.06	65535.00
518.24	65535.00
518.41	65535.00
518.58	65535.00
518.75	65535.00
518.93	65535.00
519.10	65535.00
519.27	65535.00
519.45	65535.00
519.62	65535.00
519.79	65535.00
519.96	65535.00
520.14	65535.00
520.31	65535.00
520.48	65535.00
520.65	65535.00
520.83	65535.00
521.00	65535.00
521.17	65535.00
521.34	65535.00
521.52	65535.00
521.69	65535.00
521.86	65535.00
522.03	65535.00
522.20	65535.00
522.38	65535.00
522.55	65535.00
522.72	65535.00
522.89	65535.00
523.07	65535.00
523.24	65535.00
523.41	65535.00
523.58	65535.00
523.75	65535.00
523.92	65535.00
524.10	65535.00
524.27	65535.00
524.44	65535.00
524.61	65535.00
524.78	65535.00
524.96	65535.00
525.13	65535.00
525.30	65535.00
525.47	65535.00
525.64	65535.00
525.81	65535.00
525.98	65535.00
526.16	65535.00
526.33	65535.00
526.50	65535.00
526.67	65535.00
526.84	65535.00
527.01	65535.00
527.18	65535.00
527.36	65535.00
527.53	65535.00
527.70	65535.00
527.87	65535.00
528.04	65535.00
528.21	65535.00
528.38	65535.00
528.55	65535.00
528.72	65535.00
528.89	65535.00
529.07	65535.00
529.24	65535.00
529.41	65535.00
529.58	65535.00
529.75	65535.00
529.92	65535.00
530.09	65535.00
530.26	65535.00
530.43	65535.00
530.60	65535.00
530.77	65535.00
530.94	65535.00
531.11	65535.00
531.28	65535.00
531.46	65535.00
531.63	65535.00
531.80	65535.00
531.97	65535.00
532.14	65535.00
532.31	65535.00
532.48	65535.00
532.65	65535.00
532.82	65535.00
532.99	65535.00
533.16	65535.00
533.33	65535.00
533.50	65535.00
533.67	65535.00
533.84	65535.00
534.01	65535.00
534.18	65535.00
534.35	65535.00
534.52	65535.00
534.69	65535.00
534.86	65535.00
535.03	65535.00
535.20	65535.00
535.37	65535.00
535.54	65535.00
535.71	65535.00
535.88	65535.00
536.05	65535.00
536.22	65535.00
536.38	65535.00
536.55	65535.00
536.72	65535.00
536.89	65535.00
537.06	65535.00
537.23	65535.00
537.40	65535.00
537.57	65535.00
537.74	65535.00
537.91	65535.00
538.08	65535.00
538.25	65535.00
538.42	65535.00
538.59	65535.00
538.75	65535.00
538.92	65535.00
539.09	65535.00
539.26	65535.00
539.43	65535.00
539.60	65535.00
539.77	65535.00
539.94	65535.00
540.11	65535.00
540.28	65535.00
540.44	65535.00
540.61	65535.00
540.78	65535.00
540.95	65535.00
541.12	65535.00
541.29	65535.00
541.46	65535.00
541.62	65535.00
541.79	65535.00
541.96	65535.00
542.13	65535.00
542.30	65535.00
542.47	65535.00
542.63	65535.00
542.80	65535.00
542.97	65535.00
543.14	65535.00
543.31	65535.00
543.48	65535.00
543.64	65535.00
543.81	65535.00
543.98	65535.00
544.15	65535.00
544.32	65535.00
544.48	65535.00
544.65	65535.00
544.82	65535.00
544.99	65535.00
545.16	65535.00
545.32	65535.00
545.49	65535.00
545.66	65535.00
545.83	65535.00
546.00	65535.00
546.16	65535.00
546.33	65535.00
546.50	65535.00
546.67	65535.00
546.83	65535.00
547.00	65535.00
547.17	65535.00
547.34	65535.00
547.50	65535.00
547.67	65535.00
547.84	65535.00
548.00	65535.00
548.17	65535.00
548.34	65535.00
548.51	65535.00
548.67	65535.00
548.84	65535.00
549.01	65535.00
549.18	65535.00
549.34	65535.00
549.51	65535.00
549.68	65535.00
549.84	65535.00
550.01	65535.00
550.18	65535.00
550.34	65535.00
550.51	65535.00
550.68	65535.00
550.84	65535.00
551.01	65535.00
551.18	65535.00
551.34	65535.00
551.51	65535.00
551.68	65535.00
551.84	65535.00
552.01	65535.00
552.18	65535.00
552.34	65535.00
552.51	65535.00
552.68	65535.00
552.84	65535.00
553.01	65535.00
553.18	65535.00
553.34	65535.00
553.51	65535.00
553.67	65535.00
553.84	65535.00
554.01	65535.00
554.17	65535.00
554.34	65535.00
554.51	65535.00
554.67	65535.00
554.84	65535.00
555.00	65535.00
555.17	65535.00
555.33	65535.00
555.50	65535.00
555.67	65535.00
555.83	65535.00
556.00	65535.00
556.16	65535.00
556.33	65535.00
556.50	65535.00
556.66	65535.00
556.83	65535.00
556.99	65535.00
557.16	65535.00
557.32	65535.00
557.49	65535.00
557.65	65535.00
557.82	65535.00
557.98	65535.00
558.15	65535.00
558.32	65535.00
558.48	65535.00
558.65	65535.00
558.81	65535.00
558.98	65535.00
559.14	65535.00
559.31	65535.00
559.47	65535.00
559.64	65535.00
559.80	65535.00
559.97	65535.00
560.13	65535.00
560.30	65535.00
560.46	65535.00
560.63	65535.00
560.79	65535.00
560.96	65535.00
561.12	65535.00
561.29	65535.00
561.45	65535.00
561.61	65535.00
561.78	65535.00
561.94	65535.00
562.11	65535.00
562.27	65535.00
562.44	65535.00
562.60	65535.00
562.77	65535.00
562.93	65535.00
563.10	65535.00
563.26	65535.00
563.42	65535.00
563.59	65535.00
563.75	65535.00
563.92	65535.00
564.08	65535.00
564.24	65535.00
564.41	65535.00
564.57	65535.00
564.74	65535.00
564.90	65535.00
565.07	65535.00
565.23	65535.00
565.39	65535.00
565.56	65535.00
565.72	65535.00
565.88	65535.00
566.05	65535.00
566.21	65535.00
566.38	65535.00
566.54	65535.00
566.70	65535.00
566.87	65535.00
567.03	65535.00
567.19	65535.00
567.36	65535.00
567.52	65535.00
567.68	65535.00
567.85	65535.00
568.01	65535.00
568.17	65535.00
568.34	65535.00
568.50	65535.00
568.66	65535.00
568.83	65535.00
568.99	65535.00
569.15	65535.00
569.32	65535.00
569.48	65535.00
569.64	65535.00
569.81	65535.00
569.97	65535.00
570.13	65535.00
570.30	65535.00
570.46	65535.00
570.62	65535.00
570.78	65535.00
570.95	65535.00
571.11	65535.00
571.27	65535.00
571.43	65535.00
571.60	65535.00
571.76	65535.00
571.92	65535.00
572.09	65535.00
572.25	65535.00
572.41	65535.00
572.57	65535.00
572.74	65535.00
572.90	65535.00
573.06	65535.00
573.22	65535.00
573.38	65535.00
573.55	65535.00
573.71	65535.00
573.87	65535.00
574.03	65535.00
574.20	65535.00
574.36	65535.00
574.52	65535.00
574.68	65535.00
574.84	65535.00
575.01	65535.00
575.17	65535.00
575.33	65535.00
575.49	65535.00
575.65	65535.00
575.82	65535.00
575.98	65535.00
576.14	65535.00
576.30	65535.00
576.46	65535.00
576.62	65535.00
576.79	65535.00
576.95	65535.00
577.11	65535.00
577.27	65535.00
577.43	65535.00
577.59	65535.00
577.75	65535.00
577.92	65535.00
578.08	65535.00
578.24	65535.00
578.40	65535.00
578.56	65535.00
578.72	65535.00
578.88	65535.00
579.04	65535.00
579.21	65535.00
579.37	65535.00
579.53	65535.00
579.69	65535.00
579.85	65535.00
580.01	65535.00
580.17	65535.00
580.33	65535.00
580.49	65535.00
580.65	65535.00
580.82	65535.00
580.98	65535.00
581.14	65535.00
581.30	65535.00
581.46	65535.00
581.62	65535.00
581.78	65535.00
581.94	65535.00
582.10	65535.00
582.26	65535.00
582.42	65535.00
582.58	65535.00
582.74	65535.00
582.90	65535.00
583.06	65535.00
583.22	65535.00
583.38	65535.00
583.54	65535.00
583.70	65535.00
583.86	65535.00
584.02	65535.00
584.18	65535.00
584.34	65535.00
584.50	65535.00
584.66	65535.00
584.82	65535.00
584.98	65535.00
585.14	65535.00
585.30	65535.00
585.46	65535.00
585.62	65535.00
585.78	65535.00
585.94	65535.00
586.10	65535.00
586.26	65535.00
586.42	65535.00
586.58	65535.00
586.74	65535.00
