SpectraSuite Data File
++++++++++++++++++++++++++++++++++++
Date: Thu Oct 24 13:21:10 EDT 2013
User: stostad
Dark Spectrum Present: No
Reference Spectrum Present: No
Number of Sampled Component Spectra: 1
Spectrometers: USB2+H05261
Integration Time (usec): 100000 (USB2+H05261)
Spectra Averaged: 1 (USB2+H05261)
Boxcar Smoothing: 0 (USB2+H05261)
Correct for Electrical Dark: No (USB2+H05261)
Strobe/Lamp Enabled: No (USB2+H05261)
Correct for Detector Non-linearity: No (USB2+H05261)
Correct for Stray Light: No (USB2+H05261)
Number of Pixels in Processed Spectrum: 2048
>>>>>Begin Processed Spectral Data<<<<<
365.73	587.47
365.92	587.47
366.12	587.47
366.32	557.05
366.52	489.17
366.72	470.45
366.91	409.59
367.11	484.49
367.31	489.17
367.51	489.17
367.70	475.13
367.90	444.70
368.10	447.04
368.30	402.57
368.49	493.85
368.69	491.51
368.89	512.58
369.09	468.11
369.28	482.15
369.48	493.85
369.68	505.56
369.87	461.09
370.07	521.94
370.27	547.69
370.47	557.05
370.66	655.35
370.86	716.20
371.06	730.25
371.25	711.52
371.45	760.67
371.65	706.84
371.84	711.52
372.04	770.04
372.24	779.40
372.44	709.18
372.63	882.38
372.83	774.72
373.03	770.04
373.22	751.31
373.42	781.74
373.62	744.29
373.81	798.12
374.01	791.10
374.21	800.46
374.40	746.63
374.60	786.42
374.79	828.55
374.99	779.40
375.19	833.23
375.38	802.80
375.58	821.53
375.78	861.32
375.97	800.46
376.17	884.72
376.37	791.10
376.56	833.23
376.76	809.83
376.95	830.89
377.15	884.72
377.35	732.59
377.54	842.59
377.74	809.83
377.93	875.36
378.13	924.51
378.33	819.19
378.52	840.25
378.72	912.81
378.91	866.00
379.11	936.21
379.31	835.57
379.50	844.93
379.70	863.66
379.89	880.04
380.09	861.32
380.28	823.87
380.48	901.11
380.68	847.27
380.87	842.59
381.07	887.06
381.26	868.34
381.46	793.44
381.65	915.15
381.85	922.17
382.04	924.51
382.24	880.04
382.43	917.49
382.63	943.24
382.83	875.36
383.02	936.21
383.22	889.40
383.41	966.64
383.61	966.64
383.80	933.87
384.00	854.30
384.19	870.68
384.39	884.72
384.58	933.87
384.78	915.15
384.97	924.51
385.17	985.37
385.36	971.32
385.56	887.06
385.75	919.83
385.95	858.98
386.14	976.00
386.34	912.81
386.53	884.72
386.72	922.17
386.92	994.73
387.11	940.90
387.31	1015.79
387.50	908.13
387.70	976.00
387.89	968.98
388.09	875.36
388.28	957.28
388.48	994.73
388.67	971.32
388.86	971.32
389.06	1048.56
389.25	940.90
389.45	968.98
389.64	950.26
389.84	973.66
390.03	968.98
390.22	987.71
390.42	924.51
390.61	987.71
390.81	992.39
391.00	999.41
391.19	1102.39
391.39	1032.18
391.58	992.39
391.78	1032.18
391.97	1027.50
392.16	968.98
392.36	1048.56
392.55	1095.37
392.75	1046.22
392.94	1057.92
393.13	1034.52
393.33	1015.79
393.52	1139.84
393.71	1123.46
393.91	1153.88
394.10	1018.13
394.29	1046.22
394.49	1125.80
394.68	1055.58
394.88	1067.28
395.07	1097.71
395.26	1081.33
395.46	1179.63
395.65	1224.10
395.84	1125.80
396.04	1191.33
396.23	1109.41
396.42	1186.65
396.62	1095.37
396.81	1151.54
397.00	1144.52
397.19	1233.46
397.39	1128.14
397.58	1125.80
397.77	1212.40
397.97	1219.42
398.16	1132.82
398.35	1160.91
398.55	1160.91
398.74	1205.38
398.93	1263.89
399.12	1184.31
399.32	1235.80
399.51	1249.85
399.70	1263.89
399.90	1167.93
400.09	1228.78
400.28	1275.59
400.47	1228.78
400.67	1221.76
400.86	1198.35
401.05	1275.59
401.24	1226.44
401.44	1296.66
401.63	1334.11
401.82	1294.32
402.01	1210.06
402.21	1385.60
402.40	1287.29
402.59	1310.70
402.78	1329.42
402.97	1324.74
403.17	1341.13
403.36	1343.47
403.55	1306.02
403.74	1427.73
403.93	1380.92
404.13	1523.69
404.32	1364.53
404.51	1401.98
404.70	1362.19
404.89	1451.13
405.09	1444.11
405.28	1385.60
405.47	1404.32
405.66	1420.71
405.85	1439.43
406.05	1357.51
406.24	1404.32
406.43	1441.77
406.62	1561.14
406.81	1511.99
407.00	1579.86
407.20	1535.39
407.39	1467.52
407.58	1490.92
407.77	1497.94
407.96	1474.54
408.15	1591.56
408.34	1437.09
408.54	1455.81
408.73	1540.07
408.92	1488.58
409.11	1572.84
409.30	1549.43
409.49	1685.19
409.68	1624.33
409.87	1617.31
410.07	1638.38
410.26	1579.86
410.45	1633.69
410.64	1687.53
410.83	1732.00
411.02	1650.08
411.21	1732.00
411.40	1722.63
411.59	1708.59
411.78	1664.12
411.98	1680.50
412.17	1750.72
412.36	1734.34
412.55	1802.21
412.74	1846.68
412.93	1804.55
413.12	1715.61
413.31	1874.77
413.50	1816.26
413.69	1790.51
413.88	1872.43
414.07	1825.62
414.26	1912.22
414.45	1966.05
414.64	1937.96
414.83	1923.92
415.02	1980.09
415.22	1839.66
415.41	1844.34
415.60	1923.92
415.79	2043.29
415.98	2026.90
416.17	1928.60
416.36	2029.24
416.55	2012.86
416.74	2012.86
416.93	1991.80
417.12	2022.22
417.31	2155.63
417.50	2076.06
417.69	2209.47
417.88	2085.42
418.07	2097.12
418.26	2057.33
418.45	2139.25
418.64	2148.61
418.83	2186.06
419.02	2104.14
419.21	2218.83
419.39	2146.27
419.58	2232.87
419.77	2209.47
419.96	2190.74
420.15	2242.23
420.34	2193.08
420.53	2204.78
420.72	2188.40
420.91	2270.32
421.10	2298.41
421.29	2370.96
421.48	2275.00
421.67	2216.49
421.86	2342.88
422.05	2324.15
422.24	2235.21
422.43	2354.58
422.61	2298.41
422.80	2380.32
422.99	2317.13
423.18	2333.51
423.37	2406.07
423.56	2356.92
423.75	2473.95
423.94	2237.55
424.13	2186.06
424.32	2200.10
424.50	2326.49
424.69	2434.16
424.88	2387.35
425.07	2333.51
425.26	2326.49
425.45	2375.64
425.64	2417.77
425.83	2457.56
426.01	2340.54
426.20	2354.58
426.39	2385.01
426.58	2406.07
426.77	2424.80
426.96	2429.48
427.15	2368.62
427.33	2506.71
427.52	2415.43
427.71	2551.18
427.90	2438.84
428.09	2462.24
428.28	2548.84
428.46	2415.43
428.65	2551.18
428.84	2544.16
429.03	2546.50
429.22	2443.52
429.40	2518.42
429.59	2492.67
429.78	2548.84
429.97	2506.71
430.16	2623.74
430.34	2644.81
430.53	2663.53
430.72	2722.04
430.91	2640.12
431.10	2593.31
431.28	2630.76
431.47	2602.68
431.66	2612.04
431.85	2658.85
432.03	2712.68
432.22	2731.41
432.41	2684.59
432.60	2825.03
432.79	2656.51
432.97	2808.64
433.16	2803.96
433.35	2710.34
433.54	2761.83
433.72	2731.41
433.91	2780.56
434.10	2761.83
434.28	2803.96
434.47	2719.70
434.66	2906.95
434.85	2825.03
435.03	3000.57
435.22	3190.15
435.41	3318.88
435.59	3265.05
435.78	3129.30
435.97	3052.06
436.16	2925.67
436.34	3035.67
436.53	2937.37
436.72	2937.37
436.90	3009.93
437.09	2998.23
437.28	2869.50
437.46	2974.82
437.65	3016.95
437.84	3089.51
438.02	2993.55
438.21	3061.42
438.40	3056.74
438.58	3077.80
438.77	3035.67
438.96	3080.14
439.14	3180.79
439.33	3218.24
439.52	3246.32
439.70	3190.15
439.89	3157.38
440.08	3145.68
440.26	3222.92
440.45	3222.92
440.63	3281.43
440.82	3365.69
441.01	3304.84
441.19	3353.99
441.38	3290.79
441.57	3417.18
441.75	3431.23
441.94	3405.48
442.12	3510.80
442.31	3389.10
442.50	3531.87
442.68	3391.44
442.87	3379.73
443.05	3564.64
443.24	3576.34
443.43	3562.30
443.61	3674.64
443.80	3662.94
443.98	3435.91
444.17	3361.01
444.35	3400.80
444.54	3616.13
444.73	3583.36
444.91	3574.00
445.10	3559.95
445.28	3644.21
445.47	3669.96
445.65	3559.95
445.84	3623.15
446.02	3529.53
446.21	3566.98
446.39	3681.66
446.58	3721.45
446.77	3782.31
446.95	3655.92
447.14	3581.02
447.32	3627.83
447.51	3604.42
447.69	3611.45
447.88	3651.24
448.06	3662.94
448.25	3637.19
448.43	3648.90
448.62	3681.66
448.80	3707.41
448.99	3777.62
449.17	3569.32
449.36	3637.19
449.54	3803.37
449.73	3845.50
449.91	3721.45
450.10	3779.97
450.28	3899.33
450.46	3864.22
450.65	3779.97
450.83	3845.50
451.02	3871.25
451.20	3899.33
451.39	4011.68
451.57	3786.99
451.76	3866.56
451.94	3721.45
452.13	3976.57
452.31	3999.98
452.49	3948.48
452.68	3819.75
452.86	4009.34
453.05	3861.88
453.23	4023.38
453.42	4004.66
453.60	4004.66
453.78	3936.78
453.97	4011.68
454.15	3927.42
454.34	3899.33
454.52	4037.42
454.70	4100.62
454.89	3939.12
455.07	4147.43
455.26	4184.88
455.44	4131.05
455.62	4021.04
455.81	4159.13
455.99	4229.35
456.17	4147.43
456.36	4114.66
456.54	4212.96
456.73	4135.73
456.91	4304.25
457.09	4252.75
457.28	4386.16
457.46	4255.09
457.64	4294.88
457.83	4203.60
458.01	4271.48
458.19	4407.23
458.38	4257.43
458.56	4360.42
458.74	4512.55
458.93	4325.31
459.11	4325.31
459.29	4526.60
459.48	4470.42
459.66	4468.08
459.84	4374.46
460.03	4704.48
460.21	4657.67
460.39	4402.55
460.57	4521.92
460.76	4603.83
460.94	4557.02
461.12	4554.68
461.31	4592.13
461.49	4510.21
461.67	4528.94
461.85	4606.17
462.04	4685.75
462.22	5006.41
462.40	4713.84
462.59	4571.07
462.77	4690.43
462.95	4774.69
463.13	4692.77
463.32	4744.27
463.50	4786.40
463.68	4706.82
463.86	4760.65
464.05	4737.24
464.23	4697.46
464.41	4809.80
464.59	4514.89
464.78	4748.95
464.96	5041.51
465.14	4725.54
465.32	4877.68
465.50	4943.21
465.69	4950.23
465.87	4961.94
466.05	4933.85
466.23	4807.46
466.41	4924.49
466.60	5006.41
466.78	4943.21
466.96	4889.38
467.14	4758.31
467.32	4854.27
467.51	4978.32
467.69	4842.57
467.87	4943.21
468.05	5036.83
468.23	4961.94
468.41	5008.75
468.60	5027.47
468.78	5184.29
468.96	5109.39
469.14	5004.07
469.32	5111.73
469.50	5008.75
469.69	5210.03
469.87	5172.58
470.05	5284.93
470.23	5111.73
470.41	5233.44
470.59	5296.63
470.77	5207.69
470.95	5280.25
471.14	5359.83
471.32	5327.06
471.50	5376.21
471.68	5085.98
471.86	5542.39
472.04	5315.36
472.22	5507.28
472.40	5383.23
472.58	5565.79
472.77	5460.47
472.95	5554.09
473.13	5710.91
473.31	5526.00
473.49	5633.67
473.67	5502.60
473.85	5680.48
474.03	5767.08
474.21	5675.80
474.39	5823.25
474.57	5839.64
474.75	5750.70
474.93	5954.32
475.12	5893.47
475.30	5884.11
475.48	5795.17
475.66	5867.72
475.84	5935.60
476.02	6017.52
476.20	6113.48
476.38	6080.71
476.56	6090.07
476.74	6188.38
476.92	6155.61
477.10	6146.25
477.28	6319.45
477.46	6370.94
477.64	6279.66
477.82	6485.62
478.00	6497.33
478.18	6551.16
478.36	6595.63
478.54	6478.60
478.72	6705.63
478.90	6719.68
479.08	6696.27
479.26	6778.19
479.44	6890.54
479.62	6916.28
479.80	6773.51
479.98	6923.30
480.16	7082.46
480.34	7131.61
480.52	7265.02
480.70	7225.23
480.88	6876.49
481.06	7227.57
481.24	7218.21
481.41	7171.40
481.59	7368.01
481.77	7281.41
481.95	7522.48
482.13	7564.61
482.31	7480.35
482.49	7716.75
482.67	7859.52
482.85	7831.43
483.03	7836.11
483.21	7927.39
483.39	7845.48
483.57	7887.61
483.74	7990.59
483.92	8081.87
484.10	8131.02
484.28	8084.21
484.46	8116.98
484.64	8397.84
484.82	8269.11
485.00	8411.89
485.18	8400.18
485.35	8894.04
485.53	8573.38
485.71	8959.57
485.89	8849.57
486.07	8762.97
486.25	8816.80
486.43	8807.44
486.61	8781.69
486.78	9008.72
486.96	9069.58
487.14	9193.62
487.32	9104.68
487.50	9092.98
487.68	9383.21
487.85	9678.12
488.03	9565.77
488.21	9825.57
488.39	9490.87
488.57	9640.67
488.75	9645.35
488.92	9900.47
489.10	9949.62
489.28	9827.91
489.46	10202.40
489.64	10300.70
489.81	10127.50
489.99	10148.56
490.17	10218.78
490.35	10410.70
490.53	10518.37
490.70	10455.17
490.88	10509.01
491.06	10656.46
491.24	10621.35
491.41	10611.99
491.59	10586.24
491.77	10841.36
491.95	10827.32
492.13	10829.66
492.30	10991.16
492.48	10951.37
492.66	10878.81
492.84	11037.97
493.01	11192.44
493.19	11288.40
493.37	11293.08
493.54	11367.98
493.72	11253.30
493.90	11634.80
494.08	11517.78
494.25	11557.57
494.43	11576.29
494.61	11840.77
494.79	11971.84
494.96	11871.20
495.14	11571.61
495.32	12011.63
495.49	12079.50
495.67	12329.94
495.85	12257.39
496.02	12201.21
496.20	12496.12
496.38	12475.06
496.55	12351.01
496.73	12774.64
496.91	12634.21
497.09	12690.38
497.26	12582.72
497.44	12751.24
497.62	12662.30
497.79	12938.48
497.97	12875.29
498.14	13088.28
498.32	13102.32
498.50	13322.33
498.67	13177.22
498.85	13125.72
499.03	13114.02
499.20	13090.62
499.38	13221.69
499.56	13298.92
499.73	13570.43
499.91	13390.20
500.08	13528.30
500.26	13486.17
500.44	13547.02
500.61	13738.94
500.79	13652.34
500.97	13783.41
501.14	13954.27
501.32	13886.40
501.49	13930.87
501.67	13902.78
501.84	14073.64
502.02	13907.46
502.20	14087.68
502.37	14120.45
502.55	14031.51
502.72	13958.96
502.90	14106.41
503.07	14235.14
503.25	14298.33
503.43	14190.67
503.60	14258.54
503.78	14450.47
503.95	14382.59
504.13	14544.09
504.30	14523.02
504.48	14675.16
504.65	14750.06
504.83	14888.15
505.01	14827.29
505.18	14991.13
505.36	14871.76
505.53	14806.23
505.71	14965.39
505.88	14946.66
506.06	15044.96
506.23	15108.16
506.41	15051.99
506.58	15136.24
506.76	15302.42
506.93	15178.37
507.11	15229.87
507.28	15510.73
507.46	15508.39
507.63	15379.66
507.81	15695.63
507.98	15246.25
508.16	15431.15
508.33	15517.75
508.50	15777.55
508.68	15583.29
508.85	15747.12
509.03	15997.56
509.20	15845.43
509.38	15789.25
509.55	16088.84
509.73	16196.51
509.90	16446.94
510.08	16170.76
510.25	16088.84
510.42	16580.36
510.60	16255.02
510.77	16350.98
510.95	16299.49
511.12	16250.34
511.30	16365.03
511.47	16519.50
511.64	16517.16
511.82	16446.94
511.99	16311.19
512.17	16348.64
512.34	16570.99
512.51	16793.34
512.69	16896.33
512.86	16760.58
513.04	16755.90
513.21	16578.01
513.38	17013.35
513.56	16643.55
513.73	16805.05
513.90	17067.19
514.08	17095.27
514.25	16912.71
514.43	17160.81
514.60	17167.83
514.77	17015.69
514.95	17275.49
515.12	17128.04
515.29	17202.94
515.47	17455.72
515.64	17427.63
515.81	17666.36
515.99	17212.30
516.16	17570.40
516.33	17638.28
516.51	17682.75
516.68	17610.19
516.85	17872.33
517.03	17891.06
517.20	17921.48
517.37	17563.38
517.54	17628.92
517.72	18017.44
517.89	17696.79
518.06	17982.34
518.24	18176.60
518.41	17923.82
518.58	17963.61
518.75	17881.69
518.93	17949.57
519.10	18043.19
519.27	18272.56
519.45	18162.56
519.62	18181.28
519.79	18239.79
519.96	17989.36
520.14	18059.57
520.31	18237.45
520.48	18164.90
520.65	18190.64
520.83	18555.77
521.00	18754.71
521.17	18382.57
521.34	18537.04
521.52	18445.76
521.69	18682.16
521.86	18494.91
522.03	18647.05
522.20	19023.87
522.38	18738.33
522.55	18981.74
522.72	18913.87
522.89	18953.66
523.07	19035.58
523.24	18984.09
523.41	19377.30
523.58	19136.22
523.75	19456.87
523.92	19143.24
524.10	19171.33
524.27	19274.31
524.44	19054.30
524.61	19166.65
524.78	19391.34
524.96	19309.42
525.13	19426.45
525.30	19569.22
525.47	19517.73
525.64	19506.02
525.81	19365.59
525.98	19452.19
526.16	19585.60
526.33	19843.06
526.50	19927.32
526.67	19604.33
526.84	19822.00
527.01	19555.18
527.18	19971.79
527.36	19611.35
527.53	19784.55
527.70	19728.38
527.87	19807.95
528.04	20027.96
528.21	20128.61
528.38	19990.52
528.55	20173.08
528.72	19747.10
528.89	20084.14
529.07	20049.03
529.24	19946.05
529.41	20203.50
529.58	20177.76
529.75	20240.95
529.92	20128.61
530.09	20119.24
530.26	20152.01
530.43	20243.29
530.60	20173.08
530.77	20294.79
530.94	20589.69
531.11	20493.73
531.28	20514.80
531.46	20430.54
531.63	20346.28
531.80	20311.17
531.97	20484.37
532.14	20334.57
532.31	20535.86
532.48	20554.58
532.65	20718.42
532.82	20975.88
532.99	20723.10
533.16	20676.29
533.33	20851.83
533.50	20669.27
533.67	20622.46
533.84	20821.41
534.01	21043.76
534.18	20702.04
534.35	21252.06
534.52	20910.35
534.69	21104.61
534.86	21270.79
535.03	20697.36
535.20	20896.30
535.37	21048.44
535.54	21392.50
535.71	21291.85
535.88	21198.23
536.05	21502.50
536.22	21373.77
536.38	21357.39
536.55	21413.56
536.72	21207.59
536.89	21443.99
537.06	21394.84
537.23	21488.46
537.40	21546.97
537.57	21275.47
537.74	21525.91
537.91	21509.52
538.08	21944.86
538.25	20985.24
538.42	21415.90
538.59	22073.59
538.75	21631.23
538.92	21755.28
539.09	21851.24
539.26	21930.82
539.43	21467.39
539.60	21809.11
539.77	21844.22
539.94	21844.22
540.11	21989.33
540.28	22263.18
540.44	22218.71
540.61	21970.61
540.78	22178.92
540.95	22101.68
541.12	22560.42
541.29	22398.93
541.46	22705.54
541.62	22647.02
541.79	22422.33
541.96	22649.36
542.13	22235.09
542.30	22618.94
542.47	22391.91
542.63	22906.82
542.80	22897.46
542.97	22984.06
543.14	22916.19
543.31	22909.16
543.48	22616.60
543.64	23175.98
543.81	22831.93
543.98	23051.94
544.15	23197.05
544.32	23005.13
544.48	23431.10
544.65	23070.66
544.82	23122.15
544.99	22869.37
545.16	23103.43
545.32	23087.04
545.49	23749.42
545.66	23964.75
545.83	24173.05
546.00	23875.80
546.16	23520.04
546.33	23669.84
546.50	23007.47
546.67	23283.65
546.83	23014.49
547.00	23166.62
547.17	23124.49
547.34	22937.25
547.50	23122.15
547.67	23056.62
547.84	23033.21
548.00	23449.83
548.17	23791.55
548.34	23316.42
548.51	23379.61
548.67	23311.74
548.84	23440.47
549.01	23012.15
549.18	23456.85
549.34	23447.49
549.51	23632.39
549.68	23606.64
549.84	23035.55
550.01	23260.24
550.18	23271.95
550.34	23014.49
550.51	23606.64
550.68	23541.11
550.84	23414.72
551.01	23363.23
551.18	23543.45
551.34	23213.43
551.51	23096.41
551.68	23541.11
551.84	23077.68
552.01	23349.18
552.18	23501.32
552.34	23676.86
552.51	23461.53
552.68	23578.56
552.84	23475.57
553.01	23857.08
553.18	24091.13
553.34	23833.68
553.51	23718.99
553.67	23660.48
553.84	23927.30
554.01	23915.59
554.17	23997.51
554.34	23688.56
554.51	23812.61
554.67	24058.37
554.84	23697.92
555.00	23903.89
555.17	23527.06
555.33	23885.17
555.50	23864.10
555.67	23686.22
555.83	23639.41
556.00	23845.38
556.16	23943.68
556.33	24318.17
556.50	23826.65
556.66	23768.14
556.83	23920.28
556.99	24362.64
557.16	23922.62
557.32	23910.91
557.49	24329.87
557.65	24049.00
557.82	23974.11
557.98	24217.52
558.15	23981.13
558.32	24144.97
558.48	24276.04
558.65	24149.65
558.81	24299.44
558.98	23997.51
559.14	24411.79
559.31	24041.98
559.47	24009.22
559.64	24395.40
559.80	24308.80
559.97	24212.84
560.13	23999.85
560.30	24112.20
560.46	23899.21
560.63	24538.18
560.79	24687.97
560.96	24437.53
561.12	24037.30
561.29	24444.56
561.45	24009.22
561.61	24641.16
561.78	24500.73
561.94	24519.45
562.11	24421.15
562.27	24725.42
562.44	25085.86
562.60	24622.44
562.77	24240.93
562.93	24343.91
563.10	24788.61
563.26	24369.66
563.42	24519.45
563.59	24856.49
563.75	24720.74
563.92	24634.14
564.08	24760.53
564.24	24709.04
564.41	24615.41
564.57	24474.98
564.74	24477.32
564.90	24964.15
565.07	24739.46
565.23	24779.25
565.39	24917.34
565.56	24816.70
565.72	24805.00
565.88	24474.98
566.05	24673.93
566.21	24355.61
566.38	24327.53
566.54	24491.37
566.70	24767.55
566.87	24816.70
567.03	24568.60
567.19	24774.57
567.36	24753.51
567.52	24489.03
567.68	24790.95
567.85	24795.64
568.01	24922.02
568.17	24795.64
568.34	25043.73
568.50	24650.52
568.66	24964.15
568.83	24802.66
568.99	24622.44
569.15	24563.92
569.32	24767.55
569.48	24510.09
569.64	25017.99
569.81	24636.48
569.97	24765.21
570.13	24868.19
570.30	24687.97
570.46	24898.62
570.62	24699.67
570.78	25041.39
570.95	24746.48
571.11	24999.26
571.27	24678.61
571.43	24662.22
571.60	24694.99
571.76	24957.13
571.92	24692.65
572.09	25207.57
572.25	25214.59
572.41	25034.37
572.57	25446.30
572.74	25160.76
572.90	24816.70
573.06	24812.02
573.22	24924.36
573.38	25076.50
573.55	24835.42
573.71	25230.98
573.87	24945.43
574.03	24854.15
574.20	25104.59
574.36	25081.18
574.52	24769.89
574.68	25055.43
574.84	24774.57
575.01	24816.70
575.17	25064.80
575.33	25109.27
575.49	25055.43
575.65	24830.74
575.82	25034.37
575.98	24657.54
576.14	25027.35
576.30	25214.59
576.46	24833.08
576.62	25153.74
576.79	25095.22
576.95	25095.22
577.11	25013.31
577.27	25139.69
577.43	25509.50
577.59	25212.25
577.75	25106.93
577.92	24823.72
578.08	24893.94
578.24	24814.36
578.40	25324.60
578.56	25142.03
578.72	25460.35
578.88	25462.69
579.04	25219.27
579.21	25294.17
579.37	25132.67
579.53	25158.42
579.69	24961.81
579.85	24926.71
580.01	24982.88
580.17	24931.39
580.33	25116.29
580.49	25226.29
580.65	25226.29
580.82	25198.21
580.98	24840.11
581.14	24893.94
581.30	25167.78
581.46	25050.75
581.62	25071.82
581.78	25240.34
581.94	25109.27
582.10	24531.15
582.26	25273.10
582.42	25397.15
582.58	25111.61
582.74	25142.03
582.90	25263.74
583.06	24840.11
583.22	24685.63
583.38	25387.79
583.54	25060.12
583.70	25254.38
583.86	24910.32
584.02	25469.71
584.18	25350.34
584.34	25376.09
584.50	25357.36
584.66	25172.46
584.82	25364.39
584.98	25268.42
585.14	25408.86
585.30	25120.97
585.46	25209.91
585.62	25074.16
585.78	25308.21
585.94	25216.93
586.10	25174.80
586.26	25242.68
586.42	25628.87
586.58	25380.77
586.74	25319.92
586.90	25390.13
587.06	25458.01
587.22	25366.73
587.38	25312.89
587.54	25626.53
587.70	25549.29
587.86	25640.57
588.02	25715.47
588.18	25642.91
588.34	25359.70
588.49	25205.23
588.65	25048.41
588.81	24882.24
588.97	25420.56
589.13	25015.65
589.29	25612.48
589.45	25593.76
589.61	25266.08
589.77	25338.64
589.93	25390.13
590.08	25352.68
590.24	25441.62
590.40	25607.80
590.56	25207.57
590.72	25390.13
590.88	25069.48
