SpectraSuite Data File
++++++++++++++++++++++++++++++++++++
Date: Thu Oct 24 13:21:14 EDT 2013
User: stostad
Dark Spectrum Present: No
Reference Spectrum Present: No
Number of Sampled Component Spectra: 1
Spectrometers: USB2+H05261
Integration Time (usec): 100000 (USB2+H05261)
Spectra Averaged: 1 (USB2+H05261)
Boxcar Smoothing: 0 (USB2+H05261)
Correct for Electrical Dark: No (USB2+H05261)
Strobe/Lamp Enabled: No (USB2+H05261)
Correct for Detector Non-linearity: No (USB2+H05261)
Correct for Stray Light: No (USB2+H05261)
Number of Pixels in Processed Spectrum: 2048
>>>>>Begin Processed Spectral Data<<<<<
365.73	552.37
365.92	552.37
366.12	552.37
366.32	421.30
366.52	482.15
366.72	468.11
366.91	433.00
367.11	458.74
367.31	491.51
367.51	433.00
367.70	444.70
367.90	468.11
368.10	484.49
368.30	456.40
368.49	433.00
368.69	491.51
368.89	493.85
369.09	484.49
369.28	458.74
369.48	430.66
369.68	465.77
369.87	479.81
370.07	454.06
370.27	543.00
370.47	573.43
370.66	732.59
370.86	744.29
371.06	779.40
371.25	784.08
371.45	777.06
371.65	833.23
371.84	704.50
372.04	765.36
372.24	788.76
372.44	781.74
372.63	823.87
372.83	880.04
373.03	851.96
373.22	837.91
373.42	819.19
373.62	858.98
373.81	826.21
374.01	868.34
374.21	816.85
374.40	870.68
374.60	821.53
374.79	826.21
374.99	812.17
375.19	894.08
375.38	877.70
375.58	851.96
375.78	849.61
375.97	858.98
376.17	954.94
376.37	844.93
376.56	875.36
376.76	842.59
376.95	873.02
377.15	870.68
377.35	868.34
377.54	847.27
377.74	875.36
377.93	950.26
378.13	924.51
378.33	875.36
378.52	854.30
378.72	994.73
378.91	903.45
379.11	840.25
379.31	837.91
379.50	908.13
379.70	875.36
379.89	912.81
380.09	875.36
380.28	894.08
380.48	954.94
380.68	896.43
380.87	940.90
381.07	1048.56
381.26	954.94
381.46	889.40
381.65	943.24
381.85	985.37
382.04	924.51
382.24	1004.09
382.43	968.98
382.63	959.62
382.83	990.05
383.02	966.64
383.22	1018.13
383.41	875.36
383.61	1018.13
383.80	985.37
384.00	940.90
384.19	976.00
384.39	980.68
384.58	1036.86
384.78	938.55
384.97	961.96
385.17	1067.28
385.36	985.37
385.56	980.68
385.75	936.21
385.95	1036.86
386.14	961.96
386.34	1071.97
386.53	1069.62
386.72	1004.09
386.92	971.32
387.11	1029.84
387.31	1128.14
387.50	1048.56
387.70	971.32
387.89	1102.39
388.09	1086.01
388.28	1053.24
388.48	1025.15
388.67	1097.71
388.86	1074.31
389.06	1100.05
389.25	1067.28
389.45	1097.71
389.64	1036.86
389.84	1116.44
390.03	1062.60
390.22	1107.07
390.42	1151.54
390.61	1144.52
390.81	1142.18
391.00	1118.78
391.19	1121.12
391.39	1151.54
391.58	1151.54
391.78	1071.97
391.97	1198.35
392.16	1123.46
392.36	1088.35
392.55	1170.27
392.75	1146.86
392.94	1123.46
393.13	1109.41
393.33	1174.95
393.52	1179.63
393.71	1235.80
393.91	1226.44
394.10	1181.97
394.29	1170.27
394.49	1174.95
394.68	1200.69
394.88	1275.59
395.07	1256.87
395.26	1252.19
395.46	1238.14
395.65	1303.68
395.84	1205.38
396.04	1221.76
396.23	1310.70
396.42	1282.61
396.62	1266.23
396.81	1247.51
397.00	1280.27
397.19	1315.38
397.39	1277.93
397.58	1336.45
397.77	1336.45
397.97	1371.55
398.16	1315.38
398.35	1357.51
398.55	1277.93
398.74	1336.45
398.93	1373.89
399.12	1350.49
399.32	1350.49
399.51	1345.81
399.70	1411.34
399.90	1406.66
400.09	1425.39
400.28	1437.09
400.47	1453.47
400.67	1441.77
400.86	1423.05
401.05	1413.68
401.24	1397.30
401.44	1390.28
401.63	1488.58
401.82	1465.18
402.01	1472.20
402.21	1439.43
402.40	1423.05
402.59	1416.02
402.78	1493.26
402.97	1500.28
403.17	1474.54
403.36	1509.65
403.55	1514.33
403.74	1507.30
403.93	1614.97
404.13	1626.67
404.32	1570.50
404.51	1614.97
404.70	1633.69
404.89	1671.14
405.09	1624.33
405.28	1575.18
405.47	1645.40
405.66	1715.61
405.85	1657.10
406.05	1643.06
406.24	1708.59
406.43	1652.42
406.62	1633.69
406.81	1825.62
407.00	1713.27
407.20	1678.16
407.39	1783.49
407.58	1757.74
407.77	1732.00
407.96	1802.21
408.15	1781.15
408.34	1827.96
408.54	1914.56
408.73	1755.40
408.92	1849.02
409.11	1802.21
409.30	1919.24
409.49	1764.76
409.68	1832.64
409.87	1909.88
410.07	1907.54
410.26	1940.30
410.45	1895.83
410.64	1858.39
410.83	1956.69
411.02	1940.30
411.21	1991.80
411.40	1900.52
411.59	1905.20
411.78	1989.46
411.98	2022.22
412.17	2071.37
412.36	1991.80
412.55	2015.20
412.74	2104.14
412.93	2221.17
413.12	2057.33
413.31	2120.53
413.50	2108.82
413.69	2076.06
413.88	2162.66
414.07	2188.40
414.26	2197.76
414.45	2136.91
414.64	2104.14
414.83	2230.53
415.02	2270.32
415.22	2356.92
415.41	2380.32
415.60	2335.85
415.79	2314.79
415.98	2335.85
416.17	2410.75
416.36	2275.00
416.55	2347.56
416.74	2417.77
416.93	2476.29
417.12	2480.97
417.31	2523.10
417.50	2532.46
417.69	2462.24
417.88	2572.25
418.07	2530.12
418.26	2527.78
418.45	2415.43
418.64	2516.08
418.83	2551.18
419.02	2590.97
419.21	2593.31
419.39	2605.02
419.58	2553.52
419.77	2576.93
419.96	2590.97
420.15	2651.83
420.34	2623.74
420.53	2602.68
420.72	2729.06
420.91	2729.06
421.10	2724.38
421.29	2775.88
421.48	2698.64
421.67	2691.62
421.86	2773.53
422.05	2757.15
422.24	2780.56
422.43	2729.06
422.61	2899.92
422.80	2867.16
422.99	2724.38
423.18	2967.80
423.37	2825.03
423.56	2836.73
423.75	2780.56
423.94	2736.09
424.13	2586.29
424.32	2633.10
424.50	2864.82
424.69	2965.46
424.88	2853.11
425.07	2834.39
425.26	2829.71
425.45	2792.26
425.64	2803.96
425.83	2836.73
426.01	2745.45
426.20	2843.75
426.39	2946.73
426.58	2885.88
426.77	2890.56
426.96	2902.26
427.15	2820.35
427.33	2918.65
427.52	2818.00
427.71	2965.46
427.90	2951.42
428.09	2970.14
428.28	2944.39
428.46	2904.60
428.65	2935.03
428.84	3052.06
429.03	3155.04
429.22	2977.16
429.40	3091.85
429.59	3021.63
429.78	3016.95
429.97	3110.57
430.16	3054.40
430.34	3141.00
430.53	3178.45
430.72	3192.49
430.91	3141.00
431.10	3131.64
431.28	3126.96
431.47	3251.00
431.66	3155.04
431.85	3239.30
432.03	3321.22
432.22	3297.81
432.41	3138.66
432.60	3272.07
432.79	3330.58
432.97	3295.47
433.16	3365.69
433.35	3283.77
433.54	3389.10
433.72	3283.77
433.91	3361.01
434.10	3410.16
434.28	3318.88
434.47	3431.23
434.66	3445.27
434.85	3552.93
435.03	3679.32
435.22	3719.11
435.41	3873.59
435.59	3754.22
435.78	3794.01
435.97	3885.29
436.16	3618.47
436.34	3611.45
436.53	3517.83
436.72	3581.02
436.90	3496.76
437.09	3616.13
437.28	3442.93
437.46	3625.49
437.65	3478.04
437.84	3660.60
438.02	3637.19
438.21	3674.64
438.40	3592.72
438.58	3716.77
438.77	3829.12
438.96	3740.18
439.14	3803.37
439.33	3833.80
439.52	3901.67
439.70	3819.75
439.89	3932.10
440.08	3925.08
440.26	3960.19
440.45	3941.46
440.63	3999.98
440.82	4058.49
441.01	3997.64
441.19	4042.11
441.38	4049.13
441.57	4205.94
441.75	4252.75
441.94	4196.58
442.12	4180.20
442.31	4266.80
442.50	4212.96
442.68	4217.65
442.87	4217.65
443.05	4290.20
443.24	4383.82
443.43	4313.61
443.61	4414.25
443.80	4395.53
443.98	4346.37
444.17	4198.92
444.35	4290.20
444.54	4367.44
444.73	4437.66
444.91	4353.40
445.10	4339.35
445.28	4418.93
445.47	4418.93
445.65	4198.92
445.84	4379.14
446.02	4404.89
446.21	4355.74
446.39	4432.97
446.58	4341.69
446.77	4386.16
446.95	4259.78
447.14	4451.70
447.32	4465.74
447.51	4388.50
447.69	4461.06
447.88	4404.89
448.06	4292.54
448.25	4599.15
448.43	4489.15
448.62	4421.27
448.80	4486.81
448.99	4613.20
449.17	4498.51
449.36	4620.22
449.54	4634.26
449.73	4676.39
449.91	4681.07
450.10	4669.37
450.28	4725.54
450.46	4713.84
450.65	4671.71
450.83	4655.33
451.02	4648.30
451.20	4809.80
451.39	4795.76
451.57	4645.96
451.76	4634.26
451.94	4645.96
452.13	4919.81
452.31	4919.81
452.49	4802.78
452.68	4840.23
452.86	4741.93
453.05	4957.25
453.23	4861.29
453.42	4915.12
453.60	4791.08
453.78	4884.70
453.97	4978.32
454.15	4908.10
454.34	4835.55
454.52	5004.07
454.70	5088.32
454.89	4999.38
455.07	5025.13
455.26	5043.85
455.44	5114.07
455.62	5207.69
455.81	4917.47
455.99	5093.01
456.17	5188.97
456.36	5116.41
456.54	5238.12
456.73	5310.68
456.91	5380.89
457.09	5090.67
457.28	5497.92
457.46	5432.38
457.64	5219.39
457.83	5355.15
458.01	5362.17
458.19	5392.59
458.38	5394.93
458.56	5378.55
458.74	5561.11
458.93	5476.85
459.11	5483.88
459.29	5432.38
459.48	5582.18
459.66	5540.05
459.84	5533.03
460.03	5696.86
460.21	5610.26
460.39	5547.07
460.57	5675.80
460.76	5514.30
460.94	5713.25
461.12	5720.27
461.31	5680.48
461.49	5664.10
461.67	5708.57
461.85	5790.49
462.04	5734.31
462.22	6005.81
462.40	5804.53
462.59	5720.27
462.77	5771.76
462.95	5874.74
463.13	5811.55
463.32	5820.91
463.50	6076.03
463.68	6003.47
463.86	5994.11
464.05	5940.28
464.23	5996.45
464.41	5858.36
464.59	6029.22
464.78	6019.86
464.96	5980.07
465.14	5902.83
465.32	5935.60
465.50	6136.88
465.69	6225.82
465.87	5930.92
466.05	6010.50
466.23	6085.39
466.41	6001.13
466.60	6164.97
466.78	6087.73
466.96	6022.20
467.14	6010.50
467.32	6317.11
467.51	6354.55
467.69	6017.52
467.87	6211.78
468.05	6356.90
468.23	6094.76
468.41	6094.76
468.60	6427.11
468.78	6401.37
468.96	6298.38
469.14	6331.15
469.32	6448.18
469.50	6127.52
469.69	6520.73
469.87	6565.20
470.05	6607.33
470.23	6530.09
470.41	6502.01
470.59	6588.61
470.77	6574.56
470.95	6560.52
471.14	6766.49
471.32	6401.37
471.50	6829.68
471.68	6626.06
471.86	6724.36
472.04	6715.00
472.22	6836.70
472.40	6834.36
472.58	6677.55
472.77	6988.84
472.95	6794.58
473.13	7129.27
473.31	7023.95
473.49	7028.63
473.67	6890.54
473.85	7005.22
474.03	7115.23
474.21	7028.63
474.39	7243.96
474.57	7286.09
474.75	7358.64
474.93	7332.90
475.12	7162.04
475.30	7328.22
475.48	7421.84
475.66	7480.35
475.84	7403.11
476.02	7503.76
476.20	7410.14
476.38	7695.68
476.56	7925.05
476.74	7683.98
476.92	7665.25
477.10	7754.19
477.28	7892.29
477.46	7840.79
477.64	7925.05
477.82	8074.85
478.00	8222.30
478.18	8065.49
478.36	8037.40
478.54	8278.47
478.72	8341.67
478.90	8198.90
479.08	8407.20
479.26	8498.49
479.44	8592.11
479.62	8376.78
479.80	8514.87
479.98	8514.87
480.16	8915.10
480.34	8695.09
480.52	8954.89
480.70	8922.12
480.88	8975.95
481.06	8985.32
481.24	9006.38
481.41	9013.40
481.59	9359.80
481.77	9221.71
481.95	9322.35
482.13	9547.05
482.31	9341.08
482.49	9619.60
482.67	9703.86
482.85	9722.59
483.03	9870.04
483.21	9853.66
483.39	10054.94
483.57	9958.98
483.74	10118.14
483.92	10160.27
484.10	10125.16
484.28	10291.34
484.46	10544.11
484.64	10513.69
484.82	10459.85
485.00	10696.25
485.18	10775.83
485.35	10752.42
485.53	10782.85
485.71	10881.15
485.89	11201.80
486.07	10984.13
486.25	11110.52
486.43	11077.76
486.61	11332.87
486.78	11246.27
486.96	11407.77
487.14	11517.78
487.32	11648.85
487.50	11639.48
487.68	11896.94
487.85	11908.65
488.03	12049.08
488.21	12123.98
488.39	11903.96
488.57	12507.82
488.75	12252.70
488.92	12592.08
489.10	12589.74
489.28	12564.00
489.46	12746.56
489.64	12629.53
489.81	12713.79
489.99	13062.53
490.17	13064.87
490.35	13287.22
490.53	13324.67
490.70	13397.23
490.88	13165.51
491.06	13642.98
491.24	13547.02
491.41	13521.27
491.59	13816.18
491.77	13909.80
491.95	13965.98
492.13	13811.50
492.30	13951.93
492.48	14221.10
492.66	13867.67
492.84	13816.18
493.01	14232.80
493.19	14272.59
493.37	14487.92
493.54	14464.51
493.72	14455.15
493.90	14572.18
494.08	14637.71
494.25	15005.17
494.43	15021.56
494.61	14892.83
494.79	14958.36
494.96	15204.12
495.14	15047.30
495.32	15089.43
495.49	15349.23
495.67	15477.96
495.85	15489.67
496.02	15740.10
496.20	15861.81
496.38	15782.23
496.55	15653.50
496.73	16269.06
496.91	15749.46
497.09	16023.31
497.26	16182.46
497.44	16219.91
497.62	16255.02
497.79	16350.98
497.97	16224.59
498.14	16535.88
498.32	16512.48
498.50	16788.66
498.67	16856.54
498.85	16496.10
499.03	16905.69
499.20	17032.08
499.38	16971.22
499.56	16959.52
499.73	16933.78
499.91	17277.83
500.08	17088.25
500.26	17514.23
500.44	17420.61
500.61	17479.12
500.79	17593.81
500.97	17301.24
501.14	17809.14
501.32	17869.99
501.49	17680.41
501.67	17631.26
501.84	18003.40
502.02	17813.82
502.20	17837.22
502.37	18167.24
502.55	17769.35
502.72	17912.12
502.90	18160.22
503.07	17867.65
503.25	18408.31
503.43	18012.76
503.60	18469.17
503.78	18434.06
503.95	18324.05
504.13	18473.85
504.30	18642.37
504.48	18649.39
504.65	18974.72
504.83	18869.40
505.01	19222.82
505.18	19115.16
505.36	19129.20
505.53	19119.84
505.71	19168.99
505.88	19201.76
506.06	19241.54
506.23	19344.53
506.41	19054.30
506.58	19496.66
506.76	19335.17
506.93	19681.56
507.11	19580.92
507.28	19838.38
507.46	19719.01
507.63	20020.94
507.81	19789.23
507.98	19531.77
508.16	19779.87
508.33	19885.19
508.50	20027.96
508.68	20383.73
508.85	20166.06
509.03	20175.42
509.20	20219.89
509.38	20343.94
509.55	20402.45
509.73	20168.40
509.90	20547.56
510.08	20814.38
510.25	20695.02
510.42	20741.83
510.60	20556.93
510.77	20879.92
510.95	21263.77
511.12	21020.35
511.30	21085.89
511.47	21055.46
511.64	20861.19
511.82	21364.41
511.99	21252.06
512.17	21085.89
512.34	21291.85
512.51	21268.45
512.69	21504.84
512.86	21472.07
513.04	21277.81
513.21	21785.71
513.38	21703.79
513.56	21390.16
513.73	21771.66
513.90	21989.33
514.08	21951.88
514.25	21884.01
514.43	22190.62
514.60	21930.82
514.77	21771.66
514.95	22029.12
515.12	22092.32
515.29	21928.48
515.47	22263.18
515.64	22471.48
515.81	22455.10
515.99	22230.41
516.16	22518.29
516.33	22417.65
516.51	22682.13
516.68	22869.37
516.85	22742.99
517.03	22745.33
517.20	22958.31
517.37	22487.87
517.54	22747.67
517.72	22810.86
517.89	22766.39
518.06	22913.84
518.24	22679.79
518.41	22768.73
518.58	22836.61
518.75	23145.56
518.93	22981.72
519.10	22752.35
519.27	22871.72
519.45	23227.48
519.62	23271.95
519.79	23349.18
519.96	23405.36
520.14	23428.76
520.31	23405.36
520.48	23681.54
520.65	23508.34
520.83	23765.80
521.00	23812.61
521.17	23543.45
521.34	23620.69
521.52	23866.44
521.69	23798.57
521.86	23845.38
522.03	23669.84
522.20	24240.93
522.38	24348.59
522.55	24582.65
522.72	24154.33
522.89	24430.51
523.07	24472.64
523.24	24130.92
523.41	24161.35
523.58	24201.14
523.75	24636.48
523.92	24472.64
524.10	24737.12
524.27	24563.92
524.44	24709.04
524.61	24790.95
524.78	24774.57
524.96	24346.25
525.13	25064.80
525.30	24964.15
525.47	25020.33
525.64	24812.02
525.81	25359.70
525.98	25102.25
526.16	24704.35
526.33	24805.00
526.50	25404.17
526.67	25383.11
526.84	25261.40
527.01	25273.10
527.18	25127.99
527.36	25450.99
527.53	25135.01
527.70	25628.87
527.87	25579.71
528.04	25631.21
528.21	25865.26
528.38	25757.60
528.55	25619.50
528.72	25560.99
528.89	25486.09
529.07	25855.90
529.24	25509.50
529.41	25799.73
529.58	25891.01
529.75	25921.43
529.92	25961.22
530.09	25816.11
530.26	26050.16
530.43	25549.29
530.60	25694.40
530.77	26057.18
530.94	26352.09
531.11	26295.92
531.28	26321.66
531.46	26190.59
531.63	26396.56
531.80	26707.85
531.97	26230.38
532.14	26527.63
532.31	26300.60
532.48	26668.06
532.65	26532.31
532.82	26494.86
532.99	26518.27
533.16	26733.60
533.33	26906.80
533.50	26988.72
533.67	26576.78
533.84	26586.15
534.01	26609.55
534.18	26761.69
534.35	27019.14
534.52	26717.22
534.69	27129.15
534.86	26569.76
535.03	27185.32
535.20	27098.72
535.37	26911.48
535.54	27295.33
535.71	27136.17
535.88	27133.83
536.05	27358.52
536.22	27658.11
536.38	27325.75
536.55	27353.84
536.72	27651.09
536.89	27550.45
537.06	27807.90
537.23	27700.24
537.40	27730.67
537.57	27653.43
537.74	27601.94
537.91	27744.71
538.08	27875.78
538.25	27625.34
538.42	28056.00
538.59	27971.74
538.75	27709.60
538.92	27772.80
539.09	28044.30
539.26	27948.34
539.43	27615.98
539.60	28013.87
539.77	27922.59
539.94	28666.88
540.11	28194.09
540.28	28584.96
540.44	28484.32
540.61	28463.25
540.78	28240.90
540.95	28313.46
541.12	28800.29
541.29	28402.40
541.46	28603.69
541.62	28795.61
541.79	29228.61
541.96	28655.18
542.13	28690.29
542.30	28776.89
542.47	29057.75
542.63	29142.01
542.80	29078.82
542.97	29392.45
543.14	29270.74
543.31	29324.57
543.48	29518.84
543.64	29654.59
543.81	29371.38
543.98	29001.58
544.15	29116.26
544.32	29764.59
544.48	29717.78
544.65	29560.97
544.82	29336.27
544.99	29432.24
545.16	29467.34
545.32	29607.78
545.49	30064.18
545.66	30824.86
545.83	30499.52
546.00	30789.75
546.16	30583.78
546.33	30110.99
546.50	29752.89
546.67	29797.36
546.83	29017.96
547.00	29542.24
547.17	29294.14
547.34	29717.78
547.50	29905.02
547.67	29401.81
547.84	30221.00
548.00	30239.72
548.17	30279.51
548.34	29759.91
548.51	30188.23
548.67	30064.18
548.84	30251.42
549.01	29851.19
549.18	30094.61
549.34	30543.99
549.51	30295.89
549.68	29806.72
549.84	30010.35
550.01	30242.06
550.18	29685.01
550.34	30265.47
550.51	30143.76
550.68	30272.49
550.84	30197.59
551.01	30197.59
551.18	30036.09
551.34	29879.28
551.51	30370.79
551.68	30387.18
551.84	30045.46
552.01	29905.02
552.18	30242.06
552.34	30256.11
552.51	30506.54
552.68	30581.44
552.84	30850.60
553.01	30644.63
553.18	30223.34
553.34	30827.20
553.51	30382.49
553.67	30705.49
553.84	30642.29
554.01	30490.16
554.17	30471.43
554.34	30885.71
554.51	30567.40
554.67	30405.90
554.84	30410.58
555.00	30471.43
555.17	30272.49
555.33	30843.58
555.50	30221.00
555.67	30824.86
555.83	30604.84
556.00	30773.36
556.16	31178.28
556.33	31461.48
556.50	30490.16
556.66	30665.70
556.83	30684.42
556.99	31260.20
557.16	31447.44
557.32	31014.44
557.49	31447.44
557.65	30838.90
557.82	30862.30
557.98	31356.16
558.15	31288.28
558.32	31154.87
558.48	30883.37
558.65	31454.46
558.81	31168.91
558.98	31412.33
559.14	31395.95
559.31	31278.92
559.47	31140.83
559.64	31005.08
559.80	30948.90
559.97	31271.90
560.13	30918.48
560.30	31346.79
560.46	31599.57
560.63	31299.98
560.79	31346.79
560.96	31370.20
561.12	31391.26
561.29	31264.88
561.45	31665.11
561.61	31627.66
561.78	31229.77
561.94	31658.09
562.11	31379.56
562.27	31484.89
562.44	31782.13
562.60	31613.62
562.77	31218.07
562.93	31241.47
563.10	31365.52
563.26	30808.47
563.42	31740.00
563.59	31711.92
563.75	31489.57
563.92	31608.93
564.08	31548.08
564.24	31651.06
564.41	31442.76
564.57	31971.72
564.74	31325.73
564.90	31978.74
565.07	31576.17
565.23	31599.57
565.39	31611.28
565.56	32039.59
565.72	31800.86
565.88	31543.40
566.05	31831.29
566.21	31704.90
566.38	31653.40
566.54	31646.38
566.70	31992.78
566.87	32032.57
567.03	31814.90
567.19	32102.79
567.36	32081.72
567.52	31749.37
567.68	31983.42
567.85	31826.60
568.01	32222.16
568.17	31901.50
568.34	32070.02
568.50	31887.46
568.66	31917.89
568.83	32540.47
568.99	31882.78
569.15	31740.00
569.32	31847.67
569.48	32065.34
569.64	32091.09
569.81	32217.47
569.97	31915.54
570.13	31941.29
570.30	31669.79
570.46	31716.60
570.62	32128.53
570.78	32053.64
570.95	32327.48
571.11	32322.80
571.27	32119.17
571.43	31519.99
571.60	32119.17
571.76	31740.00
571.92	32063.00
572.09	32416.42
572.25	31938.95
572.41	32496.00
572.57	32266.63
572.74	32432.80
572.90	32121.51
573.06	32320.46
573.22	32217.47
573.38	32383.65
573.55	32006.83
573.71	32194.07
573.87	32446.85
574.03	31835.97
574.20	32151.94
574.36	32212.79
574.52	32004.49
574.68	32135.56
574.84	32563.87
575.01	32170.66
575.17	32332.16
575.33	32041.93
575.49	32065.34
575.65	32748.78
575.82	31967.04
575.98	32170.66
576.14	32503.02
576.30	32606.00
576.46	32474.93
576.62	31840.65
576.79	32161.30
576.95	32203.43
577.11	32535.79
577.27	32921.98
577.43	32381.31
577.59	32526.42
577.75	32184.71
577.92	32006.83
578.08	32449.19
578.24	32044.27
578.40	32442.17
578.56	32650.47
578.72	32627.07
578.88	32575.58
579.04	32790.91
579.21	32318.12
579.37	32598.98
579.53	32500.68
579.69	32187.05
579.85	32606.00
580.01	32304.07
580.17	32439.82
580.33	32421.10
580.49	32488.98
580.65	32488.98
580.82	32760.48
580.98	32584.94
581.14	32240.88
581.30	32669.20
581.46	32512.38
581.62	32463.23
581.78	32449.19
581.94	32446.85
582.10	32378.97
582.26	32573.24
582.42	32421.10
582.58	32374.29
582.74	32304.07
582.90	32507.70
583.06	32479.61
583.22	32470.25
583.38	32463.23
583.54	32545.15
583.70	32219.81
583.86	32657.49
584.02	32638.77
584.18	32666.86
584.34	32598.98
584.50	32603.66
584.66	32538.13
584.82	32311.10
584.98	32505.36
585.14	32460.89
585.30	32570.90
585.46	32716.01
585.62	32547.49
585.78	32732.39
585.94	32521.74
586.10	32606.00
586.26	32580.26
586.42	32814.31
586.58	32512.38
586.74	32388.33
586.90	32711.33
587.06	32418.76
587.22	32692.60
587.38	32393.01
587.54	32830.69
587.70	32809.63
587.86	32854.10
588.02	32924.32
588.18	32591.96
588.34	32854.10
588.49	32694.94
588.65	32580.26
588.81	32254.92
588.97	32891.55
589.13	32577.92
589.29	32802.61
589.45	32854.10
589.61	32875.16
589.77	32903.25
589.93	32652.81
590.08	32929.00
590.24	32650.47
