SpectraSuite Data File
++++++++++++++++++++++++++++++++++++
Date: Thu Oct 24 13:21:43 EDT 2013
User: stostad
Dark Spectrum Present: No
Reference Spectrum Present: No
Number of Sampled Component Spectra: 1
Spectrometers: USB2+H05261
Integration Time (usec): 100000 (USB2+H05261)
Spectra Averaged: 1 (USB2+H05261)
Boxcar Smoothing: 0 (USB2+H05261)
Correct for Electrical Dark: No (USB2+H05261)
Strobe/Lamp Enabled: No (USB2+H05261)
Correct for Detector Non-linearity: No (USB2+H05261)
Correct for Stray Light: No (USB2+H05261)
Number of Pixels in Processed Spectrum: 2048
>>>>>Begin Processed Spectral Data<<<<<
365.73	524.28
365.92	524.28
366.12	524.28
366.32	470.45
366.52	514.92
366.72	472.79
366.91	442.36
367.11	533.64
367.31	454.06
367.51	519.60
367.70	547.69
367.90	482.15
368.10	407.25
368.30	528.96
368.49	449.38
368.69	493.85
368.89	477.47
369.09	498.53
369.28	526.62
369.48	500.87
369.68	561.73
369.87	545.34
370.07	538.32
370.27	596.84
370.47	795.78
370.66	1177.29
370.86	1273.25
371.06	1242.82
371.25	1224.10
371.45	1240.48
371.65	1369.21
371.84	1315.38
372.04	1233.46
372.24	1355.17
372.44	1296.66
372.63	1366.87
372.83	1411.34
373.03	1320.06
373.22	1373.89
373.42	1432.41
373.62	1418.36
373.81	1387.94
374.01	1434.75
374.21	1507.30
374.40	1493.26
374.60	1523.69
374.79	1521.35
374.99	1401.98
375.19	1444.11
375.38	1586.88
375.58	1528.37
375.78	1596.25
375.97	1570.50
376.17	1631.35
376.37	1675.82
376.56	1614.97
376.76	1554.12
376.95	1647.74
377.15	1647.74
377.35	1563.48
377.54	1680.50
377.74	1755.40
377.93	1673.48
378.13	1673.48
378.33	1696.89
378.52	1624.33
378.72	1657.10
378.91	1680.50
379.11	1717.95
379.31	1685.19
379.50	1657.10
379.70	1783.49
379.89	1769.44
380.09	1748.38
380.28	1692.21
380.48	1839.66
380.68	1769.44
380.87	1860.73
381.07	1729.66
381.26	1795.19
381.46	1872.43
381.65	1860.73
381.85	1907.54
382.04	1923.92
382.24	1776.47
382.43	1914.56
382.63	1853.70
382.83	1926.26
383.02	1926.26
383.22	2017.54
383.41	1966.05
383.61	1909.88
383.80	2005.84
384.00	2012.86
384.19	1968.39
384.39	2054.99
384.58	1975.41
384.78	1973.07
384.97	2094.78
385.17	1989.46
385.36	2001.16
385.56	2019.88
385.75	2073.71
385.95	2052.65
386.14	2221.17
386.34	2040.95
386.53	2129.89
386.72	2108.82
386.92	2237.55
387.11	2150.95
387.31	2249.25
387.50	2148.61
387.70	2209.47
387.89	2249.25
388.09	2228.19
388.28	2277.34
388.48	2289.04
388.67	2324.15
388.86	2251.60
389.06	2317.13
389.25	2347.56
389.45	2305.43
389.64	2286.70
389.84	2380.32
390.03	2359.26
390.22	2480.97
390.42	2413.09
390.61	2490.33
390.81	2427.14
391.00	2436.50
391.19	2616.72
391.39	2485.65
391.58	2466.92
391.78	2574.59
391.97	2506.71
392.16	2565.23
392.36	2600.34
392.55	2558.21
392.75	2675.23
392.94	2729.06
393.13	2635.44
393.33	2670.55
393.52	2675.23
393.71	2621.40
393.91	2679.91
394.10	2782.90
394.29	2698.64
394.49	2745.45
394.68	2780.56
394.88	2736.09
395.07	2803.96
395.26	2757.15
395.46	2836.73
395.65	2923.33
395.84	2801.62
396.04	2967.80
396.23	3066.10
396.42	2911.63
396.62	3059.08
396.81	2967.80
397.00	3014.61
397.19	3038.02
397.39	3084.83
397.58	3042.70
397.77	3030.99
397.97	3136.32
398.16	3115.25
398.35	3084.83
398.55	3110.57
398.74	3171.43
398.93	3232.28
399.12	3169.09
399.32	3211.22
399.51	3213.56
399.70	3346.97
399.90	3229.94
400.09	3321.22
400.28	3370.37
400.47	3379.73
400.67	3424.20
400.86	3543.57
401.05	3447.61
401.24	3412.50
401.44	3604.42
401.63	3438.25
401.82	3662.94
402.01	3405.48
402.21	3606.77
402.40	3637.19
402.59	3559.95
402.78	3583.36
402.97	3728.47
403.17	3772.94
403.36	3719.11
403.55	3730.81
403.74	3770.60
403.93	3871.25
404.13	3744.86
404.32	3878.27
404.51	3845.50
404.70	3880.61
404.89	3808.05
405.09	4037.42
405.28	4067.85
405.47	3950.82
405.66	4072.53
405.85	4128.70
406.05	4051.47
406.24	4077.21
406.43	4037.42
406.62	4322.97
406.81	4208.28
407.00	4126.36
407.20	4067.85
407.39	4297.22
407.58	4259.78
407.77	4276.16
407.96	4421.27
408.15	4383.82
408.34	4327.65
408.54	4322.97
408.73	4498.51
408.92	4496.17
409.11	4358.08
409.30	4498.51
409.49	4540.64
409.68	4692.77
409.87	4699.80
410.07	4727.88
410.26	4711.50
410.45	4739.58
410.64	4863.63
410.83	4819.16
411.02	4784.06
411.21	4894.06
411.40	4896.40
411.59	5083.64
411.78	5008.75
411.98	4882.36
412.17	5011.09
412.36	5151.52
412.55	5214.71
412.74	5179.61
412.93	5235.78
413.12	5287.27
413.31	5483.88
413.50	5310.68
413.69	5518.98
413.88	5448.77
414.07	5373.87
414.26	5526.00
414.45	5621.97
414.64	5572.82
414.83	5851.34
415.02	5804.53
415.22	5870.06
415.41	5933.26
415.60	5933.26
415.79	6078.37
415.98	6061.99
416.17	5933.26
416.36	6069.01
416.55	5989.43
416.74	6249.23
416.93	6029.22
417.12	6392.00
417.31	6429.45
417.50	6267.95
417.69	6392.00
417.88	6354.55
418.07	6513.71
418.26	6658.82
418.45	6691.59
418.64	6707.98
418.83	6635.42
419.02	6616.69
419.21	6665.85
419.39	6829.68
419.58	6916.28
419.77	6562.86
419.96	6970.12
420.15	6972.46
420.34	6874.15
420.53	6956.07
420.72	7014.59
420.91	7108.21
421.10	6904.58
421.29	7133.95
421.48	7091.82
421.67	7262.68
421.86	7091.82
422.05	7035.65
422.24	7300.13
422.43	7215.87
422.61	7286.09
422.80	7393.75
422.99	7335.24
423.18	7393.75
423.37	7417.16
423.56	7360.98
423.75	7293.11
423.94	7365.67
424.13	7000.54
424.32	7225.23
424.50	7393.75
424.69	7655.89
424.88	7555.25
425.07	7389.07
425.26	7339.92
425.45	7492.05
425.64	7353.96
425.83	7335.24
426.01	7508.44
426.20	7527.16
426.39	7520.14
426.58	7370.35
426.77	7751.85
426.96	7665.25
427.15	7716.75
427.33	7798.66
427.52	7688.66
427.71	7941.44
427.90	7744.83
428.09	7864.20
428.28	8086.55
428.46	7885.26
428.65	7859.52
428.84	8276.13
429.03	8177.83
429.22	8058.46
429.40	8168.47
429.59	8131.02
429.78	8152.09
429.97	7735.47
430.16	8161.45
430.34	8285.50
430.53	8306.56
430.72	8362.73
430.91	8407.20
431.10	8432.95
431.28	8545.30
431.47	8620.19
431.66	8615.51
431.85	8636.58
432.03	8816.80
432.22	8957.23
432.41	8643.60
432.60	8854.25
432.79	8929.14
432.97	8943.19
433.16	9118.73
433.35	8959.57
433.54	8821.48
433.72	9018.08
433.91	9034.47
434.10	9336.40
434.28	9064.89
434.47	9231.07
434.66	9376.19
434.85	9296.61
435.03	9338.74
435.22	9533.00
435.41	10066.64
435.59	9703.86
435.78	9713.22
435.97	9706.20
436.16	9722.59
436.34	9420.66
436.53	9743.65
436.72	9678.12
436.90	9596.20
437.09	9795.14
437.28	9762.37
437.46	9881.74
437.65	9832.59
437.84	9996.43
438.02	10092.39
438.21	10221.12
438.40	10022.17
438.58	10298.36
438.77	10190.69
438.96	10310.06
439.14	10611.99
439.33	10663.48
439.52	10630.71
439.70	10897.53
439.89	10972.43
440.08	11019.24
440.26	11066.05
440.45	10920.94
440.63	10909.24
440.82	11407.77
441.01	11073.07
441.19	11126.91
441.38	11681.61
441.57	11463.94
441.75	11431.18
441.94	11618.42
442.12	11845.45
442.31	11955.46
442.50	11943.75
442.68	11749.49
442.87	12077.16
443.05	12079.50
443.24	12091.21
443.43	12248.02
443.61	12032.69
443.80	12367.39
443.98	12119.29
444.17	11742.47
444.35	12145.04
444.54	12351.01
444.73	12229.30
444.91	12439.95
445.10	12418.88
445.28	12542.93
445.47	12128.66
445.65	12514.84
445.84	12477.40
446.02	12659.96
446.21	12657.62
446.39	12531.23
446.58	12559.31
446.77	12627.19
446.95	12358.03
447.14	12554.63
447.32	12671.66
447.51	12641.23
447.69	12643.57
447.88	12901.03
448.06	12765.28
448.25	12641.23
448.43	12652.94
448.62	12842.52
448.80	12648.26
448.99	12879.97
449.17	12882.31
449.36	13048.49
449.54	12959.55
449.73	13135.09
449.91	13380.84
450.10	13343.39
450.28	13605.53
450.46	13404.25
450.65	13415.95
450.83	13355.10
451.02	13451.06
451.20	13666.39
451.39	13554.04
451.57	13509.57
451.76	13455.74
451.94	13633.62
452.13	14036.19
452.31	13827.88
452.49	13867.67
452.68	13853.63
452.86	14078.32
453.05	13951.93
453.23	14104.07
453.42	14019.81
453.60	13912.14
453.78	14391.95
453.97	13874.70
454.15	14075.98
454.34	14270.25
454.52	14469.19
454.70	14391.95
454.89	14384.93
455.07	14637.71
455.26	14649.41
455.44	14775.80
455.62	15005.17
455.81	14764.10
455.99	14869.42
456.17	15007.52
456.36	15059.01
456.54	15363.28
456.73	15421.79
456.91	15520.09
457.09	15648.82
457.28	15602.01
457.46	15398.38
457.64	15655.84
457.83	15946.07
458.01	15398.38
458.19	16194.17
458.38	15805.64
458.56	16042.03
458.74	16044.37
458.93	16135.65
459.11	16201.19
459.29	16011.60
459.48	16032.67
459.66	15906.28
459.84	16322.90
460.03	16404.81
460.21	16479.71
460.39	16439.92
460.57	16470.35
460.76	17078.89
460.94	16739.51
461.12	16798.02
461.31	16823.77
461.49	16781.64
461.67	16678.66
461.85	17170.17
462.04	17252.09
462.22	17497.84
462.40	17338.69
462.59	17263.79
462.77	17308.26
462.95	17729.56
463.13	17378.48
463.32	17195.92
463.50	17589.13
463.68	17596.15
463.86	17635.94
464.05	17373.80
464.23	17605.51
464.41	17816.16
464.59	17736.58
464.78	18026.81
464.96	18092.34
465.14	17778.71
465.32	17928.50
465.50	17944.89
465.69	18176.60
465.87	18230.43
466.05	18139.15
466.23	18235.11
466.41	18141.49
466.60	18874.08
466.78	18628.32
466.96	18183.62
467.14	18204.69
467.32	18450.44
467.51	18778.12
467.69	18155.54
467.87	18822.59
468.05	18904.51
468.23	18637.69
468.41	18576.83
468.60	18904.51
468.78	19056.64
468.96	18904.51
469.14	19190.05
469.32	19564.54
469.50	19264.95
469.69	19412.40
469.87	19798.59
470.05	19798.59
470.23	19562.20
470.41	19915.62
470.59	20044.35
470.77	19887.53
470.95	19899.23
471.14	20283.08
471.32	19889.87
471.50	20599.05
471.68	20533.52
471.86	20486.71
472.04	20690.34
472.22	21193.55
472.40	20739.49
472.58	20592.03
472.77	21240.36
472.95	21205.25
473.13	22075.93
473.31	21202.91
473.49	21575.06
473.67	21399.52
473.85	21472.07
474.03	21750.60
474.21	21797.41
474.39	22394.25
474.57	21921.46
474.75	22616.60
474.93	22670.43
475.12	22600.21
475.30	22803.84
475.48	22712.56
475.66	22867.03
475.84	22916.19
476.02	23288.33
476.20	23620.69
476.38	23555.15
476.56	24151.99
476.74	24128.58
476.92	23730.69
477.10	24187.10
477.28	24648.18
477.46	24226.89
477.64	24713.72
477.82	25013.31
478.00	25628.87
478.18	25202.89
478.36	25364.39
478.54	25458.01
478.72	26024.42
478.90	26024.42
479.08	26522.95
479.26	26707.85
479.44	26888.07
479.62	27178.30
479.80	27578.53
479.98	27599.60
480.16	27962.38
480.34	27531.72
480.52	28301.76
480.70	28266.65
480.88	27765.78
481.06	28563.90
481.24	28453.89
481.41	29074.13
481.59	29432.24
481.77	30075.88
481.95	30008.01
482.13	29741.19
482.31	29624.16
482.49	30490.16
482.67	30441.01
482.85	30824.86
483.03	31433.39
483.21	31360.84
483.39	31835.97
483.57	31512.97
483.74	32135.56
483.92	32430.46
484.10	32259.60
484.28	33354.97
484.46	33497.75
484.64	33645.20
484.82	33535.20
485.00	33872.23
485.18	34305.23
485.35	34881.00
485.53	34548.65
485.71	34771.00
485.89	35655.72
486.07	35189.95
486.25	35126.76
486.43	35662.74
486.61	35637.00
486.78	36549.81
486.96	36811.95
487.14	37352.61
487.32	37008.55
487.50	37895.61
487.68	37883.91
487.85	38328.61
488.03	38740.55
488.21	39313.98
488.39	38852.89
488.57	39583.14
488.75	39887.41
488.92	39908.47
489.10	40369.56
489.28	40432.75
489.46	41092.79
489.64	40858.73
489.81	41385.35
489.99	41525.78
490.17	41958.78
490.35	42148.37
490.53	42660.94
490.70	42614.13
490.88	43229.69
491.06	43578.43
491.24	43421.62
491.41	43386.51
491.59	44079.31
491.77	44414.01
491.95	44322.72
492.13	44748.70
492.30	45336.18
492.48	45586.61
492.66	45277.66
492.84	45584.27
493.01	46417.50
493.19	46099.19
493.37	46649.22
493.54	46476.02
493.72	47349.04
493.90	46782.63
494.08	47435.64
494.25	47976.30
494.43	47849.91
494.61	47796.08
494.79	48404.62
494.96	48399.94
495.14	48587.18
495.32	49399.35
495.49	49097.42
495.67	49602.97
495.85	49717.66
496.02	49956.39
496.20	50131.93
496.38	50115.55
496.55	50234.92
496.73	51173.47
496.91	50960.48
497.09	50953.46
497.26	51320.93
497.44	51356.03
497.62	51704.77
497.79	51948.19
497.97	51627.54
498.14	52245.44
498.32	52477.15
498.50	52439.70
498.67	52736.95
498.85	52456.09
499.03	53057.60
499.20	53286.98
499.38	53340.81
499.56	53492.94
499.73	53609.97
499.91	53577.20
500.08	53797.21
500.26	53514.01
500.44	54110.85
500.61	54167.02
500.79	54057.01
500.97	54117.87
501.14	54637.47
501.32	54700.66
501.49	54691.30
501.67	54646.83
501.84	54976.84
502.02	54969.82
502.20	55412.18
502.37	55290.48
502.55	55512.83
502.72	55325.58
502.90	55433.25
503.07	55419.20
503.25	55728.16
503.43	55583.04
503.60	56027.74
503.78	55854.54
503.95	56044.13
504.13	56261.80
504.30	56193.92
504.48	56151.79
504.65	56423.29
504.83	57001.41
505.01	57013.11
505.18	56615.22
505.36	56898.42
505.53	57219.08
505.71	57134.82
505.88	57071.62
506.06	56910.13
506.23	57546.75
506.41	57396.96
506.58	57284.61
506.76	57155.88
506.93	57729.31
507.11	57588.88
507.28	57808.89
507.46	57897.83
507.63	57886.13
507.81	57979.75
507.98	57949.32
508.16	58099.12
508.33	58251.25
508.50	58368.28
508.68	58623.40
508.85	58721.70
509.03	58557.86
509.20	58803.62
509.38	58801.28
509.55	58810.64
509.73	58869.15
509.90	59135.98
510.08	59068.10
510.25	59000.22
510.42	59222.58
510.60	59257.68
510.77	59400.46
510.95	59580.68
511.12	59454.29
511.30	59664.94
511.47	59845.16
511.64	59859.20
511.82	59868.56
511.99	59765.58
512.17	59955.16
512.34	59847.50
512.51	60343.69
512.69	60390.50
512.86	60343.69
513.04	60633.92
513.21	60392.84
513.38	60533.28
513.56	60753.29
513.73	60444.33
513.90	60977.98
514.08	60587.11
514.25	60853.93
514.43	60795.42
514.60	60912.44
514.77	61034.15
514.95	60844.57
515.12	61017.77
515.29	61059.90
515.47	61298.63
515.64	61670.78
515.81	61368.85
515.99	61389.91
516.16	61570.13
516.33	61663.75
516.51	61832.27
516.68	61661.41
516.85	61839.29
517.03	61939.94
517.20	61904.83
517.37	61581.84
517.54	61989.09
517.72	62010.15
517.89	62096.75
518.06	62262.93
518.24	62141.22
518.41	62162.29
518.58	62204.42
518.75	62152.93
518.93	62363.57
519.10	62429.11
519.27	62576.56
519.45	62543.80
519.62	62794.23
519.79	62770.83
519.96	62747.42
520.14	62911.26
520.31	62548.48
520.48	62953.39
520.65	62845.72
520.83	62960.41
521.00	62981.48
521.17	63068.08
521.34	63250.64
521.52	63096.16
521.69	63004.88
521.86	63283.40
522.03	63269.36
522.20	63487.03
522.38	63669.59
522.55	63664.91
522.72	63505.76
522.89	63559.59
523.07	63636.83
523.24	63618.10
523.41	63810.03
523.58	63683.64
523.75	64072.17
523.92	63966.84
524.10	64135.36
524.27	64142.38
524.44	64158.76
524.61	64067.48
524.78	64175.15
524.96	64451.33
525.13	64287.49
525.30	64324.94
525.47	64598.79
525.64	64526.23
525.81	64456.01
525.98	64444.31
526.16	64486.44
526.33	64762.62
526.50	64804.75
526.67	64584.74
526.84	64849.22
527.01	64912.42
527.18	64947.53
527.36	64760.28
527.53	64889.01
527.70	65137.11
527.87	65240.09
528.04	65169.88
528.21	65127.75
528.38	65155.83
528.55	65249.45
528.72	65169.88
528.89	65333.71
529.07	65230.73
529.24	65214.35
529.41	65389.89
529.58	65443.72
529.75	65497.55
529.92	65520.96
530.09	65455.42
530.26	65535.00
530.43	65535.00
530.60	65535.00
530.77	65535.00
530.94	65535.00
531.11	65535.00
531.28	65535.00
531.46	65535.00
531.63	65535.00
531.80	65535.00
531.97	65535.00
532.14	65535.00
532.31	65535.00
532.48	65535.00
532.65	65535.00
532.82	65535.00
532.99	65535.00
533.16	65535.00
533.33	65535.00
533.50	65535.00
533.67	65535.00
533.84	65535.00
534.01	65535.00
534.18	65535.00
534.35	65535.00
534.52	65535.00
534.69	65535.00
534.86	65535.00
535.03	65535.00
535.20	65535.00
535.37	65535.00
535.54	65535.00
535.71	65535.00
535.88	65535.00
536.05	65535.00
536.22	65535.00
536.38	65535.00
536.55	65535.00
536.72	65535.00
536.89	65535.00
537.06	65535.00
537.23	65535.00
537.40	65535.00
537.57	65535.00
537.74	65535.00
537.91	65535.00
538.08	65535.00
538.25	65535.00
538.42	65535.00
538.59	65535.00
538.75	65535.00
538.92	65535.00
539.09	65535.00
539.26	65535.00
539.43	65535.00
539.60	65535.00
539.77	65535.00
539.94	65535.00
540.11	65535.00
540.28	65535.00
540.44	65535.00
540.61	65535.00
540.78	65535.00
540.95	65535.00
541.12	65535.00
541.29	65535.00
541.46	65535.00
541.62	65535.00
541.79	65535.00
541.96	65535.00
542.13	65535.00
542.30	65535.00
542.47	65535.00
542.63	65535.00
542.80	65535.00
542.97	65535.00
543.14	65535.00
543.31	65535.00
543.48	65535.00
543.64	65535.00
543.81	65535.00
543.98	65535.00
544.15	65535.00
544.32	65535.00
544.48	65535.00
544.65	65535.00
544.82	65535.00
544.99	65535.00
545.16	65535.00
545.32	65535.00
545.49	65535.00
545.66	65535.00
545.83	65535.00
546.00	65535.00
546.16	65535.00
546.33	65535.00
546.50	65535.00
546.67	65535.00
546.83	65535.00
547.00	65535.00
547.17	65535.00
547.34	65535.00
547.50	65535.00
547.67	65535.00
547.84	65535.00
548.00	65535.00
548.17	65535.00
548.34	65535.00
548.51	65535.00
548.67	65535.00
548.84	65535.00
549.01	65535.00
549.18	65535.00
549.34	65535.00
549.51	65535.00
549.68	65535.00
549.84	65535.00
550.01	65535.00
550.18	65535.00
550.34	65535.00
550.51	65535.00
550.68	65535.00
550.84	65535.00
551.01	65535.00
551.18	65535.00
551.34	65535.00
551.51	65535.00
551.68	65535.00
551.84	65535.00
552.01	65535.00
552.18	65535.00
552.34	65535.00
552.51	65535.00
552.68	65535.00
552.84	65535.00
553.01	65535.00
553.18	65535.00
553.34	65535.00
553.51	65535.00
553.67	65535.00
553.84	65535.00
554.01	65535.00
554.17	65535.00
554.34	65535.00
554.51	65535.00
554.67	65535.00
554.84	65535.00
555.00	65535.00
555.17	65535.00
555.33	65535.00
555.50	65535.00
555.67	65535.00
555.83	65535.00
556.00	65535.00
556.16	65535.00
556.33	65535.00
556.50	65535.00
556.66	65535.00
556.83	65535.00
556.99	65535.00
557.16	65535.00
557.32	65535.00
557.49	65535.00
557.65	65535.00
557.82	65535.00
557.98	65535.00
558.15	65535.00
558.32	65535.00
558.48	65535.00
558.65	65535.00
558.81	65535.00
558.98	65535.00
559.14	65535.00
559.31	65535.00
559.47	65535.00
559.64	65535.00
559.80	65535.00
559.97	65535.00
560.13	65535.00
560.30	65535.00
560.46	65535.00
560.63	65535.00
560.79	65535.00
560.96	65535.00
561.12	65535.00
561.29	65535.00
561.45	65535.00
561.61	65535.00
561.78	65535.00
561.94	65535.00
562.11	65535.00
562.27	65535.00
562.44	65535.00
562.60	65535.00
562.77	65535.00
562.93	65535.00
563.10	65535.00
563.26	65535.00
563.42	65535.00
563.59	65535.00
563.75	65535.00
563.92	65535.00
564.08	65535.00
564.24	65535.00
564.41	65535.00
564.57	65535.00
564.74	65535.00
564.90	65535.00
565.07	65535.00
565.23	65535.00
565.39	65535.00
565.56	65535.00
565.72	65535.00
565.88	65535.00
566.05	65535.00
566.21	65535.00
566.38	65535.00
566.54	65535.00
566.70	65535.00
566.87	65535.00
567.03	65535.00
567.19	65535.00
567.36	65535.00
567.52	65535.00
567.68	65535.00
567.85	65535.00
568.01	65535.00
568.17	65535.00
568.34	65535.00
568.50	65535.00
568.66	65535.00
568.83	65535.00
568.99	65535.00
569.15	65535.00
569.32	65535.00
569.48	65535.00
569.64	65535.00
569.81	65535.00
569.97	65535.00
570.13	65535.00
570.30	65535.00
570.46	65535.00
570.62	65535.00
570.78	65535.00
570.95	65535.00
571.11	65535.00
571.27	65535.00
571.43	65535.00
571.60	65535.00
571.76	65535.00
571.92	65535.00
572.09	65535.00
572.25	65535.00
572.41	65535.00
572.57	65535.00
572.74	65535.00
572.90	65535.00
573.06	65535.00
573.22	65535.00
573.38	65535.00
573.55	65535.00
573.71	65535.00
573.87	65535.00
574.03	65535.00
574.20	65535.00
574.36	65535.00
574.52	65535.00
574.68	65535.00
574.84	65535.00
575.01	65535.00
575.17	65535.00
575.33	65535.00
575.49	65535.00
575.65	65535.00
575.82	65535.00
575.98	65535.00
576.14	65535.00
576.30	65535.00
576.46	65535.00
576.62	65535.00
576.79	65535.00
576.95	65535.00
577.11	65535.00
577.27	65535.00
577.43	65535.00
577.59	65535.00
577.75	65535.00
577.92	65535.00
578.08	65535.00
578.24	65535.00
578.40	65535.00
578.56	65535.00
578.72	65535.00
578.88	65535.00
579.04	65535.00
579.21	65535.00
579.37	65535.00
579.53	65535.00
579.69	65535.00
579.85	65535.00
580.01	65535.00
580.17	65535.00
580.33	65535.00
580.49	65535.00
580.65	65535.00
580.82	65535.00
580.98	65535.00
581.14	65535.00
581.30	65535.00
581.46	65535.00
581.62	65535.00
581.78	65535.00
581.94	65535.00
582.10	65535.00
582.26	65535.00
582.42	65535.00
582.58	65535.00
582.74	65535.00
582.90	65535.00
583.06	65535.00
583.22	65535.00
583.38	65535.00
583.54	65535.00
583.70	65535.00
583.86	65535.00
584.02	65535.00
584.18	65535.00
584.34	65535.00
584.50	65535.00
584.66	65535.00
584.82	65535.00
584.98	65535.00
585.14	65535.00
585.30	65535.00
585.46	65535.00
585.62	65535.00
585.78	65535.00
585.94	65535.00
586.10	65535.00
586.26	65535.00
586.42	65535.00
586.58	65535.00
586.74	65535.00
586.90	65535.00
