SpectraSuite Data File
++++++++++++++++++++++++++++++++++++
Date: Thu Oct 24 13:21:08 EDT 2013
User: stostad
Dark Spectrum Present: No
Reference Spectrum Present: No
Number of Sampled Component Spectra: 1
Spectrometers: USB2+H05261
Integration Time (usec): 100000 (USB2+H05261)
Spectra Averaged: 1 (USB2+H05261)
Boxcar Smoothing: 0 (USB2+H05261)
Correct for Electrical Dark: No (USB2+H05261)
Strobe/Lamp Enabled: No (USB2+H05261)
Correct for Detector Non-linearity: No (USB2+H05261)
Correct for Stray Light: No (USB2+H05261)
Number of Pixels in Processed Spectrum: 2048
>>>>>Begin Processed Spectral Data<<<<<
365.73	545.34
365.92	545.34
366.12	545.34
366.32	538.32
366.52	482.15
366.72	554.71
366.91	404.91
367.11	475.13
367.31	458.74
367.51	435.34
367.70	512.58
367.90	421.30
368.10	568.75
368.30	411.93
368.49	440.02
368.69	463.43
368.89	470.45
369.09	498.53
369.28	496.19
369.48	514.92
369.68	552.37
369.87	545.34
370.07	526.62
370.27	521.94
370.47	585.13
370.66	676.41
370.86	674.07
371.06	725.57
371.25	781.74
371.45	650.67
371.65	784.08
371.84	753.65
372.04	746.63
372.24	727.91
372.44	784.08
372.63	741.95
372.83	753.65
373.03	753.65
373.22	711.52
373.42	770.04
373.62	786.42
373.81	795.78
374.01	812.17
374.21	802.80
374.40	837.91
374.60	730.25
374.79	798.12
374.99	753.65
375.19	814.51
375.38	805.14
375.58	837.91
375.78	856.64
375.97	802.80
376.17	765.36
376.37	784.08
376.56	926.85
376.76	793.44
376.95	887.06
377.15	823.87
377.35	863.66
377.54	809.83
377.74	777.06
377.93	863.66
378.13	877.70
378.33	901.11
378.52	952.60
378.72	905.79
378.91	833.23
379.11	887.06
379.31	861.32
379.50	880.04
379.70	875.36
379.89	779.40
380.09	877.70
380.28	917.49
380.48	786.42
380.68	821.53
380.87	863.66
381.07	870.68
381.26	844.93
381.46	858.98
381.65	905.79
381.85	844.93
382.04	800.46
382.24	873.02
382.43	826.21
382.63	858.98
382.83	849.61
383.02	945.58
383.22	961.96
383.41	870.68
383.61	908.13
383.80	933.87
384.00	882.38
384.19	812.17
384.39	943.24
384.58	917.49
384.78	924.51
384.97	936.21
385.17	898.77
385.36	903.45
385.56	943.24
385.75	910.47
385.95	884.72
386.14	973.66
386.34	919.83
386.53	938.55
386.72	961.96
386.92	943.24
387.11	896.43
387.31	908.13
387.50	954.94
387.70	917.49
387.89	954.94
388.09	924.51
388.28	964.30
388.48	929.19
388.67	943.24
388.86	915.15
389.06	985.37
389.25	931.53
389.45	966.64
389.64	940.90
389.84	1032.18
390.03	999.41
390.22	938.55
390.42	1022.81
390.61	1011.11
390.81	1011.11
391.00	1011.11
391.19	1055.58
391.39	999.41
391.58	943.24
391.78	1015.79
391.97	1025.15
392.16	983.02
392.36	1114.10
392.55	999.41
392.75	1015.79
392.94	1060.26
393.13	994.73
393.33	1046.22
393.52	1081.33
393.71	1057.92
393.91	1095.37
394.10	997.07
394.29	1086.01
394.49	1130.48
394.68	1036.86
394.88	1074.31
395.07	1083.67
395.26	1142.18
395.46	1114.10
395.65	1130.48
395.84	1071.97
396.04	1191.33
396.23	1149.20
396.42	1125.80
396.62	1100.05
396.81	1111.75
397.00	1186.65
397.19	1144.52
397.39	1132.82
397.58	1104.73
397.77	1128.14
397.97	1086.01
398.16	1191.33
398.35	1151.54
398.55	1060.26
398.74	1111.75
398.93	1160.91
399.12	1100.05
399.32	1093.03
399.51	1184.31
399.70	1224.10
399.90	1167.93
400.09	1177.29
400.28	1219.42
400.47	1249.85
400.67	1273.25
400.86	1226.44
401.05	1226.44
401.24	1315.38
401.44	1254.53
401.63	1247.51
401.82	1259.21
402.01	1233.46
402.21	1320.06
402.40	1238.14
402.59	1313.04
402.78	1261.55
402.97	1320.06
403.17	1291.98
403.36	1249.85
403.55	1277.93
403.74	1254.53
403.93	1451.13
404.13	1373.89
404.32	1425.39
404.51	1380.92
404.70	1483.90
404.89	1409.00
405.09	1376.24
405.28	1359.85
405.47	1362.19
405.66	1385.60
405.85	1343.47
406.05	1352.83
406.24	1378.58
406.43	1437.09
406.62	1310.70
406.81	1472.20
407.00	1481.56
407.20	1434.75
407.39	1399.64
407.58	1455.81
407.77	1444.11
407.96	1519.01
408.15	1455.81
408.34	1551.78
408.54	1500.28
408.73	1434.75
408.92	1605.61
409.11	1526.03
409.30	1596.25
409.49	1544.75
409.68	1570.50
409.87	1551.78
410.07	1570.50
410.26	1598.59
410.45	1661.78
410.64	1575.18
410.83	1638.38
411.02	1624.33
411.21	1727.32
411.40	1736.68
411.59	1720.29
411.78	1596.25
411.98	1689.87
412.17	1678.16
412.36	1739.02
412.55	1884.13
412.74	1783.49
412.93	1811.57
413.12	1715.61
413.31	1753.06
413.50	1863.07
413.69	1746.04
413.88	1795.19
414.07	1818.60
414.26	1874.77
414.45	1856.04
414.64	1856.04
414.83	1877.11
415.02	1853.70
415.22	1865.41
415.41	1879.45
415.60	1909.88
415.79	1893.49
415.98	1942.64
416.17	1926.26
416.36	1909.88
416.55	1893.49
416.74	1947.33
416.93	1933.28
417.12	1886.47
417.31	1968.39
417.50	2024.56
417.69	2043.29
417.88	2064.35
418.07	2050.31
418.26	2040.95
418.45	1984.77
418.64	2193.08
418.83	2160.31
419.02	2136.91
419.21	2155.63
419.39	2106.48
419.58	2169.68
419.77	2045.63
419.96	2136.91
420.15	2148.61
420.34	2153.29
420.53	2242.23
420.72	2087.76
420.91	2291.38
421.10	2218.83
421.29	2211.81
421.48	2246.91
421.67	2305.43
421.86	2190.74
422.05	2253.94
422.24	2106.48
422.43	2239.89
422.61	2246.91
422.80	2324.15
422.99	2239.89
423.18	2389.69
423.37	2314.79
423.56	2305.43
423.75	2406.07
423.94	2366.28
424.13	2253.94
424.32	2223.51
424.50	2331.17
424.69	2394.37
424.88	2270.32
425.07	2408.41
425.26	2363.94
425.45	2321.81
425.64	2307.77
425.83	2284.36
426.01	2317.13
426.20	2408.41
426.39	2438.84
426.58	2237.55
426.77	2373.30
426.96	2352.24
427.15	2373.30
427.33	2326.49
427.52	2389.69
427.71	2417.77
427.90	2307.77
428.09	2385.01
428.28	2492.67
428.46	2497.35
428.65	2448.20
428.84	2518.42
429.03	2490.33
429.22	2321.81
429.40	2497.35
429.59	2459.90
429.78	2462.24
429.97	2319.47
430.16	2450.54
430.34	2558.21
430.53	2661.19
430.72	2518.42
430.91	2583.95
431.10	2553.52
431.28	2473.95
431.47	2581.61
431.66	2558.21
431.85	2572.25
432.03	2586.29
432.22	2712.68
432.41	2682.25
432.60	2689.28
432.79	2548.84
432.97	2633.10
433.16	2724.38
433.35	2677.57
433.54	2708.00
433.72	2614.38
433.91	2661.19
434.10	2710.34
434.28	2684.59
434.47	2733.75
434.66	2693.96
434.85	2782.90
435.03	2937.37
435.22	2988.86
435.41	3218.24
435.59	3213.56
435.78	3084.83
435.97	3035.67
436.16	2923.33
436.34	2925.67
436.53	2899.92
436.72	2768.85
436.90	2846.09
437.09	2843.75
437.28	2881.20
437.46	2829.71
437.65	2970.14
437.84	2899.92
438.02	2949.08
438.21	2993.55
438.40	2829.71
438.58	3026.31
438.77	3045.04
438.96	2902.26
439.14	3033.33
439.33	3155.04
439.52	3052.06
439.70	3061.42
439.89	3103.55
440.08	3229.94
440.26	3208.87
440.45	3124.62
440.63	3138.66
440.82	3321.22
441.01	3117.59
441.19	3353.99
441.38	3269.73
441.57	3262.71
441.75	3276.75
441.94	3318.88
442.12	3403.14
442.31	3468.67
442.50	3370.37
442.68	3206.53
442.87	3332.92
443.05	3405.48
443.24	3482.72
443.43	3384.41
443.61	3417.18
443.80	3492.08
443.98	3339.94
444.17	3337.60
444.35	3576.34
444.54	3632.51
444.73	3634.85
444.91	3506.12
445.10	3475.70
445.28	3290.79
445.47	3368.03
445.65	3407.82
445.84	3581.02
446.02	3461.65
446.21	3515.48
446.39	3529.53
446.58	3602.08
446.77	3520.17
446.95	3353.99
447.14	3489.74
447.32	3452.29
447.51	3609.11
447.69	3531.87
447.88	3442.93
448.06	3599.74
448.25	3534.21
448.43	3595.06
448.62	3569.32
448.80	3531.87
448.99	3623.15
449.17	3602.08
449.36	3548.25
449.54	3726.13
449.73	3705.07
449.91	3698.05
450.10	3758.90
450.28	3789.33
450.46	3606.77
450.65	3747.20
450.83	3667.62
451.02	3641.87
451.20	3754.22
451.39	3754.22
451.57	3735.50
451.76	3684.00
451.94	3639.53
452.13	3779.97
452.31	3733.15
452.49	3779.97
452.68	3962.53
452.86	3833.80
453.05	3864.22
453.23	3906.35
453.42	3808.05
453.60	3801.03
453.78	4018.70
453.97	3847.84
454.15	3686.34
454.34	3829.12
454.52	3925.08
454.70	4051.47
454.89	4011.68
455.07	3922.74
455.26	4070.19
455.44	4145.09
455.62	4025.72
455.81	4028.06
455.99	4009.34
456.17	3997.64
456.36	3953.16
456.54	4002.32
456.73	4056.15
456.91	4156.79
457.09	4159.13
457.28	4241.05
457.46	4243.39
457.64	4276.16
457.83	4201.26
458.01	4156.79
458.19	4224.67
458.38	4201.26
458.56	4329.99
458.74	4351.06
458.93	4301.90
459.11	4376.80
459.29	4283.18
459.48	4383.82
459.66	4269.14
459.84	4339.35
460.03	4386.16
460.21	4407.23
460.39	4266.80
460.57	4432.97
460.76	4400.21
460.94	4456.38
461.12	4575.75
461.31	4444.68
461.49	4383.82
461.67	4447.02
461.85	4538.30
462.04	4409.57
462.22	4882.36
462.40	4657.67
462.59	4601.49
462.77	4503.19
462.95	4442.34
463.13	4613.20
463.32	4669.37
463.50	4685.75
463.68	4667.03
463.86	4587.45
464.05	4498.51
464.23	4821.50
464.41	4730.22
464.59	4594.47
464.78	4592.13
464.96	4652.98
465.14	4578.09
465.32	4718.52
465.50	4683.41
465.69	4875.34
465.87	4741.93
466.05	4667.03
466.23	4926.83
466.41	4634.26
466.60	4713.84
466.78	4699.80
466.96	4842.57
467.14	4828.53
467.32	4730.22
467.51	4898.74
467.69	4882.36
467.87	4823.84
468.05	4938.53
468.23	4854.27
468.41	4856.61
468.60	4774.69
468.78	4849.59
468.96	4929.17
469.14	5022.79
469.32	5018.11
469.50	4873.00
469.69	4943.21
469.87	4887.04
470.05	5078.96
470.23	5102.37
470.41	5034.49
470.59	5100.03
470.77	5078.96
470.95	5172.58
471.14	5256.84
471.32	5198.33
471.50	5128.11
471.68	5228.76
471.86	5198.33
472.04	5291.95
472.22	5397.28
472.40	5200.67
472.58	5479.19
472.77	5390.25
472.95	5416.00
473.13	5486.22
473.31	5373.87
473.49	5446.43
473.67	5364.51
473.85	5479.19
474.03	5720.27
474.21	5640.69
474.39	5598.56
474.57	5661.76
474.75	5600.90
474.93	5647.71
475.12	5610.26
475.30	5671.12
475.48	5750.70
475.66	5851.34
475.84	5724.95
476.02	5863.04
476.20	5748.36
476.38	5734.31
476.56	5998.79
476.74	5788.14
476.92	5933.26
477.10	5968.37
477.28	6104.12
477.46	6157.95
477.64	6160.29
477.82	6029.22
478.00	6382.64
478.18	6127.52
478.36	6307.74
478.54	6504.35
478.72	6279.66
478.90	6471.58
479.08	6523.07
479.26	6583.93
479.44	6612.01
479.62	6354.55
479.80	6630.74
479.98	6787.55
480.16	6874.15
480.34	6846.07
480.52	6712.66
480.70	6834.36
480.88	6843.73
481.06	6897.56
481.24	7007.56
481.41	6935.01
481.59	7197.15
481.77	7176.08
481.95	7236.94
482.13	7368.01
482.31	7234.60
482.49	7435.88
482.67	7463.97
482.85	7480.35
483.03	7548.23
483.21	7569.29
483.39	7604.40
483.57	7529.50
483.74	7749.51
483.92	7772.92
484.10	7688.66
484.28	7943.78
484.46	8173.15
484.64	8351.03
484.82	7974.21
485.00	8084.21
485.18	8348.69
485.35	8376.78
485.53	8369.76
485.71	8348.69
485.89	8561.68
486.07	8491.46
486.25	8535.93
486.43	8493.80
486.61	8674.03
486.78	8812.12
486.96	8767.65
487.14	8748.92
487.32	9153.84
487.50	8997.02
487.68	9025.11
487.85	9001.70
488.03	9287.25
488.21	9268.52
488.39	9280.22
488.57	9444.06
488.75	9432.36
488.92	9687.48
489.10	9792.80
489.28	9542.36
489.46	9785.78
489.64	9680.46
489.81	10169.63
489.99	9839.61
490.17	9907.49
490.35	10129.84
490.53	9966.00
490.70	10036.22
490.88	10186.01
491.06	10202.40
491.24	10204.74
491.41	10281.97
491.59	10443.47
491.77	10455.17
491.95	10558.16
492.13	10497.30
492.30	10663.48
492.48	10630.71
492.66	10757.10
492.84	10958.39
493.01	10895.19
493.19	10803.91
493.37	10888.17
493.54	11040.31
493.72	11232.23
493.90	11265.00
494.08	11178.40
494.25	11255.64
494.43	11304.79
494.61	11295.43
494.79	11351.60
494.96	11302.45
495.14	11363.30
495.32	11562.25
495.49	11646.51
495.67	11833.75
495.85	11602.04
496.02	11602.04
496.20	11793.96
496.38	12044.40
496.55	11997.59
496.73	12212.92
496.91	12257.39
497.09	12229.30
497.26	12086.53
497.44	12243.34
497.62	12182.49
497.79	12435.27
497.97	12252.70
498.14	12542.93
498.32	12552.29
498.50	12444.63
498.67	12898.69
498.85	12802.73
499.03	12938.48
499.20	12943.16
499.38	12821.45
499.56	12971.25
499.73	13144.45
499.91	12999.34
500.08	12943.16
500.26	12950.18
500.44	13219.35
500.61	12996.99
500.79	13184.24
500.97	13184.24
501.14	13621.92
501.32	13254.45
501.49	13348.08
501.67	13427.65
501.84	13582.13
502.02	13703.84
502.20	13905.12
502.37	13654.69
502.55	13680.43
502.72	13788.10
502.90	13603.19
503.07	13610.22
503.25	13767.03
503.43	13685.11
503.60	13984.70
503.78	13919.17
503.95	13977.68
504.13	13893.42
504.30	14097.05
504.48	14097.05
504.65	14150.88
504.83	14097.05
505.01	14520.68
505.18	14068.96
505.36	14403.66
505.53	14483.24
505.71	14422.38
505.88	14569.83
506.06	14415.36
506.23	14466.85
506.41	14661.12
506.58	14565.15
506.76	14457.49
506.93	14890.49
507.11	14773.46
507.28	14630.69
507.46	14754.74
507.63	14885.81
507.81	15197.10
507.98	14740.69
508.16	15023.90
508.33	14707.93
508.50	15204.12
508.68	15108.16
508.85	15454.56
509.03	15246.25
509.20	15229.87
509.38	15150.29
509.55	15360.94
509.73	15412.43
509.90	15438.17
510.08	15410.09
510.25	15281.36
510.42	15414.77
510.60	15655.84
510.77	15590.31
510.95	15786.91
511.12	15503.71
511.30	15751.81
511.47	15545.84
511.64	15875.85
511.82	15798.62
511.99	15922.66
512.17	15988.20
512.34	15845.43
512.51	16044.37
512.69	16159.06
512.86	16393.11
513.04	16042.03
513.21	16119.27
513.38	16030.33
513.56	16329.92
513.73	16570.99
513.90	16643.55
514.08	16339.28
514.25	16528.86
514.43	16484.39
514.60	16533.54
514.77	16596.74
514.95	16732.49
515.12	16421.20
515.29	16563.97
515.47	17013.35
515.64	16861.22
515.81	16697.38
515.99	16657.59
516.16	17006.33
516.33	17090.59
516.51	17156.13
516.68	16856.54
516.85	17156.13
517.03	17341.03
517.20	17261.45
517.37	17025.06
517.54	17102.29
517.72	17392.52
517.89	17231.02
518.06	17493.16
518.24	17408.90
518.41	17263.79
518.58	17399.54
518.75	17422.95
518.93	17404.22
519.10	17589.13
519.27	17535.29
519.45	17383.16
519.62	17549.34
519.79	17481.46
519.96	17680.41
520.14	17589.13
520.31	17710.83
520.48	17591.47
520.65	17542.32
520.83	17961.27
521.00	17778.71
521.17	17951.91
521.34	18127.45
521.52	17860.63
521.69	18008.08
521.86	17891.06
522.03	18129.79
522.20	17764.67
522.38	17825.52
522.55	18115.75
522.72	18031.49
522.89	18286.61
523.07	18462.15
523.24	18157.88
523.41	18541.72
523.58	18338.10
523.75	18473.85
523.92	18403.63
524.10	18232.77
524.27	18508.96
524.44	18775.78
524.61	18806.20
524.78	18597.90
524.96	19002.81
525.13	18471.51
525.30	18469.17
525.47	18941.96
525.64	19044.94
525.81	18923.23
525.98	18609.60
526.16	18654.07
526.33	18726.63
526.50	18913.87
526.67	18916.21
526.84	18778.12
527.01	18899.83
527.18	18972.38
527.36	19058.98
527.53	18750.03
527.70	18993.45
527.87	19101.11
528.04	19014.51
528.21	19154.94
528.38	19264.95
528.55	19286.01
528.72	19159.63
528.89	19002.81
529.07	19323.46
529.24	18953.66
529.41	19222.82
529.58	19229.84
529.75	19487.30
529.92	19307.08
530.09	19562.20
530.26	19627.73
530.43	19428.79
530.60	19487.30
530.77	19704.97
530.94	19845.40
531.11	19889.87
531.28	19452.19
531.46	20065.41
531.63	19850.08
531.80	19859.45
531.97	19681.56
532.14	19749.44
532.31	19960.09
532.48	19782.21
532.65	20070.09
532.82	19936.68
532.99	19894.55
533.16	20018.60
533.33	20336.91
533.50	19983.49
533.67	19913.28
533.84	19929.66
534.01	19934.34
534.18	20283.08
534.35	20613.10
534.52	20006.90
534.69	20315.85
534.86	20322.87
535.03	20130.95
535.20	20226.91
535.37	20297.13
535.54	20589.69
535.71	20439.90
535.88	20313.51
536.05	20683.31
536.22	20423.51
536.38	20772.25
536.55	20704.38
536.72	20919.71
536.89	20634.16
537.06	20540.54
537.23	20709.06
537.40	20760.55
537.57	20893.96
537.74	20585.01
537.91	20964.18
538.08	20779.28
538.25	20428.20
538.42	20620.12
538.59	20835.45
538.75	20699.70
538.92	21226.32
539.09	21025.03
539.26	20739.49
539.43	20844.81
539.60	20702.04
539.77	20922.05
539.94	21364.41
540.11	21556.33
540.28	21003.97
540.44	21207.59
540.61	21418.24
540.78	21104.61
540.95	21530.59
541.12	21319.94
541.29	21518.89
541.46	21666.34
541.62	21661.66
541.79	21949.54
541.96	21696.77
542.13	21884.01
542.30	21797.41
542.47	21900.39
542.63	22171.89
542.80	22373.18
542.97	22223.39
543.14	22127.42
543.31	22029.12
543.48	22059.55
543.64	22223.39
543.81	22132.11
543.98	22050.19
544.15	22207.00
544.32	22455.10
544.48	22654.05
544.65	22249.13
544.82	22092.32
544.99	22216.36
545.16	22349.78
545.32	22223.39
545.49	22775.75
545.66	23065.98
545.83	23014.49
546.00	23199.39
546.16	22916.19
546.33	22904.48
546.50	22703.20
546.67	22515.95
546.83	22497.23
547.00	22235.09
547.17	22375.52
547.34	22195.30
547.50	22148.49
547.67	22574.47
547.84	22560.42
548.00	22824.90
548.17	22539.36
548.34	22583.83
548.51	22740.64
548.67	22499.57
548.84	22661.07
549.01	22590.85
549.18	22647.02
549.34	22878.74
549.51	22424.67
549.68	22632.98
549.84	22635.32
550.01	22317.01
550.18	22635.32
550.34	22352.12
550.51	22630.64
550.68	22405.95
550.84	22291.26
551.01	22441.06
551.18	22651.70
551.34	22546.38
551.51	22281.90
551.68	22567.45
551.84	22656.39
552.01	22274.88
552.18	22810.86
552.34	22754.69
552.51	23042.57
552.68	22841.29
552.84	22466.80
553.01	23103.43
553.18	22815.54
553.34	22803.84
553.51	22588.51
553.67	23218.11
553.84	22822.56
554.01	23075.34
554.17	23054.28
554.34	23246.20
554.51	22803.84
554.67	22991.08
554.84	23133.86
555.00	22611.92
555.17	22661.07
555.33	23248.54
555.50	22958.31
555.67	22740.64
555.83	22860.01
556.00	23122.15
556.16	23028.53
556.33	23091.73
556.50	22991.08
556.66	23330.46
556.83	22555.74
556.99	23283.65
557.16	23147.90
557.32	23171.30
557.49	23433.44
557.65	23264.92
557.82	23346.84
557.98	23133.86
558.15	23021.51
558.32	23405.36
558.48	22939.59
558.65	23896.87
558.81	22934.91
558.98	23117.47
559.14	23433.44
559.31	23367.91
559.47	23122.15
559.64	23185.35
559.80	23604.30
559.97	23222.80
560.13	23407.70
560.30	23180.67
560.46	23094.07
560.63	23735.37
560.79	23473.23
560.96	23580.90
561.12	23810.27
561.29	23379.61
561.45	23442.81
561.61	23704.95
561.78	23475.57
561.94	23864.10
562.11	24004.53
562.27	23660.48
562.44	23737.71
562.60	23379.61
562.77	23728.35
562.93	23536.43
563.10	23747.08
563.26	23309.40
563.42	23557.49
563.59	23805.59
563.75	23428.76
563.92	23728.35
564.08	23679.20
564.24	23840.70
564.41	23702.61
564.57	23770.48
564.74	23791.55
564.90	23927.30
565.07	23672.18
565.23	23728.35
565.39	23709.63
565.56	23885.17
565.72	23917.93
565.88	23564.51
566.05	23468.55
566.21	23344.50
566.38	23618.35
566.54	23894.53
566.70	23791.55
566.87	23929.64
567.03	23988.15
567.19	24081.77
567.36	23992.83
567.52	23594.94
567.68	23887.51
567.85	23578.56
568.01	23763.46
568.17	23580.90
568.34	23831.33
568.50	23852.40
568.66	23983.47
568.83	24102.84
568.99	23704.95
569.15	24013.90
569.32	23873.46
569.48	23524.72
569.64	23999.85
569.81	23882.83
569.97	23545.79
570.13	23618.35
570.30	23620.69
570.46	24233.91
570.62	24091.13
570.78	23611.32
570.95	23718.99
571.11	24114.54
571.27	24137.94
571.43	23611.32
571.60	24084.11
571.76	23908.57
571.92	23871.12
572.09	24107.52
572.25	24350.93
572.41	23915.59
572.57	24460.94
572.74	24364.98
572.90	24151.99
573.06	24383.70
573.22	23761.12
573.38	23927.30
573.55	23943.68
573.71	24187.10
573.87	24142.63
574.03	23894.53
574.20	23978.79
574.36	24044.32
574.52	24184.76
574.68	24276.04
574.84	24039.64
575.01	24224.54
575.17	24184.76
575.33	23838.36
575.49	24056.03
575.65	24154.33
575.82	24400.08
575.98	24091.13
576.14	24154.33
576.30	24168.37
576.46	24273.70
576.62	24460.94
576.79	24285.40
576.95	24233.91
577.11	24278.38
577.27	24219.86
577.43	24383.70
577.59	24482.00
577.75	24102.84
577.92	24269.01
578.08	24133.26
578.24	24065.39
578.40	24510.09
578.56	24409.45
578.72	24217.52
578.88	24587.33
579.04	24278.38
579.21	24198.80
579.37	24182.42
579.53	24592.01
579.69	24247.95
579.85	24470.30
580.01	24407.11
580.17	23950.70
580.33	24329.87
580.49	24173.05
580.65	24430.51
580.82	24402.43
580.98	24116.88
581.14	24180.07
581.30	24552.22
581.46	24060.71
581.62	23571.54
581.78	24276.04
581.94	24020.92
582.10	24002.19
582.26	24566.26
582.42	24374.34
582.58	24252.63
582.74	24091.13
582.90	24505.41
583.06	24060.71
583.22	24489.03
583.38	24680.95
583.54	24353.27
583.70	24531.15
583.86	24334.55
584.02	24063.05
584.18	24594.35
584.34	24271.36
584.50	24175.39
584.66	24341.57
584.82	24201.14
584.98	24044.32
585.14	24077.09
585.30	24196.46
585.46	24592.01
585.62	24280.72
585.78	24308.80
585.94	24479.66
586.10	24547.54
586.26	24484.34
586.42	24542.86
586.58	24196.46
586.74	24535.84
586.90	24538.18
587.06	24467.96
587.22	24856.49
587.38	24203.48
587.54	24713.72
587.70	24559.24
587.86	24446.90
588.02	24531.15
588.18	24472.64
588.34	24680.95
588.49	24418.81
588.65	24402.43
588.81	24287.74
588.97	24435.19
589.13	24339.23
589.29	24058.37
589.45	24659.88
589.61	24397.74
589.77	24683.29
589.93	24479.66
590.08	24608.39
590.24	24493.71
590.40	24493.71
590.56	24617.75
590.72	24465.62
590.88	24528.81
