SpectraSuite Data File
++++++++++++++++++++++++++++++++++++
Date: Thu Oct 24 13:21:12 EDT 2013
User: stostad
Dark Spectrum Present: No
Reference Spectrum Present: No
Number of Sampled Component Spectra: 1
Spectrometers: USB2+H05261
Integration Time (usec): 100000 (USB2+H05261)
Spectra Averaged: 1 (USB2+H05261)
Boxcar Smoothing: 0 (USB2+H05261)
Correct for Electrical Dark: No (USB2+H05261)
Strobe/Lamp Enabled: No (USB2+H05261)
Correct for Detector Non-linearity: No (USB2+H05261)
Correct for Stray Light: No (USB2+H05261)
Number of Pixels in Processed Spectrum: 2048
>>>>>Begin Processed Spectral Data<<<<<
365.73	545.34
365.92	545.34
366.12	545.34
366.32	533.64
366.52	477.47
366.72	505.56
366.91	472.79
367.11	482.15
367.31	498.53
367.51	491.51
367.70	465.77
367.90	489.17
368.10	491.51
368.30	472.79
368.49	479.81
368.69	477.47
368.89	447.04
369.09	484.49
369.28	507.90
369.48	491.51
369.68	526.62
369.87	543.00
370.07	465.77
370.27	596.84
370.47	601.52
370.66	683.44
370.86	755.99
371.06	739.61
371.25	760.67
371.45	751.31
371.65	725.57
371.84	763.01
372.04	807.48
372.24	716.20
372.44	758.33
372.63	746.63
372.83	807.48
373.03	753.65
373.22	758.33
373.42	779.40
373.62	779.40
373.81	826.21
374.01	791.10
374.21	912.81
374.40	819.19
374.60	828.55
374.79	798.12
374.99	809.83
375.19	781.74
375.38	812.17
375.58	833.23
375.78	849.61
375.97	908.13
376.17	936.21
376.37	856.64
376.56	844.93
376.76	753.65
376.95	821.53
377.15	889.40
377.35	884.72
377.54	823.87
377.74	858.98
377.93	770.04
378.13	826.21
378.33	851.96
378.52	809.83
378.72	870.68
378.91	805.14
379.11	819.19
379.31	777.06
379.50	880.04
379.70	943.24
379.89	868.34
380.09	809.83
380.28	919.83
380.48	898.77
380.68	837.91
380.87	952.60
381.07	877.70
381.26	835.57
381.46	901.11
381.65	880.04
381.85	917.49
382.04	954.94
382.24	915.15
382.43	968.98
382.63	858.98
382.83	854.30
383.02	912.81
383.22	929.19
383.41	877.70
383.61	889.40
383.80	917.49
384.00	957.28
384.19	945.58
384.39	875.36
384.58	957.28
384.78	971.32
384.97	912.81
385.17	961.96
385.36	919.83
385.56	833.23
385.75	894.08
385.95	961.96
386.14	922.17
386.34	908.13
386.53	943.24
386.72	938.55
386.92	924.51
387.11	1006.43
387.31	884.72
387.50	894.08
387.70	943.24
387.89	987.71
388.09	1013.45
388.28	999.41
388.48	987.71
388.67	1039.20
388.86	1020.47
389.06	1064.94
389.25	990.05
389.45	866.00
389.64	959.62
389.84	987.71
390.03	945.58
390.22	1043.88
390.42	999.41
390.61	990.05
390.81	1062.60
391.00	1055.58
391.19	1062.60
391.39	1006.43
391.58	976.00
391.78	1020.47
391.97	1109.41
392.16	1062.60
392.36	1111.75
392.55	1132.82
392.75	990.05
392.94	1036.86
393.13	1022.81
393.33	1057.92
393.52	1064.94
393.71	1008.77
393.91	1109.41
394.10	1104.73
394.29	1067.28
394.49	1090.69
394.68	1142.18
394.88	1118.78
395.07	1142.18
395.26	1069.62
395.46	1076.65
395.65	1130.48
395.84	1114.10
396.04	1184.31
396.23	1179.63
396.42	1142.18
396.62	1153.88
396.81	1165.59
397.00	1107.07
397.19	1179.63
397.39	1160.91
397.58	1188.99
397.77	1146.86
397.97	1172.61
398.16	1125.80
398.35	1158.57
398.55	1170.27
398.74	1252.19
398.93	1193.67
399.12	1254.53
399.32	1252.19
399.51	1128.14
399.70	1277.93
399.90	1224.10
400.09	1177.29
400.28	1270.91
400.47	1334.11
400.67	1273.25
400.86	1273.25
401.05	1280.27
401.24	1273.25
401.44	1240.48
401.63	1348.15
401.82	1299.00
402.01	1327.08
402.21	1284.95
402.40	1357.51
402.59	1306.02
402.78	1413.68
402.97	1343.47
403.17	1350.49
403.36	1348.15
403.55	1394.96
403.74	1401.98
403.93	1392.62
404.13	1462.83
404.32	1514.33
404.51	1465.18
404.70	1558.80
404.89	1437.09
405.09	1451.13
405.28	1306.02
405.47	1425.39
405.66	1432.41
405.85	1488.58
406.05	1472.20
406.24	1514.33
406.43	1577.52
406.62	1537.73
406.81	1556.46
407.00	1547.09
407.20	1535.39
407.39	1420.71
407.58	1537.73
407.77	1556.46
407.96	1593.90
408.15	1479.22
408.34	1624.33
408.54	1624.33
408.73	1565.82
408.92	1607.95
409.11	1586.88
409.30	1600.93
409.49	1643.06
409.68	1668.80
409.87	1654.76
410.07	1643.06
410.26	1678.16
410.45	1685.19
410.64	1750.72
410.83	1638.38
411.02	1717.95
411.21	1713.27
411.40	1736.68
411.59	1823.28
411.78	1736.68
411.98	1706.25
412.17	1750.72
412.36	1856.04
412.55	1734.34
412.74	1809.23
412.93	1881.79
413.12	1898.17
413.31	1881.79
413.50	1973.07
413.69	1839.66
413.88	1909.88
414.07	1853.70
414.26	1944.99
414.45	1984.77
414.64	1947.33
414.83	1893.49
415.02	1998.82
415.22	2040.95
415.41	2031.58
415.60	2017.54
415.79	2064.35
415.98	2033.93
416.17	2087.76
416.36	2069.03
416.55	2024.56
416.74	2059.67
416.93	2139.25
417.12	2092.44
417.31	2125.21
417.50	2094.78
417.69	2160.31
417.88	2221.17
418.07	2148.61
418.26	2251.60
418.45	2179.04
418.64	2275.00
418.83	2232.87
419.02	2270.32
419.21	2319.47
419.39	2296.07
419.58	2333.51
419.77	2314.79
419.96	2296.07
420.15	2410.75
420.34	2352.24
420.53	2293.72
420.72	2359.26
420.91	2377.98
421.10	2387.35
421.29	2408.41
421.48	2300.75
421.67	2347.56
421.86	2441.18
422.05	2420.11
422.24	2392.03
422.43	2415.43
422.61	2464.58
422.80	2457.56
422.99	2438.84
423.18	2438.84
423.37	2534.80
423.56	2429.48
423.75	2527.78
423.94	2401.39
424.13	2349.90
424.32	2324.15
424.50	2546.50
424.69	2504.37
424.88	2520.76
425.07	2431.82
425.26	2478.63
425.45	2495.01
425.64	2429.48
425.83	2478.63
426.01	2565.23
426.20	2534.80
426.39	2539.48
426.58	2537.14
426.77	2569.91
426.96	2471.61
427.15	2480.97
427.33	2523.10
427.52	2434.16
427.71	2579.27
427.90	2565.23
428.09	2593.31
428.28	2602.68
428.46	2565.23
428.65	2686.94
428.84	2745.45
429.03	2686.94
429.22	2583.95
429.40	2703.32
429.59	2612.04
429.78	2569.91
429.97	2614.38
430.16	2731.41
430.34	2766.51
430.53	2686.94
430.72	2609.70
430.91	2794.60
431.10	2834.39
431.28	2789.92
431.47	2773.53
431.66	2740.77
431.85	2785.24
432.03	2897.58
432.22	2885.88
432.41	2850.77
432.60	2789.92
432.79	2855.45
432.97	2850.77
433.16	2899.92
433.35	2899.92
433.54	2892.90
433.72	2979.50
433.91	2792.26
434.10	3040.36
434.28	2944.39
434.47	3028.65
434.66	2930.35
434.85	2881.20
435.03	3094.19
435.22	3304.84
435.41	3445.27
435.59	3330.58
435.78	3180.79
435.97	3187.81
436.16	3204.19
436.34	2918.65
436.53	2995.89
436.72	3049.72
436.90	3038.02
437.09	3183.13
437.28	3007.59
437.46	3148.02
437.65	3110.57
437.84	3234.62
438.02	3112.91
438.21	3218.24
438.40	3098.87
438.58	3143.34
438.77	3246.32
438.96	3173.77
439.14	3251.00
439.33	3335.26
439.52	3283.77
439.70	3318.88
439.89	3368.03
440.08	3379.73
440.26	3246.32
440.45	3468.67
440.63	3468.67
440.82	3414.84
441.01	3440.59
441.19	3475.70
441.38	3508.46
441.57	3597.40
441.75	3555.27
441.94	3695.71
442.12	3609.11
442.31	3576.34
442.50	3716.77
442.68	3625.49
442.87	3602.08
443.05	3728.47
443.24	3691.02
443.43	3845.50
443.61	3552.93
443.80	3786.99
443.98	3740.18
444.17	3555.27
444.35	3712.09
444.54	3784.65
444.73	3838.48
444.91	3744.86
445.10	3763.58
445.28	3829.12
445.47	3662.94
445.65	3698.05
445.84	3805.71
446.02	3733.15
446.21	3789.33
446.39	3665.28
446.58	3662.94
446.77	3775.28
446.95	3786.99
447.14	3684.00
447.32	3794.01
447.51	3789.33
447.69	3721.45
447.88	3761.24
448.06	3786.99
448.25	3747.20
448.43	3847.84
448.62	3861.88
448.80	3798.69
448.99	3901.67
449.17	3871.25
449.36	3845.50
449.54	4009.34
449.73	3889.97
449.91	4056.15
450.10	3964.87
450.28	4079.55
450.46	4077.21
450.65	4044.45
450.83	3936.78
451.02	4098.28
451.20	4161.47
451.39	4135.73
451.57	4098.28
451.76	4018.70
451.94	4133.39
452.13	4037.42
452.31	4063.17
452.49	4014.02
452.68	4140.41
452.86	4189.56
453.05	4060.83
453.23	4250.41
453.42	4025.72
453.60	4168.49
453.78	4170.83
453.97	4056.15
454.15	4184.88
454.34	4126.36
454.52	4102.96
454.70	4208.28
454.89	4163.81
455.07	4196.58
455.26	4327.65
455.44	4475.10
455.62	4308.93
455.81	4278.50
455.99	4320.63
456.17	4381.48
456.36	4351.06
456.54	4313.61
456.73	4472.76
456.91	4585.11
457.09	4505.53
457.28	4465.74
457.46	4552.34
457.64	4557.02
457.83	4564.04
458.01	4571.07
458.19	4603.83
458.38	4496.17
458.56	4507.87
458.74	4550.00
458.93	4762.99
459.11	4741.93
459.29	4725.54
459.48	4692.77
459.66	4479.79
459.84	4720.86
460.03	4784.06
460.21	4760.65
460.39	4826.18
460.57	4737.24
460.76	4692.77
460.94	4863.63
461.12	4837.89
461.31	4849.59
461.49	4702.14
461.67	4737.24
461.85	4882.36
462.04	4973.64
462.22	5076.62
462.40	4980.66
462.59	4985.34
462.77	4842.57
462.95	5006.41
463.13	4999.38
463.32	4868.31
463.50	4992.36
463.68	4994.70
463.86	5036.83
464.05	4952.57
464.23	4896.40
464.41	5053.22
464.59	4973.64
464.78	5095.35
464.96	5018.11
465.14	4973.64
465.32	5090.67
465.50	5305.99
465.69	5238.12
465.87	5053.22
466.05	5100.03
466.23	5125.77
466.41	5188.97
466.60	5195.99
466.78	5280.25
466.96	5153.86
467.14	5186.63
467.32	5301.31
467.51	5455.79
467.69	5088.32
467.87	5109.39
468.05	5313.02
468.23	5252.16
468.41	5121.09
468.60	5266.21
468.78	5224.08
468.96	5373.87
469.14	5399.62
469.32	5329.40
469.50	5350.46
469.69	5331.74
469.87	5518.98
470.05	5486.22
470.23	5640.69
470.41	5490.90
470.59	5509.62
470.77	5474.51
470.95	5432.38
471.14	5605.58
471.32	5488.56
471.50	5444.09
471.68	5741.33
471.86	5556.43
472.04	5762.40
472.22	5799.85
472.40	5951.98
472.58	5783.46
472.77	5738.99
472.95	5738.99
473.13	5935.60
473.31	5769.42
473.49	5771.76
473.67	5930.92
473.85	5767.08
474.03	5860.70
474.21	6073.69
474.39	5947.30
474.57	6099.44
474.75	5982.41
474.93	6078.37
475.12	6181.35
475.30	6204.76
475.48	6193.06
475.66	6174.33
475.84	6244.55
476.02	6296.04
476.20	6155.61
476.38	6293.70
476.56	6525.41
476.74	6469.24
476.92	6436.47
477.10	6335.83
477.28	6492.65
477.46	6616.69
477.64	6689.25
477.82	6768.83
478.00	6846.07
478.18	6775.85
478.36	6775.85
478.54	6855.43
478.72	6918.62
478.90	7037.99
479.08	7145.66
479.26	7019.27
479.44	7185.44
479.62	7349.28
479.80	7155.02
479.98	7279.07
480.16	7475.67
480.34	7236.94
480.52	7435.88
480.70	7487.37
480.88	7339.92
481.06	7520.14
481.24	7489.71
481.41	7632.49
481.59	7620.78
481.77	7751.85
481.95	7735.47
482.13	8035.06
482.31	7740.15
482.49	7976.55
482.67	8081.87
482.85	8278.47
483.03	8177.83
483.21	8346.35
483.39	8418.91
483.57	8386.14
483.74	8557.00
483.92	8229.32
484.10	8393.16
484.28	8465.72
484.46	8781.69
484.64	8769.99
484.82	8992.34
485.00	8795.73
485.18	8861.27
485.35	9114.05
485.53	8982.98
485.71	9074.26
485.89	9315.33
486.07	9085.96
486.25	9245.12
486.43	9296.61
486.61	9533.00
486.78	9437.04
486.96	9413.63
487.14	9589.17
487.32	9455.76
487.50	9827.91
487.68	9926.21
487.85	9961.32
488.03	9970.68
488.21	10150.90
488.39	10106.43
488.57	10122.82
488.75	10228.14
488.92	10265.59
489.10	10637.73
489.28	10466.88
489.46	10583.90
489.64	10668.16
489.81	10792.21
489.99	10649.44
490.17	10684.55
490.35	10869.45
490.53	10810.93
490.70	10930.30
490.88	11129.25
491.06	11176.06
491.24	11068.39
491.41	11162.01
491.59	11367.98
491.77	11276.70
491.95	11548.20
492.13	11524.80
492.30	11602.04
492.48	11543.52
492.66	11496.71
492.84	11541.18
493.01	11590.33
493.19	11772.89
493.37	11803.32
493.54	12063.12
493.72	12138.02
493.90	11978.86
494.08	12049.08
494.25	12273.77
494.43	12280.79
494.61	12166.10
494.79	12308.88
494.96	12327.60
495.14	12355.69
495.32	12617.83
495.49	12634.21
495.67	12896.35
495.85	12961.89
496.02	12910.40
496.20	12929.12
496.38	13036.78
496.55	13006.36
496.73	13242.75
496.91	13224.03
497.09	13027.42
497.26	13074.23
497.44	13207.64
497.62	13563.40
497.79	13572.77
497.97	13631.28
498.14	13671.07
498.32	13741.29
498.50	13851.29
498.67	14008.11
498.85	13799.80
499.03	13881.72
499.20	13951.93
499.38	13905.12
499.56	14097.05
499.73	14104.07
499.91	13855.97
500.08	14118.11
500.26	14134.50
500.44	14361.53
500.61	14174.28
500.79	14410.68
500.97	14382.59
501.14	14621.33
501.32	14586.22
501.49	14487.92
501.67	14633.03
501.84	14644.73
502.02	14740.69
502.20	14909.21
502.37	14787.50
502.55	15002.83
502.72	14934.96
502.90	14918.57
503.07	14841.34
503.25	14913.89
503.43	14941.98
503.60	15164.33
503.78	15290.72
503.95	15103.48
504.13	15339.87
504.30	15253.27
504.48	15407.75
504.65	15578.61
504.83	15859.47
505.01	15611.37
505.18	15468.60
505.36	15723.72
505.53	15480.30
505.71	15784.57
505.88	15669.89
506.06	15709.68
506.23	15913.30
506.41	15714.36
506.58	16046.71
506.76	16142.67
506.93	16072.46
507.11	16112.25
507.28	16030.33
507.46	15971.82
507.63	16489.07
507.81	16360.34
507.98	16140.33
508.16	16147.36
508.33	16379.07
508.50	16264.38
508.68	16578.01
508.85	16353.32
509.03	16519.50
509.20	16748.87
509.38	16500.78
509.55	16975.91
509.73	16744.19
509.90	17083.57
510.08	16849.52
510.25	16760.58
510.42	16849.52
510.60	16884.62
510.77	16989.95
510.95	17303.58
511.12	17209.96
511.30	17062.51
511.47	17408.90
511.64	17224.00
511.82	17294.22
511.99	17664.02
512.17	17425.29
512.34	17357.41
512.51	17685.09
512.69	17518.91
512.86	17710.83
513.04	17729.56
513.21	17598.49
513.38	17511.89
513.56	17884.03
513.73	17902.76
513.90	17584.44
514.08	17692.11
514.25	17977.65
514.43	18066.60
514.60	18167.24
514.77	18012.76
514.95	18274.90
515.12	18017.44
515.29	17923.82
515.47	18370.86
515.64	18085.32
515.81	17942.55
515.99	18471.51
516.16	18616.62
516.33	18441.08
516.51	18483.21
516.68	18450.44
516.85	18363.84
517.03	18745.35
517.20	18677.48
517.37	18569.81
517.54	18579.17
517.72	18864.72
517.89	18712.58
518.06	18445.76
518.24	18782.80
518.41	18888.12
518.58	18731.31
518.75	18625.98
518.93	19005.15
519.10	18817.91
519.27	18843.65
519.45	19222.82
519.62	19040.26
519.79	18974.72
519.96	19112.81
520.14	19332.82
520.31	19021.53
520.48	19028.56
520.65	19302.40
520.83	19236.86
521.00	19421.77
521.17	19520.07
521.34	19555.18
521.52	19405.38
521.69	19491.98
521.86	19620.71
522.03	19403.04
522.20	19814.98
522.38	20065.41
522.55	19896.89
522.72	19688.59
522.89	19805.61
523.07	19770.51
523.24	19819.66
523.41	20067.75
523.58	20121.59
523.75	19864.13
523.92	19854.76
524.10	19932.00
524.27	19882.85
524.44	20266.70
524.61	20231.59
524.78	20156.69
524.96	20400.11
525.13	19964.77
525.30	20320.53
525.47	20531.18
525.64	20205.84
525.81	20568.63
525.98	20432.88
526.16	20627.14
526.33	20776.94
526.50	20744.17
526.67	20697.36
526.84	20388.41
527.01	20739.49
527.18	20788.64
527.36	20783.96
527.53	20664.59
527.70	21013.33
527.87	21008.65
528.04	20917.37
528.21	21062.48
528.38	20704.38
528.55	21118.65
528.72	21102.27
528.89	21240.36
529.07	21102.27
529.24	20910.35
529.41	20931.41
529.58	21254.40
529.75	21303.56
529.92	21245.04
530.09	21160.78
530.26	21191.21
530.43	21083.55
530.60	21341.00
530.77	21509.52
530.94	21535.27
531.11	21708.47
531.28	21350.37
531.46	21537.61
531.63	21568.04
531.80	21413.56
531.97	21476.76
532.14	21568.04
532.31	21781.03
532.48	21827.84
532.65	21799.75
532.82	21788.05
532.99	22005.72
533.16	21825.50
533.33	22066.57
533.50	21935.50
533.67	21989.33
533.84	21769.32
534.01	22181.26
534.18	22001.04
534.35	22267.86
534.52	22108.70
534.69	22183.60
534.86	22087.64
535.03	21994.01
535.20	22118.06
535.37	22342.75
535.54	22567.45
535.71	22267.86
535.88	22478.50
536.05	22052.53
536.22	22202.32
536.38	22324.03
536.55	22766.39
536.72	22757.03
536.89	22452.76
537.06	22778.09
537.23	22649.36
537.40	22366.16
537.57	22808.52
537.74	22742.99
537.91	22494.89
538.08	22394.25
538.25	22625.96
538.42	22806.18
538.59	22768.73
538.75	22682.13
538.92	22867.03
539.09	22822.56
539.26	22939.59
539.43	22782.77
539.60	22920.87
539.77	22979.38
539.94	23168.96
540.11	22881.08
540.28	23180.67
540.44	23126.83
540.61	23428.76
540.78	23449.83
540.95	23253.22
541.12	23213.43
541.29	23611.32
541.46	23831.33
541.62	23566.85
541.79	23920.28
541.96	23431.10
542.13	23435.78
542.30	23917.93
542.47	23903.89
542.63	23758.78
542.80	23721.33
542.97	23992.83
543.14	23847.72
543.31	24142.63
543.48	24121.56
543.64	24034.96
543.81	23878.15
543.98	23992.83
544.15	23976.45
544.32	24369.66
544.48	24304.12
544.65	24723.08
544.82	24442.21
544.99	23850.06
545.16	24474.98
545.32	24114.54
545.49	24678.61
545.66	24577.97
545.83	25284.81
546.00	25160.76
546.16	24940.75
546.33	24666.91
546.50	24322.85
546.67	24725.42
546.83	24456.26
547.00	24168.37
547.17	24203.48
547.34	24240.93
547.50	24121.56
547.67	24467.96
547.84	24556.90
548.00	24552.22
548.17	24617.75
548.34	24482.00
548.51	24580.31
548.67	24739.46
548.84	24264.33
549.01	24669.25
549.18	24313.48
549.34	24702.01
549.51	24989.90
549.68	24755.85
549.84	24664.57
550.01	24364.98
550.18	24407.11
550.34	24308.80
550.51	24638.82
550.68	24643.50
550.84	24458.60
551.01	24584.99
551.18	24535.84
551.34	24250.29
551.51	24584.99
551.68	24524.13
551.84	24694.99
552.01	24790.95
552.18	24999.26
552.34	24922.02
552.51	24685.63
552.68	24556.90
552.84	24807.34
553.01	25060.12
553.18	24725.42
553.34	24748.82
553.51	24372.00
553.67	25149.06
553.84	25064.80
554.01	24886.92
554.17	24903.30
554.34	25095.22
554.51	24964.15
554.67	24936.07
554.84	24819.04
555.00	24971.18
555.17	24678.61
555.33	24828.40
555.50	24739.46
555.67	24959.47
555.83	25088.20
556.00	25137.35
556.16	25216.93
556.33	24774.57
556.50	24886.92
556.66	25060.12
556.83	24973.52
556.99	25275.45
557.16	25366.73
557.32	25425.24
557.49	25495.46
557.65	25146.72
557.82	25125.65
557.98	25118.63
558.15	25324.60
558.32	25298.85
558.48	25507.16
558.65	25390.13
558.81	25373.75
558.98	25532.90
559.14	25317.57
559.31	25617.16
559.47	25071.82
559.64	25593.76
559.80	25371.41
559.97	25132.67
560.13	25425.24
560.30	25287.15
560.46	25282.47
560.63	25598.44
560.79	25638.23
560.96	25551.63
561.12	25603.12
561.29	25530.56
561.45	25425.24
561.61	25308.21
561.78	25715.47
561.94	25436.94
562.11	25916.75
562.27	25865.26
562.44	25408.86
562.60	25453.33
562.77	25418.22
562.93	25671.00
563.10	25900.37
563.26	25713.13
563.42	25935.48
563.59	25926.11
563.75	25685.04
563.92	25951.86
564.08	25766.96
564.24	25893.35
564.41	25560.99
564.57	25738.87
564.74	25465.03
564.90	25977.61
565.07	25991.65
565.23	25879.30
565.39	25359.70
565.56	26045.48
565.72	25993.99
565.88	26129.74
566.05	25699.08
566.21	25577.37
566.38	25795.04
566.54	25450.99
566.70	25458.01
566.87	26080.59
567.03	25598.44
567.19	26146.12
567.36	25993.99
567.52	26061.87
567.68	25858.24
567.85	25586.74
568.01	25736.53
568.17	25914.41
568.34	25942.50
568.50	25785.68
568.66	25799.73
568.83	26012.71
568.99	25755.26
569.15	26031.44
569.32	25820.79
569.48	25584.40
569.64	26242.09
569.81	25748.23
569.97	25500.14
570.13	26087.61
570.30	25675.68
570.46	25944.84
570.62	26143.78
570.78	25984.63
570.95	25759.94
571.11	25813.77
571.27	25771.64
571.43	25781.00
571.60	26232.72
571.76	25521.20
571.92	26024.42
572.09	25867.60
572.25	26125.06
572.41	26038.46
572.57	26073.57
572.74	26223.36
572.90	25947.18
573.06	25984.63
573.22	26300.60
573.38	26356.77
573.55	25860.58
573.71	26536.99
573.87	26040.80
574.03	26218.68
574.20	26134.42
574.36	25937.82
574.52	26223.36
574.68	25954.20
574.84	26471.46
575.01	26008.03
575.17	25986.97
575.33	26422.31
575.49	26162.51
575.65	26560.40
575.82	26195.28
575.98	26153.15
576.14	26169.53
576.30	26309.96
576.46	26272.51
576.62	26181.23
576.79	26150.81
576.95	26085.27
577.11	26251.45
577.27	26167.19
577.43	26265.49
577.59	26452.73
577.75	26143.78
577.92	26103.99
578.08	26199.96
578.24	26368.48
578.40	26277.19
578.56	26354.43
578.72	26412.95
578.88	26478.48
579.04	26614.23
579.21	26274.85
579.37	26005.69
579.53	26632.96
579.69	26162.51
579.85	26370.82
580.01	26190.59
580.17	26410.60
580.33	26841.26
580.49	26562.74
580.65	26302.94
580.82	26794.45
580.98	26429.33
581.14	26197.62
581.30	26513.59
581.46	26101.65
581.62	26008.03
581.78	26181.23
581.94	26335.71
582.10	26010.37
582.26	26281.88
582.42	26412.95
582.58	26340.39
582.74	26389.54
582.90	26705.51
583.06	26426.99
583.22	26408.26
583.38	26412.95
583.54	26443.37
583.70	26291.24
583.86	26321.66
584.02	26073.57
584.18	26562.74
584.34	26651.68
584.50	26445.71
584.66	26176.55
584.82	25942.50
584.98	25986.97
585.14	26188.25
585.30	26527.63
585.46	26518.27
585.62	26314.64
585.78	26459.76
585.94	26155.49
586.10	26352.09
586.26	26387.20
586.42	26515.93
586.58	26384.86
586.74	26546.36
586.90	26286.56
587.06	26150.81
587.22	26881.05
587.38	26204.64
587.54	26466.78
587.70	26487.84
587.86	26419.97
588.02	27002.76
588.18	26745.30
588.34	26394.22
588.49	26520.61
588.65	25841.85
588.81	26527.63
588.97	26534.65
589.13	26206.98
589.29	26733.60
589.45	26429.33
589.61	26625.93
589.77	26745.30
589.93	26682.11
590.08	26735.94
590.24	26581.46
590.40	26761.69
590.56	26693.81
590.72	26230.38
