SpectraSuite Data File
++++++++++++++++++++++++++++++++++++
Date: Thu Oct 24 13:20:58 EDT 2013
User: stostad
Dark Spectrum Present: No
Reference Spectrum Present: No
Number of Sampled Component Spectra: 1
Spectrometers: USB2+H05261
Integration Time (usec): 100000 (USB2+H05261)
Spectra Averaged: 1 (USB2+H05261)
Boxcar Smoothing: 0 (USB2+H05261)
Correct for Electrical Dark: No (USB2+H05261)
Strobe/Lamp Enabled: No (USB2+H05261)
Correct for Detector Non-linearity: No (USB2+H05261)
Correct for Stray Light: No (USB2+H05261)
Number of Pixels in Processed Spectrum: 2048
>>>>>Begin Processed Spectral Data<<<<<
365.73	592.16
365.92	592.16
366.12	592.16
366.32	475.13
366.52	442.36
366.72	440.02
366.91	433.00
367.11	500.87
367.31	449.38
367.51	475.13
367.70	486.83
367.90	425.98
368.10	456.40
368.30	458.74
368.49	531.30
368.69	498.53
368.89	503.22
369.09	435.34
369.28	505.56
369.48	482.15
369.68	519.60
369.87	596.84
370.07	571.09
370.27	606.20
370.47	603.86
370.66	603.86
370.86	592.16
371.06	617.90
371.25	660.03
371.45	631.94
371.65	627.26
371.84	594.50
372.04	580.45
372.24	627.26
372.44	571.09
372.63	552.37
372.83	615.56
373.03	540.66
373.22	585.13
373.42	615.56
373.62	606.20
373.81	678.76
374.01	683.44
374.21	622.58
374.40	667.05
374.60	608.54
374.79	638.97
374.99	638.97
375.19	594.50
375.38	624.92
375.58	575.77
375.78	617.90
375.97	671.73
376.17	634.29
376.37	638.97
376.56	678.76
376.76	608.54
376.95	582.79
377.15	601.52
377.35	645.99
377.54	617.90
377.74	594.50
377.93	599.18
378.13	575.77
378.33	653.01
378.52	622.58
378.72	603.86
378.91	692.80
379.11	564.07
379.31	585.13
379.50	660.03
379.70	657.69
379.89	636.63
380.09	613.22
380.28	648.33
380.48	620.24
380.68	582.79
380.87	599.18
381.07	653.01
381.26	624.92
381.46	650.67
381.65	613.22
381.85	571.09
382.04	648.33
382.24	641.31
382.43	662.37
382.63	589.82
382.83	603.86
383.02	650.67
383.22	638.97
383.41	638.97
383.61	641.31
383.80	704.50
384.00	641.31
384.19	610.88
384.39	634.29
384.58	610.88
384.78	615.56
384.97	617.90
385.17	592.16
385.36	709.18
385.56	713.86
385.75	594.50
385.95	716.20
386.14	645.99
386.34	636.63
386.53	692.80
386.72	606.20
386.92	741.95
387.11	636.63
387.31	648.33
387.50	624.92
387.70	627.26
387.89	641.31
388.09	599.18
388.28	631.94
388.48	578.11
388.67	683.44
388.86	617.90
389.06	627.26
389.25	690.46
389.45	620.24
389.64	664.71
389.84	662.37
390.03	582.79
390.22	592.16
390.42	606.20
390.61	613.22
390.81	683.44
391.00	601.52
391.19	613.22
391.39	627.26
391.58	627.26
391.78	601.52
391.97	655.35
392.16	573.43
392.36	592.16
392.55	631.94
392.75	599.18
392.94	608.54
393.13	643.65
393.33	610.88
393.52	613.22
393.71	606.20
393.91	636.63
394.10	582.79
394.29	641.31
394.49	594.50
394.68	580.45
394.88	627.26
395.07	636.63
395.26	585.13
395.46	653.01
395.65	636.63
395.84	610.88
396.04	706.84
396.23	613.22
396.42	709.18
396.62	648.33
396.81	573.43
397.00	587.47
397.19	585.13
397.39	620.24
397.58	678.76
397.77	662.37
397.97	678.76
398.16	650.67
398.35	669.39
398.55	653.01
398.74	681.10
398.93	702.16
399.12	629.60
399.32	641.31
399.51	655.35
399.70	573.43
399.90	592.16
400.09	624.92
400.28	589.82
400.47	629.60
400.67	638.97
400.86	585.13
401.05	741.95
401.24	638.97
401.44	676.41
401.63	627.26
401.82	641.31
402.01	613.22
402.21	631.94
402.40	669.39
402.59	660.03
402.78	718.54
402.97	592.16
403.17	641.31
403.36	641.31
403.55	648.33
403.74	631.94
403.93	683.44
404.13	713.86
404.32	739.61
404.51	664.71
404.70	758.33
404.89	660.03
405.09	648.33
405.28	692.80
405.47	622.58
405.66	620.24
405.85	636.63
406.05	629.60
406.24	624.92
406.43	660.03
406.62	631.94
406.81	620.24
407.00	657.69
407.20	643.65
407.39	596.84
407.58	585.13
407.77	645.99
407.96	723.23
408.15	603.86
408.34	655.35
408.54	615.56
408.73	648.33
408.92	655.35
409.11	610.88
409.30	617.90
409.49	653.01
409.68	657.69
409.87	571.09
410.07	613.22
410.26	599.18
410.45	613.22
410.64	615.56
410.83	617.90
411.02	657.69
411.21	603.86
411.40	582.79
411.59	587.47
411.78	615.56
411.98	660.03
412.17	631.94
412.36	643.65
412.55	575.77
412.74	627.26
412.93	681.10
413.12	613.22
413.31	603.86
413.50	617.90
413.69	634.29
413.88	596.84
414.07	657.69
414.26	634.29
414.45	627.26
414.64	667.05
414.83	669.39
415.02	655.35
415.22	685.78
415.41	627.26
415.60	622.58
415.79	709.18
415.98	627.26
416.17	674.07
416.36	592.16
416.55	585.13
416.74	580.45
416.93	711.52
417.12	669.39
417.31	636.63
417.50	645.99
417.69	629.60
417.88	636.63
418.07	622.58
418.26	610.88
418.45	683.44
418.64	610.88
418.83	645.99
419.02	589.82
419.21	615.56
419.39	634.29
419.58	629.60
419.77	606.20
419.96	606.20
420.15	603.86
420.34	620.24
420.53	681.10
420.72	690.46
420.91	608.54
421.10	643.65
421.29	638.97
421.48	650.67
421.67	648.33
421.86	641.31
422.05	585.13
422.24	594.50
422.43	617.90
422.61	592.16
422.80	580.45
422.99	732.59
423.18	587.47
423.37	657.69
423.56	643.65
423.75	702.16
423.94	610.88
424.13	547.69
424.32	575.77
424.50	566.41
424.69	650.67
424.88	662.37
425.07	596.84
425.26	655.35
425.45	620.24
425.64	601.52
425.83	664.71
426.01	603.86
426.20	603.86
426.39	648.33
426.58	634.29
426.77	657.69
426.96	662.37
427.15	596.84
427.33	615.56
427.52	683.44
427.71	610.88
427.90	685.78
428.09	655.35
428.28	629.60
428.46	610.88
428.65	638.97
428.84	648.33
429.03	702.16
429.22	624.92
429.40	641.31
429.59	627.26
429.78	669.39
429.97	662.37
430.16	638.97
430.34	638.97
430.53	648.33
430.72	627.26
430.91	629.60
431.10	594.50
431.28	603.86
431.47	664.71
431.66	634.29
431.85	653.01
432.03	634.29
432.22	678.76
432.41	702.16
432.60	613.22
432.79	603.86
432.97	629.60
433.16	688.12
433.35	655.35
433.54	704.50
433.72	667.05
433.91	641.31
434.10	627.26
434.28	678.76
434.47	706.84
434.66	559.39
434.85	674.07
435.03	873.02
435.22	1011.11
435.41	1137.50
435.59	1064.94
435.78	966.64
435.97	835.57
436.16	779.40
436.34	723.23
436.53	585.13
436.72	690.46
436.90	585.13
437.09	599.18
437.28	636.63
437.46	613.22
437.65	615.56
437.84	629.60
438.02	585.13
438.21	662.37
438.40	627.26
438.58	657.69
438.77	547.69
438.96	636.63
439.14	610.88
439.33	648.33
439.52	685.78
439.70	643.65
439.89	599.18
440.08	634.29
440.26	638.97
440.45	617.90
440.63	624.92
440.82	624.92
441.01	631.94
441.19	634.29
441.38	638.97
441.57	608.54
441.75	620.24
441.94	674.07
442.12	610.88
442.31	648.33
442.50	655.35
442.68	667.05
442.87	601.52
443.05	660.03
443.24	645.99
443.43	685.78
443.61	660.03
443.80	617.90
443.98	606.20
444.17	568.75
444.35	655.35
444.54	608.54
444.73	671.73
444.91	629.60
445.10	582.79
445.28	653.01
445.47	582.79
445.65	606.20
445.84	622.58
446.02	641.31
446.21	660.03
446.39	620.24
446.58	627.26
446.77	678.76
446.95	657.69
447.14	650.67
447.32	655.35
447.51	645.99
447.69	629.60
447.88	617.90
448.06	629.60
448.25	601.52
448.43	620.24
448.62	624.92
448.80	594.50
448.99	702.16
449.17	587.47
449.36	678.76
449.54	711.52
449.73	615.56
449.91	667.05
450.10	664.71
450.28	662.37
450.46	631.94
450.65	704.50
450.83	606.20
451.02	657.69
451.20	650.67
451.39	648.33
451.57	643.65
451.76	589.82
451.94	669.39
452.13	681.10
452.31	688.12
452.49	685.78
452.68	627.26
452.86	664.71
453.05	709.18
453.23	603.86
453.42	594.50
453.60	669.39
453.78	622.58
453.97	622.58
454.15	664.71
454.34	653.01
454.52	624.92
454.70	662.37
454.89	589.82
455.07	697.48
455.26	631.94
455.44	629.60
455.62	650.67
455.81	667.05
455.99	599.18
456.17	641.31
456.36	702.16
456.54	617.90
456.73	613.22
456.91	594.50
457.09	610.88
457.28	552.37
457.46	638.97
457.64	681.10
457.83	613.22
458.01	627.26
458.19	631.94
458.38	627.26
458.56	648.33
458.74	667.05
458.93	634.29
459.11	615.56
459.29	627.26
459.48	655.35
459.66	610.88
459.84	678.76
460.03	690.46
460.21	671.73
460.39	643.65
460.57	669.39
460.76	688.12
460.94	685.78
461.12	674.07
461.31	617.90
461.49	594.50
461.67	645.99
461.85	622.58
462.04	667.05
462.22	999.41
462.40	660.03
462.59	660.03
462.77	648.33
462.95	681.10
463.13	613.22
463.32	657.69
463.50	627.26
463.68	653.01
463.86	620.24
464.05	617.90
464.23	683.44
464.41	692.80
464.59	615.56
464.78	592.16
464.96	706.84
465.14	610.88
465.32	650.67
465.50	667.05
465.69	620.24
465.87	592.16
466.05	641.31
466.23	645.99
466.41	634.29
466.60	631.94
466.78	631.94
466.96	692.80
467.14	641.31
467.32	732.59
467.51	622.58
467.69	603.86
467.87	617.90
468.05	650.67
468.23	678.76
468.41	685.78
468.60	667.05
468.78	653.01
468.96	662.37
469.14	657.69
469.32	557.05
469.50	671.73
469.69	608.54
469.87	699.82
470.05	589.82
470.23	650.67
470.41	624.92
470.59	552.37
470.77	636.63
470.95	622.58
471.14	645.99
471.32	599.18
471.50	636.63
471.68	617.90
471.86	657.69
472.04	678.76
472.22	627.26
472.40	641.31
472.58	718.54
472.77	641.31
472.95	603.86
473.13	718.54
473.31	655.35
473.49	606.20
473.67	702.16
473.85	702.16
474.03	643.65
474.21	622.58
474.39	664.71
474.57	697.48
474.75	624.92
474.93	603.86
475.12	594.50
475.30	599.18
475.48	568.75
475.66	650.67
475.84	683.44
476.02	573.43
476.20	667.05
476.38	638.97
476.56	678.76
476.74	678.76
476.92	613.22
477.10	662.37
477.28	681.10
477.46	643.65
477.64	587.47
477.82	631.94
478.00	636.63
478.18	603.86
478.36	601.52
478.54	613.22
478.72	699.82
478.90	678.76
479.08	667.05
479.26	566.41
479.44	650.67
479.62	685.78
479.80	587.47
479.98	582.79
480.16	624.92
480.34	667.05
480.52	580.45
480.70	706.84
480.88	620.24
481.06	620.24
481.24	711.52
481.41	650.67
481.59	678.76
481.77	706.84
481.95	622.58
482.13	662.37
482.31	599.18
482.49	683.44
482.67	685.78
482.85	620.24
483.03	667.05
483.21	615.56
483.39	587.47
483.57	692.80
483.74	645.99
483.92	669.39
484.10	667.05
484.28	706.84
484.46	704.50
484.64	683.44
484.82	695.14
485.00	699.82
485.18	688.12
485.35	699.82
485.53	793.44
485.71	725.57
485.89	690.46
486.07	711.52
486.25	830.89
486.43	692.80
486.61	716.20
486.78	678.76
486.96	692.80
487.14	699.82
487.32	702.16
487.50	791.10
487.68	699.82
487.85	667.05
488.03	657.69
488.21	777.06
488.39	662.37
488.57	720.88
488.75	730.25
488.92	779.40
489.10	723.23
489.28	685.78
489.46	690.46
489.64	751.31
489.81	727.91
489.99	765.36
490.17	645.99
490.35	669.39
490.53	671.73
490.70	641.31
490.88	681.10
491.06	641.31
491.24	697.48
491.41	697.48
491.59	723.23
491.77	617.90
491.95	734.93
492.13	657.69
492.30	695.14
492.48	664.71
492.66	706.84
492.84	725.57
493.01	660.03
493.19	585.13
493.37	674.07
493.54	638.97
493.72	718.54
493.90	685.78
494.08	730.25
494.25	678.76
494.43	741.95
494.61	678.76
494.79	739.61
494.96	655.35
495.14	711.52
495.32	692.80
495.49	727.91
495.67	655.35
495.85	669.39
496.02	648.33
496.20	730.25
496.38	631.94
496.55	650.67
496.73	641.31
496.91	685.78
497.09	671.73
497.26	620.24
497.44	709.18
497.62	751.31
497.79	716.20
497.97	674.07
498.14	744.29
498.32	730.25
498.50	704.50
498.67	674.07
498.85	681.10
499.03	711.52
499.20	697.48
499.38	676.41
499.56	662.37
499.73	704.50
499.91	683.44
500.08	751.31
500.26	634.29
500.44	664.71
500.61	599.18
500.79	664.71
500.97	657.69
501.14	653.01
501.32	688.12
501.49	643.65
501.67	699.82
501.84	676.41
502.02	723.23
502.20	781.74
502.37	674.07
502.55	638.97
502.72	645.99
502.90	697.48
503.07	641.31
503.25	566.41
503.43	645.99
503.60	685.78
503.78	683.44
503.95	643.65
504.13	627.26
504.30	629.60
504.48	667.05
504.65	615.56
504.83	730.25
505.01	596.84
505.18	643.65
505.36	688.12
505.53	678.76
505.71	664.71
505.88	655.35
506.06	526.62
506.23	636.63
506.41	622.58
506.58	664.71
506.76	695.14
506.93	622.58
507.11	699.82
507.28	615.56
507.46	702.16
507.63	676.41
507.81	631.94
507.98	671.73
508.16	671.73
508.33	676.41
508.50	660.03
508.68	617.90
508.85	655.35
509.03	669.39
509.20	608.54
509.38	706.84
509.55	723.23
509.73	704.50
509.90	676.41
510.08	667.05
510.25	688.12
510.42	667.05
510.60	655.35
510.77	650.67
510.95	608.54
511.12	695.14
511.30	669.39
511.47	718.54
511.64	723.23
511.82	671.73
511.99	713.86
512.17	641.31
512.34	662.37
512.51	664.71
512.69	603.86
512.86	645.99
513.04	709.18
513.21	594.50
513.38	653.01
513.56	683.44
513.73	601.52
513.90	685.78
514.08	580.45
514.25	667.05
514.43	638.97
514.60	638.97
514.77	641.31
514.95	667.05
515.12	725.57
515.29	683.44
515.47	629.60
515.64	575.77
515.81	650.67
515.99	664.71
516.16	695.14
516.33	669.39
516.51	660.03
516.68	615.56
516.85	704.50
517.03	634.29
517.20	664.71
517.37	702.16
517.54	676.41
517.72	603.86
517.89	664.71
518.06	610.88
518.24	582.79
518.41	648.33
518.58	690.46
518.75	645.99
518.93	594.50
519.10	606.20
519.27	678.76
519.45	622.58
519.62	662.37
519.79	692.80
519.96	589.82
520.14	627.26
520.31	674.07
520.48	645.99
520.65	657.69
520.83	695.14
521.00	685.78
521.17	688.12
521.34	601.52
521.52	592.16
521.69	653.01
521.86	613.22
522.03	650.67
522.20	748.97
522.38	638.97
522.55	643.65
522.72	533.64
522.89	617.90
523.07	681.10
523.24	662.37
523.41	685.78
523.58	692.80
523.75	636.63
523.92	566.41
524.10	594.50
524.27	645.99
524.44	671.73
524.61	627.26
524.78	704.50
524.96	629.60
525.13	631.94
525.30	592.16
525.47	671.73
525.64	608.54
525.81	727.91
525.98	631.94
526.16	603.86
526.33	613.22
526.50	636.63
526.67	606.20
526.84	683.44
527.01	638.97
527.18	650.67
527.36	650.67
527.53	650.67
527.70	674.07
527.87	664.71
528.04	678.76
528.21	706.84
528.38	664.71
528.55	674.07
528.72	624.92
528.89	690.46
529.07	667.05
529.24	606.20
529.41	678.76
529.58	601.52
529.75	655.35
529.92	741.95
530.09	641.31
530.26	566.41
530.43	615.56
530.60	610.88
530.77	620.24
530.94	624.92
531.11	631.94
531.28	662.37
531.46	641.31
531.63	538.32
531.80	732.59
531.97	634.29
532.14	664.71
532.31	634.29
532.48	723.23
532.65	636.63
532.82	660.03
532.99	653.01
533.16	678.76
533.33	657.69
533.50	657.69
533.67	643.65
533.84	678.76
534.01	667.05
534.18	699.82
534.35	688.12
534.52	641.31
534.69	678.76
534.86	704.50
535.03	645.99
535.20	718.54
535.37	706.84
535.54	713.86
535.71	645.99
535.88	667.05
536.05	706.84
536.22	622.58
536.38	739.61
536.55	681.10
536.72	704.50
536.89	662.37
537.06	837.91
537.23	741.95
537.40	695.14
537.57	674.07
537.74	699.82
537.91	800.46
538.08	674.07
538.25	786.42
538.42	800.46
538.59	763.01
538.75	734.93
538.92	760.67
539.09	786.42
539.26	816.85
539.43	861.32
539.60	842.59
539.77	844.93
539.94	842.59
540.11	964.30
540.28	905.79
540.44	1025.15
540.61	945.58
540.78	966.64
540.95	1046.22
541.12	1167.93
541.29	1149.20
541.46	1224.10
541.62	1231.12
541.79	1270.91
541.96	1294.32
542.13	1256.87
542.30	1247.51
542.47	1259.21
542.63	1221.76
542.80	1165.59
542.97	1174.95
543.14	1212.40
543.31	1254.53
543.48	1270.91
543.64	1224.10
543.81	1188.99
543.98	1160.91
544.15	1231.12
544.32	1210.06
544.48	1167.93
544.65	1174.95
544.82	1144.52
544.99	1231.12
545.16	1149.20
545.32	1170.27
545.49	1605.61
545.66	1963.71
545.83	2202.44
546.00	1830.30
546.16	1565.82
546.33	1406.66
546.50	1387.94
546.67	1158.57
546.83	1158.57
547.00	983.02
547.17	985.37
547.34	983.02
547.50	978.34
547.67	952.60
547.84	915.15
548.00	915.15
548.17	971.32
548.34	922.17
548.51	905.79
548.67	929.19
548.84	922.17
549.01	915.15
549.18	887.06
549.34	863.66
549.51	903.45
549.68	816.85
549.84	866.00
550.01	835.57
550.18	791.10
550.34	837.91
550.51	870.68
550.68	788.76
550.84	823.87
551.01	758.33
551.18	816.85
551.34	746.63
551.51	849.61
551.68	788.76
551.84	777.06
552.01	716.20
552.18	671.73
552.34	758.33
552.51	777.06
552.68	805.14
552.84	823.87
553.01	772.38
553.18	777.06
553.34	727.91
553.51	702.16
553.67	739.61
553.84	765.36
554.01	741.95
554.17	697.48
554.34	638.97
554.51	737.27
554.67	723.23
554.84	748.97
555.00	713.86
555.17	650.67
555.33	741.95
555.50	744.29
555.67	720.88
555.83	739.61
556.00	725.57
556.16	800.46
556.33	699.82
556.50	662.37
556.66	725.57
556.83	622.58
556.99	657.69
557.16	758.33
557.32	704.50
557.49	720.88
557.65	676.41
557.82	702.16
557.98	699.82
558.15	664.71
558.32	620.24
558.48	645.99
558.65	664.71
558.81	655.35
558.98	631.94
559.14	671.73
559.31	704.50
559.47	678.76
559.64	711.52
559.80	734.93
559.97	688.12
560.13	713.86
560.30	622.58
560.46	643.65
560.63	683.44
560.79	702.16
560.96	683.44
561.12	613.22
561.29	662.37
561.45	711.52
561.61	683.44
561.78	786.42
561.94	695.14
562.11	655.35
562.27	713.86
562.44	566.41
562.60	627.26
562.77	674.07
562.93	763.01
563.10	741.95
563.26	669.39
563.42	678.76
563.59	688.12
563.75	676.41
563.92	664.71
564.08	636.63
564.24	695.14
564.41	706.84
564.57	671.73
564.74	690.46
564.90	683.44
565.07	620.24
565.23	671.73
565.39	624.92
565.56	601.52
565.72	685.78
565.88	557.05
566.05	695.14
566.21	627.26
566.38	685.78
566.54	608.54
566.70	606.20
566.87	615.56
567.03	713.86
567.19	655.35
567.36	650.67
567.52	603.86
567.68	627.26
567.85	664.71
568.01	763.01
568.17	622.58
568.34	641.31
568.50	648.33
568.66	615.56
568.83	791.10
568.99	699.82
569.15	725.57
569.32	615.56
569.48	669.39
569.64	653.01
569.81	636.63
569.97	676.41
570.13	660.03
570.30	552.37
570.46	711.52
570.62	617.90
570.78	711.52
570.95	709.18
571.11	692.80
571.27	681.10
571.43	620.24
571.60	671.73
571.76	678.76
571.92	585.13
572.09	629.60
572.25	699.82
572.41	641.31
572.57	716.20
572.74	718.54
572.90	692.80
573.06	662.37
573.22	725.57
573.38	613.22
573.55	685.78
573.71	683.44
573.87	723.23
574.03	650.67
574.20	671.73
574.36	608.54
574.52	716.20
574.68	657.69
574.84	636.63
575.01	697.48
575.17	671.73
575.33	690.46
575.49	645.99
575.65	683.44
575.82	739.61
575.98	634.29
576.14	648.33
576.30	669.39
576.46	770.04
576.62	854.30
576.79	947.92
576.95	858.98
577.11	821.53
577.27	795.78
577.43	753.65
577.59	690.46
577.75	746.63
577.92	674.07
578.08	702.16
578.24	620.24
578.40	779.40
578.56	903.45
578.72	877.70
578.88	926.85
579.04	814.51
579.21	807.48
579.37	830.89
579.53	807.48
579.69	786.42
579.85	807.48
580.01	791.10
580.17	816.85
580.33	739.61
580.49	702.16
580.65	704.50
580.82	704.50
580.98	741.95
581.14	765.36
581.30	730.25
581.46	692.80
581.62	774.72
581.78	723.23
581.94	720.88
582.10	781.74
582.26	795.78
582.42	849.61
582.58	767.70
582.74	770.04
582.90	720.88
583.06	793.44
583.22	737.27
583.38	779.40
583.54	795.78
583.70	805.14
583.86	802.80
584.02	760.67
584.18	805.14
584.34	777.06
584.50	770.04
584.66	774.72
584.82	737.27
584.98	791.10
585.14	727.91
585.30	849.61
585.46	737.27
585.62	760.67
585.78	734.93
585.94	800.46
586.10	741.95
586.26	744.29
586.42	798.12
586.58	784.08
586.74	943.24
586.90	898.77
587.06	938.55
587.22	938.55
587.38	830.89
587.54	861.32
587.70	894.08
587.86	798.12
588.02	732.59
588.18	688.12
588.34	765.36
588.49	711.52
588.65	725.57
588.81	732.59
588.97	816.85
589.13	744.29
589.29	770.04
589.45	765.36
589.61	765.36
589.77	758.33
589.93	751.31
590.08	711.52
590.24	755.99
590.40	744.29
590.56	704.50
590.72	718.54
590.88	638.97
591.04	706.84
591.20	734.93
591.35	760.67
591.51	730.25
591.67	648.33
591.83	767.70
591.99	767.70
592.15	720.88
592.31	711.52
592.46	767.70
592.62	828.55
592.78	802.80
592.94	828.55
593.10	854.30
593.26	763.01
593.41	816.85
593.57	833.23
593.73	809.83
593.89	788.76
594.05	716.20
594.20	713.86
594.36	732.59
594.52	685.78
594.68	699.82
594.84	695.14
594.99	671.73
595.15	755.99
595.31	695.14
595.47	777.06
595.62	713.86
595.78	748.97
595.94	688.12
596.10	732.59
596.25	671.73
596.41	678.76
596.57	664.71
596.73	706.84
596.88	690.46
597.04	734.93
597.20	641.31
597.36	690.46
597.51	690.46
597.67	713.86
597.83	692.80
597.99	704.50
598.14	774.72
598.30	781.74
598.46	697.48
598.61	720.88
598.77	755.99
598.93	706.84
599.09	718.54
599.24	734.93
599.40	807.48
599.56	704.50
599.71	781.74
599.87	690.46
600.03	669.39
600.18	734.93
600.34	795.78
600.50	753.65
600.65	739.61
600.81	657.69
600.97	711.52
601.12	683.44
601.28	763.01
601.44	622.58
601.59	730.25
601.75	695.14
601.91	671.73
602.06	697.48
602.22	718.54
602.37	741.95
602.53	744.29
602.69	634.29
602.84	636.63
603.00	641.31
603.16	695.14
603.31	685.78
603.47	641.31
603.62	720.88
603.78	681.10
603.94	699.82
604.09	725.57
604.25	681.10
604.40	641.31
604.56	681.10
604.71	678.76
604.87	620.24
605.03	643.65
605.18	751.31
605.34	751.31
605.49	690.46
605.65	695.14
605.80	704.50
605.96	655.35
606.12	737.27
606.27	688.12
606.43	660.03
606.58	786.42
606.74	681.10
606.89	676.41
607.05	744.29
607.20	795.78
607.36	734.93
607.51	732.59
607.67	748.97
607.82	678.76
607.98	786.42
608.13	723.23
608.29	741.95
608.44	758.33
608.60	746.63
608.75	772.38
608.91	725.57
609.06	854.30
609.22	809.83
609.37	861.32
609.53	905.79
609.68	894.08
609.84	940.90
