SpectraSuite Data File
++++++++++++++++++++++++++++++++++++
Date: Thu Oct 24 13:21:01 EDT 2013
User: stostad
Dark Spectrum Present: No
Reference Spectrum Present: No
Number of Sampled Component Spectra: 1
Spectrometers: USB2+H05261
Integration Time (usec): 100000 (USB2+H05261)
Spectra Averaged: 1 (USB2+H05261)
Boxcar Smoothing: 0 (USB2+H05261)
Correct for Electrical Dark: No (USB2+H05261)
Strobe/Lamp Enabled: No (USB2+H05261)
Correct for Detector Non-linearity: No (USB2+H05261)
Correct for Stray Light: No (USB2+H05261)
Number of Pixels in Processed Spectrum: 2048
>>>>>Begin Processed Spectral Data<<<<<
365.73	505.56
365.92	505.56
366.12	505.56
366.32	500.87
366.52	472.79
366.72	491.51
366.91	428.32
367.11	463.43
367.31	519.60
367.51	454.06
367.70	500.87
367.90	461.09
368.10	510.24
368.30	514.92
368.49	444.70
368.69	465.77
368.89	543.00
369.09	510.24
369.28	564.07
369.48	514.92
369.68	568.75
369.87	519.60
370.07	491.51
370.27	528.96
370.47	564.07
370.66	512.58
370.86	599.18
371.06	587.47
371.25	620.24
371.45	552.37
371.65	603.86
371.84	561.73
372.04	552.37
372.24	620.24
372.44	550.03
372.63	610.88
372.83	627.26
373.03	613.22
373.22	587.47
373.42	674.07
373.62	657.69
373.81	624.92
374.01	641.31
374.21	638.97
374.40	671.73
374.60	608.54
374.79	688.12
374.99	617.90
375.19	580.45
375.38	692.80
375.58	627.26
375.78	688.12
375.97	627.26
376.17	683.44
376.37	589.82
376.56	667.05
376.76	622.58
376.95	592.16
377.15	660.03
377.35	538.32
377.54	650.67
377.74	608.54
377.93	617.90
378.13	622.58
378.33	631.94
378.52	657.69
378.72	601.52
378.91	615.56
379.11	603.86
379.31	575.77
379.50	578.11
379.70	620.24
379.89	603.86
380.09	634.29
380.28	653.01
380.48	674.07
380.68	610.88
380.87	594.50
381.07	627.26
381.26	704.50
381.46	603.86
381.65	739.61
381.85	613.22
382.04	671.73
382.24	613.22
382.43	678.76
382.63	653.01
382.83	645.99
383.02	648.33
383.22	580.45
383.41	573.43
383.61	606.20
383.80	636.63
384.00	603.86
384.19	596.84
384.39	550.03
384.58	596.84
384.78	610.88
384.97	592.16
385.17	608.54
385.36	636.63
385.56	662.37
385.75	594.50
385.95	678.76
386.14	634.29
386.34	575.77
386.53	603.86
386.72	641.31
386.92	615.56
387.11	582.79
387.31	613.22
387.50	617.90
387.70	629.60
387.89	599.18
388.09	620.24
388.28	582.79
388.48	603.86
388.67	615.56
388.86	627.26
389.06	627.26
389.25	601.52
389.45	552.37
389.64	571.09
389.84	594.50
390.03	627.26
390.22	561.73
390.42	589.82
390.61	631.94
390.81	655.35
391.00	669.39
391.19	641.31
391.39	624.92
391.58	641.31
391.78	617.90
391.97	596.84
392.16	592.16
392.36	603.86
392.55	631.94
392.75	690.46
392.94	622.58
393.13	620.24
393.33	629.60
393.52	599.18
393.71	697.48
393.91	585.13
394.10	615.56
394.29	615.56
394.49	568.75
394.68	655.35
394.88	641.31
395.07	582.79
395.26	535.98
395.46	603.86
395.65	657.69
395.84	585.13
396.04	606.20
396.23	622.58
396.42	564.07
396.62	655.35
396.81	676.41
397.00	638.97
397.19	641.31
397.39	627.26
397.58	713.86
397.77	610.88
397.97	615.56
398.16	617.90
398.35	615.56
398.55	603.86
398.74	671.73
398.93	662.37
399.12	624.92
399.32	641.31
399.51	641.31
399.70	636.63
399.90	559.39
400.09	606.20
400.28	655.35
400.47	732.59
400.67	662.37
400.86	664.71
401.05	681.10
401.24	664.71
401.44	702.16
401.63	648.33
401.82	667.05
402.01	645.99
402.21	608.54
402.40	664.71
402.59	627.26
402.78	622.58
402.97	596.84
403.17	582.79
403.36	613.22
403.55	660.03
403.74	568.75
403.93	678.76
404.13	716.20
404.32	660.03
404.51	648.33
404.70	657.69
404.89	671.73
405.09	620.24
405.28	575.77
405.47	676.41
405.66	685.78
405.85	627.26
406.05	617.90
406.24	674.07
406.43	634.29
406.62	617.90
406.81	645.99
407.00	627.26
407.20	620.24
407.39	674.07
407.58	643.65
407.77	617.90
407.96	580.45
408.15	638.97
408.34	669.39
408.54	596.84
408.73	643.65
408.92	589.82
409.11	610.88
409.30	613.22
409.49	667.05
409.68	662.37
409.87	613.22
410.07	580.45
410.26	636.63
410.45	648.33
410.64	648.33
410.83	547.69
411.02	695.14
411.21	627.26
411.40	674.07
411.59	613.22
411.78	547.69
411.98	622.58
412.17	535.98
412.36	526.62
412.55	587.47
412.74	545.34
412.93	671.73
413.12	636.63
413.31	704.50
413.50	660.03
413.69	594.50
413.88	610.88
414.07	636.63
414.26	610.88
414.45	648.33
414.64	622.58
414.83	638.97
415.02	655.35
415.22	709.18
415.41	662.37
415.60	636.63
415.79	648.33
415.98	653.01
416.17	601.52
416.36	650.67
416.55	631.94
416.74	678.76
416.93	667.05
417.12	634.29
417.31	613.22
417.50	627.26
417.69	568.75
417.88	629.60
418.07	667.05
418.26	671.73
418.45	533.64
418.64	660.03
418.83	594.50
419.02	617.90
419.21	592.16
419.39	592.16
419.58	634.29
419.77	664.71
419.96	699.82
420.15	660.03
420.34	641.31
420.53	657.69
420.72	671.73
420.91	667.05
421.10	620.24
421.29	610.88
421.48	650.67
421.67	610.88
421.86	638.97
422.05	638.97
422.24	592.16
422.43	678.76
422.61	648.33
422.80	624.92
422.99	641.31
423.18	575.77
423.37	655.35
423.56	606.20
423.75	561.73
423.94	580.45
424.13	610.88
424.32	559.39
424.50	627.26
424.69	599.18
424.88	594.50
425.07	622.58
425.26	648.33
425.45	655.35
425.64	610.88
425.83	667.05
426.01	603.86
426.20	585.13
426.39	629.60
426.58	676.41
426.77	657.69
426.96	587.47
427.15	643.65
427.33	608.54
427.52	568.75
427.71	580.45
427.90	615.56
428.09	641.31
428.28	643.65
428.46	615.56
428.65	692.80
428.84	610.88
429.03	678.76
429.22	648.33
429.40	606.20
429.59	610.88
429.78	660.03
429.97	627.26
430.16	636.63
430.34	627.26
430.53	681.10
430.72	613.22
430.91	697.48
431.10	688.12
431.28	699.82
431.47	718.54
431.66	676.41
431.85	629.60
432.03	713.86
432.22	667.05
432.41	615.56
432.60	667.05
432.79	580.45
432.97	674.07
433.16	594.50
433.35	662.37
433.54	582.79
433.72	528.96
433.91	645.99
434.10	636.63
434.28	634.29
434.47	676.41
434.66	690.46
434.85	699.82
435.03	779.40
435.22	968.98
435.41	1156.22
435.59	1107.07
435.78	891.74
435.97	828.55
436.16	784.08
436.34	655.35
436.53	615.56
436.72	636.63
436.90	681.10
437.09	706.84
437.28	660.03
437.46	573.43
437.65	610.88
437.84	601.52
438.02	678.76
438.21	695.14
438.40	674.07
438.58	650.67
438.77	620.24
438.96	645.99
439.14	627.26
439.33	662.37
439.52	667.05
439.70	631.94
439.89	695.14
440.08	662.37
440.26	624.92
440.45	601.52
440.63	641.31
440.82	648.33
441.01	615.56
441.19	599.18
441.38	613.22
441.57	676.41
441.75	674.07
441.94	622.58
442.12	674.07
442.31	582.79
442.50	676.41
442.68	683.44
442.87	587.47
443.05	613.22
443.24	685.78
443.43	631.94
443.61	615.56
443.80	681.10
443.98	695.14
444.17	624.92
444.35	587.47
444.54	662.37
444.73	622.58
444.91	681.10
445.10	610.88
445.28	681.10
445.47	599.18
445.65	617.90
445.84	592.16
446.02	648.33
446.21	681.10
446.39	678.76
446.58	596.84
446.77	638.97
446.95	638.97
447.14	678.76
447.32	634.29
447.51	669.39
447.69	716.20
447.88	685.78
448.06	664.71
448.25	664.71
448.43	683.44
448.62	667.05
448.80	657.69
448.99	641.31
449.17	624.92
449.36	645.99
449.54	634.29
449.73	643.65
449.91	704.50
450.10	606.20
450.28	718.54
450.46	613.22
450.65	685.78
450.83	648.33
451.02	559.39
451.20	709.18
451.39	681.10
451.57	622.58
451.76	599.18
451.94	636.63
452.13	734.93
452.31	699.82
452.49	688.12
452.68	720.88
452.86	695.14
453.05	641.31
453.23	622.58
453.42	603.86
453.60	660.03
453.78	610.88
453.97	645.99
454.15	608.54
454.34	599.18
454.52	580.45
454.70	688.12
454.89	601.52
455.07	606.20
455.26	638.97
455.44	615.56
455.62	638.97
455.81	657.69
455.99	641.31
456.17	690.46
456.36	643.65
456.54	620.24
456.73	704.50
456.91	674.07
457.09	608.54
457.28	648.33
457.46	599.18
457.64	617.90
457.83	667.05
458.01	631.94
458.19	669.39
458.38	554.71
458.56	657.69
458.74	671.73
458.93	699.82
459.11	645.99
459.29	610.88
459.48	594.50
459.66	624.92
459.84	631.94
460.03	624.92
460.21	603.86
460.39	638.97
460.57	629.60
460.76	603.86
460.94	624.92
461.12	671.73
461.31	624.92
461.49	655.35
461.67	638.97
461.85	744.29
462.04	692.80
462.22	938.55
462.40	643.65
462.59	655.35
462.77	664.71
462.95	683.44
463.13	622.58
463.32	610.88
463.50	648.33
463.68	645.99
463.86	688.12
464.05	674.07
464.23	648.33
464.41	688.12
464.59	636.63
464.78	615.56
464.96	615.56
465.14	613.22
465.32	573.43
465.50	660.03
465.69	671.73
465.87	648.33
466.05	662.37
466.23	601.52
466.41	709.18
466.60	603.86
466.78	695.14
466.96	634.29
467.14	585.13
467.32	697.48
467.51	653.01
467.69	660.03
467.87	557.05
468.05	648.33
468.23	636.63
468.41	629.60
468.60	634.29
468.78	683.44
468.96	685.78
469.14	622.58
469.32	657.69
469.50	667.05
469.69	650.67
469.87	624.92
470.05	634.29
470.23	683.44
470.41	671.73
470.59	610.88
470.77	669.39
470.95	615.56
471.14	636.63
471.32	573.43
471.50	653.01
471.68	608.54
471.86	664.71
472.04	620.24
472.22	690.46
472.40	603.86
472.58	571.09
472.77	606.20
472.95	648.33
473.13	697.48
473.31	718.54
473.49	615.56
473.67	622.58
473.85	648.33
474.03	683.44
474.21	650.67
474.39	657.69
474.57	578.11
474.75	627.26
474.93	634.29
475.12	671.73
475.30	660.03
475.48	631.94
475.66	653.01
475.84	643.65
476.02	638.97
476.20	645.99
476.38	669.39
476.56	653.01
476.74	671.73
476.92	643.65
477.10	669.39
477.28	695.14
477.46	636.63
477.64	620.24
477.82	664.71
478.00	636.63
478.18	606.20
478.36	638.97
478.54	671.73
478.72	695.14
478.90	559.39
479.08	624.92
479.26	617.90
479.44	685.78
479.62	638.97
479.80	566.41
479.98	699.82
480.16	648.33
480.34	568.75
480.52	617.90
480.70	648.33
480.88	671.73
481.06	678.76
481.24	627.26
481.41	681.10
481.59	650.67
481.77	634.29
481.95	613.22
482.13	692.80
482.31	641.31
482.49	664.71
482.67	660.03
482.85	716.20
483.03	716.20
483.21	695.14
483.39	664.71
483.57	653.01
483.74	657.69
483.92	676.41
484.10	744.29
484.28	748.97
484.46	760.67
484.64	751.31
484.82	695.14
485.00	610.88
485.18	718.54
485.35	746.63
485.53	730.25
485.71	760.67
485.89	777.06
486.07	662.37
486.25	798.12
486.43	716.20
486.61	798.12
486.78	723.23
486.96	723.23
487.14	676.41
487.32	683.44
487.50	716.20
487.68	699.82
487.85	786.42
488.03	697.48
488.21	748.97
488.39	688.12
488.57	732.59
488.75	667.05
488.92	784.08
489.10	667.05
489.28	653.01
489.46	699.82
489.64	732.59
489.81	692.80
489.99	763.01
490.17	690.46
490.35	779.40
490.53	760.67
490.70	638.97
490.88	730.25
491.06	779.40
491.24	748.97
491.41	676.41
491.59	674.07
491.77	725.57
491.95	748.97
492.13	730.25
492.30	725.57
492.48	699.82
492.66	713.86
492.84	695.14
493.01	720.88
493.19	678.76
493.37	758.33
493.54	706.84
493.72	664.71
493.90	664.71
494.08	676.41
494.25	727.91
494.43	737.27
494.61	706.84
494.79	631.94
494.96	704.50
495.14	636.63
495.32	723.23
495.49	674.07
495.67	791.10
495.85	624.92
496.02	624.92
496.20	732.59
496.38	564.07
496.55	671.73
496.73	685.78
496.91	650.67
497.09	695.14
497.26	746.63
497.44	671.73
497.62	671.73
497.79	709.18
497.97	657.69
498.14	720.88
498.32	725.57
498.50	676.41
498.67	662.37
498.85	702.16
499.03	603.86
499.20	641.31
499.38	678.76
499.56	631.94
499.73	669.39
499.91	697.48
500.08	596.84
500.26	711.52
500.44	664.71
500.61	634.29
500.79	711.52
500.97	683.44
501.14	748.97
501.32	681.10
501.49	681.10
501.67	594.50
501.84	648.33
502.02	620.24
502.20	683.44
502.37	653.01
502.55	697.48
502.72	669.39
502.90	704.50
503.07	645.99
503.25	634.29
503.43	610.88
503.60	650.67
503.78	697.48
503.95	585.13
504.13	648.33
504.30	657.69
504.48	631.94
504.65	669.39
504.83	674.07
505.01	645.99
505.18	655.35
505.36	645.99
505.53	631.94
505.71	695.14
505.88	610.88
506.06	636.63
506.23	592.16
506.41	713.86
506.58	645.99
506.76	648.33
506.93	655.35
507.11	650.67
507.28	662.37
507.46	674.07
507.63	641.31
507.81	641.31
507.98	610.88
508.16	620.24
508.33	674.07
508.50	617.90
508.68	664.71
508.85	667.05
509.03	629.60
509.20	627.26
509.38	631.94
509.55	592.16
509.73	681.10
509.90	582.79
510.08	627.26
510.25	573.43
510.42	657.69
510.60	720.88
510.77	650.67
510.95	734.93
511.12	664.71
511.30	589.82
511.47	674.07
511.64	629.60
511.82	648.33
511.99	660.03
512.17	608.54
512.34	631.94
512.51	566.41
512.69	601.52
512.86	692.80
513.04	608.54
513.21	624.92
513.38	622.58
513.56	608.54
513.73	645.99
513.90	606.20
514.08	599.18
514.25	622.58
514.43	617.90
514.60	645.99
514.77	671.73
514.95	650.67
515.12	636.63
515.29	606.20
515.47	674.07
515.64	620.24
515.81	653.01
515.99	655.35
516.16	638.97
516.33	643.65
516.51	589.82
516.68	610.88
516.85	608.54
517.03	674.07
517.20	660.03
517.37	751.31
517.54	669.39
517.72	667.05
517.89	648.33
518.06	610.88
518.24	638.97
518.41	674.07
518.58	622.58
518.75	655.35
518.93	594.50
519.10	704.50
519.27	634.29
519.45	678.76
519.62	664.71
519.79	608.54
519.96	622.58
520.14	643.65
520.31	674.07
520.48	662.37
520.65	657.69
520.83	674.07
521.00	688.12
521.17	662.37
521.34	615.56
521.52	645.99
521.69	650.67
521.86	664.71
522.03	566.41
522.20	713.86
522.38	662.37
522.55	674.07
522.72	634.29
522.89	606.20
523.07	685.78
523.24	645.99
523.41	741.95
523.58	648.33
523.75	681.10
523.92	638.97
524.10	697.48
524.27	688.12
524.44	678.76
524.61	713.86
524.78	601.52
524.96	575.77
525.13	599.18
525.30	603.86
525.47	667.05
525.64	653.01
525.81	641.31
525.98	622.58
526.16	636.63
526.33	615.56
526.50	615.56
526.67	608.54
526.84	744.29
527.01	692.80
527.18	585.13
527.36	624.92
527.53	681.10
527.70	629.60
527.87	664.71
528.04	704.50
528.21	643.65
528.38	760.67
528.55	702.16
528.72	683.44
528.89	718.54
529.07	718.54
529.24	568.75
529.41	671.73
529.58	629.60
529.75	664.71
529.92	734.93
530.09	676.41
530.26	615.56
530.43	557.05
530.60	692.80
530.77	657.69
530.94	671.73
531.11	664.71
531.28	657.69
531.46	601.52
531.63	603.86
531.80	692.80
531.97	720.88
532.14	657.69
532.31	592.16
532.48	655.35
532.65	732.59
532.82	683.44
532.99	718.54
533.16	695.14
533.33	711.52
533.50	695.14
533.67	704.50
533.84	671.73
534.01	716.20
534.18	718.54
534.35	683.44
534.52	674.07
534.69	730.25
534.86	695.14
535.03	711.52
535.20	674.07
535.37	702.16
535.54	709.18
535.71	671.73
535.88	676.41
536.05	664.71
536.22	704.50
536.38	704.50
536.55	657.69
536.72	802.80
536.89	713.86
537.06	751.31
537.23	741.95
537.40	704.50
537.57	779.40
537.74	835.57
537.91	718.54
538.08	720.88
538.25	805.14
538.42	777.06
538.59	812.17
538.75	711.52
538.92	774.72
539.09	809.83
539.26	772.38
539.43	849.61
539.60	840.25
539.77	952.60
539.94	908.13
540.11	889.40
540.28	917.49
540.44	933.87
540.61	1057.92
540.78	912.81
540.95	1039.20
541.12	1212.40
541.29	1320.06
541.46	1357.51
541.62	1310.70
541.79	1324.74
541.96	1315.38
542.13	1350.49
542.30	1235.80
542.47	1252.19
542.63	1163.25
542.80	1329.42
542.97	1289.64
543.14	1242.82
543.31	1245.16
543.48	1289.64
543.64	1221.76
543.81	1224.10
543.98	1287.29
544.15	1177.29
544.32	1226.44
544.48	1249.85
544.65	1205.38
544.82	1198.35
544.99	1193.67
545.16	1207.72
545.32	1275.59
545.49	1720.29
545.66	2129.89
545.83	2305.43
546.00	2115.84
546.16	1767.10
546.33	1593.90
546.50	1352.83
546.67	1345.81
546.83	1139.84
547.00	1100.05
547.17	1053.24
547.34	1053.24
547.50	908.13
547.67	1048.56
547.84	940.90
548.00	1008.77
548.17	903.45
548.34	954.94
548.51	973.66
548.67	964.30
548.84	922.17
549.01	936.21
549.18	861.32
549.34	854.30
549.51	858.98
549.68	884.72
549.84	774.72
550.01	821.53
550.18	926.85
550.34	847.27
550.51	837.91
550.68	873.02
550.84	788.76
551.01	725.57
551.18	779.40
551.34	758.33
551.51	791.10
551.68	800.46
551.84	746.63
552.01	798.12
552.18	737.27
552.34	730.25
552.51	751.31
552.68	767.70
552.84	669.39
553.01	767.70
553.18	795.78
553.34	800.46
553.51	744.29
553.67	763.01
553.84	770.04
554.01	678.76
554.17	678.76
554.34	650.67
554.51	737.27
554.67	737.27
554.84	786.42
555.00	730.25
555.17	774.72
555.33	634.29
555.50	716.20
555.67	692.80
555.83	695.14
556.00	692.80
556.16	795.78
556.33	734.93
556.50	669.39
556.66	638.97
556.83	667.05
556.99	720.88
557.16	688.12
557.32	678.76
557.49	627.26
557.65	723.23
557.82	676.41
557.98	650.67
558.15	671.73
558.32	662.37
558.48	664.71
558.65	653.01
558.81	641.31
558.98	566.41
559.14	617.90
559.31	692.80
559.47	655.35
559.64	655.35
559.80	760.67
559.97	662.37
560.13	690.46
560.30	681.10
560.46	674.07
560.63	674.07
560.79	662.37
560.96	671.73
561.12	718.54
561.29	692.80
561.45	718.54
561.61	688.12
561.78	737.27
561.94	610.88
562.11	627.26
562.27	697.48
562.44	601.52
562.60	676.41
562.77	683.44
562.93	727.91
563.10	734.93
563.26	657.69
563.42	702.16
563.59	730.25
563.75	641.31
563.92	641.31
564.08	580.45
564.24	643.65
564.41	723.23
564.57	596.84
564.74	631.94
564.90	622.58
565.07	704.50
565.23	624.92
565.39	641.31
565.56	645.99
565.72	566.41
565.88	608.54
566.05	629.60
566.21	608.54
566.38	657.69
566.54	704.50
566.70	685.78
566.87	603.86
567.03	685.78
567.19	629.60
567.36	596.84
567.52	571.09
567.68	636.63
567.85	622.58
568.01	692.80
568.17	552.37
568.34	748.97
568.50	711.52
568.66	685.78
568.83	753.65
568.99	662.37
569.15	674.07
569.32	683.44
569.48	571.09
569.64	732.59
569.81	615.56
569.97	699.82
570.13	620.24
570.30	655.35
570.46	655.35
570.62	638.97
570.78	704.50
570.95	692.80
571.11	688.12
571.27	610.88
571.43	634.29
571.60	697.48
571.76	669.39
571.92	683.44
572.09	662.37
572.25	650.67
572.41	650.67
572.57	674.07
572.74	606.20
572.90	624.92
573.06	725.57
573.22	699.82
573.38	699.82
573.55	732.59
573.71	702.16
573.87	671.73
574.03	645.99
574.20	674.07
574.36	671.73
574.52	692.80
574.68	648.33
574.84	634.29
575.01	674.07
575.17	676.41
575.33	660.03
575.49	688.12
575.65	716.20
575.82	767.70
575.98	685.78
576.14	690.46
576.30	709.18
576.46	866.00
576.62	922.17
576.79	983.02
576.95	919.83
577.11	842.59
577.27	837.91
577.43	805.14
577.59	758.33
577.75	741.95
577.92	678.76
578.08	657.69
578.24	660.03
578.40	779.40
578.56	793.44
578.72	819.19
578.88	999.41
579.04	770.04
579.21	854.30
579.37	751.31
579.53	833.23
579.69	711.52
579.85	739.61
580.01	777.06
580.17	772.38
580.33	744.29
580.49	744.29
580.65	678.76
580.82	779.40
580.98	709.18
581.14	711.52
581.30	718.54
581.46	767.70
581.62	716.20
581.78	777.06
581.94	763.01
582.10	800.46
582.26	748.97
582.42	819.19
582.58	755.99
582.74	844.93
582.90	770.04
583.06	805.14
583.22	802.80
583.38	702.16
583.54	814.51
583.70	847.27
583.86	779.40
584.02	716.20
584.18	844.93
584.34	772.38
584.50	765.36
584.66	763.01
584.82	760.67
584.98	858.98
585.14	800.46
585.30	753.65
585.46	809.83
585.62	744.29
585.78	755.99
585.94	844.93
586.10	786.42
586.26	823.87
586.42	863.66
586.58	770.04
586.74	741.95
586.90	894.08
587.06	866.00
587.22	954.94
587.38	943.24
587.54	823.87
587.70	847.27
587.86	903.45
588.02	765.36
588.18	765.36
588.34	819.19
588.49	739.61
588.65	805.14
588.81	741.95
588.97	695.14
589.13	716.20
589.29	758.33
589.45	723.23
589.61	744.29
589.77	732.59
589.93	704.50
590.08	704.50
590.24	727.91
590.40	732.59
590.56	816.85
590.72	767.70
590.88	706.84
591.04	767.70
591.20	770.04
591.35	741.95
591.51	739.61
591.67	758.33
591.83	795.78
591.99	727.91
592.15	730.25
592.31	791.10
592.46	851.96
592.62	774.72
592.78	777.06
592.94	767.70
593.10	849.61
593.26	777.06
593.41	894.08
593.57	840.25
593.73	753.65
593.89	772.38
594.05	786.42
594.20	765.36
594.36	718.54
594.52	695.14
594.68	655.35
594.84	716.20
594.99	685.78
595.15	688.12
595.31	751.31
595.47	725.57
595.62	730.25
595.78	678.76
595.94	739.61
596.10	779.40
596.25	688.12
596.41	716.20
596.57	723.23
596.73	748.97
596.88	669.39
597.04	784.08
597.20	601.52
597.36	638.97
597.51	674.07
597.67	669.39
597.83	720.88
597.99	734.93
598.14	704.50
598.30	713.86
598.46	704.50
598.61	748.97
598.77	791.10
598.93	763.01
599.09	699.82
599.24	727.91
599.40	699.82
599.56	795.78
599.71	730.25
599.87	741.95
600.03	737.27
600.18	741.95
600.34	730.25
600.50	699.82
600.65	760.67
600.81	704.50
600.97	685.78
601.12	653.01
601.28	713.86
601.44	779.40
601.59	737.27
601.75	645.99
601.91	683.44
602.06	699.82
602.22	744.29
602.37	622.58
602.53	660.03
602.69	667.05
602.84	606.20
603.00	643.65
603.16	578.11
603.31	699.82
603.47	685.78
603.62	662.37
603.78	695.14
603.94	638.97
604.09	723.23
604.25	702.16
604.40	664.71
604.56	741.95
604.71	702.16
604.87	674.07
605.03	678.76
605.18	688.12
605.34	723.23
605.49	650.67
605.65	702.16
605.80	669.39
605.96	624.92
606.12	758.33
606.27	711.52
606.43	770.04
606.58	692.80
606.74	746.63
606.89	767.70
607.05	711.52
607.20	697.48
607.36	763.01
607.51	741.95
607.67	699.82
607.82	697.48
607.98	699.82
608.13	751.31
608.29	711.52
608.44	770.04
608.60	784.08
608.75	781.74
608.91	777.06
609.06	847.27
609.22	856.64
609.37	842.59
609.53	861.32
609.68	882.38
