SpectraSuite Data File
++++++++++++++++++++++++++++++++++++
Date: Thu Oct 24 13:21:05 EDT 2013
User: stostad
Dark Spectrum Present: No
Reference Spectrum Present: No
Number of Sampled Component Spectra: 1
Spectrometers: USB2+H05261
Integration Time (usec): 100000 (USB2+H05261)
Spectra Averaged: 1 (USB2+H05261)
Boxcar Smoothing: 0 (USB2+H05261)
Correct for Electrical Dark: No (USB2+H05261)
Strobe/Lamp Enabled: No (USB2+H05261)
Correct for Detector Non-linearity: No (USB2+H05261)
Correct for Stray Light: No (USB2+H05261)
Number of Pixels in Processed Spectrum: 2048
>>>>>Begin Processed Spectral Data<<<<<
365.73	587.47
365.92	587.47
366.12	587.47
366.32	468.11
366.52	505.56
366.72	458.74
366.91	341.72
367.11	498.53
367.31	454.06
367.51	444.70
367.70	470.45
367.90	454.06
368.10	425.98
368.30	451.72
368.49	463.43
368.69	491.51
368.89	493.85
369.09	421.30
369.28	463.43
369.48	479.81
369.68	491.51
369.87	451.72
370.07	514.92
370.27	559.39
370.47	519.60
370.66	638.97
370.86	638.97
371.06	688.12
371.25	634.29
371.45	620.24
371.65	786.42
371.84	697.48
372.04	732.59
372.24	718.54
372.44	734.93
372.63	697.48
372.83	641.31
373.03	739.61
373.22	692.80
373.42	709.18
373.62	741.95
373.81	737.27
374.01	741.95
374.21	753.65
374.40	688.12
374.60	788.76
374.79	781.74
374.99	798.12
375.19	777.06
375.38	711.52
375.58	781.74
375.78	760.67
375.97	800.46
376.17	816.85
376.37	770.04
376.56	819.19
376.76	800.46
376.95	805.14
377.15	758.33
377.35	793.44
377.54	786.42
377.74	732.59
377.93	765.36
378.13	690.46
378.33	748.97
378.52	734.93
378.72	793.44
378.91	791.10
379.11	795.78
379.31	798.12
379.50	751.31
379.70	805.14
379.89	727.91
380.09	748.97
380.28	858.98
380.48	751.31
380.68	779.40
380.87	835.57
381.07	718.54
381.26	844.93
381.46	807.48
381.65	725.57
381.85	748.97
382.04	812.17
382.24	800.46
382.43	763.01
382.63	746.63
382.83	830.89
383.02	809.83
383.22	858.98
383.41	833.23
383.61	772.38
383.80	816.85
384.00	826.21
384.19	800.46
384.39	793.44
384.58	898.77
384.78	819.19
384.97	868.34
385.17	826.21
385.36	744.29
385.56	816.85
385.75	800.46
385.95	844.93
386.14	842.59
386.34	901.11
386.53	877.70
386.72	856.64
386.92	812.17
387.11	847.27
387.31	884.72
387.50	833.23
387.70	840.25
387.89	866.00
388.09	788.76
388.28	896.43
388.48	875.36
388.67	858.98
388.86	905.79
389.06	889.40
389.25	849.61
389.45	833.23
389.64	849.61
389.84	896.43
390.03	875.36
390.22	842.59
390.42	826.21
390.61	917.49
390.81	826.21
391.00	891.74
391.19	887.06
391.39	830.89
391.58	887.06
391.78	954.94
391.97	842.59
392.16	938.55
392.36	830.89
392.55	884.72
392.75	894.08
392.94	947.92
393.13	938.55
393.33	976.00
393.52	924.51
393.71	992.39
393.91	957.28
394.10	912.81
394.29	952.60
394.49	961.96
394.68	983.02
394.88	940.90
395.07	1015.79
395.26	1006.43
395.46	954.94
395.65	947.92
395.84	968.98
396.04	999.41
396.23	1020.47
396.42	1029.84
396.62	1062.60
396.81	980.68
397.00	976.00
397.19	894.08
397.39	959.62
397.58	1020.47
397.77	959.62
397.97	1015.79
398.16	1004.09
398.35	1088.35
398.55	1029.84
398.74	1029.84
398.93	940.90
399.12	964.30
399.32	1046.22
399.51	1074.31
399.70	994.73
399.90	1071.97
400.09	987.71
400.28	1018.13
400.47	1041.54
400.67	1076.65
400.86	1050.90
401.05	1050.90
401.24	1093.03
401.44	1029.84
401.63	1139.84
401.82	1114.10
402.01	1029.84
402.21	1050.90
402.40	1130.48
402.59	1086.01
402.78	1100.05
402.97	1125.80
403.17	1093.03
403.36	1100.05
403.55	1149.20
403.74	1121.12
403.93	1214.74
404.13	1212.40
404.32	1238.14
404.51	1186.65
404.70	1114.10
404.89	1205.38
405.09	1132.82
405.28	1111.75
405.47	1167.93
405.66	1144.52
405.85	1144.52
406.05	1153.88
406.24	1172.61
406.43	1149.20
406.62	1252.19
406.81	1259.21
407.00	1179.63
407.20	1207.72
407.39	1219.42
407.58	1226.44
407.77	1242.82
407.96	1327.08
408.15	1198.35
408.34	1327.08
408.54	1289.64
408.73	1301.34
408.92	1196.01
409.11	1301.34
409.30	1376.24
409.49	1387.94
409.68	1273.25
409.87	1331.76
410.07	1327.08
410.26	1256.87
410.45	1336.45
410.64	1259.21
410.83	1266.23
411.02	1310.70
411.21	1392.62
411.40	1366.87
411.59	1401.98
411.78	1413.68
411.98	1329.42
412.17	1427.73
412.36	1453.47
412.55	1404.32
412.74	1380.92
412.93	1432.41
413.12	1420.71
413.31	1399.64
413.50	1455.81
413.69	1486.24
413.88	1455.81
414.07	1521.35
414.26	1547.09
414.45	1507.30
414.64	1526.03
414.83	1486.24
415.02	1549.43
415.22	1551.78
415.41	1558.80
415.60	1519.01
415.79	1631.35
415.98	1549.43
416.17	1504.96
416.36	1577.52
416.55	1579.86
416.74	1626.67
416.93	1638.38
417.12	1483.90
417.31	1614.97
417.50	1584.54
417.69	1659.44
417.88	1638.38
418.07	1652.42
418.26	1696.89
418.45	1729.66
418.64	1699.23
418.83	1706.25
419.02	1680.50
419.21	1666.46
419.39	1654.76
419.58	1692.21
419.77	1729.66
419.96	1734.34
420.15	1748.38
420.34	1668.80
420.53	1701.57
420.72	1727.32
420.91	1687.53
421.10	1762.42
421.29	1818.60
421.48	1729.66
421.67	1816.26
421.86	1764.76
422.05	1774.13
422.24	1729.66
422.43	1764.76
422.61	1827.96
422.80	1844.34
422.99	1764.76
423.18	1839.66
423.37	1886.47
423.56	1743.70
423.75	1832.64
423.94	1776.47
424.13	1827.96
424.32	1724.97
424.50	1863.07
424.69	1877.11
424.88	1914.56
425.07	1785.83
425.26	1886.47
425.45	1771.79
425.64	1827.96
425.83	1895.83
426.01	1799.87
426.20	1860.73
426.39	1846.68
426.58	1863.07
426.77	1853.70
426.96	1895.83
427.15	1937.96
427.33	1937.96
427.52	1902.86
427.71	1947.33
427.90	1884.13
428.09	1912.22
428.28	1947.33
428.46	1944.99
428.65	1905.20
428.84	1935.62
429.03	1935.62
429.22	1884.13
429.40	1905.20
429.59	2010.52
429.78	1963.71
429.97	1905.20
430.16	1923.92
430.34	1825.62
430.53	1912.22
430.72	2012.86
430.91	1989.46
431.10	2001.16
431.28	1973.07
431.47	2040.95
431.66	2015.20
431.85	1998.82
432.03	2045.63
432.22	2005.84
432.41	2019.88
432.60	2024.56
432.79	2047.97
432.97	2134.57
433.16	2059.67
433.35	2097.12
433.54	2003.50
433.72	2120.53
433.91	2108.82
434.10	2071.37
434.28	2169.68
434.47	2221.17
434.66	2160.31
434.85	2143.93
435.03	2366.28
435.22	2401.39
435.41	2724.38
435.59	2499.69
435.78	2469.27
435.97	2385.01
436.16	2293.72
436.34	2246.91
436.53	2204.78
436.72	2214.15
436.90	2204.78
437.09	2228.19
437.28	2057.33
437.46	2242.23
437.65	2169.68
437.84	2356.92
438.02	2232.87
438.21	2232.87
438.40	2195.42
438.58	2417.77
438.77	2256.28
438.96	2338.20
439.14	2293.72
439.33	2375.64
439.52	2298.41
439.70	2342.88
439.89	2413.09
440.08	2370.96
440.26	2480.97
440.45	2401.39
440.63	2328.83
440.82	2525.44
441.01	2448.20
441.19	2457.56
441.38	2441.18
441.57	2497.35
441.75	2600.34
441.94	2635.44
442.12	2633.10
442.31	2612.04
442.50	2553.52
442.68	2555.86
442.87	2651.83
443.05	2553.52
443.24	2586.29
443.43	2668.21
443.61	2534.80
443.80	2733.75
443.98	2642.46
444.17	2424.80
444.35	2640.12
444.54	2668.21
444.73	2548.84
444.91	2630.76
445.10	2551.18
445.28	2623.74
445.47	2691.62
445.65	2630.76
445.84	2649.49
446.02	2614.38
446.21	2637.78
446.39	2560.55
446.58	2637.78
446.77	2651.83
446.95	2682.25
447.14	2647.15
447.32	2656.51
447.51	2689.28
447.69	2724.38
447.88	2626.08
448.06	2743.11
448.25	2651.83
448.43	2637.78
448.62	2693.96
448.80	2691.62
448.99	2623.74
449.17	2637.78
449.36	2679.91
449.54	2677.57
449.73	2757.15
449.91	2829.71
450.10	2834.39
450.28	2832.05
450.46	2736.09
450.65	2740.77
450.83	2747.79
451.02	2857.79
451.20	2834.39
451.39	2810.98
451.57	2825.03
451.76	2815.66
451.94	2855.45
452.13	2972.48
452.31	2991.20
452.49	2867.16
452.68	2820.35
452.86	2813.32
453.05	2930.35
453.23	2909.29
453.42	2937.37
453.60	2892.90
453.78	2981.84
453.97	2935.03
454.15	2841.41
454.34	2923.33
454.52	2846.09
454.70	2848.43
454.89	3068.44
455.07	2995.89
455.26	2916.31
455.44	2946.73
455.62	2878.86
455.81	2958.44
455.99	3061.42
456.17	2951.42
456.36	3066.10
456.54	3094.19
456.73	3117.59
456.91	3143.34
457.09	3056.74
457.28	3098.87
457.46	3059.08
457.64	3192.49
457.83	3176.11
458.01	3061.42
458.19	3274.41
458.38	3138.66
458.56	3162.06
458.74	3164.40
458.93	3180.79
459.11	3243.98
459.29	3171.43
459.48	3272.07
459.66	3215.90
459.84	3297.81
460.03	3281.43
460.21	3272.07
460.39	3253.34
460.57	3304.84
460.76	3239.30
460.94	3262.71
461.12	3346.97
461.31	3337.60
461.49	3241.64
461.67	3234.62
461.85	3260.37
462.04	3283.77
462.22	3667.62
462.40	3466.33
462.59	3382.07
462.77	3344.63
462.95	3431.23
463.13	3468.67
463.32	3349.31
463.50	3452.29
463.68	3421.86
463.86	3297.81
464.05	3431.23
464.23	3375.05
464.41	3482.72
464.59	3403.14
464.78	3471.01
464.96	3529.53
465.14	3428.88
465.32	3529.53
465.50	3431.23
465.69	3489.74
465.87	3492.08
466.05	3550.59
466.23	3581.02
466.41	3646.55
466.60	3700.39
466.78	3515.48
466.96	3541.23
467.14	3602.08
467.32	3487.40
467.51	3569.32
467.69	3499.10
467.87	3452.29
468.05	3503.78
468.23	3555.27
468.41	3508.46
468.60	3606.77
468.78	3632.51
468.96	3726.13
469.14	3667.62
469.32	3637.19
469.50	3578.68
469.69	3723.79
469.87	3581.02
470.05	3693.37
470.23	3808.05
470.41	3758.90
470.59	3674.64
470.77	3831.46
470.95	3763.58
471.14	3817.41
471.32	3700.39
471.50	3801.03
471.68	3831.46
471.86	3861.88
472.04	3693.37
472.22	3894.65
472.40	3819.75
472.58	3866.56
472.77	3859.54
472.95	3997.64
473.13	4051.47
473.31	3983.59
473.49	3971.89
473.67	3836.14
473.85	4053.81
474.03	4030.40
474.21	4028.06
474.39	4100.62
474.57	3995.29
474.75	4131.05
474.93	4201.26
475.12	4114.66
475.30	4215.30
475.48	4128.70
475.66	4257.43
475.84	4231.69
476.02	4196.58
476.20	4259.78
476.38	4248.07
476.56	4477.44
476.74	4407.23
476.92	4358.08
477.10	4311.27
477.28	4456.38
477.46	4372.12
477.64	4566.39
477.82	4559.36
478.00	4634.26
478.18	4603.83
478.36	4638.94
478.54	4468.08
478.72	4638.94
478.90	4624.90
479.08	4751.29
479.26	4704.48
479.44	4725.54
479.62	4720.86
479.80	4901.08
479.98	4994.70
480.16	4727.88
480.34	4903.42
480.52	4894.06
480.70	5076.62
480.88	5043.85
481.06	5064.92
481.24	5095.35
481.41	5027.47
481.59	5231.10
481.77	5242.80
481.95	5263.86
482.13	5378.55
482.31	5366.85
482.49	5294.29
482.67	5343.44
482.85	5551.75
483.03	5357.49
483.21	5331.74
483.39	5526.00
483.57	5476.85
483.74	5659.42
483.92	5542.39
484.10	5383.23
484.28	5657.07
484.46	5666.44
484.64	5746.02
484.82	5657.07
485.00	5830.27
485.18	6057.31
485.35	6045.60
485.53	5867.72
485.71	6052.63
485.89	6076.03
486.07	5919.21
486.25	6153.27
486.43	6225.82
486.61	6106.46
486.78	6160.29
486.96	6183.70
487.14	6279.66
487.32	6389.66
487.50	6319.45
487.68	6441.15
487.85	6546.48
488.03	6583.93
488.21	6719.68
488.39	6588.61
488.57	6846.07
488.75	6698.61
488.92	6757.13
489.10	6724.36
489.28	6817.98
489.46	6923.30
489.64	6899.90
489.81	7082.46
489.99	6956.07
490.17	6979.48
490.35	7110.55
490.53	7056.72
490.70	7166.72
490.88	7087.14
491.06	7405.46
491.24	7360.98
491.41	7204.17
491.59	7421.84
491.77	7360.98
491.95	7417.16
492.13	7538.87
492.30	7492.05
492.48	7562.27
492.66	7545.89
492.84	7531.84
493.01	7620.78
493.19	7786.96
493.37	7705.04
493.54	7896.97
493.72	7906.33
493.90	7808.03
494.08	7946.12
494.25	7960.16
494.43	7826.75
494.61	8142.72
494.79	7997.61
494.96	8229.32
495.14	7927.39
495.32	8126.34
495.49	8341.67
495.67	8336.99
495.85	8194.22
496.02	8358.05
496.20	8386.14
496.38	8451.67
496.55	8306.56
496.73	8482.10
496.91	8409.54
497.09	8655.30
497.26	8528.91
497.44	8542.96
497.62	8709.13
497.79	8772.33
497.97	8741.90
498.14	8821.48
498.32	8779.35
498.50	8739.56
498.67	8936.17
498.85	8842.54
499.03	9090.64
499.20	8854.25
499.38	8975.95
499.56	8954.89
499.73	9006.38
499.91	9221.71
500.08	9090.64
500.26	8905.74
500.44	9144.47
500.61	9228.73
500.79	9132.77
500.97	9291.93
501.14	9275.54
501.32	9507.26
501.49	9441.72
501.67	9310.65
501.84	9411.29
502.02	9336.40
502.20	9664.07
502.37	9500.23
502.55	9488.53
502.72	9504.92
502.90	9661.73
503.07	9584.49
503.25	9825.57
503.43	9600.88
503.60	9771.74
503.78	9745.99
503.95	9652.37
504.13	9797.48
504.30	9724.93
504.48	9544.70
504.65	9795.14
504.83	10052.60
505.01	10054.94
505.18	10066.64
505.36	10036.22
505.53	9970.68
505.71	9963.66
505.88	10232.82
506.06	10111.11
506.23	10106.43
506.41	9968.34
506.58	10209.42
506.76	10080.69
506.93	10113.45
507.11	9961.32
507.28	10366.23
507.46	10305.38
507.63	10284.31
507.81	10171.97
507.98	10443.47
508.16	10455.17
508.33	10410.70
508.50	10478.58
508.68	10476.24
508.85	10565.18
509.03	10560.50
509.20	10609.65
509.38	10764.12
509.55	10668.16
509.73	10937.32
509.90	10593.26
510.08	10562.84
510.25	10824.98
510.42	10750.08
510.60	10628.37
510.77	10487.94
510.95	10949.03
511.12	10782.85
511.30	10984.13
511.47	10759.44
511.64	10850.72
511.82	11101.16
511.99	10974.77
512.17	11239.25
512.34	11042.65
512.51	11183.08
512.69	11201.80
512.86	11239.25
513.04	11452.24
513.21	11325.85
513.38	11213.51
513.56	11356.28
513.73	11122.23
513.90	11372.66
514.08	10920.94
514.25	11421.81
514.43	11314.15
514.60	11410.11
514.77	11686.29
514.95	11440.54
515.12	11442.88
515.29	11768.21
515.47	11810.34
515.64	11796.30
515.81	11557.57
515.99	11669.91
516.16	11536.50
516.33	11585.65
516.51	11705.02
516.68	11665.23
516.85	11817.36
517.03	11852.47
517.20	11735.45
517.37	11630.12
517.54	11896.94
517.72	11705.02
517.89	11761.19
518.06	11913.33
518.24	11826.73
518.41	11950.78
518.58	12016.31
518.75	11861.84
518.93	11934.39
519.10	11669.91
519.27	11880.56
519.45	12077.16
519.62	12231.64
519.79	11943.75
519.96	11941.41
520.14	11953.12
520.31	11885.24
520.48	12170.79
520.65	12196.53
520.83	12325.26
521.00	12163.76
521.17	12315.90
521.34	12470.37
521.52	12552.29
521.69	12404.84
521.86	12358.03
522.03	12203.55
522.20	12257.39
522.38	12336.96
522.55	12674.00
522.72	12407.18
522.89	12411.86
523.07	12582.72
523.24	12671.66
523.41	12662.30
523.58	12573.36
523.75	12458.67
523.92	12688.04
524.10	12791.03
524.27	12664.64
524.44	12671.66
524.61	12711.45
524.78	12805.07
524.96	12566.34
525.13	12638.89
525.30	12910.40
525.47	13027.42
525.64	12870.61
525.81	12915.08
525.98	12858.90
526.16	12638.89
526.33	12954.87
526.50	12901.03
526.67	12657.62
526.84	12720.81
527.01	12982.95
527.18	13102.32
527.36	13128.06
527.53	12985.29
527.70	13151.47
527.87	13296.58
528.04	13186.58
528.21	13198.28
528.38	13366.80
528.55	13151.47
528.72	13195.94
528.89	13296.58
529.07	13107.00
529.24	13144.45
529.41	13303.60
529.58	13387.86
529.75	13132.75
529.92	13427.65
530.09	13128.06
530.26	13142.11
530.43	13444.04
530.60	13275.52
530.77	13385.52
530.94	13420.63
531.11	13469.78
531.28	13666.39
531.46	13315.31
531.63	13554.04
531.80	13235.73
531.97	13303.60
532.14	13420.63
532.31	13551.70
532.48	13607.87
532.65	13577.45
532.82	13767.03
532.99	13554.04
533.16	13619.58
533.33	13319.99
533.50	13661.71
533.67	13418.29
533.84	13879.38
534.01	13823.20
534.18	13741.29
534.35	13909.80
534.52	13614.90
534.69	13834.91
534.86	13551.70
535.03	13591.49
535.20	13530.64
535.37	14010.45
535.54	13914.48
535.71	14022.15
535.88	13956.61
536.05	13961.30
536.22	14068.96
536.38	13893.42
536.55	14057.26
536.72	13980.02
536.89	14162.58
537.06	13886.40
537.23	14125.13
537.40	14075.98
537.57	14230.46
537.74	14314.72
537.91	14087.68
538.08	14209.39
538.25	14342.80
538.42	14111.09
538.59	14216.41
538.75	14143.86
538.92	14181.31
539.09	14094.71
539.26	14340.46
539.43	14445.79
539.60	14438.76
539.77	14492.60
539.94	14635.37
540.11	14761.76
540.28	14588.56
540.44	14642.39
540.61	14560.47
540.78	14593.24
540.95	14794.53
541.12	14682.18
541.29	15042.62
541.46	15040.28
541.62	15199.44
541.79	14960.70
541.96	14970.07
542.13	15136.24
542.30	14951.34
542.47	15119.86
542.63	14979.43
542.80	15215.82
542.97	14972.41
543.14	15211.14
543.31	15403.07
543.48	14984.11
543.64	15213.48
543.81	15279.02
543.98	15339.87
544.15	15302.42
544.32	15129.22
544.48	15374.98
544.65	15075.39
544.82	15506.05
544.99	15262.63
545.16	15304.76
545.32	15190.08
545.49	15494.35
545.66	16025.65
545.83	16500.78
546.00	15967.13
546.16	16152.04
546.33	15524.77
546.50	15482.64
546.67	15583.29
546.83	15272.00
547.00	15255.61
547.17	15044.96
547.34	15220.50
547.50	15171.35
547.67	15295.40
547.84	15218.16
548.00	15421.79
548.17	15382.00
548.34	15117.52
548.51	15178.37
548.67	15300.08
548.84	15400.72
549.01	15419.45
549.18	15496.69
549.34	15372.64
549.51	15335.19
549.68	15651.16
549.84	15056.67
550.01	15185.40
550.18	15084.75
550.34	15157.31
550.51	15463.92
550.68	15358.60
550.84	15169.01
551.01	15154.97
551.18	15410.09
551.34	15300.08
551.51	15412.43
551.68	15405.41
551.84	15346.89
552.01	15433.49
552.18	15449.88
552.34	15541.16
552.51	15522.43
552.68	15262.63
552.84	15602.01
553.01	15609.03
553.18	15173.69
553.34	15323.49
553.51	15522.43
553.67	15555.20
553.84	15590.31
554.01	15817.34
554.17	15421.79
554.34	15484.98
554.51	15541.16
554.67	15679.25
554.84	15510.73
555.00	15590.31
555.17	15377.32
555.33	15330.51
555.50	15747.12
555.67	15426.47
555.83	15520.09
556.00	15737.76
556.16	15815.00
556.33	15630.10
556.50	15414.77
556.66	15564.56
556.83	15576.27
556.99	15789.25
557.16	15700.31
557.32	15651.16
557.49	15719.04
557.65	15737.76
557.82	15520.09
557.98	15506.05
558.15	15761.17
558.32	15536.48
558.48	15697.97
558.65	15754.15
558.81	15580.95
558.98	15807.98
559.14	15812.66
559.31	15798.62
559.47	15751.81
559.64	15527.11
559.80	15576.27
559.97	15681.59
560.13	15688.61
560.30	15531.80
560.46	15726.06
560.63	15709.68
560.79	15882.88
560.96	15838.41
561.12	15868.83
561.29	15763.51
561.45	15770.53
561.61	15981.18
561.78	15843.09
561.94	16027.99
562.11	15815.00
562.27	16123.95
562.44	16077.14
562.60	15948.41
562.77	15616.05
562.93	15747.12
563.10	15887.56
563.26	15822.02
563.42	16046.71
563.59	16060.76
563.75	15857.13
563.92	16093.52
564.08	16114.59
564.24	15906.28
564.41	15925.00
564.57	16042.03
564.74	16145.02
564.90	15927.35
565.07	15932.03
565.23	16037.35
565.39	15805.64
565.56	16128.63
565.72	15845.43
565.88	15946.07
566.05	15859.47
566.21	15906.28
566.38	15910.96
566.54	15922.66
566.70	16114.59
566.87	16009.26
567.03	15878.19
567.19	16203.53
567.36	16116.93
567.52	15779.89
567.68	15852.45
567.85	16058.42
568.01	16065.44
568.17	16161.40
568.34	15719.04
568.50	16011.60
568.66	16238.64
568.83	16119.27
568.99	15854.79
569.15	15953.09
569.32	15941.39
569.48	15730.74
569.64	15964.79
569.81	15939.05
569.97	15910.96
570.13	16046.71
570.30	15981.18
570.46	16011.60
570.62	15974.16
570.78	16063.10
570.95	15789.25
571.11	16184.80
571.27	16058.42
571.43	15709.68
571.60	15908.62
571.76	15967.13
571.92	16018.63
572.09	15992.88
572.25	16339.28
572.41	16093.52
572.57	16376.73
572.74	16217.57
572.90	16002.24
573.06	16180.12
573.22	15936.71
573.38	16032.67
573.55	16264.38
573.71	16388.43
573.87	16285.45
574.03	15983.52
574.20	16044.37
574.36	16093.52
574.52	16205.87
574.68	15838.41
574.84	16182.46
575.01	16325.24
575.17	16112.25
575.33	16109.91
575.49	15934.37
575.65	16189.49
575.82	16098.20
575.98	16257.36
576.14	16276.09
576.30	16081.82
576.46	16072.46
576.62	16170.76
576.79	16180.12
576.95	16149.70
577.11	16042.03
577.27	16379.07
577.43	16016.29
577.59	16432.90
577.75	16035.01
577.92	15894.58
578.08	15878.19
578.24	15910.96
578.40	16339.28
578.56	16175.44
578.72	16362.69
578.88	16402.47
579.04	16238.64
579.21	16107.57
579.37	16407.16
579.53	16350.98
579.69	16306.51
579.85	16315.87
580.01	16521.84
580.17	16283.11
580.33	16589.72
580.49	16166.08
580.65	16009.26
580.82	16290.13
580.98	16383.75
581.14	16245.66
581.30	16285.45
581.46	16297.15
581.62	16063.10
581.78	16114.59
581.94	16259.70
582.10	16133.31
582.26	16322.90
582.42	16472.69
582.58	16063.10
582.74	16358.00
582.90	16205.87
583.06	16308.85
583.22	16133.31
583.38	16093.52
583.54	16264.38
583.70	16290.13
583.86	16259.70
584.02	16381.41
584.18	16147.36
584.34	16332.26
584.50	16428.22
584.66	16023.31
584.82	16145.02
584.98	16362.69
585.14	16114.59
585.30	16264.38
585.46	16070.12
585.62	16135.65
585.78	16152.04
585.94	16304.17
586.10	16648.23
586.26	16374.39
586.42	16425.88
586.58	16245.66
586.74	16238.64
586.90	16437.58
587.06	16283.11
587.22	16407.16
587.38	16617.80
587.54	16297.15
587.70	16819.09
587.86	16510.14
588.02	16341.62
588.18	16526.52
588.34	16475.03
588.49	16119.27
588.65	16046.71
588.81	16173.10
588.97	16358.00
589.13	16397.79
589.29	16255.02
589.45	16327.58
589.61	16329.92
589.77	16645.89
589.93	16453.97
590.08	16468.01
590.24	16458.65
590.40	16355.66
590.56	16350.98
590.72	16533.54
590.88	16079.48
591.04	16599.08
591.20	16563.97
591.35	16561.63
591.51	16671.64
591.67	16554.61
591.83	16217.57
591.99	16248.00
