SpectraSuite Data File
++++++++++++++++++++++++++++++++++++
Date: Thu Oct 24 13:21:16 EDT 2013
User: stostad
Dark Spectrum Present: No
Reference Spectrum Present: No
Number of Sampled Component Spectra: 1
Spectrometers: USB2+H05261
Integration Time (usec): 100000 (USB2+H05261)
Spectra Averaged: 1 (USB2+H05261)
Boxcar Smoothing: 0 (USB2+H05261)
Correct for Electrical Dark: No (USB2+H05261)
Strobe/Lamp Enabled: No (USB2+H05261)
Correct for Detector Non-linearity: No (USB2+H05261)
Correct for Stray Light: No (USB2+H05261)
Number of Pixels in Processed Spectrum: 2048
>>>>>Begin Processed Spectral Data<<<<<
365.73	634.29
365.92	634.29
366.12	634.29
366.32	500.87
366.52	454.06
366.72	489.17
366.91	573.43
367.11	409.59
367.31	503.22
367.51	477.47
367.70	526.62
367.90	503.22
368.10	449.38
368.30	456.40
368.49	444.70
368.69	458.74
368.89	458.74
369.09	470.45
369.28	545.34
369.48	510.24
369.68	540.66
369.87	564.07
370.07	503.22
370.27	505.56
370.47	636.63
370.66	777.06
370.86	826.21
371.06	851.96
371.25	734.93
371.45	805.14
371.65	912.81
371.84	844.93
372.04	889.40
372.24	802.80
372.44	807.48
372.63	877.70
372.83	791.10
373.03	917.49
373.22	980.68
373.42	894.08
373.62	837.91
373.81	954.94
374.01	912.81
374.21	905.79
374.40	933.87
374.60	945.58
374.79	819.19
374.99	889.40
375.19	959.62
375.38	919.83
375.58	922.17
375.78	933.87
375.97	915.15
376.17	973.66
376.37	898.77
376.56	903.45
376.76	894.08
376.95	861.32
377.15	999.41
377.35	1027.50
377.54	1006.43
377.74	940.90
377.93	990.05
378.13	1018.13
378.33	1006.43
378.52	985.37
378.72	945.58
378.91	1036.86
379.11	1083.67
379.31	961.96
379.50	898.77
379.70	1048.56
379.89	990.05
380.09	973.66
380.28	1022.81
380.48	983.02
380.68	976.00
380.87	994.73
381.07	987.71
381.26	990.05
381.46	1018.13
381.65	1053.24
381.85	945.58
382.04	987.71
382.24	1029.84
382.43	1018.13
382.63	973.66
382.83	1046.22
383.02	1074.31
383.22	1067.28
383.41	1048.56
383.61	1027.50
383.80	1097.71
384.00	1020.47
384.19	1060.26
384.39	1057.92
384.58	1062.60
384.78	1109.41
384.97	1081.33
385.17	1069.62
385.36	1142.18
385.56	1116.44
385.75	1104.73
385.95	1102.39
386.14	1104.73
386.34	1071.97
386.53	1153.88
386.72	1064.94
386.92	1240.48
387.11	1104.73
387.31	1055.58
387.50	1095.37
387.70	1167.93
387.89	1205.38
388.09	1130.48
388.28	1179.63
388.48	1210.06
388.67	1111.75
388.86	1137.50
389.06	1139.84
389.25	1158.57
389.45	1249.85
389.64	1188.99
389.84	1240.48
390.03	1221.76
390.22	1165.59
390.42	1231.12
390.61	1214.74
390.81	1177.29
391.00	1219.42
391.19	1240.48
391.39	1268.57
391.58	1191.33
391.78	1284.95
391.97	1217.08
392.16	1217.08
392.36	1280.27
392.55	1203.04
392.75	1315.38
392.94	1254.53
393.13	1320.06
393.33	1306.02
393.52	1317.72
393.71	1315.38
393.91	1273.25
394.10	1373.89
394.29	1275.59
394.49	1308.36
394.68	1310.70
394.88	1420.71
395.07	1376.24
395.26	1343.47
395.46	1324.74
395.65	1467.52
395.84	1406.66
396.04	1448.79
396.23	1530.71
396.42	1406.66
396.62	1430.07
396.81	1448.79
397.00	1439.43
397.19	1392.62
397.39	1406.66
397.58	1432.41
397.77	1465.18
397.97	1399.64
398.16	1547.09
398.35	1446.45
398.55	1437.09
398.74	1476.88
398.93	1483.90
399.12	1579.86
399.32	1413.68
399.51	1502.62
399.70	1593.90
399.90	1582.20
400.09	1514.33
400.28	1596.25
400.47	1612.63
400.67	1570.50
400.86	1626.67
401.05	1556.46
401.24	1692.21
401.44	1678.16
401.63	1671.14
401.82	1582.20
402.01	1598.59
402.21	1631.35
402.40	1748.38
402.59	1650.08
402.78	1680.50
402.97	1652.42
403.17	1689.87
403.36	1732.00
403.55	1757.74
403.74	1785.83
403.93	1729.66
404.13	1785.83
404.32	1760.08
404.51	1785.83
404.70	1860.73
404.89	1795.19
405.09	1832.64
405.28	1863.07
405.47	1748.38
405.66	1858.39
405.85	1865.41
406.05	1891.15
406.24	1856.04
406.43	1963.71
406.62	1954.35
406.81	1912.22
407.00	1921.58
407.20	1872.43
407.39	1902.86
407.58	2073.71
407.77	1944.99
407.96	1982.43
408.15	1968.39
408.34	2043.29
408.54	2050.31
408.73	2169.68
408.92	1944.99
409.11	2104.14
409.30	2146.27
409.49	2057.33
409.68	2047.97
409.87	2134.57
410.07	2101.80
410.26	2230.53
410.45	2157.97
410.64	2188.40
410.83	2155.63
411.02	2221.17
411.21	2246.91
411.40	2183.72
411.59	2209.47
411.78	2242.23
411.98	2305.43
412.17	2300.75
412.36	2373.30
412.55	2298.41
412.74	2415.43
412.93	2438.84
413.12	2340.54
413.31	2558.21
413.50	2445.86
413.69	2471.61
413.88	2476.29
414.07	2537.14
414.26	2590.97
414.45	2459.90
414.64	2506.71
414.83	2555.86
415.02	2553.52
415.22	2602.68
415.41	2663.53
415.60	2675.23
415.79	2712.68
415.98	2623.74
416.17	2658.85
416.36	2740.77
416.55	2825.03
416.74	2754.81
416.93	2768.85
417.12	2747.79
417.31	2787.58
417.50	2869.50
417.69	2946.73
417.88	2923.33
418.07	2813.32
418.26	3007.59
418.45	2928.01
418.64	3073.12
418.83	2974.82
419.02	2890.56
419.21	2963.12
419.39	2991.20
419.58	2899.92
419.77	2883.54
419.96	3141.00
420.15	3176.11
420.34	3019.29
420.53	3063.76
420.72	3152.70
420.91	3045.04
421.10	3028.65
421.29	3119.93
421.48	3206.53
421.67	3089.51
421.86	3133.98
422.05	3164.40
422.24	3136.32
422.43	3194.83
422.61	3101.21
422.80	3255.69
422.99	3251.00
423.18	3279.09
423.37	3297.81
423.56	3211.22
423.75	3143.34
423.94	3155.04
424.13	3108.23
424.32	3084.83
424.50	3157.38
424.69	3361.01
424.88	3290.79
425.07	3251.00
425.26	3211.22
425.45	3346.97
425.64	3166.74
425.83	3152.70
426.01	3300.16
426.20	3344.63
426.39	3330.58
426.58	3337.60
426.77	3361.01
426.96	3337.60
427.15	3353.99
427.33	3393.78
427.52	3342.28
427.71	3342.28
427.90	3363.35
428.09	3445.27
428.28	3503.78
428.46	3424.20
428.65	3375.05
428.84	3625.49
429.03	3557.61
429.22	3393.78
429.40	3471.01
429.59	3555.27
429.78	3520.17
429.97	3321.22
430.16	3552.93
430.34	3592.72
430.53	3609.11
430.72	3557.61
430.91	3609.11
431.10	3471.01
431.28	3660.60
431.47	3641.87
431.66	3660.60
431.85	3602.08
432.03	3838.48
432.22	3878.27
432.41	3826.78
432.60	3728.47
432.79	3784.65
432.97	3829.12
433.16	3843.16
433.35	3829.12
433.54	4011.68
433.72	3779.97
433.91	3765.92
434.10	3925.08
434.28	3871.25
434.47	3943.80
434.66	3936.78
434.85	4086.58
435.03	4002.32
435.22	4184.88
435.41	4400.21
435.59	4304.25
435.78	4322.97
435.97	4283.18
436.16	4135.73
436.34	4109.98
436.53	4102.96
436.72	4269.14
436.90	4210.62
437.09	4065.51
437.28	4074.87
437.46	4170.83
437.65	4135.73
437.84	4229.35
438.02	4131.05
438.21	4376.80
438.40	4290.20
438.58	4400.21
438.77	4456.38
438.96	4386.16
439.14	4498.51
439.33	4554.68
439.52	4440.00
439.70	4503.19
439.89	4496.17
440.08	4526.60
440.26	4489.15
440.45	4596.81
440.63	4526.60
440.82	4741.93
441.01	4596.81
441.19	4880.02
441.38	4643.62
441.57	4739.58
441.75	4842.57
441.94	4905.76
442.12	4889.38
442.31	4894.06
442.50	4777.03
442.68	4880.02
442.87	4964.28
443.05	4903.42
443.24	4999.38
443.43	5020.45
443.61	5015.77
443.80	5097.69
443.98	4905.76
444.17	4826.18
444.35	4954.91
444.54	5128.11
444.73	5125.77
444.91	5177.26
445.10	5266.21
445.28	5121.09
445.47	5107.05
445.65	5034.49
445.84	5060.24
446.02	5111.73
446.21	5149.18
446.39	5149.18
446.58	5191.31
446.77	5029.81
446.95	5174.92
447.14	5109.39
447.32	5357.49
447.51	5291.95
447.69	5158.54
447.88	5193.65
448.06	5275.57
448.25	5130.45
448.43	5277.91
448.62	5114.07
448.80	5174.92
448.99	5270.89
449.17	5345.78
449.36	5242.80
449.54	5387.91
449.73	5472.17
449.91	5518.98
450.10	5523.66
450.28	5341.10
450.46	5507.28
450.65	5493.24
450.83	5558.77
451.02	5722.61
451.20	5717.93
451.39	5434.72
451.57	5502.60
451.76	5439.40
451.94	5507.28
452.13	5668.78
452.31	5673.46
452.49	5472.17
452.68	5734.31
452.86	5610.26
453.05	5664.10
453.23	5589.20
453.42	5624.31
453.60	5645.37
453.78	5839.64
453.97	5689.84
454.15	5647.71
454.34	5748.36
454.52	5788.14
454.70	5743.67
454.89	5942.62
455.07	5947.30
455.26	5736.65
455.44	5980.07
455.62	5909.85
455.81	5907.51
455.99	6040.92
456.17	6008.16
456.36	6115.82
456.54	6162.63
456.73	6162.63
456.91	6176.67
457.09	6174.33
457.28	6293.70
457.46	6375.62
457.64	6326.47
457.83	6223.48
458.01	6181.35
458.19	6319.45
458.38	6267.95
458.56	6434.13
458.74	6368.60
458.93	6579.25
459.11	6455.20
459.29	6401.37
459.48	6513.71
459.66	6483.28
459.84	6403.71
460.03	6710.32
460.21	6572.22
460.39	6574.56
460.57	6600.31
460.76	6654.14
460.94	6773.51
461.12	6640.10
461.31	6736.06
461.49	6569.88
461.67	6768.83
461.85	6864.79
462.04	6583.93
462.22	7253.32
462.40	7059.06
462.59	6782.87
462.77	6754.79
462.95	6843.73
463.13	6799.26
463.32	6913.94
463.50	7061.40
463.68	6881.18
463.86	7016.93
464.05	6923.30
464.23	6698.61
464.41	7012.24
464.59	6916.28
464.78	7236.94
464.96	7138.63
465.14	6993.52
465.32	7014.59
465.50	7148.00
465.69	7272.04
465.87	6892.88
466.05	6946.71
466.23	7274.38
466.41	7075.44
466.60	7368.01
466.78	7243.96
466.96	7143.32
467.14	7258.00
467.32	7300.13
467.51	7578.65
467.69	7103.53
467.87	7365.67
468.05	7314.17
468.23	7220.55
468.41	7243.96
468.60	7405.46
468.78	7548.23
468.96	7360.98
469.14	7581.00
469.32	7562.27
469.50	7288.43
469.69	7482.69
469.87	7452.27
470.05	7578.65
470.23	7564.61
470.41	7740.15
470.59	7782.28
470.77	7805.69
470.95	7836.11
471.14	7859.52
471.32	7719.09
471.50	7936.76
471.68	7826.75
471.86	7990.59
472.04	8053.78
472.22	7995.27
472.40	8100.59
472.58	8037.40
472.77	8205.92
472.95	8170.81
473.13	8512.53
473.31	8154.43
473.49	8161.45
473.67	8269.11
473.85	8301.88
474.03	8620.19
474.21	8524.23
474.39	8510.19
474.57	8418.91
474.75	8496.14
474.93	8601.47
475.12	8540.61
475.30	8734.88
475.48	8755.94
475.66	8751.26
475.84	8723.18
476.02	8725.52
476.20	9067.24
476.38	9125.75
476.56	9224.05
476.74	9282.56
476.92	9114.05
477.10	8994.68
477.28	9287.25
477.46	9195.96
477.64	9483.85
477.82	9593.86
478.00	9769.40
478.18	9591.52
478.36	9823.23
478.54	9760.03
478.72	9935.57
478.90	9870.04
479.08	9930.89
479.26	10253.89
479.44	10108.77
479.62	10368.57
479.80	10230.48
479.98	10352.19
480.16	10422.41
480.34	10497.30
480.52	10663.48
480.70	10637.73
480.88	10424.75
481.06	10516.03
481.24	10703.27
481.41	10747.74
481.59	11007.54
481.77	10967.75
481.95	11241.59
482.13	11077.76
482.31	11243.93
482.49	11314.15
482.67	11480.33
482.85	11609.06
483.03	11861.84
483.21	11698.00
483.39	11955.46
483.57	11866.52
483.74	11824.39
483.92	12215.26
484.10	11974.18
484.28	12241.00
484.46	12475.06
484.64	12393.14
484.82	12353.35
485.00	12437.61
485.18	12915.08
485.35	12957.21
485.53	12798.05
485.71	13334.03
485.89	13277.86
486.07	13181.90
486.25	13013.38
486.43	13516.59
486.61	13607.87
486.78	13540.00
486.96	13720.22
487.14	13867.67
487.32	14026.83
487.50	14185.99
487.68	14075.98
487.85	14363.87
488.03	14342.80
488.21	14675.16
488.39	14628.35
488.57	14569.83
488.75	14565.15
488.92	14785.16
489.10	14731.33
489.28	15101.14
489.46	15190.08
489.64	15283.70
489.81	15309.44
489.99	15396.04
490.17	15431.15
490.35	15695.63
490.53	15920.32
490.70	16053.73
490.88	15922.66
491.06	16196.51
491.24	16039.69
491.41	16140.33
491.59	16470.35
491.77	16135.65
491.95	16540.57
492.13	16709.08
492.30	16739.51
492.48	16678.66
492.66	16861.22
492.84	17128.04
493.01	17259.11
493.19	17174.85
493.37	17460.40
493.54	17497.84
493.72	17341.03
493.90	17692.11
494.08	17493.16
494.25	17956.59
494.43	18167.24
494.61	17755.30
494.79	17872.33
494.96	17928.50
495.14	18111.07
495.32	18429.38
495.49	18321.71
495.67	18853.02
495.85	18256.18
496.02	18590.88
496.20	18644.71
496.38	19014.51
496.55	18986.43
496.73	19325.80
496.91	19143.24
497.09	19267.29
497.26	19314.10
497.44	19360.91
497.62	19365.59
497.79	19838.38
497.97	19594.96
498.14	19969.45
498.32	20276.06
498.50	20144.99
498.67	19922.64
498.85	19826.68
499.03	20233.93
499.20	20189.46
499.38	20573.31
499.56	20592.03
499.73	20783.96
499.91	20807.36
500.08	20971.20
500.26	20685.65
500.44	20884.60
500.61	21071.84
500.79	21034.39
500.97	20861.19
501.14	21366.75
501.32	21238.02
501.49	20987.58
501.67	21460.37
501.84	21841.88
502.02	21673.36
502.20	21776.34
502.37	21923.80
502.55	21656.98
502.72	21448.67
502.90	22122.74
503.07	21736.56
503.25	21792.73
503.43	22223.39
503.60	22162.53
503.78	22164.87
503.95	22068.91
504.13	22185.94
504.30	22295.94
504.48	22073.59
504.65	22815.54
504.83	22572.13
505.01	22670.43
505.18	22785.12
505.36	22785.12
505.53	23133.86
505.71	23110.45
505.88	23126.83
506.06	23215.77
506.23	23398.34
506.41	23206.41
506.58	23180.67
506.76	23424.08
506.93	23655.79
507.11	23363.23
507.28	23868.78
507.46	24037.30
507.63	23920.28
507.81	23770.48
507.98	23845.38
508.16	23726.01
508.33	23807.93
508.50	24109.86
508.68	24322.85
508.85	24367.32
509.03	24477.32
509.20	24364.98
509.38	24732.44
509.55	24891.60
509.73	24776.91
509.90	24863.51
510.08	24929.05
510.25	24833.08
510.42	24788.61
510.60	24875.21
510.77	25146.72
510.95	25359.70
511.12	25209.91
511.30	25050.75
511.47	25530.56
511.64	25469.71
511.82	25537.59
511.99	25352.68
512.17	25369.07
512.34	25530.56
512.51	25933.14
512.69	25544.61
512.86	25680.36
513.04	26106.34
513.21	25647.59
513.38	26118.04
513.56	25909.73
513.73	25582.06
513.90	26291.24
514.08	26136.76
514.25	26572.10
514.43	26218.68
514.60	26740.62
514.77	26078.25
514.95	26469.12
515.12	26206.98
515.29	26464.44
515.47	27009.78
515.64	27000.42
515.81	26623.59
515.99	26885.73
516.16	27021.48
516.33	27080.00
516.51	27494.27
516.68	27316.39
516.85	27398.31
517.03	27669.81
517.20	27295.33
517.37	27398.31
517.54	27201.71
517.72	27395.97
517.89	27674.49
518.06	27417.04
518.24	27594.92
518.41	27683.86
518.58	27924.93
518.75	27878.12
518.93	27850.03
519.10	27873.44
519.27	27330.44
519.45	27873.44
519.62	28137.92
519.79	28142.60
519.96	28339.21
520.14	28039.62
520.31	28250.27
520.48	28142.60
520.65	28371.97
520.83	28762.84
521.00	28790.93
521.17	28821.36
521.34	28533.47
521.52	28835.40
521.69	28788.59
521.86	29109.24
522.03	29062.43
522.20	29085.84
522.38	29195.84
522.55	29352.66
522.72	29207.55
522.89	29338.62
523.07	29193.50
523.24	29134.99
523.41	29706.08
523.58	29268.40
523.75	29542.24
523.92	29390.11
524.10	29673.31
524.27	29914.39
524.44	29834.81
524.61	29963.54
524.78	30082.91
524.96	29954.18
525.13	30221.00
525.30	30403.56
525.47	30501.86
525.64	30127.38
525.81	30424.62
525.98	30167.16
526.16	29926.09
526.33	30127.38
526.50	30473.78
526.67	30366.11
526.84	30780.39
527.01	30726.55
527.18	30726.55
527.36	31197.00
527.53	30906.77
527.70	30586.12
527.87	30780.39
528.04	31065.93
528.21	30632.93
528.38	31150.19
528.55	30984.01
528.72	30611.87
528.89	30871.67
529.07	31094.02
529.24	30628.25
529.41	31239.13
529.58	31332.75
529.75	31154.87
529.92	31349.14
530.09	31330.41
530.26	31199.34
530.43	31267.22
530.60	31641.70
530.77	31517.65
530.94	31456.80
531.11	31587.87
531.28	31758.73
531.46	31828.95
531.63	31833.63
531.80	31938.95
531.97	32105.13
532.14	32034.91
532.31	32070.02
532.48	31885.12
532.65	32657.49
532.82	31924.91
532.99	32065.34
533.16	32081.72
533.33	32346.20
533.50	32088.74
533.67	32510.04
533.84	32133.21
534.01	32348.54
534.18	32421.10
534.35	32811.97
534.52	32542.81
534.69	32594.30
534.86	32526.42
535.03	32100.45
535.20	32439.82
535.37	32744.09
535.54	33149.01
535.71	32828.35
535.88	32818.99
536.05	33041.34
536.22	32954.74
536.38	32975.81
536.55	33193.48
536.72	33144.33
536.89	33088.15
537.06	33633.50
537.23	33755.21
537.40	33617.11
537.57	33420.51
537.74	33226.24
537.91	33563.28
538.08	33617.11
538.25	33331.57
538.42	33425.19
538.59	33668.61
538.75	33537.54
538.92	33490.73
539.09	33408.81
539.26	34066.50
539.43	33535.20
539.60	34106.29
539.77	33862.87
539.94	33961.17
540.11	34359.06
540.28	34068.84
540.44	34338.00
540.61	33996.28
540.78	33825.42
540.95	34202.25
541.12	34827.17
541.29	34225.65
541.46	34363.75
541.62	34590.78
541.79	35194.64
541.96	34504.18
542.13	34534.60
542.30	34803.77
542.47	34527.58
542.63	34628.23
542.80	34974.63
542.97	35115.06
543.14	35248.47
543.31	35166.55
543.48	35311.66
543.64	35777.43
543.81	35393.58
543.98	35122.08
544.15	35276.55
544.32	35424.01
544.48	35590.19
544.65	35466.14
544.82	35281.24
544.99	35559.76
545.16	35697.85
545.32	35508.27
545.49	36060.63
545.66	36130.85
545.83	36381.29
546.00	36708.96
546.16	36271.28
546.33	36034.89
546.50	35524.65
546.67	35849.99
546.83	35674.45
547.00	35765.73
547.17	35786.79
547.34	35363.15
547.50	36165.96
547.67	36130.85
547.84	35997.44
548.00	36116.81
548.17	36807.26
548.34	36034.89
548.51	36411.71
548.67	36315.75
548.84	36055.95
549.01	35892.12
549.18	36229.15
549.34	36760.45
549.51	36149.57
549.68	36538.10
549.84	36341.50
550.01	36540.44
550.18	36020.84
550.34	36154.26
550.51	36304.05
550.68	36062.97
550.84	36212.77
551.01	36720.66
551.18	36521.72
551.34	36350.86
551.51	36266.60
551.68	36254.90
551.84	36491.29
552.01	36446.82
552.18	37097.49
552.34	36510.02
552.51	37074.09
552.68	36631.72
552.84	36996.85
553.01	37376.01
553.18	36957.06
553.34	37205.16
553.51	36943.02
553.67	37282.39
553.84	37579.64
554.01	37193.45
554.17	37167.71
554.34	37361.97
554.51	37247.29
554.67	37511.77
554.84	36802.58
555.00	37050.68
555.17	36783.86
555.33	37354.95
555.50	37289.42
555.67	37668.58
555.83	37078.77
556.00	37415.80
556.16	37134.94
556.33	37312.82
556.50	37301.12
556.66	37317.50
556.83	37207.50
556.99	37507.08
557.16	37612.41
557.32	37589.00
557.49	37790.29
557.65	37397.08
557.82	37528.15
557.98	37757.52
558.15	37558.58
558.32	37855.82
558.48	37617.09
558.65	37663.90
558.81	37593.68
558.98	37897.95
559.14	37715.39
559.31	37530.49
559.47	37895.61
559.64	37654.54
559.80	37762.20
559.97	38110.94
560.13	37495.38
560.30	37872.21
560.46	37977.53
560.63	38043.07
560.79	38263.08
560.96	37872.21
561.12	38188.18
561.29	38103.92
561.45	37851.14
561.61	38071.15
561.78	38117.96
561.94	37806.67
562.11	38246.69
562.27	38682.03
562.44	38274.78
562.60	38377.76
562.77	38345.00
562.93	38384.79
563.10	38286.48
563.26	38068.81
563.42	38178.82
563.59	38150.73
563.75	38419.89
563.92	37921.36
564.08	38415.21
564.24	38572.03
564.41	38295.85
564.57	38543.94
564.74	38307.55
564.90	38815.44
565.07	38415.21
565.23	38302.87
565.39	38653.95
565.56	39058.86
565.72	38476.07
565.88	38761.61
566.05	38412.87
566.21	38471.39
566.38	38251.38
566.54	38850.55
566.70	38827.15
566.87	39026.09
567.03	38815.44
567.19	39407.60
567.36	38796.72
567.52	38511.17
567.68	38850.55
567.85	38586.07
568.01	38567.35
568.17	38836.51
568.34	38855.23
568.50	38698.42
568.66	38539.26
568.83	38925.45
568.99	39255.46
569.15	39182.91
569.32	38712.46
569.48	38600.12
569.64	38714.80
569.81	38981.62
569.97	38829.49
570.13	38958.22
570.30	38679.69
570.46	39086.95
570.62	38742.89
570.78	38560.33
570.95	38899.70
571.11	39299.94
571.27	38813.10
571.43	38342.66
571.60	38457.34
571.76	38892.68
571.92	38920.77
572.09	39290.57
572.25	39023.75
572.41	38911.41
572.57	39168.87
572.74	39550.37
572.90	38792.04
573.06	39110.35
573.22	38834.17
573.38	39454.41
573.55	38962.90
573.71	39447.39
573.87	39105.67
574.03	39213.34
574.20	39168.87
574.36	39587.82
574.52	38663.31
574.68	38806.08
574.84	39194.61
575.01	39086.95
575.17	39056.52
575.33	38995.67
575.49	38703.10
575.65	39407.60
575.82	39330.36
575.98	39388.88
576.14	39489.52
576.30	39700.17
576.46	39185.25
576.62	39033.11
576.79	39285.89
576.95	38873.96
577.11	39021.41
577.27	39407.60
577.43	39431.01
577.59	39309.30
577.75	39250.78
577.92	39456.75
578.08	39047.16
578.24	39473.13
578.40	39541.01
578.56	39821.87
578.72	39187.59
578.88	39864.00
579.04	39431.01
579.21	39321.00
579.37	39515.26
579.53	39255.46
579.69	38885.66
579.85	39061.20
580.01	39559.73
580.17	39538.67
580.33	39662.72
580.49	39405.26
580.65	39552.71
580.82	39276.53
580.98	39194.61
581.14	39260.15
581.30	39531.65
581.46	39210.99
581.62	39526.97
581.78	39772.72
581.94	39681.44
582.10	38813.10
582.26	39643.99
582.42	39159.50
582.58	39381.85
582.74	39166.52
582.90	39365.47
583.06	39395.90
583.22	39386.54
583.38	39636.97
583.54	39545.69
583.70	38834.17
583.86	39482.50
584.02	39133.76
584.18	39660.38
584.34	39374.83
584.50	39709.53
584.66	39201.63
584.82	39007.37
584.98	39283.55
585.14	39557.39
585.30	39157.16
585.46	39438.03
585.62	39662.72
585.78	39814.85
585.94	39592.50
586.10	39716.55
586.26	39438.03
586.42	39842.94
586.58	39746.98
586.74	39765.70
586.90	39480.16
587.06	39302.28
587.22	39849.96
587.38	39508.24
587.54	39943.58
587.70	40252.53
587.86	39990.39
588.02	39796.13
588.18	39653.36
588.34	39274.19
588.49	39524.63
588.65	39784.43
588.81	39597.18
588.97	39981.03
589.13	39772.72
589.29	39791.45
589.45	40093.38
589.61	39871.03
589.77	40086.36
