SpectraSuite Data File
++++++++++++++++++++++++++++++++++++
Date: Thu Oct 24 13:21:12 EDT 2013
User: stostad
Dark Spectrum Present: No
Reference Spectrum Present: No
Number of Sampled Component Spectra: 1
Spectrometers: USB2+H05261
Integration Time (usec): 100000 (USB2+H05261)
Spectra Averaged: 1 (USB2+H05261)
Boxcar Smoothing: 0 (USB2+H05261)
Correct for Electrical Dark: No (USB2+H05261)
Strobe/Lamp Enabled: No (USB2+H05261)
Correct for Detector Non-linearity: No (USB2+H05261)
Correct for Stray Light: No (USB2+H05261)
Number of Pixels in Processed Spectrum: 2048
>>>>>Begin Processed Spectral Data<<<<<
365.73	557.05
365.92	557.05
366.12	557.05
366.32	435.34
366.52	465.77
366.72	475.13
366.91	461.09
367.11	402.57
367.31	409.59
367.51	500.87
367.70	430.66
367.90	418.96
368.10	428.32
368.30	482.15
368.49	386.19
368.69	524.28
368.89	479.81
369.09	484.49
369.28	503.22
369.48	472.79
369.68	517.26
369.87	606.20
370.07	500.87
370.27	601.52
370.47	606.20
370.66	706.84
370.86	676.41
371.06	755.99
371.25	711.52
371.45	718.54
371.65	777.06
371.84	727.91
372.04	697.48
372.24	767.70
372.44	823.87
372.63	807.48
372.83	798.12
373.03	840.25
373.22	791.10
373.42	849.61
373.62	866.00
373.81	767.70
374.01	816.85
374.21	814.51
374.40	819.19
374.60	777.06
374.79	837.91
374.99	826.21
375.19	812.17
375.38	781.74
375.58	772.38
375.78	868.34
375.97	791.10
376.17	781.74
376.37	861.32
376.56	837.91
376.76	861.32
376.95	873.02
377.15	882.38
377.35	912.81
377.54	830.89
377.74	847.27
377.93	821.53
378.13	884.72
378.33	912.81
378.52	882.38
378.72	854.30
378.91	840.25
379.11	863.66
379.31	910.47
379.50	837.91
379.70	842.59
379.89	849.61
380.09	828.55
380.28	795.78
380.48	809.83
380.68	887.06
380.87	875.36
381.07	847.27
381.26	898.77
381.46	863.66
381.65	835.57
381.85	936.21
382.04	947.92
382.24	903.45
382.43	973.66
382.63	849.61
382.83	884.72
383.02	905.79
383.22	915.15
383.41	882.38
383.61	910.47
383.80	929.19
384.00	889.40
384.19	945.58
384.39	910.47
384.58	873.02
384.78	919.83
384.97	961.96
385.17	870.68
385.36	978.34
385.56	985.37
385.75	894.08
385.95	933.87
386.14	987.71
386.34	940.90
386.53	866.00
386.72	917.49
386.92	938.55
387.11	964.30
387.31	1029.84
387.50	931.53
387.70	936.21
387.89	987.71
388.09	1001.75
388.28	992.39
388.48	961.96
388.67	985.37
388.86	936.21
389.06	976.00
389.25	1081.33
389.45	1015.79
389.64	1022.81
389.84	994.73
390.03	1029.84
390.22	961.96
390.42	1097.71
390.61	1011.11
390.81	922.17
391.00	1013.45
391.19	999.41
391.39	1048.56
391.58	1064.94
391.78	1020.47
391.97	978.34
392.16	1109.41
392.36	1177.29
392.55	1078.99
392.75	1081.33
392.94	1104.73
393.13	1008.77
393.33	978.34
393.52	1053.24
393.71	1001.75
393.91	1093.03
394.10	1102.39
394.29	1062.60
394.49	1069.62
394.68	1104.73
394.88	1116.44
395.07	1188.99
395.26	1048.56
395.46	1057.92
395.65	1135.16
395.84	1090.69
396.04	1254.53
396.23	1102.39
396.42	1057.92
396.62	1174.95
396.81	1177.29
397.00	1174.95
397.19	1188.99
397.39	1142.18
397.58	1198.35
397.77	1160.91
397.97	1245.16
398.16	1144.52
398.35	1247.51
398.55	1219.42
398.74	1212.40
398.93	1231.12
399.12	1184.31
399.32	1203.04
399.51	1177.29
399.70	1266.23
399.90	1235.80
400.09	1275.59
400.28	1334.11
400.47	1191.33
400.67	1371.55
400.86	1338.79
401.05	1315.38
401.24	1284.95
401.44	1362.19
401.63	1217.08
401.82	1186.65
402.01	1315.38
402.21	1315.38
402.40	1343.47
402.59	1327.08
402.78	1324.74
402.97	1366.87
403.17	1376.24
403.36	1376.24
403.55	1366.87
403.74	1413.68
403.93	1343.47
404.13	1476.88
404.32	1362.19
404.51	1423.05
404.70	1509.65
404.89	1406.66
405.09	1465.18
405.28	1437.09
405.47	1411.34
405.66	1425.39
405.85	1549.43
406.05	1448.79
406.24	1455.81
406.43	1469.86
406.62	1502.62
406.81	1547.09
407.00	1565.82
407.20	1514.33
407.39	1528.37
407.58	1488.58
407.77	1621.99
407.96	1495.60
408.15	1626.67
408.34	1530.71
408.54	1610.29
408.73	1612.63
408.92	1439.43
409.11	1526.03
409.30	1687.53
409.49	1650.08
409.68	1671.14
409.87	1673.48
410.07	1598.59
410.26	1657.10
410.45	1624.33
410.64	1621.99
410.83	1694.55
411.02	1659.44
411.21	1802.21
411.40	1757.74
411.59	1750.72
411.78	1703.91
411.98	1776.47
412.17	1701.57
412.36	1834.98
412.55	1842.00
412.74	1942.64
412.93	1806.89
413.12	1853.70
413.31	1863.07
413.50	1858.39
413.69	1820.94
413.88	1933.28
414.07	1954.35
414.26	1886.47
414.45	1930.94
414.64	1987.11
414.83	2005.84
415.02	2029.24
415.22	2064.35
415.41	1996.48
415.60	1872.43
415.79	1933.28
415.98	2036.27
416.17	1949.67
416.36	2073.71
416.55	2099.46
416.74	2111.16
416.93	2157.97
417.12	2221.17
417.31	2143.93
417.50	2167.34
417.69	2127.55
417.88	2157.97
418.07	2172.02
418.26	2207.13
418.45	2270.32
418.64	2218.83
418.83	2153.29
419.02	2319.47
419.21	2242.23
419.39	2310.11
419.58	2258.62
419.77	2244.57
419.96	2296.07
420.15	2382.67
420.34	2211.81
420.53	2272.66
420.72	2429.48
420.91	2300.75
421.10	2338.20
421.29	2354.58
421.48	2363.94
421.67	2401.39
421.86	2387.35
422.05	2382.67
422.24	2431.82
422.43	2403.73
422.61	2399.05
422.80	2438.84
422.99	2445.86
423.18	2436.50
423.37	2495.01
423.56	2345.22
423.75	2211.81
423.94	2298.41
424.13	2413.09
424.32	2286.70
424.50	2396.71
424.69	2471.61
424.88	2420.11
425.07	2492.67
425.26	2314.79
425.45	2497.35
425.64	2487.99
425.83	2480.97
426.01	2511.39
426.20	2504.37
426.39	2497.35
426.58	2583.95
426.77	2583.95
426.96	2562.89
427.15	2457.56
427.33	2527.78
427.52	2436.50
427.71	2530.12
427.90	2644.81
428.09	2476.29
428.28	2609.70
428.46	2420.11
428.65	2553.52
428.84	2724.38
429.03	2682.25
429.22	2590.97
429.40	2544.16
429.59	2567.57
429.78	2614.38
429.97	2516.08
430.16	2586.29
430.34	2574.59
430.53	2799.28
430.72	2644.81
430.91	2647.15
431.10	2593.31
431.28	2810.98
431.47	2822.69
431.66	2794.60
431.85	2691.62
432.03	2787.58
432.22	2782.90
432.41	2792.26
432.60	2850.77
432.79	2822.69
432.97	2810.98
433.16	2883.54
433.35	2787.58
433.54	3033.33
433.72	2867.16
433.91	2794.60
434.10	2855.45
434.28	2939.71
434.47	2981.84
434.66	2913.97
434.85	2979.50
435.03	3129.30
435.22	3229.94
435.41	3433.57
435.59	3361.01
435.78	3311.86
435.97	3295.47
436.16	3162.06
436.34	3042.70
436.53	2998.23
436.72	3112.91
436.90	2956.10
437.09	2998.23
437.28	3042.70
437.46	3260.37
437.65	3145.68
437.84	3122.27
438.02	3035.67
438.21	3084.83
438.40	3164.40
438.58	3080.14
438.77	3232.28
438.96	3211.22
439.14	3276.75
439.33	3236.96
439.52	3222.92
439.70	3300.16
439.89	3382.07
440.08	3391.44
440.26	3382.07
440.45	3405.48
440.63	3489.74
440.82	3496.76
441.01	3358.67
441.19	3400.80
441.38	3471.01
441.57	3475.70
441.75	3492.08
441.94	3487.40
442.12	3435.91
442.31	3606.77
442.50	3669.96
442.68	3691.02
442.87	3585.70
443.05	3588.04
443.24	3758.90
443.43	3625.49
443.61	3716.77
443.80	3693.37
443.98	3555.27
444.17	3501.44
444.35	3609.11
444.54	3665.28
444.73	3744.86
444.91	3751.88
445.10	3660.60
445.28	3737.84
445.47	3658.26
445.65	3653.58
445.84	3740.18
446.02	3782.31
446.21	3772.94
446.39	3733.15
446.58	3791.67
446.77	3655.92
446.95	3705.07
447.14	3630.17
447.32	3705.07
447.51	3730.81
447.69	3705.07
447.88	3676.98
448.06	3812.73
448.25	3667.62
448.43	3838.48
448.62	3742.52
448.80	3805.71
448.99	3896.99
449.17	3866.56
449.36	3775.28
449.54	3878.27
449.73	4018.70
449.91	4018.70
450.10	4074.87
450.28	4009.34
450.46	4023.38
450.65	3999.98
450.83	3988.27
451.02	3845.50
451.20	4102.96
451.39	4072.53
451.57	4002.32
451.76	3988.27
451.94	3978.91
452.13	4056.15
452.31	4095.94
452.49	3995.29
452.68	4067.85
452.86	4060.83
453.05	4044.45
453.23	4196.58
453.42	4007.00
453.60	4051.47
453.78	4138.07
453.97	4161.47
454.15	4184.88
454.34	4070.19
454.52	4154.45
454.70	4191.90
454.89	4044.45
455.07	4273.82
455.26	4182.54
455.44	4243.39
455.62	4306.59
455.81	4212.96
455.99	4294.88
456.17	4278.50
456.36	4383.82
456.54	4386.16
456.73	4386.16
456.91	4358.08
457.09	4344.03
457.28	4416.59
457.46	4503.19
457.64	4554.68
457.83	4432.97
458.01	4400.21
458.19	4547.66
458.38	4456.38
458.56	4610.86
458.74	4592.13
458.93	4538.30
459.11	4468.08
459.29	4580.43
459.48	4540.64
459.66	4603.83
459.84	4709.16
460.03	4645.96
460.21	4634.26
460.39	4667.03
460.57	4809.80
460.76	4695.11
460.94	4624.90
461.12	4781.71
461.31	4758.31
461.49	4737.24
461.67	4690.43
461.85	4734.90
462.04	4737.24
462.22	5284.93
462.40	4894.06
462.59	4898.74
462.77	4950.23
462.95	4795.76
463.13	4748.95
463.32	4882.36
463.50	4851.93
463.68	4973.64
463.86	4880.02
464.05	4762.99
464.23	4873.00
464.41	4961.94
464.59	4816.82
464.78	5111.73
464.96	4950.23
465.14	4854.27
465.32	5076.62
465.50	5071.94
465.69	5146.84
465.87	5172.58
466.05	5071.94
466.23	5036.83
466.41	5060.24
466.60	5203.01
466.78	5034.49
466.96	5109.39
467.14	5167.90
467.32	5170.24
467.51	5343.44
467.69	5165.56
467.87	5172.58
468.05	5191.31
468.23	5167.90
468.41	5252.16
468.60	5116.41
468.78	5207.69
468.96	5256.84
469.14	5334.08
469.32	5448.77
469.50	5263.86
469.69	5420.68
469.87	5296.63
470.05	5348.12
470.23	5420.68
470.41	5493.24
470.59	5359.83
470.77	5544.73
470.95	5500.26
471.14	5563.45
471.32	5495.58
471.50	5636.01
471.68	5453.45
471.86	5633.67
472.04	5568.13
472.22	5750.70
472.40	5645.37
472.58	5628.99
472.77	5830.27
472.95	5760.06
473.13	5785.80
473.31	5781.12
473.49	5673.46
473.67	5673.46
473.85	6012.84
474.03	6026.88
474.21	5858.36
474.39	6043.26
474.57	6019.86
474.75	6136.88
474.93	6087.73
475.12	5935.60
475.30	6087.73
475.48	6101.78
475.66	6253.91
475.84	6244.55
476.02	6218.80
476.20	6277.32
476.38	6239.87
476.56	6408.39
476.74	6394.34
476.92	6464.56
477.10	6516.05
477.28	6506.69
477.46	6476.26
477.64	6647.12
477.82	6682.23
478.00	6864.79
478.18	6820.32
478.36	6892.88
478.54	6705.63
478.72	6850.75
478.90	6946.71
479.08	7117.57
479.26	7070.76
479.44	7047.35
479.62	7070.76
479.80	7068.42
479.98	7183.10
480.16	7304.81
480.34	7286.09
480.52	7321.20
480.70	7330.56
480.88	7321.20
481.06	7431.20
481.24	7545.89
481.41	7604.40
481.59	7789.30
481.77	7723.77
481.95	7625.47
482.13	7733.13
482.31	7630.15
482.49	7838.45
482.67	8030.38
482.85	7978.89
483.03	8224.64
483.21	8060.80
483.39	8234.00
483.57	8166.13
483.74	8280.82
483.92	8348.69
484.10	8386.14
484.28	8386.14
484.46	8542.96
484.64	8709.13
484.82	8596.79
485.00	8772.33
485.18	8877.65
485.35	8919.78
485.53	9041.49
485.71	8985.32
485.89	9081.28
486.07	9060.21
486.25	9053.19
486.43	9242.78
486.61	9282.56
486.78	9525.98
486.96	9469.81
487.14	9577.47
487.32	9551.73
487.50	9689.82
487.68	9584.49
487.85	9797.48
488.03	10108.77
488.21	10057.28
488.39	9958.98
488.57	10017.49
488.75	9884.08
488.92	10087.71
489.10	10118.14
489.28	10188.35
489.46	10504.32
489.64	10345.17
489.81	10679.86
489.99	10581.56
490.17	10506.66
490.35	10923.28
490.53	11042.65
490.70	10817.96
490.88	10815.62
491.06	10860.09
491.24	11154.99
491.41	11194.78
491.59	11126.91
491.77	11077.76
491.95	11398.41
492.13	11370.32
492.30	11375.00
492.48	11211.17
492.66	11386.71
492.84	11489.69
493.01	11578.63
493.19	11705.02
493.37	11744.81
493.54	11758.85
493.72	11920.35
493.90	11843.11
494.08	12212.92
494.25	12123.98
494.43	11936.73
494.61	12334.62
494.79	12086.53
494.96	12442.29
495.14	12456.33
495.32	12365.05
495.49	12418.88
495.67	12617.83
495.85	12814.43
496.02	12681.02
496.20	12781.67
496.38	12882.31
496.55	12903.37
496.73	13149.13
496.91	12896.35
497.09	12924.44
497.26	13139.77
497.44	13167.85
497.62	13200.62
497.79	13399.57
497.97	13282.54
498.14	13500.21
498.32	13415.95
498.50	13603.19
498.67	13685.11
498.85	13277.86
499.03	13776.39
499.20	13769.37
499.38	14061.94
499.56	14164.92
499.73	14012.79
499.91	13741.29
500.08	13696.82
500.26	14008.11
500.44	14228.12
500.61	14104.07
500.79	14005.77
500.97	14387.27
501.14	14581.54
501.32	14295.99
501.49	14532.39
501.67	14312.38
501.84	14401.32
502.02	14574.52
502.20	14274.93
502.37	14733.67
502.55	14738.35
502.72	14462.17
502.90	15014.54
503.07	14815.59
503.25	14654.09
503.43	14953.68
503.60	15190.08
503.78	15049.64
503.95	15220.50
504.13	15084.75
504.30	15234.55
504.48	15293.06
504.65	15250.93
504.83	15243.91
505.01	15447.54
505.18	15487.32
505.36	15398.38
505.53	15410.09
505.71	15815.00
505.88	15796.28
506.06	15501.37
506.23	15386.68
506.41	15683.93
506.58	16002.24
506.76	15655.84
506.93	15934.37
507.11	15789.25
507.28	15697.97
507.46	15854.79
507.63	16116.93
507.81	16009.26
507.98	15925.00
508.16	15847.77
508.33	16180.12
508.50	16159.06
508.68	16264.38
508.85	16292.47
509.03	16264.38
509.20	16262.04
509.38	16320.56
509.55	16498.44
509.73	16294.81
509.90	16835.47
510.08	16886.97
510.25	16592.06
510.42	16877.60
510.60	16840.15
510.77	16847.18
510.95	16624.83
511.12	16760.58
511.30	17022.72
511.47	17011.01
511.64	16975.91
511.82	17006.33
511.99	16854.20
512.17	17216.98
512.34	17326.99
512.51	17472.10
512.69	17497.84
512.86	17664.02
513.04	17554.02
513.21	17429.97
513.38	17444.01
513.56	17448.69
513.73	17547.00
513.90	17687.43
514.08	17270.81
514.25	17748.28
514.43	18078.30
514.60	17729.56
514.77	17785.73
514.95	17678.07
515.12	17664.02
515.29	17771.69
515.47	18139.15
515.64	18043.19
515.81	18031.49
515.99	18347.46
516.16	18136.81
516.33	18031.49
516.51	18380.23
516.68	18097.02
516.85	18602.58
517.03	18675.13
517.20	18642.37
517.37	18209.37
517.54	18640.03
517.72	18281.92
517.89	18478.53
518.06	18607.26
518.24	18553.43
518.41	18869.40
518.58	18593.22
518.75	18618.96
518.93	18668.11
519.10	18515.98
519.27	18888.12
519.45	18944.30
519.62	18838.97
519.79	18766.42
519.96	18902.17
520.14	18845.99
520.31	18946.64
520.48	18977.06
520.65	18963.02
520.83	19152.60
521.00	19824.34
521.17	19012.17
521.34	19391.34
521.52	19491.98
521.69	19150.26
521.86	19133.88
522.03	19414.74
522.20	19307.08
522.38	19620.71
522.55	19573.90
522.72	19583.26
522.89	19889.87
523.07	19770.51
523.24	19618.37
523.41	19742.42
523.58	19634.75
523.75	19772.85
523.92	19814.98
524.10	19847.74
524.27	19674.54
524.44	19896.89
524.61	20013.92
524.78	19953.07
524.96	19761.14
525.13	20292.44
525.30	20187.12
525.47	20119.24
525.64	20166.06
525.81	20329.89
525.98	20311.17
526.16	20114.56
526.33	20149.67
526.50	20496.07
526.67	20306.49
526.84	20383.73
527.01	20325.21
527.18	20369.68
527.36	20322.87
527.53	20231.59
527.70	20683.31
527.87	20929.07
528.04	20393.09
528.21	20372.02
528.38	20821.41
528.55	20882.26
528.72	20467.98
528.89	20322.87
529.07	20659.91
529.24	20292.44
529.41	21003.97
529.58	21200.57
529.75	20671.61
529.92	21160.78
530.09	21003.97
530.26	20886.94
530.43	20863.54
530.60	20910.35
530.77	21041.42
530.94	21205.25
531.11	21228.66
531.28	21149.08
531.46	21329.30
531.63	21422.92
531.80	21027.37
531.97	21027.37
532.14	21039.08
532.31	21394.84
532.48	21465.05
532.65	21205.25
532.82	21294.19
532.99	21612.51
533.16	21474.42
533.33	21502.50
533.50	21668.68
533.67	21544.63
533.84	21563.36
534.01	21612.51
534.18	21876.99
534.35	22080.61
534.52	21825.50
534.69	21640.59
534.86	21717.83
535.03	21715.49
535.20	21766.98
535.37	21776.34
535.54	21972.95
535.71	21921.46
535.88	22176.58
536.05	22113.38
536.22	21710.81
536.38	22207.00
536.55	22190.62
536.72	22073.59
536.89	22178.92
537.06	22431.69
537.23	22419.99
537.40	22494.89
537.57	22153.17
537.74	22164.87
537.91	22345.09
538.08	22391.91
538.25	22225.73
538.42	22581.49
538.59	22242.11
538.75	22515.95
538.92	22434.03
539.09	22562.76
539.26	22244.45
539.43	22260.84
539.60	22686.81
539.77	22483.19
539.94	22918.53
540.11	22829.59
540.28	23016.83
540.44	22878.74
540.61	22782.77
540.78	22867.03
540.95	23054.28
541.12	23089.38
541.29	23274.29
541.46	23215.77
541.62	23419.40
541.79	23737.71
541.96	23379.61
542.13	23323.44
542.30	23351.52
542.47	23253.22
542.63	23569.19
542.80	23576.22
542.97	23726.01
543.14	23601.96
543.31	23796.23
543.48	23777.50
543.64	23693.24
543.81	23892.19
543.98	24027.94
544.15	24023.26
544.32	23611.32
544.48	24180.07
544.65	23812.61
544.82	23971.77
544.99	23955.38
545.16	23922.62
545.32	23899.21
545.49	24428.17
545.66	24938.41
545.83	24985.22
546.00	24807.34
546.16	24807.34
546.33	24767.55
546.50	24002.19
546.67	23999.85
546.83	23978.79
547.00	23777.50
547.17	23681.54
547.34	24170.71
547.50	23850.06
547.67	24266.67
547.84	24063.05
548.00	24170.71
548.17	24334.55
548.34	24072.41
548.51	24088.79
548.67	23950.70
548.84	24009.22
549.01	24023.26
549.18	24091.13
549.34	24367.32
549.51	24453.92
549.68	24177.73
549.84	24168.37
550.01	24086.45
550.18	24025.60
550.34	23716.65
550.51	23992.83
550.68	24261.99
550.84	24269.01
551.01	24339.23
551.18	24119.22
551.34	23976.45
551.51	24081.77
551.68	24154.33
551.84	24264.33
552.01	24444.56
552.18	24608.39
552.34	24400.08
552.51	24816.70
552.68	24245.61
552.84	24577.97
553.01	24407.11
553.18	24510.09
553.34	24533.50
553.51	24306.46
553.67	24589.67
553.84	24671.59
554.01	24531.15
554.17	24482.00
554.34	24837.76
554.51	24662.22
554.67	24662.22
554.84	24730.10
555.00	24465.62
555.17	24329.87
555.33	24545.20
555.50	24437.53
555.67	24470.30
555.83	24425.83
556.00	24720.74
556.16	25017.99
556.33	24795.64
556.50	24830.74
556.66	24884.58
556.83	24631.80
556.99	25050.75
557.16	25364.39
557.32	24943.09
557.49	24952.45
557.65	24940.75
557.82	24915.00
557.98	24842.45
558.15	24819.04
558.32	25043.73
558.48	24713.72
558.65	25137.35
558.81	24952.45
558.98	25144.38
559.14	24851.81
559.31	25039.05
559.47	25254.38
559.64	24610.73
559.80	24879.89
559.97	25399.49
560.13	25254.38
560.30	24727.76
560.46	24545.20
560.63	25223.95
560.79	25582.06
560.96	25362.04
561.12	25532.90
561.29	25366.73
561.45	25289.49
561.61	25048.41
561.78	25003.94
561.94	25118.63
562.11	25221.61
562.27	25256.72
562.44	25343.32
562.60	25230.98
562.77	25659.29
562.93	25460.35
563.10	25369.07
563.26	24886.92
563.42	25439.28
563.59	25069.48
563.75	25387.79
563.92	25270.76
564.08	25469.71
564.24	25516.52
564.41	25319.92
564.57	25476.73
564.74	25158.42
564.90	25523.54
565.07	25802.07
565.23	25678.02
565.39	25310.55
565.56	25467.37
565.72	25270.76
565.88	25530.56
566.05	25450.99
566.21	25336.30
566.38	25221.61
566.54	25701.42
566.70	25310.55
566.87	25631.21
567.03	25645.25
567.19	25572.69
567.36	25729.51
567.52	25682.70
567.68	25221.61
567.85	25624.18
568.01	25675.68
568.17	25275.45
568.34	25507.16
568.50	25736.53
568.66	25764.62
568.83	25427.58
568.99	25802.07
569.15	25359.70
569.32	25401.83
569.48	25488.43
569.64	25558.65
569.81	25565.67
569.97	25497.80
570.13	25551.63
570.30	25439.28
570.46	26047.82
570.62	25666.31
570.78	25488.43
570.95	25666.31
571.11	25621.84
571.27	25790.36
571.43	25385.45
571.60	25628.87
571.76	25530.56
571.92	25846.54
572.09	25993.99
572.25	25816.11
572.41	25891.01
572.57	25663.97
572.74	25991.65
572.90	25560.99
573.06	25851.22
573.22	25699.08
573.38	25745.89
573.55	25729.51
573.71	25930.80
573.87	25781.00
574.03	25701.42
574.20	25687.38
574.36	25792.70
574.52	25467.37
574.68	25589.08
574.84	25958.88
575.01	25827.81
575.17	26001.01
575.33	25661.63
575.49	25837.17
575.65	25514.18
575.82	26096.97
575.98	25937.82
576.14	25961.22
576.30	26050.16
576.46	25565.67
576.62	26008.03
576.79	25797.38
576.95	26043.14
577.11	26171.87
577.27	26010.37
577.43	25921.43
577.59	25750.57
577.75	25717.81
577.92	25788.02
578.08	25729.51
578.24	25816.11
578.40	25743.55
578.56	26499.55
578.72	26127.40
578.88	26597.85
579.04	26216.34
579.21	26015.05
579.37	26291.24
579.53	25900.37
579.69	25818.45
579.85	25996.33
580.01	26047.82
580.17	26127.40
580.33	26134.42
580.49	25963.56
580.65	25998.67
580.82	25891.01
580.98	25776.32
581.14	25682.70
581.30	25839.51
581.46	25806.75
581.62	25984.63
581.78	25682.70
581.94	26005.69
582.10	25792.70
582.26	26113.36
582.42	25830.15
582.58	26143.78
582.74	26019.74
582.90	26473.80
583.06	26115.70
583.22	26059.52
583.38	26221.02
583.54	25954.20
583.70	26085.27
583.86	26094.63
584.02	25755.26
584.18	25919.09
584.34	26272.51
584.50	25968.24
584.66	25813.77
584.82	25680.36
584.98	25736.53
585.14	26122.72
585.30	26047.82
585.46	26085.27
585.62	26071.23
585.78	25989.31
585.94	25790.36
586.10	25977.61
586.26	26169.53
586.42	26134.42
586.58	26164.85
586.74	25993.99
586.90	26096.97
587.06	25949.52
587.22	26354.43
587.38	25935.48
587.54	26235.06
587.70	26452.73
587.86	26094.63
588.02	26307.62
588.18	25816.11
588.34	26279.54
588.49	26108.68
588.65	25560.99
588.81	26167.19
588.97	26015.05
589.13	26178.89
589.29	26541.68
589.45	26134.42
589.61	26366.13
589.77	26410.60
589.93	25956.54
590.08	26017.40
590.24	26094.63
590.40	26462.10
590.56	25958.88
590.72	26195.28
