SpectraSuite Data File
++++++++++++++++++++++++++++++++++++
Date: Thu Oct 24 13:21:27 EDT 2013
User: stostad
Dark Spectrum Present: No
Reference Spectrum Present: No
Number of Sampled Component Spectra: 1
Spectrometers: USB2+H05261
Integration Time (usec): 100000 (USB2+H05261)
Spectra Averaged: 1 (USB2+H05261)
Boxcar Smoothing: 0 (USB2+H05261)
Correct for Electrical Dark: No (USB2+H05261)
Strobe/Lamp Enabled: No (USB2+H05261)
Correct for Detector Non-linearity: No (USB2+H05261)
Correct for Stray Light: No (USB2+H05261)
Number of Pixels in Processed Spectrum: 2048
>>>>>Begin Processed Spectral Data<<<<<
365.73	524.28
365.92	524.28
366.12	524.28
366.32	503.22
366.52	468.11
366.72	461.09
366.91	435.34
367.11	444.70
367.31	470.45
367.51	475.13
367.70	454.06
367.90	454.06
368.10	428.32
368.30	465.77
368.49	470.45
368.69	528.96
368.89	559.39
369.09	514.92
369.28	550.03
369.48	519.60
369.68	491.51
369.87	449.38
370.07	526.62
370.27	580.45
370.47	620.24
370.66	961.96
370.86	987.71
371.06	1107.07
371.25	1057.92
371.45	1015.79
371.65	992.39
371.84	933.87
372.04	1121.12
372.24	1081.33
372.44	1055.58
372.63	1118.78
372.83	1111.75
373.03	1062.60
373.22	1078.99
373.42	1163.25
373.62	1203.04
373.81	1158.57
374.01	1160.91
374.21	1160.91
374.40	1128.14
374.60	1193.67
374.79	1153.88
374.99	1177.29
375.19	1207.72
375.38	1235.80
375.58	1252.19
375.78	1219.42
375.97	1151.54
376.17	1179.63
376.37	1224.10
376.56	1226.44
376.76	1296.66
376.95	1291.98
377.15	1210.06
377.35	1217.08
377.54	1242.82
377.74	1294.32
377.93	1273.25
378.13	1179.63
378.33	1224.10
378.52	1200.69
378.72	1280.27
378.91	1359.85
379.11	1263.89
379.31	1259.21
379.50	1275.59
379.70	1397.30
379.89	1434.75
380.09	1336.45
380.28	1338.79
380.48	1413.68
380.68	1366.87
380.87	1394.96
381.07	1404.32
381.26	1401.98
381.46	1392.62
381.65	1392.62
381.85	1387.94
382.04	1394.96
382.24	1406.66
382.43	1465.18
382.63	1472.20
382.83	1476.88
383.02	1411.34
383.22	1530.71
383.41	1547.09
383.61	1406.66
383.80	1511.99
384.00	1514.33
384.19	1572.84
384.39	1490.92
384.58	1591.56
384.78	1530.71
384.97	1540.07
385.17	1591.56
385.36	1565.82
385.56	1561.14
385.75	1535.39
385.95	1664.12
386.14	1558.80
386.34	1533.05
386.53	1603.27
386.72	1577.52
386.92	1701.57
387.11	1664.12
387.31	1638.38
387.50	1664.12
387.70	1575.18
387.89	1631.35
388.09	1717.95
388.28	1603.27
388.48	1584.54
388.67	1685.19
388.86	1643.06
389.06	1689.87
389.25	1734.34
389.45	1647.74
389.64	1638.38
389.84	1816.26
390.03	1846.68
390.22	1818.60
390.42	1743.70
390.61	1746.04
390.81	1753.06
391.00	1783.49
391.19	1797.53
391.39	1809.23
391.58	1858.39
391.78	1785.83
391.97	1863.07
392.16	1874.77
392.36	1905.20
392.55	1884.13
392.75	2003.50
392.94	1895.83
393.13	1940.30
393.33	1844.34
393.52	1940.30
393.71	2071.37
393.91	1987.11
394.10	1886.47
394.29	1984.77
394.49	1996.48
394.68	2073.71
394.88	1991.80
395.07	2106.48
395.26	2057.33
395.46	1991.80
395.65	2134.57
395.84	2040.95
396.04	2139.25
396.23	2134.57
396.42	2076.06
396.62	2183.72
396.81	2183.72
397.00	2031.58
397.19	2097.12
397.39	2207.13
397.58	2200.10
397.77	2190.74
397.97	2244.57
398.16	2225.85
398.35	2361.60
398.55	2289.04
398.74	2385.01
398.93	2380.32
399.12	2321.81
399.32	2237.55
399.51	2289.04
399.70	2403.73
399.90	2270.32
400.09	2429.48
400.28	2495.01
400.47	2445.86
400.67	2466.92
400.86	2466.92
401.05	2406.07
401.24	2530.12
401.44	2590.97
401.63	2464.58
401.82	2502.03
402.01	2548.84
402.21	2600.34
402.40	2642.46
402.59	2628.42
402.78	2682.25
402.97	2590.97
403.17	2623.74
403.36	2843.75
403.55	2715.02
403.74	2885.88
403.93	2895.24
404.13	2668.21
404.32	2867.16
404.51	2792.26
404.70	2899.92
404.89	2780.56
405.09	2829.71
405.28	2839.07
405.47	2965.46
405.66	2843.75
405.85	2967.80
406.05	2899.92
406.24	3030.99
406.43	2977.16
406.62	3164.40
406.81	3211.22
407.00	3002.91
407.20	3101.21
407.39	2935.03
407.58	3084.83
407.77	3180.79
407.96	3246.32
408.15	3164.40
408.34	3255.69
408.54	3283.77
408.73	3260.37
408.92	3258.03
409.11	3330.58
409.30	3318.88
409.49	3323.56
409.68	3396.12
409.87	3428.88
410.07	3459.31
410.26	3543.57
410.45	3449.95
410.64	3494.42
410.83	3599.74
411.02	3513.14
411.21	3473.36
411.40	3391.44
411.59	3651.24
411.78	3758.90
411.98	3721.45
412.17	3686.34
412.36	3721.45
412.55	3763.58
412.74	3894.65
412.93	3803.37
413.12	3908.69
413.31	4049.13
413.50	4016.36
413.69	3978.91
413.88	3953.16
414.07	3990.61
414.26	4056.15
414.45	4121.68
414.64	4133.39
414.83	4191.90
415.02	4250.41
415.22	4344.03
415.41	4252.75
415.60	4280.84
415.79	4386.16
415.98	4351.06
416.17	4372.12
416.36	4517.23
416.55	4472.76
416.74	4542.98
416.93	4423.61
417.12	4526.60
417.31	4737.24
417.50	4573.41
417.69	4699.80
417.88	4755.97
418.07	4772.35
418.26	4678.73
418.45	4809.80
418.64	4887.04
418.83	4798.10
419.02	4894.06
419.21	4887.04
419.39	4926.83
419.58	4910.44
419.77	4844.91
419.96	4973.64
420.15	5118.75
420.34	5022.79
420.53	4945.55
420.72	5247.48
420.91	5029.81
421.10	5109.39
421.29	5188.97
421.48	4983.00
421.67	5362.17
421.86	5200.67
422.05	5310.68
422.24	5240.46
422.43	5313.02
422.61	5385.57
422.80	5305.99
422.99	5214.71
423.18	5448.77
423.37	5455.79
423.56	5408.98
423.75	5254.50
423.94	5221.74
424.13	4975.98
424.32	5090.67
424.50	5291.95
424.69	5547.07
424.88	5533.03
425.07	5357.49
425.26	5364.51
425.45	5446.43
425.64	5481.53
425.83	5397.28
426.01	5516.64
426.20	5416.00
426.39	5687.50
426.58	5561.11
426.77	5528.35
426.96	5680.48
427.15	5446.43
427.33	5682.82
427.52	5572.82
427.71	5591.54
427.90	5586.86
428.09	5516.64
428.28	5703.89
428.46	5856.02
428.65	5776.44
428.84	5893.47
429.03	5874.74
429.22	5818.57
429.40	5935.60
429.59	5984.75
429.78	5757.72
429.97	5792.83
430.16	5984.75
430.34	5898.15
430.53	6057.31
430.72	6195.40
430.91	5996.45
431.10	5820.91
431.28	6204.76
431.47	6202.42
431.66	6303.06
431.85	6214.12
432.03	6279.66
432.22	6396.68
432.41	6270.30
432.60	6282.00
432.79	6310.08
432.97	6438.81
433.16	6422.43
433.35	6546.48
433.54	6487.96
433.72	6642.44
433.91	6600.31
434.10	6588.61
434.28	6469.24
434.47	6637.76
434.66	6633.08
434.85	6616.69
435.03	6942.03
435.22	6930.33
435.41	7260.34
435.59	7157.36
435.78	7227.57
435.97	6925.65
436.16	6965.43
436.34	6897.56
436.53	6857.77
436.72	7243.96
436.90	6913.94
437.09	7190.13
437.28	6890.54
437.46	7119.91
437.65	7152.68
437.84	7206.51
438.02	7129.27
438.21	7258.00
438.40	6916.28
438.58	7360.98
438.77	7566.95
438.96	7419.50
439.14	7609.08
439.33	7733.13
439.52	7618.44
439.70	7513.12
439.89	7833.77
440.08	7878.24
440.26	7892.29
440.45	7691.00
440.63	7967.18
440.82	8023.36
441.01	7953.14
441.19	8170.81
441.38	8049.10
441.57	8203.58
441.75	8241.03
441.94	8446.99
442.12	8367.42
442.31	8564.02
442.50	8411.89
442.68	8486.78
442.87	8540.61
443.05	8566.36
443.24	8636.58
443.43	8753.60
443.61	8549.98
443.80	9095.32
443.98	8671.68
444.17	8255.07
444.35	8777.01
444.54	8898.72
444.73	8748.92
444.91	8716.16
445.10	8912.76
445.28	8816.80
445.47	8798.07
445.65	8610.83
445.84	8987.66
446.02	9055.53
446.21	8915.10
446.39	8903.40
446.58	8966.59
446.77	9013.40
446.95	8793.39
447.14	8901.06
447.32	8933.82
447.51	8978.30
447.69	9050.85
447.88	8894.04
448.06	9020.42
448.25	8973.61
448.43	9231.07
448.62	8940.85
448.80	8828.50
448.99	9085.96
449.17	9125.75
449.36	9144.47
449.54	9291.93
449.73	9441.72
449.91	9619.60
450.10	9390.23
450.28	9547.05
450.46	9518.96
450.65	9575.13
450.83	9533.00
451.02	9448.74
451.20	9717.90
451.39	9647.69
451.57	9757.69
451.76	9533.00
451.94	9490.87
452.13	9841.95
452.31	9565.77
452.49	9619.60
452.68	9823.23
452.86	9837.27
453.05	9818.55
453.23	9863.02
453.42	9902.81
453.60	9905.15
453.78	10040.90
453.97	9863.02
454.15	9820.89
454.34	9956.64
454.52	10167.29
454.70	10005.79
454.89	10141.54
455.07	10244.52
455.26	10214.10
455.44	10340.49
455.62	10251.55
455.81	10450.49
455.99	10394.32
456.17	10693.91
456.36	10523.05
456.54	10626.03
456.73	10771.15
456.91	10897.53
457.09	10949.03
457.28	10911.58
457.46	10572.20
457.64	11066.05
457.83	11236.91
458.01	10918.60
458.19	11283.72
458.38	11037.97
458.56	11206.48
458.74	11176.06
458.93	11220.53
459.11	11176.06
459.29	11346.92
459.48	11499.05
459.66	11246.27
459.84	11410.11
460.03	11569.27
460.21	11552.88
460.39	11520.12
460.57	11389.05
460.76	11641.82
460.94	11604.38
461.12	11847.79
461.31	11618.42
461.49	11623.10
461.67	11587.99
461.85	11983.54
462.04	11850.13
462.22	12243.34
462.40	12009.29
462.59	11915.67
462.77	11939.07
462.95	12161.42
463.13	12077.16
463.32	12142.70
463.50	12159.08
463.68	12219.94
463.86	12201.21
464.05	12109.93
464.23	12079.50
464.41	12568.68
464.59	12224.62
464.78	12690.38
464.96	12496.12
465.14	12421.22
465.32	12664.64
465.50	12603.78
465.69	12849.54
465.87	12870.61
466.05	12545.27
466.23	12568.68
466.41	12868.27
466.60	12940.82
466.78	12723.15
466.96	12674.00
467.14	12812.09
467.32	12760.60
467.51	12950.18
467.69	12816.77
467.87	13118.70
468.05	13029.76
468.23	13163.17
468.41	12896.35
468.60	13015.72
468.78	13308.29
468.96	13022.74
469.14	13582.13
469.32	13544.68
469.50	13310.63
469.69	13488.51
469.87	13448.72
470.05	13275.52
470.23	13776.39
470.41	13577.45
470.59	13888.74
470.77	13713.20
470.95	13968.32
471.14	14190.67
471.32	13696.82
471.50	14202.37
471.68	14193.01
471.86	14115.77
472.04	13968.32
472.22	14539.41
472.40	14083.00
472.58	14497.28
472.77	14661.12
472.95	14717.29
473.13	15042.62
473.31	14464.51
473.49	14913.89
473.67	14642.39
473.85	14850.70
474.03	15215.82
474.21	15087.09
474.39	15325.83
474.57	14925.60
474.75	15660.52
474.93	15405.41
475.12	15580.95
475.30	15557.54
475.48	15580.95
475.66	15697.97
475.84	15653.50
476.02	16149.70
476.20	16098.20
476.38	16100.55
476.56	16425.88
476.74	16428.22
476.92	16341.62
477.10	16484.39
477.28	16795.68
477.46	16540.57
477.64	16896.33
477.82	16865.90
478.00	17694.45
478.18	17116.34
478.36	17781.05
478.54	17827.86
478.72	18024.47
478.90	18178.94
479.08	17998.72
479.26	18214.05
479.44	18317.03
479.62	18441.08
479.80	18682.16
479.98	19028.56
480.16	19309.42
480.34	18707.90
480.52	18925.57
480.70	19597.31
480.88	19103.45
481.06	19293.04
481.24	19419.42
481.41	19653.48
481.59	20053.71
481.77	20201.16
481.95	20074.77
482.13	20496.07
482.31	20343.94
482.49	21331.64
482.67	20720.76
482.85	21209.93
483.03	21373.77
483.21	21263.77
483.39	21394.84
483.57	21570.38
483.74	21827.84
483.92	22333.39
484.10	21914.44
484.28	22405.95
484.46	22604.89
484.64	23091.73
484.82	22640.00
485.00	23248.54
485.18	23510.68
485.35	23688.56
485.53	23859.42
485.71	24137.94
485.89	24336.89
486.07	24208.16
486.25	24037.30
486.43	24575.62
486.61	24692.65
486.78	25069.48
486.96	25158.42
487.14	25516.52
487.32	25303.53
487.50	25638.23
487.68	25846.54
487.85	26157.83
488.03	26508.91
488.21	26927.86
488.39	26485.50
488.57	26675.09
488.75	26813.18
488.92	27115.11
489.10	27475.55
489.28	27730.67
489.46	28264.31
489.64	28016.21
489.81	28517.09
489.99	28526.45
490.17	28444.53
490.35	29029.66
490.53	28924.34
490.70	29488.41
490.88	29127.97
491.06	29380.74
491.24	29575.01
491.41	29738.85
491.59	30384.83
491.77	30508.88
491.95	30501.86
492.13	30649.32
492.30	30742.94
492.48	30998.06
492.66	30934.86
492.84	31271.90
493.01	31714.26
493.19	31484.89
493.37	32123.85
493.54	32290.03
493.72	32063.00
493.90	32285.35
494.08	32327.48
494.25	32877.51
494.43	32481.95
494.61	33170.07
494.79	33347.95
494.96	32989.85
495.14	33127.94
495.32	33741.16
495.49	34443.32
495.67	34246.72
495.85	34174.16
496.02	34754.61
496.20	34864.62
496.38	34918.45
496.55	35152.51
496.73	35906.16
496.91	35065.91
497.09	35681.47
497.26	35831.26
497.44	35658.06
497.62	35817.22
497.79	36594.28
497.97	36601.30
498.14	37003.87
498.32	37261.33
498.50	37549.21
498.67	37200.47
498.85	36992.17
499.03	37638.15
499.20	37806.67
499.38	37727.10
499.56	37724.75
499.73	37996.26
499.91	38026.68
500.08	38487.77
500.26	38279.46
500.44	38593.09
500.61	39035.45
500.79	38990.98
500.97	38869.28
501.14	39768.04
501.32	39166.52
501.49	39377.17
501.67	39611.23
501.84	39957.63
502.02	39814.85
502.20	40212.74
502.37	40282.96
502.55	40273.60
502.72	40299.34
502.90	40287.64
503.07	40942.99
503.25	40634.04
503.43	40261.90
503.60	41092.79
503.78	41277.69
503.95	40608.29
504.13	41048.32
504.30	41453.23
504.48	41425.14
504.65	41947.08
504.83	42492.43
505.01	42265.39
505.18	42347.31
505.36	42590.73
505.53	41825.37
505.71	42429.23
505.88	42436.25
506.06	42600.09
506.23	43236.72
506.41	42712.44
506.58	43210.97
506.76	42871.59
506.93	42895.00
507.11	43058.84
507.28	43721.21
507.46	43648.65
507.63	44046.54
507.81	44009.09
507.98	43838.23
508.16	43810.15
508.33	44254.85
508.50	44264.21
508.68	44751.04
508.85	44828.28
509.03	44294.64
509.20	44526.35
509.38	45263.62
509.55	45326.81
509.73	45343.20
509.90	45799.60
510.08	45771.52
510.25	45500.01
510.42	45478.95
510.60	45804.28
510.77	45851.09
510.95	46326.22
511.12	45799.60
511.30	46309.84
511.47	46646.88
511.64	46749.86
511.82	46836.46
511.99	46492.40
512.17	46824.76
512.34	46983.91
512.51	47393.51
512.69	47442.66
512.86	47281.16
513.04	47456.70
513.21	47681.39
513.38	47332.65
513.56	47737.57
513.73	47920.13
513.90	48098.01
514.08	47959.92
514.25	47943.53
514.43	48254.82
514.60	48168.22
514.77	48264.19
514.95	48439.73
515.12	48233.76
515.29	48514.62
515.47	48863.36
515.64	49059.97
515.81	48652.72
515.99	48746.34
516.16	49153.59
516.33	49275.30
516.51	49752.77
516.68	49371.26
516.85	49546.80
517.03	49511.69
517.20	49668.51
517.37	49593.61
517.54	49715.32
517.72	49738.72
517.89	49951.71
518.06	50527.48
518.24	50225.56
518.41	50234.92
518.58	50064.06
518.75	49736.38
518.93	50480.67
519.10	50286.41
519.27	50649.19
519.45	50478.33
519.62	50969.85
519.79	50588.34
519.96	50705.37
520.14	50852.82
520.31	50738.13
520.48	51192.20
520.65	50934.74
520.83	51100.92
521.00	51320.93
521.17	51199.22
521.34	51587.75
521.52	51562.00
521.69	51309.22
521.86	51606.47
522.03	51990.32
522.20	51777.33
522.38	52325.02
522.55	52051.17
522.72	52463.11
522.89	52360.12
523.07	52514.60
523.24	52203.31
523.41	52729.93
523.58	52355.44
523.75	52802.49
523.92	52570.77
524.10	52638.65
524.27	52879.72
524.44	52774.40
524.61	52823.55
524.78	52758.02
524.96	52851.64
525.13	53083.35
525.30	53382.94
525.47	53249.53
525.64	53279.96
525.81	53322.08
525.98	53357.19
526.16	53083.35
526.33	53308.04
526.50	53598.27
526.67	53413.37
526.84	53874.45
527.01	53829.98
527.18	53837.00
527.36	53776.15
527.53	53991.48
527.70	54255.96
527.87	53846.36
528.04	54152.97
528.21	54342.56
528.38	54227.87
528.55	54508.74
528.72	54010.20
528.89	54621.08
529.07	54106.16
529.24	54293.41
529.41	54405.75
529.58	54361.28
529.75	54600.02
529.92	54717.04
530.09	54473.63
530.26	54759.17
530.43	54801.30
530.60	54466.61
530.77	54717.04
530.94	55000.25
531.11	55061.10
531.28	55138.34
531.46	54820.03
531.63	55033.02
531.80	54939.39
531.97	55224.94
532.14	55250.69
532.31	55077.49
532.48	55096.21
532.65	55573.68
532.82	55185.15
532.99	55508.14
533.16	55173.45
533.33	55674.32
533.50	55475.38
533.67	55690.71
533.84	55402.82
534.01	55489.42
534.18	55831.14
534.35	56119.02
534.52	55882.63
534.69	55744.54
534.86	55950.51
535.03	55831.14
535.20	55863.91
535.37	56062.85
535.54	56334.35
535.71	56037.11
535.88	56170.52
536.05	56090.94
536.22	56133.07
536.38	56210.31
536.55	56116.68
536.72	56292.22
536.89	56271.16
537.06	56268.82
537.23	56797.78
537.40	56395.21
537.57	56498.19
537.74	56332.01
537.91	56601.18
538.08	56638.62
538.25	56399.89
538.42	56804.80
538.59	56952.26
538.75	56678.41
538.92	56631.60
539.09	56935.87
539.26	56601.18
539.43	56994.39
539.60	57146.52
539.77	57043.54
539.94	57001.41
540.11	57041.20
540.28	57380.57
540.44	57329.08
540.61	57193.33
540.78	57160.56
540.95	57176.95
541.12	57198.01
541.29	57336.10
541.46	57413.34
541.62	57567.82
541.79	57462.49
541.96	57399.30
542.13	57485.90
542.30	57347.81
542.47	57811.23
542.63	57675.48
542.80	57628.67
542.97	57907.19
543.14	58078.05
543.31	58042.95
543.48	58007.84
543.64	58024.22
543.81	58131.89
543.98	58181.04
544.15	57790.17
544.32	58110.82
544.48	58321.47
544.65	58225.51
544.82	58176.36
544.99	58101.46
545.16	58220.83
545.32	58438.50
545.49	58529.78
545.66	58824.68
545.83	58836.39
546.00	58951.07
546.16	58667.87
546.33	58520.41
546.50	58258.27
546.67	58506.37
546.83	58012.52
547.00	58412.75
547.17	58277.00
547.34	58424.45
547.50	58599.99
547.67	58969.80
547.84	58848.09
548.00	58974.48
548.17	59138.32
548.34	58951.07
548.51	58866.81
548.67	58829.37
548.84	58866.81
549.01	58705.32
549.18	59068.10
549.34	58897.24
549.51	59168.74
549.68	58990.86
549.84	59250.66
550.01	59030.65
550.18	58820.00
550.34	59086.82
550.51	59187.47
550.68	58948.73
550.84	59131.29
551.01	59341.94
551.18	59278.75
551.34	59166.40
551.51	59344.28
551.68	59260.02
551.84	59175.76
552.01	59337.26
552.18	59374.71
552.34	59281.09
552.51	59686.00
552.68	59325.56
552.84	59599.40
553.01	59351.30
553.18	59686.00
553.34	59592.38
553.51	59440.24
553.67	59618.13
553.84	59847.50
554.01	59887.29
554.17	59648.55
554.34	59716.43
554.51	59859.20
554.67	59758.56
554.84	59629.83
555.00	59515.14
555.17	59566.63
555.33	59842.82
555.50	59664.94
555.67	59653.23
555.83	59852.18
556.00	59803.03
556.16	60062.83
556.33	60004.31
556.50	59693.02
556.66	59779.62
556.83	59788.98
556.99	60095.60
557.16	60250.07
557.32	60331.99
557.49	60224.32
557.65	60030.06
557.82	60214.96
557.98	60044.10
558.15	59824.09
558.32	60130.70
558.48	60025.38
558.65	60371.78
558.81	60231.35
558.98	60097.94
559.14	60350.71
559.31	60224.32
559.47	60306.24
559.64	60418.59
559.80	60243.05
559.97	60196.24
560.13	60051.12
560.30	60196.24
560.46	60449.02
560.63	60509.87
560.79	60573.06
560.96	60767.33
561.12	60542.64
561.29	60329.65
561.45	60472.42
561.61	60402.21
561.78	60334.33
561.94	60631.58
562.11	60622.22
562.27	60683.07
562.44	60715.84
562.60	60919.46
562.77	60743.92
562.93	60575.40
563.10	60924.14
563.26	60573.06
563.42	60814.14
563.59	60582.43
563.75	60825.84
563.92	60786.05
564.08	60760.31
564.24	60837.54
564.41	60746.26
564.57	60711.16
564.74	60552.00
564.90	60992.02
565.07	60935.85
565.23	60928.83
565.39	60987.34
565.56	61062.24
565.72	61127.77
565.88	60886.70
566.05	60947.55
566.21	60774.35
566.38	60701.79
566.54	60914.78
566.70	60980.32
566.87	61207.35
567.03	60928.83
567.19	61303.31
567.36	61109.05
567.52	61104.37
567.68	60966.27
567.85	61055.21
568.01	61291.61
568.17	60924.14
568.34	61003.72
568.50	61052.87
568.66	60942.87
568.83	61160.54
568.99	61010.74
569.15	60835.20
569.32	61174.58
569.48	60811.80
569.64	61097.34
569.81	60999.04
569.97	60867.97
570.13	61169.90
570.30	61167.56
570.46	61137.13
570.62	61272.88
570.78	61230.75
570.95	60942.87
571.11	61244.80
571.27	61102.03
571.43	61139.47
571.60	61186.28
571.76	61029.47
571.92	61305.65
572.09	61279.91
572.25	61310.33
572.41	61333.74
572.57	61261.18
572.74	61228.41
572.90	61116.07
573.06	61221.39
573.22	61399.27
573.38	61233.10
573.55	61181.60
573.71	61652.05
573.87	61268.20
574.03	61268.20
574.20	61572.47
574.36	61476.51
574.52	61315.01
574.68	61366.51
574.84	61315.01
575.01	61408.64
575.17	61434.38
575.33	61371.19
575.49	61539.71
575.65	61647.37
575.82	61516.30
575.98	61277.57
576.14	61640.35
576.30	61544.39
576.46	61453.11
576.62	61228.41
576.79	61371.19
576.95	61366.51
577.11	61546.73
577.27	61485.87
577.43	61581.84
577.59	61542.05
577.75	61563.11
577.92	61352.46
578.08	61408.64
578.24	61432.04
578.40	61558.43
578.56	61464.81
578.72	61605.24
578.88	61818.23
579.04	61633.33
579.21	61687.16
579.37	61642.69
579.53	61595.88
579.69	61401.61
579.85	61595.88
580.01	61574.81
580.17	61638.01
580.33	61556.09
580.49	61740.99
580.65	61834.61
580.82	61759.72
580.98	61488.21
581.14	61668.44
581.30	61696.52
581.46	61364.17
581.62	61638.01
581.78	61455.45
581.94	61595.88
582.10	61518.64
582.26	61609.92
582.42	61598.22
582.58	61743.33
582.74	61757.38
582.90	61776.10
583.06	61794.82
583.22	61642.69
583.38	61490.55
583.54	61595.88
583.70	61446.08
583.86	61710.56
584.02	61605.24
584.18	61773.76
584.34	61656.73
584.50	61715.25
584.66	61638.01
584.82	61495.24
584.98	61914.19
585.14	61736.31
585.30	61806.53
585.46	61591.20
585.62	61572.47
585.78	61808.87
585.94	61701.20
586.10	61724.61
586.26	61972.70
586.42	61750.35
586.58	61855.68
586.74	61872.06
586.90	61918.87
587.06	61675.46
587.22	61965.68
587.38	61907.17
587.54	61958.66
587.70	62298.04
587.86	61836.95
