SpectraSuite Data File
++++++++++++++++++++++++++++++++++++
Date: Thu Oct 24 13:21:23 EDT 2013
User: stostad
Dark Spectrum Present: No
Reference Spectrum Present: No
Number of Sampled Component Spectra: 1
Spectrometers: USB2+H05261
Integration Time (usec): 100000 (USB2+H05261)
Spectra Averaged: 1 (USB2+H05261)
Boxcar Smoothing: 0 (USB2+H05261)
Correct for Electrical Dark: No (USB2+H05261)
Strobe/Lamp Enabled: No (USB2+H05261)
Correct for Detector Non-linearity: No (USB2+H05261)
Correct for Stray Light: No (USB2+H05261)
Number of Pixels in Processed Spectrum: 2048
>>>>>Begin Processed Spectral Data<<<<<
365.73	587.47
365.92	587.47
366.12	587.47
366.32	496.19
366.52	456.40
366.72	472.79
366.91	482.15
367.11	472.79
367.31	468.11
367.51	440.02
367.70	442.36
367.90	437.68
368.10	489.17
368.30	503.22
368.49	430.66
368.69	496.19
368.89	554.71
369.09	465.77
369.28	491.51
369.48	472.79
369.68	550.03
369.87	496.19
370.07	557.05
370.27	545.34
370.47	674.07
370.66	812.17
370.86	849.61
371.06	950.26
371.25	917.49
371.45	933.87
371.65	997.07
371.84	961.96
372.04	961.96
372.24	887.06
372.44	1001.75
372.63	884.72
372.83	1015.79
373.03	1015.79
373.22	954.94
373.42	1027.50
373.62	1064.94
373.81	1004.09
374.01	1074.31
374.21	1088.35
374.40	968.98
374.60	1032.18
374.79	1060.26
374.99	1029.84
375.19	1093.03
375.38	1093.03
375.58	997.07
375.78	1074.31
375.97	1062.60
376.17	1163.25
376.37	978.34
376.56	1130.48
376.76	1083.67
376.95	1093.03
377.15	1102.39
377.35	1153.88
377.54	1167.93
377.74	1116.44
377.93	1097.71
378.13	1111.75
378.33	1097.71
378.52	1111.75
378.72	1153.88
378.91	1132.82
379.11	1196.01
379.31	1170.27
379.50	1160.91
379.70	1188.99
379.89	1196.01
380.09	1172.61
380.28	1205.38
380.48	1207.72
380.68	1188.99
380.87	1242.82
381.07	1270.91
381.26	1263.89
381.46	1203.04
381.65	1212.40
381.85	1247.51
382.04	1217.08
382.24	1254.53
382.43	1324.74
382.63	1284.95
382.83	1245.16
383.02	1249.85
383.22	1331.76
383.41	1203.04
383.61	1242.82
383.80	1331.76
384.00	1275.59
384.19	1306.02
384.39	1306.02
384.58	1282.61
384.78	1287.29
384.97	1380.92
385.17	1329.42
385.36	1331.76
385.56	1287.29
385.75	1277.93
385.95	1376.24
386.14	1324.74
386.34	1313.04
386.53	1413.68
386.72	1373.89
386.92	1458.15
387.11	1446.45
387.31	1420.71
387.50	1362.19
387.70	1444.11
387.89	1350.49
388.09	1401.98
388.28	1455.81
388.48	1413.68
388.67	1453.47
388.86	1528.37
389.06	1547.09
389.25	1486.24
389.45	1504.96
389.64	1540.07
389.84	1502.62
390.03	1519.01
390.22	1593.90
390.42	1495.60
390.61	1511.99
390.81	1495.60
391.00	1511.99
391.19	1509.65
391.39	1500.28
391.58	1535.39
391.78	1607.95
391.97	1582.20
392.16	1563.48
392.36	1682.85
392.55	1619.65
392.75	1593.90
392.94	1673.48
393.13	1675.82
393.33	1607.95
393.52	1638.38
393.71	1645.40
393.91	1640.72
394.10	1717.95
394.29	1645.40
394.49	1664.12
394.68	1734.34
394.88	1703.91
395.07	1715.61
395.26	1701.57
395.46	1748.38
395.65	1717.95
395.84	1753.06
396.04	1837.32
396.23	1813.92
396.42	1926.26
396.62	1811.57
396.81	1884.13
397.00	1734.34
397.19	1785.83
397.39	1818.60
397.58	1842.00
397.77	1753.06
397.97	1872.43
398.16	1916.90
398.35	1928.60
398.55	1954.35
398.74	1984.77
398.93	2036.27
399.12	1996.48
399.32	2005.84
399.51	2052.65
399.70	2045.63
399.90	2031.58
400.09	2012.86
400.28	2127.55
400.47	2038.61
400.67	2026.90
400.86	2127.55
401.05	2038.61
401.24	2090.10
401.44	2108.82
401.63	2129.89
401.82	2115.84
402.01	2150.95
402.21	2113.50
402.40	2251.60
402.59	2141.59
402.78	2305.43
402.97	2162.66
403.17	2176.70
403.36	2328.83
403.55	2258.62
403.74	2354.58
403.93	2380.32
404.13	2345.22
404.32	2401.39
404.51	2380.32
404.70	2267.98
404.89	2319.47
405.09	2422.45
405.28	2511.39
405.47	2415.43
405.66	2452.88
405.85	2392.03
406.05	2537.14
406.24	2473.95
406.43	2459.90
406.62	2593.31
406.81	2518.42
407.00	2583.95
407.20	2572.25
407.39	2527.78
407.58	2541.82
407.77	2614.38
407.96	2684.59
408.15	2689.28
408.34	2642.46
408.54	2703.32
408.73	2722.04
408.92	2696.30
409.11	2778.22
409.30	2724.38
409.49	2839.07
409.68	2864.82
409.87	2696.30
410.07	2925.67
410.26	2930.35
410.45	2832.05
410.64	2904.60
410.83	2881.20
411.02	3014.61
411.21	3096.53
411.40	2991.20
411.59	3077.80
411.78	2984.18
411.98	3094.19
412.17	3028.65
412.36	3197.17
412.55	3089.51
412.74	3241.64
412.93	3243.98
413.12	3246.32
413.31	3410.16
413.50	3346.97
413.69	3286.11
413.88	3353.99
414.07	3405.48
414.26	3335.26
414.45	3440.59
414.64	3393.78
414.83	3447.61
415.02	3529.53
415.22	3459.31
415.41	3630.17
415.60	3463.99
415.79	3550.59
415.98	3653.58
416.17	3721.45
416.36	3747.20
416.55	3730.81
416.74	3634.85
416.93	3602.08
417.12	3744.86
417.31	3892.31
417.50	3747.20
417.69	4025.72
417.88	3995.29
418.07	3845.50
418.26	3950.82
418.45	3953.16
418.64	4049.13
418.83	4072.53
419.02	3978.91
419.21	4128.70
419.39	4025.72
419.58	4091.26
419.77	4018.70
419.96	4215.30
420.15	4170.83
420.34	4107.64
420.53	4189.56
420.72	4229.35
420.91	4229.35
421.10	4222.33
421.29	4315.95
421.48	4322.97
421.67	4411.91
421.86	4390.84
422.05	4311.27
422.24	4458.72
422.43	4344.03
422.61	4241.05
422.80	4512.55
422.99	4325.31
423.18	4477.44
423.37	4449.36
423.56	4409.57
423.75	4421.27
423.94	4273.82
424.13	4198.92
424.32	4264.46
424.50	4423.61
424.69	4538.30
424.88	4573.41
425.07	4496.17
425.26	4360.42
425.45	4470.42
425.64	4493.83
425.83	4475.10
426.01	4500.85
426.20	4531.28
426.39	4414.25
426.58	4498.51
426.77	4645.96
426.96	4697.46
427.15	4578.09
427.33	4697.46
427.52	4493.83
427.71	4681.07
427.90	4671.71
428.09	4732.56
428.28	4648.30
428.46	4725.54
428.65	4692.77
428.84	4936.19
429.03	5001.72
429.22	4795.76
429.40	4910.44
429.59	4695.11
429.78	4791.08
429.97	4716.18
430.16	4992.36
430.34	4924.49
430.53	4978.32
430.72	5067.26
430.91	4889.38
431.10	5020.45
431.28	5174.92
431.47	5095.35
431.66	5137.48
431.85	5277.91
432.03	5256.84
432.22	5245.14
432.41	5207.69
432.60	5320.04
432.79	5205.35
432.97	5224.08
433.16	5315.36
433.35	5324.72
433.54	5184.29
433.72	5425.36
433.91	5586.86
434.10	5432.38
434.28	5392.59
434.47	5500.26
434.66	5542.39
434.85	5713.25
435.03	5661.76
435.22	5612.60
435.41	6022.20
435.59	5905.17
435.78	5722.61
435.97	5832.62
436.16	5760.06
436.34	5666.44
436.53	5895.81
436.72	5788.14
436.90	5708.57
437.09	5860.70
437.28	5736.65
437.46	5928.58
437.65	5811.55
437.84	5834.96
438.02	6017.52
438.21	5989.43
438.40	5930.92
438.58	6080.71
438.77	5959.00
438.96	6052.63
439.14	6286.68
439.33	6202.42
439.52	6333.49
439.70	6256.25
439.89	6363.92
440.08	6403.71
440.26	6604.99
440.45	6326.47
440.63	6473.92
440.82	6633.08
441.01	6637.76
441.19	6642.44
441.38	6572.22
441.57	6757.13
441.75	6750.10
441.94	6895.22
442.12	6794.58
442.31	7002.88
442.50	6860.11
442.68	6965.43
442.87	7040.33
443.05	7241.62
443.24	7265.02
443.43	7026.29
443.61	7105.87
443.80	7204.17
443.98	7047.35
444.17	6937.35
444.35	7199.49
444.54	7208.85
444.73	7082.46
444.91	7131.61
445.10	7260.34
445.28	7239.28
445.47	7197.15
445.65	7162.04
445.84	7192.47
446.02	7290.77
446.21	7293.11
446.39	7171.40
446.58	7407.80
446.77	7386.73
446.95	7187.79
447.14	7166.72
447.32	7400.77
447.51	7414.82
447.69	7250.98
447.88	7391.41
448.06	7337.58
448.25	7316.51
448.43	7440.56
448.62	7365.67
448.80	7215.87
448.99	7510.78
449.17	7541.21
449.36	7410.14
449.54	7431.20
449.73	7880.58
449.91	7843.14
450.10	7625.47
450.28	7744.83
450.46	7721.43
450.65	7733.13
450.83	7726.11
451.02	7658.23
451.20	7819.73
451.39	7737.81
451.57	7723.77
451.76	7929.74
451.94	7967.18
452.13	8051.44
452.31	7885.26
452.49	7871.22
452.68	7896.97
452.86	8002.29
453.05	8147.40
453.23	8107.62
453.42	8056.12
453.60	8098.25
453.78	8182.51
453.97	8152.09
454.15	8255.07
454.34	8105.28
454.52	8189.53
454.70	8250.39
454.89	8292.52
455.07	8631.90
455.26	8446.99
455.44	8353.37
455.62	8404.86
455.81	8681.05
455.99	8519.55
456.17	8470.40
456.36	8432.95
456.54	8669.34
456.73	8751.26
456.91	8884.67
457.09	9015.74
457.28	9043.83
457.46	8863.61
457.64	8847.22
457.83	9032.13
458.01	8821.48
458.19	9109.36
458.38	8957.23
458.56	9207.67
458.74	9167.88
458.93	9123.41
459.11	9221.71
459.29	9235.75
459.48	9231.07
459.66	9277.88
459.84	9345.76
460.03	9212.35
460.21	9263.84
460.39	9355.12
460.57	9327.03
460.76	9469.81
460.94	9437.04
461.12	9516.62
461.31	9462.79
461.49	9530.66
461.67	9540.02
461.85	9727.27
462.04	9689.82
462.22	10068.98
462.40	9949.62
462.59	9488.53
462.77	9507.26
462.95	9823.23
463.13	9797.48
463.32	9879.40
463.50	9930.89
463.68	9851.31
463.86	10029.20
464.05	9893.44
464.23	9804.50
464.41	10076.01
464.59	9860.68
464.78	10228.14
464.96	10270.27
465.14	10040.90
465.32	10164.95
465.50	10017.49
465.69	10497.30
465.87	10270.27
466.05	10200.05
466.23	10506.66
466.41	10455.17
466.60	10700.93
466.78	10523.05
466.96	10462.19
467.14	10375.59
467.32	10537.09
467.51	10750.08
467.69	10232.82
467.87	10576.88
468.05	10581.56
468.23	10611.99
468.41	10356.87
468.60	10686.89
468.78	10670.50
468.96	10836.68
469.14	10857.75
469.32	10960.73
469.50	10686.89
469.69	10984.13
469.87	10867.11
470.05	11030.94
470.23	11070.73
470.41	11190.10
470.59	11185.42
470.77	11178.40
470.95	11105.84
471.14	11248.61
471.32	11318.83
471.50	11281.38
471.68	11269.68
471.86	11375.00
472.04	11496.71
472.22	11850.13
472.40	11508.41
472.58	11571.61
472.77	11630.12
472.95	11829.07
473.13	11990.56
473.31	11758.85
473.49	11950.78
473.67	11859.49
473.85	12056.10
474.03	12266.75
474.21	12423.56
474.39	12180.15
474.57	12322.92
474.75	12404.84
474.93	12905.71
475.12	12453.99
475.30	12840.18
475.48	12791.03
475.66	12858.90
475.84	12510.16
476.02	12858.90
476.20	12980.61
476.38	13109.34
476.56	13144.45
476.74	13378.50
476.92	13312.97
477.10	12896.35
477.28	13404.25
477.46	13607.87
477.64	13827.88
477.82	13844.27
478.00	14141.52
478.18	14029.17
478.36	14347.48
478.54	14253.86
478.72	14237.48
478.90	14310.04
479.08	14586.22
479.26	14787.50
479.44	14780.48
479.62	14773.46
479.80	15204.12
479.98	15119.86
480.16	15541.16
480.34	15236.89
480.52	15372.64
480.70	15606.69
480.88	15360.94
481.06	15587.97
481.24	15604.35
481.41	15843.09
481.59	16341.62
481.77	16245.66
481.95	16276.09
482.13	16318.22
482.31	16325.24
482.49	17092.93
482.67	16706.74
482.85	16741.85
483.03	17092.93
483.21	17790.41
483.39	17448.69
483.57	17469.76
483.74	17610.19
483.92	17804.46
484.10	17591.47
484.28	18235.11
484.46	18132.13
484.64	18724.29
484.82	18314.69
485.00	18464.49
485.18	18937.27
485.35	19176.01
485.53	19049.62
485.71	19133.88
485.89	19510.71
486.07	19534.11
486.25	19611.35
486.43	19243.88
486.61	19653.48
486.78	20020.94
486.96	20252.66
487.14	20386.07
487.32	20411.81
487.50	20594.37
487.68	20821.41
487.85	20812.04
488.03	21394.84
488.21	21385.47
488.39	21373.77
488.57	21507.18
488.75	21752.94
488.92	22005.72
489.10	22326.37
489.28	22085.30
489.46	22427.01
489.64	22174.24
489.81	23026.19
489.99	22871.72
490.17	23016.83
490.35	23318.76
490.53	23370.25
490.70	23445.15
490.88	23573.88
491.06	23770.48
491.24	23765.80
491.41	23929.64
491.59	24240.93
491.77	24547.54
491.95	24416.47
492.13	24683.29
492.30	24746.48
492.48	24603.71
492.66	24985.22
492.84	25062.46
493.01	25443.96
493.19	25249.70
493.37	25511.84
493.54	25710.78
493.72	25785.68
493.90	26024.42
494.08	26218.68
494.25	26354.43
494.43	26209.32
494.61	26593.17
494.79	26656.36
494.96	26562.74
495.14	26923.18
495.32	27243.84
495.49	27407.67
495.67	27424.06
495.85	27557.47
496.02	27824.29
496.20	27571.51
496.38	28027.92
496.55	28238.56
496.73	29020.30
496.91	28486.66
497.09	28264.31
497.26	28954.77
497.44	29034.35
497.62	28622.41
497.79	29450.96
497.97	29191.16
498.14	29649.91
498.32	30331.00
498.50	29710.76
498.67	30316.96
498.85	29874.60
499.03	30335.68
499.20	30223.34
499.38	30436.33
499.56	30452.71
499.73	30602.50
499.91	30609.53
500.08	30775.70
500.26	30263.13
500.44	30876.35
500.61	31105.72
500.79	30916.14
500.97	31810.22
501.14	31929.59
501.32	31618.30
501.49	31751.71
501.67	31969.38
501.84	32133.21
502.02	32034.91
502.20	32189.39
502.37	32659.84
502.55	31969.38
502.72	32254.92
502.90	32065.34
503.07	32385.99
503.25	33064.75
503.43	32290.03
503.60	33092.83
503.78	33120.92
503.95	32683.24
504.13	33200.50
504.30	33200.50
504.48	33464.98
504.65	33392.42
504.83	33560.94
505.01	34117.99
505.18	33675.63
505.36	34108.63
505.53	33916.70
505.71	34169.48
505.88	34448.00
506.06	34457.37
506.23	34719.51
506.41	34136.71
506.58	34281.83
506.76	34536.94
506.93	34731.21
507.11	35000.37
507.28	34916.11
507.46	35351.45
507.63	35487.20
507.81	35381.88
507.98	34930.16
508.16	35283.58
508.33	35629.98
508.50	35702.53
508.68	35798.49
508.85	35943.61
509.03	35765.73
509.20	35974.03
509.38	36587.25
509.55	36308.73
509.73	37078.77
509.90	36559.17
510.08	36725.35
510.25	36830.67
510.42	37167.71
510.60	37031.96
510.77	36924.29
510.95	37429.85
511.12	37120.90
511.30	37289.42
511.47	37684.97
511.64	37415.80
511.82	37951.79
511.99	37834.76
512.17	37799.65
512.34	38270.10
512.51	38782.68
512.69	38195.20
512.86	38670.33
513.04	38756.93
513.21	38527.56
513.38	38888.00
513.56	38665.65
513.73	38770.97
513.90	39161.84
514.08	39037.80
514.25	39166.52
514.43	39611.23
514.60	39313.98
514.77	39374.83
514.95	39557.39
515.12	39482.50
515.29	39639.31
515.47	40109.76
515.64	40418.71
515.81	40046.57
515.99	40346.15
516.16	39812.51
516.33	39978.69
516.51	40603.61
516.68	40474.88
516.85	40802.56
517.03	40418.71
517.20	40589.57
517.37	40900.86
517.54	40849.37
517.72	41158.32
517.89	41347.90
518.06	40952.35
518.24	41064.70
518.41	41610.04
518.58	41429.82
518.75	41497.70
518.93	41495.36
519.10	41378.33
519.27	41022.57
519.45	41558.55
519.62	42024.32
519.79	41808.99
519.96	42075.81
520.14	41893.25
520.31	41581.96
520.48	41801.97
520.65	42548.60
520.83	42735.84
521.00	42518.17
521.17	42415.19
521.34	42361.36
521.52	42450.30
521.69	42572.00
521.86	42745.20
522.03	42824.78
522.20	43037.77
522.38	43201.61
522.55	43208.63
522.72	43433.32
522.89	43030.75
523.07	43526.94
523.24	43112.67
523.41	43569.07
523.58	43400.55
523.75	43941.22
523.92	43388.85
524.10	44275.91
524.27	43812.49
524.44	44252.51
524.61	43981.01
524.78	44233.78
524.96	44198.68
525.13	44362.51
525.30	44912.54
525.47	44966.37
525.64	44746.36
525.81	44636.36
525.98	44903.18
526.16	45010.84
526.33	44905.52
526.50	44964.03
526.67	44790.83
526.84	45034.25
527.01	45048.29
527.18	45312.77
527.36	45155.96
527.53	45127.87
527.70	45607.68
527.87	45764.49
528.04	45752.79
528.21	45937.69
528.38	45804.28
528.55	46417.50
528.72	45722.37
528.89	45944.72
529.07	45918.97
529.24	45752.79
529.41	46309.84
529.58	46501.76
529.75	46454.95
529.92	46309.84
530.09	46529.85
530.26	46260.69
530.43	46174.09
530.60	45923.65
530.77	46653.90
530.94	46485.38
531.11	46766.24
531.28	46705.39
531.46	46681.98
531.63	47042.43
531.80	46831.78
531.97	46848.16
532.14	47014.34
532.31	47185.20
532.48	47274.14
532.65	47503.51
532.82	47103.28
532.99	47412.23
533.16	47180.52
533.33	47414.57
533.50	47704.80
533.67	47487.13
533.84	47732.89
534.01	47576.07
534.18	47760.97
534.35	48306.32
534.52	47571.39
534.69	47878.00
534.86	48112.05
535.03	47920.13
535.20	47922.47
535.37	48495.90
535.54	48910.17
535.71	47859.27
535.88	48044.18
536.05	48133.12
536.22	48919.54
536.38	48790.81
536.55	48652.72
536.72	48800.17
536.89	48575.48
537.06	48444.41
537.23	48954.64
537.40	49027.20
537.57	48208.01
537.74	48811.87
537.91	49254.23
538.08	49308.07
538.25	48629.31
538.42	48828.26
538.59	49261.26
538.75	48800.17
538.92	49368.92
539.09	48917.20
539.26	49223.81
539.43	49251.89
539.60	49537.44
539.77	49380.62
539.94	49727.02
540.11	49621.70
540.28	49743.41
540.44	50007.89
540.61	49677.87
540.78	49642.76
540.95	49893.20
541.12	49820.64
541.29	49855.75
541.46	50174.06
541.62	50115.55
541.79	50567.27
541.96	50145.98
542.13	50277.05
542.30	50307.47
542.47	50223.22
542.63	50305.13
542.80	50475.99
542.97	50880.91
543.14	51091.55
543.31	51194.54
543.48	51089.21
543.64	50932.40
543.81	51274.12
543.98	50923.04
544.15	50946.44
544.32	50925.38
544.48	51154.75
544.65	51042.40
544.82	51423.91
544.99	51002.61
545.16	51175.81
545.32	50745.15
545.49	51697.75
545.66	51826.48
545.83	52016.07
546.00	52002.02
546.16	51819.46
546.33	51737.54
546.50	51199.22
546.67	51807.76
546.83	51185.18
547.00	51442.63
547.17	51269.43
547.34	51779.67
547.50	51763.29
547.67	51917.76
547.84	51959.89
548.00	52205.65
548.17	52306.29
548.34	52128.41
548.51	52009.04
548.67	52210.33
548.84	52186.92
549.01	51791.37
549.18	51796.06
549.34	52184.58
549.51	52224.37
549.68	52268.84
549.84	52067.56
550.01	52072.24
550.18	51920.10
550.34	51983.30
550.51	52418.64
550.68	52402.25
550.84	52121.39
551.01	52493.54
551.18	52502.90
551.34	52224.37
551.51	52320.34
551.68	52303.95
551.84	52509.92
552.01	52385.87
552.18	52657.37
552.34	52470.13
552.51	52882.06
552.68	52762.70
552.84	52823.55
553.01	52961.64
553.18	52849.30
553.34	52795.46
553.51	52542.69
553.67	52783.76
553.84	53029.52
554.01	53340.81
554.17	52952.28
554.34	52968.66
554.51	52872.70
554.67	53123.14
554.84	53081.01
555.00	52949.94
555.17	53132.50
555.33	53036.54
555.50	53099.73
555.67	53289.32
555.83	52935.90
556.00	53340.81
556.16	53441.45
556.33	53396.98
556.50	53263.57
556.66	53176.97
556.83	53235.48
556.99	53567.84
557.16	53645.08
557.32	53570.18
557.49	53642.74
557.65	53104.41
557.82	53305.70
557.98	53572.52
558.15	53329.11
558.32	53741.04
558.48	53464.86
558.65	53724.66
558.81	53542.10
558.98	53883.81
559.14	53738.70
559.31	53642.74
559.47	53593.59
559.64	53806.58
559.80	53722.32
559.97	53965.73
560.13	53549.12
560.30	53691.89
560.46	54071.06
560.63	53811.26
560.79	53968.07
560.96	54241.92
561.12	53834.66
561.29	53785.51
561.45	54085.10
561.61	53818.28
561.78	53865.09
561.94	54150.63
562.11	54389.37
562.27	54307.45
562.44	54160.00
562.60	54295.75
562.77	54113.19
562.93	53890.83
563.10	54251.28
563.26	54078.08
563.42	54145.95
563.59	54049.99
563.75	54429.16
563.92	54309.79
564.08	54143.61
564.24	54457.24
564.41	54349.58
564.57	53956.37
564.74	54012.54
564.90	54436.18
565.07	54585.97
565.23	54539.16
565.39	54478.31
565.56	54852.80
565.72	54370.64
565.88	54567.25
566.05	54461.93
566.21	54284.04
566.38	54267.66
566.54	54262.98
566.70	54536.82
566.87	54784.92
567.03	54560.23
567.19	55025.99
567.36	54838.75
567.52	54485.33
567.68	54405.75
567.85	54567.25
568.01	54583.63
568.17	54681.94
568.34	54508.74
568.50	54478.31
568.66	54822.37
568.83	54883.22
568.99	54574.27
569.15	54733.43
569.32	54387.03
569.48	54284.04
569.64	54815.35
569.81	54534.48
569.97	54597.68
570.13	54646.83
570.30	54873.86
570.46	54831.73
570.62	54553.21
570.78	54876.20
570.95	54492.35
571.11	55070.46
571.27	54663.21
571.43	54712.36
571.60	54803.64
571.76	54623.42
571.92	54740.45
572.09	54721.72
572.25	54972.16
572.41	54817.69
572.57	54878.54
572.74	55234.30
572.90	54904.29
573.06	54827.05
573.22	55068.12
573.38	54805.98
573.55	54941.74
573.71	55409.84
573.87	55196.85
574.03	54803.64
574.20	55356.01
574.36	55004.93
574.52	55007.27
574.68	55014.29
574.84	55061.10
575.01	55320.90
575.17	55320.90
575.33	54986.21
575.49	54887.90
575.65	55009.61
575.82	54983.86
575.98	54869.18
576.14	55098.55
576.30	55042.38
576.46	55033.02
576.62	54695.98
576.79	55018.97
576.95	54796.62
577.11	55274.09
577.27	55117.28
577.43	55011.95
577.59	55278.77
577.75	54951.10
577.92	54841.09
578.08	55021.31
578.24	55199.19
578.40	54997.91
578.56	55145.36
578.72	55105.57
578.88	55423.89
579.04	55440.27
579.21	55030.68
579.37	55318.56
579.53	55309.20
579.69	54848.11
579.85	54972.16
580.01	55269.41
580.17	55061.10
580.33	55238.98
580.49	55161.75
580.65	55147.70
580.82	55309.20
580.98	55255.37
581.14	55075.15
581.30	55793.69
581.46	55412.18
581.62	55227.28
581.78	55140.68
581.94	55154.72
582.10	55370.05
582.26	55487.08
582.42	55215.58
582.58	55084.51
582.74	55229.62
582.90	55320.90
583.06	55311.54
583.22	55304.52
583.38	55037.70
583.54	55210.90
583.70	55334.95
583.86	55426.23
584.02	55086.85
584.18	55639.22
584.34	55124.30
584.50	55751.56
584.66	55269.41
584.82	55246.00
584.98	55386.44
585.14	55346.65
585.30	55505.80
585.46	55360.69
585.62	55356.01
585.78	55573.68
585.94	55185.15
586.10	55255.37
586.26	55210.90
586.42	55725.81
586.58	55325.58
586.74	55332.60
586.90	55370.05
587.06	55421.55
587.22	55498.78
587.38	55538.57
587.54	55646.24
587.70	55800.71
587.86	55524.53
588.02	55524.53
588.18	55592.40
588.34	55554.96
588.49	55627.51
