SpectraSuite Data File
++++++++++++++++++++++++++++++++++++
Date: Thu Oct 24 13:21:14 EDT 2013
User: stostad
Dark Spectrum Present: No
Reference Spectrum Present: No
Number of Sampled Component Spectra: 1
Spectrometers: USB2+H05261
Integration Time (usec): 100000 (USB2+H05261)
Spectra Averaged: 1 (USB2+H05261)
Boxcar Smoothing: 0 (USB2+H05261)
Correct for Electrical Dark: No (USB2+H05261)
Strobe/Lamp Enabled: No (USB2+H05261)
Correct for Detector Non-linearity: No (USB2+H05261)
Correct for Stray Light: No (USB2+H05261)
Number of Pixels in Processed Spectrum: 2048
>>>>>Begin Processed Spectral Data<<<<<
365.73	538.32
365.92	538.32
366.12	538.32
366.32	479.81
366.52	468.11
366.72	477.47
366.91	507.90
367.11	519.60
367.31	449.38
367.51	454.06
367.70	503.22
367.90	477.47
368.10	451.72
368.30	475.13
368.49	498.53
368.69	458.74
368.89	451.72
369.09	491.51
369.28	498.53
369.48	477.47
369.68	517.26
369.87	564.07
370.07	512.58
370.27	582.79
370.47	528.96
370.66	641.31
370.86	727.91
371.06	737.27
371.25	770.04
371.45	692.80
371.65	784.08
371.84	718.54
372.04	779.40
372.24	819.19
372.44	821.53
372.63	774.72
372.83	837.91
373.03	758.33
373.22	758.33
373.42	826.21
373.62	798.12
373.81	821.53
374.01	774.72
374.21	819.19
374.40	847.27
374.60	781.74
374.79	823.87
374.99	828.55
375.19	844.93
375.38	786.42
375.58	800.46
375.78	938.55
375.97	851.96
376.17	954.94
376.37	844.93
376.56	784.08
376.76	868.34
376.95	844.93
377.15	910.47
377.35	880.04
377.54	875.36
377.74	894.08
377.93	805.14
378.13	828.55
378.33	851.96
378.52	833.23
378.72	809.83
378.91	863.66
379.11	882.38
379.31	877.70
379.50	851.96
379.70	856.64
379.89	917.49
380.09	908.13
380.28	908.13
380.48	908.13
380.68	910.47
380.87	877.70
381.07	856.64
381.26	957.28
381.46	891.74
381.65	1006.43
381.85	837.91
382.04	875.36
382.24	922.17
382.43	877.70
382.63	940.90
382.83	931.53
383.02	929.19
383.22	976.00
383.41	910.47
383.61	971.32
383.80	924.51
384.00	910.47
384.19	891.74
384.39	952.60
384.58	915.15
384.78	973.66
384.97	950.26
385.17	861.32
385.36	973.66
385.56	973.66
385.75	936.21
385.95	987.71
386.14	931.53
386.34	966.64
386.53	976.00
386.72	968.98
386.92	1025.15
387.11	1020.47
387.31	994.73
387.50	936.21
387.70	957.28
387.89	992.39
388.09	999.41
388.28	1041.54
388.48	999.41
388.67	983.02
388.86	1039.20
389.06	1053.24
389.25	1090.69
389.45	966.64
389.64	910.47
389.84	1111.75
390.03	1086.01
390.22	1001.75
390.42	1013.45
390.61	1039.20
390.81	1090.69
391.00	1069.62
391.19	1001.75
391.39	1060.26
391.58	1067.28
391.78	1064.94
391.97	1043.88
392.16	1067.28
392.36	1135.16
392.55	1107.07
392.75	1057.92
392.94	1125.80
393.13	1179.63
393.33	1142.18
393.52	1135.16
393.71	1151.54
393.91	1193.67
394.10	1081.33
394.29	1123.46
394.49	1139.84
394.68	1083.67
394.88	1177.29
395.07	1130.48
395.26	1114.10
395.46	1146.86
395.65	1219.42
395.84	1128.14
396.04	1233.46
396.23	1100.05
396.42	1081.33
396.62	1313.04
396.81	1146.86
397.00	1170.27
397.19	1174.95
397.39	1296.66
397.58	1233.46
397.77	1203.04
397.97	1235.80
398.16	1238.14
398.35	1238.14
398.55	1240.48
398.74	1296.66
398.93	1217.08
399.12	1238.14
399.32	1205.38
399.51	1259.21
399.70	1299.00
399.90	1296.66
400.09	1287.29
400.28	1301.34
400.47	1352.83
400.67	1299.00
400.86	1380.92
401.05	1287.29
401.24	1329.42
401.44	1334.11
401.63	1296.66
401.82	1387.94
402.01	1313.04
402.21	1299.00
402.40	1364.53
402.59	1373.89
402.78	1427.73
402.97	1380.92
403.17	1378.58
403.36	1509.65
403.55	1439.43
403.74	1465.18
403.93	1411.34
404.13	1519.01
404.32	1544.75
404.51	1481.56
404.70	1549.43
404.89	1511.99
405.09	1582.20
405.28	1446.45
405.47	1490.92
405.66	1549.43
405.85	1523.69
406.05	1495.60
406.24	1446.45
406.43	1556.46
406.62	1500.28
406.81	1500.28
407.00	1603.27
407.20	1537.73
407.39	1643.06
407.58	1619.65
407.77	1605.61
407.96	1657.10
408.15	1675.82
408.34	1605.61
408.54	1603.27
408.73	1629.01
408.92	1624.33
409.11	1671.14
409.30	1643.06
409.49	1561.14
409.68	1645.40
409.87	1710.93
410.07	1783.49
410.26	1701.57
410.45	1654.76
410.64	1771.79
410.83	1858.39
411.02	1764.76
411.21	1755.40
411.40	1774.13
411.59	1881.79
411.78	1865.41
411.98	1806.89
412.17	1879.45
412.36	1907.54
412.55	1942.64
412.74	1944.99
412.93	1837.32
413.12	1795.19
413.31	2038.61
413.50	1968.39
413.69	1970.73
413.88	2015.20
414.07	1963.71
414.26	1994.14
414.45	2036.27
414.64	2026.90
414.83	2132.23
415.02	2078.40
415.22	2073.71
415.41	2141.59
415.60	2097.12
415.79	2172.02
415.98	2155.63
416.17	2186.06
416.36	2017.54
416.55	2249.25
416.74	2162.66
416.93	2155.63
417.12	2179.04
417.31	2291.38
417.50	2211.81
417.69	2263.30
417.88	2340.54
418.07	2253.94
418.26	2298.41
418.45	2221.17
418.64	2307.77
418.83	2310.11
419.02	2319.47
419.21	2366.28
419.39	2385.01
419.58	2317.13
419.77	2394.37
419.96	2361.60
420.15	2363.94
420.34	2476.29
420.53	2422.45
420.72	2459.90
420.91	2445.86
421.10	2523.10
421.29	2502.03
421.48	2462.24
421.67	2530.12
421.86	2565.23
422.05	2525.44
422.24	2399.05
422.43	2588.63
422.61	2485.65
422.80	2574.59
422.99	2509.05
423.18	2399.05
423.37	2628.42
423.56	2497.35
423.75	2527.78
423.94	2546.50
424.13	2335.85
424.32	2502.03
424.50	2525.44
424.69	2553.52
424.88	2722.04
425.07	2595.65
425.26	2443.52
425.45	2497.35
425.64	2672.89
425.83	2546.50
426.01	2712.68
426.20	2661.19
426.39	2696.30
426.58	2588.63
426.77	2640.12
426.96	2635.44
427.15	2544.16
427.33	2675.23
427.52	2595.65
427.71	2651.83
427.90	2637.78
428.09	2658.85
428.28	2759.49
428.46	2633.10
428.65	2862.48
428.84	2829.71
429.03	2827.37
429.22	2820.35
429.40	2703.32
429.59	2743.11
429.78	2696.30
429.97	2708.00
430.16	2745.45
430.34	2864.82
430.53	2913.97
430.72	2923.33
430.91	2808.64
431.10	2843.75
431.28	2825.03
431.47	2883.54
431.66	3007.59
431.85	2867.16
432.03	2843.75
432.22	3080.14
432.41	2906.95
432.60	3023.97
432.79	2810.98
432.97	2888.22
433.16	3002.91
433.35	2951.42
433.54	2979.50
433.72	2984.18
433.91	2991.20
434.10	3012.27
434.28	3035.67
434.47	3061.42
434.66	3049.72
434.85	3087.17
435.03	3234.62
435.22	3382.07
435.41	3581.02
435.59	3480.38
435.78	3368.03
435.97	3342.28
436.16	3269.73
436.34	3155.04
436.53	3171.43
436.72	3204.19
436.90	3204.19
437.09	3239.30
437.28	3124.62
437.46	3150.36
437.65	3311.86
437.84	3426.54
438.02	3225.26
438.21	3335.26
438.40	3190.15
438.58	3344.63
438.77	3248.66
438.96	3379.73
439.14	3433.57
439.33	3370.37
439.52	3365.69
439.70	3375.05
439.89	3590.38
440.08	3438.25
440.26	3585.70
440.45	3508.46
440.63	3536.55
440.82	3545.91
441.01	3510.80
441.19	3625.49
441.38	3632.51
441.57	3665.28
441.75	3768.26
441.94	3761.24
442.12	3758.90
442.31	3749.54
442.50	3719.11
442.68	3803.37
442.87	3829.12
443.05	3817.41
443.24	3854.86
443.43	3854.86
443.61	3857.20
443.80	3969.55
443.98	3782.31
444.17	3667.62
444.35	3882.95
444.54	3936.78
444.73	3894.65
444.91	3836.14
445.10	3894.65
445.28	3971.89
445.47	3941.46
445.65	3878.27
445.84	3840.82
446.02	4046.79
446.21	3978.91
446.39	4060.83
446.58	3962.53
446.77	3948.48
446.95	3880.61
447.14	4056.15
447.32	4009.34
447.51	3777.62
447.69	3960.19
447.88	4014.02
448.06	3974.23
448.25	3941.46
448.43	3941.46
448.62	3983.59
448.80	3918.06
448.99	4037.42
449.17	3913.38
449.36	3950.82
449.54	4058.49
449.73	4088.92
449.91	4152.11
450.10	4124.02
450.28	4322.97
450.46	4201.26
450.65	4184.88
450.83	4299.56
451.02	4133.39
451.20	4285.52
451.39	4266.80
451.57	4339.35
451.76	4222.33
451.94	4154.45
452.13	4287.86
452.31	4440.00
452.49	4161.47
452.68	4292.54
452.86	4329.99
453.05	4409.57
453.23	4304.25
453.42	4325.31
453.60	4311.27
453.78	4332.33
453.97	4318.29
454.15	4205.94
454.34	4353.40
454.52	4407.23
454.70	4388.50
454.89	4482.13
455.07	4489.15
455.26	4428.29
455.44	4528.94
455.62	4442.34
455.81	4519.57
455.99	4435.32
456.17	4524.26
456.36	4542.98
456.54	4652.98
456.73	4592.13
456.91	4690.43
457.09	4615.54
457.28	4781.71
457.46	4566.39
457.64	4781.71
457.83	4608.51
458.01	4704.48
458.19	4873.00
458.38	4739.58
458.56	4784.06
458.74	4819.16
458.93	4966.62
459.11	4924.49
459.29	4835.55
459.48	4837.89
459.66	4788.74
459.84	4856.61
460.03	4739.58
460.21	4978.32
460.39	4915.12
460.57	4997.04
460.76	5076.62
460.94	4936.19
461.12	5048.54
461.31	5036.83
461.49	5102.37
461.67	4919.81
461.85	5114.07
462.04	5055.56
462.22	5533.03
462.40	5158.54
462.59	5172.58
462.77	5083.64
462.95	5310.68
463.13	5104.71
463.32	5172.58
463.50	5114.07
463.68	5181.95
463.86	5219.39
464.05	5177.26
464.23	5167.90
464.41	5310.68
464.59	5240.46
464.78	5418.34
464.96	5331.74
465.14	5263.86
465.32	5444.09
465.50	5308.34
465.69	5502.60
465.87	5411.32
466.05	5268.55
466.23	5385.57
466.41	5231.10
466.60	5423.02
466.78	5366.85
466.96	5310.68
467.14	5420.68
467.32	5406.64
467.51	5549.41
467.69	5495.58
467.87	5385.57
468.05	5598.56
468.23	5500.26
468.41	5380.89
468.60	5465.15
468.78	5486.22
468.96	5659.42
469.14	5624.31
469.32	5640.69
469.50	5678.14
469.69	5671.12
469.87	5813.89
470.05	5717.93
470.23	5802.19
470.41	5816.23
470.59	5781.12
470.77	5774.10
470.95	5834.96
471.14	5923.90
471.32	5827.93
471.50	5863.04
471.68	5977.73
471.86	5961.34
472.04	6097.10
472.22	6017.52
472.40	6104.12
472.58	6052.63
472.77	6115.82
472.95	6129.86
473.13	6256.25
473.31	5949.64
473.49	5923.90
473.67	6022.20
473.85	6160.29
474.03	6291.36
474.21	6274.98
474.39	6296.04
474.57	6380.30
474.75	6279.66
474.93	6600.31
475.12	6410.73
475.30	6520.73
475.48	6445.84
475.66	6621.38
475.84	6473.92
476.02	6642.44
476.20	6546.48
476.38	6520.73
476.56	6911.60
476.74	6745.42
476.92	6906.92
477.10	6787.55
477.28	6979.48
477.46	7063.74
477.64	6876.49
477.82	7077.78
478.00	7335.24
478.18	7119.91
478.36	7077.78
478.54	7314.17
478.72	7304.81
478.90	7227.57
479.08	7276.73
479.26	7566.95
479.44	7470.99
479.62	7588.02
479.80	7672.28
479.98	7585.68
480.16	7719.09
480.34	7681.64
480.52	7803.35
480.70	7812.71
480.88	7808.03
481.06	7836.11
481.24	7864.20
481.41	7887.61
481.59	8093.57
481.77	8109.96
481.95	8210.60
482.13	8236.35
482.31	8180.17
482.49	8390.82
482.67	8629.56
482.85	8564.02
483.03	8681.05
483.21	8709.13
483.39	8863.61
483.57	8524.23
483.74	8711.47
483.92	8809.78
484.10	8910.42
484.28	9139.79
484.46	9172.56
484.64	9160.86
484.82	9266.18
485.00	9235.75
485.18	9315.33
485.35	9607.90
485.53	9561.09
485.71	9535.34
485.89	9832.59
486.07	9682.80
486.25	9647.69
486.43	9774.08
486.61	9853.66
486.78	10038.56
486.96	9977.70
487.14	10300.70
487.32	10106.43
487.50	10209.42
487.68	10132.18
487.85	10399.00
488.03	10490.28
488.21	10487.94
488.39	10499.64
488.57	10740.72
488.75	10511.35
488.92	10827.32
489.10	11101.16
489.28	10965.41
489.46	11117.54
489.64	10944.34
489.81	11265.00
489.99	11229.89
490.17	11220.53
490.35	11363.30
490.53	11440.54
490.70	11377.34
490.88	11602.04
491.06	11686.29
491.24	11805.66
491.41	11709.70
491.59	11894.60
491.77	12011.63
491.95	11999.93
492.13	12135.68
492.30	12273.77
492.48	11910.99
492.66	11974.18
492.84	12322.92
493.01	12496.12
493.19	12449.31
493.37	12491.44
493.54	12585.06
493.72	12671.66
493.90	12748.90
494.08	12776.98
494.25	12940.82
494.43	12854.22
494.61	13081.25
494.79	13032.10
494.96	12868.27
495.14	12896.35
495.32	13472.12
495.49	13462.76
495.67	13247.43
495.85	13535.32
496.02	13315.31
496.20	13757.67
496.38	13600.85
496.55	13596.17
496.73	13942.57
496.91	13865.33
497.09	14047.90
497.26	13914.48
497.44	13902.78
497.62	14125.13
497.79	14122.79
497.97	14239.82
498.14	14230.46
498.32	14469.19
498.50	14504.30
498.67	14602.60
498.85	14429.40
499.03	14565.15
499.20	14588.56
499.38	14789.85
499.56	15002.83
499.73	14876.44
499.91	14696.22
500.08	15154.97
500.26	15087.09
500.44	15208.80
500.61	15042.62
500.79	15101.14
500.97	15269.66
501.14	15325.83
501.32	15412.43
501.49	15199.44
501.67	15475.62
501.84	15389.02
502.02	15934.37
502.20	15697.97
502.37	15807.98
502.55	15594.99
502.72	15779.89
502.90	15815.00
503.07	15730.74
503.25	15737.76
503.43	15728.40
503.60	15798.62
503.78	15763.51
503.95	15756.49
504.13	16049.05
504.30	15976.50
504.48	16285.45
504.65	16290.13
504.83	16350.98
505.01	16549.93
505.18	16290.13
505.36	16617.80
505.53	16521.84
505.71	16465.67
505.88	16802.71
506.06	16573.33
506.23	16814.41
506.41	16472.69
506.58	16683.34
506.76	16814.41
506.93	16889.31
507.11	16980.59
507.28	16755.90
507.46	17062.51
507.63	16915.05
507.81	17104.64
507.98	17057.82
508.16	17348.05
508.33	17130.38
508.50	17621.89
508.68	17549.34
508.85	17626.57
509.03	17439.33
509.20	17474.44
509.38	17645.30
509.55	17816.16
509.73	17661.68
509.90	17928.50
510.08	17720.20
510.25	17659.34
510.42	17907.44
510.60	17951.91
510.77	17858.29
510.95	17853.61
511.12	17977.65
511.30	18005.74
511.47	18214.05
511.64	18225.75
511.82	18274.90
511.99	18288.95
512.17	17977.65
512.34	18485.55
512.51	18424.70
512.69	18630.66
512.86	18483.21
513.04	18752.37
513.21	18506.62
513.38	18951.32
513.56	18551.09
513.73	18579.17
513.90	18937.27
514.08	18740.67
514.25	18747.69
514.43	19080.05
514.60	18951.32
514.77	19138.56
514.95	19122.18
515.12	19028.56
515.29	18853.02
515.47	19061.32
515.64	19374.95
515.81	19264.95
515.99	19033.24
516.16	19655.82
516.33	19452.19
516.51	19700.29
516.68	19571.56
516.85	19506.02
517.03	19414.74
517.20	19431.13
517.37	19829.02
517.54	19840.72
517.72	19892.21
517.89	19742.42
518.06	19744.76
518.24	20023.28
518.41	20023.28
518.58	19889.87
518.75	19807.95
518.93	19777.53
519.10	19967.11
519.27	19934.34
519.45	20077.12
519.62	20475.01
519.79	20144.99
519.96	20240.95
520.14	20025.62
520.31	20231.59
520.48	20128.61
520.65	20437.56
520.83	20589.69
521.00	20428.20
521.17	20329.89
521.34	20680.97
521.52	20608.42
521.69	20943.11
521.86	20524.16
522.03	20624.80
522.20	21020.35
522.38	21057.80
522.55	20905.66
522.72	20634.16
522.89	21270.79
523.07	20748.85
523.24	20779.28
523.41	21069.50
523.58	21209.93
523.75	21268.45
523.92	21362.07
524.10	21291.85
524.27	21462.71
524.44	20994.61
524.61	21266.11
524.78	21380.79
524.96	21261.43
525.13	21537.61
525.30	21654.64
525.47	21727.19
525.64	21685.06
525.81	21502.50
525.98	21528.25
526.16	21345.69
526.33	21741.24
526.50	21755.28
526.67	21832.52
526.84	21577.40
527.01	21860.60
527.18	21891.03
527.36	21827.84
527.53	21905.07
527.70	22127.42
527.87	21958.91
528.04	22235.09
528.21	22104.02
528.38	22171.89
528.55	22319.35
528.72	22052.53
528.89	22120.40
529.07	21827.84
529.24	22129.77
529.41	22359.14
529.58	22342.75
529.75	22176.58
529.92	22324.03
530.09	22242.11
530.26	22059.55
530.43	22267.86
530.60	22604.89
530.77	22342.75
530.94	22707.88
531.11	22742.99
531.28	22838.95
531.46	22754.69
531.63	22831.93
531.80	22427.01
531.97	22906.82
532.14	22740.64
532.31	22607.23
532.48	22794.48
532.65	23082.36
532.82	22925.55
532.99	22885.76
533.16	22944.27
533.33	23124.49
533.50	22717.24
533.67	22965.34
533.84	22951.29
534.01	23400.68
534.18	23175.98
534.35	23087.04
534.52	23122.15
534.69	23208.75
534.86	23311.74
535.03	22970.02
535.20	23365.57
535.37	23599.62
535.54	23559.83
535.71	23569.19
535.88	23421.74
536.05	23489.62
536.22	23679.20
536.38	23625.37
536.55	23250.88
536.72	23534.09
536.89	23726.01
537.06	23758.78
537.23	23882.83
537.40	23861.76
537.57	23740.05
537.74	23819.63
537.91	23740.05
538.08	23807.93
538.25	24065.39
538.42	23978.79
538.59	24390.72
538.75	23840.70
538.92	24257.31
539.09	24074.75
539.26	24126.24
539.43	23854.74
539.60	24159.01
539.77	23882.83
539.94	24514.77
540.11	24292.42
540.28	24423.49
540.44	24404.77
540.61	24217.52
540.78	24315.83
540.95	24797.98
541.12	24683.29
541.29	24732.44
541.46	24718.40
541.62	24552.22
541.79	25055.43
541.96	24863.51
542.13	24547.54
542.30	24568.60
542.47	24919.68
542.63	25102.25
542.80	25432.26
542.97	25287.15
543.14	25319.92
543.31	25376.09
543.48	25242.68
543.64	25560.99
543.81	25305.87
543.98	25406.52
544.15	25692.06
544.32	25298.85
544.48	25415.88
544.65	25209.91
544.82	25174.80
544.99	25172.46
545.16	25289.49
545.32	25378.43
545.49	25942.50
545.66	26565.08
545.83	26438.69
546.00	26499.55
546.16	25949.52
546.33	25764.62
546.50	25699.08
546.67	25827.81
546.83	25319.92
547.00	25373.75
547.17	25364.39
547.34	25563.33
547.50	25575.03
547.67	25830.15
547.84	25883.98
548.00	25858.24
548.17	26284.22
548.34	25769.30
548.51	25928.45
548.67	25818.45
548.84	25778.66
549.01	25993.99
549.18	25921.43
549.34	26132.08
549.51	25886.32
549.68	25898.03
549.84	25986.97
550.01	25788.02
550.18	25720.15
550.34	25752.91
550.51	25656.95
550.68	26015.05
550.84	26066.55
551.01	25977.61
551.18	25671.00
551.34	25755.26
551.51	25706.10
551.68	25832.49
551.84	26040.80
552.01	25820.79
552.18	26143.78
552.34	25876.96
552.51	26263.15
552.68	26052.50
552.84	26160.17
553.01	26141.44
553.18	25984.63
553.34	26335.71
553.51	26024.42
553.67	26199.96
553.84	26148.46
554.01	26375.50
554.17	26925.52
554.34	26419.97
554.51	26324.01
554.67	26415.29
554.84	26302.94
555.00	26031.44
555.17	26038.46
555.33	26244.43
555.50	26045.48
555.67	26377.84
555.83	26132.08
556.00	26539.33
556.16	26888.07
556.33	26850.63
556.50	26122.72
556.66	26239.75
556.83	26436.35
556.99	26504.23
557.16	26745.30
557.32	26639.98
557.49	26829.56
557.65	26464.44
557.82	26689.13
557.98	26532.31
558.15	26759.34
558.32	26349.75
558.48	26426.99
558.65	26827.22
558.81	26665.72
558.98	26895.10
559.14	26658.70
559.31	26948.93
559.47	26714.87
559.64	26801.47
559.80	26717.22
559.97	26415.29
560.13	26721.90
560.30	26583.80
560.46	27023.83
560.63	26991.06
560.79	27016.80
560.96	26874.03
561.12	26965.31
561.29	26822.54
561.45	27159.58
561.61	27241.50
561.78	26934.88
561.94	27138.51
562.11	27000.42
562.27	27271.92
562.44	26768.71
562.60	27136.17
562.77	26675.09
562.93	26735.94
563.10	27129.15
563.26	26745.30
563.42	27349.16
563.59	26749.98
563.75	26934.88
563.92	27220.43
564.08	27026.17
564.24	27164.26
564.41	27225.11
564.57	26902.12
564.74	27035.53
564.90	27288.31
565.07	27264.90
565.23	27391.29
565.39	26792.11
565.56	27395.97
565.72	27159.58
565.88	27236.81
566.05	27194.68
566.21	27199.37
566.38	26972.33
566.54	27344.48
566.70	27337.46
566.87	27192.34
567.03	27449.80
567.19	27686.20
567.36	27037.87
567.52	27087.02
567.68	27374.91
567.85	26962.97
568.01	27548.11
568.17	27428.74
568.34	27321.07
568.50	27562.15
568.66	27185.32
568.83	27201.71
568.99	27337.46
569.15	27262.56
569.32	27349.16
569.48	27463.85
569.64	27438.10
569.81	27534.06
569.97	27388.95
570.13	27564.49
570.30	27225.11
570.46	27119.79
570.62	27211.07
570.78	27402.99
570.95	27379.59
571.11	27545.76
571.27	27761.09
571.43	27178.30
571.60	27374.91
571.76	27477.89
571.92	27798.54
572.09	27061.27
572.25	27255.54
572.41	27543.42
572.57	27590.24
572.74	27747.05
572.90	27634.71
573.06	27466.19
573.22	27522.36
573.38	27665.13
573.55	27477.89
573.71	27742.37
573.87	27632.36
574.03	27395.97
574.20	27917.91
574.36	27733.01
574.52	27955.36
574.68	27119.79
574.84	27576.19
575.01	27590.24
575.17	27775.14
575.33	27693.22
575.49	27384.27
575.65	27733.01
575.82	27702.58
575.98	27393.63
576.14	28334.53
576.30	27718.96
576.46	27651.09
576.62	27646.41
576.79	27859.40
576.95	27452.14
577.11	27501.29
577.27	27786.84
577.43	28095.79
577.59	27840.67
577.75	27576.19
577.92	27716.62
578.08	27714.28
578.24	28011.53
578.40	27679.18
578.56	27953.02
578.72	28151.96
578.88	28343.89
579.04	27915.57
579.21	27798.54
579.37	27630.02
579.53	27747.05
579.69	27742.37
579.85	27644.07
580.01	27957.70
580.17	27718.96
580.33	27845.35
580.49	27941.32
580.65	27882.80
580.82	27524.70
580.98	27545.76
581.14	27831.31
581.30	27974.08
581.46	27615.98
581.62	27864.08
581.78	27693.22
581.94	27653.43
582.10	27358.52
582.26	27910.89
582.42	27667.47
582.58	27498.95
582.74	27672.15
582.90	28259.63
583.06	27723.65
583.22	27627.68
583.38	27894.50
583.54	27604.28
583.70	27707.26
583.86	27878.12
584.02	27821.95
584.18	27828.97
584.34	27866.42
584.50	28023.23
584.66	27538.74
584.82	28025.57
584.98	27714.28
585.14	27866.42
585.30	27669.81
585.46	27625.34
585.62	27648.75
585.78	28004.51
585.94	27887.48
586.10	27852.38
586.26	27857.06
586.42	27887.48
586.58	28135.58
586.74	28158.99
586.90	27875.78
587.06	28325.16
587.22	28065.36
587.38	27871.10
587.54	27992.81
587.70	28474.96
587.86	28116.86
588.02	28254.95
588.18	27953.02
588.34	27868.76
588.49	28027.92
588.65	27627.68
588.81	27850.03
588.97	27740.03
589.13	27786.84
589.29	28048.98
589.45	28259.63
589.61	28058.34
589.77	28423.47
589.93	28133.24
590.08	28217.50
590.24	27735.35
590.40	28074.73
590.56	28070.04
