SpectraSuite Data File
++++++++++++++++++++++++++++++++++++
Date: Thu Oct 24 13:21:06 EDT 2013
User: stostad
Dark Spectrum Present: No
Reference Spectrum Present: No
Number of Sampled Component Spectra: 1
Spectrometers: USB2+H05261
Integration Time (usec): 100000 (USB2+H05261)
Spectra Averaged: 1 (USB2+H05261)
Boxcar Smoothing: 0 (USB2+H05261)
Correct for Electrical Dark: No (USB2+H05261)
Strobe/Lamp Enabled: No (USB2+H05261)
Correct for Detector Non-linearity: No (USB2+H05261)
Correct for Stray Light: No (USB2+H05261)
Number of Pixels in Processed Spectrum: 2048
>>>>>Begin Processed Spectral Data<<<<<
365.73	573.43
365.92	573.43
366.12	573.43
366.32	456.40
366.52	496.19
366.72	493.85
366.91	437.68
367.11	503.22
367.31	554.71
367.51	444.70
367.70	472.79
367.90	507.90
368.10	465.77
368.30	435.34
368.49	486.83
368.69	510.24
368.89	519.60
369.09	524.28
369.28	540.66
369.48	440.02
369.68	505.56
369.87	493.85
370.07	573.43
370.27	585.13
370.47	620.24
370.66	734.93
370.86	662.37
371.06	725.57
371.25	779.40
371.45	671.73
371.65	699.82
371.84	718.54
372.04	697.48
372.24	737.27
372.44	744.29
372.63	833.23
372.83	826.21
373.03	760.67
373.22	767.70
373.42	772.38
373.62	844.93
373.81	826.21
374.01	814.51
374.21	798.12
374.40	734.93
374.60	896.43
374.79	777.06
374.99	767.70
375.19	763.01
375.38	763.01
375.58	823.87
375.78	844.93
375.97	786.42
376.17	837.91
376.37	812.17
376.56	819.19
376.76	847.27
376.95	828.55
377.15	819.19
377.35	732.59
377.54	793.44
377.74	812.17
377.93	837.91
378.13	826.21
378.33	816.85
378.52	772.38
378.72	807.48
378.91	837.91
379.11	793.44
379.31	849.61
379.50	753.65
379.70	884.72
379.89	873.02
380.09	912.81
380.28	819.19
380.48	858.98
380.68	870.68
380.87	786.42
381.07	924.51
381.26	858.98
381.46	887.06
381.65	870.68
381.85	870.68
382.04	903.45
382.24	861.32
382.43	908.13
382.63	926.85
382.83	873.02
383.02	802.80
383.22	891.74
383.41	856.64
383.61	854.30
383.80	922.17
384.00	889.40
384.19	877.70
384.39	898.77
384.58	922.17
384.78	882.38
384.97	854.30
385.17	877.70
385.36	990.05
385.56	919.83
385.75	936.21
385.95	891.74
386.14	971.32
386.34	966.64
386.53	992.39
386.72	880.04
386.92	912.81
387.11	898.77
387.31	926.85
387.50	992.39
387.70	915.15
387.89	978.34
388.09	915.15
388.28	940.90
388.48	880.04
388.67	919.83
388.86	1015.79
389.06	950.26
389.25	922.17
389.45	1006.43
389.64	966.64
389.84	912.81
390.03	1025.15
390.22	1004.09
390.42	990.05
390.61	980.68
390.81	1006.43
391.00	1071.97
391.19	938.55
391.39	1043.88
391.58	1046.22
391.78	1025.15
391.97	1025.15
392.16	990.05
392.36	1041.54
392.55	992.39
392.75	994.73
392.94	1006.43
393.13	1006.43
393.33	1069.62
393.52	1001.75
393.71	1086.01
393.91	1088.35
394.10	1053.24
394.29	1104.73
394.49	1006.43
394.68	1036.86
394.88	1088.35
395.07	1151.54
395.26	1074.31
395.46	1057.92
395.65	1118.78
395.84	1125.80
396.04	1111.75
396.23	1111.75
396.42	1156.22
396.62	1139.84
396.81	1041.54
397.00	1104.73
397.19	1090.69
397.39	1121.12
397.58	1165.59
397.77	1139.84
397.97	1069.62
398.16	1151.54
398.35	1181.97
398.55	1210.06
398.74	1151.54
398.93	1165.59
399.12	1158.57
399.32	1142.18
399.51	1221.76
399.70	1217.08
399.90	1121.12
400.09	1153.88
400.28	1158.57
400.47	1198.35
400.67	1224.10
400.86	1217.08
401.05	1214.74
401.24	1165.59
401.44	1231.12
401.63	1238.14
401.82	1228.78
402.01	1254.53
402.21	1373.89
402.40	1240.48
402.59	1217.08
402.78	1362.19
402.97	1308.36
403.17	1261.55
403.36	1317.72
403.55	1303.68
403.74	1406.66
403.93	1324.74
404.13	1299.00
404.32	1427.73
404.51	1357.51
404.70	1338.79
404.89	1437.09
405.09	1420.71
405.28	1416.02
405.47	1409.00
405.66	1338.79
405.85	1420.71
406.05	1423.05
406.24	1444.11
406.43	1455.81
406.62	1455.81
406.81	1490.92
407.00	1430.07
407.20	1444.11
407.39	1467.52
407.58	1514.33
407.77	1434.75
407.96	1439.43
408.15	1502.62
408.34	1509.65
408.54	1497.94
408.73	1530.71
408.92	1554.12
409.11	1521.35
409.30	1577.52
409.49	1519.01
409.68	1591.56
409.87	1542.41
410.07	1598.59
410.26	1568.16
410.45	1666.46
410.64	1645.40
410.83	1640.72
411.02	1598.59
411.21	1701.57
411.40	1614.97
411.59	1535.39
411.78	1584.54
411.98	1605.61
412.17	1633.69
412.36	1682.85
412.55	1699.23
412.74	1764.76
412.93	1776.47
413.12	1748.38
413.31	1748.38
413.50	1778.81
413.69	1867.75
413.88	1781.15
414.07	1863.07
414.26	1715.61
414.45	1804.55
414.64	1748.38
414.83	1834.98
415.02	1872.43
415.22	1877.11
415.41	1802.21
415.60	1928.60
415.79	1921.58
415.98	1956.69
416.17	1940.30
416.36	1886.47
416.55	1888.81
416.74	1930.94
416.93	1905.20
417.12	2085.42
417.31	1966.05
417.50	2050.31
417.69	2115.84
417.88	2019.88
418.07	2069.03
418.26	2022.22
418.45	2087.76
418.64	2150.95
418.83	2104.14
419.02	2064.35
419.21	2120.53
419.39	2050.31
419.58	2097.12
419.77	2064.35
419.96	2143.93
420.15	2136.91
420.34	2118.18
420.53	2113.50
420.72	2307.77
420.91	2237.55
421.10	2197.76
421.29	2260.96
421.48	2083.08
421.67	2223.51
421.86	2232.87
422.05	2214.15
422.24	2214.15
422.43	2221.17
422.61	2258.62
422.80	2263.30
422.99	2291.38
423.18	2326.49
423.37	2284.36
423.56	2244.57
423.75	2324.15
423.94	2253.94
424.13	2176.70
424.32	2239.89
424.50	2256.28
424.69	2160.31
424.88	2300.75
425.07	2260.96
425.26	2289.04
425.45	2338.20
425.64	2214.15
425.83	2242.23
426.01	2275.00
426.20	2321.81
426.39	2183.72
426.58	2349.90
426.77	2289.04
426.96	2333.51
427.15	2289.04
427.33	2382.67
427.52	2476.29
427.71	2452.88
427.90	2394.37
428.09	2438.84
428.28	2413.09
428.46	2480.97
428.65	2478.63
428.84	2420.11
429.03	2436.50
429.22	2462.24
429.40	2436.50
429.59	2469.27
429.78	2363.94
429.97	2338.20
430.16	2399.05
430.34	2581.61
430.53	2473.95
430.72	2483.31
430.91	2487.99
431.10	2487.99
431.28	2473.95
431.47	2546.50
431.66	2560.55
431.85	2597.99
432.03	2672.89
432.22	2654.17
432.41	2551.18
432.60	2609.70
432.79	2569.91
432.97	2663.53
433.16	2628.42
433.35	2574.59
433.54	2642.46
433.72	2691.62
433.91	2644.81
434.10	2626.08
434.28	2661.19
434.47	2698.64
434.66	2747.79
434.85	2892.90
435.03	2918.65
435.22	3040.36
435.41	3150.36
435.59	3108.23
435.78	3126.96
435.97	3101.21
436.16	2911.63
436.34	2736.09
436.53	2818.00
436.72	2892.90
436.90	2684.59
437.09	2881.20
437.28	2810.98
437.46	2888.22
437.65	2869.50
437.84	2942.05
438.02	2911.63
438.21	2871.84
438.40	2829.71
438.58	2949.08
438.77	2993.55
438.96	2897.58
439.14	3070.78
439.33	3103.55
439.52	3073.12
439.70	3124.62
439.89	3075.46
440.08	3089.51
440.26	3070.78
440.45	3098.87
440.63	3126.96
440.82	3129.30
441.01	3066.10
441.19	3213.56
441.38	3194.83
441.57	3309.52
441.75	3241.64
441.94	3344.63
442.12	3283.77
442.31	3332.92
442.50	3307.18
442.68	3304.84
442.87	3300.16
443.05	3316.54
443.24	3428.88
443.43	3389.10
443.61	3323.56
443.80	3559.95
443.98	3321.22
444.17	3194.83
444.35	3382.07
444.54	3442.93
444.73	3328.24
444.91	3386.76
445.10	3316.54
445.28	3405.48
445.47	3337.60
445.65	3346.97
445.84	3358.67
446.02	3503.78
446.21	3375.05
446.39	3405.48
446.58	3510.80
446.77	3569.32
446.95	3485.06
447.14	3482.72
447.32	3473.36
447.51	3471.01
447.69	3433.57
447.88	3566.98
448.06	3616.13
448.25	3529.53
448.43	3543.57
448.62	3414.84
448.80	3414.84
448.99	3510.80
449.17	3489.74
449.36	3602.08
449.54	3510.80
449.73	3569.32
449.91	3613.79
450.10	3566.98
450.28	3719.11
450.46	3723.79
450.65	3653.58
450.83	3747.20
451.02	3606.77
451.20	3693.37
451.39	3641.87
451.57	3655.92
451.76	3620.81
451.94	3655.92
452.13	3590.38
452.31	3833.80
452.49	3662.94
452.68	3733.15
452.86	3791.67
453.05	3684.00
453.23	3709.75
453.42	3826.78
453.60	3737.84
453.78	3758.90
453.97	3712.09
454.15	3772.94
454.34	3733.15
454.52	3974.23
454.70	3770.60
454.89	3878.27
455.07	3908.69
455.26	4007.00
455.44	3918.06
455.62	3873.59
455.81	3854.86
455.99	3932.10
456.17	3941.46
456.36	4030.40
456.54	4121.68
456.73	4035.08
456.91	4112.32
457.09	4219.99
457.28	4159.13
457.46	3929.76
457.64	4135.73
457.83	4035.08
458.01	4004.66
458.19	4264.46
458.38	4098.28
458.56	4161.47
458.74	4159.13
458.93	4264.46
459.11	4229.35
459.29	4313.61
459.48	4315.95
459.66	4184.88
459.84	4231.69
460.03	4402.55
460.21	4369.78
460.39	4440.00
460.57	4369.78
460.76	4327.65
460.94	4334.67
461.12	4332.33
461.31	4355.74
461.49	4245.73
461.67	4358.08
461.85	4407.23
462.04	4353.40
462.22	4699.80
462.40	4393.19
462.59	4624.90
462.77	4479.79
462.95	4622.56
463.13	4449.36
463.32	4461.06
463.50	4596.81
463.68	4582.77
463.86	4416.59
464.05	4423.61
464.23	4559.36
464.41	4503.19
464.59	4493.83
464.78	4603.83
464.96	4617.88
465.14	4517.23
465.32	4704.48
465.50	4683.41
465.69	4552.34
465.87	4545.32
466.05	4540.64
466.23	4631.92
466.41	4568.73
466.60	4844.91
466.78	4585.11
466.96	4697.46
467.14	4587.45
467.32	4702.14
467.51	4791.08
467.69	4652.98
467.87	4784.06
468.05	4809.80
468.23	4816.82
468.41	4870.65
468.60	4774.69
468.78	5006.41
468.96	4746.61
469.14	4802.78
469.32	4819.16
469.50	4678.73
469.69	4847.25
469.87	4896.40
470.05	4957.25
470.23	4992.36
470.41	4990.02
470.59	5097.69
470.77	4994.70
470.95	4915.12
471.14	5177.26
471.32	4952.57
471.50	5076.62
471.68	5107.05
471.86	5226.42
472.04	5132.79
472.22	5259.18
472.40	5263.86
472.58	5287.27
472.77	5397.28
472.95	5359.83
473.13	5263.86
473.31	5240.46
473.49	5315.36
473.67	5444.09
473.85	5256.84
474.03	5401.96
474.21	5364.51
474.39	5523.66
474.57	5668.78
474.75	5610.26
474.93	5514.30
475.12	5603.24
475.30	5617.29
475.48	5654.73
475.66	5748.36
475.84	5694.52
476.02	5827.93
476.20	5715.59
476.38	5877.09
476.56	6113.48
476.74	5881.77
476.92	6080.71
477.10	6026.88
477.28	6127.52
477.46	5813.89
477.64	5902.83
477.82	6031.56
478.00	6265.61
478.18	6249.23
478.36	6080.71
478.54	6267.95
478.72	6197.74
478.90	6312.42
479.08	6413.07
479.26	6476.26
479.44	6595.63
479.62	6600.31
479.80	6469.24
479.98	6619.04
480.16	6829.68
480.34	6541.80
480.52	6642.44
480.70	6857.77
480.88	6707.98
481.06	6707.98
481.24	6677.55
481.41	6913.94
481.59	6815.64
481.77	7063.74
481.95	7047.35
482.13	7213.53
482.31	7136.29
482.49	7386.73
482.67	7337.58
482.85	7173.74
483.03	7463.97
483.21	7524.82
483.39	7625.47
483.57	7478.01
483.74	7529.50
483.92	7829.09
484.10	7602.06
484.28	7698.02
484.46	7868.88
484.64	7974.21
484.82	7922.71
485.00	8028.04
485.18	8098.25
485.35	8161.45
485.53	8208.26
485.71	8177.83
485.89	8454.02
486.07	8308.90
486.25	8273.79
486.43	8404.86
486.61	8599.13
486.78	8470.40
486.96	8645.94
487.14	8774.67
487.32	8725.52
487.50	8690.41
487.68	8711.47
487.85	9006.38
488.03	8945.53
488.21	9191.28
488.39	9022.77
488.57	9263.84
488.75	9195.96
488.92	9327.03
489.10	9427.68
489.28	9240.44
489.46	9605.56
489.64	9207.67
489.81	9750.67
489.99	9708.54
490.17	9652.37
490.35	9966.00
490.53	9825.57
490.70	10099.41
490.88	9930.89
491.06	10083.03
491.24	10022.17
491.41	10204.74
491.59	10303.04
491.77	10085.37
491.95	10375.59
492.13	10401.34
492.30	10544.11
492.48	10312.40
492.66	10485.60
492.84	10539.43
493.01	10593.26
493.19	10516.03
493.37	10602.63
493.54	10953.71
493.72	10855.40
493.90	10967.75
494.08	10972.43
494.25	11084.78
494.43	10885.83
494.61	11103.50
494.79	11269.68
494.96	11257.98
495.14	11159.67
495.32	11211.17
495.49	11463.94
495.67	11557.57
495.85	11309.47
496.02	11372.66
496.20	11768.21
496.38	11899.28
496.55	11709.70
496.73	11981.20
496.91	11960.14
497.09	12257.39
497.26	12140.36
497.44	12053.76
497.62	12163.76
497.79	12093.55
497.97	12011.63
498.14	12196.53
498.32	12217.60
498.50	12421.22
498.67	12547.61
498.85	12372.07
499.03	12725.49
499.20	12559.31
499.38	12585.06
499.56	12744.22
499.73	12762.94
499.91	12805.07
500.08	12980.61
500.26	12886.99
500.44	12762.94
500.61	12926.78
500.79	13069.55
500.97	13020.40
501.14	13249.77
501.32	13057.85
501.49	13102.32
501.67	13252.11
501.84	13114.02
502.02	13362.12
502.20	13600.85
502.37	13631.28
502.55	13231.05
502.72	13298.92
502.90	13476.80
503.07	13228.71
503.25	13504.89
503.43	13640.64
503.60	13523.62
503.78	13600.85
503.95	13603.19
504.13	13844.27
504.30	13984.70
504.48	13673.41
504.65	13806.82
504.83	14036.19
505.01	14106.41
505.18	14111.09
505.36	14005.77
505.53	14113.43
505.71	14232.80
505.88	14389.61
506.06	14047.90
506.23	14342.80
506.41	14176.62
506.58	14338.12
506.76	14335.78
506.93	14366.21
507.11	14586.22
507.28	14427.06
507.46	14579.20
507.63	14817.93
507.81	14633.03
507.98	14651.75
508.16	14544.09
508.33	14764.10
508.50	14843.68
508.68	15007.52
508.85	14967.73
509.03	14939.64
509.20	14839.00
509.38	15066.03
509.55	15131.56
509.73	15133.90
509.90	15318.81
510.08	15269.66
510.25	15229.87
510.42	15124.54
510.60	15260.29
510.77	15288.38
510.95	15627.76
511.12	15290.72
511.30	15351.57
511.47	15396.04
511.64	15445.20
511.82	15583.29
511.99	15634.78
512.17	15585.63
512.34	15590.31
512.51	15676.91
512.69	15831.38
512.86	16119.27
513.04	16128.63
513.21	15915.64
513.38	15646.48
513.56	16292.47
513.73	15859.47
513.90	16257.36
514.08	15824.36
514.25	16290.13
514.43	16269.06
514.60	16360.34
514.77	16109.91
514.95	16322.90
515.12	16137.99
515.29	16388.43
515.47	16393.11
515.64	16711.42
515.81	16493.76
515.99	16580.36
516.16	16657.59
516.33	16453.97
516.51	16779.30
516.68	16549.93
516.85	16573.33
517.03	16765.26
517.20	16844.84
517.37	16776.96
517.54	16762.92
517.72	16854.20
517.89	16945.48
518.06	17095.27
518.24	17116.34
518.41	16844.84
518.58	16865.90
518.75	16868.24
518.93	16908.03
519.10	16833.13
519.27	16924.41
519.45	17256.77
519.62	17310.60
519.79	17238.05
519.96	17282.52
520.14	17357.41
520.31	17158.47
520.48	17212.30
520.65	17315.28
520.83	17586.79
521.00	17727.22
521.17	17341.03
521.34	17322.30
521.52	17516.57
521.69	17809.14
521.86	17565.72
522.03	17731.90
522.20	17862.97
522.38	17556.36
522.55	17687.43
522.72	17682.75
522.89	17996.38
523.07	18225.75
523.24	17820.84
523.41	18087.66
523.58	17923.82
523.75	18061.91
523.92	17961.27
524.10	18045.53
524.27	17919.14
524.44	18246.82
524.61	18520.66
524.78	18087.66
524.96	18036.17
525.13	18382.57
525.30	18579.17
525.47	18293.63
525.64	18267.88
525.81	18707.90
525.98	18218.73
526.16	18160.22
526.33	18497.25
526.50	18497.25
526.67	18263.20
526.84	18551.09
527.01	18590.88
527.18	18633.00
527.36	18593.22
527.53	18759.39
527.70	18375.55
527.87	18946.64
528.04	19122.18
528.21	18909.19
528.38	18951.32
528.55	18689.18
528.72	18738.33
528.89	19098.77
529.07	18909.19
529.24	18888.12
529.41	18876.42
529.58	18958.34
529.75	19257.93
529.92	19201.76
530.09	19140.90
530.26	19105.79
530.43	19094.09
530.60	19033.24
530.77	18916.21
530.94	19620.71
531.11	19489.64
531.28	19208.78
531.46	19454.53
531.63	19339.85
531.80	19410.06
531.97	19274.31
532.14	19433.47
532.31	19403.04
532.48	19421.77
532.65	19564.54
532.82	19218.14
532.99	19384.32
533.16	19536.45
533.33	19489.64
533.50	19599.65
533.67	19611.35
533.84	19309.42
534.01	19501.34
534.18	19627.73
534.35	20037.33
534.52	19601.99
534.69	19793.91
534.86	19765.82
535.03	19484.96
535.20	19934.34
535.37	19854.76
535.54	20299.47
535.71	20067.75
535.88	20360.32
536.05	20173.08
536.22	19917.96
536.38	20255.00
536.55	20086.48
536.72	20257.34
536.89	20482.03
537.06	20102.86
537.23	20489.05
537.40	20130.95
537.57	20266.70
537.74	19924.98
537.91	20336.91
538.08	20294.79
538.25	20332.23
538.42	20353.30
538.59	20563.95
538.75	20460.96
538.92	20400.11
539.09	20540.54
539.26	20666.93
539.43	20718.42
539.60	20657.57
539.77	20659.91
539.94	20905.66
540.11	20741.83
540.28	20896.30
540.44	20781.62
540.61	20926.73
540.78	20739.49
540.95	20638.84
541.12	21104.61
541.29	20950.14
541.46	21493.14
541.62	21383.13
541.79	21486.12
541.96	21493.14
542.13	21413.56
542.30	21291.85
542.47	21156.10
542.63	21130.36
542.80	21429.94
542.97	21930.82
543.14	21645.27
543.31	21745.92
543.48	21514.20
543.64	21738.90
543.81	21816.13
543.98	21743.58
544.15	21624.21
544.32	21867.63
544.48	22003.38
544.65	21851.24
544.82	21577.40
544.99	21315.26
545.16	22043.17
545.32	21720.17
545.49	22274.88
545.66	22799.16
545.83	23143.22
546.00	22752.35
546.16	22595.53
546.33	22335.73
546.50	22188.28
546.67	22167.21
546.83	21645.27
547.00	21788.05
547.17	21809.11
547.34	22022.10
547.50	22022.10
547.67	22017.42
547.84	21774.00
548.00	22167.21
548.17	22324.03
548.34	21982.31
548.51	22143.81
548.67	21912.10
548.84	21914.44
549.01	22047.85
549.18	22279.56
549.34	21968.27
549.51	22146.15
549.68	22319.35
549.84	22038.48
550.01	22181.26
550.18	21757.62
550.34	22029.12
550.51	21940.18
550.68	22216.36
550.84	22195.30
551.01	22249.13
551.18	22237.43
551.34	22188.28
551.51	22139.13
551.68	21865.28
551.84	22178.92
552.01	21975.29
552.18	22216.36
552.34	22111.04
552.51	22593.19
552.68	22555.74
552.84	22471.48
553.01	22656.39
553.18	22199.98
553.34	22492.55
553.51	22312.33
553.67	22396.59
553.84	22607.23
554.01	22731.28
554.17	22417.65
554.34	22625.96
554.51	22647.02
554.67	22806.18
554.84	22434.03
555.00	22466.80
555.17	22342.75
555.33	22703.20
555.50	22499.57
555.67	22043.17
555.83	22555.74
556.00	22635.32
556.16	22553.40
556.33	22602.55
556.50	22492.55
556.66	22787.46
556.83	22485.53
556.99	22813.20
557.16	22967.68
557.32	22693.83
557.49	22682.13
557.65	22693.83
557.82	22728.94
557.98	22848.31
558.15	22403.61
558.32	22813.20
558.48	22558.08
558.65	22941.93
558.81	22918.53
558.98	22579.15
559.14	22691.49
559.31	22955.97
559.47	22752.35
559.64	22817.88
559.80	23028.53
559.97	22813.20
560.13	22817.88
560.30	23000.44
560.46	22771.07
560.63	22927.89
560.79	22817.88
560.96	22771.07
561.12	23084.70
561.29	22878.74
561.45	23105.77
561.61	23204.07
561.78	23103.43
561.94	23232.16
562.11	23136.20
562.27	23388.97
562.44	23381.95
562.60	22909.16
562.77	23349.18
562.93	23115.13
563.10	23386.63
563.26	22892.78
563.42	23110.45
563.59	23204.07
563.75	23033.21
563.92	23381.95
564.08	23161.94
564.24	23122.15
564.41	23016.83
564.57	23070.66
564.74	23232.16
564.90	23236.84
565.07	23384.29
565.23	23274.29
565.39	23349.18
565.56	23461.53
565.72	22988.74
565.88	23517.70
566.05	23587.92
566.21	23201.73
566.38	23417.06
566.54	23285.99
566.70	23548.13
566.87	23452.17
567.03	23058.96
567.19	23922.62
567.36	23644.09
567.52	23566.85
567.68	23653.45
567.85	23496.64
568.01	23316.42
568.17	23288.33
568.34	23101.09
568.50	23232.16
568.66	23332.80
568.83	23557.49
568.99	23447.49
569.15	23302.37
569.32	23152.58
569.48	23374.93
569.64	23307.05
569.81	23187.69
569.97	23449.83
570.13	23381.95
570.30	23288.33
570.46	23616.01
570.62	23253.22
570.78	23459.19
570.95	23307.05
571.11	23466.21
571.27	23257.90
571.43	23496.64
571.60	23330.46
571.76	23569.19
571.92	23648.77
572.09	23459.19
572.25	23606.64
572.41	23597.28
572.57	23618.35
572.74	23985.81
572.90	23400.68
573.06	23529.41
573.22	23447.49
573.38	23559.83
573.55	23232.16
573.71	23587.92
573.87	23688.56
574.03	23468.55
574.20	23297.69
574.36	23653.45
574.52	23454.51
574.68	23592.60
574.84	23772.82
575.01	23545.79
575.17	23697.92
575.33	23426.42
575.49	23475.57
575.65	23793.89
575.82	23962.40
575.98	23454.51
576.14	23798.57
576.30	23791.55
576.46	23723.67
576.62	23700.26
576.79	23866.44
576.95	23777.50
577.11	23704.95
577.27	23847.72
577.43	23824.31
577.59	24039.64
577.75	23644.09
577.92	23871.12
578.08	23716.65
578.24	23674.52
578.40	23604.30
578.56	23735.37
578.72	24095.82
578.88	23728.35
579.04	23901.55
579.21	23913.25
579.37	23665.16
579.53	23836.02
579.69	23688.56
579.85	23953.04
580.01	23452.17
580.17	23634.73
580.33	23852.40
580.49	23810.27
580.65	23751.76
580.82	23449.83
580.98	23756.44
581.14	23527.06
581.30	23934.32
581.46	23875.80
581.62	23690.90
581.78	23552.81
581.94	23667.50
582.10	23508.34
582.26	24112.20
582.42	23658.14
582.58	23501.32
582.74	23859.42
582.90	23796.23
583.06	24034.96
583.22	23604.30
583.38	23641.75
583.54	23625.37
583.70	23901.55
583.86	23686.22
584.02	23810.27
584.18	23943.68
584.34	23826.65
584.50	23861.76
584.66	23426.42
584.82	23433.44
584.98	23728.35
585.14	23847.72
585.30	23924.96
585.46	23793.89
585.62	23623.03
585.78	23761.12
585.94	23967.09
586.10	24049.00
586.26	24116.88
586.42	23737.71
586.58	24037.30
586.74	23644.09
586.90	23908.57
587.06	23906.23
587.22	23964.75
587.38	23885.17
587.54	24039.64
587.70	24114.54
587.86	24166.03
588.02	24243.27
588.18	24091.13
588.34	23896.87
588.49	23833.68
588.65	23929.64
588.81	23800.91
588.97	24229.23
589.13	23674.52
589.29	23920.28
589.45	24215.18
589.61	23793.89
589.77	24166.03
589.93	24100.50
590.08	23545.79
590.24	24149.65
590.40	24196.46
590.56	24018.58
590.72	23721.33
590.88	23601.96
