SpectraSuite Data File
++++++++++++++++++++++++++++++++++++
Date: Thu Oct 24 13:21:04 EDT 2013
User: stostad
Dark Spectrum Present: No
Reference Spectrum Present: No
Number of Sampled Component Spectra: 1
Spectrometers: USB2+H05261
Integration Time (usec): 100000 (USB2+H05261)
Spectra Averaged: 1 (USB2+H05261)
Boxcar Smoothing: 0 (USB2+H05261)
Correct for Electrical Dark: No (USB2+H05261)
Strobe/Lamp Enabled: No (USB2+H05261)
Correct for Detector Non-linearity: No (USB2+H05261)
Correct for Stray Light: No (USB2+H05261)
Number of Pixels in Processed Spectrum: 2048
>>>>>Begin Processed Spectral Data<<<<<
365.73	519.60
365.92	519.60
366.12	519.60
366.32	482.15
366.52	489.17
366.72	491.51
366.91	461.09
367.11	472.79
367.31	484.49
367.51	416.62
367.70	451.72
367.90	409.59
368.10	458.74
368.30	526.62
368.49	477.47
368.69	491.51
368.89	477.47
369.09	454.06
369.28	484.49
369.48	458.74
369.68	552.37
369.87	526.62
370.07	505.56
370.27	533.64
370.47	573.43
370.66	683.44
370.86	655.35
371.06	683.44
371.25	709.18
371.45	678.76
371.65	723.23
371.84	713.86
372.04	709.18
372.24	730.25
372.44	676.41
372.63	648.33
372.83	720.88
373.03	695.14
373.22	713.86
373.42	741.95
373.62	760.67
373.81	739.61
374.01	802.80
374.21	760.67
374.40	774.72
374.60	800.46
374.79	812.17
374.99	774.72
375.19	763.01
375.38	805.14
375.58	788.76
375.78	807.48
375.97	753.65
376.17	786.42
376.37	774.72
376.56	758.33
376.76	791.10
376.95	718.54
377.15	875.36
377.35	795.78
377.54	849.61
377.74	840.25
377.93	732.59
378.13	763.01
378.33	826.21
378.52	798.12
378.72	814.51
378.91	805.14
379.11	814.51
379.31	802.80
379.50	795.78
379.70	856.64
379.89	823.87
380.09	847.27
380.28	816.85
380.48	880.04
380.68	875.36
380.87	849.61
381.07	866.00
381.26	814.51
381.46	802.80
381.65	765.36
381.85	842.59
382.04	795.78
382.24	800.46
382.43	821.53
382.63	795.78
382.83	880.04
383.02	835.57
383.22	837.91
383.41	812.17
383.61	823.87
383.80	851.96
384.00	880.04
384.19	840.25
384.39	828.55
384.58	842.59
384.78	786.42
384.97	828.55
385.17	788.76
385.36	936.21
385.56	858.98
385.75	861.32
385.95	851.96
386.14	891.74
386.34	863.66
386.53	802.80
386.72	779.40
386.92	816.85
387.11	929.19
387.31	858.98
387.50	798.12
387.70	931.53
387.89	882.38
388.09	844.93
388.28	924.51
388.48	828.55
388.67	884.72
388.86	847.27
389.06	851.96
389.25	898.77
389.45	877.70
389.64	910.47
389.84	938.55
390.03	966.64
390.22	936.21
390.42	875.36
390.61	987.71
390.81	938.55
391.00	887.06
391.19	903.45
391.39	908.13
391.58	903.45
391.78	887.06
391.97	926.85
392.16	929.19
392.36	929.19
392.55	992.39
392.75	952.60
392.94	1043.88
393.13	957.28
393.33	863.66
393.52	990.05
393.71	950.26
393.91	1036.86
394.10	954.94
394.29	898.77
394.49	1004.09
394.68	1020.47
394.88	1067.28
395.07	964.30
395.26	978.34
395.46	1006.43
395.65	968.98
395.84	1090.69
396.04	1004.09
396.23	1022.81
396.42	983.02
396.62	1018.13
396.81	1029.84
397.00	1062.60
397.19	1043.88
397.39	1020.47
397.58	1060.26
397.77	1062.60
397.97	1100.05
398.16	1015.79
398.35	1107.07
398.55	1186.65
398.74	1095.37
398.93	1043.88
399.12	1062.60
399.32	1125.80
399.51	1046.22
399.70	1083.67
399.90	1013.45
400.09	1022.81
400.28	1083.67
400.47	997.07
400.67	1104.73
400.86	1116.44
401.05	1107.07
401.24	1165.59
401.44	1111.75
401.63	1104.73
401.82	1121.12
402.01	1128.14
402.21	1191.33
402.40	1188.99
402.59	1179.63
402.78	1151.54
402.97	1184.31
403.17	1144.52
403.36	1221.76
403.55	1219.42
403.74	1165.59
403.93	1210.06
404.13	1259.21
404.32	1181.97
404.51	1186.65
404.70	1291.98
404.89	1226.44
405.09	1324.74
405.28	1233.46
405.47	1254.53
405.66	1299.00
405.85	1266.23
406.05	1277.93
406.24	1299.00
406.43	1291.98
406.62	1394.96
406.81	1287.29
407.00	1231.12
407.20	1299.00
407.39	1327.08
407.58	1322.40
407.77	1336.45
407.96	1277.93
408.15	1221.76
408.34	1247.51
408.54	1362.19
408.73	1259.21
408.92	1301.34
409.11	1352.83
409.30	1371.55
409.49	1322.40
409.68	1404.32
409.87	1373.89
410.07	1345.81
410.26	1399.64
410.45	1357.51
410.64	1423.05
410.83	1490.92
411.02	1432.41
411.21	1509.65
411.40	1500.28
411.59	1493.26
411.78	1556.46
411.98	1575.18
412.17	1540.07
412.36	1551.78
412.55	1556.46
412.74	1605.61
412.93	1514.33
413.12	1547.09
413.31	1540.07
413.50	1472.20
413.69	1547.09
413.88	1598.59
414.07	1547.09
414.26	1591.56
414.45	1598.59
414.64	1617.31
414.83	1652.42
415.02	1612.63
415.22	1647.74
415.41	1582.20
415.60	1666.46
415.79	1767.10
415.98	1687.53
416.17	1694.55
416.36	1710.93
416.55	1647.74
416.74	1694.55
416.93	1593.90
417.12	1643.06
417.31	1652.42
417.50	1743.70
417.69	1755.40
417.88	1762.42
418.07	1736.68
418.26	1760.08
418.45	1799.87
418.64	1881.79
418.83	1879.45
419.02	1834.98
419.21	1795.19
419.39	1806.89
419.58	1891.15
419.77	1806.89
419.96	1881.79
420.15	1907.54
420.34	1877.11
420.53	1806.89
420.72	1963.71
420.91	1933.28
421.10	1872.43
421.29	1966.05
421.48	1956.69
421.67	1818.60
421.86	1790.51
422.05	1898.17
422.24	1907.54
422.43	1940.30
422.61	1956.69
422.80	1961.37
422.99	1980.09
423.18	1898.17
423.37	2008.18
423.56	1905.20
423.75	2038.61
423.94	1930.94
424.13	1820.94
424.32	1902.86
424.50	1973.07
424.69	1916.90
424.88	1977.75
425.07	1902.86
425.26	1963.71
425.45	2036.27
425.64	1921.58
425.83	1947.33
426.01	2054.99
426.20	1987.11
426.39	1909.88
426.58	1956.69
426.77	1970.73
426.96	1977.75
427.15	2019.88
427.33	2010.52
427.52	2036.27
427.71	2001.16
427.90	2059.67
428.09	2017.54
428.28	2076.06
428.46	2139.25
428.65	2115.84
428.84	2132.23
429.03	2106.48
429.22	2125.21
429.40	2143.93
429.59	2057.33
429.78	2129.89
429.97	1994.14
430.16	2111.16
430.34	2092.44
430.53	2141.59
430.72	2127.55
430.91	2111.16
431.10	2118.18
431.28	2097.12
431.47	2129.89
431.66	2181.38
431.85	2204.78
432.03	2244.57
432.22	2193.08
432.41	2277.34
432.60	2202.44
432.79	2242.23
432.97	2169.68
433.16	2221.17
433.35	2298.41
433.54	2167.34
433.72	2289.04
433.91	2314.79
434.10	2239.89
434.28	2237.55
434.47	2401.39
434.66	2324.15
434.85	2321.81
435.03	2527.78
435.22	2523.10
435.41	2766.51
435.59	2583.95
435.78	2661.19
435.97	2635.44
436.16	2509.05
436.34	2347.56
436.53	2319.47
436.72	2429.48
436.90	2380.32
437.09	2352.24
437.28	2307.77
437.46	2413.09
437.65	2427.14
437.84	2373.30
438.02	2513.74
438.21	2487.99
438.40	2438.84
438.58	2562.89
438.77	2537.14
438.96	2523.10
439.14	2595.65
439.33	2593.31
439.52	2574.59
439.70	2523.10
439.89	2715.02
440.08	2583.95
440.26	2530.12
440.45	2633.10
440.63	2640.12
440.82	2789.92
441.01	2682.25
441.19	2757.15
441.38	2745.45
441.57	2820.35
441.75	2808.64
441.94	2747.79
442.12	2747.79
442.31	2712.68
442.50	2827.37
442.68	2663.53
442.87	2710.34
443.05	2733.75
443.24	2871.84
443.43	2832.05
443.61	2836.73
443.80	2963.12
443.98	2848.43
444.17	2857.79
444.35	2827.37
444.54	2911.63
444.73	2949.08
444.91	2782.90
445.10	2951.42
445.28	2864.82
445.47	2843.75
445.65	2920.99
445.84	2829.71
446.02	3030.99
446.21	2892.90
446.39	2857.79
446.58	2953.76
446.77	2944.39
446.95	2857.79
447.14	2932.69
447.32	2836.73
447.51	2923.33
447.69	2850.77
447.88	2906.95
448.06	2925.67
448.25	2869.50
448.43	2925.67
448.62	2986.52
448.80	2942.05
448.99	2956.10
449.17	2892.90
449.36	2953.76
449.54	3049.72
449.73	3075.46
449.91	3066.10
450.10	2939.71
450.28	3119.93
450.46	3141.00
450.65	3215.90
450.83	3201.85
451.02	3178.45
451.20	3185.47
451.39	3145.68
451.57	3201.85
451.76	3089.51
451.94	3148.02
452.13	3162.06
452.31	3129.30
452.49	3133.98
452.68	3173.77
452.86	3133.98
453.05	3208.87
453.23	3236.96
453.42	3108.23
453.60	3194.83
453.78	3321.22
453.97	3023.97
454.15	3187.81
454.34	3136.32
454.52	3234.62
454.70	3180.79
454.89	3239.30
455.07	3262.71
455.26	3197.17
455.44	3396.12
455.62	3258.03
455.81	3229.94
455.99	3318.88
456.17	3283.77
456.36	3346.97
456.54	3368.03
456.73	3407.82
456.91	3492.08
457.09	3332.92
457.28	3445.27
457.46	3412.50
457.64	3463.99
457.83	3452.29
458.01	3412.50
458.19	3660.60
458.38	3435.91
458.56	3531.87
458.74	3414.84
458.93	3506.12
459.11	3527.19
459.29	3562.30
459.48	3517.83
459.66	3585.70
459.84	3543.57
460.03	3674.64
460.21	3644.21
460.39	3576.34
460.57	3538.89
460.76	3749.54
460.94	3597.40
461.12	3737.84
461.31	3613.79
461.49	3590.38
461.67	3665.28
461.85	3751.88
462.04	3700.39
462.22	4007.00
462.40	3777.62
462.59	3735.50
462.77	3854.86
462.95	3705.07
463.13	3681.66
463.32	3770.60
463.50	3768.26
463.68	3822.09
463.86	3826.78
464.05	3688.68
464.23	3714.43
464.41	3850.18
464.59	3665.28
464.78	3782.31
464.96	3749.54
465.14	3850.18
465.32	3824.44
465.50	3831.46
465.69	3836.14
465.87	3871.25
466.05	3913.38
466.23	3852.52
466.41	3798.69
466.60	4002.32
466.78	3969.55
466.96	3819.75
467.14	3915.72
467.32	3850.18
467.51	3950.82
467.69	3843.16
467.87	3911.04
468.05	3950.82
468.23	3854.86
468.41	3950.82
468.60	3786.99
468.78	4067.85
468.96	4023.38
469.14	3948.48
469.32	3976.57
469.50	4039.76
469.69	4039.76
469.87	4063.17
470.05	4105.30
470.23	4102.96
470.41	4049.13
470.59	4131.05
470.77	4133.39
470.95	4053.81
471.14	4262.12
471.32	4077.21
471.50	4198.92
471.68	4166.15
471.86	4173.18
472.04	4180.20
472.22	4269.14
472.40	4344.03
472.58	4308.93
472.77	4386.16
472.95	4360.42
473.13	4428.29
473.31	4372.12
473.49	4360.42
473.67	4358.08
473.85	4442.34
474.03	4561.70
474.21	4561.70
474.39	4437.66
474.57	4585.11
474.75	4423.61
474.93	4561.70
475.12	4730.22
475.30	4603.83
475.48	4674.05
475.66	4624.90
475.84	4631.92
476.02	4732.56
476.20	4561.70
476.38	4697.46
476.56	4830.87
476.74	4861.29
476.92	4819.16
477.10	4779.37
477.28	4865.97
477.46	4926.83
477.64	5109.39
477.82	4933.85
478.00	5081.30
478.18	5116.41
478.36	5001.72
478.54	5130.45
478.72	5085.98
478.90	5193.65
479.08	5301.31
479.26	5294.29
479.44	5329.40
479.62	5266.21
479.80	5247.48
479.98	5324.72
480.16	5584.52
480.34	5554.09
480.52	5584.52
480.70	5614.95
480.88	5530.69
481.06	5509.62
481.24	5638.35
481.41	5593.88
481.59	5785.80
481.77	5743.67
481.95	5755.38
482.13	5916.87
482.31	5926.24
482.49	5963.68
482.67	5963.68
482.85	6001.13
483.03	5961.34
483.21	6120.50
483.39	6167.31
483.57	6101.78
483.74	6136.88
483.92	6214.12
484.10	6321.79
484.28	6216.46
484.46	6396.68
484.64	6616.69
484.82	6373.28
485.00	6581.59
485.18	6462.22
485.35	6623.72
485.53	6492.65
485.71	6663.51
485.89	6806.28
486.07	6693.93
486.25	6867.13
486.43	6822.66
486.61	7077.78
486.78	7059.06
486.96	6981.82
487.14	7016.93
487.32	7131.61
487.50	7152.68
487.68	7232.26
487.85	7274.38
488.03	7398.43
488.21	7410.14
488.39	7485.03
488.57	7269.70
488.75	7524.82
488.92	7653.55
489.10	7531.84
489.28	7777.60
489.46	7548.23
489.64	7740.15
489.81	7735.47
489.99	7838.45
490.17	7932.08
490.35	7995.27
490.53	8170.81
490.70	7953.14
490.88	8124.00
491.06	8161.45
491.24	8161.45
491.41	8105.28
491.59	8442.31
491.77	8290.18
491.95	8381.46
492.13	8400.18
492.30	8418.91
492.48	8334.65
492.66	8428.27
492.84	8526.57
493.01	8823.82
493.19	8575.72
493.37	8769.99
493.54	8727.86
493.72	8760.63
493.90	8814.46
494.08	8891.70
494.25	8980.64
494.43	8912.76
494.61	8982.98
494.79	8908.08
494.96	8826.16
495.14	8933.82
495.32	9242.78
495.49	9202.99
495.67	9399.59
495.85	9310.65
496.02	9296.61
496.20	9366.82
496.38	9413.63
496.55	9425.34
496.73	9898.13
496.91	9359.80
497.09	9575.13
497.26	9774.08
497.44	9687.48
497.62	9680.46
497.79	9912.17
497.97	9586.83
498.14	9951.96
498.32	9991.75
498.50	9942.60
498.67	10097.07
498.85	10022.17
499.03	10108.77
499.20	9982.38
499.38	9970.68
499.56	10054.94
499.73	10312.40
499.91	10073.67
500.08	10441.13
500.26	10129.84
500.44	10195.37
500.61	10321.76
500.79	10356.87
500.97	10413.04
501.14	10696.25
501.32	10628.37
501.49	10642.42
501.67	10459.85
501.84	10640.08
502.02	10729.02
502.20	10628.37
502.37	10686.89
502.55	10480.92
502.72	10768.80
502.90	10714.97
503.07	10693.91
503.25	10916.26
503.43	10920.94
503.60	10944.34
503.78	10808.59
503.95	10853.06
504.13	10878.81
504.30	11140.95
504.48	10937.32
504.65	11087.12
504.83	11248.61
505.01	11243.93
505.18	11138.61
505.36	11122.23
505.53	11257.98
505.71	11279.04
505.88	11487.35
506.06	11206.48
506.23	11452.24
506.41	11454.58
506.58	11316.49
506.76	11550.54
506.93	11487.35
507.11	11410.11
507.28	11592.67
507.46	11440.54
507.63	11716.72
507.81	11595.01
507.98	11599.70
508.16	11765.87
508.33	11761.19
508.50	12013.97
508.68	11978.86
508.85	12070.14
509.03	11800.98
509.20	11798.64
509.38	12262.07
509.55	12028.01
509.73	12208.23
509.90	12210.57
510.08	12109.93
510.25	11885.24
510.42	12236.32
510.60	12250.36
510.77	12372.07
510.95	12341.64
511.12	12306.54
511.30	12351.01
511.47	12393.14
511.64	12571.02
511.82	12468.03
511.99	12414.20
512.17	12617.83
512.34	12484.42
512.51	12601.44
512.69	12624.85
512.86	12524.21
513.04	12650.60
513.21	12730.17
513.38	12503.14
513.56	12561.66
513.73	12732.51
513.90	12809.75
514.08	12872.95
514.25	12929.12
514.43	12545.27
514.60	12753.58
514.77	12952.52
514.95	12861.24
515.12	12884.65
515.29	13144.45
515.47	13198.28
515.64	13071.89
515.81	13195.94
515.99	13219.35
516.16	13209.98
516.33	13081.25
516.51	13317.65
516.68	13083.59
516.85	13439.36
517.03	13102.32
517.20	13256.79
517.37	13385.52
517.54	13294.24
517.72	13317.65
517.89	13448.72
518.06	13621.92
518.24	13291.90
518.41	13631.28
518.58	13518.93
518.75	13387.86
518.93	13451.06
519.10	13631.28
519.27	13598.51
519.45	13554.04
519.62	13584.47
519.79	13476.80
519.96	13486.17
520.14	13650.00
520.31	13460.42
520.48	13743.63
520.65	13736.60
520.83	13951.93
521.00	13975.34
521.17	13846.61
521.34	13984.70
521.52	13818.52
521.69	13926.19
521.86	13921.51
522.03	13764.69
522.20	13923.85
522.38	14061.94
522.55	14225.78
522.72	14068.96
522.89	14111.09
523.07	14181.31
523.24	14434.08
523.41	14377.91
523.58	14193.01
523.75	14092.37
523.92	14232.80
524.10	14270.25
524.27	14415.36
524.44	14368.55
524.61	14331.10
524.78	14492.60
524.96	14459.83
525.13	14511.32
525.30	14743.03
525.47	14466.85
525.64	14361.53
525.81	14415.36
525.98	14738.35
526.16	14476.21
526.33	14609.62
526.50	14902.19
526.67	14682.18
526.84	14871.76
527.01	15054.33
527.18	14616.65
527.36	14803.89
527.53	14883.47
527.70	14789.85
527.87	14857.72
528.04	14993.47
528.21	14991.13
528.38	15026.24
528.55	15070.71
528.72	14960.70
528.89	15009.86
529.07	15215.82
529.24	15026.24
529.41	15363.28
529.58	15049.64
529.75	15091.77
529.92	15063.69
530.09	15239.23
530.26	15241.57
530.43	15159.65
530.60	15194.76
530.77	15147.95
530.94	15262.63
531.11	15171.35
531.28	15227.53
531.46	15323.49
531.63	15042.62
531.80	15192.42
531.97	15442.85
532.14	15286.04
532.31	15351.57
532.48	15428.81
532.65	15679.25
532.82	15321.15
532.99	15253.27
533.16	15389.02
533.33	15367.96
533.50	15520.09
533.67	15735.42
533.84	15559.88
534.01	15492.01
534.18	15690.95
534.35	15786.91
534.52	15566.90
534.69	15782.23
534.86	15831.38
535.03	15389.02
535.20	15653.50
535.37	15742.44
535.54	15936.71
535.71	15611.37
535.88	15985.86
536.05	15990.54
536.22	16084.16
536.38	15929.69
536.55	16128.63
536.72	15735.42
536.89	16044.37
537.06	16222.25
537.23	16123.95
537.40	15910.96
537.57	15838.41
537.74	15992.88
537.91	16020.97
538.08	16374.39
538.25	15974.16
538.42	16121.61
538.59	16407.16
538.75	16070.12
538.92	16002.24
539.09	16404.81
539.26	16194.17
539.43	16292.47
539.60	16446.94
539.77	16341.62
539.94	16484.39
540.11	16510.14
540.28	16673.98
540.44	16816.75
540.61	16475.03
540.78	16456.31
540.95	16964.20
541.12	16938.46
541.29	16809.73
541.46	17071.87
541.62	16966.54
541.79	16996.97
541.96	16917.39
542.13	16631.85
542.30	16830.79
542.47	17018.04
542.63	16922.07
542.80	17130.38
542.97	17207.62
543.14	17303.58
543.31	17261.45
543.48	17060.16
543.64	17406.56
543.81	17053.14
543.98	17287.20
544.15	17399.54
544.32	17310.60
544.48	17575.08
544.65	17397.20
544.82	17429.97
544.99	17193.58
545.16	17149.11
545.32	17282.52
545.49	17790.41
545.66	18274.90
545.83	18403.63
546.00	18113.41
546.16	17617.21
546.33	17970.63
546.50	17256.77
546.67	17488.48
546.83	17336.35
547.00	17376.14
547.17	17172.51
547.34	17525.93
547.50	17319.96
547.67	17420.61
547.84	17444.01
548.00	17359.75
548.17	17268.47
548.34	17212.30
548.51	17310.60
548.67	17392.52
548.84	17497.84
549.01	17626.57
549.18	17731.90
549.34	17591.47
549.51	17385.50
549.68	17542.32
549.84	17654.66
550.01	17282.52
550.18	17528.27
550.34	17296.56
550.51	17628.92
550.68	17687.43
550.84	17415.93
551.01	17319.96
551.18	17479.12
551.34	17383.16
551.51	17373.80
551.68	17589.13
551.84	17474.44
552.01	17273.15
552.18	17741.26
552.34	17254.43
552.51	17877.01
552.68	17195.92
552.84	17858.29
553.01	17633.60
553.18	17392.52
553.34	17898.08
553.51	17612.53
553.67	17841.90
553.84	17958.93
554.01	17731.90
554.17	17706.15
554.34	17930.84
554.51	17699.13
554.67	17862.97
554.84	17586.79
555.00	17769.35
555.17	17453.37
555.33	17640.62
555.50	17591.47
555.67	17301.24
555.83	17816.16
556.00	17659.34
556.16	18073.62
556.33	17752.96
556.50	17933.18
556.66	17685.09
556.83	17596.15
556.99	17958.93
557.16	18045.53
557.32	17767.01
557.49	18122.77
557.65	17624.23
557.82	17792.75
557.98	17715.51
558.15	18047.87
558.32	17853.61
558.48	18064.25
558.65	18218.73
558.81	17729.56
558.98	17888.71
559.14	17877.01
559.31	17743.60
559.47	18167.24
559.64	18155.54
559.80	18061.91
559.97	18108.72
560.13	17694.45
560.30	18134.47
560.46	18099.36
560.63	18087.66
560.79	18190.64
560.96	17809.14
561.12	17692.11
561.29	17919.14
561.45	18066.60
561.61	18230.43
561.78	18195.32
561.94	18279.58
562.11	18340.44
562.27	18324.05
562.44	18087.66
562.60	18230.43
562.77	18094.68
562.93	17799.77
563.10	18221.07
563.26	18026.81
563.42	18101.70
563.59	18225.75
563.75	18310.01
563.92	18412.99
564.08	18183.62
564.24	18207.03
564.41	18118.09
564.57	17975.31
564.74	18097.02
564.90	18427.04
565.07	18518.32
565.23	18408.31
565.39	18174.26
565.56	18293.63
565.72	18291.29
565.88	18302.99
566.05	18265.54
566.21	18200.01
566.38	18005.74
566.54	18017.44
566.70	18511.30
566.87	18654.07
567.03	18249.16
567.19	18569.81
567.36	18668.11
567.52	17921.48
567.68	18326.39
567.85	18136.81
568.01	18560.45
568.17	18415.34
568.34	18635.35
568.50	18445.76
568.66	18324.05
568.83	18747.69
568.99	18272.56
569.15	18221.07
569.32	18314.69
569.48	18038.51
569.64	18253.84
569.81	18366.18
569.97	18373.21
570.13	18515.98
570.30	18483.21
570.46	18548.75
570.62	18029.15
570.78	18082.98
570.95	18038.51
571.11	18560.45
571.27	18525.34
571.43	17994.04
571.60	18221.07
571.76	18326.39
571.92	18317.03
572.09	18408.31
572.25	18501.93
572.41	18281.92
572.57	18562.79
572.74	18497.25
572.90	18326.39
573.06	18441.08
573.22	18281.92
573.38	18782.80
573.55	18735.99
573.71	18476.19
573.87	18618.96
574.03	18504.28
574.20	18443.42
574.36	18572.15
574.52	18293.63
574.68	18384.91
574.84	18434.06
575.01	18735.99
575.17	18628.32
575.33	18139.15
575.49	18302.99
575.65	18455.12
575.82	18361.50
575.98	18520.66
576.14	18567.47
576.30	18548.75
576.46	18686.84
576.62	18532.36
576.79	18796.84
576.95	18471.51
577.11	18501.93
577.27	18539.38
577.43	18600.24
577.59	18654.07
577.75	18321.71
577.92	18569.81
578.08	18317.03
578.24	18649.39
578.40	18583.85
578.56	18691.52
578.72	18792.16
578.88	18761.73
579.04	18757.05
579.21	18427.04
579.37	18567.47
579.53	18878.76
579.69	18663.43
579.85	18382.57
580.01	18553.43
580.17	18705.56
580.33	18630.66
580.49	18677.48
580.65	18700.88
580.82	18640.03
580.98	18420.02
581.14	18569.81
581.30	18532.36
581.46	18398.95
581.62	18508.96
581.78	18476.19
581.94	18424.70
582.10	18656.41
582.26	18412.99
582.42	18363.84
582.58	18707.90
582.74	18815.57
582.90	18705.56
583.06	18750.03
583.22	18562.79
583.38	18714.92
583.54	18703.22
583.70	18483.21
583.86	18710.24
584.02	18373.21
584.18	18754.71
584.34	18621.30
584.50	18810.89
584.66	18689.18
584.82	18483.21
584.98	18759.39
585.14	18796.84
585.30	18391.93
585.46	18735.99
585.62	18501.93
585.78	18686.84
585.94	18335.76
586.10	18649.39
586.26	18771.10
586.42	18647.05
586.58	18792.16
586.74	18803.86
586.90	18431.72
587.06	18757.05
587.22	18733.65
587.38	18822.59
587.54	18707.90
587.70	18721.95
587.86	18724.29
588.02	18672.79
588.18	18836.63
588.34	18457.46
588.49	18710.24
588.65	18293.63
588.81	18778.12
588.97	18738.33
589.13	18707.90
589.29	18913.87
589.45	18860.04
589.61	18745.35
589.77	19220.48
589.93	18560.45
590.08	18885.78
590.24	18838.97
590.40	18792.16
590.56	18853.02
590.72	18583.85
590.88	18609.60
591.04	18930.25
591.20	18817.91
591.35	18803.86
591.51	18792.16
