SpectraSuite Data File
++++++++++++++++++++++++++++++++++++
Date: Thu Oct 24 13:21:41 EDT 2013
User: stostad
Dark Spectrum Present: No
Reference Spectrum Present: No
Number of Sampled Component Spectra: 1
Spectrometers: USB2+H05261
Integration Time (usec): 100000 (USB2+H05261)
Spectra Averaged: 1 (USB2+H05261)
Boxcar Smoothing: 0 (USB2+H05261)
Correct for Electrical Dark: No (USB2+H05261)
Strobe/Lamp Enabled: No (USB2+H05261)
Correct for Detector Non-linearity: No (USB2+H05261)
Correct for Stray Light: No (USB2+H05261)
Number of Pixels in Processed Spectrum: 2048
>>>>>Begin Processed Spectral Data<<<<<
365.73	557.05
365.92	557.05
366.12	557.05
366.32	486.83
366.52	517.26
366.72	479.81
366.91	547.69
367.11	463.43
367.31	496.19
367.51	524.28
367.70	512.58
367.90	468.11
368.10	489.17
368.30	463.43
368.49	461.09
368.69	475.13
368.89	519.60
369.09	543.00
369.28	484.49
369.48	489.17
369.68	578.11
369.87	589.82
370.07	498.53
370.27	608.54
370.47	819.19
370.66	1404.32
370.86	1418.36
371.06	1460.49
371.25	1416.02
371.45	1392.62
371.65	1511.99
371.84	1521.35
372.04	1474.54
372.24	1596.25
372.44	1593.90
372.63	1577.52
372.83	1666.46
373.03	1675.82
373.22	1575.18
373.42	1687.53
373.62	1617.31
373.81	1657.10
374.01	1678.16
374.21	1736.68
374.40	1736.68
374.60	1799.87
374.79	1776.47
374.99	1799.87
375.19	1837.32
375.38	1860.73
375.58	1795.19
375.78	1879.45
375.97	1912.22
376.17	1856.04
376.37	1881.79
376.56	1930.94
376.76	1933.28
376.95	1837.32
377.15	1877.11
377.35	1989.46
377.54	1956.69
377.74	1977.75
377.93	1949.67
378.13	1909.88
378.33	2057.33
378.52	2043.29
378.72	2036.27
378.91	2094.78
379.11	2122.87
379.31	1987.11
379.50	1980.09
379.70	2031.58
379.89	2085.42
380.09	2026.90
380.28	2143.93
380.48	2132.23
380.68	2111.16
380.87	2218.83
381.07	2244.57
381.26	2207.13
381.46	2209.47
381.65	2120.53
381.85	2251.60
382.04	2270.32
382.24	2373.30
382.43	2277.34
382.63	2286.70
382.83	2352.24
383.02	2305.43
383.22	2408.41
383.41	2307.77
383.61	2326.49
383.80	2469.27
384.00	2399.05
384.19	2473.95
384.39	2399.05
384.58	2469.27
384.78	2380.32
384.97	2511.39
385.17	2452.88
385.36	2464.58
385.56	2539.48
385.75	2551.18
385.95	2537.14
386.14	2602.68
386.34	2548.84
386.53	2574.59
386.72	2593.31
386.92	2562.89
387.11	2661.19
387.31	2619.06
387.50	2759.49
387.70	2698.64
387.89	2803.96
388.09	2712.68
388.28	2778.22
388.48	2705.66
388.67	2864.82
388.86	2794.60
389.06	2799.28
389.25	2855.45
389.45	2822.69
389.64	2867.16
389.84	2892.90
390.03	2895.24
390.22	2899.92
390.42	2906.95
390.61	2860.13
390.81	2911.63
391.00	2818.00
391.19	2981.84
391.39	3061.42
391.58	3030.99
391.78	3145.68
391.97	2991.20
392.16	3094.19
392.36	3258.03
392.55	3126.96
392.75	3218.24
392.94	3126.96
393.13	3232.28
393.33	3269.73
393.52	3295.47
393.71	3339.94
393.91	3323.56
394.10	3295.47
394.29	3370.37
394.49	3199.51
394.68	3433.57
394.88	3255.69
395.07	3449.95
395.26	3426.54
395.46	3442.93
395.65	3564.64
395.84	3531.87
396.04	3541.23
396.23	3754.22
396.42	3653.58
396.62	3702.73
396.81	3749.54
397.00	3616.13
397.19	3681.66
397.39	3646.55
397.58	3679.32
397.77	3864.22
397.97	3831.46
398.16	3857.20
398.35	3922.74
398.55	3840.82
398.74	3913.38
398.93	4060.83
399.12	4011.68
399.32	3948.48
399.51	4035.08
399.70	4109.98
399.90	3941.46
400.09	4042.11
400.28	4163.81
400.47	4217.65
400.67	4236.37
400.86	4229.35
401.05	4301.90
401.24	4285.52
401.44	4353.40
401.63	4369.78
401.82	4545.32
402.01	4479.79
402.21	4379.14
402.40	4472.76
402.59	4521.92
402.78	4613.20
402.97	4542.98
403.17	4592.13
403.36	4559.36
403.55	4655.33
403.74	4802.78
403.93	4877.68
404.13	4786.40
404.32	4777.03
404.51	4748.95
404.70	4762.99
404.89	4828.53
405.09	4924.49
405.28	4945.55
405.47	5085.98
405.66	4898.74
405.85	4919.81
406.05	5029.81
406.24	5172.58
406.43	5172.58
406.62	5102.37
406.81	5355.15
407.00	5085.98
407.20	5364.51
407.39	5217.05
407.58	5444.09
407.77	5362.17
407.96	5467.49
408.15	5399.62
408.34	5313.02
408.54	5511.96
408.73	5387.91
408.92	5488.56
409.11	5638.35
409.30	5694.52
409.49	5738.99
409.68	5734.31
409.87	5680.48
410.07	5961.34
410.26	5830.27
410.45	5713.25
410.64	5949.64
410.83	5991.77
411.02	6078.37
411.21	6312.42
411.40	6059.65
411.59	6153.27
411.78	6284.34
411.98	6052.63
412.17	6282.00
412.36	6431.79
412.55	6492.65
412.74	6595.63
412.93	6471.58
413.12	6656.48
413.31	6698.61
413.50	6722.02
413.69	6466.90
413.88	6705.63
414.07	6813.30
414.26	6904.58
414.45	6918.62
414.64	7105.87
414.83	7040.33
415.02	7227.57
415.22	7059.06
415.41	7194.81
415.60	7414.82
415.79	7475.67
415.98	7534.18
416.17	7522.48
416.36	7552.91
416.55	7588.02
416.74	7644.19
416.93	7641.85
417.12	7761.22
417.31	7925.05
417.50	8037.40
417.69	8138.04
417.88	8191.88
418.07	7964.84
418.26	8086.55
418.45	8119.32
418.64	8353.37
418.83	8454.02
419.02	8507.85
419.21	8585.08
419.39	8425.93
419.58	8472.74
419.77	8521.89
419.96	8716.16
420.15	8800.41
420.34	8659.98
420.53	8615.51
420.72	8851.91
420.91	8746.58
421.10	8681.05
421.29	9027.45
421.48	8840.20
421.67	8905.74
421.86	9111.71
422.05	8926.80
422.24	8952.55
422.43	9167.88
422.61	9312.99
422.80	9320.01
422.99	9308.31
423.18	9207.67
423.37	9277.88
423.56	9301.29
423.75	9193.62
423.94	9280.22
424.13	8624.87
424.32	8868.29
424.50	9373.85
424.69	9624.28
424.88	9551.73
425.07	9177.24
425.26	9212.35
425.45	9479.17
425.64	9338.74
425.83	9418.32
426.01	9446.40
426.20	9479.17
426.39	9497.89
426.58	9357.46
426.77	9338.74
426.96	9504.92
427.15	9628.96
427.33	9795.14
427.52	9774.08
427.71	9853.66
427.90	9750.67
428.09	9886.42
428.28	9916.85
428.46	10073.67
428.65	9935.57
428.84	10434.11
429.03	10033.88
429.22	9914.51
429.40	10312.40
429.59	10239.84
429.78	9863.02
429.97	9685.14
430.16	10370.91
430.34	10300.70
430.53	10588.58
430.72	10478.58
430.91	10881.15
431.10	10527.73
431.28	10586.24
431.47	10778.17
431.66	10846.04
431.85	10682.20
432.03	11035.63
432.22	11253.30
432.41	11082.44
432.60	10832.00
432.79	11014.56
432.97	11262.66
433.16	11248.61
433.35	11215.85
433.54	11435.86
433.72	11489.69
433.91	11384.37
434.10	11630.12
434.28	11150.31
434.47	11688.64
434.66	11517.78
434.85	11754.17
435.03	12035.03
435.22	11761.19
435.41	12381.43
435.59	12311.22
435.78	12091.21
435.97	12388.46
436.16	12060.78
436.34	12245.68
436.53	12400.16
436.72	12285.47
436.90	12051.42
437.09	12526.55
437.28	12056.10
437.46	12353.35
437.65	12444.63
437.84	12695.07
438.02	12666.98
438.21	12819.11
438.40	12561.66
438.58	13135.09
438.77	13104.66
438.96	13193.60
439.14	13359.78
439.33	13280.20
439.52	13729.58
439.70	13528.30
439.89	13584.47
440.08	13640.64
440.26	13762.35
440.45	13923.85
440.63	14022.15
440.82	14429.40
441.01	14202.37
441.19	14298.33
441.38	14548.77
441.57	14530.05
441.75	14672.82
441.94	15126.88
442.12	14953.68
442.31	14956.02
442.50	15213.48
442.68	14974.75
442.87	14974.75
443.05	15503.71
443.24	15686.27
443.43	15243.91
443.61	15496.69
443.80	15805.64
443.98	15140.93
444.17	14626.01
444.35	15592.65
444.54	15859.47
444.73	15400.72
444.91	15815.00
445.10	15637.12
445.28	15906.28
445.47	15723.72
445.65	15873.51
445.84	15758.83
446.02	16135.65
446.21	15747.12
446.39	16175.44
446.58	16086.50
446.77	16053.73
446.95	15798.62
447.14	15847.77
447.32	16058.42
447.51	16058.42
447.69	15992.88
447.88	16435.24
448.06	15978.84
448.25	16184.80
448.43	16266.72
448.62	16505.46
448.80	16496.10
448.99	16383.75
449.17	16587.38
449.36	16376.73
449.54	16837.81
449.73	16893.99
449.91	17198.26
450.10	16926.75
450.28	17633.60
450.46	17116.34
450.65	17078.89
450.83	17444.01
451.02	17312.94
451.20	17490.82
451.39	17542.32
451.57	17207.62
451.76	17362.09
451.94	17446.35
452.13	17839.56
452.31	17825.52
452.49	17514.23
452.68	17980.00
452.86	17661.68
453.05	17965.95
453.23	18057.23
453.42	17902.76
453.60	17605.51
453.78	18122.77
453.97	18066.60
454.15	18139.15
454.34	18106.38
454.52	18567.47
454.70	18342.78
454.89	18396.61
455.07	18710.24
455.26	18930.25
455.44	18869.40
455.62	19054.30
455.81	18862.38
455.99	19424.11
456.17	19295.38
456.36	19122.18
456.54	19290.70
456.73	19328.14
456.91	19866.47
457.09	20175.42
457.28	19950.73
457.46	19833.70
457.64	20149.67
457.83	19871.15
458.01	20269.04
458.19	20435.22
458.38	20168.40
458.56	20650.55
458.74	20482.03
458.93	20365.00
459.11	20908.01
459.29	20606.08
459.48	20535.86
459.66	20697.36
459.84	20877.58
460.03	20936.09
460.21	21284.83
460.39	21074.18
460.57	21193.55
460.76	21425.26
460.94	21231.00
461.12	21511.86
461.31	21593.78
461.49	21884.01
461.67	21465.05
461.85	22022.10
462.04	21891.03
462.22	22328.71
462.40	22551.06
462.59	22253.81
462.77	22150.83
462.95	22204.66
463.13	22075.93
463.32	22256.15
463.50	22422.33
463.68	22796.82
463.86	22785.12
464.05	22497.23
464.23	22560.42
464.41	22789.80
464.59	22267.86
464.78	23454.51
464.96	23016.83
465.14	22635.32
465.32	23042.57
465.50	23264.92
465.69	23351.52
465.87	23421.74
466.05	22904.48
466.23	23634.73
466.41	23403.02
466.60	24072.41
466.78	23403.02
466.96	23452.17
467.14	23721.33
467.32	23908.57
467.51	24039.64
467.69	23580.90
467.87	24332.21
468.05	24304.12
468.23	24116.88
468.41	24128.58
468.60	24074.75
468.78	24535.84
468.96	24376.68
469.14	24989.90
469.32	25230.98
469.50	24521.79
469.69	24851.81
469.87	25191.19
470.05	24968.84
470.23	25333.96
470.41	25256.72
470.59	25619.50
470.77	25476.73
470.95	25886.32
471.14	26305.28
471.32	25551.63
471.50	26305.28
471.68	26082.93
471.86	26277.19
472.04	26539.33
472.22	26902.12
472.40	26574.44
472.58	26981.70
472.77	26953.61
472.95	27688.54
473.13	28292.40
473.31	27150.21
473.49	27569.17
473.67	27267.24
473.85	28018.55
474.03	28102.81
474.21	28051.32
474.39	28173.03
474.57	28332.18
474.75	28748.80
474.93	29081.16
475.12	29214.57
475.30	29163.08
475.48	29193.50
475.66	29656.93
475.84	29200.52
476.02	30216.32
476.20	29804.38
476.38	30141.42
476.56	31103.38
476.74	31068.27
476.92	30754.64
477.10	30857.62
477.28	31393.61
477.46	31449.78
477.64	31651.06
477.82	32072.36
478.00	33055.39
478.18	32421.10
478.36	32905.59
478.54	33076.45
478.72	33200.50
478.90	34323.96
479.08	34197.57
479.26	34424.60
479.44	34590.78
479.62	34763.98
479.80	35225.06
479.98	35222.72
480.16	36189.36
480.34	35096.33
480.52	35964.67
480.70	36222.13
480.88	36044.25
481.06	36208.09
481.24	36671.51
481.41	37088.13
481.59	37619.43
481.77	38024.34
481.95	38553.30
482.13	38675.01
482.31	38707.78
482.49	39461.43
482.67	39274.19
482.85	39491.86
483.03	40105.08
483.21	40610.64
483.39	40339.13
483.57	40357.86
483.74	41048.32
483.92	41418.12
484.10	41361.95
484.28	42153.05
484.46	42611.79
484.64	43215.65
484.82	42536.90
485.00	43384.17
485.18	43920.15
485.35	44591.89
485.53	44247.83
485.71	44486.56
485.89	45123.19
486.07	45020.20
486.25	45139.57
486.43	45408.73
486.61	45656.83
486.78	46391.76
486.96	46724.11
487.14	47264.78
487.32	47168.82
487.50	47517.56
487.68	47945.87
487.85	48697.19
488.03	49345.51
488.21	49289.34
488.39	48994.43
488.57	49776.17
488.75	49851.07
488.92	49993.84
489.10	50618.77
489.28	50827.07
489.46	51222.62
489.64	51082.19
489.81	51288.16
489.99	51899.04
490.17	51999.68
490.35	52252.46
490.53	52439.70
490.70	52701.84
490.88	52465.45
491.06	53219.10
491.24	52956.96
491.41	53373.58
491.59	53687.21
491.77	54103.82
491.95	54197.44
492.13	54277.02
492.30	54412.77
492.48	54541.50
492.66	54719.38
492.84	55161.75
493.01	55309.20
493.19	55091.53
493.37	55388.78
493.54	55838.16
493.72	56074.55
493.90	56219.67
494.08	56364.78
494.25	56760.33
494.43	56470.11
494.61	57048.22
494.79	56856.29
494.96	56757.99
495.14	57153.54
495.32	57406.32
495.49	57794.85
495.67	57862.72
495.85	58024.22
496.02	58389.34
496.20	58155.29
496.38	58202.10
496.55	58478.28
496.73	58983.84
496.91	58599.99
497.09	59114.91
497.26	59025.97
497.44	58890.22
497.62	59262.36
497.79	59751.54
497.97	59599.40
498.14	59744.51
498.32	59969.21
498.50	59842.82
498.67	60200.92
498.85	60109.64
499.03	60299.22
499.20	60360.08
499.38	60514.55
499.56	60757.97
499.73	60739.24
499.91	60793.07
500.08	60928.83
500.26	60821.16
500.44	61059.90
500.61	61403.95
500.79	61139.47
500.97	61392.25
501.14	61532.68
501.32	61460.13
501.49	61399.27
501.67	61834.61
501.84	61783.12
502.02	62143.56
502.20	62012.49
502.37	62138.88
502.55	62241.87
502.72	62099.09
502.90	62262.93
503.07	62272.29
503.25	62520.39
503.43	62494.64
503.60	62754.44
503.78	62677.21
503.95	62709.97
504.13	62913.60
504.30	63051.69
504.48	62925.30
504.65	63213.19
504.83	63426.18
505.01	63365.32
505.18	63217.87
505.36	63522.14
505.53	63435.54
505.71	63704.70
505.88	63592.36
506.06	63725.77
506.23	63910.67
506.41	63910.67
506.58	63950.46
506.76	63920.03
506.93	64250.05
507.11	64264.09
507.28	64402.18
507.46	64301.54
507.63	64406.86
507.81	64633.89
507.98	64294.52
508.16	64741.56
508.33	64587.08
508.50	64924.12
508.68	65045.83
508.85	65219.03
509.03	65043.49
509.20	65104.34
509.38	65204.98
509.55	65204.98
509.73	65322.01
509.90	65535.00
510.08	65513.94
510.25	65535.00
510.42	65532.66
510.60	65535.00
510.77	65535.00
510.95	65535.00
511.12	65535.00
511.30	65535.00
511.47	65535.00
511.64	65535.00
511.82	65535.00
511.99	65535.00
512.17	65535.00
512.34	65535.00
512.51	65535.00
512.69	65535.00
512.86	65535.00
513.04	65535.00
513.21	65535.00
513.38	65535.00
513.56	65535.00
513.73	65535.00
513.90	65535.00
514.08	65535.00
514.25	65535.00
514.43	65535.00
514.60	65535.00
514.77	65535.00
514.95	65535.00
515.12	65535.00
515.29	65535.00
515.47	65535.00
515.64	65535.00
515.81	65535.00
515.99	65535.00
516.16	65535.00
516.33	65535.00
516.51	65535.00
516.68	65535.00
516.85	65535.00
517.03	65535.00
517.20	65535.00
517.37	65535.00
517.54	65535.00
517.72	65535.00
517.89	65535.00
518.06	65535.00
518.24	65535.00
518.41	65535.00
518.58	65535.00
518.75	65535.00
518.93	65535.00
519.10	65535.00
519.27	65535.00
519.45	65535.00
519.62	65535.00
519.79	65535.00
519.96	65535.00
520.14	65535.00
520.31	65535.00
520.48	65535.00
520.65	65535.00
520.83	65535.00
521.00	65535.00
521.17	65535.00
521.34	65535.00
521.52	65535.00
521.69	65535.00
521.86	65535.00
522.03	65535.00
522.20	65535.00
522.38	65535.00
522.55	65535.00
522.72	65535.00
522.89	65535.00
523.07	65535.00
523.24	65535.00
523.41	65535.00
523.58	65535.00
523.75	65535.00
523.92	65535.00
524.10	65535.00
524.27	65535.00
524.44	65535.00
524.61	65535.00
524.78	65535.00
524.96	65535.00
525.13	65535.00
525.30	65535.00
525.47	65535.00
525.64	65535.00
525.81	65535.00
525.98	65535.00
526.16	65535.00
526.33	65535.00
526.50	65535.00
526.67	65535.00
526.84	65535.00
527.01	65535.00
527.18	65535.00
527.36	65535.00
527.53	65535.00
527.70	65535.00
527.87	65535.00
528.04	65535.00
528.21	65535.00
528.38	65535.00
528.55	65535.00
528.72	65535.00
528.89	65535.00
529.07	65535.00
529.24	65535.00
529.41	65535.00
529.58	65535.00
529.75	65535.00
529.92	65535.00
530.09	65535.00
530.26	65535.00
530.43	65535.00
530.60	65535.00
530.77	65535.00
530.94	65535.00
531.11	65535.00
531.28	65535.00
531.46	65535.00
531.63	65535.00
531.80	65535.00
531.97	65535.00
532.14	65535.00
532.31	65535.00
532.48	65535.00
532.65	65535.00
532.82	65535.00
532.99	65535.00
533.16	65535.00
533.33	65535.00
533.50	65535.00
533.67	65535.00
533.84	65535.00
534.01	65535.00
534.18	65535.00
534.35	65535.00
534.52	65535.00
534.69	65535.00
534.86	65535.00
535.03	65535.00
535.20	65535.00
535.37	65535.00
535.54	65535.00
535.71	65535.00
535.88	65535.00
536.05	65535.00
536.22	65535.00
536.38	65535.00
536.55	65535.00
536.72	65535.00
536.89	65535.00
537.06	65535.00
537.23	65535.00
537.40	65535.00
537.57	65535.00
537.74	65535.00
537.91	65535.00
538.08	65535.00
538.25	65535.00
538.42	65535.00
538.59	65535.00
538.75	65535.00
538.92	65535.00
539.09	65535.00
539.26	65535.00
539.43	65535.00
539.60	65535.00
539.77	65535.00
539.94	65535.00
540.11	65535.00
540.28	65535.00
540.44	65535.00
540.61	65535.00
540.78	65535.00
540.95	65535.00
541.12	65535.00
541.29	65535.00
541.46	65535.00
541.62	65535.00
541.79	65535.00
541.96	65535.00
542.13	65535.00
542.30	65535.00
542.47	65535.00
542.63	65535.00
542.80	65535.00
542.97	65535.00
543.14	65535.00
543.31	65535.00
543.48	65535.00
543.64	65535.00
543.81	65535.00
543.98	65535.00
544.15	65535.00
544.32	65535.00
544.48	65535.00
544.65	65535.00
544.82	65535.00
544.99	65535.00
545.16	65535.00
545.32	65535.00
545.49	65535.00
545.66	65535.00
545.83	65535.00
546.00	65535.00
546.16	65535.00
546.33	65535.00
546.50	65535.00
546.67	65535.00
546.83	65535.00
547.00	65535.00
547.17	65535.00
547.34	65535.00
547.50	65535.00
547.67	65535.00
547.84	65535.00
548.00	65535.00
548.17	65535.00
548.34	65535.00
548.51	65535.00
548.67	65535.00
548.84	65535.00
549.01	65535.00
549.18	65535.00
549.34	65535.00
549.51	65535.00
549.68	65535.00
549.84	65535.00
550.01	65535.00
550.18	65535.00
550.34	65535.00
550.51	65535.00
550.68	65535.00
550.84	65535.00
551.01	65535.00
551.18	65535.00
551.34	65535.00
551.51	65535.00
551.68	65535.00
551.84	65535.00
552.01	65535.00
552.18	65535.00
552.34	65535.00
552.51	65535.00
552.68	65535.00
552.84	65535.00
553.01	65535.00
553.18	65535.00
553.34	65535.00
553.51	65535.00
553.67	65535.00
553.84	65535.00
554.01	65535.00
554.17	65535.00
554.34	65535.00
554.51	65535.00
554.67	65535.00
554.84	65535.00
555.00	65535.00
555.17	65535.00
555.33	65535.00
555.50	65535.00
555.67	65535.00
555.83	65535.00
556.00	65535.00
556.16	65535.00
556.33	65535.00
556.50	65535.00
556.66	65535.00
556.83	65535.00
556.99	65535.00
557.16	65535.00
557.32	65535.00
557.49	65535.00
557.65	65535.00
557.82	65535.00
557.98	65535.00
558.15	65535.00
558.32	65535.00
558.48	65535.00
558.65	65535.00
558.81	65535.00
558.98	65535.00
559.14	65535.00
559.31	65535.00
559.47	65535.00
559.64	65535.00
559.80	65535.00
559.97	65535.00
560.13	65535.00
560.30	65535.00
560.46	65535.00
560.63	65535.00
560.79	65535.00
560.96	65535.00
561.12	65535.00
561.29	65535.00
561.45	65535.00
561.61	65535.00
561.78	65535.00
561.94	65535.00
562.11	65535.00
562.27	65535.00
562.44	65535.00
562.60	65535.00
562.77	65535.00
562.93	65535.00
563.10	65535.00
563.26	65535.00
563.42	65535.00
563.59	65535.00
563.75	65535.00
563.92	65535.00
564.08	65535.00
564.24	65535.00
564.41	65535.00
564.57	65535.00
564.74	65535.00
564.90	65535.00
565.07	65535.00
565.23	65535.00
565.39	65535.00
565.56	65535.00
565.72	65535.00
565.88	65535.00
566.05	65535.00
566.21	65535.00
566.38	65535.00
566.54	65535.00
566.70	65535.00
566.87	65535.00
567.03	65535.00
567.19	65535.00
567.36	65535.00
567.52	65535.00
567.68	65535.00
567.85	65535.00
568.01	65535.00
568.17	65535.00
568.34	65535.00
568.50	65535.00
568.66	65535.00
568.83	65535.00
568.99	65535.00
569.15	65535.00
569.32	65535.00
569.48	65535.00
569.64	65535.00
569.81	65535.00
569.97	65535.00
570.13	65535.00
570.30	65535.00
570.46	65535.00
570.62	65535.00
570.78	65535.00
570.95	65535.00
571.11	65535.00
571.27	65535.00
571.43	65535.00
571.60	65535.00
571.76	65535.00
571.92	65535.00
572.09	65535.00
572.25	65535.00
572.41	65535.00
572.57	65535.00
572.74	65535.00
572.90	65535.00
573.06	65535.00
573.22	65535.00
573.38	65535.00
573.55	65535.00
573.71	65535.00
573.87	65535.00
574.03	65535.00
574.20	65535.00
574.36	65535.00
574.52	65535.00
574.68	65535.00
574.84	65535.00
575.01	65535.00
575.17	65535.00
575.33	65535.00
575.49	65535.00
575.65	65535.00
575.82	65535.00
575.98	65535.00
576.14	65535.00
576.30	65535.00
576.46	65535.00
576.62	65535.00
576.79	65535.00
576.95	65535.00
577.11	65535.00
577.27	65535.00
577.43	65535.00
577.59	65535.00
577.75	65535.00
577.92	65535.00
578.08	65535.00
578.24	65535.00
578.40	65535.00
578.56	65535.00
578.72	65535.00
578.88	65535.00
579.04	65535.00
579.21	65535.00
579.37	65535.00
579.53	65535.00
579.69	65535.00
579.85	65535.00
580.01	65535.00
580.17	65535.00
580.33	65535.00
580.49	65535.00
580.65	65535.00
580.82	65535.00
580.98	65535.00
581.14	65535.00
581.30	65535.00
581.46	65535.00
581.62	65535.00
581.78	65535.00
581.94	65535.00
582.10	65535.00
582.26	65535.00
582.42	65535.00
582.58	65535.00
582.74	65535.00
582.90	65535.00
583.06	65535.00
583.22	65535.00
583.38	65535.00
583.54	65535.00
583.70	65535.00
583.86	65535.00
584.02	65535.00
584.18	65535.00
584.34	65535.00
584.50	65535.00
584.66	65535.00
584.82	65535.00
584.98	65535.00
585.14	65535.00
585.30	65535.00
585.46	65535.00
585.62	65535.00
585.78	65535.00
585.94	65535.00
586.10	65535.00
586.26	65535.00
586.42	65535.00
586.58	65535.00
