SpectraSuite Data File
++++++++++++++++++++++++++++++++++++
Date: Thu Oct 24 13:21:31 EDT 2013
User: stostad
Dark Spectrum Present: No
Reference Spectrum Present: No
Number of Sampled Component Spectra: 1
Spectrometers: USB2+H05261
Integration Time (usec): 100000 (USB2+H05261)
Spectra Averaged: 1 (USB2+H05261)
Boxcar Smoothing: 0 (USB2+H05261)
Correct for Electrical Dark: No (USB2+H05261)
Strobe/Lamp Enabled: No (USB2+H05261)
Correct for Detector Non-linearity: No (USB2+H05261)
Correct for Stray Light: No (USB2+H05261)
Number of Pixels in Processed Spectrum: 2048
>>>>>Begin Processed Spectral Data<<<<<
365.73	540.66
365.92	540.66
366.12	540.66
366.32	552.37
366.52	461.09
366.72	468.11
366.91	479.81
367.11	507.90
367.31	468.11
367.51	379.17
367.70	440.02
367.90	503.22
368.10	554.71
368.30	407.25
368.49	470.45
368.69	482.15
368.89	517.26
369.09	496.19
369.28	559.39
369.48	552.37
369.68	535.98
369.87	503.22
370.07	496.19
370.27	517.26
370.47	667.05
370.66	1069.62
370.86	1086.01
371.06	1156.22
371.25	1177.29
371.45	1170.27
371.65	1184.31
371.84	1261.55
372.04	1181.97
372.24	1160.91
372.44	1228.78
372.63	1291.98
372.83	1221.76
373.03	1284.95
373.22	1341.13
373.42	1289.64
373.62	1341.13
373.81	1401.98
374.01	1345.81
374.21	1371.55
374.40	1413.68
374.60	1385.60
374.79	1399.64
374.99	1352.83
375.19	1355.17
375.38	1348.15
375.58	1313.04
375.78	1376.24
375.97	1401.98
376.17	1462.83
376.37	1434.75
376.56	1401.98
376.76	1364.53
376.95	1432.41
377.15	1474.54
377.35	1481.56
377.54	1500.28
377.74	1542.41
377.93	1425.39
378.13	1458.15
378.33	1483.90
378.52	1493.26
378.72	1446.45
378.91	1502.62
379.11	1528.37
379.31	1547.09
379.50	1514.33
379.70	1605.61
379.89	1554.12
380.09	1521.35
380.28	1645.40
380.48	1563.48
380.68	1540.07
380.87	1659.44
381.07	1575.18
381.26	1626.67
381.46	1689.87
381.65	1652.42
381.85	1626.67
382.04	1673.48
382.24	1654.76
382.43	1795.19
382.63	1722.63
382.83	1689.87
383.02	1729.66
383.22	1722.63
383.41	1792.85
383.61	1696.89
383.80	1837.32
384.00	1739.02
384.19	1792.85
384.39	1764.76
384.58	1776.47
384.78	1874.77
384.97	1823.28
385.17	1825.62
385.36	1935.62
385.56	1867.75
385.75	1877.11
385.95	1881.79
386.14	1860.73
386.34	1834.98
386.53	1844.34
386.72	1881.79
386.92	1877.11
387.11	1872.43
387.31	1907.54
387.50	1933.28
387.70	1895.83
387.89	2022.22
388.09	2010.52
388.28	1970.73
388.48	2076.06
388.67	2071.37
388.86	1989.46
389.06	1975.41
389.25	2125.21
389.45	2073.71
389.64	1996.48
389.84	2003.50
390.03	2059.67
390.22	2090.10
390.42	2097.12
390.61	2160.31
390.81	2139.25
391.00	2256.28
391.19	2272.66
391.39	2134.57
391.58	2165.00
391.78	2188.40
391.97	2256.28
392.16	2328.83
392.36	2260.96
392.55	2221.17
392.75	2275.00
392.94	2347.56
393.13	2263.30
393.33	2338.20
393.52	2392.03
393.71	2349.90
393.91	2445.86
394.10	2347.56
394.29	2457.56
394.49	2417.77
394.68	2478.63
394.88	2296.07
395.07	2499.69
395.26	2518.42
395.46	2504.37
395.65	2548.84
395.84	2602.68
396.04	2743.11
396.23	2590.97
396.42	2651.83
396.62	2796.94
396.81	2698.64
397.00	2672.89
397.19	2696.30
397.39	2794.60
397.58	2708.00
397.77	2693.96
397.97	2719.70
398.16	2661.19
398.35	2813.32
398.55	2712.68
398.74	2789.92
398.93	2902.26
399.12	2885.88
399.32	2799.28
399.51	2923.33
399.70	3000.57
399.90	2909.29
400.09	2869.50
400.28	2935.03
400.47	2963.12
400.67	3047.38
400.86	3073.12
401.05	3066.10
401.24	3075.46
401.44	3084.83
401.63	3166.74
401.82	3201.85
402.01	3091.85
402.21	3225.26
402.40	3283.77
402.59	3185.47
402.78	3262.71
402.97	3323.56
403.17	3215.90
403.36	3295.47
403.55	3365.69
403.74	3337.60
403.93	3426.54
404.13	3510.80
404.32	3414.84
404.51	3496.76
404.70	3595.06
404.89	3480.38
405.09	3595.06
405.28	3487.40
405.47	3585.70
405.66	3590.38
405.85	3662.94
406.05	3684.00
406.24	3688.68
406.43	3679.32
406.62	3861.88
406.81	3831.46
407.00	3770.60
407.20	3784.65
407.39	3719.11
407.58	3861.88
407.77	3871.25
407.96	3782.31
408.15	3955.51
408.34	3946.14
408.54	3885.29
408.73	4016.36
408.92	3967.21
409.11	4124.02
409.30	4011.68
409.49	4126.36
409.68	4114.66
409.87	4004.66
410.07	4126.36
410.26	4147.43
410.45	4187.22
410.64	4294.88
410.83	4379.14
411.02	4290.20
411.21	4475.10
411.40	4290.20
411.59	4505.53
411.78	4521.92
411.98	4484.47
412.17	4592.13
412.36	4610.86
412.55	4554.68
412.74	4791.08
412.93	4620.22
413.12	4692.77
413.31	4856.61
413.50	4809.80
413.69	4732.56
413.88	5011.09
414.07	4999.38
414.26	5053.22
414.45	5121.09
414.64	5151.52
414.83	5214.71
415.02	5046.20
415.22	5212.37
415.41	5125.77
415.60	5301.31
415.79	5198.33
415.98	5341.10
416.17	5458.13
416.36	5514.30
416.55	5462.81
416.74	5556.43
416.93	5336.42
417.12	5598.56
417.31	5605.58
417.50	5640.69
417.69	5736.65
417.88	5734.31
418.07	5696.86
418.26	5851.34
418.45	5846.66
418.64	6033.90
418.83	6045.60
419.02	5980.07
419.21	6221.14
419.39	6073.69
419.58	6162.63
419.77	5919.21
419.96	6031.56
420.15	6197.74
420.34	6200.08
420.53	6265.61
420.72	6258.59
420.91	6389.66
421.10	6403.71
421.29	6450.52
421.48	6141.57
421.67	6399.02
421.86	6317.11
422.05	6431.79
422.24	6581.59
422.43	6537.12
422.61	6597.97
422.80	6616.69
422.99	6647.12
423.18	6595.63
423.37	6733.72
423.56	6689.25
423.75	6553.50
423.94	6544.14
424.13	6286.68
424.32	6487.96
424.50	6736.06
424.69	6773.51
424.88	6710.32
425.07	6700.95
425.26	6619.04
425.45	6633.08
425.64	6649.46
425.83	6640.10
426.01	6846.07
426.20	6754.79
426.39	6766.49
426.58	6698.61
426.77	6752.45
426.96	6988.84
427.15	6930.33
427.33	7103.53
427.52	6913.94
427.71	7131.61
427.90	7080.12
428.09	7138.63
428.28	7215.87
428.46	7155.02
428.65	6942.03
428.84	7377.37
429.03	7288.43
429.22	7225.23
429.40	7375.03
429.59	7253.32
429.78	7180.76
429.97	7112.89
430.16	7403.11
430.34	7421.84
430.53	7442.90
430.72	7447.58
430.91	7482.69
431.10	7499.08
431.28	7496.74
431.47	7555.25
431.66	7812.71
431.85	7632.49
432.03	7812.71
432.22	7885.26
432.41	7957.82
432.60	7740.15
432.79	8006.97
432.97	8198.90
433.16	7964.84
433.35	7894.63
433.54	8224.64
433.72	8088.89
433.91	8145.06
434.10	8236.35
434.28	8208.26
434.47	8360.39
434.66	8308.90
434.85	8306.56
435.03	8620.19
435.22	8552.32
435.41	8767.65
435.59	8454.02
435.78	8835.52
435.97	8814.46
436.16	8425.93
436.34	8456.36
436.53	8657.64
436.72	8814.46
436.90	8482.10
437.09	8697.43
437.28	8561.68
437.46	8809.78
437.65	8645.94
437.84	8922.12
438.02	8917.44
438.21	9090.64
438.40	8765.31
438.58	9139.79
438.77	9287.25
438.96	9195.96
439.14	9308.31
439.33	9439.38
439.52	9507.26
439.70	9493.21
439.89	9535.34
440.08	9839.61
440.26	9881.74
440.45	9483.85
440.63	9916.85
440.82	10293.68
441.01	9935.57
441.19	10076.01
441.38	10331.12
441.57	9935.57
441.75	10022.17
441.94	10307.72
442.12	10359.21
442.31	10558.16
442.50	10445.81
442.68	10562.84
442.87	10476.24
443.05	10710.29
443.24	10876.47
443.43	10647.10
443.61	10824.98
443.80	11063.71
443.98	10361.55
444.17	10267.93
444.35	10944.34
444.54	10977.11
444.73	11002.86
444.91	10604.97
445.10	11068.39
445.28	11023.92
445.47	11014.56
445.65	10885.83
445.84	11101.16
446.02	11021.58
446.21	11117.54
446.39	11005.20
446.58	11115.20
446.77	11302.45
446.95	10906.90
447.14	11098.82
447.32	11274.36
447.51	11089.46
447.69	10965.41
447.88	11297.77
448.06	11283.72
448.25	11206.48
448.43	11524.80
448.62	11321.17
448.80	11180.74
448.99	11279.04
449.17	11536.50
449.36	11363.30
449.54	11681.61
449.73	11709.70
449.91	11803.32
450.10	11770.55
450.28	12098.23
450.46	11824.39
450.65	11981.20
450.83	11793.96
451.02	12006.95
451.20	12013.97
451.39	11868.86
451.57	12243.34
451.76	11831.41
451.94	12189.51
452.13	12152.06
452.31	12156.74
452.49	12168.45
452.68	12241.00
452.86	12198.87
453.05	12184.83
453.23	12245.68
453.42	12493.78
453.60	12166.10
453.78	12559.31
453.97	12512.50
454.15	12477.40
454.34	12311.22
454.52	12622.51
454.70	12814.43
454.89	12795.71
455.07	12954.87
455.26	13198.28
455.44	12954.87
455.62	12926.78
455.81	13050.83
455.99	13130.41
456.17	13062.53
456.36	13149.13
456.54	13242.75
456.73	13500.21
456.91	13544.68
457.09	13359.78
457.28	13764.69
457.46	13427.65
457.64	13596.17
457.83	13958.96
458.01	13792.78
458.19	13987.04
458.38	13895.76
458.56	13975.34
458.74	13738.94
458.93	14277.27
459.11	13956.61
459.29	14335.78
459.48	13907.46
459.66	14108.75
459.84	14340.46
460.03	14190.67
460.21	14349.82
460.39	14429.40
460.57	14033.85
460.76	14618.99
460.94	14728.99
461.12	14963.04
461.31	14618.99
461.49	14679.84
461.67	14712.61
461.85	14846.02
462.04	14693.88
462.22	15262.63
462.40	15513.07
462.59	15389.02
462.77	15161.99
462.95	15290.72
463.13	15316.47
463.32	15281.36
463.50	15344.55
463.68	15602.01
463.86	15545.84
464.05	15070.71
464.23	15213.48
464.41	15492.01
464.59	15398.38
464.78	16056.08
464.96	15667.55
465.14	15353.91
465.32	15662.86
465.50	15988.20
465.69	15946.07
465.87	15997.56
466.05	15901.60
466.23	15885.22
466.41	15943.73
466.60	16278.43
466.78	16095.86
466.96	16402.47
467.14	16301.83
467.32	16355.66
467.51	16505.46
467.69	15861.81
467.87	16255.02
468.05	16540.57
468.23	16292.47
468.41	16697.38
468.60	16353.32
468.78	16545.25
468.96	16334.60
469.14	16823.77
469.32	17046.12
469.50	16201.19
469.69	17013.35
469.87	17249.75
470.05	17376.14
470.23	17216.98
470.41	17305.92
470.59	17429.97
470.77	17408.90
470.95	17214.64
471.14	17745.94
471.32	17247.41
471.50	17783.39
471.68	17720.20
471.86	17809.14
472.04	17940.21
472.22	18246.82
472.40	18190.64
472.58	18218.73
472.77	18408.31
472.95	18527.68
473.13	19070.68
473.31	18111.07
473.49	18403.63
473.67	18513.64
473.85	18876.42
474.03	19150.26
474.21	19096.43
474.39	18993.45
474.57	19286.01
474.75	19431.13
474.93	19683.91
475.12	19513.05
475.30	19796.25
475.48	19941.36
475.66	19854.76
475.84	19896.89
476.02	20091.16
476.20	20119.24
476.38	20568.63
476.56	21062.48
476.74	20753.53
476.92	20744.17
477.10	20950.14
477.28	21219.30
477.46	21308.24
477.64	21448.67
477.82	21858.26
478.00	22422.33
478.18	21802.09
478.36	22178.92
478.54	22522.98
478.72	22656.39
478.90	22412.97
479.08	22890.44
479.26	23253.22
479.44	23311.74
479.62	23122.15
479.80	23623.03
479.98	23992.83
480.16	24517.11
480.34	24077.09
480.52	24196.46
480.70	24407.11
480.88	24367.32
481.06	24648.18
481.24	24563.92
481.41	24828.40
481.59	25467.37
481.77	25593.76
481.95	25673.34
482.13	25975.27
482.31	25984.63
482.49	26316.98
482.67	26270.17
482.85	26759.34
483.03	26888.07
483.21	27314.05
483.39	27449.80
483.57	27360.86
483.74	27281.28
483.92	27938.97
484.10	27847.69
484.28	28451.55
484.46	28919.66
484.64	29125.63
484.82	28510.07
485.00	29060.09
485.18	29670.97
485.35	30106.31
485.53	30082.91
485.71	30260.79
485.89	30820.17
486.07	30464.41
486.25	30546.33
486.43	30817.83
486.61	30630.59
486.78	31489.57
486.96	31992.78
487.14	32165.98
487.32	32156.62
487.50	32587.28
487.68	32479.61
487.85	33153.69
488.03	33603.07
488.21	33713.08
488.39	33546.90
488.57	34309.91
488.75	33792.65
488.92	34536.94
489.10	35391.24
489.28	34986.33
489.46	35442.73
489.64	35260.17
489.81	35889.77
489.99	35917.86
490.17	36067.66
490.35	36659.81
490.53	36821.31
490.70	37088.13
490.88	36893.86
491.06	37392.40
491.24	37329.20
491.41	37694.33
491.59	38225.63
491.77	37909.66
491.95	38768.63
492.13	38600.12
492.30	38958.22
492.48	38576.71
492.66	38916.09
492.84	39360.79
493.01	40025.50
493.19	39800.81
493.37	40161.25
493.54	40481.91
493.72	40580.21
493.90	40652.76
494.08	41200.45
494.25	41532.81
494.43	41832.39
494.61	42110.92
494.79	41989.21
494.96	42197.52
495.14	42225.60
495.32	42906.70
495.49	43201.61
495.67	43227.35
495.85	43772.70
496.02	43388.85
496.20	44041.86
496.38	43971.64
496.55	44030.16
496.73	44669.12
496.91	44917.22
497.09	44821.26
497.26	44832.96
497.44	44987.44
497.62	45120.85
497.79	45897.91
497.97	45303.41
498.14	46160.05
498.32	46073.45
498.50	46452.61
498.67	46827.10
498.85	46550.91
499.03	46667.94
499.20	46707.73
499.38	47051.79
499.56	47643.94
499.73	47901.40
499.91	47948.21
500.08	47859.27
500.26	47976.30
500.44	48048.86
500.61	48423.34
500.79	48783.79
500.97	48648.03
501.14	49066.99
501.32	48992.09
501.49	48980.39
501.67	49207.42
501.84	49144.23
502.02	49734.04
502.20	49862.77
502.37	49937.67
502.55	49593.61
502.72	49577.23
502.90	49825.32
503.07	49916.61
503.25	50511.10
503.43	49996.18
503.60	50944.10
503.78	50948.78
503.95	50522.80
504.13	50944.10
504.30	51002.61
504.48	51344.33
504.65	51601.79
504.83	51421.57
505.01	51772.65
505.18	51592.43
505.36	51896.70
505.53	51444.98
505.71	52119.05
505.88	52215.01
506.06	52182.24
506.23	52617.58
506.41	52200.97
506.58	52601.20
506.76	52332.04
506.93	52608.22
507.11	52685.46
507.28	52933.56
507.46	53017.82
507.63	53008.45
507.81	53453.15
507.98	52636.31
508.16	53022.50
508.33	53420.39
508.50	53532.73
508.68	53813.60
508.85	53801.89
509.03	53942.33
509.20	54003.18
509.38	54071.06
509.55	54387.03
509.73	53996.16
509.90	54527.46
510.08	54426.82
510.25	54656.19
510.42	54569.59
510.60	54555.55
510.77	54890.24
510.95	54798.96
511.12	54974.50
511.30	55021.31
511.47	55334.95
511.64	55332.60
511.82	55309.20
511.99	55510.49
512.17	55402.82
512.34	55487.08
512.51	55772.63
512.69	55962.21
512.86	55796.03
513.04	55863.91
513.21	55805.39
513.38	56046.47
513.56	55824.12
513.73	56065.19
513.90	56357.76
514.08	56165.84
514.25	56474.79
514.43	56601.18
514.60	56439.68
514.77	56512.23
514.95	56500.53
515.12	56552.02
515.29	56692.46
515.47	56989.70
515.64	57193.33
515.81	56917.15
515.99	57104.39
516.16	56970.98
516.33	57024.81
516.51	57385.25
516.68	57289.29
516.85	57270.57
517.03	57673.14
517.20	57633.35
517.37	57530.37
517.54	57553.77
517.72	57572.50
517.89	57600.58
518.06	57689.52
518.24	57916.56
518.41	57804.21
518.58	57865.06
518.75	57521.01
518.93	57944.64
519.10	57937.62
519.27	58028.90
519.45	58405.73
519.62	58555.52
519.79	58518.07
519.96	58391.68
520.14	58508.71
520.31	58375.30
520.48	58506.37
520.65	58216.14
520.83	58791.92
521.00	58749.79
521.17	58855.11
521.34	58766.17
521.52	59065.76
521.69	58901.92
521.86	59093.85
522.03	59147.68
522.20	59250.66
522.38	59470.67
522.55	59442.59
522.72	59594.72
522.89	59082.14
523.07	59641.53
523.24	59576.00
523.41	59461.31
523.58	59269.39
523.75	59828.77
523.92	59695.36
524.10	59604.08
524.27	59978.57
524.44	59927.08
524.61	59877.93
524.78	59845.16
524.96	59884.95
525.13	60170.49
525.30	60273.48
525.47	60336.67
525.64	60317.95
525.81	60334.33
525.98	60076.87
526.16	60278.16
526.33	60296.88
526.50	60779.03
526.67	60626.90
526.84	60807.12
527.01	60523.91
527.18	60732.22
527.36	60666.69
527.53	60683.07
527.70	60912.44
527.87	60853.93
528.04	60842.23
528.21	61017.77
528.38	61078.62
528.55	61188.63
528.72	60982.66
528.89	61024.79
529.07	60884.36
529.24	60694.77
529.41	61190.97
529.58	61090.32
529.75	61083.30
529.92	61399.27
530.09	61399.27
530.26	61310.33
530.43	61329.06
530.60	61249.48
530.77	61331.40
530.94	61616.94
531.11	61434.38
531.28	61689.50
531.46	61614.60
531.63	61619.28
531.80	61567.79
531.97	61712.91
532.14	61858.02
532.31	61654.39
532.48	61942.28
532.65	62127.18
532.82	61935.26
532.99	62108.46
533.16	61836.95
533.33	62003.13
533.50	61801.85
533.67	62092.07
533.84	61965.68
534.01	62148.24
534.18	62085.05
534.35	62564.86
534.52	62206.76
534.69	62464.22
534.86	62372.94
535.03	62176.33
535.20	62309.74
535.37	62518.05
535.54	62815.30
535.71	62564.86
535.88	62588.27
536.05	62445.49
536.22	62459.54
536.38	62564.86
536.55	62642.10
536.72	62894.88
536.89	62515.71
537.06	62962.75
537.23	62944.03
537.40	62967.43
537.57	62756.78
537.74	62649.12
537.91	63037.65
538.08	63061.05
538.25	62932.32
538.42	62962.75
538.59	63084.46
538.75	63171.06
538.92	63164.04
539.09	63269.36
539.26	63093.82
539.43	63168.72
539.60	63187.44
539.77	63323.19
539.94	63519.80
540.11	63559.59
540.28	63550.23
540.44	63545.54
540.61	63285.75
540.78	63444.90
540.95	63426.18
541.12	63475.33
541.29	63505.76
541.46	63746.83
541.62	63674.27
541.79	63767.90
541.96	63784.28
542.13	63772.58
542.30	63730.45
542.47	63735.13
542.63	63891.94
542.80	64051.10
542.97	64126.00
543.14	64261.75
543.31	64299.20
543.48	64282.81
543.64	64388.14
543.81	64338.99
543.98	64320.26
544.15	64287.49
544.32	64280.47
544.48	64519.21
544.65	64334.31
544.82	64535.59
544.99	64317.92
545.16	64512.19
545.32	64427.93
545.49	64589.42
545.66	64809.43
545.83	64704.11
546.00	64961.57
546.16	64863.27
546.33	64804.75
546.50	64779.01
546.67	64673.68
546.83	64336.65
547.00	64605.81
547.17	64491.12
547.34	64671.34
547.50	64657.30
547.67	64980.29
547.84	65083.28
548.00	65003.70
548.17	65263.50
548.34	64900.71
548.51	64938.16
548.67	64907.74
548.84	64989.66
549.01	65050.51
549.18	65041.15
549.34	65179.24
549.51	65228.39
549.68	65230.73
549.84	65092.64
550.01	65226.05
550.18	64896.03
550.34	65104.34
550.51	65087.96
550.68	65099.66
550.84	65034.13
551.01	65410.95
551.18	65073.91
551.34	65235.41
551.51	65317.33
551.68	65307.97
551.84	65329.03
552.01	65226.05
552.18	65455.42
552.34	65471.81
552.51	65469.46
552.68	65436.70
552.84	65535.00
553.01	65535.00
553.18	65509.25
553.34	65509.25
553.51	65469.46
553.67	65535.00
553.84	65535.00
554.01	65535.00
554.17	65535.00
554.34	65535.00
554.51	65535.00
554.67	65535.00
554.84	65535.00
555.00	65535.00
555.17	65535.00
555.33	65535.00
555.50	65535.00
555.67	65535.00
555.83	65535.00
556.00	65535.00
556.16	65535.00
556.33	65535.00
556.50	65535.00
556.66	65535.00
556.83	65535.00
556.99	65535.00
557.16	65535.00
557.32	65535.00
557.49	65535.00
557.65	65535.00
557.82	65535.00
557.98	65535.00
558.15	65535.00
558.32	65535.00
558.48	65535.00
558.65	65535.00
558.81	65535.00
558.98	65535.00
559.14	65535.00
559.31	65535.00
559.47	65535.00
559.64	65535.00
559.80	65535.00
559.97	65535.00
560.13	65535.00
560.30	65535.00
560.46	65535.00
560.63	65535.00
560.79	65535.00
560.96	65535.00
561.12	65535.00
561.29	65535.00
561.45	65535.00
561.61	65535.00
561.78	65535.00
561.94	65535.00
562.11	65535.00
562.27	65535.00
562.44	65535.00
562.60	65535.00
562.77	65535.00
562.93	65535.00
563.10	65535.00
563.26	65535.00
563.42	65535.00
563.59	65535.00
563.75	65535.00
563.92	65535.00
564.08	65535.00
564.24	65535.00
564.41	65535.00
564.57	65535.00
564.74	65535.00
564.90	65535.00
565.07	65535.00
565.23	65535.00
565.39	65535.00
565.56	65535.00
565.72	65535.00
565.88	65535.00
566.05	65535.00
566.21	65535.00
566.38	65535.00
566.54	65535.00
566.70	65535.00
566.87	65535.00
567.03	65535.00
567.19	65535.00
567.36	65535.00
567.52	65535.00
567.68	65535.00
567.85	65535.00
568.01	65535.00
568.17	65535.00
568.34	65535.00
568.50	65535.00
568.66	65535.00
568.83	65535.00
568.99	65535.00
569.15	65535.00
569.32	65535.00
569.48	65535.00
569.64	65535.00
569.81	65535.00
569.97	65535.00
570.13	65535.00
570.30	65535.00
570.46	65535.00
570.62	65535.00
570.78	65535.00
570.95	65535.00
571.11	65535.00
571.27	65535.00
571.43	65535.00
571.60	65535.00
571.76	65535.00
571.92	65535.00
572.09	65535.00
572.25	65535.00
572.41	65535.00
572.57	65535.00
572.74	65535.00
572.90	65535.00
573.06	65535.00
573.22	65535.00
573.38	65535.00
573.55	65535.00
573.71	65535.00
573.87	65535.00
574.03	65535.00
574.20	65535.00
574.36	65535.00
574.52	65535.00
574.68	65535.00
574.84	65535.00
575.01	65535.00
575.17	65535.00
575.33	65535.00
575.49	65535.00
575.65	65535.00
575.82	65535.00
575.98	65535.00
576.14	65535.00
576.30	65535.00
576.46	65535.00
576.62	65535.00
576.79	65535.00
576.95	65535.00
577.11	65535.00
577.27	65535.00
577.43	65535.00
577.59	65535.00
577.75	65535.00
577.92	65535.00
578.08	65535.00
578.24	65535.00
578.40	65535.00
578.56	65535.00
578.72	65535.00
578.88	65535.00
579.04	65535.00
579.21	65535.00
579.37	65535.00
579.53	65535.00
579.69	65535.00
579.85	65535.00
580.01	65535.00
580.17	65535.00
580.33	65535.00
580.49	65535.00
580.65	65535.00
580.82	65535.00
580.98	65535.00
581.14	65535.00
581.30	65535.00
581.46	65535.00
581.62	65535.00
581.78	65535.00
581.94	65535.00
582.10	65535.00
582.26	65535.00
582.42	65535.00
582.58	65535.00
582.74	65535.00
582.90	65535.00
583.06	65535.00
583.22	65535.00
583.38	65535.00
583.54	65535.00
583.70	65535.00
583.86	65535.00
584.02	65535.00
584.18	65535.00
584.34	65535.00
584.50	65535.00
584.66	65535.00
584.82	65535.00
584.98	65535.00
585.14	65535.00
585.30	65535.00
585.46	65535.00
585.62	65535.00
585.78	65535.00
585.94	65535.00
586.10	65535.00
586.26	65535.00
586.42	65535.00
586.58	65535.00
586.74	65535.00
586.90	65535.00
587.06	65535.00
587.22	65535.00
