SpectraSuite Data File
++++++++++++++++++++++++++++++++++++
Date: Thu Oct 24 13:21:27 EDT 2013
User: stostad
Dark Spectrum Present: No
Reference Spectrum Present: No
Number of Sampled Component Spectra: 1
Spectrometers: USB2+H05261
Integration Time (usec): 100000 (USB2+H05261)
Spectra Averaged: 1 (USB2+H05261)
Boxcar Smoothing: 0 (USB2+H05261)
Correct for Electrical Dark: No (USB2+H05261)
Strobe/Lamp Enabled: No (USB2+H05261)
Correct for Detector Non-linearity: No (USB2+H05261)
Correct for Stray Light: No (USB2+H05261)
Number of Pixels in Processed Spectrum: 2048
>>>>>Begin Processed Spectral Data<<<<<
365.73	641.31
365.92	641.31
366.12	641.31
366.32	545.34
366.52	468.11
366.72	400.23
366.91	447.04
367.11	517.26
367.31	418.96
367.51	491.51
367.70	512.58
367.90	510.24
368.10	486.83
368.30	461.09
368.49	451.72
368.69	437.68
368.89	458.74
369.09	454.06
369.28	526.62
369.48	498.53
369.68	505.56
369.87	526.62
370.07	521.94
370.27	535.98
370.47	636.63
370.66	877.70
370.86	1018.13
371.06	992.39
371.25	983.02
371.45	1022.81
371.65	992.39
371.84	976.00
372.04	964.30
372.24	1088.35
372.44	1034.52
372.63	1048.56
372.83	1004.09
373.03	1069.62
373.22	1048.56
373.42	1156.22
373.62	1111.75
373.81	1158.57
374.01	1107.07
374.21	1123.46
374.40	1083.67
374.60	1167.93
374.79	1142.18
374.99	1142.18
375.19	1174.95
375.38	1130.48
375.58	1210.06
375.78	1226.44
375.97	1184.31
376.17	1214.74
376.37	1240.48
376.56	1167.93
376.76	1198.35
376.95	1210.06
377.15	1249.85
377.35	1207.72
377.54	1228.78
377.74	1245.16
377.93	1219.42
378.13	1135.16
378.33	1366.87
378.52	1249.85
378.72	1280.27
378.91	1224.10
379.11	1313.04
379.31	1221.76
379.50	1277.93
379.70	1338.79
379.89	1291.98
380.09	1291.98
380.28	1348.15
380.48	1334.11
380.68	1270.91
380.87	1306.02
381.07	1313.04
381.26	1329.42
381.46	1413.68
381.65	1336.45
381.85	1399.64
382.04	1441.77
382.24	1397.30
382.43	1399.64
382.63	1373.89
382.83	1406.66
383.02	1334.11
383.22	1493.26
383.41	1380.92
383.61	1446.45
383.80	1380.92
384.00	1437.09
384.19	1547.09
384.39	1434.75
384.58	1430.07
384.78	1556.46
384.97	1483.90
385.17	1469.86
385.36	1502.62
385.56	1493.26
385.75	1544.75
385.95	1526.03
386.14	1558.80
386.34	1596.25
386.53	1488.58
386.72	1514.33
386.92	1638.38
387.11	1558.80
387.31	1582.20
387.50	1549.43
387.70	1420.71
387.89	1633.69
388.09	1572.84
388.28	1647.74
388.48	1685.19
388.67	1722.63
388.86	1664.12
389.06	1680.50
389.25	1682.85
389.45	1750.72
389.64	1575.18
389.84	1699.23
390.03	1661.78
390.22	1680.50
390.42	1680.50
390.61	1717.95
390.81	1767.10
391.00	1760.08
391.19	1706.25
391.39	1842.00
391.58	1757.74
391.78	1757.74
391.97	1849.02
392.16	1827.96
392.36	1867.75
392.55	1856.04
392.75	1842.00
392.94	1921.58
393.13	1750.72
393.33	1895.83
393.52	1886.47
393.71	1884.13
393.91	2001.16
394.10	1947.33
394.29	1975.41
394.49	1991.80
394.68	1994.14
394.88	1907.54
395.07	2073.71
395.26	1975.41
395.46	1984.77
395.65	2064.35
395.84	2017.54
396.04	2085.42
396.23	2071.37
396.42	2029.24
396.62	2069.03
396.81	2207.13
397.00	2052.65
397.19	2214.15
397.39	2132.23
397.58	2176.70
397.77	2115.84
397.97	2214.15
398.16	2265.64
398.35	2239.89
398.55	2193.08
398.74	2209.47
398.93	2307.77
399.12	2312.45
399.32	2223.51
399.51	2277.34
399.70	2352.24
399.90	2356.92
400.09	2242.23
400.28	2354.58
400.47	2434.16
400.67	2490.33
400.86	2380.32
401.05	2417.77
401.24	2420.11
401.44	2431.82
401.63	2401.39
401.82	2504.37
402.01	2415.43
402.21	2520.76
402.40	2506.71
402.59	2490.33
402.78	2434.16
402.97	2516.08
403.17	2562.89
403.36	2600.34
403.55	2635.44
403.74	2696.30
403.93	2658.85
404.13	2717.36
404.32	2766.51
404.51	2654.17
404.70	2743.11
404.89	2782.90
405.09	2745.45
405.28	2773.53
405.47	2839.07
405.66	2850.77
405.85	2810.98
406.05	2750.13
406.24	2843.75
406.43	2902.26
406.62	2899.92
406.81	2967.80
407.00	2984.18
407.20	2869.50
407.39	2904.60
407.58	2946.73
407.77	2993.55
407.96	3014.61
408.15	3042.70
408.34	2993.55
408.54	3105.89
408.73	3059.08
408.92	3061.42
409.11	3185.47
409.30	3325.90
409.49	3243.98
409.68	3171.43
409.87	3293.13
410.07	3330.58
410.26	3365.69
410.45	3368.03
410.64	3400.80
410.83	3466.33
411.02	3487.40
411.21	3471.01
411.40	3358.67
411.59	3471.01
411.78	3466.33
411.98	3370.37
412.17	3632.51
412.36	3541.23
412.55	3676.98
412.74	3655.92
412.93	3801.03
413.12	3585.70
413.31	3765.92
413.50	3747.20
413.69	3801.03
413.88	3882.95
414.07	3974.23
414.26	3971.89
414.45	3999.98
414.64	3913.38
414.83	3974.23
415.02	3992.95
415.22	4032.74
415.41	4081.89
415.60	4107.64
415.79	4234.03
415.98	4327.65
416.17	4163.81
416.36	4177.86
416.55	4168.49
416.74	4393.19
416.93	4337.01
417.12	4526.60
417.31	4348.72
417.50	4411.91
417.69	4568.73
417.88	4540.64
418.07	4622.56
418.26	4533.62
418.45	4468.08
418.64	4716.18
418.83	4622.56
419.02	4699.80
419.21	4840.23
419.39	4751.29
419.58	4697.46
419.77	4650.64
419.96	4940.87
420.15	4858.95
420.34	4983.00
420.53	4926.83
420.72	4957.25
420.91	5046.20
421.10	4947.89
421.29	4964.28
421.48	4856.61
421.67	4861.29
421.86	4894.06
422.05	5043.85
422.24	4898.74
422.43	4985.34
422.61	5287.27
422.80	5214.71
422.99	5039.17
423.18	5102.37
423.37	5221.74
423.56	5116.41
423.75	5055.56
423.94	5034.49
424.13	4828.53
424.32	5050.88
424.50	5165.56
424.69	5397.28
424.88	5249.82
425.07	5252.16
425.26	5233.44
425.45	5123.43
425.64	5167.90
425.83	5067.26
426.01	5322.38
426.20	5156.20
426.39	5228.76
426.58	5284.93
426.77	5219.39
426.96	5376.21
427.15	5289.61
427.33	5411.32
427.52	5547.07
427.71	5502.60
427.90	5413.66
428.09	5633.67
428.28	5624.31
428.46	5495.58
428.65	5493.24
428.84	5696.86
429.03	5666.44
429.22	5542.39
429.40	5762.40
429.59	5832.62
429.78	5523.66
429.97	5486.22
430.16	5699.20
430.34	5708.57
430.53	5774.10
430.72	5792.83
430.91	5816.23
431.10	5722.61
431.28	6073.69
431.47	5926.24
431.66	6083.05
431.85	5991.77
432.03	5921.56
432.22	6232.85
432.41	6115.82
432.60	6207.10
432.79	6073.69
432.97	6251.57
433.16	6160.29
433.35	6263.27
433.54	6171.99
433.72	6338.17
433.91	6406.05
434.10	6230.51
434.28	6246.89
434.47	6258.59
434.66	6459.88
434.85	6562.86
435.03	6558.18
435.22	6544.14
435.41	6876.49
435.59	6789.89
435.78	6686.91
435.97	6693.93
436.16	6604.99
436.34	6588.61
436.53	6583.93
436.72	6794.58
436.90	6801.60
437.09	6813.30
437.28	6696.27
437.46	6801.60
437.65	6857.77
437.84	6967.77
438.02	6731.38
438.21	6946.71
438.40	6829.68
438.58	7148.00
438.77	7091.82
438.96	7054.37
439.14	7265.02
439.33	7440.56
439.52	7433.54
439.70	7276.73
439.89	7569.29
440.08	7583.34
440.26	7515.46
440.45	7405.46
440.63	7693.34
440.82	7761.22
441.01	7634.83
441.19	7826.75
441.38	7742.49
441.57	7826.75
441.75	7929.74
441.94	8013.99
442.12	8203.58
442.31	8217.62
442.50	7915.69
442.68	7974.21
442.87	8217.62
443.05	8301.88
443.24	8383.80
443.43	8273.79
443.61	8355.71
443.80	8479.76
443.98	8067.83
444.17	7812.71
444.35	8318.26
444.54	8566.36
444.73	8634.24
444.91	8400.18
445.10	8381.46
445.28	8491.46
445.47	8435.29
445.65	8659.98
445.84	8414.23
446.02	8571.04
446.21	8444.65
446.39	8592.11
446.58	8650.62
446.77	8571.04
446.95	8465.72
447.14	8526.57
447.32	8643.60
447.51	8676.37
447.69	8334.65
447.88	8711.47
448.06	8695.09
448.25	8788.71
448.43	8610.83
448.62	8760.63
448.80	8667.00
448.99	8837.86
449.17	8744.24
449.36	8547.64
449.54	8814.46
449.73	9081.28
449.91	9135.11
450.10	9060.21
450.28	9273.20
450.46	9210.01
450.65	9242.78
450.83	9170.22
451.02	8898.72
451.20	9345.76
451.39	9284.91
451.57	9214.69
451.76	9029.79
451.94	9462.79
452.13	9387.89
452.31	9291.93
452.49	9221.71
452.68	9596.20
452.86	9385.55
453.05	9392.57
453.23	9446.40
453.42	9504.92
453.60	9476.83
453.78	9565.77
453.97	9453.42
454.15	9423.00
454.34	9446.40
454.52	9731.95
454.70	9738.97
454.89	9647.69
455.07	9755.35
455.26	10097.07
455.44	9893.44
455.62	9846.63
455.81	9767.06
455.99	10104.09
456.17	10223.46
456.36	10099.41
456.54	10242.18
456.73	10399.00
456.91	10532.41
457.09	10394.32
457.28	10413.04
457.46	10408.36
457.64	10824.98
457.83	10441.13
458.01	10356.87
458.19	10775.83
458.38	10487.94
458.56	10789.87
458.74	10768.80
458.93	10661.14
459.11	10757.10
459.29	10792.21
459.48	10815.62
459.66	10724.33
459.84	11012.22
460.03	11002.86
460.21	11021.58
460.39	11044.99
460.57	11040.31
460.76	10974.77
460.94	11283.72
461.12	11293.08
461.31	11253.30
461.49	11129.25
461.67	11019.24
461.85	11290.74
462.04	11365.64
462.22	11730.76
462.40	11740.13
462.59	11410.11
462.77	11583.31
462.95	11550.54
463.13	11501.39
463.32	11531.82
463.50	11833.75
463.68	11763.53
463.86	11735.45
464.05	11332.87
464.23	11662.89
464.41	11782.26
464.59	11793.96
464.78	12093.55
464.96	11864.18
465.14	11833.75
465.32	11913.33
465.50	12233.98
465.69	12175.47
465.87	12112.27
466.05	12016.31
466.23	12154.40
466.41	12063.12
466.60	12262.07
466.78	12198.87
466.96	12152.06
467.14	12166.10
467.32	12294.83
467.51	12547.61
467.69	12294.83
467.87	12475.06
468.05	12772.30
468.23	12257.39
468.41	12280.79
468.60	12498.46
468.78	12636.55
468.96	12561.66
469.14	12718.47
469.32	12954.87
469.50	12510.16
469.69	12758.26
469.87	13013.38
470.05	13046.15
470.23	13097.64
470.41	13128.06
470.59	13259.13
470.77	13027.42
470.95	13383.18
471.14	13532.98
471.32	13298.92
471.50	13401.91
471.68	13411.27
471.86	13439.36
472.04	13720.22
472.22	14024.49
472.40	13666.39
472.58	13624.26
472.77	13743.63
472.95	14204.71
473.13	14452.81
473.31	13921.51
473.49	14022.15
473.67	13898.10
473.85	14286.63
474.03	14759.42
474.21	14747.72
474.39	14480.89
474.57	14382.59
474.75	14984.11
474.93	14806.23
475.12	14937.30
475.30	14981.77
475.48	14764.10
475.66	15016.88
475.84	14932.62
476.02	15426.47
476.20	15243.91
476.38	15620.74
476.56	15793.94
476.74	15730.74
476.92	15730.74
477.10	15550.52
477.28	16065.44
477.46	16053.73
477.64	16074.80
477.82	16510.14
478.00	17034.42
478.18	16690.36
478.36	16823.77
478.54	17198.26
478.72	17015.69
478.90	17015.69
479.08	17448.69
479.26	17605.51
479.44	17432.31
479.62	17607.85
479.80	17937.87
479.98	17792.75
480.16	18445.76
480.34	18183.62
480.52	18410.65
480.70	18464.49
480.88	18483.21
481.06	18485.55
481.24	18637.69
481.41	18958.34
481.59	19274.31
481.77	19215.80
481.95	19204.10
482.13	19438.15
482.31	19800.93
482.49	19990.52
482.67	20088.82
482.85	20187.12
483.03	20428.20
483.21	20453.94
483.39	20631.82
483.57	20666.93
483.74	20919.71
483.92	20908.01
484.10	21275.47
484.28	21439.31
484.46	21680.38
484.64	22059.55
484.82	21528.25
485.00	21720.17
485.18	22419.99
485.35	22735.96
485.53	22611.92
485.71	23070.66
485.89	23063.64
486.07	23307.05
486.25	22848.31
486.43	23239.18
486.61	23281.31
486.78	23667.50
486.96	23915.59
487.14	24233.91
487.32	24116.88
487.50	24100.50
487.68	24718.40
487.85	25006.28
488.03	25125.65
488.21	25380.77
488.39	25390.13
488.57	25570.35
488.75	25666.31
488.92	25949.52
489.10	26059.52
489.28	26396.56
489.46	26944.25
489.64	26663.38
489.81	27117.45
489.99	27150.21
490.17	27314.05
490.35	27597.26
490.53	27962.38
490.70	27821.95
490.88	27864.08
491.06	28079.41
491.24	28196.43
491.41	28643.48
491.59	29247.33
491.77	29085.84
491.95	29263.72
492.13	29483.73
492.30	29441.60
492.48	29497.77
492.66	29736.51
492.84	29785.66
493.01	30096.95
493.19	30115.67
493.37	30574.42
493.54	30047.80
493.72	30588.46
493.90	30506.54
494.08	31035.50
494.25	31466.16
494.43	31407.65
494.61	31828.95
494.79	31819.58
494.96	31632.34
495.14	32287.69
495.32	32378.97
495.49	32617.71
495.67	32844.74
495.85	32968.79
496.02	33022.62
496.20	33219.22
496.38	33010.92
496.55	33923.72
496.73	34260.76
496.91	33614.77
497.09	34471.41
497.26	34387.15
497.44	34328.64
497.62	34656.31
497.79	35037.82
497.97	34679.72
498.14	35475.50
498.32	35716.58
498.50	35508.27
498.67	35468.48
498.85	35508.27
499.03	35810.20
499.20	35735.30
499.38	36102.76
499.56	36505.34
499.73	36437.46
499.91	36788.54
500.08	36989.83
500.26	36690.24
500.44	36870.46
500.61	37015.57
500.79	37270.69
500.97	37689.65
501.14	37654.54
501.32	37565.60
501.49	37565.60
501.67	37610.07
501.84	38108.60
502.02	38007.96
502.20	38382.45
502.37	38785.02
502.55	38183.50
502.72	38263.08
502.90	38319.25
503.07	38469.04
503.25	39037.80
503.43	39185.25
503.60	39122.05
503.78	39365.47
503.95	39124.40
504.13	39433.35
504.30	39849.96
504.48	39772.72
504.65	40114.44
504.83	40289.98
505.01	40488.93
505.18	40414.03
505.36	40715.96
505.53	40308.71
505.71	40942.99
505.88	41350.24
506.06	40460.84
506.23	41237.90
506.41	41205.13
506.58	40987.46
506.76	41537.49
506.93	41743.45
507.11	41092.79
507.28	41525.78
507.46	42031.34
507.63	42043.04
507.81	41698.98
507.98	41497.70
508.16	42099.22
508.33	42146.03
508.50	42309.86
508.68	42417.53
508.85	42630.52
509.03	42590.73
509.20	42731.16
509.38	43203.95
509.55	43393.53
509.73	43555.03
509.90	43505.88
510.08	43501.20
510.25	43852.28
510.42	43889.73
510.60	44147.18
510.77	43875.68
510.95	44320.38
511.12	44582.52
511.30	44156.55
511.47	44566.14
511.64	44411.67
511.82	45041.27
511.99	44509.97
512.17	44662.10
512.34	45024.89
512.51	45677.90
512.69	45649.81
512.86	45574.91
513.04	45715.34
513.21	45708.32
513.38	45722.37
513.56	45684.92
513.73	45659.17
513.90	46108.55
514.08	45839.39
514.25	46129.62
514.43	46775.61
514.60	46738.16
514.77	46457.29
514.95	47051.79
515.12	46534.53
515.29	46248.99
515.47	47122.01
515.64	47056.47
515.81	47138.39
515.99	47140.73
516.16	47423.93
516.33	47189.88
516.51	47803.10
516.68	47489.47
516.85	47594.79
517.03	48011.41
517.20	48048.86
517.37	47868.64
517.54	47721.18
517.72	47847.57
517.89	47770.33
518.06	48343.77
518.24	48603.56
518.41	48318.02
518.58	48465.47
518.75	48170.57
518.93	48685.48
519.10	48165.88
519.27	48779.10
519.45	48774.42
519.62	49193.38
519.79	49340.83
519.96	49359.56
520.14	49179.34
520.31	48673.78
520.48	49169.97
520.65	49268.28
520.83	49467.22
521.00	49696.59
521.17	49701.28
521.34	49551.48
521.52	49495.31
521.69	49783.19
521.86	49949.37
522.03	49916.61
522.20	49799.58
522.38	50674.94
522.55	50541.53
522.72	50365.99
522.89	50649.19
523.07	50681.96
523.24	50438.54
523.41	50621.11
523.58	50850.48
523.75	50567.27
523.92	50747.50
524.10	51323.27
524.27	51295.18
524.44	51145.39
524.61	51503.49
524.78	51217.94
524.96	51189.86
525.13	51489.45
525.30	51728.18
525.47	51660.30
525.64	51475.40
525.81	51929.47
525.98	51990.32
526.16	51573.70
526.33	51585.41
526.50	52151.82
526.67	51828.82
526.84	52065.22
527.01	52023.09
527.18	52378.85
527.36	52390.55
527.53	52224.37
527.70	52219.69
527.87	52626.95
528.04	52465.45
528.21	52891.43
528.38	52507.58
528.55	52999.09
528.72	52598.86
528.89	52523.96
529.07	52804.83
529.24	52645.67
529.41	53027.18
529.58	53024.84
529.75	52828.23
529.92	53041.22
530.09	52999.09
530.26	52912.49
530.43	53085.69
530.60	53008.45
530.77	52790.78
530.94	53207.40
531.11	53523.37
531.28	53619.33
531.46	53317.40
531.63	53773.81
531.80	53404.00
531.97	53469.54
532.14	53525.71
532.31	53872.11
532.48	53750.40
532.65	54251.28
532.82	53741.04
532.99	53666.14
533.16	53745.72
533.33	54571.93
533.50	54028.93
533.67	54277.02
533.84	54101.48
534.01	54227.87
534.18	54426.82
534.35	54717.04
534.52	54323.83
534.69	54272.34
534.86	54337.88
535.03	54064.03
535.20	54358.94
535.37	54731.09
535.54	55068.12
535.71	54480.65
535.88	54590.66
536.05	54754.49
536.22	54794.28
536.38	54857.48
536.55	54824.71
536.72	54958.12
536.89	55091.53
537.06	54925.35
537.23	55290.48
537.40	55274.09
537.57	55171.11
537.74	55028.34
537.91	55201.53
538.08	55402.82
538.25	55168.77
538.42	55054.08
538.59	55601.77
538.75	55234.30
538.92	55365.37
539.09	55276.43
539.26	55566.66
539.43	55360.69
539.60	55498.78
539.77	55398.14
539.94	56006.68
540.11	56074.55
540.28	55906.04
540.44	55781.99
540.61	55980.93
540.78	55704.75
540.95	55789.01
541.12	55683.69
541.29	55777.31
541.46	56133.07
541.62	56142.43
541.79	56147.11
541.96	55952.85
542.13	56011.36
542.30	56224.35
542.47	56140.09
542.63	56200.94
542.80	56605.86
542.97	56591.81
543.14	56837.57
543.31	56669.05
543.48	56722.88
543.64	57013.11
543.81	56636.28
543.98	56891.40
544.15	56753.31
544.32	56900.76
544.48	56804.80
544.65	56809.48
544.82	56968.64
544.99	56690.12
545.16	56963.96
545.32	56884.38
545.49	57240.14
545.66	57265.89
545.83	57214.40
546.00	57368.87
546.16	57326.74
546.33	57324.40
546.50	57254.18
546.67	57446.11
546.83	57010.77
547.00	57127.80
547.17	57200.35
547.34	57258.87
547.50	57448.45
547.67	57490.58
547.84	57354.83
548.00	57787.83
548.17	57528.03
548.34	57551.43
548.51	57539.73
548.67	57654.42
548.84	57623.99
549.01	57504.62
549.18	57528.03
549.34	57822.93
549.51	57631.01
549.68	57790.17
549.84	57546.75
550.01	57890.81
550.18	57621.65
550.34	57696.55
550.51	57511.64
550.68	57731.65
550.84	57769.10
551.01	57886.13
551.18	57949.32
551.34	57666.12
551.51	58017.20
551.68	57925.92
551.84	57801.87
552.01	57979.75
552.18	58206.78
552.34	58059.33
552.51	58433.81
552.68	58272.32
552.84	58394.03
553.01	58410.41
553.18	58272.32
553.34	58314.45
553.51	58138.91
553.67	58157.63
553.84	58459.56
554.01	58494.67
554.17	58326.15
554.34	58607.01
554.51	58391.68
554.67	58511.05
554.84	58277.00
555.00	58150.61
555.17	58284.02
555.33	58726.38
555.50	58365.94
555.67	58408.07
555.83	58520.41
556.00	58672.55
556.16	58864.47
556.33	58578.93
556.50	58183.38
556.66	58468.92
556.83	58630.42
556.99	58763.83
557.16	58901.92
557.32	59037.67
557.49	58995.54
557.65	58883.20
557.82	58918.31
557.98	58796.60
558.15	58805.96
558.32	58927.67
558.48	58810.64
558.65	58920.65
558.81	59025.97
558.98	59281.09
559.14	59032.99
559.31	58972.14
559.47	58878.52
559.64	59040.01
559.80	58990.86
559.97	59145.34
560.13	58920.65
560.30	58990.86
560.46	59201.51
560.63	59245.98
560.79	59159.38
560.96	59325.56
561.12	59145.34
561.29	59377.05
561.45	59206.19
561.61	59262.36
561.78	59072.78
561.94	59524.50
562.11	59412.16
562.27	59444.93
562.44	59365.35
562.60	59564.29
562.77	59297.47
562.93	59484.72
563.10	59484.72
563.26	59199.17
563.42	59524.50
563.59	59498.76
563.75	59339.60
563.92	59508.12
564.08	59454.29
564.24	59571.32
564.41	59201.51
564.57	59248.32
564.74	59374.71
564.90	59465.99
565.07	59634.51
565.23	59592.38
565.39	59730.47
565.56	59863.88
565.72	59524.50
565.88	59728.13
566.05	59674.30
566.21	59512.80
566.38	59517.48
566.54	59777.28
566.70	59632.17
566.87	59922.40
567.03	59622.81
567.19	60097.94
567.36	60060.49
567.52	59669.62
567.68	59863.88
567.85	59716.43
568.01	59753.88
568.17	59924.74
568.34	59931.76
568.50	59788.98
568.66	59917.71
568.83	60023.04
568.99	59791.33
569.15	59803.03
569.32	59739.83
569.48	59821.75
569.64	59669.62
569.81	59636.85
569.97	59987.93
570.13	59898.99
570.30	59721.11
570.46	59906.01
570.62	59793.67
570.78	59950.48
570.95	59824.09
571.11	60130.70
571.27	59835.80
571.43	59936.44
571.60	59873.24
571.76	59896.65
571.92	60001.97
572.09	60107.30
572.25	60062.83
572.41	59994.95
572.57	59934.10
572.74	60313.26
572.90	59915.37
573.06	60046.44
573.22	59849.84
573.38	60025.38
573.55	60074.53
573.71	60278.16
573.87	60268.79
574.03	60004.31
574.20	60079.21
574.36	60135.38
574.52	60247.73
574.68	59929.42
574.84	60310.92
575.01	60137.72
575.17	60500.51
575.33	60196.24
575.49	60046.44
575.65	60074.53
575.82	60182.19
575.98	60196.24
576.14	60168.15
576.30	60016.02
576.46	59903.67
576.62	60121.34
576.79	60107.30
576.95	60107.30
577.11	60144.75
577.27	60191.56
577.43	60355.39
577.59	60278.16
577.75	60289.86
577.92	60147.09
578.08	60020.70
578.24	60111.98
578.40	60273.48
578.56	60280.50
578.72	60406.89
578.88	60521.57
579.04	60437.31
579.21	60500.51
579.37	60355.39
579.53	60397.52
579.69	59980.91
579.85	60374.12
580.01	60416.25
580.17	60444.33
580.33	60441.99
580.49	60451.36
580.65	60575.40
580.82	60336.67
580.98	60397.52
581.14	60254.75
581.30	60449.02
581.46	60329.65
581.62	60376.46
581.78	60259.43
581.94	60266.45
582.10	60236.03
582.26	60313.26
582.42	60275.82
582.58	60441.99
582.74	60409.23
582.90	60418.59
583.06	60451.36
583.22	60254.75
583.38	60310.92
583.54	60308.58
583.70	60343.69
583.86	60411.57
584.02	60477.10
584.18	60566.04
584.34	60322.63
584.50	60676.05
584.66	60472.42
584.82	60233.69
584.98	60561.36
585.14	60341.35
585.30	60383.48
585.46	60245.39
585.62	60399.86
585.78	60591.79
585.94	60451.36
586.10	60385.82
586.26	60486.46
586.42	60659.66
586.58	60626.90
586.74	60626.90
586.90	60334.33
587.06	60346.03
587.22	60563.70
587.38	60610.51
587.54	60622.22
587.70	60879.67
587.86	60430.29
588.02	60638.60
