SpectraSuite Data File
++++++++++++++++++++++++++++++++++++
Date: Thu Oct 24 13:21:25 EDT 2013
User: stostad
Dark Spectrum Present: No
Reference Spectrum Present: No
Number of Sampled Component Spectra: 1
Spectrometers: USB2+H05261
Integration Time (usec): 100000 (USB2+H05261)
Spectra Averaged: 1 (USB2+H05261)
Boxcar Smoothing: 0 (USB2+H05261)
Correct for Electrical Dark: No (USB2+H05261)
Strobe/Lamp Enabled: No (USB2+H05261)
Correct for Detector Non-linearity: No (USB2+H05261)
Correct for Stray Light: No (USB2+H05261)
Number of Pixels in Processed Spectrum: 2048
>>>>>Begin Processed Spectral Data<<<<<
365.73	580.45
365.92	580.45
366.12	580.45
366.32	461.09
366.52	435.34
366.72	484.49
366.91	491.51
367.11	390.87
367.31	470.45
367.51	458.74
367.70	454.06
367.90	411.93
368.10	442.36
368.30	463.43
368.49	517.26
368.69	479.81
368.89	507.90
369.09	510.24
369.28	475.13
369.48	503.22
369.68	465.77
369.87	486.83
370.07	524.28
370.27	528.96
370.47	629.60
370.66	894.08
370.86	1011.11
371.06	999.41
371.25	980.68
371.45	933.87
371.65	940.90
371.84	966.64
372.04	1004.09
372.24	983.02
372.44	980.68
372.63	976.00
372.83	1008.77
373.03	1062.60
373.22	1074.31
373.42	1102.39
373.62	1060.26
373.81	1027.50
374.01	1078.99
374.21	1104.73
374.40	1102.39
374.60	1132.82
374.79	1069.62
374.99	1107.07
375.19	1116.44
375.38	1130.48
375.58	1104.73
375.78	1128.14
375.97	1179.63
376.17	1188.99
376.37	1114.10
376.56	1067.28
376.76	1135.16
376.95	1123.46
377.15	1111.75
377.35	1151.54
377.54	1198.35
377.74	1221.76
377.93	1210.06
378.13	1240.48
378.33	1214.74
378.52	1217.08
378.72	1188.99
378.91	1186.65
379.11	1200.69
379.31	1160.91
379.50	1235.80
379.70	1240.48
379.89	1210.06
380.09	1167.93
380.28	1191.33
380.48	1256.87
380.68	1317.72
380.87	1177.29
381.07	1275.59
381.26	1256.87
381.46	1315.38
381.65	1273.25
381.85	1359.85
382.04	1434.75
382.24	1313.04
382.43	1299.00
382.63	1268.57
382.83	1334.11
383.02	1366.87
383.22	1397.30
383.41	1310.70
383.61	1331.76
383.80	1359.85
384.00	1331.76
384.19	1378.58
384.39	1430.07
384.58	1357.51
384.78	1416.02
384.97	1474.54
385.17	1352.83
385.36	1444.11
385.56	1542.41
385.75	1439.43
385.95	1425.39
386.14	1390.28
386.34	1378.58
386.53	1507.30
386.72	1376.24
386.92	1504.96
387.11	1565.82
387.31	1551.78
387.50	1441.77
387.70	1523.69
387.89	1558.80
388.09	1469.86
388.28	1556.46
388.48	1598.59
388.67	1556.46
388.86	1472.20
389.06	1533.05
389.25	1563.48
389.45	1568.16
389.64	1593.90
389.84	1554.12
390.03	1631.35
390.22	1631.35
390.42	1577.52
390.61	1612.63
390.81	1614.97
391.00	1582.20
391.19	1631.35
391.39	1706.25
391.58	1692.21
391.78	1664.12
391.97	1687.53
392.16	1636.03
392.36	1647.74
392.55	1743.70
392.75	1734.34
392.94	1816.26
393.13	1881.79
393.33	1703.91
393.52	1804.55
393.71	1820.94
393.91	1799.87
394.10	1778.81
394.29	1816.26
394.49	1825.62
394.68	1870.09
394.88	1863.07
395.07	1905.20
395.26	1900.52
395.46	1919.24
395.65	1944.99
395.84	1921.58
396.04	2015.20
396.23	1937.96
396.42	2005.84
396.62	2043.29
396.81	1994.14
397.00	1994.14
397.19	1991.80
397.39	1977.75
397.58	2043.29
397.77	2045.63
397.97	2094.78
398.16	2010.52
398.35	2111.16
398.55	2047.97
398.74	2115.84
398.93	2148.61
399.12	2129.89
399.32	1980.09
399.51	2200.10
399.70	2108.82
399.90	2157.97
400.09	2045.63
400.28	2167.34
400.47	2260.96
400.67	2305.43
400.86	2305.43
401.05	2244.57
401.24	2293.72
401.44	2326.49
401.63	2403.73
401.82	2284.36
402.01	2263.30
402.21	2272.66
402.40	2431.82
402.59	2375.64
402.78	2359.26
402.97	2410.75
403.17	2441.18
403.36	2401.39
403.55	2502.03
403.74	2462.24
403.93	2555.86
404.13	2476.29
404.32	2562.89
404.51	2497.35
404.70	2581.61
404.89	2597.99
405.09	2691.62
405.28	2597.99
405.47	2593.31
405.66	2670.55
405.85	2778.22
406.05	2593.31
406.24	2747.79
406.43	2686.94
406.62	2750.13
406.81	2773.53
407.00	2771.19
407.20	2881.20
407.39	2717.36
407.58	2796.94
407.77	2897.58
407.96	2981.84
408.15	2890.56
408.34	2836.73
408.54	2897.58
408.73	2949.08
408.92	3002.91
409.11	2977.16
409.30	2998.23
409.49	3063.76
409.68	3059.08
409.87	3096.53
410.07	3101.21
410.26	2984.18
410.45	3096.53
410.64	3110.57
410.83	3157.38
411.02	3272.07
411.21	3215.90
411.40	3208.87
411.59	3260.37
411.78	3222.92
411.98	3262.71
412.17	3384.41
412.36	3346.97
412.55	3417.18
412.74	3550.59
412.93	3389.10
413.12	3379.73
413.31	3426.54
413.50	3510.80
413.69	3679.32
413.88	3707.41
414.07	3721.45
414.26	3574.00
414.45	3691.02
414.64	3613.79
414.83	3803.37
415.02	3948.48
415.22	3850.18
415.41	3768.26
415.60	4004.66
415.79	3887.63
415.98	3978.91
416.17	4114.66
416.36	4014.02
416.55	3950.82
416.74	4011.68
416.93	4077.21
417.12	4028.06
417.31	4102.96
417.50	4161.47
417.69	4353.40
417.88	4297.22
418.07	4245.73
418.26	4311.27
418.45	4360.42
418.64	4367.44
418.83	4484.47
419.02	4423.61
419.21	4533.62
419.39	4510.21
419.58	4484.47
419.77	4458.72
419.96	4608.51
420.15	4571.07
420.34	4578.09
420.53	4498.51
420.72	4545.32
420.91	4727.88
421.10	4617.88
421.29	4624.90
421.48	4744.27
421.67	4697.46
421.86	4720.86
422.05	4718.52
422.24	4727.88
422.43	4573.41
422.61	4706.82
422.80	4980.66
422.99	4758.31
423.18	4947.89
423.37	4816.82
423.56	4774.69
423.75	4873.00
423.94	4683.41
424.13	4739.58
424.32	4662.35
424.50	4828.53
424.69	4917.47
424.88	5057.90
425.07	4835.55
425.26	4875.34
425.45	4739.58
425.64	4772.35
425.83	4891.72
426.01	4889.38
426.20	5025.13
426.39	5027.47
426.58	4926.83
426.77	4994.70
426.96	4896.40
427.15	5027.47
427.33	5088.32
427.52	4903.42
427.71	5231.10
427.90	5184.29
428.09	5116.41
428.28	5214.71
428.46	5193.65
428.65	5163.22
428.84	5277.91
429.03	5284.93
429.22	5067.26
429.40	5186.63
429.59	5343.44
429.78	5170.24
429.97	5097.69
430.16	5331.74
430.34	5460.47
430.53	5359.83
430.72	5397.28
430.91	5551.75
431.10	5289.61
431.28	5565.79
431.47	5455.79
431.66	5790.49
431.85	5785.80
432.03	5724.95
432.22	5687.50
432.41	5628.99
432.60	5657.07
432.79	5844.32
432.97	5799.85
433.16	5631.33
433.35	5699.20
433.54	5673.46
433.72	5998.79
433.91	5834.96
434.10	5980.07
434.28	5905.17
434.47	5820.91
434.66	5975.39
434.85	5980.07
435.03	6310.08
435.22	6153.27
435.41	6523.07
435.59	6352.21
435.78	6256.25
435.97	6326.47
436.16	6139.23
436.34	6307.74
436.53	6270.30
436.72	6310.08
436.90	6232.85
437.09	6562.86
437.28	6108.80
437.46	6431.79
437.65	6417.75
437.84	6516.05
438.02	6630.74
438.21	6539.46
438.40	6478.60
438.58	6600.31
438.77	6745.42
438.96	6876.49
439.14	6843.73
439.33	6778.19
439.52	6787.55
439.70	6848.41
439.89	7138.63
440.08	6979.48
440.26	7070.76
440.45	6892.88
440.63	7094.16
440.82	7176.08
441.01	7075.44
441.19	7269.70
441.38	7272.04
441.57	7169.06
441.75	7307.15
441.94	7545.89
442.12	7613.76
442.31	7585.68
442.50	7627.81
442.68	7651.21
442.87	7749.51
443.05	7691.00
443.24	7878.24
443.43	7796.32
443.61	7651.21
443.80	8065.49
443.98	7581.00
444.17	7534.18
444.35	7791.64
444.54	7791.64
444.73	7915.69
444.91	7866.54
445.10	7967.18
445.28	7824.41
445.47	7843.14
445.65	8088.89
445.84	7908.67
446.02	7836.11
446.21	8203.58
446.39	7810.37
446.58	7992.93
446.77	7941.44
446.95	7756.54
447.14	7946.12
447.32	7978.89
447.51	7882.92
447.69	8126.34
447.88	7894.63
448.06	8018.68
448.25	8184.85
448.43	8203.58
448.62	8250.39
448.80	8091.23
448.99	8226.98
449.17	8229.32
449.36	8208.26
449.54	8468.06
449.73	8393.16
449.91	8439.97
450.10	8437.63
450.28	8568.70
450.46	8720.84
450.65	8624.87
450.83	8702.11
451.02	8409.54
451.20	8606.15
451.39	8568.70
451.57	8652.96
451.76	8503.17
451.94	8760.63
452.13	8765.31
452.31	8748.92
452.49	8709.13
452.68	8908.08
452.86	8814.46
453.05	8786.37
453.23	9039.15
453.42	8835.52
453.60	8662.32
453.78	8992.34
453.97	8809.78
454.15	9102.34
454.34	8858.93
454.52	9188.94
454.70	9252.14
454.89	9083.62
455.07	9228.73
455.26	9231.07
455.44	9397.25
455.62	9256.82
455.81	9373.85
455.99	9366.82
456.17	9425.34
456.36	9245.12
456.54	9528.32
456.73	9621.94
456.91	9984.73
457.09	9713.22
457.28	9802.16
457.46	9666.41
457.64	10061.96
457.83	9731.95
458.01	9652.37
458.19	9944.94
458.38	9818.55
458.56	9998.77
458.74	10157.92
458.93	10113.45
459.11	10068.98
459.29	9991.75
459.48	10118.14
459.66	9973.02
459.84	10106.43
460.03	10300.70
460.21	10387.30
460.39	10338.15
460.57	9977.70
460.76	10382.62
460.94	10525.39
461.12	10436.45
461.31	10483.26
461.49	10441.13
461.67	10366.23
461.85	10609.65
462.04	10637.73
462.22	11162.01
462.40	11012.22
462.59	10752.42
462.77	10523.05
462.95	11080.10
463.13	10707.95
463.32	10820.30
463.50	10871.79
463.68	10998.18
463.86	10885.83
464.05	10803.91
464.23	11136.27
464.41	11166.70
464.59	10958.39
464.78	11454.58
464.96	11147.97
465.14	10942.00
465.32	11157.33
465.50	11396.07
465.69	11255.64
465.87	11375.00
466.05	11335.21
466.23	11255.64
466.41	11257.98
466.60	11592.67
466.78	11293.08
466.96	11424.15
467.14	11344.58
467.32	11529.48
467.51	11595.01
467.69	11314.15
467.87	11571.61
468.05	11871.20
468.23	11438.20
468.41	11375.00
468.60	11793.96
468.78	11896.94
468.96	11747.15
469.14	11850.13
469.32	11988.22
469.50	11496.71
469.69	12175.47
469.87	12210.57
470.05	12088.87
470.23	12203.55
470.41	12049.08
470.59	12341.64
470.77	12449.31
470.95	12219.94
471.14	12453.99
471.32	12215.26
471.50	12779.32
471.68	12432.93
471.86	12505.48
472.04	12638.89
472.22	12870.61
472.40	12638.89
472.58	12959.55
472.77	13160.83
472.95	12982.95
473.13	13383.18
473.31	12872.95
473.49	13291.90
473.67	13118.70
473.85	13202.96
474.03	13671.07
474.21	13282.54
474.39	13701.50
474.57	13799.80
474.75	14015.13
474.93	13855.97
475.12	13757.67
475.30	14242.16
475.48	13706.18
475.66	13914.48
475.84	14141.52
476.02	14293.65
476.20	14335.78
476.38	14628.35
476.56	14754.74
476.74	14567.49
476.92	14878.79
477.10	14583.88
477.28	15056.67
477.46	14806.23
477.64	15101.14
477.82	15316.47
478.00	15578.61
478.18	15763.51
478.36	15569.24
478.54	15882.88
478.72	15686.27
478.90	15733.08
479.08	16191.83
479.26	16358.00
479.44	16292.47
479.62	16603.76
479.80	16580.36
479.98	16788.66
480.16	17013.35
480.34	16922.07
480.52	16940.80
480.70	17055.48
480.88	16996.97
481.06	17399.54
481.24	17334.01
481.41	17846.58
481.59	17954.25
481.77	17987.02
481.95	18298.31
482.13	18281.92
482.31	18272.56
482.49	18532.36
482.67	18586.19
482.85	18373.21
483.03	19150.26
483.21	19211.12
483.39	19264.95
483.57	19157.28
483.74	19454.53
483.92	19499.00
484.10	19997.54
484.28	19571.56
484.46	20329.89
484.64	20634.16
484.82	20226.91
485.00	20599.05
485.18	20540.54
485.35	21338.66
485.53	21167.80
485.71	21039.08
485.89	21610.17
486.07	21240.36
486.25	21406.54
486.43	21612.51
486.61	21979.97
486.78	22197.64
486.96	22242.11
487.14	22480.85
487.32	22838.95
487.50	22850.65
487.68	22972.36
487.85	22998.10
488.03	23618.35
488.21	23821.97
488.39	23674.52
488.57	24074.75
488.75	23594.94
488.92	24196.46
489.10	24308.80
489.28	24507.75
489.46	25104.59
489.64	24767.55
489.81	24783.93
489.99	25289.49
490.17	25467.37
490.35	25713.13
490.53	25729.51
490.70	26232.72
490.88	26195.28
491.06	26518.27
491.24	26403.58
491.41	26511.25
491.59	26796.79
491.77	26906.80
491.95	27332.78
492.13	27051.91
492.30	27508.32
492.48	27580.87
492.66	27550.45
492.84	27850.03
493.01	28400.06
493.19	27906.21
493.37	28582.62
493.54	28587.30
493.72	28627.09
493.90	28383.68
494.08	29193.50
494.25	29294.14
494.43	29198.18
494.61	29355.00
494.79	29731.83
494.96	29486.07
495.14	29661.61
495.32	29956.52
495.49	30583.78
495.67	30380.15
495.85	30455.05
496.02	30600.16
496.20	31079.97
496.38	30995.71
496.55	31101.04
496.73	31730.64
496.91	31861.71
497.09	31873.42
497.26	31948.31
497.44	31873.42
497.62	32058.32
497.79	32678.56
497.97	32371.95
498.14	33106.88
498.32	33113.90
498.50	32828.35
498.67	33287.10
498.85	32945.38
499.03	33102.20
499.20	33186.46
499.38	33837.12
499.56	33577.33
499.73	34010.32
499.91	33914.36
500.08	33963.51
500.26	33818.40
500.44	34639.93
500.61	34328.64
500.79	34932.50
500.97	34958.24
501.14	35637.00
501.32	34988.67
501.49	34616.52
501.67	35391.24
501.84	35592.53
502.02	35386.56
502.20	35601.89
502.37	35496.56
502.55	36018.50
502.72	35704.87
502.90	36196.38
503.07	35929.56
503.25	36552.15
503.43	36041.91
503.60	36301.71
503.78	36533.42
503.95	36622.36
504.13	36498.31
504.30	36950.04
504.48	36762.79
504.65	37687.31
504.83	37336.23
505.01	37801.99
505.18	37516.45
505.36	37947.11
505.53	37649.86
505.71	38120.31
505.88	37919.02
506.06	37874.55
506.23	38312.23
506.41	38328.61
506.58	38728.84
506.76	38419.89
506.93	38485.43
507.11	39026.09
507.28	39110.35
507.46	38785.02
507.63	39117.37
507.81	38967.58
507.98	38677.35
508.16	39079.92
508.33	39398.24
508.50	39625.27
508.68	39491.86
508.85	40201.04
509.03	39985.71
509.20	39489.52
509.38	40446.80
509.55	40395.31
509.73	40685.53
509.90	41057.68
510.08	41139.60
510.25	40591.91
510.42	41020.23
510.60	41507.06
510.77	41315.14
510.95	41436.84
511.12	41511.74
511.30	41544.51
511.47	42038.36
511.64	41413.44
511.82	41895.59
511.99	41523.44
512.17	42029.00
512.34	42373.06
512.51	42096.88
512.69	43054.15
512.86	42576.69
513.04	42735.84
513.21	42628.18
513.38	42866.91
513.56	42857.55
513.73	42368.38
513.90	43297.57
514.08	42883.30
514.25	43578.43
514.43	43377.15
514.60	43753.97
514.77	43143.09
514.95	43365.45
515.12	43194.59
515.29	43758.66
515.47	44458.48
515.64	44130.80
515.81	44161.23
515.99	43959.94
516.16	44205.70
516.33	44341.45
516.51	44608.27
516.68	44524.01
516.85	45277.66
517.03	44865.73
517.20	44992.12
517.37	44861.05
517.54	44547.42
517.72	45050.63
517.89	45485.97
518.06	45172.34
518.24	45600.66
518.41	45698.96
518.58	45427.46
518.75	45347.88
518.93	45741.09
519.10	45380.65
519.27	45661.51
519.45	45516.40
519.62	46010.25
519.79	46330.90
519.96	46003.23
520.14	46398.78
520.31	46017.27
520.48	46373.03
520.65	46784.97
520.83	46417.50
521.00	46946.47
521.17	46656.24
521.34	47000.30
521.52	46878.59
521.69	46986.25
521.86	46796.67
522.03	47271.80
522.20	47171.16
522.38	47519.90
522.55	48030.13
522.72	47400.53
522.89	47360.74
523.07	47817.14
523.24	47690.76
523.41	48016.09
523.58	47992.68
523.75	47767.99
523.92	48154.18
524.10	48418.66
524.27	48896.13
524.44	48432.71
524.61	48697.19
524.78	48765.06
524.96	48507.60
525.13	48781.45
525.30	49134.87
525.47	48868.05
525.64	48502.92
525.81	48952.30
525.98	48870.39
526.16	48713.57
526.33	49389.98
526.50	49291.68
526.67	48980.39
526.84	49668.51
527.01	49553.82
527.18	49495.31
527.36	49659.15
527.53	49326.79
527.70	50202.15
527.87	50108.53
528.04	49598.29
528.21	50061.72
528.38	50052.36
528.55	50073.42
528.72	49748.09
528.89	50246.62
529.07	50005.55
529.24	49918.95
529.41	50068.74
529.58	50272.37
529.75	50316.84
529.92	50438.54
530.09	50457.27
530.26	50656.21
530.43	50656.21
530.60	50564.93
530.77	50761.54
530.94	50967.51
531.11	50773.24
531.28	51292.84
531.46	50920.70
531.63	50534.51
531.80	50770.90
531.97	51058.79
532.14	50836.44
532.31	51353.69
532.48	51606.47
532.65	51599.45
532.82	51533.92
532.99	51327.95
533.16	51515.19
533.33	51531.57
533.50	51456.68
533.67	51688.39
533.84	51419.23
534.01	51854.57
534.18	51594.77
534.35	52378.85
534.52	52156.50
534.69	52299.27
534.86	52116.71
535.03	51814.78
535.20	52158.84
535.37	52156.50
535.54	52552.05
535.71	51697.75
535.88	52257.14
536.05	52376.51
536.22	52200.97
536.38	52584.82
536.55	52388.21
536.72	52442.04
536.89	52390.55
537.06	52786.10
537.23	52980.37
537.40	52966.32
537.57	52877.38
537.74	52299.27
537.91	52877.38
538.08	52921.85
538.25	52617.58
538.42	52973.34
538.59	53160.59
538.75	52900.79
538.92	53172.29
539.09	53181.65
539.26	53102.07
539.43	52800.15
539.60	53256.55
539.77	53347.83
539.94	53766.79
540.11	53490.60
540.28	53595.93
540.44	53607.63
540.61	53504.65
540.78	53429.75
540.95	53806.58
541.12	53717.64
541.29	53752.74
541.46	53895.52
541.62	54120.21
541.79	54089.78
541.96	53701.25
542.13	53748.06
542.30	53778.49
542.47	54167.02
542.63	54010.20
542.80	54277.02
542.97	54703.00
543.14	54740.45
543.31	54497.03
543.48	54192.76
543.64	54674.91
543.81	54621.08
543.98	54382.35
544.15	54637.47
544.32	54876.20
544.48	55089.19
544.65	54663.21
544.82	55049.40
544.99	54284.04
545.16	54862.16
545.32	54955.78
545.49	55100.89
545.66	55374.73
545.83	55461.33
546.00	55454.31
546.16	55313.88
546.33	54953.44
546.50	55023.65
546.67	55140.68
546.83	54501.71
547.00	55023.65
547.17	54918.33
547.34	55084.51
547.50	55381.76
547.67	55819.44
547.84	55517.51
548.00	55601.77
548.17	55604.11
548.34	55283.45
548.51	55203.88
548.67	55524.53
548.84	55384.10
549.01	55295.16
549.18	55746.88
549.34	55641.56
549.51	55805.39
549.68	55531.55
549.84	55791.35
550.01	55702.41
550.18	55524.53
550.34	55896.67
550.51	55714.11
550.68	55629.85
550.84	55657.94
551.01	55772.63
551.18	55704.75
551.34	55590.06
551.51	55931.78
551.68	55889.65
551.84	55821.78
552.01	55576.02
552.18	55793.69
552.34	55934.12
552.51	56198.60
552.68	56381.16
552.84	56268.82
553.01	56280.52
553.18	56210.31
553.34	56107.32
553.51	55884.97
553.67	56170.52
553.84	56439.68
554.01	56563.73
554.17	56395.21
554.34	56505.21
554.51	56301.59
554.67	56495.85
554.84	56420.95
555.00	56273.50
555.17	56243.07
555.33	56514.58
555.50	56596.49
555.67	56509.89
555.83	56507.55
556.00	56711.18
556.16	56886.72
556.33	56725.22
556.50	56411.59
556.66	56694.80
556.83	56364.78
556.99	56535.64
557.16	56952.26
557.32	56987.36
557.49	57109.07
557.65	56830.55
557.82	56797.78
557.98	56877.36
558.15	56891.40
558.32	56996.73
558.48	56844.59
558.65	57125.46
558.81	56701.82
558.98	56938.21
559.14	57123.11
559.31	56975.66
559.47	56999.07
559.64	56956.94
559.80	57001.41
559.97	57254.18
560.13	56938.21
560.30	57008.43
560.46	57258.87
560.63	57368.87
560.79	57272.91
560.96	57687.18
561.12	57167.58
561.29	57071.62
561.45	57132.48
561.61	57111.41
561.78	57258.87
561.94	57310.36
562.11	57698.89
562.27	57408.66
562.44	57469.51
562.60	57403.98
562.77	57425.04
562.93	57200.35
563.10	57705.91
563.26	57240.14
563.42	57546.75
563.59	57607.61
563.75	57499.94
563.92	57511.64
564.08	57869.75
564.24	57499.94
564.41	57462.49
564.57	57544.41
564.74	57418.02
564.90	57504.62
565.07	58054.65
565.23	57647.39
565.39	57750.38
565.56	57750.38
565.72	57731.65
565.88	57684.84
566.05	57598.24
566.21	57668.46
566.38	57626.33
566.54	57556.11
566.70	57705.91
566.87	57907.19
567.03	57755.06
567.19	58021.88
567.36	57865.06
567.52	57829.96
567.68	58099.12
567.85	57804.21
568.01	58010.18
568.17	57965.71
568.34	57666.12
568.50	57797.19
568.66	58000.82
568.83	58113.16
568.99	57764.42
569.15	57771.44
569.32	57820.59
569.48	57741.02
569.64	57776.12
569.81	57836.98
569.97	57530.37
570.13	57979.75
570.30	57925.92
570.46	57790.17
570.62	58080.39
570.78	57778.46
570.95	57820.59
571.11	58218.49
571.27	57764.42
571.43	57769.10
571.60	57834.64
571.76	58087.42
571.92	58080.39
572.09	58225.51
572.25	58234.87
572.41	58323.81
572.57	58094.44
572.74	58284.02
572.90	58131.89
573.06	58033.58
573.22	57923.58
573.38	57958.69
573.55	58080.39
573.71	58487.65
573.87	58021.88
574.03	57986.77
574.20	58162.31
574.36	58071.03
574.52	58202.10
574.68	58085.07
574.84	58349.56
575.01	58171.67
575.17	58337.85
575.33	58185.72
575.49	58347.21
575.65	58234.87
575.82	58267.64
575.98	58181.04
576.14	58363.60
576.30	58333.17
576.46	58129.54
576.62	58220.83
576.79	58239.55
576.95	58075.71
577.11	58176.36
577.27	58129.54
577.43	58365.94
577.59	58349.56
577.75	58459.56
577.92	58197.42
578.08	58157.63
578.24	58066.35
578.40	58349.56
578.56	58255.93
578.72	58314.45
578.88	58735.74
579.04	58597.65
579.21	58344.87
579.37	58506.37
579.53	58450.20
579.69	58185.72
579.85	58298.06
580.01	58309.77
580.17	58185.72
580.33	58368.28
580.49	58468.92
580.65	58438.50
580.82	58349.56
580.98	58461.90
581.14	58300.40
581.30	58656.17
581.46	58459.56
581.62	58485.31
581.78	58192.74
581.94	58527.44
582.10	58267.64
582.26	58670.21
582.42	58429.13
582.58	58424.45
582.74	58635.10
582.90	58578.93
583.06	58735.74
583.22	58258.27
583.38	58319.13
583.54	58195.08
583.70	58403.39
583.86	58562.54
584.02	58195.08
584.18	58651.48
584.34	58667.87
584.50	58410.41
584.66	58293.38
584.82	58436.16
584.98	58506.37
585.14	58410.41
585.30	58365.94
585.46	58543.82
585.62	58288.70
585.78	58869.15
585.94	58494.67
586.10	58812.98
586.26	58485.31
586.42	58653.82
586.58	58454.88
586.74	58557.86
586.90	58370.62
587.06	58445.52
587.22	58780.21
587.38	58417.43
587.54	58679.57
587.70	58939.37
587.86	58768.51
588.02	58714.68
588.18	58845.75
