SpectraSuite Data File
++++++++++++++++++++++++++++++++++++
Date: Thu Oct 24 13:21:10 EDT 2013
User: stostad
Dark Spectrum Present: No
Reference Spectrum Present: No
Number of Sampled Component Spectra: 1
Spectrometers: USB2+H05261
Integration Time (usec): 100000 (USB2+H05261)
Spectra Averaged: 1 (USB2+H05261)
Boxcar Smoothing: 0 (USB2+H05261)
Correct for Electrical Dark: No (USB2+H05261)
Strobe/Lamp Enabled: No (USB2+H05261)
Correct for Detector Non-linearity: No (USB2+H05261)
Correct for Stray Light: No (USB2+H05261)
Number of Pixels in Processed Spectrum: 2048
>>>>>Begin Processed Spectral Data<<<<<
365.73	561.73
365.92	561.73
366.12	561.73
366.32	498.53
366.52	454.06
366.72	500.87
366.91	447.04
367.11	451.72
367.31	414.27
367.51	388.53
367.70	425.98
367.90	493.85
368.10	437.68
368.30	468.11
368.49	472.79
368.69	496.19
368.89	437.68
369.09	461.09
369.28	507.90
369.48	514.92
369.68	475.13
369.87	540.66
370.07	463.43
370.27	596.84
370.47	568.75
370.66	594.50
370.86	725.57
371.06	753.65
371.25	774.72
371.45	697.48
371.65	730.25
371.84	741.95
372.04	784.08
372.24	767.70
372.44	681.10
372.63	716.20
372.83	798.12
373.03	802.80
373.22	793.44
373.42	814.51
373.62	854.30
373.81	777.06
374.01	767.70
374.21	835.57
374.40	847.27
374.60	798.12
374.79	884.72
374.99	737.27
375.19	912.81
375.38	861.32
375.58	821.53
375.78	833.23
375.97	833.23
376.17	887.06
376.37	828.55
376.56	821.53
376.76	830.89
376.95	858.98
377.15	863.66
377.35	835.57
377.54	734.93
377.74	781.74
377.93	798.12
378.13	755.99
378.33	910.47
378.52	828.55
378.72	791.10
378.91	800.46
379.11	835.57
379.31	830.89
379.50	837.91
379.70	835.57
379.89	905.79
380.09	856.64
380.28	898.77
380.48	861.32
380.68	863.66
380.87	840.25
381.07	877.70
381.26	854.30
381.46	919.83
381.65	933.87
381.85	826.21
382.04	842.59
382.24	849.61
382.43	814.51
382.63	844.93
382.83	908.13
383.02	880.04
383.22	929.19
383.41	964.30
383.61	896.43
383.80	943.24
384.00	910.47
384.19	891.74
384.39	901.11
384.58	882.38
384.78	894.08
384.97	905.79
385.17	898.77
385.36	847.27
385.56	931.53
385.75	922.17
385.95	952.60
386.14	987.71
386.34	992.39
386.53	973.66
386.72	910.47
386.92	971.32
387.11	983.02
387.31	968.98
387.50	954.94
387.70	994.73
387.89	901.11
388.09	924.51
388.28	957.28
388.48	968.98
388.67	1078.99
388.86	968.98
389.06	959.62
389.25	912.81
389.45	1027.50
389.64	978.34
389.84	943.24
390.03	987.71
390.22	1008.77
390.42	940.90
390.61	1011.11
390.81	1006.43
391.00	1008.77
391.19	1004.09
391.39	978.34
391.58	1018.13
391.78	1090.69
391.97	1132.82
392.16	971.32
392.36	1086.01
392.55	1074.31
392.75	1032.18
392.94	966.64
393.13	1069.62
393.33	1153.88
393.52	1057.92
393.71	1055.58
393.91	1029.84
394.10	999.41
394.29	1123.46
394.49	1076.65
394.68	1013.45
394.88	1025.15
395.07	1130.48
395.26	1158.57
395.46	1107.07
395.65	1102.39
395.84	1132.82
396.04	1144.52
396.23	1193.67
396.42	1114.10
396.62	1163.25
396.81	1207.72
397.00	1142.18
397.19	1128.14
397.39	1167.93
397.58	1125.80
397.77	1172.61
397.97	1163.25
398.16	1149.20
398.35	1226.44
398.55	1170.27
398.74	1172.61
398.93	1263.89
399.12	1277.93
399.32	1231.12
399.51	1207.72
399.70	1329.42
399.90	1263.89
400.09	1268.57
400.28	1310.70
400.47	1277.93
400.67	1165.59
400.86	1313.04
401.05	1313.04
401.24	1214.74
401.44	1299.00
401.63	1373.89
401.82	1306.02
402.01	1233.46
402.21	1282.61
402.40	1212.40
402.59	1320.06
402.78	1259.21
402.97	1231.12
403.17	1315.38
403.36	1310.70
403.55	1331.76
403.74	1432.41
403.93	1308.36
404.13	1451.13
404.32	1511.99
404.51	1448.79
404.70	1521.35
404.89	1380.92
405.09	1462.83
405.28	1500.28
405.47	1441.77
405.66	1390.28
405.85	1486.24
406.05	1441.77
406.24	1528.37
406.43	1439.43
406.62	1554.12
406.81	1495.60
407.00	1500.28
407.20	1472.20
407.39	1493.26
407.58	1507.30
407.77	1504.96
407.96	1568.16
408.15	1612.63
408.34	1607.95
408.54	1547.09
408.73	1549.43
408.92	1523.69
409.11	1561.14
409.30	1657.10
409.49	1600.93
409.68	1577.52
409.87	1664.12
410.07	1659.44
410.26	1563.48
410.45	1572.84
410.64	1661.78
410.83	1692.21
411.02	1682.85
411.21	1732.00
411.40	1600.93
411.59	1748.38
411.78	1811.57
411.98	1720.29
412.17	1762.42
412.36	1799.87
412.55	1757.74
412.74	1818.60
412.93	1785.83
413.12	1760.08
413.31	1884.13
413.50	1872.43
413.69	1818.60
413.88	1907.54
414.07	1865.41
414.26	1895.83
414.45	1921.58
414.64	1921.58
414.83	1849.02
415.02	1984.77
415.22	2012.86
415.41	1959.03
415.60	1984.77
415.79	1980.09
415.98	2033.93
416.17	1968.39
416.36	1900.52
416.55	2010.52
416.74	2097.12
416.93	2106.48
417.12	2071.37
417.31	2092.44
417.50	2080.74
417.69	2008.18
417.88	2108.82
418.07	2120.53
418.26	2031.58
418.45	2097.12
418.64	2132.23
418.83	2272.66
419.02	2136.91
419.21	2260.96
419.39	2193.08
419.58	2204.78
419.77	2200.10
419.96	2270.32
420.15	2263.30
420.34	2253.94
420.53	2216.49
420.72	2279.68
420.91	2263.30
421.10	2305.43
421.29	2303.09
421.48	2368.62
421.67	2293.72
421.86	2326.49
422.05	2232.87
422.24	2307.77
422.43	2361.60
422.61	2408.41
422.80	2487.99
422.99	2331.17
423.18	2443.52
423.37	2396.71
423.56	2406.07
423.75	2427.14
423.94	2382.67
424.13	2263.30
424.32	2345.22
424.50	2406.07
424.69	2523.10
424.88	2370.96
425.07	2429.48
425.26	2431.82
425.45	2352.24
425.64	2314.79
425.83	2420.11
426.01	2438.84
426.20	2462.24
426.39	2382.67
426.58	2464.58
426.77	2368.62
426.96	2403.73
427.15	2541.82
427.33	2455.22
427.52	2457.56
427.71	2525.44
427.90	2572.25
428.09	2539.48
428.28	2518.42
428.46	2441.18
428.65	2581.61
428.84	2607.36
429.03	2642.46
429.22	2539.48
429.40	2649.49
429.59	2469.27
429.78	2509.05
429.97	2504.37
430.16	2490.33
430.34	2597.99
430.53	2691.62
430.72	2583.95
430.91	2679.91
431.10	2567.57
431.28	2647.15
431.47	2654.17
431.66	2689.28
431.85	2710.34
432.03	2682.25
432.22	2806.30
432.41	2743.11
432.60	2794.60
432.79	2768.85
432.97	2773.53
433.16	2747.79
433.35	2691.62
433.54	2698.64
433.72	2719.70
433.91	2750.13
434.10	2808.64
434.28	2820.35
434.47	2731.41
434.66	2883.54
434.85	2906.95
435.03	3073.12
435.22	3131.64
435.41	3297.81
435.59	3255.69
435.78	3117.59
435.97	3070.78
436.16	2977.16
436.34	2920.99
436.53	2895.24
436.72	2890.56
436.90	2958.44
437.09	2942.05
437.28	2923.33
437.46	2960.78
437.65	2998.23
437.84	3096.53
438.02	2960.78
438.21	3075.46
438.40	2939.71
438.58	3157.38
438.77	3087.17
438.96	3157.38
439.14	3295.47
439.33	3169.09
439.52	3141.00
439.70	3178.45
439.89	3255.69
440.08	3300.16
440.26	3169.09
440.45	3201.85
440.63	3239.30
440.82	3253.34
441.01	3302.50
441.19	3269.73
441.38	3309.52
441.57	3501.44
441.75	3412.50
441.94	3400.80
442.12	3485.06
442.31	3552.93
442.50	3581.02
442.68	3461.65
442.87	3433.57
443.05	3583.36
443.24	3494.42
443.43	3513.14
443.61	3522.51
443.80	3592.72
443.98	3545.91
444.17	3295.47
444.35	3489.74
444.54	3609.11
444.73	3648.90
444.91	3578.68
445.10	3599.74
445.28	3574.00
445.47	3552.93
445.65	3595.06
445.84	3562.30
446.02	3606.77
446.21	3655.92
446.39	3620.81
446.58	3550.59
446.77	3569.32
446.95	3616.13
447.14	3674.64
447.32	3735.50
447.51	3630.17
447.69	3564.64
447.88	3583.36
448.06	3674.64
448.25	3716.77
448.43	3679.32
448.62	3679.32
448.80	3648.90
448.99	3782.31
449.17	3728.47
449.36	3719.11
449.54	3702.73
449.73	3758.90
449.91	3812.73
450.10	3854.86
450.28	3831.46
450.46	3796.35
450.65	3871.25
450.83	3997.64
451.02	3845.50
451.20	3878.27
451.39	3885.29
451.57	4011.68
451.76	3857.20
451.94	3875.93
452.13	3833.80
452.31	3997.64
452.49	3983.59
452.68	4030.40
452.86	4067.85
453.05	4011.68
453.23	3908.69
453.42	3911.04
453.60	3920.40
453.78	4086.58
453.97	4018.70
454.15	4156.79
454.34	3985.93
454.52	4135.73
454.70	4166.15
454.89	4074.87
455.07	4156.79
455.26	4051.47
455.44	4140.41
455.62	4175.52
455.81	4184.88
455.99	4191.90
456.17	4241.05
456.36	4311.27
456.54	4308.93
456.73	4273.82
456.91	4290.20
457.09	4423.61
457.28	4400.21
457.46	4383.82
457.64	4369.78
457.83	4325.31
458.01	4353.40
458.19	4390.84
458.38	4294.88
458.56	4365.10
458.74	4341.69
458.93	4421.27
459.11	4524.26
459.29	4505.53
459.48	4442.34
459.66	4510.21
459.84	4456.38
460.03	4594.47
460.21	4580.43
460.39	4440.00
460.57	4540.64
460.76	4470.42
460.94	4592.13
461.12	4585.11
461.31	4636.60
461.49	4657.67
461.67	4681.07
461.85	4697.46
462.04	4561.70
462.22	4971.30
462.40	4732.56
462.59	4767.67
462.77	4718.52
462.95	4849.59
463.13	4660.01
463.32	4784.06
463.50	4833.21
463.68	4730.22
463.86	4889.38
464.05	4697.46
464.23	4610.86
464.41	4940.87
464.59	4814.48
464.78	4861.29
464.96	4819.16
465.14	4898.74
465.32	4919.81
465.50	4755.97
465.69	5055.56
465.87	4877.68
466.05	4915.12
466.23	4791.08
466.41	4894.06
466.60	5015.77
466.78	4851.93
466.96	5139.82
467.14	5184.29
467.32	5097.69
467.51	5104.71
467.69	4919.81
467.87	5006.41
468.05	5039.17
468.23	4959.60
468.41	5034.49
468.60	5011.09
468.78	5153.86
468.96	5093.01
469.14	5057.90
469.32	5153.86
469.50	5043.85
469.69	5282.59
469.87	5259.18
470.05	5235.78
470.23	5401.96
470.41	5240.46
470.59	5357.49
470.77	5327.06
470.95	5275.57
471.14	5317.70
471.32	5247.48
471.50	5455.79
471.68	5423.02
471.86	5399.62
472.04	5488.56
472.22	5413.66
472.40	5497.92
472.58	5526.00
472.77	5612.60
472.95	5626.65
473.13	5827.93
473.31	5673.46
473.49	5617.29
473.67	5713.25
473.85	5593.88
474.03	5682.82
474.21	5731.97
474.39	5959.00
474.57	5795.17
474.75	5870.06
474.93	5898.15
475.12	5902.83
475.30	5991.77
475.48	5851.34
475.66	6005.81
475.84	5966.03
476.02	6052.63
476.20	6052.63
476.38	6274.98
476.56	6399.02
476.74	6195.40
476.92	6235.19
477.10	6031.56
477.28	6469.24
477.46	6333.49
477.64	6307.74
477.82	6359.24
478.00	6644.78
478.18	6424.77
478.36	6590.95
478.54	6698.61
478.72	6597.97
478.90	6719.68
479.08	6619.04
479.26	6846.07
479.44	6977.14
479.62	6738.40
479.80	7148.00
479.98	6998.20
480.16	7077.78
480.34	7082.46
480.52	7157.36
480.70	7089.48
480.88	7143.32
481.06	7288.43
481.24	7201.83
481.41	7211.19
481.59	7545.89
481.77	7517.80
481.95	7463.97
482.13	7824.41
482.31	7564.61
482.49	7824.41
482.67	7641.85
482.85	7737.81
483.03	7950.80
483.21	7978.89
483.39	7796.32
483.57	7992.93
483.74	8145.06
483.92	8280.82
484.10	8081.87
484.28	8084.21
484.46	8491.46
484.64	8521.89
484.82	8269.11
485.00	8521.89
485.18	8620.19
485.35	8872.97
485.53	8669.34
485.71	8823.82
485.89	8805.10
486.07	8950.21
486.25	8858.93
486.43	8774.67
486.61	9060.21
486.78	9151.49
486.96	9263.84
487.14	9235.75
487.32	9132.77
487.50	9460.45
487.68	9413.63
487.85	9338.74
488.03	9525.98
488.21	9640.67
488.39	9451.08
488.57	9893.44
488.75	9776.42
488.92	9825.57
489.10	9942.60
489.28	10104.09
489.46	10083.03
489.64	10001.11
489.81	10249.21
489.99	10305.38
490.17	10537.09
490.35	10626.03
490.53	10401.34
490.70	10714.97
490.88	10356.87
491.06	10754.76
491.24	10771.15
491.41	10693.91
491.59	10855.40
491.77	10822.64
491.95	10920.94
492.13	11169.04
492.30	10925.62
492.48	11096.48
492.66	10972.43
492.84	11590.33
493.01	11541.18
493.19	11382.03
493.37	11311.81
493.54	11501.39
493.72	11604.38
493.90	11501.39
494.08	11709.70
494.25	11775.24
494.43	11899.28
494.61	11728.42
494.79	11843.11
494.96	11690.98
495.14	11953.12
495.32	11976.52
495.49	12187.17
495.67	12201.21
495.85	12329.94
496.02	12393.14
496.20	12500.80
496.38	12313.56
496.55	12573.36
496.73	12865.92
496.91	12601.44
497.09	12678.68
497.26	12615.49
497.44	12877.63
497.62	12833.16
497.79	13118.70
497.97	12954.87
498.14	13013.38
498.32	13092.96
498.50	13207.64
498.67	13467.44
498.85	13200.62
499.03	13277.86
499.20	13406.59
499.38	13621.92
499.56	13514.25
499.73	13614.90
499.91	13348.08
500.08	13586.81
500.26	13900.44
500.44	13734.26
500.61	13647.66
500.79	13664.05
500.97	13806.82
501.14	14235.14
501.32	13795.12
501.49	13998.74
501.67	13916.83
501.84	13884.06
502.02	14031.51
502.20	14279.61
502.37	14008.11
502.55	14162.58
502.72	14075.98
502.90	14174.28
503.07	14403.66
503.25	14326.42
503.43	14396.64
503.60	14787.50
503.78	14551.11
503.95	14345.14
504.13	14665.80
504.30	14813.25
504.48	14483.24
504.65	15051.99
504.83	15073.05
505.01	14932.62
505.18	15131.56
505.36	15164.33
505.53	14782.82
505.71	14916.23
505.88	15215.82
506.06	15040.28
506.23	14911.55
506.41	15000.49
506.58	15218.16
506.76	15002.83
506.93	14974.75
507.11	15386.68
507.28	15672.23
507.46	15627.76
507.63	15534.14
507.81	15672.23
507.98	15578.61
508.16	15599.67
508.33	15730.74
508.50	15826.70
508.68	15859.47
508.85	16088.84
509.03	15939.05
509.20	15873.51
509.38	15840.75
509.55	15960.11
509.73	16123.95
509.90	16397.79
510.08	16189.49
510.25	16112.25
510.42	16147.36
510.60	16355.66
510.77	16578.01
510.95	16346.30
511.12	16348.64
511.30	16470.35
511.47	16491.41
511.64	16758.24
511.82	16620.14
511.99	16542.91
512.17	16636.53
512.34	16528.86
512.51	16814.41
512.69	16903.35
512.86	17011.01
513.04	16929.09
513.21	16889.31
513.38	16905.69
513.56	16807.39
513.73	16950.16
513.90	17266.13
514.08	17029.74
514.25	17202.94
514.43	17378.48
514.60	17514.23
514.77	17071.87
514.95	17289.54
515.12	17249.75
515.29	17558.70
515.47	17579.76
515.64	17357.41
515.81	17369.12
515.99	17413.59
516.16	17682.75
516.33	17823.18
516.51	17949.57
516.68	17743.60
516.85	18082.98
517.03	18024.47
517.20	17984.68
517.37	17916.80
517.54	17858.29
517.72	17933.18
517.89	18057.23
518.06	17940.21
518.24	18415.34
518.41	18012.76
518.58	18281.92
518.75	18087.66
518.93	18328.74
519.10	17956.59
519.27	18078.30
519.45	18366.18
519.62	18204.69
519.79	18284.26
519.96	18389.59
520.14	18314.69
520.31	18031.49
520.48	18389.59
520.65	18511.30
520.83	18855.36
521.00	18801.52
521.17	18417.68
521.34	18663.43
521.52	18768.76
521.69	18841.31
521.86	18525.34
522.03	18663.43
522.20	19152.60
522.38	18965.36
522.55	19157.28
522.72	18939.62
522.89	19009.83
523.07	19194.73
523.24	18663.43
523.41	19143.24
523.58	18916.21
523.75	19283.67
523.92	19154.94
524.10	19384.32
524.27	19049.62
524.44	19262.61
524.61	19667.52
524.78	19246.23
524.96	19311.76
525.13	19428.79
525.30	19623.05
525.47	19777.53
525.64	19426.45
525.81	19988.18
525.98	19576.24
526.16	19852.42
526.33	19742.42
526.50	19749.44
526.67	19618.37
526.84	19934.34
527.01	19744.76
527.18	19807.95
527.36	19971.79
527.53	19908.60
527.70	20421.17
527.87	20173.08
528.04	19850.08
528.21	20224.57
528.38	19875.83
528.55	20121.59
528.72	19962.43
528.89	20074.77
529.07	20121.59
529.24	20393.09
529.41	20222.23
529.58	20290.10
529.75	20046.69
529.92	20472.67
530.09	20372.02
530.26	20507.77
530.43	20306.49
530.60	20643.52
530.77	20547.56
530.94	20671.61
531.11	20641.18
531.28	20430.54
531.46	20589.69
531.63	20549.90
531.80	20716.08
531.97	20809.70
532.14	20709.06
532.31	20570.97
532.48	20772.25
532.65	21252.06
532.82	21018.01
532.99	20943.11
533.16	21001.63
533.33	21055.46
533.50	20877.58
533.67	20844.81
533.84	20924.39
534.01	21207.59
534.18	20807.36
534.35	21029.71
534.52	20985.24
534.69	21153.76
534.86	20973.54
535.03	21003.97
535.20	21179.51
535.37	21542.29
535.54	21298.88
535.71	21603.14
535.88	21280.15
536.05	21123.33
536.22	21584.42
536.38	21584.42
536.55	21542.29
536.72	21649.96
536.89	21394.84
537.06	21488.46
537.23	21837.20
537.40	21589.10
537.57	22075.93
537.74	21722.51
537.91	21748.26
538.08	21575.06
538.25	21647.61
538.42	21715.49
538.59	22071.25
538.75	21734.21
538.92	22127.42
539.09	21900.39
539.26	21982.31
539.43	21841.88
539.60	21961.25
539.77	21940.18
539.94	22396.59
540.11	22452.76
540.28	22082.95
540.44	22342.75
540.61	22174.24
540.78	22230.41
540.95	22272.54
541.12	22530.00
541.29	22497.23
541.46	22754.69
541.62	22955.97
541.79	22682.13
541.96	22860.01
542.13	22452.76
542.30	22728.94
542.47	22829.59
542.63	22923.21
542.80	22675.11
542.97	23218.11
543.14	23297.69
543.31	23056.62
543.48	22857.67
543.64	23344.50
543.81	22984.06
543.98	23264.92
544.15	23197.05
544.32	22904.48
544.48	23199.39
544.65	23386.63
544.82	23428.76
544.99	23260.24
545.16	23559.83
545.32	23695.58
545.49	24086.45
545.66	24133.26
545.83	24531.15
546.00	24390.72
546.16	24102.84
546.33	23805.59
546.50	23520.04
546.67	23428.76
546.83	23267.27
547.00	23094.07
547.17	22977.04
547.34	22972.36
547.50	23419.40
547.67	23761.12
547.84	23126.83
548.00	23896.87
548.17	23548.13
548.34	23695.58
548.51	23449.83
548.67	23428.76
548.84	23616.01
549.01	23325.78
549.18	23585.58
549.34	23396.00
549.51	23957.72
549.68	23658.14
549.84	23672.18
550.01	23721.33
550.18	23426.42
550.34	23367.91
550.51	23791.55
550.68	23716.65
550.84	23527.06
551.01	23431.10
551.18	23662.82
551.34	23693.24
551.51	23559.83
551.68	23555.15
551.84	23697.92
552.01	23295.35
552.18	23850.06
552.34	23824.31
552.51	23896.87
552.68	23594.94
552.84	23847.72
553.01	24189.44
553.18	23941.34
553.34	23859.42
553.51	23555.15
553.67	24416.47
553.84	24261.99
554.01	23929.64
554.17	23814.95
554.34	23957.72
554.51	23880.49
554.67	23885.17
554.84	23999.85
555.00	24203.48
555.17	23744.73
555.33	23903.89
555.50	23826.65
555.67	23988.15
555.83	24278.38
556.00	23775.16
556.16	24467.96
556.33	24271.36
556.50	24077.09
556.66	24240.93
556.83	24159.01
556.99	24486.68
557.16	24238.59
557.32	24189.44
557.49	24320.51
557.65	24156.67
557.82	24283.06
557.98	24154.33
558.15	24519.45
558.32	24313.48
558.48	24130.92
558.65	24273.70
558.81	24215.18
558.98	24198.80
559.14	24409.45
559.31	24208.16
559.47	24217.52
559.64	24285.40
559.80	23990.49
559.97	24493.71
560.13	24374.34
560.30	24486.68
560.46	24276.04
560.63	24437.53
560.79	24737.12
560.96	24552.22
561.12	24739.46
561.29	24669.25
561.45	24451.58
561.61	24711.38
561.78	24636.48
561.94	24451.58
562.11	24896.28
562.27	24816.70
562.44	24650.52
562.60	24840.11
562.77	24652.86
562.93	24706.70
563.10	24552.22
563.26	24430.51
563.42	24891.60
563.59	24589.67
563.75	24603.71
563.92	24559.24
564.08	24390.72
564.24	24919.68
564.41	24767.55
564.57	24498.39
564.74	24697.33
564.90	24732.44
565.07	24662.22
565.23	24870.53
565.39	24432.85
565.56	25158.42
565.72	24458.60
565.88	24762.87
566.05	24912.66
566.21	24662.22
566.38	24711.38
566.54	24886.92
566.70	24971.18
566.87	24793.29
567.03	24673.93
567.19	25340.98
567.36	25027.35
567.52	24774.57
567.68	24596.69
567.85	24748.82
568.01	24868.19
568.17	24739.46
568.34	24889.26
568.50	24706.70
568.66	25104.59
568.83	24793.29
568.99	24802.66
569.15	25036.71
569.32	24879.89
569.48	24828.40
569.64	25062.46
569.81	24905.64
569.97	24547.54
570.13	24802.66
570.30	25053.09
570.46	25041.39
570.62	24793.29
570.78	25345.66
570.95	24776.91
571.11	25172.46
571.27	25069.48
571.43	24975.86
571.60	24882.24
571.76	24868.19
571.92	24816.70
572.09	25345.66
572.25	24891.60
572.41	25003.94
572.57	25048.41
572.74	25090.54
572.90	24835.42
573.06	24975.86
573.22	24844.79
573.38	25003.94
573.55	24776.91
573.71	25165.44
573.87	25331.62
574.03	24805.00
574.20	25284.81
574.36	24774.57
574.52	25233.32
574.68	25305.87
574.84	25324.60
575.01	25170.12
575.17	25216.93
575.33	24912.66
575.49	25027.35
575.65	25357.36
575.82	25223.95
575.98	25085.86
576.14	25373.75
576.30	25310.55
576.46	24994.58
576.62	25350.34
576.79	25167.78
576.95	25029.69
577.11	24709.04
577.27	25259.06
577.43	25383.11
577.59	25268.42
577.75	25366.73
577.92	25069.48
578.08	25102.25
578.24	24982.88
578.40	25441.62
578.56	25294.17
578.72	25802.07
578.88	25523.54
579.04	25603.12
579.21	25387.79
579.37	25687.38
579.53	25425.24
579.69	25558.65
579.85	25624.18
580.01	25371.41
580.17	25333.96
580.33	25142.03
580.49	25369.07
580.65	25418.22
580.82	25582.06
580.98	25177.14
581.14	25406.52
581.30	25783.34
581.46	25261.40
581.62	25151.40
581.78	25242.68
581.94	25315.23
582.10	25221.61
582.26	25312.89
582.42	25202.89
582.58	25535.24
582.74	25179.48
582.90	25216.93
583.06	25329.28
583.22	25125.65
583.38	25394.81
583.54	24910.32
583.70	25383.11
583.86	25434.60
584.02	25092.88
584.18	25565.67
584.34	25633.55
584.50	25568.01
584.66	25348.00
584.82	25331.62
584.98	25383.11
585.14	25280.13
585.30	25542.27
585.46	25383.11
585.62	25006.28
585.78	25127.99
585.94	25177.14
586.10	25474.39
586.26	25170.12
586.42	25539.93
586.58	25364.39
586.74	25565.67
586.90	25565.67
587.06	25284.81
587.22	25696.74
587.38	25631.21
587.54	25537.59
587.70	25783.34
587.86	25563.33
588.02	25603.12
588.18	26120.38
588.34	25273.10
588.49	25575.03
588.65	25308.21
588.81	25397.15
588.97	25277.79
589.13	25191.19
589.29	25205.23
589.45	25991.65
589.61	25617.16
589.77	25766.96
589.93	25708.44
590.08	25532.90
590.24	25465.03
590.40	25619.50
590.56	25535.24
590.72	25701.42
