SpectraSuite Data File
++++++++++++++++++++++++++++++++++++
Date: Thu Oct 24 13:21:29 EDT 2013
User: stostad
Dark Spectrum Present: No
Reference Spectrum Present: No
Number of Sampled Component Spectra: 1
Spectrometers: USB2+H05261
Integration Time (usec): 100000 (USB2+H05261)
Spectra Averaged: 1 (USB2+H05261)
Boxcar Smoothing: 0 (USB2+H05261)
Correct for Electrical Dark: No (USB2+H05261)
Strobe/Lamp Enabled: No (USB2+H05261)
Correct for Detector Non-linearity: No (USB2+H05261)
Correct for Stray Light: No (USB2+H05261)
Number of Pixels in Processed Spectrum: 2048
>>>>>Begin Processed Spectral Data<<<<<
365.73	592.16
365.92	592.16
366.12	592.16
366.32	550.03
366.52	535.98
366.72	496.19
366.91	493.85
367.11	468.11
367.31	472.79
367.51	458.74
367.70	463.43
367.90	458.74
368.10	500.87
368.30	521.94
368.49	451.72
368.69	449.38
368.89	507.90
369.09	477.47
369.28	491.51
369.48	470.45
369.68	524.28
369.87	578.11
370.07	578.11
370.27	585.13
370.47	727.91
370.66	1032.18
370.86	1062.60
371.06	1144.52
371.25	1100.05
371.45	1027.50
371.65	1177.29
371.84	1174.95
372.04	1135.16
372.24	1093.03
372.44	1118.78
372.63	1151.54
372.83	1144.52
373.03	1249.85
373.22	1153.88
373.42	1217.08
373.62	1200.69
373.81	1266.23
374.01	1268.57
374.21	1247.51
374.40	1242.82
374.60	1287.29
374.79	1242.82
374.99	1235.80
375.19	1329.42
375.38	1345.81
375.58	1235.80
375.78	1306.02
375.97	1348.15
376.17	1350.49
376.37	1289.64
376.56	1313.04
376.76	1329.42
376.95	1369.21
377.15	1287.29
377.35	1284.95
377.54	1289.64
377.74	1366.87
377.93	1315.38
378.13	1394.96
378.33	1416.02
378.52	1404.32
378.72	1329.42
378.91	1481.56
379.11	1385.60
379.31	1385.60
379.50	1509.65
379.70	1479.22
379.89	1441.77
380.09	1387.94
380.28	1385.60
380.48	1519.01
380.68	1490.92
380.87	1444.11
381.07	1486.24
381.26	1537.73
381.46	1575.18
381.65	1547.09
381.85	1549.43
382.04	1568.16
382.24	1563.48
382.43	1584.54
382.63	1547.09
382.83	1526.03
383.02	1614.97
383.22	1636.03
383.41	1659.44
383.61	1626.67
383.80	1696.89
384.00	1638.38
384.19	1549.43
384.39	1666.46
384.58	1715.61
384.78	1722.63
384.97	1694.55
385.17	1568.16
385.36	1706.25
385.56	1638.38
385.75	1732.00
385.95	1659.44
386.14	1689.87
386.34	1792.85
386.53	1746.04
386.72	1743.70
386.92	1785.83
387.11	1816.26
387.31	1839.66
387.50	1898.17
387.70	1715.61
387.89	1781.15
388.09	1734.34
388.28	1916.90
388.48	1741.36
388.67	1872.43
388.86	1832.64
389.06	1905.20
389.25	1928.60
389.45	1893.49
389.64	1930.94
389.84	1905.20
390.03	1902.86
390.22	1984.77
390.42	1975.41
390.61	1944.99
390.81	1944.99
391.00	1940.30
391.19	2003.50
391.39	2026.90
391.58	2017.54
391.78	2113.50
391.97	2066.69
392.16	2010.52
392.36	2160.31
392.55	2066.69
392.75	2062.01
392.94	2038.61
393.13	2153.29
393.33	2108.82
393.52	2169.68
393.71	2195.42
393.91	2275.00
394.10	2193.08
394.29	2286.70
394.49	2169.68
394.68	2195.42
394.88	2167.34
395.07	2216.49
395.26	2310.11
395.46	2328.83
395.65	2359.26
395.84	2431.82
396.04	2361.60
396.23	2413.09
396.42	2338.20
396.62	2413.09
396.81	2476.29
397.00	2333.51
397.19	2410.75
397.39	2466.92
397.58	2495.01
397.77	2422.45
397.97	2569.91
398.16	2544.16
398.35	2457.56
398.55	2527.78
398.74	2590.97
398.93	2586.29
399.12	2633.10
399.32	2562.89
399.51	2511.39
399.70	2626.08
399.90	2588.63
400.09	2750.13
400.28	2686.94
400.47	2696.30
400.67	2815.66
400.86	2668.21
401.05	2834.39
401.24	2801.62
401.44	2813.32
401.63	2850.77
401.82	2834.39
402.01	2766.51
402.21	2857.79
402.40	2839.07
402.59	2923.33
402.78	2885.88
402.97	3012.27
403.17	3014.61
403.36	3035.67
403.55	2939.71
403.74	3185.47
403.93	3211.22
404.13	3157.38
404.32	3129.30
404.51	3185.47
404.70	3276.75
404.89	3094.19
405.09	3239.30
405.28	3279.09
405.47	3267.39
405.66	3262.71
405.85	3260.37
406.05	3213.56
406.24	3339.94
406.43	3304.84
406.62	3365.69
406.81	3400.80
407.00	3412.50
407.20	3302.50
407.39	3499.10
407.58	3482.72
407.77	3574.00
407.96	3515.48
408.15	3578.68
408.34	3407.82
408.54	3723.79
408.73	3564.64
408.92	3557.61
409.11	3721.45
409.30	3775.28
409.49	3625.49
409.68	3658.26
409.87	3569.32
410.07	3906.35
410.26	3791.67
410.45	3761.24
410.64	3894.65
410.83	4030.40
411.02	3974.23
411.21	4112.32
411.40	4093.60
411.59	4067.85
411.78	4046.79
411.98	4086.58
412.17	4212.96
412.36	4112.32
412.55	4252.75
412.74	4322.97
412.93	4142.75
413.12	4353.40
413.31	4470.42
413.50	4280.84
413.69	4535.96
413.88	4526.60
414.07	4521.92
414.26	4463.40
414.45	4578.09
414.64	4645.96
414.83	4582.77
415.02	4704.48
415.22	4842.57
415.41	4821.50
415.60	4910.44
415.79	4849.59
415.98	4814.48
416.17	4770.01
416.36	4690.43
416.55	4873.00
416.74	4968.96
416.93	5114.07
417.12	4968.96
417.31	5160.88
417.50	5188.97
417.69	5320.04
417.88	5153.86
418.07	5198.33
418.26	5266.21
418.45	5329.40
418.64	5355.15
418.83	5455.79
419.02	5329.40
419.21	5675.80
419.39	5638.35
419.58	5654.73
419.77	5479.19
419.96	5694.52
420.15	5572.82
420.34	5617.29
420.53	5654.73
420.72	5750.70
420.91	5647.71
421.10	5755.38
421.29	5614.95
421.48	5671.12
421.67	5834.96
421.86	6015.18
422.05	5989.43
422.24	5898.15
422.43	5909.85
422.61	6036.24
422.80	5877.09
422.99	5926.24
423.18	6047.94
423.37	6183.70
423.56	5989.43
423.75	6019.86
423.94	5764.74
424.13	5664.10
424.32	5797.51
424.50	6204.76
424.69	6122.84
424.88	6118.16
425.07	6015.18
425.26	5891.13
425.45	6033.90
425.64	5898.15
425.83	6022.20
426.01	6153.27
426.20	6008.16
426.39	6057.31
426.58	6160.29
426.77	6064.33
426.96	6225.82
427.15	6270.30
427.33	6282.00
427.52	6380.30
427.71	6340.51
427.90	6274.98
428.09	6401.37
428.28	6370.94
428.46	6534.78
428.65	6546.48
428.84	6619.04
429.03	6497.33
429.22	6499.67
429.40	6537.12
429.59	6586.27
429.78	6485.62
429.97	6427.11
430.16	6518.39
430.34	6782.87
430.53	6775.85
430.72	7014.59
430.91	6771.17
431.10	6633.08
431.28	7045.01
431.47	6979.48
431.66	7049.69
431.85	6761.81
432.03	7253.32
432.22	7091.82
432.41	7211.19
432.60	7028.63
432.79	7061.40
432.97	7140.97
433.16	7283.75
433.35	7073.10
433.54	7286.09
433.72	7295.45
433.91	7487.37
434.10	7485.03
434.28	7382.05
434.47	7522.48
434.66	7566.95
434.85	7466.31
435.03	7644.19
435.22	7632.49
435.41	7915.69
435.59	7943.78
435.78	7847.82
435.97	7934.42
436.16	7653.55
436.34	7676.96
436.53	7693.34
436.72	7880.58
436.90	7779.94
437.09	7913.35
437.28	7712.07
437.46	7838.45
437.65	7927.39
437.84	8210.60
438.02	8072.51
438.21	8109.96
438.40	8035.06
438.58	8257.41
438.77	8180.17
438.96	8339.33
439.14	8386.14
439.33	8606.15
439.52	8634.24
439.70	8634.24
439.89	8690.41
440.08	8887.01
440.26	8720.84
440.45	8479.76
440.63	8891.70
440.82	9179.58
441.01	9165.54
441.19	9142.13
441.38	9153.84
441.57	9249.80
441.75	9338.74
441.94	9415.98
442.12	9710.88
442.31	9523.64
442.50	9659.39
442.68	9390.23
442.87	9640.67
443.05	9404.27
443.24	9753.01
443.43	9884.08
443.61	9909.83
443.80	9872.38
443.98	9544.70
444.17	9336.40
444.35	9717.90
444.54	9816.21
444.73	9891.10
444.91	9621.94
445.10	9872.38
445.28	10115.80
445.47	9991.75
445.65	9879.40
445.84	10113.45
446.02	10141.54
446.21	10010.47
446.39	10207.08
446.58	10160.27
446.77	10047.92
446.95	9813.87
447.14	10045.58
447.32	10097.07
447.51	10188.35
447.69	9973.02
447.88	9940.26
448.06	10108.77
448.25	10059.62
448.43	10253.89
448.62	10143.88
448.80	10232.82
448.99	10251.55
449.17	10363.89
449.36	10333.47
449.54	10298.36
449.73	10736.04
449.91	10520.71
450.10	10406.02
450.28	10595.61
450.46	10707.95
450.65	10628.37
450.83	10597.95
451.02	10717.31
451.20	10733.70
451.39	10824.98
451.57	10888.17
451.76	10764.12
451.94	10705.61
452.13	10972.43
452.31	10923.28
452.49	10906.90
452.68	11063.71
452.86	10904.56
453.05	11026.26
453.23	11143.29
453.42	11052.01
453.60	11150.31
453.78	11426.50
453.97	11056.69
454.15	11229.89
454.34	11332.87
454.52	11318.83
454.70	11389.05
454.89	11253.30
455.07	11524.80
455.26	11698.00
455.44	11812.68
455.62	11730.76
455.81	11728.42
455.99	11885.24
456.17	11609.06
456.36	11810.34
456.54	11709.70
456.73	12264.41
456.91	12381.43
457.09	12292.49
457.28	12444.63
457.46	12294.83
457.64	12496.12
457.83	12521.87
458.01	12374.41
458.19	12610.81
458.38	12358.03
458.56	12847.20
458.74	12704.43
458.93	12727.83
459.11	12842.52
459.29	12601.44
459.48	12706.77
459.66	12613.15
459.84	12812.09
460.03	12996.99
460.21	13027.42
460.39	12971.25
460.57	13001.68
460.76	13174.88
460.94	13392.55
461.12	13163.17
461.31	13427.65
461.49	13081.25
461.67	12940.82
461.85	13575.11
462.04	13308.29
462.22	13743.63
462.40	13455.74
462.59	13624.26
462.77	13317.65
462.95	13748.31
463.13	13666.39
463.32	13682.77
463.50	13860.65
463.68	13745.97
463.86	13949.59
464.05	13535.32
464.23	13823.20
464.41	14157.90
464.59	13600.85
464.78	14134.50
464.96	13818.52
465.14	13790.44
465.32	14148.54
465.50	14113.43
465.69	14080.66
465.87	14377.91
466.05	14153.22
466.23	14214.07
466.41	14466.85
466.60	14752.40
466.78	14017.47
466.96	14279.61
467.14	14427.06
467.32	14541.75
467.51	14548.77
467.69	14317.06
467.87	14644.73
468.05	14860.06
468.23	14457.49
468.41	14523.02
468.60	14796.87
468.78	15115.18
468.96	14752.40
469.14	15042.62
469.32	15316.47
469.50	14843.68
469.69	15049.64
469.87	15403.07
470.05	15281.36
470.23	15449.88
470.41	15569.24
470.59	15597.33
470.77	15421.79
470.95	15658.18
471.14	15974.16
471.32	15730.74
471.50	15925.00
471.68	15723.72
471.86	15733.08
472.04	16332.26
472.22	16379.07
472.40	16035.01
472.58	16217.57
472.77	16297.15
472.95	16664.61
473.13	17032.08
473.31	16542.91
473.49	16884.62
473.67	16573.33
473.85	17020.38
474.03	17289.54
474.21	17092.93
474.39	17277.83
474.57	17298.90
474.75	17411.25
474.93	17432.31
475.12	17628.92
475.30	17921.48
475.48	17715.51
475.66	17980.00
475.84	17699.13
476.02	18129.79
476.20	18122.77
476.38	18607.26
476.56	18686.84
476.74	18398.95
476.92	18431.72
477.10	18768.76
477.28	18916.21
477.46	19098.77
477.64	18981.74
477.82	19552.84
478.00	19857.10
478.18	19639.44
478.36	20140.31
478.54	20023.28
478.72	20126.27
478.90	20259.68
479.08	20507.77
479.26	20678.63
479.44	21036.74
479.62	20992.26
479.80	21310.58
479.98	21013.33
480.16	21802.09
480.34	21561.02
480.52	21436.97
480.70	22036.14
480.88	21631.23
481.06	21834.86
481.24	21811.45
481.41	22398.93
481.59	22513.61
481.77	23096.41
481.95	22988.74
482.13	22986.40
482.31	23033.21
482.49	23880.49
482.67	23775.16
482.85	23953.04
483.03	23920.28
483.21	24397.74
483.39	24482.00
483.57	24659.88
483.74	24987.56
483.92	25479.07
484.10	24975.86
484.28	25504.82
484.46	25755.26
484.64	26480.82
484.82	25893.35
485.00	26515.93
485.18	26644.66
485.35	27253.20
485.53	26838.92
485.71	27253.20
485.89	27747.05
486.07	27281.28
486.25	27440.44
486.43	27981.10
486.61	28074.73
486.78	28315.80
486.96	28690.29
487.14	28304.10
487.32	29043.71
487.50	29209.89
487.68	29174.78
487.85	29717.78
488.03	30094.61
488.21	30185.89
488.39	30555.69
488.57	30099.29
488.75	30373.13
488.92	31084.65
489.10	31302.32
489.28	31248.49
489.46	31964.70
489.64	31545.74
489.81	32004.49
489.99	31681.49
490.17	32531.11
490.35	32936.02
490.53	32938.36
490.70	33170.07
490.88	33076.45
491.06	33443.91
491.24	33502.43
491.41	33556.26
491.59	34139.05
491.77	34174.16
491.95	34389.49
492.13	34504.18
492.30	35124.42
492.48	34771.00
492.66	35283.58
492.84	35278.89
493.01	35613.59
493.19	35974.03
493.37	36121.49
493.54	36086.38
493.72	36582.57
493.90	36091.06
494.08	36788.54
494.25	37310.48
494.43	37282.39
494.61	37230.90
494.79	37696.67
494.96	37982.21
495.14	37926.04
495.32	38410.53
495.49	38422.23
495.67	38841.19
495.85	38696.08
496.02	38979.28
496.20	39405.26
496.38	38843.53
496.55	39634.63
496.73	40748.73
496.91	40329.77
497.09	40612.98
497.26	40542.76
497.44	40467.86
497.62	40961.72
497.79	41071.72
497.97	41268.33
498.14	41441.53
498.32	41900.27
498.50	42012.62
498.67	42394.12
498.85	42026.66
499.03	42370.72
499.20	42454.98
499.38	42969.90
499.56	42909.04
499.73	42986.28
499.91	43281.19
500.08	43107.99
500.26	43192.25
500.44	43899.09
500.61	44219.74
500.79	43885.04
500.97	44254.85
501.14	44673.81
501.32	44596.57
501.49	44334.43
501.67	44561.46
501.84	44926.58
502.02	45130.21
502.20	45399.37
502.37	45074.04
502.55	45116.17
502.72	45350.22
502.90	45415.76
503.07	45413.41
503.25	45916.63
503.43	45801.94
503.60	46197.49
503.78	46457.29
503.95	45675.55
504.13	46581.34
504.30	46548.57
504.48	46471.34
504.65	47145.41
504.83	47257.76
505.01	47421.59
505.18	47171.16
505.36	47412.23
505.53	47655.65
505.71	47643.94
505.88	47693.10
506.06	47562.03
506.23	48437.39
506.41	48020.77
506.58	47990.34
506.76	48018.43
506.93	48559.09
507.11	48425.68
507.28	48622.29
507.46	48898.47
507.63	48952.30
507.81	49418.07
507.98	48823.58
508.16	49130.19
508.33	49432.11
508.50	49350.20
508.68	49617.02
508.85	50019.59
509.03	49975.12
509.20	49799.58
509.38	50239.60
509.55	50267.69
509.73	50497.06
509.90	50883.25
510.08	50417.48
510.25	50520.46
510.42	50628.13
510.60	50515.78
510.77	51100.92
510.95	51011.98
511.12	50829.41
511.30	50976.87
511.47	51529.23
511.64	51491.79
511.82	51868.61
511.99	51358.38
512.17	51545.62
512.34	51840.53
512.51	52268.84
512.69	51913.08
512.86	52100.32
513.04	52516.94
513.21	52470.13
513.38	52486.51
513.56	52353.10
513.73	52243.10
513.90	52638.65
514.08	53048.24
514.25	53029.52
514.43	53104.41
514.60	52940.58
514.77	53085.69
514.95	53111.44
515.12	52973.34
515.29	53055.26
515.47	53649.76
515.64	53869.77
515.81	53712.95
515.99	53631.04
516.16	53867.43
516.33	53404.00
516.51	54115.53
516.68	53822.96
516.85	53764.45
517.03	54262.98
517.20	54272.34
517.37	54003.18
517.54	54223.19
517.72	54206.81
517.89	54237.23
518.06	54384.69
518.24	54468.95
518.41	54384.69
518.58	54583.63
518.75	54431.50
518.93	54667.89
519.10	54651.51
519.27	54768.54
519.45	54827.05
519.62	55283.45
519.79	55049.40
519.96	55098.55
520.14	55260.05
520.31	55025.99
520.48	55196.85
520.65	55243.66
520.83	55828.80
521.00	55671.98
521.17	55805.39
521.34	55550.27
521.52	56081.58
521.69	55716.45
521.86	55704.75
522.03	55767.94
522.20	55985.61
522.38	56322.65
522.55	56205.62
522.72	56231.37
522.89	56151.79
523.07	56566.07
523.24	56268.82
523.41	56324.99
523.58	56308.61
523.75	56692.46
523.92	56399.89
524.10	56561.39
524.27	56919.49
524.44	56837.57
524.61	56643.30
524.78	56835.23
524.96	56846.93
525.13	56863.32
525.30	57258.87
525.47	57495.26
525.64	57174.61
525.81	56980.34
525.98	57272.91
526.16	56949.92
526.33	57090.35
526.50	57411.00
526.67	57392.28
526.84	57530.37
527.01	57460.15
527.18	57586.54
527.36	57633.35
527.53	57818.25
527.70	57792.51
527.87	57783.15
528.04	57677.82
528.21	58042.95
528.38	58059.33
528.55	58335.51
528.72	58073.37
528.89	57930.60
529.07	57785.49
529.24	57918.90
529.41	58232.53
529.58	58410.41
529.75	58225.51
529.92	58145.93
530.09	58330.83
530.26	58223.17
530.43	58176.36
530.60	58169.33
530.77	58267.64
530.94	58574.25
531.11	58691.27
531.28	58527.44
531.46	58735.74
531.63	58766.17
531.80	58597.65
531.97	58747.45
532.14	58784.90
532.31	58719.36
532.48	58941.71
532.65	59166.40
532.82	59077.46
532.99	58969.80
533.16	58773.19
533.33	59171.08
533.50	59203.85
533.67	59014.27
533.84	59112.57
534.01	59035.33
534.18	59154.70
534.35	59641.53
534.52	59358.33
534.69	59360.67
534.86	59458.97
535.03	59072.78
535.20	59435.56
535.37	59753.88
535.54	59906.01
535.71	59608.76
535.88	59826.43
536.05	59711.75
536.22	59777.28
536.38	59798.35
536.55	59826.43
536.72	59824.09
536.89	60018.36
537.06	60086.23
537.23	60271.14
537.40	60189.22
537.57	59835.80
537.74	59992.61
537.91	60376.46
538.08	59924.74
538.25	59971.55
538.42	60320.29
538.59	60388.16
538.75	60037.08
538.92	60268.79
539.09	60434.97
539.26	60282.84
539.43	60399.86
539.60	60329.65
539.77	60329.65
539.94	60750.94
540.11	60561.36
540.28	60533.28
540.44	60521.57
540.61	60481.78
540.78	60706.47
540.95	60657.32
541.12	60465.40
541.29	60790.73
541.46	60870.31
541.62	60900.74
541.79	61010.74
541.96	60772.01
542.13	60706.47
542.30	60970.96
542.47	61085.64
542.63	60942.87
542.80	60987.34
542.97	61315.01
543.14	61588.86
543.31	61460.13
543.48	61563.11
543.64	61572.47
543.81	61567.79
543.98	61401.61
544.15	61535.02
544.32	61750.35
544.48	61762.06
544.65	61628.65
544.82	61659.07
544.99	61427.36
545.16	61703.54
545.32	61715.25
545.49	61773.76
545.66	61907.17
545.83	61890.79
546.00	62035.90
546.16	61946.96
546.33	61893.13
546.50	61649.71
546.67	61865.04
546.83	61616.94
547.00	61808.87
547.17	61705.88
547.34	61902.49
547.50	62117.82
547.67	62012.49
547.84	62120.16
548.00	62361.23
548.17	62389.32
548.34	61972.70
548.51	62349.53
548.67	62089.73
548.84	62195.06
549.01	62239.53
549.18	62298.04
549.34	62494.64
549.51	62241.87
549.68	62272.29
549.84	62223.14
550.01	62342.51
550.18	62181.01
550.34	62438.47
550.51	62253.57
550.68	62337.83
550.84	62391.66
551.01	62721.68
551.18	62461.88
551.34	62347.19
551.51	62438.47
551.68	62583.58
551.84	62597.63
552.01	62515.71
552.18	62918.28
552.34	62482.94
552.51	62609.33
552.68	62705.29
552.84	62532.09
553.01	62939.35
553.18	62937.01
553.34	62794.23
553.51	62686.57
553.67	62768.49
553.84	63061.05
554.01	62899.56
554.17	63196.80
554.34	63105.52
554.51	63054.03
554.67	63075.10
554.84	62932.32
555.00	62934.66
555.17	62770.83
555.33	62981.48
555.50	62974.45
555.67	63056.37
555.83	63142.97
556.00	63142.97
556.16	63318.51
556.33	63138.29
556.50	63220.21
556.66	63346.60
556.83	62925.30
556.99	63367.66
557.16	63496.39
557.32	63428.52
557.49	63524.48
557.65	63187.44
557.82	63355.96
557.98	63128.93
558.15	63276.38
558.32	63283.40
558.48	63341.92
558.65	63304.47
558.81	63592.36
558.98	63592.36
559.14	63676.61
559.31	63496.39
559.47	63515.12
559.64	63449.58
559.80	63461.29
559.97	63529.16
560.13	63370.00
560.30	63625.12
560.46	63693.00
560.63	63840.45
560.79	63662.57
560.96	63835.77
561.12	63707.04
561.29	63693.00
561.45	63503.42
561.61	63697.68
561.78	63508.10
561.94	63847.47
562.11	63955.14
562.27	63948.12
562.44	63994.93
562.60	63948.12
562.77	63753.85
562.93	63753.85
563.10	63905.99
563.26	63641.51
563.42	63952.80
563.59	64018.33
563.75	63887.26
563.92	64186.85
564.08	63997.27
564.24	64116.64
564.41	63884.92
564.57	63955.14
564.74	63950.46
564.90	64051.10
565.07	64011.31
565.23	64067.48
565.39	64118.98
565.56	64058.12
565.72	64116.64
565.88	64207.92
566.05	64004.29
566.21	64151.74
566.38	64165.79
566.54	64001.95
566.70	64177.49
566.87	64280.47
567.03	64240.68
567.19	64559.00
567.36	64542.61
567.52	64219.62
567.68	64238.34
567.85	64076.85
568.01	64301.54
568.17	64182.17
568.34	64207.92
568.50	64404.52
568.66	64186.85
568.83	64498.14
568.99	64243.02
569.15	64285.15
569.32	64437.29
569.48	64175.15
569.64	64448.99
569.81	64149.40
569.97	64245.36
570.13	64505.16
570.30	64338.99
570.46	64437.29
570.62	64463.03
570.78	64390.48
570.95	64306.22
571.11	64317.92
571.27	64364.73
571.43	64292.18
571.60	64409.20
571.76	64444.31
571.92	64619.85
572.09	64683.04
572.25	64636.23
572.41	64406.86
572.57	64371.75
572.74	64755.60
572.90	64467.72
573.06	64296.86
573.22	64357.71
573.38	64495.80
573.55	64573.04
573.71	64774.33
573.87	64673.68
574.03	64612.83
574.20	64615.17
574.36	64523.89
574.52	64547.29
574.68	64568.36
574.84	64727.52
575.01	64692.41
575.17	64559.00
575.33	64734.54
575.49	64683.04
575.65	64753.26
575.82	64748.58
575.98	64687.73
576.14	64963.91
576.30	64722.83
576.46	64605.81
576.62	64474.74
576.79	64638.57
576.95	64430.27
577.11	64697.09
577.27	64767.30
577.43	64654.96
577.59	64818.80
577.75	64692.41
577.92	64617.51
578.08	64484.10
578.24	64601.13
578.40	64867.95
578.56	64767.30
578.72	64783.69
578.88	64973.27
579.04	64884.33
579.21	64793.05
579.37	64881.99
579.53	64912.42
579.69	64608.15
579.85	64914.76
580.01	64931.14
580.17	64797.73
580.33	64732.20
580.49	64970.93
580.65	64727.52
580.82	65017.74
580.98	64926.46
581.14	64954.55
581.30	64900.71
581.46	64980.29
581.62	64867.95
581.78	64828.16
581.94	64989.66
582.10	64830.50
582.26	64694.75
582.42	64898.37
582.58	64830.50
582.74	64816.46
582.90	65024.76
583.06	64760.28
583.22	64818.80
583.38	64931.14
583.54	64832.84
583.70	64851.56
583.86	64973.27
584.02	64734.54
584.18	64954.55
584.34	64940.50
584.50	65099.66
584.66	64940.50
584.82	64849.22
584.98	64816.46
585.14	64853.90
585.30	64863.27
585.46	64963.91
585.62	64942.84
585.78	64973.27
585.94	64910.08
586.10	65045.83
586.26	64818.80
586.42	65162.85
586.58	65174.56
586.74	64802.41
586.90	64856.24
587.06	64783.69
587.22	65003.70
587.38	65006.04
