SpectraSuite Data File
++++++++++++++++++++++++++++++++++++
Date: Thu Oct 24 13:21:07 EDT 2013
User: stostad
Dark Spectrum Present: No
Reference Spectrum Present: No
Number of Sampled Component Spectra: 1
Spectrometers: USB2+H05261
Integration Time (usec): 100000 (USB2+H05261)
Spectra Averaged: 1 (USB2+H05261)
Boxcar Smoothing: 0 (USB2+H05261)
Correct for Electrical Dark: No (USB2+H05261)
Strobe/Lamp Enabled: No (USB2+H05261)
Correct for Detector Non-linearity: No (USB2+H05261)
Correct for Stray Light: No (USB2+H05261)
Number of Pixels in Processed Spectrum: 2048
>>>>>Begin Processed Spectral Data<<<<<
365.73	521.94
365.92	521.94
366.12	521.94
366.32	526.62
366.52	475.13
366.72	486.83
366.91	463.43
367.11	479.81
367.31	468.11
367.51	393.21
367.70	458.74
367.90	475.13
368.10	521.94
368.30	517.26
368.49	489.17
368.69	500.87
368.89	498.53
369.09	442.36
369.28	458.74
369.48	475.13
369.68	540.66
369.87	479.81
370.07	519.60
370.27	599.18
370.47	547.69
370.66	594.50
370.86	748.97
371.06	741.95
371.25	807.48
371.45	727.91
371.65	777.06
371.84	718.54
372.04	732.59
372.24	779.40
372.44	793.44
372.63	723.23
372.83	702.16
373.03	826.21
373.22	807.48
373.42	805.14
373.62	774.72
373.81	791.10
374.01	795.78
374.21	753.65
374.40	777.06
374.60	870.68
374.79	868.34
374.99	844.93
375.19	861.32
375.38	809.83
375.58	866.00
375.78	807.48
375.97	746.63
376.17	894.08
376.37	898.77
376.56	833.23
376.76	835.57
376.95	863.66
377.15	760.67
377.35	807.48
377.54	912.81
377.74	856.64
377.93	814.51
378.13	849.61
378.33	791.10
378.52	800.46
378.72	835.57
378.91	851.96
379.11	898.77
379.31	863.66
379.50	882.38
379.70	912.81
379.89	849.61
380.09	828.55
380.28	814.51
380.48	807.48
380.68	830.89
380.87	847.27
381.07	854.30
381.26	802.80
381.46	884.72
381.65	863.66
381.85	770.04
382.04	931.53
382.24	964.30
382.43	929.19
382.63	901.11
382.83	922.17
383.02	884.72
383.22	903.45
383.41	863.66
383.61	880.04
383.80	870.68
384.00	926.85
384.19	866.00
384.39	854.30
384.58	922.17
384.78	973.66
384.97	929.19
385.17	856.64
385.36	887.06
385.56	866.00
385.75	915.15
385.95	903.45
386.14	889.40
386.34	933.87
386.53	959.62
386.72	973.66
386.92	1013.45
387.11	971.32
387.31	999.41
387.50	957.28
387.70	1043.88
387.89	959.62
388.09	903.45
388.28	954.94
388.48	959.62
388.67	985.37
388.86	961.96
389.06	915.15
389.25	905.79
389.45	924.51
389.64	957.28
389.84	1090.69
390.03	971.32
390.22	985.37
390.42	945.58
390.61	1018.13
390.81	1004.09
391.00	980.68
391.19	1043.88
391.39	994.73
391.58	971.32
391.78	1093.03
391.97	1078.99
392.16	1025.15
392.36	978.34
392.55	961.96
392.75	1097.71
392.94	1034.52
393.13	992.39
393.33	997.07
393.52	1041.54
393.71	1060.26
393.91	992.39
394.10	1078.99
394.29	1022.81
394.49	1053.24
394.68	1053.24
394.88	1121.12
395.07	1104.73
395.26	1121.12
395.46	1116.44
395.65	1217.08
395.84	1111.75
396.04	1109.41
396.23	1252.19
396.42	1078.99
396.62	1104.73
396.81	1123.46
397.00	1174.95
397.19	1128.14
397.39	1088.35
397.58	1158.57
397.77	1074.31
397.97	1116.44
398.16	1048.56
398.35	1193.67
398.55	1135.16
398.74	1090.69
398.93	1212.40
399.12	1212.40
399.32	1158.57
399.51	1205.38
399.70	1296.66
399.90	1198.35
400.09	1247.51
400.28	1256.87
400.47	1224.10
400.67	1277.93
400.86	1259.21
401.05	1226.44
401.24	1317.72
401.44	1399.64
401.63	1303.68
401.82	1277.93
402.01	1238.14
402.21	1263.89
402.40	1242.82
402.59	1266.23
402.78	1394.96
402.97	1324.74
403.17	1362.19
403.36	1313.04
403.55	1200.69
403.74	1315.38
403.93	1406.66
404.13	1378.58
404.32	1528.37
404.51	1404.32
404.70	1437.09
404.89	1390.28
405.09	1409.00
405.28	1329.42
405.47	1355.17
405.66	1427.73
405.85	1504.96
406.05	1413.68
406.24	1453.47
406.43	1521.35
406.62	1469.86
406.81	1490.92
407.00	1453.47
407.20	1479.22
407.39	1458.15
407.58	1523.69
407.77	1535.39
407.96	1476.88
408.15	1483.90
408.34	1448.79
408.54	1504.96
408.73	1507.30
408.92	1549.43
409.11	1572.84
409.30	1563.48
409.49	1570.50
409.68	1584.54
409.87	1614.97
410.07	1565.82
410.26	1589.22
410.45	1584.54
410.64	1577.52
410.83	1507.30
411.02	1633.69
411.21	1633.69
411.40	1584.54
411.59	1612.63
411.78	1650.08
411.98	1652.42
412.17	1689.87
412.36	1783.49
412.55	1781.15
412.74	1790.51
412.93	1760.08
413.12	1774.13
413.31	1834.98
413.50	1802.21
413.69	1816.26
413.88	1818.60
414.07	1804.55
414.26	1806.89
414.45	1790.51
414.64	1802.21
414.83	1881.79
415.02	1881.79
415.22	1832.64
415.41	1926.26
415.60	1980.09
415.79	1935.62
415.98	1973.07
416.17	1961.37
416.36	1937.96
416.55	1926.26
416.74	1980.09
416.93	1952.01
417.12	2064.35
417.31	1968.39
417.50	2106.48
417.69	2132.23
417.88	2160.31
418.07	2062.01
418.26	2019.88
418.45	2115.84
418.64	2143.93
418.83	2113.50
419.02	2174.36
419.21	2260.96
419.39	2111.16
419.58	2214.15
419.77	2132.23
419.96	2244.57
420.15	2162.66
420.34	2195.42
420.53	2057.33
420.72	2214.15
420.91	2188.40
421.10	2181.38
421.29	2242.23
421.48	2181.38
421.67	2328.83
421.86	2216.49
422.05	2296.07
422.24	2211.81
422.43	2260.96
422.61	2249.25
422.80	2275.00
422.99	2314.79
423.18	2291.38
423.37	2368.62
423.56	2232.87
423.75	2202.44
423.94	2214.15
424.13	2197.76
424.32	2253.94
424.50	2345.22
424.69	2359.26
424.88	2326.49
425.07	2363.94
425.26	2263.30
425.45	2155.63
425.64	2307.77
425.83	2370.96
426.01	2275.00
426.20	2335.85
426.39	2370.96
426.58	2441.18
426.77	2314.79
426.96	2387.35
427.15	2321.81
427.33	2375.64
427.52	2410.75
427.71	2366.28
427.90	2457.56
428.09	2441.18
428.28	2424.80
428.46	2478.63
428.65	2396.71
428.84	2588.63
429.03	2438.84
429.22	2464.58
429.40	2490.33
429.59	2551.18
429.78	2476.29
429.97	2293.72
430.16	2553.52
430.34	2490.33
430.53	2574.59
430.72	2548.84
430.91	2588.63
431.10	2553.52
431.28	2581.61
431.47	2726.72
431.66	2661.19
431.85	2675.23
432.03	2614.38
432.22	2658.85
432.41	2675.23
432.60	2682.25
432.79	2754.81
432.97	2548.84
433.16	2651.83
433.35	2637.78
433.54	2726.72
433.72	2708.00
433.91	2693.96
434.10	2684.59
434.28	2773.53
434.47	2796.94
434.66	2736.09
434.85	2754.81
435.03	2946.73
435.22	3112.91
435.41	3286.11
435.59	3119.93
435.78	3094.19
435.97	3126.96
436.16	2939.71
436.34	2906.95
436.53	2792.26
436.72	2874.18
436.90	2754.81
437.09	2911.63
437.28	2719.70
437.46	2923.33
437.65	2909.29
437.84	2928.01
438.02	2818.00
438.21	2881.20
438.40	2874.18
438.58	3012.27
438.77	3028.65
438.96	2998.23
439.14	3042.70
439.33	3075.46
439.52	3143.34
439.70	3049.72
439.89	3260.37
440.08	3290.79
440.26	3117.59
440.45	3197.17
440.63	3054.40
440.82	3206.53
441.01	3094.19
441.19	3220.58
441.38	3353.99
441.57	3243.98
441.75	3286.11
441.94	3452.29
442.12	3255.69
442.31	3372.71
442.50	3428.88
442.68	3398.46
442.87	3358.67
443.05	3435.91
443.24	3449.95
443.43	3445.27
443.61	3522.51
443.80	3534.21
443.98	3389.10
444.17	3368.03
444.35	3452.29
444.54	3454.63
444.73	3344.63
444.91	3508.46
445.10	3445.27
445.28	3389.10
445.47	3410.16
445.65	3487.40
445.84	3454.63
446.02	3562.30
446.21	3552.93
446.39	3466.33
446.58	3466.33
446.77	3473.36
446.95	3480.38
447.14	3574.00
447.32	3536.55
447.51	3552.93
447.69	3449.95
447.88	3609.11
448.06	3595.06
448.25	3398.46
448.43	3494.42
448.62	3585.70
448.80	3527.19
448.99	3513.14
449.17	3569.32
449.36	3620.81
449.54	3700.39
449.73	3679.32
449.91	3634.85
450.10	3672.30
450.28	3824.44
450.46	3805.71
450.65	3728.47
450.83	3817.41
451.02	3641.87
451.20	3768.26
451.39	3574.00
451.57	3742.52
451.76	3679.32
451.94	3761.24
452.13	3826.78
452.31	3810.39
452.49	3854.86
452.68	3847.84
452.86	3838.48
453.05	3829.12
453.23	3808.05
453.42	3782.31
453.60	3824.44
453.78	3960.19
453.97	3761.24
454.15	3887.63
454.34	3728.47
454.52	3852.52
454.70	3899.33
454.89	3904.01
455.07	3796.35
455.26	3969.55
455.44	3999.98
455.62	4088.92
455.81	4011.68
455.99	4067.85
456.17	4208.28
456.36	4091.26
456.54	4217.65
456.73	4046.79
456.91	4210.62
457.09	4311.27
457.28	4287.86
457.46	4145.09
457.64	4224.67
457.83	4358.08
458.01	4231.69
458.19	4166.15
458.38	4173.18
458.56	4318.29
458.74	4262.12
458.93	4505.53
459.11	4339.35
459.29	4250.41
459.48	4231.69
459.66	4304.25
459.84	4311.27
460.03	4498.51
460.21	4325.31
460.39	4327.65
460.57	4215.30
460.76	4503.19
460.94	4353.40
461.12	4521.92
461.31	4423.61
461.49	4423.61
461.67	4442.34
461.85	4519.57
462.04	4475.10
462.22	4798.10
462.40	4510.21
462.59	4526.60
462.77	4484.47
462.95	4470.42
463.13	4409.57
463.32	4683.41
463.50	4739.58
463.68	4592.13
463.86	4641.28
464.05	4697.46
464.23	4636.60
464.41	4683.41
464.59	4734.90
464.78	4774.69
464.96	4669.37
465.14	4608.51
465.32	4709.16
465.50	4734.90
465.69	4837.89
465.87	4601.49
466.05	4798.10
466.23	4685.75
466.41	4692.77
466.60	4870.65
466.78	4819.16
466.96	4723.20
467.14	4741.93
467.32	4875.34
467.51	4908.10
467.69	4753.63
467.87	4863.63
468.05	5001.72
468.23	4821.50
468.41	4826.18
468.60	5015.77
468.78	4912.78
468.96	4957.25
469.14	5013.43
469.32	4873.00
469.50	4903.42
469.69	4968.96
469.87	5167.90
470.05	5114.07
470.23	5025.13
470.41	4997.04
470.59	5125.77
470.77	5139.82
470.95	5104.71
471.14	5266.21
471.32	5074.28
471.50	5268.55
471.68	5371.53
471.86	5373.87
472.04	5172.58
472.22	5313.02
472.40	5025.13
472.58	5217.05
472.77	5383.23
472.95	5406.64
473.13	5488.56
473.31	5343.44
473.49	5413.66
473.67	5418.34
473.85	5423.02
474.03	5568.13
474.21	5720.27
474.39	5542.39
474.57	5605.58
474.75	5645.37
474.93	5575.16
475.12	5832.62
475.30	5696.86
475.48	5757.72
475.66	5762.40
475.84	5781.12
476.02	5762.40
476.20	5872.40
476.38	5830.27
476.56	5959.00
476.74	5991.77
476.92	5968.37
477.10	5891.13
477.28	6164.97
477.46	6150.93
477.64	6054.97
477.82	6125.18
478.00	6457.54
478.18	6296.04
478.36	6342.85
478.54	6443.49
478.72	6420.09
478.90	6609.67
479.08	6597.97
479.26	6656.48
479.44	6459.88
479.62	6602.65
479.80	6693.93
479.98	6810.96
480.16	6918.62
480.34	6829.68
480.52	6942.03
480.70	7030.97
480.88	6960.75
481.06	7002.88
481.24	7042.67
481.41	7112.89
481.59	7037.99
481.77	7077.78
481.95	7267.36
482.13	7243.96
482.31	7208.85
482.49	7314.17
482.67	7426.52
482.85	7463.97
483.03	7573.97
483.21	7578.65
483.39	7595.04
483.57	7581.00
483.74	7719.09
483.92	7826.75
484.10	7765.90
484.28	7971.86
484.46	7971.86
484.64	8159.11
484.82	8009.31
485.00	8304.22
485.18	8189.53
485.35	8650.62
485.53	8468.06
485.71	8376.78
485.89	8500.83
486.07	8601.47
486.25	8648.28
486.43	8805.10
486.61	8793.39
486.78	8662.32
486.96	8875.31
487.14	8961.91
487.32	9097.66
487.50	9057.87
487.68	8805.10
487.85	9210.01
488.03	9107.02
488.21	9268.52
488.39	9252.14
488.57	9345.76
488.75	9437.04
488.92	9504.92
489.10	9682.80
489.28	9554.07
489.46	9699.18
489.64	9696.84
489.81	9991.75
489.99	9792.80
490.17	10134.52
490.35	10216.44
490.53	10195.37
490.70	10129.84
490.88	10160.27
491.06	10291.34
491.24	10363.89
491.41	10389.64
491.59	10553.48
491.77	10396.66
491.95	10516.03
492.13	10509.01
492.30	10541.77
492.48	10595.61
492.66	10832.00
492.84	10855.40
493.01	10920.94
493.19	10712.63
493.37	11211.17
493.54	11232.23
493.72	11206.48
493.90	11035.63
494.08	11300.11
494.25	11218.19
494.43	11358.62
494.61	11335.21
494.79	11363.30
494.96	11529.48
495.14	11463.94
495.32	11690.98
495.49	11761.19
495.67	11705.02
495.85	11672.25
496.02	11791.62
496.20	11894.60
496.38	12154.40
496.55	11969.50
496.73	12400.16
496.91	12243.34
497.09	12442.29
497.26	12203.55
497.44	12428.24
497.62	12336.96
497.79	12507.82
497.97	12453.99
498.14	12556.97
498.32	12468.03
498.50	12318.24
498.67	12776.98
498.85	12685.70
499.03	12725.49
499.20	12959.55
499.38	12791.03
499.56	12870.61
499.73	12964.23
499.91	13062.53
500.08	13043.81
500.26	13053.17
500.44	13221.69
500.61	13364.46
500.79	13144.45
500.97	13202.96
501.14	13376.16
501.32	13584.47
501.49	13591.49
501.67	13357.44
501.84	13743.63
502.02	13516.59
502.20	13724.90
502.37	13757.67
502.55	13628.94
502.72	13579.79
502.90	13720.22
503.07	13525.96
503.25	13900.44
503.43	13867.67
503.60	13540.00
503.78	13830.23
503.95	13738.94
504.13	14031.51
504.30	14281.95
504.48	13818.52
504.65	14239.82
504.83	14441.11
505.01	14274.93
505.18	14319.40
505.36	14366.21
505.53	14469.19
505.71	14235.14
505.88	14537.07
506.06	14759.42
506.23	14878.79
506.41	14640.05
506.58	14654.09
506.76	14647.07
506.93	14967.73
507.11	14738.35
507.28	14796.87
507.46	14862.40
507.63	14848.36
507.81	14944.32
507.98	14759.42
508.16	14904.53
508.33	15049.64
508.50	15318.81
508.68	15197.10
508.85	15412.43
509.03	15136.24
509.20	15112.84
509.38	15630.10
509.55	15506.05
509.73	15410.09
509.90	15782.23
510.08	15482.64
510.25	15363.28
510.42	15536.48
510.60	15763.51
510.77	15786.91
510.95	15763.51
511.12	15829.04
511.30	15899.26
511.47	15873.51
511.64	15709.68
511.82	16184.80
511.99	16095.86
512.17	16004.58
512.34	16002.24
512.51	16154.38
512.69	16313.53
512.86	16224.59
513.04	16322.90
513.21	16208.21
513.38	16243.32
513.56	16484.39
513.73	16451.63
513.90	16444.60
514.08	16329.92
514.25	16704.40
514.43	16638.87
514.60	16699.72
514.77	16437.58
514.95	16858.88
515.12	16706.74
515.29	16606.10
515.47	16903.35
515.64	17053.14
515.81	16882.28
515.99	17029.74
516.16	17076.55
516.33	16798.02
516.51	17039.10
516.68	17102.29
516.85	17174.85
517.03	17179.53
517.20	17249.75
517.37	17095.27
517.54	17125.70
517.72	17462.74
517.89	17123.36
518.06	17315.28
518.24	17282.52
518.41	17490.82
518.58	17214.64
518.75	17312.94
518.93	17174.85
519.10	17266.13
519.27	17188.89
519.45	17516.57
519.62	17551.68
519.79	17310.60
519.96	17797.43
520.14	17750.62
520.31	17926.16
520.48	17776.37
520.65	17724.88
520.83	17921.48
521.00	18260.86
521.17	17745.94
521.34	17944.89
521.52	17832.54
521.69	18192.98
521.86	18185.96
522.03	18001.06
522.20	18036.17
522.38	18040.85
522.55	18359.16
522.72	18548.75
522.89	18272.56
523.07	18338.10
523.24	18462.15
523.41	18391.93
523.58	18295.97
523.75	18574.49
523.92	18457.46
524.10	18501.93
524.27	18583.85
524.44	18527.68
524.61	18661.09
524.78	18766.42
524.96	18644.71
525.13	18991.11
525.30	18911.53
525.47	18862.38
525.64	18948.98
525.81	18967.70
525.98	18752.37
526.16	18829.61
526.33	18960.68
526.50	19281.33
526.67	19129.20
526.84	19140.90
527.01	19042.60
527.18	19061.32
527.36	19075.37
527.53	19108.13
527.70	19389.00
527.87	19211.12
528.04	19084.73
528.21	19473.26
528.38	19152.60
528.55	19601.99
528.72	19159.63
528.89	19302.40
529.07	19438.15
529.24	19138.56
529.41	19566.88
529.58	19819.66
529.75	19833.70
529.92	19524.75
530.09	19632.41
530.26	19857.10
530.43	19571.56
530.60	19131.54
530.77	19484.96
530.94	19903.92
531.11	19817.32
531.28	19908.60
531.46	20004.56
531.63	19964.77
531.80	19889.87
531.97	19906.26
532.14	19985.83
532.31	19817.32
532.48	19939.02
532.65	20095.84
532.82	19751.78
532.99	20067.75
533.16	19847.74
533.33	20255.00
533.50	20217.55
533.67	20182.44
533.84	20159.03
534.01	20224.57
534.18	20025.62
534.35	20573.31
534.52	20119.24
534.69	20152.01
534.86	20383.73
535.03	20046.69
535.20	20421.17
535.37	20636.50
535.54	20563.95
535.71	20723.10
535.88	20751.19
536.05	20680.97
536.22	20575.65
536.38	20725.44
536.55	20739.49
536.72	20744.17
536.89	20603.74
537.06	20673.95
537.23	21254.40
537.40	20823.75
537.57	20758.21
537.74	20884.60
537.91	20947.79
538.08	20882.26
538.25	20786.30
538.42	20924.39
538.59	21039.08
538.75	20903.32
538.92	20975.88
539.09	21282.49
539.26	20926.73
539.43	21081.21
539.60	20926.73
539.77	21104.61
539.94	21635.91
540.11	21509.52
540.28	21476.76
540.44	21647.61
540.61	21404.20
540.78	21392.50
540.95	21371.43
541.12	21970.61
541.29	21542.29
541.46	21790.39
541.62	21764.64
541.79	21846.56
541.96	21844.22
542.13	21881.67
542.30	22026.78
542.47	21720.17
542.63	21715.49
542.80	22324.03
542.97	22328.71
543.14	22342.75
543.31	22628.30
543.48	22274.88
543.64	22377.86
543.81	22415.31
543.98	22415.31
544.15	22157.85
544.32	22637.66
544.48	22544.04
544.65	22293.60
544.82	22434.03
544.99	22155.51
545.16	21986.99
545.32	22265.52
545.49	22991.08
545.66	23250.88
545.83	23599.62
546.00	23480.25
546.16	22916.19
546.33	22675.11
546.50	22253.81
546.67	22534.68
546.83	22279.56
547.00	22192.96
547.17	22558.08
547.34	22424.67
547.50	22469.14
547.67	22691.49
547.84	22647.02
548.00	22691.49
548.17	22522.98
548.34	22490.21
548.51	22951.29
548.67	22366.16
548.84	22665.75
549.01	22799.16
549.18	22614.26
549.34	22764.05
549.51	22593.19
549.68	22609.58
549.84	22771.07
550.01	22490.21
550.18	22546.38
550.34	22527.66
550.51	22661.07
550.68	22705.54
550.84	22408.29
551.01	22810.86
551.18	22359.14
551.34	22665.75
551.51	22862.35
551.68	22682.13
551.84	22436.38
552.01	22810.86
552.18	22925.55
552.34	22895.12
552.51	23094.07
552.68	22677.45
552.84	22932.57
553.01	22689.15
553.18	22984.06
553.34	22775.75
553.51	22824.90
553.67	23173.64
553.84	23218.11
554.01	23082.36
554.17	23009.81
554.34	22778.09
554.51	23157.26
554.67	23112.79
554.84	22787.46
555.00	23075.34
555.17	23047.26
555.33	22899.80
555.50	23000.44
555.67	23295.35
555.83	22895.12
556.00	23145.56
556.16	23419.40
556.33	23285.99
556.50	23335.14
556.66	23178.33
556.83	23068.32
556.99	23562.17
557.16	23285.99
557.32	23264.92
557.49	23407.70
557.65	23293.01
557.82	23283.65
557.98	22963.00
558.15	22967.68
558.32	23421.74
558.48	23304.71
558.65	23597.28
558.81	23323.44
558.98	23503.66
559.14	23527.06
559.31	23276.63
559.47	23379.61
559.64	23573.88
559.80	23491.96
559.97	23508.34
560.13	23152.58
560.30	23508.34
560.46	23211.09
560.63	23618.35
560.79	23573.88
560.96	23791.55
561.12	23583.24
561.29	23625.37
561.45	23576.22
561.61	23557.49
561.78	23964.75
561.94	23669.84
562.11	23627.71
562.27	23864.10
562.44	23660.48
562.60	23892.19
562.77	23515.36
562.93	23702.61
563.10	23770.48
563.26	23644.09
563.42	23920.28
563.59	23763.46
563.75	23501.32
563.92	24109.86
564.08	23828.99
564.24	23990.49
564.41	23587.92
564.57	23866.44
564.74	23524.72
564.90	23798.57
565.07	23990.49
565.23	23646.43
565.39	23414.72
565.56	23756.44
565.72	23974.11
565.88	23627.71
566.05	23522.38
566.21	23599.62
566.38	23880.49
566.54	23885.17
566.70	23892.19
566.87	24432.85
567.03	24041.98
567.19	24329.87
567.36	24315.83
567.52	24020.92
567.68	24142.63
567.85	23655.79
568.01	23878.15
568.17	23817.29
568.34	23480.25
568.50	24177.73
568.66	23854.74
568.83	24006.87
568.99	24072.41
569.15	23878.15
569.32	23770.48
569.48	23749.42
569.64	23978.79
569.81	23648.77
569.97	23969.43
570.13	23983.47
570.30	23931.98
570.46	24212.84
570.62	23796.23
570.78	23885.17
570.95	23941.34
571.11	24622.44
571.27	24252.63
571.43	24159.01
571.60	24154.33
571.76	23899.21
571.92	23948.36
572.09	24163.69
572.25	23908.57
572.41	24240.93
572.57	24592.01
572.74	24671.59
572.90	24177.73
573.06	24379.02
573.22	24044.32
573.38	24247.95
573.55	23885.17
573.71	24322.85
573.87	24315.83
574.03	24088.79
574.20	24107.52
574.36	24276.04
574.52	24135.60
574.68	24191.78
574.84	24229.23
575.01	24428.17
575.17	24217.52
575.33	24266.67
575.49	24383.70
575.65	24393.06
575.82	24114.54
575.98	24343.91
576.14	24264.33
576.30	24320.51
576.46	24360.30
576.62	24116.88
576.79	24217.52
576.95	24254.97
577.11	24004.53
577.27	24524.13
577.43	24236.25
577.59	24304.12
577.75	24334.55
577.92	24126.24
578.08	24416.47
578.24	24151.99
578.40	24528.81
578.56	24561.58
578.72	25036.71
578.88	24814.36
579.04	24477.32
579.21	24393.06
579.37	24245.61
579.53	24606.05
579.69	24444.56
579.85	24540.52
580.01	24458.60
580.17	24142.63
580.33	24226.89
580.49	24016.24
580.65	24240.93
580.82	24561.58
580.98	24191.78
581.14	24304.12
581.30	24425.83
581.46	24184.76
581.62	24311.14
581.78	24168.37
581.94	24397.74
582.10	24233.91
582.26	24346.25
582.42	24273.70
582.58	24245.61
582.74	24425.83
582.90	24479.66
583.06	24430.51
583.22	24313.48
583.38	24222.20
583.54	24041.98
583.70	24266.67
583.86	24411.79
584.02	24306.46
584.18	24547.54
584.34	24376.68
584.50	24376.68
584.66	24161.35
584.82	24348.59
584.98	24372.00
585.14	24210.50
585.30	24821.38
585.46	24531.15
585.62	24123.90
585.78	24596.69
585.94	24402.43
586.10	24608.39
586.26	24465.62
586.42	24641.16
586.58	24393.06
586.74	24411.79
586.90	24470.30
587.06	24617.75
587.22	24936.07
587.38	24758.19
587.54	24528.81
587.70	24865.85
587.86	24673.93
588.02	24905.64
588.18	24793.29
588.34	24592.01
588.49	24657.54
588.65	24559.24
588.81	24510.09
588.97	24538.18
589.13	24547.54
589.29	24584.99
589.45	24444.56
589.61	24266.67
589.77	24746.48
589.93	24851.81
590.08	24704.35
590.24	24563.92
590.40	24673.93
590.56	24828.40
590.72	24835.42
590.88	24336.89
