SpectraSuite Data File
++++++++++++++++++++++++++++++++++++
Date: Thu Oct 24 13:21:41 EDT 2013
User: stostad
Dark Spectrum Present: No
Reference Spectrum Present: No
Number of Sampled Component Spectra: 1
Spectrometers: USB2+H05261
Integration Time (usec): 100000 (USB2+H05261)
Spectra Averaged: 1 (USB2+H05261)
Boxcar Smoothing: 0 (USB2+H05261)
Correct for Electrical Dark: No (USB2+H05261)
Strobe/Lamp Enabled: No (USB2+H05261)
Correct for Detector Non-linearity: No (USB2+H05261)
Correct for Stray Light: No (USB2+H05261)
Number of Pixels in Processed Spectrum: 2048
>>>>>Begin Processed Spectral Data<<<<<
365.73	608.54
365.92	608.54
366.12	608.54
366.32	554.71
366.52	514.92
366.72	573.43
366.91	500.87
367.11	472.79
367.31	505.56
367.51	451.72
367.70	451.72
367.90	559.39
368.10	496.19
368.30	528.96
368.49	482.15
368.69	505.56
368.89	510.24
369.09	510.24
369.28	538.32
369.48	524.28
369.68	543.00
369.87	552.37
370.07	475.13
370.27	592.16
370.47	795.78
370.66	1359.85
370.86	1472.20
371.06	1453.47
371.25	1474.54
371.45	1528.37
371.65	1453.47
371.84	1610.29
372.04	1565.82
372.24	1540.07
372.44	1579.86
372.63	1460.49
372.83	1682.85
373.03	1589.22
373.22	1614.97
373.42	1692.21
373.62	1657.10
373.81	1612.63
374.01	1732.00
374.21	1666.46
374.40	1678.16
374.60	1680.50
374.79	1753.06
374.99	1694.55
375.19	1788.17
375.38	1865.41
375.58	1818.60
375.78	1944.99
375.97	1764.76
376.17	1905.20
376.37	1858.39
376.56	1851.36
376.76	1874.77
376.95	1823.28
377.15	1813.92
377.35	1863.07
377.54	1891.15
377.74	1949.67
377.93	1996.48
378.13	2052.65
378.33	1947.33
378.52	2059.67
378.72	1930.94
378.91	2076.06
379.11	2108.82
379.31	2125.21
379.50	2094.78
379.70	2087.76
379.89	2136.91
380.09	2174.36
380.28	2183.72
380.48	2106.48
380.68	2113.50
380.87	2197.76
381.07	2115.84
381.26	2244.57
381.46	2174.36
381.65	2296.07
381.85	2202.44
382.04	2333.51
382.24	2242.23
382.43	2209.47
382.63	2225.85
382.83	2340.54
383.02	2370.96
383.22	2347.56
383.41	2324.15
383.61	2394.37
383.80	2427.14
384.00	2363.94
384.19	2436.50
384.39	2377.98
384.58	2462.24
384.78	2368.62
384.97	2588.63
385.17	2452.88
385.36	2483.31
385.56	2511.39
385.75	2499.69
385.95	2560.55
386.14	2520.76
386.34	2544.16
386.53	2612.04
386.72	2541.82
386.92	2586.29
387.11	2644.81
387.31	2686.94
387.50	2750.13
387.70	2743.11
387.89	2761.83
388.09	2647.15
388.28	2761.83
388.48	2789.92
388.67	2700.98
388.86	2729.06
389.06	2892.90
389.25	2818.00
389.45	2944.39
389.64	2925.67
389.84	2963.12
390.03	2902.26
390.22	2925.67
390.42	3009.93
390.61	2832.05
390.81	2892.90
391.00	3061.42
391.19	2979.50
391.39	3007.59
391.58	3009.93
391.78	3061.42
391.97	3073.12
392.16	3115.25
392.36	3218.24
392.55	3103.55
392.75	3157.38
392.94	3145.68
393.13	3164.40
393.33	3152.70
393.52	3330.58
393.71	3213.56
393.91	3279.09
394.10	3304.84
394.29	3412.50
394.49	3386.76
394.68	3485.06
394.88	3365.69
395.07	3571.66
395.26	3452.29
395.46	3471.01
395.65	3571.66
395.84	3466.33
396.04	3618.47
396.23	3602.08
396.42	3728.47
396.62	3676.98
396.81	3613.79
397.00	3744.86
397.19	3714.43
397.39	3751.88
397.58	3770.60
397.77	3681.66
397.97	3798.69
398.16	3871.25
398.35	3815.07
398.55	3868.91
398.74	4002.32
398.93	4070.19
399.12	3904.01
399.32	4023.38
399.51	4053.81
399.70	4102.96
399.90	3990.61
400.09	3990.61
400.28	4121.68
400.47	4187.22
400.67	4259.78
400.86	4418.93
401.05	4264.46
401.24	4276.16
401.44	4470.42
401.63	4351.06
401.82	4231.69
402.01	4318.29
402.21	4407.23
402.40	4503.19
402.59	4503.19
402.78	4547.66
402.97	4571.07
403.17	4498.51
403.36	4493.83
403.55	4580.43
403.74	4702.14
403.93	4863.63
404.13	4741.93
404.32	4809.80
404.51	4770.01
404.70	4924.49
404.89	4835.55
405.09	4800.44
405.28	4917.47
405.47	4926.83
405.66	4938.53
405.85	4844.91
406.05	5064.92
406.24	5100.03
406.43	5050.88
406.62	5301.31
406.81	5114.07
407.00	5067.26
407.20	5046.20
407.39	5158.54
407.58	5254.50
407.77	5308.34
407.96	5404.30
408.15	5497.92
408.34	5289.61
408.54	5439.40
408.73	5413.66
408.92	5647.71
409.11	5643.03
409.30	5626.65
409.49	5626.65
409.68	5706.23
409.87	5839.64
410.07	5860.70
410.26	6031.56
410.45	5781.12
410.64	5961.34
410.83	5856.02
411.02	6054.97
411.21	6115.82
411.40	6008.16
411.59	6104.12
411.78	6125.18
411.98	6127.52
412.17	6157.95
412.36	6345.19
412.55	6483.28
412.74	6555.84
412.93	6338.17
413.12	6450.52
413.31	6771.17
413.50	6649.46
413.69	6649.46
413.88	6719.68
414.07	6857.77
414.26	7035.65
414.45	6913.94
414.64	6869.47
414.83	6981.82
415.02	7117.57
415.22	7302.47
415.41	7229.91
415.60	7302.47
415.79	7225.23
415.98	7513.12
416.17	7548.23
416.36	7438.22
416.55	7534.18
416.74	7672.28
416.93	7672.28
417.12	7735.47
417.31	7946.12
417.50	7784.62
417.69	8018.68
417.88	7974.21
418.07	8011.65
418.26	7857.18
418.45	7810.37
418.64	8166.13
418.83	8189.53
419.02	8173.15
419.21	8557.00
419.39	8505.51
419.58	8381.46
419.77	8278.47
419.96	8470.40
420.15	8489.12
420.34	8615.51
420.53	8397.84
420.72	8842.54
420.91	8837.86
421.10	8769.99
421.29	8950.21
421.48	8777.01
421.67	8950.21
421.86	8868.29
422.05	8795.73
422.24	8926.80
422.43	9013.40
422.61	9359.80
422.80	9296.61
422.99	9114.05
423.18	9217.03
423.37	9476.83
423.56	9296.61
423.75	9041.49
423.94	8879.99
424.13	8482.10
424.32	9015.74
424.50	9149.15
424.69	9425.34
424.88	9217.03
425.07	9249.80
425.26	9256.82
425.45	9217.03
425.64	9114.05
425.83	9252.14
426.01	9523.64
426.20	9341.08
426.39	9322.35
426.58	9495.55
426.77	9523.64
426.96	9624.28
427.15	9554.07
427.33	9523.64
427.52	9518.96
427.71	9685.14
427.90	9774.08
428.09	9816.21
428.28	9827.91
428.46	10005.79
428.65	10026.86
428.84	10256.23
429.03	10174.31
429.22	9994.09
429.40	10050.26
429.59	10160.27
429.78	9954.30
429.97	9748.33
430.16	9937.91
430.34	10291.34
430.53	10511.35
430.72	10328.78
430.91	10277.29
431.10	10389.64
431.28	10794.55
431.47	10953.71
431.66	10614.33
431.85	10665.82
432.03	10780.51
432.22	11047.33
432.41	11075.42
432.60	10909.24
432.79	10981.79
432.97	11140.95
433.16	11225.21
433.35	10972.43
433.54	11164.36
433.72	11386.71
433.91	11286.06
434.10	11435.86
434.28	11253.30
434.47	11566.93
434.66	11651.19
434.85	11662.89
435.03	11805.66
435.22	11812.68
435.41	12444.63
435.59	12231.64
435.78	12339.30
435.97	11960.14
436.16	12011.63
436.34	12142.70
436.53	12105.25
436.72	12393.14
436.90	11999.93
437.09	12299.52
437.28	11971.84
437.46	12156.74
437.65	12519.53
437.84	12456.33
438.02	12615.49
438.21	12561.66
438.40	12486.76
438.58	12987.63
438.77	12879.97
438.96	12779.32
439.14	13242.75
439.33	13305.95
439.52	13280.20
439.70	13280.20
439.89	13792.78
440.08	13907.46
440.26	13638.30
440.45	13757.67
440.63	13855.97
440.82	14232.80
441.01	14029.17
441.19	14406.00
441.38	14258.54
441.57	14473.87
441.75	14532.39
441.94	14754.74
442.12	14906.87
442.31	15183.06
442.50	14827.29
442.68	14902.19
442.87	15035.60
443.05	15197.10
443.24	15229.87
443.43	15225.18
443.61	15274.34
443.80	15793.94
443.98	15187.74
444.17	14860.06
444.35	15335.19
444.54	15644.14
444.73	15747.12
444.91	15253.27
445.10	15740.10
445.28	15566.90
445.47	15342.21
445.65	15747.12
445.84	15730.74
446.02	15824.36
446.21	15950.75
446.39	15786.91
446.58	16163.74
446.77	15810.32
446.95	15723.72
447.14	16077.14
447.32	16358.00
447.51	16025.65
447.69	15932.03
447.88	15868.83
448.06	16182.46
448.25	15946.07
448.43	16168.42
448.62	16168.42
448.80	15974.16
448.99	16498.44
449.17	16657.59
449.36	16479.71
449.54	16290.13
449.73	16945.48
449.91	17284.86
450.10	16957.18
450.28	17109.32
450.46	17219.32
450.65	16807.39
450.83	17195.92
451.02	17095.27
451.20	17399.54
451.39	17167.83
451.57	17343.37
451.76	16996.97
451.94	17341.03
452.13	17638.28
452.31	17404.22
452.49	17298.90
452.68	17509.55
452.86	17830.20
453.05	17872.33
453.23	17886.37
453.42	17844.24
453.60	17893.40
453.78	18190.64
453.97	17678.07
454.15	18127.45
454.34	18120.43
454.52	18373.21
454.70	18209.37
454.89	18281.92
455.07	18506.62
455.26	18562.79
455.44	18677.48
455.62	18869.40
455.81	18668.11
455.99	19023.87
456.17	19009.83
456.36	18970.04
456.54	18951.32
456.73	19555.18
456.91	19929.66
457.09	19728.38
457.28	20306.49
457.46	19379.64
457.64	19953.07
457.83	19922.64
458.01	19875.83
458.19	20521.82
458.38	20119.24
458.56	20451.60
458.74	20311.17
458.93	20549.90
459.11	20250.32
459.29	20414.15
459.48	20629.48
459.66	20507.77
459.84	20844.81
460.03	20800.34
460.21	20847.15
460.39	20826.09
460.57	20861.19
460.76	21034.39
460.94	21355.05
461.12	21413.56
461.31	21128.02
461.49	21165.46
461.67	21228.66
461.85	21743.58
462.04	21238.02
462.22	22272.54
462.40	22457.44
462.59	21979.97
462.77	21905.07
462.95	22492.55
463.13	22431.69
463.32	22195.30
463.50	22403.61
463.68	22466.80
463.86	22417.65
464.05	22345.09
464.23	22511.27
464.41	22731.28
464.59	22038.48
464.78	23215.77
464.96	22801.50
465.14	22546.38
465.32	23154.92
465.50	23007.47
465.69	23056.62
465.87	22850.65
466.05	23108.11
466.23	23372.59
466.41	23288.33
466.60	23653.45
466.78	23447.49
466.96	23459.19
467.14	23154.92
467.32	23726.01
467.51	23793.89
467.69	23316.42
467.87	23957.72
468.05	24081.77
468.23	23882.83
468.41	24102.84
468.60	24184.76
468.78	24545.20
468.96	24032.62
469.14	24479.66
469.32	24975.86
469.50	24114.54
469.69	24643.50
469.87	24896.28
470.05	24964.15
470.23	25373.75
470.41	25329.28
470.59	25598.44
470.77	25259.06
470.95	25343.32
471.14	26150.81
471.32	25235.66
471.50	26096.97
471.68	26321.66
471.86	26143.78
472.04	26029.10
472.22	26899.78
472.40	26675.09
472.58	26714.87
472.77	27103.40
472.95	27131.49
473.13	27786.84
473.31	27072.98
473.49	27494.27
473.67	27288.31
473.85	27470.87
474.03	28100.47
474.21	28006.85
474.39	28212.82
474.57	28322.82
474.75	28669.22
474.93	28973.49
475.12	28842.42
475.30	28978.17
475.48	28996.90
475.66	29200.52
475.84	29355.00
476.02	29481.39
476.20	29720.12
476.38	30185.89
476.56	30745.28
476.74	31096.36
476.92	30609.53
477.10	30764.00
477.28	31094.02
477.46	31225.09
477.64	31576.17
477.82	32041.93
478.00	33071.77
478.18	32573.24
478.36	33099.86
478.54	33322.21
478.72	33039.00
478.90	33699.03
479.08	33986.92
479.26	34284.17
479.44	34642.27
479.62	34469.07
479.80	34546.31
479.98	35133.78
480.16	36009.14
480.34	35573.80
480.52	35732.96
480.70	35725.94
480.88	35629.98
481.06	36371.92
481.24	36414.05
481.41	36655.13
481.59	37291.76
481.77	37769.22
481.95	38113.28
482.13	38342.66
482.31	38469.04
482.49	39157.16
482.67	38859.91
482.85	39337.38
483.03	39831.24
483.21	40116.78
483.39	40720.64
483.57	39974.01
483.74	40631.70
483.92	41209.81
484.10	41340.88
484.28	41729.41
484.46	42164.75
484.64	43360.76
484.82	42546.26
485.00	43185.22
485.18	43908.45
485.35	43981.01
485.53	44243.15
485.71	44931.26
485.89	44868.07
486.07	44996.80
486.25	44816.58
486.43	45549.17
486.61	45624.06
486.78	46326.22
486.96	46461.97
487.14	47393.51
487.32	47243.71
487.50	47756.29
487.68	47650.97
487.85	48177.59
488.03	48751.02
488.21	49015.50
488.39	48994.43
488.57	49233.17
488.75	49436.80
488.92	50120.23
489.10	50391.73
489.28	50553.23
489.46	50768.56
489.64	51341.99
489.81	51517.53
489.99	51456.68
490.17	51885.00
490.35	52364.81
490.53	52313.31
490.70	52706.52
490.88	52355.44
491.06	53020.16
491.24	53134.84
491.41	53200.38
491.59	53698.91
491.77	53509.33
491.95	54143.61
492.13	54096.80
492.30	54433.84
492.48	54398.73
492.66	54585.97
492.84	54883.22
493.01	55316.22
493.19	55173.45
493.37	55449.63
493.54	55496.44
493.72	55978.59
493.90	55833.48
494.08	56119.02
494.25	56636.28
494.43	56278.18
494.61	56825.87
494.79	57006.09
494.96	56924.17
495.14	57050.56
495.32	57499.94
495.49	57518.67
495.67	57710.59
495.85	57949.32
496.02	58000.82
496.20	58241.89
496.38	58365.94
496.55	58323.81
496.73	58941.71
496.91	58527.44
497.09	59100.87
497.26	58922.99
497.44	58724.04
497.62	58974.48
497.79	59669.62
497.97	59363.01
498.14	59779.62
498.32	59781.96
498.50	60119.00
498.67	60149.43
498.85	59936.44
499.03	60182.19
499.20	60079.21
499.38	60474.76
499.56	60512.21
499.73	60540.30
499.91	60720.52
500.08	60776.69
500.26	60786.05
500.44	61010.74
500.61	61055.21
500.79	60858.61
500.97	61268.20
501.14	61633.33
501.32	61443.74
501.49	61595.88
501.67	61542.05
501.84	61953.98
502.02	61918.87
502.20	62005.47
502.37	62171.65
502.55	62028.88
502.72	62169.31
502.90	62284.00
503.07	62092.07
503.25	62337.83
503.43	62445.49
503.60	62614.01
503.78	62621.03
503.95	62604.65
504.13	62904.24
504.30	62934.66
504.48	62812.96
504.65	62918.28
504.83	63370.00
505.01	63365.32
505.18	62997.86
505.36	63381.71
505.53	63334.90
505.71	63437.88
505.88	63690.66
506.06	63475.33
506.23	63835.77
506.41	63709.38
506.58	63779.60
506.76	63875.56
506.93	64095.57
507.11	63927.05
507.28	64252.39
507.46	64266.43
507.63	64196.21
507.81	64533.25
507.98	64086.21
508.16	64463.03
508.33	64608.15
508.50	64860.93
508.68	64900.71
508.85	64966.25
509.03	64769.64
509.20	64807.09
509.38	65092.64
509.55	65197.96
509.73	65338.40
509.90	65434.36
510.08	65462.44
510.25	65474.15
510.42	65495.21
510.60	65535.00
510.77	65535.00
510.95	65535.00
511.12	65535.00
511.30	65535.00
511.47	65535.00
511.64	65535.00
511.82	65535.00
511.99	65535.00
512.17	65535.00
512.34	65535.00
512.51	65535.00
512.69	65535.00
512.86	65535.00
513.04	65535.00
513.21	65535.00
513.38	65535.00
513.56	65535.00
513.73	65535.00
513.90	65535.00
514.08	65535.00
514.25	65535.00
514.43	65535.00
514.60	65535.00
514.77	65535.00
514.95	65535.00
515.12	65535.00
515.29	65535.00
515.47	65535.00
515.64	65535.00
515.81	65535.00
515.99	65535.00
516.16	65535.00
516.33	65535.00
516.51	65535.00
516.68	65535.00
516.85	65535.00
517.03	65535.00
517.20	65535.00
517.37	65535.00
517.54	65535.00
517.72	65535.00
517.89	65535.00
518.06	65535.00
518.24	65535.00
518.41	65535.00
518.58	65535.00
518.75	65535.00
518.93	65535.00
519.10	65535.00
519.27	65535.00
519.45	65535.00
519.62	65535.00
519.79	65535.00
519.96	65535.00
520.14	65535.00
520.31	65535.00
520.48	65535.00
520.65	65535.00
520.83	65535.00
521.00	65535.00
521.17	65535.00
521.34	65535.00
521.52	65535.00
521.69	65535.00
521.86	65535.00
522.03	65535.00
522.20	65535.00
522.38	65535.00
522.55	65535.00
522.72	65535.00
522.89	65535.00
523.07	65535.00
523.24	65535.00
523.41	65535.00
523.58	65535.00
523.75	65535.00
523.92	65535.00
524.10	65535.00
524.27	65535.00
524.44	65535.00
524.61	65535.00
524.78	65535.00
524.96	65535.00
525.13	65535.00
525.30	65535.00
525.47	65535.00
525.64	65535.00
525.81	65535.00
525.98	65535.00
526.16	65535.00
526.33	65535.00
526.50	65535.00
526.67	65535.00
526.84	65535.00
527.01	65535.00
527.18	65535.00
527.36	65535.00
527.53	65535.00
527.70	65535.00
527.87	65535.00
528.04	65535.00
528.21	65535.00
528.38	65535.00
528.55	65535.00
528.72	65535.00
528.89	65535.00
529.07	65535.00
529.24	65535.00
529.41	65535.00
529.58	65535.00
529.75	65535.00
529.92	65535.00
530.09	65535.00
530.26	65535.00
530.43	65535.00
530.60	65535.00
530.77	65535.00
530.94	65535.00
531.11	65535.00
531.28	65535.00
531.46	65535.00
531.63	65535.00
531.80	65535.00
531.97	65535.00
532.14	65535.00
532.31	65535.00
532.48	65535.00
532.65	65535.00
532.82	65535.00
532.99	65535.00
533.16	65535.00
533.33	65535.00
533.50	65535.00
533.67	65535.00
533.84	65535.00
534.01	65535.00
534.18	65535.00
534.35	65535.00
534.52	65535.00
534.69	65535.00
534.86	65535.00
535.03	65535.00
535.20	65535.00
535.37	65535.00
535.54	65535.00
535.71	65535.00
535.88	65535.00
536.05	65535.00
536.22	65535.00
536.38	65535.00
536.55	65535.00
536.72	65535.00
536.89	65535.00
537.06	65535.00
537.23	65535.00
537.40	65535.00
537.57	65535.00
537.74	65535.00
537.91	65535.00
538.08	65535.00
538.25	65535.00
538.42	65535.00
538.59	65535.00
538.75	65535.00
538.92	65535.00
539.09	65535.00
539.26	65535.00
539.43	65535.00
539.60	65535.00
539.77	65535.00
539.94	65535.00
540.11	65535.00
540.28	65535.00
540.44	65535.00
540.61	65535.00
540.78	65535.00
540.95	65535.00
541.12	65535.00
541.29	65535.00
541.46	65535.00
541.62	65535.00
541.79	65535.00
541.96	65535.00
542.13	65535.00
542.30	65535.00
542.47	65535.00
542.63	65535.00
542.80	65535.00
542.97	65535.00
543.14	65535.00
543.31	65535.00
543.48	65535.00
543.64	65535.00
543.81	65535.00
543.98	65535.00
544.15	65535.00
544.32	65535.00
544.48	65535.00
544.65	65535.00
544.82	65535.00
544.99	65535.00
545.16	65535.00
545.32	65535.00
545.49	65535.00
545.66	65535.00
545.83	65535.00
546.00	65535.00
546.16	65535.00
546.33	65535.00
546.50	65535.00
546.67	65535.00
546.83	65535.00
547.00	65535.00
547.17	65535.00
547.34	65535.00
547.50	65535.00
547.67	65535.00
547.84	65535.00
548.00	65535.00
548.17	65535.00
548.34	65535.00
548.51	65535.00
548.67	65535.00
548.84	65535.00
549.01	65535.00
549.18	65535.00
549.34	65535.00
549.51	65535.00
549.68	65535.00
549.84	65535.00
550.01	65535.00
550.18	65535.00
550.34	65535.00
550.51	65535.00
550.68	65535.00
550.84	65535.00
551.01	65535.00
551.18	65535.00
551.34	65535.00
551.51	65535.00
551.68	65535.00
551.84	65535.00
552.01	65535.00
552.18	65535.00
552.34	65535.00
552.51	65535.00
552.68	65535.00
552.84	65535.00
553.01	65535.00
553.18	65535.00
553.34	65535.00
553.51	65535.00
553.67	65535.00
553.84	65535.00
554.01	65535.00
554.17	65535.00
554.34	65535.00
554.51	65535.00
554.67	65535.00
554.84	65535.00
555.00	65535.00
555.17	65535.00
555.33	65535.00
555.50	65535.00
555.67	65535.00
555.83	65535.00
556.00	65535.00
556.16	65535.00
556.33	65535.00
556.50	65535.00
556.66	65535.00
556.83	65535.00
556.99	65535.00
557.16	65535.00
557.32	65535.00
557.49	65535.00
557.65	65535.00
557.82	65535.00
557.98	65535.00
558.15	65535.00
558.32	65535.00
558.48	65535.00
558.65	65535.00
558.81	65535.00
558.98	65535.00
559.14	65535.00
559.31	65535.00
559.47	65535.00
559.64	65535.00
559.80	65535.00
559.97	65535.00
560.13	65535.00
560.30	65535.00
560.46	65535.00
560.63	65535.00
560.79	65535.00
560.96	65535.00
561.12	65535.00
561.29	65535.00
561.45	65535.00
561.61	65535.00
561.78	65535.00
561.94	65535.00
562.11	65535.00
562.27	65535.00
562.44	65535.00
562.60	65535.00
562.77	65535.00
562.93	65535.00
563.10	65535.00
563.26	65535.00
563.42	65535.00
563.59	65535.00
563.75	65535.00
563.92	65535.00
564.08	65535.00
564.24	65535.00
564.41	65535.00
564.57	65535.00
564.74	65535.00
564.90	65535.00
565.07	65535.00
565.23	65535.00
565.39	65535.00
565.56	65535.00
565.72	65535.00
565.88	65535.00
566.05	65535.00
566.21	65535.00
566.38	65535.00
566.54	65535.00
566.70	65535.00
566.87	65535.00
567.03	65535.00
567.19	65535.00
567.36	65535.00
567.52	65535.00
567.68	65535.00
567.85	65535.00
568.01	65535.00
568.17	65535.00
568.34	65535.00
568.50	65535.00
568.66	65535.00
568.83	65535.00
568.99	65535.00
569.15	65535.00
569.32	65535.00
569.48	65535.00
569.64	65535.00
569.81	65535.00
569.97	65535.00
570.13	65535.00
570.30	65535.00
570.46	65535.00
570.62	65535.00
570.78	65535.00
570.95	65535.00
571.11	65535.00
571.27	65535.00
571.43	65535.00
571.60	65535.00
571.76	65535.00
571.92	65535.00
572.09	65535.00
572.25	65535.00
572.41	65535.00
572.57	65535.00
572.74	65535.00
572.90	65535.00
573.06	65535.00
573.22	65535.00
573.38	65535.00
573.55	65535.00
573.71	65535.00
573.87	65535.00
574.03	65535.00
574.20	65535.00
574.36	65535.00
574.52	65535.00
574.68	65535.00
574.84	65535.00
575.01	65535.00
575.17	65535.00
575.33	65535.00
575.49	65535.00
575.65	65535.00
575.82	65535.00
575.98	65535.00
576.14	65535.00
576.30	65535.00
576.46	65535.00
576.62	65535.00
576.79	65535.00
576.95	65535.00
577.11	65535.00
577.27	65535.00
577.43	65535.00
577.59	65535.00
577.75	65535.00
577.92	65535.00
578.08	65535.00
578.24	65535.00
578.40	65535.00
578.56	65535.00
578.72	65535.00
578.88	65535.00
579.04	65535.00
579.21	65535.00
579.37	65535.00
579.53	65535.00
579.69	65535.00
579.85	65535.00
580.01	65535.00
580.17	65535.00
580.33	65535.00
580.49	65535.00
580.65	65535.00
580.82	65535.00
580.98	65535.00
581.14	65535.00
581.30	65535.00
581.46	65535.00
581.62	65535.00
581.78	65535.00
581.94	65535.00
582.10	65535.00
582.26	65535.00
582.42	65535.00
582.58	65535.00
582.74	65535.00
582.90	65535.00
583.06	65535.00
583.22	65535.00
583.38	65535.00
583.54	65535.00
583.70	65535.00
583.86	65535.00
584.02	65535.00
584.18	65535.00
584.34	65535.00
584.50	65535.00
584.66	65535.00
584.82	65535.00
584.98	65535.00
585.14	65535.00
585.30	65535.00
585.46	65535.00
585.62	65535.00
585.78	65535.00
585.94	65535.00
586.10	65535.00
586.26	65535.00
586.42	65535.00
586.58	65535.00
