SpectraSuite Data File
++++++++++++++++++++++++++++++++++++
Date: Thu Oct 24 13:21:10 EDT 2013
User: stostad
Dark Spectrum Present: No
Reference Spectrum Present: No
Number of Sampled Component Spectra: 1
Spectrometers: USB2+H05261
Integration Time (usec): 100000 (USB2+H05261)
Spectra Averaged: 1 (USB2+H05261)
Boxcar Smoothing: 0 (USB2+H05261)
Correct for Electrical Dark: No (USB2+H05261)
Strobe/Lamp Enabled: No (USB2+H05261)
Correct for Detector Non-linearity: No (USB2+H05261)
Correct for Stray Light: No (USB2+H05261)
Number of Pixels in Processed Spectrum: 2048
>>>>>Begin Processed Spectral Data<<<<<
365.73	545.34
365.92	545.34
366.12	545.34
366.32	437.68
366.52	475.13
366.72	465.77
366.91	428.32
367.11	465.77
367.31	451.72
367.51	510.24
367.70	477.47
367.90	472.79
368.10	498.53
368.30	484.49
368.49	435.34
368.69	433.00
368.89	500.87
369.09	477.47
369.28	468.11
369.48	545.34
369.68	540.66
369.87	503.22
370.07	585.13
370.27	552.37
370.47	601.52
370.66	814.51
370.86	713.86
371.06	739.61
371.25	786.42
371.45	788.76
371.65	751.31
371.84	781.74
372.04	788.76
372.24	772.38
372.44	732.59
372.63	779.40
372.83	784.08
373.03	802.80
373.22	823.87
373.42	849.61
373.62	765.36
373.81	765.36
374.01	842.59
374.21	767.70
374.40	788.76
374.60	788.76
374.79	779.40
374.99	795.78
375.19	844.93
375.38	809.83
375.58	795.78
375.78	772.38
375.97	826.21
376.17	903.45
376.37	875.36
376.56	861.32
376.76	805.14
376.95	786.42
377.15	826.21
377.35	847.27
377.54	814.51
377.74	835.57
377.93	849.61
378.13	835.57
378.33	826.21
378.52	795.78
378.72	919.83
378.91	950.26
379.11	833.23
379.31	887.06
379.50	858.98
379.70	828.55
379.89	903.45
380.09	940.90
380.28	880.04
380.48	908.13
380.68	908.13
380.87	835.57
381.07	917.49
381.26	837.91
381.46	866.00
381.65	847.27
381.85	807.48
382.04	894.08
382.24	931.53
382.43	875.36
382.63	875.36
382.83	873.02
383.02	938.55
383.22	910.47
383.41	884.72
383.61	854.30
383.80	896.43
384.00	905.79
384.19	940.90
384.39	875.36
384.58	870.68
384.78	929.19
384.97	905.79
385.17	1036.86
385.36	915.15
385.56	980.68
385.75	976.00
385.95	910.47
386.14	917.49
386.34	929.19
386.53	931.53
386.72	933.87
386.92	983.02
387.11	980.68
387.31	915.15
387.50	1013.45
387.70	1018.13
387.89	945.58
388.09	908.13
388.28	980.68
388.48	976.00
388.67	990.05
388.86	1013.45
389.06	968.98
389.25	1008.77
389.45	931.53
389.64	1057.92
389.84	1046.22
390.03	1001.75
390.22	1015.79
390.42	1041.54
390.61	1048.56
390.81	987.71
391.00	1050.90
391.19	987.71
391.39	987.71
391.58	1029.84
391.78	1004.09
391.97	1062.60
392.16	1064.94
392.36	1104.73
392.55	1093.03
392.75	1083.67
392.94	1135.16
393.13	1011.11
393.33	1132.82
393.52	1083.67
393.71	1090.69
393.91	1137.50
394.10	1104.73
394.29	1057.92
394.49	1093.03
394.68	1153.88
394.88	1149.20
395.07	1046.22
395.26	1039.20
395.46	1109.41
395.65	1100.05
395.84	1181.97
396.04	1090.69
396.23	1125.80
396.42	1153.88
396.62	1156.22
396.81	1245.16
397.00	1118.78
397.19	1186.65
397.39	1214.74
397.58	1240.48
397.77	1217.08
397.97	1128.14
398.16	1137.50
398.35	1160.91
398.55	1277.93
398.74	1196.01
398.93	1275.59
399.12	1261.55
399.32	1280.27
399.51	1198.35
399.70	1266.23
399.90	1256.87
400.09	1320.06
400.28	1221.76
400.47	1240.48
400.67	1306.02
400.86	1242.82
401.05	1263.89
401.24	1259.21
401.44	1343.47
401.63	1364.53
401.82	1310.70
402.01	1296.66
402.21	1348.15
402.40	1366.87
402.59	1420.71
402.78	1392.62
402.97	1247.51
403.17	1343.47
403.36	1437.09
403.55	1306.02
403.74	1409.00
403.93	1420.71
404.13	1540.07
404.32	1439.43
404.51	1441.77
404.70	1444.11
404.89	1458.15
405.09	1568.16
405.28	1439.43
405.47	1397.30
405.66	1469.86
405.85	1504.96
406.05	1430.07
406.24	1458.15
406.43	1373.89
406.62	1619.65
406.81	1579.86
407.00	1575.18
407.20	1394.96
407.39	1521.35
407.58	1514.33
407.77	1575.18
407.96	1549.43
408.15	1570.50
408.34	1563.48
408.54	1593.90
408.73	1579.86
408.92	1511.99
409.11	1612.63
409.30	1645.40
409.49	1645.40
409.68	1671.14
409.87	1650.08
410.07	1661.78
410.26	1710.93
410.45	1703.91
410.64	1661.78
410.83	1692.21
411.02	1727.32
411.21	1659.44
411.40	1760.08
411.59	1785.83
411.78	1717.95
411.98	1652.42
412.17	1774.13
412.36	1757.74
412.55	1776.47
412.74	1858.39
412.93	1912.22
413.12	1792.85
413.31	1919.24
413.50	1830.30
413.69	1909.88
413.88	1921.58
414.07	2017.54
414.26	1921.58
414.45	1966.05
414.64	1980.09
414.83	2040.95
415.02	2087.76
415.22	1998.82
415.41	2024.56
415.60	2029.24
415.79	2043.29
415.98	2050.31
416.17	2113.50
416.36	2045.63
416.55	2033.93
416.74	2071.37
416.93	2104.14
417.12	2033.93
417.31	2108.82
417.50	2125.21
417.69	2296.07
417.88	2193.08
418.07	2223.51
418.26	2260.96
418.45	2207.13
418.64	2303.09
418.83	2260.96
419.02	2260.96
419.21	2256.28
419.39	2197.76
419.58	2181.38
419.77	2289.04
419.96	2251.60
420.15	2260.96
420.34	2396.71
420.53	2321.81
420.72	2377.98
420.91	2410.75
421.10	2340.54
421.29	2420.11
421.48	2347.56
421.67	2471.61
421.86	2492.67
422.05	2415.43
422.24	2408.41
422.43	2506.71
422.61	2338.20
422.80	2511.39
422.99	2518.42
423.18	2424.80
423.37	2478.63
423.56	2434.16
423.75	2455.22
423.94	2385.01
424.13	2307.77
424.32	2265.64
424.50	2324.15
424.69	2422.45
424.88	2455.22
425.07	2431.82
425.26	2560.55
425.45	2434.16
425.64	2406.07
425.83	2345.22
426.01	2506.71
426.20	2429.48
426.39	2406.07
426.58	2485.65
426.77	2497.35
426.96	2511.39
427.15	2534.80
427.33	2551.18
427.52	2487.99
427.71	2621.40
427.90	2565.23
428.09	2612.04
428.28	2555.86
428.46	2633.10
428.65	2534.80
428.84	2654.17
429.03	2621.40
429.22	2539.48
429.40	2626.08
429.59	2539.48
429.78	2534.80
429.97	2642.46
430.16	2644.81
430.34	2686.94
430.53	2623.74
430.72	2607.36
430.91	2612.04
431.10	2656.51
431.28	2710.34
431.47	2782.90
431.66	2754.81
431.85	2747.79
432.03	2771.19
432.22	2918.65
432.41	2743.11
432.60	2808.64
432.79	2871.84
432.97	2789.92
433.16	2780.56
433.35	2820.35
433.54	2853.11
433.72	2920.99
433.91	2848.43
434.10	2813.32
434.28	2878.86
434.47	2923.33
434.66	2935.03
434.85	3019.29
435.03	3148.02
435.22	3204.19
435.41	3351.65
435.59	3309.52
435.78	3302.50
435.97	3176.11
436.16	3148.02
436.34	3033.33
436.53	3145.68
436.72	3000.57
436.90	2928.01
437.09	3101.21
437.28	3063.76
437.46	3089.51
437.65	3056.74
437.84	3129.30
438.02	3131.64
438.21	3234.62
438.40	3112.91
438.58	3192.49
438.77	3293.13
438.96	3133.98
439.14	3309.52
439.33	3297.81
439.52	3379.73
439.70	3279.09
439.89	3391.44
440.08	3339.94
440.26	3368.03
440.45	3368.03
440.63	3396.12
440.82	3599.74
441.01	3447.61
441.19	3527.19
441.38	3433.57
441.57	3581.02
441.75	3531.87
441.94	3611.45
442.12	3531.87
442.31	3609.11
442.50	3541.23
442.68	3517.83
442.87	3620.81
443.05	3768.26
443.24	3637.19
443.43	3700.39
443.61	3630.17
443.80	3808.05
443.98	3672.30
444.17	3618.47
444.35	3686.34
444.54	3712.09
444.73	3660.60
444.91	3763.58
445.10	3819.75
445.28	3665.28
445.47	3812.73
445.65	3735.50
445.84	3744.86
446.02	3833.80
446.21	3803.37
446.39	3723.79
446.58	3875.93
446.77	3716.77
446.95	3744.86
447.14	3836.14
447.32	3868.91
447.51	3669.96
447.69	3749.54
447.88	3777.62
448.06	3857.20
448.25	3747.20
448.43	3983.59
448.62	3707.41
448.80	3707.41
448.99	3857.20
449.17	3866.56
449.36	3950.82
449.54	3801.03
449.73	3957.85
449.91	4102.96
450.10	3918.06
450.28	4044.45
450.46	4098.28
450.65	3946.14
450.83	3941.46
451.02	3911.04
451.20	4021.04
451.39	4067.85
451.57	4222.33
451.76	4070.19
451.94	4128.70
452.13	4194.24
452.31	4133.39
452.49	4072.53
452.68	4028.06
452.86	3988.27
453.05	4112.32
453.23	4149.77
453.42	3934.44
453.60	3990.61
453.78	4032.74
453.97	4060.83
454.15	4060.83
454.34	4184.88
454.52	4278.50
454.70	4184.88
454.89	4290.20
455.07	4187.22
455.26	4255.09
455.44	4320.63
455.62	4346.37
455.81	4325.31
455.99	4294.88
456.17	4367.44
456.36	4304.25
456.54	4475.10
456.73	4362.76
456.91	4437.66
457.09	4472.76
457.28	4566.39
457.46	4435.32
457.64	4386.16
457.83	4575.75
458.01	4447.02
458.19	4596.81
458.38	4400.21
458.56	4610.86
458.74	4503.19
458.93	4557.02
459.11	4620.22
459.29	4608.51
459.48	4564.04
459.66	4610.86
459.84	4641.28
460.03	4847.25
460.21	4741.93
460.39	4592.13
460.57	4692.77
460.76	4617.88
460.94	4814.48
461.12	4807.46
461.31	4821.50
461.49	4702.14
461.67	4875.34
461.85	4786.40
462.04	4887.04
462.22	5177.26
462.40	4903.42
462.59	4903.42
462.77	4837.89
462.95	4830.87
463.13	4891.72
463.32	4997.04
463.50	5027.47
463.68	4945.55
463.86	4919.81
464.05	4891.72
464.23	4964.28
464.41	4950.23
464.59	4957.25
464.78	5088.32
464.96	5093.01
465.14	4978.32
465.32	5046.20
465.50	5172.58
465.69	5067.26
465.87	5226.42
466.05	5083.64
466.23	5219.39
466.41	5048.54
466.60	5149.18
466.78	5064.92
466.96	5144.50
467.14	5320.04
467.32	5177.26
467.51	5282.59
467.69	5022.79
467.87	5256.84
468.05	5235.78
468.23	5121.09
468.41	5184.29
468.60	5362.17
468.78	5329.40
468.96	5284.93
469.14	5380.89
469.32	5526.00
469.50	5308.34
469.69	5542.39
469.87	5486.22
470.05	5516.64
470.23	5425.36
470.41	5481.53
470.59	5521.32
470.77	5523.66
470.95	5523.66
471.14	5682.82
471.32	5542.39
471.50	5488.56
471.68	5650.05
471.86	5621.97
472.04	5682.82
472.22	5706.23
472.40	5614.95
472.58	5762.40
472.77	5877.09
472.95	5863.04
473.13	5987.09
473.31	5863.04
473.49	5654.73
473.67	5809.21
473.85	5799.85
474.03	5998.79
474.21	5944.96
474.39	6061.99
474.57	5994.11
474.75	6043.26
474.93	6207.10
475.12	6033.90
475.30	6113.48
475.48	6251.57
475.66	6263.27
475.84	6235.19
476.02	6193.06
476.20	6265.61
476.38	6427.11
476.56	6595.63
476.74	6438.81
476.92	6485.62
477.10	6377.96
477.28	6560.52
477.46	6668.19
477.64	6637.76
477.82	6661.16
478.00	6792.23
478.18	6747.76
478.36	6834.36
478.54	6892.88
478.72	7054.37
478.90	6970.12
479.08	6918.62
479.26	7190.13
479.44	6979.48
479.62	7185.44
479.80	7091.82
479.98	7262.68
480.16	7360.98
480.34	7293.11
480.52	7337.58
480.70	7412.48
480.88	7421.84
481.06	7489.71
481.24	7611.42
481.41	7693.34
481.59	7894.63
481.77	7730.79
481.95	7667.60
482.13	7770.58
482.31	7962.50
482.49	8021.02
482.67	8023.36
482.85	8189.53
483.03	8180.17
483.21	8299.54
483.39	8210.60
483.57	8290.18
483.74	8229.32
483.92	8503.17
484.10	8435.29
484.28	8606.15
484.46	8781.69
484.64	8788.71
484.82	8592.11
485.00	8629.56
485.18	8945.53
485.35	9060.21
485.53	8915.10
485.71	8999.36
485.89	9184.26
486.07	9036.81
486.25	9303.63
486.43	9280.22
486.61	9502.58
486.78	9336.40
486.96	9453.42
487.14	9643.01
487.32	9628.96
487.50	9748.33
487.68	9788.12
487.85	9921.53
488.03	9626.62
488.21	10052.60
488.39	10218.78
488.57	10066.64
488.75	10260.91
488.92	10516.03
489.10	10574.54
489.28	10434.11
489.46	10693.91
489.64	10516.03
489.81	10614.33
489.99	10583.90
490.17	10689.23
490.35	10953.71
490.53	10841.36
490.70	11014.56
490.88	11000.52
491.06	11208.83
491.24	11080.10
491.41	11487.35
491.59	11302.45
491.77	11283.72
491.95	11440.54
492.13	11506.07
492.30	11564.59
492.48	11632.46
492.66	11754.17
492.84	11630.12
493.01	11712.04
493.19	11637.14
493.37	11908.65
493.54	11850.13
493.72	11978.86
493.90	12184.83
494.08	12138.02
494.25	12138.02
494.43	12266.75
494.61	12248.02
494.79	12446.97
494.96	12489.10
495.14	12479.74
495.32	12482.08
495.49	12868.27
495.67	12901.03
495.85	12901.03
496.02	12996.99
496.20	12800.39
496.38	13057.85
496.55	12872.95
496.73	13174.88
496.91	13011.04
497.09	13221.69
497.26	13530.64
497.44	13418.29
497.62	13399.57
497.79	13715.54
497.97	13572.77
498.14	13879.38
498.32	13706.18
498.50	13748.31
498.67	13664.05
498.85	13701.50
499.03	13764.69
499.20	13870.01
499.38	14001.08
499.56	14218.75
499.73	14026.83
499.91	13898.10
500.08	14171.94
500.26	14363.87
500.44	13991.72
500.61	14434.08
500.79	14303.01
500.97	14497.28
501.14	14511.32
501.32	14480.89
501.49	14373.23
501.67	14583.88
501.84	14728.99
502.02	15002.83
502.20	14705.59
502.37	14803.89
502.55	14792.19
502.72	14993.47
502.90	14918.57
503.07	14710.27
503.25	15002.83
503.43	15007.52
503.60	15154.97
503.78	15302.42
503.95	15145.61
504.13	15197.10
504.30	15325.83
504.48	15335.19
504.65	15461.58
504.83	15463.92
505.01	15623.08
505.18	15506.05
505.36	15763.51
505.53	15583.29
505.71	15562.22
505.88	15822.02
506.06	15765.85
506.23	15845.43
506.41	15730.74
506.58	15812.66
506.76	15981.18
506.93	16255.02
507.11	16152.04
507.28	16004.58
507.46	16072.46
507.63	16194.17
507.81	16191.83
507.98	16126.29
508.16	16496.10
508.33	16561.63
508.50	16582.70
508.68	16379.07
508.85	16746.53
509.03	16348.64
509.20	16552.27
509.38	16570.99
509.55	17067.19
509.73	16964.20
509.90	17069.53
510.08	16821.43
510.25	16823.77
510.42	16849.52
510.60	17118.68
510.77	16943.14
510.95	17359.75
511.12	16999.31
511.30	17205.28
511.47	17160.81
511.64	17380.82
511.82	17820.84
511.99	17174.85
512.17	17584.44
512.34	17411.25
512.51	17635.94
512.69	17441.67
512.86	17432.31
513.04	17481.46
513.21	17561.04
513.38	17516.57
513.56	17827.86
513.73	17743.60
513.90	17888.71
514.08	17788.07
514.25	18223.41
514.43	18209.37
514.60	17905.10
514.77	18036.17
514.95	17841.90
515.12	17575.08
515.29	17947.23
515.47	18164.90
515.64	18427.04
515.81	18347.46
515.99	18333.42
516.16	18520.66
516.33	18518.32
516.51	18618.96
516.68	18654.07
516.85	18618.96
517.03	18473.85
517.20	18925.57
517.37	18595.56
517.54	18607.26
517.72	18806.20
517.89	18897.49
518.06	18904.51
518.24	18752.37
518.41	18995.79
518.58	18902.17
518.75	18890.46
518.93	18979.40
519.10	18820.25
519.27	19234.52
519.45	19035.58
519.62	19346.87
519.79	19152.60
519.96	19234.52
520.14	19360.91
520.31	19021.53
520.48	19325.80
520.65	19456.87
520.83	19819.66
521.00	19707.31
521.17	19594.96
521.34	19573.90
521.52	19527.09
521.69	19403.04
521.86	19807.95
522.03	19707.31
522.20	19733.06
522.38	20002.22
522.55	20205.84
522.72	19822.00
522.89	19899.23
523.07	19988.18
523.24	19716.67
523.41	19861.79
523.58	19833.70
523.75	20205.84
523.92	20166.06
524.10	20397.77
524.27	20407.13
524.44	20102.86
524.61	20250.32
524.78	20201.16
524.96	20643.52
525.13	20247.97
525.30	20493.73
525.47	20624.80
525.64	20575.65
525.81	20463.30
525.98	20451.60
526.16	20304.15
526.33	20751.19
526.50	20692.68
526.67	20507.77
526.84	20718.42
527.01	20711.40
527.18	20886.94
527.36	20856.51
527.53	20711.40
527.70	20964.18
527.87	20781.62
528.04	21008.65
528.21	20954.82
528.38	20723.10
528.55	21092.91
528.72	20922.05
528.89	21212.28
529.07	20952.48
529.24	20877.58
529.41	21228.66
529.58	21081.21
529.75	21050.78
529.92	21563.36
530.09	21198.23
530.26	21301.22
530.43	21355.05
530.60	21298.88
530.77	21345.69
530.94	21516.54
531.11	21586.76
531.28	21591.44
531.46	21488.46
531.63	21593.78
531.80	21715.49
531.97	21762.30
532.14	21778.68
532.31	21701.45
532.48	21589.10
532.65	21642.93
532.82	21926.14
532.99	21687.40
533.16	21717.83
533.33	22167.21
533.50	21818.47
533.67	22005.72
533.84	21986.99
534.01	22099.34
534.18	22005.72
534.35	22480.85
534.52	22024.44
534.69	22326.37
534.86	22178.92
535.03	22148.49
535.20	21984.65
535.37	21851.24
535.54	22356.80
535.71	22160.19
535.88	22429.35
536.05	22553.40
536.22	22127.42
536.38	22436.38
536.55	22663.41
536.72	22822.56
536.89	22478.50
537.06	22469.14
537.23	22829.59
537.40	22668.09
537.57	22431.69
537.74	22848.31
537.91	22780.43
538.08	23028.53
538.25	22672.77
538.42	23019.17
538.59	23300.03
538.75	22747.67
538.92	22967.68
539.09	23012.15
539.26	22881.08
539.43	22810.86
539.60	23351.52
539.77	23042.57
539.94	23335.14
540.11	23101.09
540.28	23353.87
540.44	23365.57
540.61	23063.64
540.78	23220.45
540.95	23557.49
541.12	23517.70
541.29	23410.04
541.46	23850.06
541.62	23674.52
541.79	23969.43
541.96	23494.30
542.13	23606.64
542.30	23716.65
542.47	23667.50
542.63	23775.16
542.80	23599.62
542.97	24187.10
543.14	24194.12
543.31	24053.69
543.48	23688.56
543.64	24575.62
543.81	24299.44
543.98	24704.35
544.15	24142.63
544.32	24210.50
544.48	24830.74
544.65	24407.11
544.82	24716.06
544.99	24065.39
545.16	24439.87
545.32	24362.64
545.49	24666.91
545.66	25287.15
545.83	25408.86
546.00	25146.72
546.16	25163.10
546.33	24786.27
546.50	24339.23
546.67	24636.48
546.83	24383.70
547.00	24430.51
547.17	24250.29
547.34	24294.76
547.50	24512.43
547.67	24486.68
547.84	24627.12
548.00	24556.90
548.17	24463.28
548.34	24489.03
548.51	24594.35
548.67	24526.47
548.84	24533.50
549.01	24673.93
549.18	24566.26
549.34	24587.33
549.51	24690.31
549.68	24669.25
549.84	24898.62
550.01	24718.40
550.18	24627.12
550.34	24673.93
550.51	24833.08
550.68	24643.50
550.84	23981.13
551.01	24772.23
551.18	24755.85
551.34	24556.90
551.51	24601.37
551.68	24589.67
551.84	25074.16
552.01	24821.38
552.18	24718.40
552.34	24905.64
552.51	25057.78
552.68	24776.91
552.84	24989.90
553.01	25238.00
553.18	25369.07
553.34	24854.15
553.51	24730.10
553.67	24863.51
553.84	25102.25
554.01	25055.43
554.17	24847.13
554.34	24886.92
554.51	24999.26
554.67	25067.14
554.84	25223.95
555.00	24634.14
555.17	25027.35
555.33	25074.16
555.50	25076.50
555.67	25081.18
555.83	25099.90
556.00	25331.62
556.16	25572.69
556.33	25076.50
556.50	25198.21
556.66	25378.43
556.83	25214.59
556.99	25378.43
557.16	25280.13
557.32	25373.75
557.49	25280.13
557.65	24922.02
557.82	25186.50
557.98	25181.82
558.15	25057.78
558.32	25565.67
558.48	25500.14
558.65	25312.89
558.81	25603.12
558.98	25514.18
559.14	25675.68
559.31	25612.48
559.47	25717.81
559.64	25401.83
559.80	25160.76
559.97	25436.94
560.13	25439.28
560.30	25450.99
560.46	25776.32
560.63	25589.08
560.79	25869.94
560.96	25916.75
561.12	25832.49
561.29	25797.38
561.45	25743.55
561.61	25795.04
561.78	25961.22
561.94	25671.00
562.11	25972.92
562.27	25928.45
562.44	26015.05
562.60	25408.86
562.77	25689.72
562.93	25579.71
563.10	25713.13
563.26	25886.32
563.42	25757.60
563.59	25834.83
563.75	25926.11
563.92	25851.22
564.08	25656.95
564.24	25951.86
564.41	25933.14
564.57	26015.05
564.74	25830.15
564.90	25757.60
565.07	25970.58
565.23	25731.85
565.39	25827.81
565.56	26085.27
565.72	25654.61
565.88	25907.39
566.05	25844.20
566.21	25696.74
566.38	25823.13
566.54	25937.82
566.70	26125.06
566.87	26235.06
567.03	25979.95
567.19	26487.84
567.36	26040.80
567.52	26176.55
567.68	26527.63
567.85	26202.30
568.01	26401.24
568.17	25933.14
568.34	26094.63
568.50	26122.72
568.66	25984.63
568.83	26202.30
568.99	25986.97
569.15	25942.50
569.32	26029.10
569.48	26129.74
569.64	25687.38
569.81	25935.48
569.97	25993.99
570.13	26197.62
570.30	25867.60
570.46	25970.58
570.62	26588.49
570.78	25968.24
570.95	26122.72
571.11	26232.72
571.27	25820.79
571.43	25998.67
571.60	26228.04
571.76	26253.79
571.92	25919.09
572.09	26230.38
572.25	26415.29
572.41	26511.25
572.57	26614.23
572.74	26333.37
572.90	26281.88
573.06	26614.23
573.22	26471.46
573.38	26263.15
573.55	26089.95
573.71	26419.97
573.87	26401.24
574.03	26127.40
574.20	26511.25
574.36	26230.38
574.52	26354.43
574.68	26057.18
574.84	26405.92
575.01	26022.08
575.17	26274.85
575.33	26209.32
575.49	26089.95
575.65	26403.58
575.82	26197.62
575.98	26373.16
576.14	26356.77
576.30	26389.54
576.46	26281.88
576.62	26209.32
576.79	26307.62
576.95	26209.32
577.11	26281.88
577.27	26625.93
577.43	26448.05
577.59	26324.01
577.75	26424.65
577.92	26328.69
578.08	26265.49
578.24	26223.36
578.40	26780.41
578.56	26403.58
578.72	26733.60
578.88	26859.99
579.04	26686.79
579.21	26635.30
579.37	26307.62
579.53	26501.89
579.69	26452.73
579.85	26127.40
580.01	26572.10
580.17	26586.15
580.33	26630.62
580.49	26431.67
580.65	26742.96
580.82	26838.92
580.98	26611.89
581.14	26632.96
581.30	26293.58
581.46	26267.83
581.62	27068.30
581.78	26277.19
581.94	26422.31
582.10	26415.29
582.26	26324.01
582.42	26733.60
582.58	26490.18
582.74	26265.49
582.90	26740.62
583.06	26302.94
583.22	26249.11
583.38	26567.42
583.54	26412.95
583.70	26469.12
583.86	26944.25
584.02	26380.18
584.18	26546.36
584.34	26726.58
584.50	26532.31
584.66	26366.13
584.82	26492.52
584.98	26813.18
585.14	26412.95
585.30	26307.62
585.46	26630.62
585.62	26373.16
585.78	26661.04
585.94	26831.90
586.10	26644.66
586.26	26778.07
586.42	26960.63
586.58	26864.67
586.74	26911.48
586.90	26389.54
587.06	26515.93
587.22	26925.52
587.38	26654.02
587.54	26749.98
587.70	26801.47
587.86	26522.95
588.02	26857.65
588.18	26707.85
588.34	26520.61
588.49	26689.13
588.65	26204.64
588.81	26803.82
588.97	26536.99
589.13	26494.86
589.29	26611.89
589.45	26836.58
589.61	26829.56
589.77	26792.11
589.93	26651.68
590.08	26859.99
590.24	26909.14
590.40	26513.59
590.56	26869.35
590.72	26710.19
