SpectraSuite Data File
++++++++++++++++++++++++++++++++++++
Date: Thu Oct 24 13:21:21 EDT 2013
User: stostad
Dark Spectrum Present: No
Reference Spectrum Present: No
Number of Sampled Component Spectra: 1
Spectrometers: USB2+H05261
Integration Time (usec): 100000 (USB2+H05261)
Spectra Averaged: 1 (USB2+H05261)
Boxcar Smoothing: 0 (USB2+H05261)
Correct for Electrical Dark: No (USB2+H05261)
Strobe/Lamp Enabled: No (USB2+H05261)
Correct for Detector Non-linearity: No (USB2+H05261)
Correct for Stray Light: No (USB2+H05261)
Number of Pixels in Processed Spectrum: 2048
>>>>>Begin Processed Spectral Data<<<<<
365.73	608.54
365.92	608.54
366.12	608.54
366.32	470.45
366.52	447.04
366.72	505.56
366.91	447.04
367.11	477.47
367.31	454.06
367.51	456.40
367.70	486.83
367.90	524.28
368.10	493.85
368.30	510.24
368.49	435.34
368.69	514.92
368.89	454.06
369.09	486.83
369.28	519.60
369.48	514.92
369.68	524.28
369.87	526.62
370.07	463.43
370.27	606.20
370.47	645.99
370.66	837.91
370.86	835.57
371.06	842.59
371.25	901.11
371.45	924.51
371.65	851.96
371.84	992.39
372.04	919.83
372.24	912.81
372.44	849.61
372.63	938.55
372.83	915.15
373.03	959.62
373.22	997.07
373.42	1022.81
373.62	1050.90
373.81	943.24
374.01	947.92
374.21	1053.24
374.40	1029.84
374.60	945.58
374.79	1006.43
374.99	1055.58
375.19	964.30
375.38	999.41
375.58	1022.81
375.78	1158.57
375.97	1074.31
376.17	1146.86
376.37	1095.37
376.56	1114.10
376.76	992.39
376.95	1128.14
377.15	978.34
377.35	1029.84
377.54	1163.25
377.74	1156.22
377.93	1123.46
378.13	1104.73
378.33	1095.37
378.52	1114.10
378.72	1095.37
378.91	1088.35
379.11	1086.01
379.31	1100.05
379.50	1163.25
379.70	1151.54
379.89	1071.97
380.09	1114.10
380.28	1158.57
380.48	1245.16
380.68	1123.46
380.87	1149.20
381.07	1212.40
381.26	1240.48
381.46	1109.41
381.65	1132.82
381.85	1165.59
382.04	1186.65
382.24	1268.57
382.43	1196.01
382.63	1205.38
382.83	1170.27
383.02	1238.14
383.22	1289.64
383.41	1235.80
383.61	1235.80
383.80	1242.82
384.00	1247.51
384.19	1238.14
384.39	1259.21
384.58	1313.04
384.78	1249.85
384.97	1277.93
385.17	1268.57
385.36	1242.82
385.56	1245.16
385.75	1247.51
385.95	1359.85
386.14	1350.49
386.34	1263.89
386.53	1411.34
386.72	1238.14
386.92	1294.32
387.11	1411.34
387.31	1320.06
387.50	1397.30
387.70	1479.22
387.89	1364.53
388.09	1350.49
388.28	1371.55
388.48	1352.83
388.67	1355.17
388.86	1437.09
389.06	1387.94
389.25	1495.60
389.45	1369.21
389.64	1493.26
389.84	1427.73
390.03	1451.13
390.22	1462.83
390.42	1392.62
390.61	1448.79
390.81	1434.75
391.00	1474.54
391.19	1514.33
391.39	1500.28
391.58	1530.71
391.78	1474.54
391.97	1500.28
392.16	1547.09
392.36	1568.16
392.55	1549.43
392.75	1650.08
392.94	1598.59
393.13	1614.97
393.33	1589.22
393.52	1603.27
393.71	1654.76
393.91	1554.12
394.10	1664.12
394.29	1558.80
394.49	1572.84
394.68	1650.08
394.88	1617.31
395.07	1629.01
395.26	1727.32
395.46	1626.67
395.65	1687.53
395.84	1680.50
396.04	1710.93
396.23	1764.76
396.42	1739.02
396.62	1797.53
396.81	1799.87
397.00	1732.00
397.19	1846.68
397.39	1722.63
397.58	1788.17
397.77	1694.55
397.97	1710.93
398.16	1844.34
398.35	1825.62
398.55	1874.77
398.74	1940.30
398.93	1928.60
399.12	1881.79
399.32	1858.39
399.51	1820.94
399.70	1909.88
399.90	1916.90
400.09	1919.24
400.28	1860.73
400.47	1863.07
400.67	1994.14
400.86	2090.10
401.05	1898.17
401.24	2043.29
401.44	2017.54
401.63	2111.16
401.82	2094.78
402.01	2043.29
402.21	2162.66
402.40	2087.76
402.59	2183.72
402.78	2097.12
402.97	2160.31
403.17	2256.28
403.36	2246.91
403.55	2317.13
403.74	2244.57
403.93	2239.89
404.13	2305.43
404.32	2319.47
404.51	2349.90
404.70	2317.13
404.89	2270.32
405.09	2319.47
405.28	2335.85
405.47	2361.60
405.66	2438.84
405.85	2359.26
406.05	2385.01
406.24	2342.88
406.43	2401.39
406.62	2441.18
406.81	2485.65
407.00	2497.35
407.20	2382.67
407.39	2326.49
407.58	2490.33
407.77	2478.63
407.96	2544.16
408.15	2502.03
408.34	2527.78
408.54	2684.59
408.73	2626.08
408.92	2609.70
409.11	2612.04
409.30	2616.72
409.49	2726.72
409.68	2679.91
409.87	2792.26
410.07	2787.58
410.26	2754.81
410.45	2764.17
410.64	2808.64
410.83	2862.48
411.02	2909.29
411.21	2876.52
411.40	2899.92
411.59	2965.46
411.78	3023.97
411.98	2885.88
412.17	2946.73
412.36	2977.16
412.55	3115.25
412.74	3131.64
412.93	3012.27
413.12	3002.91
413.31	3222.92
413.50	3234.62
413.69	3251.00
413.88	3279.09
414.07	3220.58
414.26	3279.09
414.45	3421.86
414.64	3344.63
414.83	3365.69
415.02	3339.94
415.22	3375.05
415.41	3433.57
415.60	3552.93
415.79	3548.25
415.98	3613.79
416.17	3660.60
416.36	3452.29
416.55	3503.78
416.74	3714.43
416.93	3648.90
417.12	3742.52
417.31	3700.39
417.50	3637.19
417.69	3751.88
417.88	3726.13
418.07	3836.14
418.26	3805.71
418.45	3873.59
418.64	3887.63
418.83	4042.11
419.02	3946.14
419.21	3854.86
419.39	4051.47
419.58	3887.63
419.77	3838.48
419.96	4154.45
420.15	4079.55
420.34	4212.96
420.53	4037.42
420.72	4107.64
420.91	4149.77
421.10	4058.49
421.29	4142.75
421.48	3948.48
421.67	4177.86
421.86	4152.11
422.05	4210.62
422.24	4245.73
422.43	4299.56
422.61	4393.19
422.80	4334.67
422.99	4292.54
423.18	4301.90
423.37	4395.53
423.56	4250.41
423.75	4255.09
423.94	4189.56
424.13	4124.02
424.32	4189.56
424.50	4332.33
424.69	4400.21
424.88	4435.32
425.07	4280.84
425.26	4290.20
425.45	4421.27
425.64	4374.46
425.83	4297.22
426.01	4348.72
426.20	4348.72
426.39	4409.57
426.58	4505.53
426.77	4353.40
426.96	4461.06
427.15	4400.21
427.33	4484.47
427.52	4407.23
427.71	4645.96
427.90	4496.17
428.09	4559.36
428.28	4535.96
428.46	4486.81
428.65	4475.10
428.84	4634.26
429.03	4741.93
429.22	4711.50
429.40	4812.14
429.59	4779.37
429.78	4559.36
429.97	4484.47
430.16	4711.50
430.34	4713.84
430.53	4734.90
430.72	4903.42
430.91	4589.79
431.10	4746.61
431.28	5142.16
431.47	4997.04
431.66	5156.20
431.85	4992.36
432.03	5085.98
432.22	5132.79
432.41	5057.90
432.60	5006.41
432.79	5011.09
432.97	5043.85
433.16	5156.20
433.35	5172.58
433.54	5191.31
433.72	5411.32
433.91	5280.25
434.10	5177.26
434.28	5062.58
434.47	5224.08
434.66	5259.18
434.85	5490.90
435.03	5589.20
435.22	5516.64
435.41	5774.10
435.59	5692.18
435.78	5727.29
435.97	5659.42
436.16	5481.53
436.34	5607.92
436.53	5432.38
436.72	5823.25
436.90	5547.07
437.09	5626.65
437.28	5607.92
437.46	5521.32
437.65	5680.48
437.84	5572.82
438.02	5673.46
438.21	5785.80
438.40	5818.57
438.58	6010.50
438.77	5886.45
438.96	5919.21
439.14	5954.32
439.33	6050.28
439.52	6017.52
439.70	6190.72
439.89	6244.55
440.08	6214.12
440.26	6099.44
440.45	6146.25
440.63	6354.55
440.82	6286.68
441.01	6403.71
441.19	6464.56
441.38	6356.90
441.57	6471.58
441.75	6483.28
441.94	6534.78
442.12	6684.57
442.31	6789.89
442.50	6675.21
442.68	6661.16
442.87	6724.36
443.05	6841.39
443.24	6911.60
443.43	6850.75
443.61	6785.21
443.80	7047.35
443.98	6700.95
444.17	6539.46
444.35	6881.18
444.54	6974.80
444.73	7040.33
444.91	6984.16
445.10	7021.61
445.28	6977.14
445.47	6951.39
445.65	7035.65
445.84	6890.54
446.02	7098.84
446.21	7073.10
446.39	6967.77
446.58	7117.57
446.77	6923.30
446.95	6939.69
447.14	7094.16
447.32	7290.77
447.51	7066.08
447.69	6916.28
447.88	7052.03
448.06	7115.23
448.25	7070.76
448.43	7337.58
448.62	7119.91
448.80	7178.42
448.99	7222.89
449.17	7225.23
449.36	7166.72
449.54	7454.61
449.73	7405.46
449.91	7550.57
450.10	7318.86
450.28	7417.16
450.46	7269.70
450.65	7569.29
450.83	7557.59
451.02	7627.81
451.20	7550.57
451.39	7602.06
451.57	7747.17
451.76	7700.36
451.94	7508.44
452.13	7744.83
452.31	7740.15
452.49	7686.32
452.68	7728.45
452.86	7676.96
453.05	7758.88
453.23	7812.71
453.42	7831.43
453.60	7683.98
453.78	7918.03
453.97	7845.48
454.15	7798.66
454.34	7698.02
454.52	8058.46
454.70	7999.95
454.89	8140.38
455.07	7791.64
455.26	8142.72
455.44	8362.73
455.62	8079.53
455.81	8112.30
455.99	8269.11
456.17	8383.80
456.36	8334.65
456.54	8421.25
456.73	8432.95
456.91	8552.32
457.09	8540.61
457.28	8643.60
457.46	8505.51
457.64	8568.70
457.83	8683.39
458.01	8774.67
458.19	8692.75
458.38	8725.52
458.56	8807.44
458.74	8791.05
458.93	8833.18
459.11	8840.20
459.29	9008.72
459.48	8959.57
459.66	8994.68
459.84	8954.89
460.03	9076.60
460.21	8978.30
460.39	8971.27
460.57	9029.79
460.76	9210.01
460.94	9104.68
461.12	9071.92
461.31	9179.58
461.49	9324.69
461.67	9111.71
461.85	9359.80
462.04	9240.44
462.22	9813.87
462.40	9387.89
462.59	9528.32
462.77	9465.13
462.95	9856.00
463.13	9598.54
463.32	9516.62
463.50	9664.07
463.68	9708.54
463.86	9715.56
464.05	9437.04
464.23	9586.83
464.41	9582.15
464.59	9472.15
464.78	9856.00
464.96	9661.73
465.14	9596.20
465.32	9905.15
465.50	9745.99
465.69	9970.68
465.87	9856.00
466.05	9905.15
466.23	10005.79
466.41	9926.21
466.60	10146.22
466.78	9987.07
466.96	9881.74
467.14	10143.88
467.32	9966.00
467.51	10146.22
467.69	9884.08
467.87	10050.26
468.05	10307.72
468.23	10118.14
468.41	10141.54
468.60	10232.82
468.78	10520.71
468.96	10190.69
469.14	10134.52
469.32	10640.08
469.50	10291.34
469.69	10712.63
469.87	10633.05
470.05	10771.15
470.23	10740.72
470.41	10827.32
470.59	10633.05
470.77	10752.42
470.95	10810.93
471.14	11028.60
471.32	10569.86
471.50	10764.12
471.68	11044.99
471.86	10988.82
472.04	10885.83
472.22	11213.51
472.40	10878.81
472.58	11239.25
472.77	11311.81
472.95	11372.66
473.13	11726.08
473.31	11447.56
473.49	11517.78
473.67	11456.92
473.85	11566.93
474.03	11819.71
474.21	11918.01
474.39	11997.59
474.57	11714.38
474.75	11988.22
474.93	12145.04
475.12	11810.34
475.30	12212.92
475.48	12245.68
475.66	12266.75
475.84	12161.42
476.02	12430.59
476.20	12463.35
476.38	12578.04
476.56	12823.80
476.74	12938.48
476.92	12704.43
477.10	12924.44
477.28	12891.67
477.46	12908.05
477.64	13088.28
477.82	13137.43
478.00	13600.85
478.18	13617.24
478.36	13640.64
478.54	13682.77
478.72	13902.78
478.90	13694.47
479.08	13919.17
479.26	14506.64
479.44	14312.38
479.62	14319.40
479.80	14331.10
479.98	14340.46
480.16	15026.24
480.34	14785.16
480.52	14862.40
480.70	14869.42
480.88	14789.85
481.06	15105.82
481.24	15077.73
481.41	15187.74
481.59	15527.11
481.77	15796.28
481.95	15524.77
482.13	15957.77
482.31	15822.02
482.49	16212.89
482.67	16290.13
482.85	16411.84
483.03	16540.57
483.21	16877.60
483.39	16938.46
483.57	16732.49
483.74	16781.64
483.92	17160.81
484.10	16961.86
484.28	17446.35
484.46	17511.89
484.64	18197.67
484.82	17432.31
485.00	17731.90
485.18	17933.18
485.35	18197.67
485.53	18331.08
485.71	18625.98
485.89	18761.73
486.07	18651.73
486.25	18750.03
486.43	18637.69
486.61	18934.93
486.78	19061.32
486.96	19122.18
487.14	19669.86
487.32	19428.79
487.50	19927.32
487.68	19995.20
487.85	20325.21
488.03	20320.53
488.21	20695.02
488.39	20856.51
488.57	20608.42
488.75	20615.44
488.92	20795.66
489.10	21149.08
489.28	21418.24
489.46	21551.65
489.64	21460.37
489.81	21649.96
489.99	22169.55
490.17	22066.57
490.35	22309.99
490.53	22527.66
490.70	22497.23
490.88	22473.82
491.06	22904.48
491.24	22927.89
491.41	22705.54
491.59	23051.94
491.77	23267.27
491.95	23461.53
492.13	23669.84
492.30	23674.52
492.48	23740.05
492.66	23903.89
492.84	23974.11
493.01	24341.57
493.19	24460.94
493.37	24781.59
493.54	24870.53
493.72	24886.92
493.90	24594.35
494.08	25188.85
494.25	25165.44
494.43	25502.48
494.61	25750.57
494.79	25783.34
494.96	25865.26
495.14	25778.66
495.32	26466.78
495.49	26197.62
495.67	26544.02
495.85	26679.77
496.02	26485.50
496.20	26665.72
496.38	26735.94
496.55	27101.06
496.73	27573.85
496.91	27531.72
497.09	27505.98
497.26	27686.20
497.44	27641.73
497.62	27510.66
497.79	28236.22
497.97	28056.00
498.14	28566.24
498.32	28793.27
498.50	28615.39
498.67	29151.37
498.85	29060.09
499.03	28755.82
499.20	28943.06
499.38	28884.55
499.56	29472.03
499.73	29357.34
499.91	29619.48
500.08	29593.73
500.26	29628.84
500.44	29823.11
500.61	30125.04
500.79	29979.92
500.97	30045.46
501.14	30288.87
501.32	30387.18
501.49	30567.40
501.67	30586.12
501.84	30909.11
502.02	31112.74
502.20	31016.78
502.37	31325.73
502.55	30899.75
502.72	31374.88
502.90	30951.24
503.07	31236.79
503.25	31342.11
503.43	31065.93
503.60	32067.68
503.78	31637.02
503.95	31772.77
504.13	31718.94
504.30	31866.39
504.48	31772.77
504.65	32400.04
504.83	32821.33
505.01	32856.44
505.18	32414.08
505.36	32479.61
505.53	32594.30
505.71	32947.72
505.88	33202.84
506.06	32978.15
506.23	33586.69
506.41	33362.00
506.58	33076.45
506.76	33684.99
506.93	33912.02
507.11	33535.20
507.28	33472.00
507.46	33830.10
507.63	34356.72
507.81	34424.60
507.98	33937.77
508.16	33972.88
508.33	34609.50
508.50	34642.27
508.68	34656.31
508.85	34941.86
509.03	34501.84
509.20	34749.93
509.38	35154.85
509.55	35627.63
509.73	35328.05
509.90	35613.59
510.08	35431.03
510.25	35637.00
510.42	35433.37
510.60	35442.73
510.77	35672.10
510.95	36280.64
511.12	35697.85
511.30	36407.03
511.47	36849.39
511.64	36378.95
511.82	36891.52
511.99	35983.40
512.17	36652.79
512.34	36725.35
512.51	37156.00
512.69	37427.51
512.86	37134.94
513.04	37254.31
513.21	37088.13
513.38	37097.49
513.56	37053.02
513.73	37296.44
513.90	37738.80
514.08	37757.52
514.25	37794.97
514.43	37940.08
514.60	38148.39
514.77	37888.59
514.95	38094.56
515.12	38057.11
515.29	38244.35
515.47	38522.88
515.64	38637.56
515.81	38532.24
515.99	38459.68
516.16	38880.98
516.33	38459.68
516.51	39033.11
516.68	38747.57
516.85	38906.73
517.03	38955.88
517.20	39482.50
517.37	39604.20
517.54	39643.99
517.72	39283.55
517.89	39124.40
518.06	39625.27
518.24	39213.34
518.41	39700.17
518.58	39608.89
518.75	39655.70
518.93	39648.68
519.10	39868.69
519.27	40165.93
519.45	39924.86
519.62	40575.53
519.79	40491.27
519.96	40130.83
520.14	40634.04
520.31	39943.58
520.48	40367.22
520.65	40685.53
520.83	40928.95
521.00	41273.01
521.17	41181.73
521.34	40893.84
521.52	41060.02
521.69	41132.57
521.86	40870.43
522.03	41333.86
522.20	41869.84
522.38	41818.35
522.55	42000.91
522.72	41537.49
522.89	41698.98
523.07	42117.94
523.24	41603.02
523.41	42064.11
523.58	41713.03
523.75	42417.53
523.92	42279.44
524.10	42323.91
524.27	42249.01
524.44	42171.77
524.61	42876.27
524.78	42452.64
524.96	43068.20
525.13	42930.11
525.30	42890.32
525.47	43306.93
525.64	43140.75
525.81	43175.86
525.98	42932.45
526.16	42944.15
526.33	43117.35
526.50	43384.17
526.67	43377.15
526.84	43384.17
527.01	43536.30
527.18	43653.33
527.36	43491.83
527.53	43552.69
527.70	43934.20
527.87	44210.38
528.04	43990.37
528.21	44208.04
528.38	44224.42
528.55	44556.78
528.72	44072.29
528.89	44505.29
529.07	43768.02
529.24	44107.40
529.41	44659.76
529.58	44734.66
529.75	44648.06
529.92	44383.58
530.09	44247.83
530.26	44252.51
530.43	44751.04
530.60	44715.93
530.77	44697.21
530.94	45310.43
531.11	45237.87
531.28	45095.10
531.46	45860.46
531.63	44933.60
531.80	45081.06
531.97	45123.19
532.14	45361.92
532.31	45411.07
532.48	46087.49
532.65	45865.14
532.82	45373.63
532.99	45450.86
533.16	45649.81
533.33	45804.28
533.50	45701.30
533.67	45654.49
533.84	45911.95
534.01	45773.86
534.18	45944.72
534.35	46557.94
534.52	46115.58
534.69	46148.34
534.86	46351.97
535.03	46239.62
535.20	46555.60
535.37	46667.94
535.54	47173.50
535.71	46497.08
535.88	46581.34
536.05	46763.90
536.22	46967.53
536.38	46953.49
536.55	47068.17
536.72	47299.89
536.89	47332.65
537.06	47339.68
537.23	47412.23
537.40	47707.14
537.57	47351.38
537.74	47033.07
537.91	48011.41
538.08	47398.19
538.25	46995.62
538.42	47414.57
538.59	47690.76
538.75	47150.09
538.92	47695.44
539.09	47657.99
539.26	47477.77
539.43	47547.98
539.60	47847.57
539.77	47772.67
539.94	48343.77
540.11	48409.30
540.28	48170.57
540.44	48051.20
540.61	48257.17
540.78	48009.07
540.95	48357.81
541.12	48065.24
541.29	48718.25
541.46	48790.81
541.62	48296.95
541.79	49256.57
541.96	48133.12
542.13	48690.16
542.30	48980.39
542.47	48776.76
542.63	48566.12
542.80	49111.46
542.97	49483.61
543.14	49361.90
543.31	49305.73
543.48	49336.15
543.64	49469.56
543.81	49563.18
543.98	49296.36
544.15	49635.74
544.32	49471.90
544.48	50122.57
544.65	49808.94
544.82	50024.27
544.99	49291.68
545.16	49741.06
545.32	49787.88
545.49	50237.26
545.66	50199.81
545.83	50667.92
546.00	50583.66
546.16	50443.23
546.33	50171.72
546.50	50021.93
546.67	50066.40
546.83	49397.01
547.00	50031.29
547.17	49469.56
547.34	50291.09
547.50	50422.16
547.67	50522.80
547.84	50471.31
548.00	50616.43
548.17	50560.25
548.34	50614.08
548.51	50251.30
548.67	50464.29
548.84	50286.41
549.01	50412.80
549.18	50698.34
549.34	50726.43
549.51	50962.82
549.68	50904.31
549.84	50857.50
550.01	50724.09
550.18	50398.76
550.34	50836.44
550.51	50628.13
550.68	50841.12
550.84	50562.59
551.01	51124.32
551.18	50908.99
551.34	50656.21
551.51	50726.43
551.68	50796.65
551.84	50932.40
552.01	50986.23
552.18	51374.76
552.34	50768.56
552.51	51667.33
552.68	51332.63
552.84	51370.08
553.01	51672.01
553.18	51178.15
553.34	51194.54
553.51	51435.61
553.67	51585.41
553.84	51782.01
554.01	51716.48
554.17	51477.74
554.34	51625.20
554.51	51868.61
554.67	51796.06
554.84	51583.07
555.00	51419.23
555.17	51452.00
555.33	51433.27
555.50	51304.54
555.67	51854.57
555.83	51978.62
556.00	51957.55
556.16	52009.04
556.33	52030.11
556.50	51709.46
556.66	52278.21
556.83	51938.83
556.99	52526.30
557.16	52142.45
557.32	52137.77
557.49	52158.84
557.65	52048.83
557.82	52088.62
557.98	52177.56
558.15	51800.74
558.32	52423.32
558.48	52086.28
558.65	52072.24
558.81	52126.07
558.98	52615.24
559.14	52467.79
559.31	52257.14
559.47	52240.76
559.64	52240.76
559.80	52210.33
559.97	52538.01
560.13	52065.22
560.30	52133.09
560.46	52507.58
560.63	52486.51
560.79	52397.57
560.96	52931.22
561.12	52629.29
561.29	52711.20
561.45	52622.26
561.61	52818.87
561.78	52535.66
561.94	52713.55
562.11	52987.39
562.27	53027.18
562.44	52921.85
562.60	53015.47
562.77	52643.33
562.93	52664.39
563.10	53097.39
563.26	52617.58
563.42	53017.82
563.59	52626.95
563.75	52903.13
563.92	53003.77
564.08	52795.46
564.24	52556.73
564.41	52729.93
564.57	52980.37
564.74	52846.96
564.90	53083.35
565.07	53209.74
565.23	53167.61
565.39	53127.82
565.56	53221.44
565.72	52989.73
565.88	53499.97
566.05	52928.87
566.21	52666.73
566.38	53057.60
566.54	52802.49
566.70	53193.36
566.87	53109.10
567.03	53193.36
567.19	53689.55
567.36	53563.16
567.52	53081.01
567.68	53413.37
567.85	53106.76
568.01	53427.41
568.17	52924.19
568.34	53490.60
568.50	53088.03
568.66	53375.92
568.83	53340.81
568.99	53125.48
569.15	53085.69
569.32	53371.24
569.48	53310.38
569.64	53216.76
569.81	53055.26
569.97	53078.67
570.13	53471.88
570.30	53294.00
570.46	53535.07
570.62	53272.93
570.78	53223.78
570.95	53207.40
571.11	53429.75
571.27	53394.64
571.43	53333.79
571.60	53155.91
571.76	53380.60
571.92	53614.65
572.09	53415.71
572.25	53794.87
572.41	53731.68
572.57	53757.42
572.74	53609.97
572.90	53408.68
573.06	53457.84
573.22	53200.38
573.38	53624.01
573.55	53612.31
573.71	54120.21
573.87	53371.24
574.03	53453.15
574.20	53558.48
574.36	53766.79
574.52	53851.05
574.68	53649.76
574.84	53684.87
575.01	53717.64
575.17	53474.22
575.33	53766.79
575.49	53874.45
575.65	53579.54
575.82	53556.14
575.98	53642.74
576.14	53708.27
576.30	53631.04
576.46	53619.33
576.62	53652.10
576.79	53333.79
576.95	53572.52
577.11	53804.24
577.27	53647.42
577.43	53595.93
577.59	53764.45
577.75	53773.81
577.92	53584.22
578.08	53277.61
578.24	53661.46
578.40	54047.65
578.56	53848.71
578.72	53886.15
578.88	53954.03
579.04	53925.94
579.21	53785.51
579.37	54075.74
579.53	53996.16
579.69	53762.11
579.85	53717.64
580.01	53799.55
580.17	53998.50
580.33	53909.56
580.49	53687.21
580.65	53881.47
580.82	54171.70
580.98	54071.06
581.14	53736.36
581.30	53907.22
581.46	53799.55
581.62	53621.67
581.78	54045.31
581.94	54028.93
582.10	53785.51
582.26	53937.65
582.42	53855.73
582.58	53640.40
582.74	53752.74
582.90	53958.71
583.06	53811.26
583.22	53975.09
583.38	53734.02
583.54	53764.45
583.70	53879.13
583.86	53909.56
584.02	53792.53
584.18	53876.79
584.34	54064.03
584.50	53939.99
584.66	54031.27
584.82	53401.66
584.98	54148.29
585.14	53942.33
585.30	53787.85
585.46	54138.93
585.62	53708.27
585.78	54511.08
585.94	54141.27
586.10	54042.97
586.26	54127.23
586.42	54443.20
586.58	54106.16
586.74	54293.41
586.90	53975.09
587.06	53853.39
587.22	54216.17
587.38	54052.33
587.54	54248.94
587.70	54459.58
587.86	54351.92
588.02	54328.52
588.18	54564.91
588.34	54319.15
588.49	54103.82
588.65	54075.74
588.81	54312.13
