SpectraSuite Data File
++++++++++++++++++++++++++++++++++++
Date: Thu Oct 24 13:21:12 EDT 2013
User: stostad
Dark Spectrum Present: No
Reference Spectrum Present: No
Number of Sampled Component Spectra: 1
Spectrometers: USB2+H05261
Integration Time (usec): 100000 (USB2+H05261)
Spectra Averaged: 1 (USB2+H05261)
Boxcar Smoothing: 0 (USB2+H05261)
Correct for Electrical Dark: No (USB2+H05261)
Strobe/Lamp Enabled: No (USB2+H05261)
Correct for Detector Non-linearity: No (USB2+H05261)
Correct for Stray Light: No (USB2+H05261)
Number of Pixels in Processed Spectrum: 2048
>>>>>Begin Processed Spectral Data<<<<<
365.73	606.20
365.92	606.20
366.12	606.20
366.32	430.66
366.52	489.17
366.72	484.49
366.91	510.24
367.11	393.21
367.31	433.00
367.51	395.55
367.70	493.85
367.90	489.17
368.10	477.47
368.30	503.22
368.49	397.89
368.69	442.36
368.89	449.38
369.09	475.13
369.28	571.09
369.48	507.90
369.68	472.79
369.87	557.05
370.07	528.96
370.27	620.24
370.47	540.66
370.66	685.78
370.86	671.73
371.06	720.88
371.25	711.52
371.45	716.20
371.65	711.52
371.84	744.29
372.04	716.20
372.24	784.08
372.44	774.72
372.63	826.21
372.83	826.21
373.03	758.33
373.22	739.61
373.42	746.63
373.62	784.08
373.81	746.63
374.01	884.72
374.21	788.76
374.40	826.21
374.60	828.55
374.79	774.72
374.99	779.40
375.19	868.34
375.38	837.91
375.58	877.70
375.78	842.59
375.97	901.11
376.17	880.04
376.37	917.49
376.56	767.70
376.76	847.27
376.95	856.64
377.15	849.61
377.35	828.55
377.54	802.80
377.74	819.19
377.93	887.06
378.13	858.98
378.33	884.72
378.52	863.66
378.72	828.55
378.91	858.98
379.11	861.32
379.31	812.17
379.50	849.61
379.70	828.55
379.89	816.85
380.09	917.49
380.28	830.89
380.48	889.40
380.68	840.25
380.87	863.66
381.07	873.02
381.26	877.70
381.46	887.06
381.65	819.19
381.85	910.47
382.04	856.64
382.24	875.36
382.43	870.68
382.63	856.64
382.83	786.42
383.02	830.89
383.22	854.30
383.41	891.74
383.61	924.51
383.80	929.19
384.00	891.74
384.19	919.83
384.39	938.55
384.58	842.59
384.78	847.27
384.97	931.53
385.17	901.11
385.36	875.36
385.56	908.13
385.75	842.59
385.95	856.64
386.14	978.34
386.34	894.08
386.53	903.45
386.72	884.72
386.92	933.87
387.11	966.64
387.31	952.60
387.50	936.21
387.70	866.00
387.89	908.13
388.09	870.68
388.28	990.05
388.48	922.17
388.67	945.58
388.86	952.60
389.06	997.07
389.25	1001.75
389.45	1029.84
389.64	983.02
389.84	1053.24
390.03	954.94
390.22	980.68
390.42	894.08
390.61	999.41
390.81	903.45
391.00	950.26
391.19	978.34
391.39	1043.88
391.58	1029.84
391.78	961.96
391.97	994.73
392.16	990.05
392.36	1139.84
392.55	1074.31
392.75	983.02
392.94	1053.24
393.13	1090.69
393.33	1027.50
393.52	1109.41
393.71	1104.73
393.91	1027.50
394.10	1083.67
394.29	1055.58
394.49	978.34
394.68	1081.33
394.88	1053.24
395.07	1043.88
395.26	1139.84
395.46	1032.18
395.65	1123.46
395.84	1132.82
396.04	1142.18
396.23	1104.73
396.42	1177.29
396.62	1156.22
396.81	1116.44
397.00	1114.10
397.19	1196.01
397.39	1174.95
397.58	1104.73
397.77	1142.18
397.97	1142.18
398.16	1118.78
398.35	1219.42
398.55	1259.21
398.74	1238.14
398.93	1167.93
399.12	1193.67
399.32	1132.82
399.51	1196.01
399.70	1240.48
399.90	1203.04
400.09	1233.46
400.28	1203.04
400.47	1207.72
400.67	1277.93
400.86	1249.85
401.05	1277.93
401.24	1219.42
401.44	1289.64
401.63	1165.59
401.82	1291.98
402.01	1233.46
402.21	1266.23
402.40	1331.76
402.59	1254.53
402.78	1219.42
402.97	1331.76
403.17	1291.98
403.36	1306.02
403.55	1369.21
403.74	1350.49
403.93	1420.71
404.13	1411.34
404.32	1315.38
404.51	1336.45
404.70	1406.66
404.89	1516.67
405.09	1392.62
405.28	1460.49
405.47	1385.60
405.66	1448.79
405.85	1411.34
406.05	1378.58
406.24	1376.24
406.43	1371.55
406.62	1511.99
406.81	1540.07
407.00	1472.20
407.20	1490.92
407.39	1448.79
407.58	1561.14
407.77	1451.13
407.96	1542.41
408.15	1495.60
408.34	1519.01
408.54	1603.27
408.73	1570.50
408.92	1575.18
409.11	1572.84
409.30	1556.46
409.49	1549.43
409.68	1586.88
409.87	1490.92
410.07	1605.61
410.26	1568.16
410.45	1614.97
410.64	1568.16
410.83	1678.16
411.02	1617.31
411.21	1687.53
411.40	1722.63
411.59	1734.34
411.78	1614.97
411.98	1729.66
412.17	1734.34
412.36	1689.87
412.55	1748.38
412.74	1778.81
412.93	1724.97
413.12	1757.74
413.31	1729.66
413.50	1755.40
413.69	1715.61
413.88	1832.64
414.07	1863.07
414.26	1802.21
414.45	1872.43
414.64	1860.73
414.83	1900.52
415.02	1820.94
415.22	1856.04
415.41	1865.41
415.60	1921.58
415.79	1937.96
415.98	2033.93
416.17	1975.41
416.36	1954.35
416.55	1949.67
416.74	2012.86
416.93	1975.41
417.12	2015.20
417.31	2012.86
417.50	2078.40
417.69	2125.21
417.88	2129.89
418.07	1944.99
418.26	2066.69
418.45	2108.82
418.64	2143.93
418.83	2183.72
419.02	2176.70
419.21	2162.66
419.39	2230.53
419.58	2108.82
419.77	2108.82
419.96	2134.57
420.15	2218.83
420.34	2127.55
420.53	2249.25
420.72	2394.37
420.91	2223.51
421.10	2246.91
421.29	2363.94
421.48	2275.00
421.67	2317.13
421.86	2286.70
422.05	2282.02
422.24	2242.23
422.43	2326.49
422.61	2345.22
422.80	2324.15
422.99	2310.11
423.18	2392.03
423.37	2342.88
423.56	2267.98
423.75	2396.71
423.94	2338.20
424.13	2204.78
424.32	2300.75
424.50	2356.92
424.69	2373.30
424.88	2399.05
425.07	2319.47
425.26	2314.79
425.45	2392.03
425.64	2289.04
425.83	2396.71
426.01	2237.55
426.20	2272.66
426.39	2443.52
426.58	2377.98
426.77	2417.77
426.96	2375.64
427.15	2363.94
427.33	2541.82
427.52	2443.52
427.71	2420.11
427.90	2389.69
428.09	2480.97
428.28	2410.75
428.46	2480.97
428.65	2504.37
428.84	2513.74
429.03	2504.37
429.22	2396.71
429.40	2534.80
429.59	2562.89
429.78	2480.97
429.97	2492.67
430.16	2466.92
430.34	2495.01
430.53	2595.65
430.72	2602.68
430.91	2670.55
431.10	2593.31
431.28	2670.55
431.47	2640.12
431.66	2736.09
431.85	2583.95
432.03	2722.04
432.22	2705.66
432.41	2605.02
432.60	2679.91
432.79	2761.83
432.97	2752.47
433.16	2733.75
433.35	2747.79
433.54	2696.30
433.72	2708.00
433.91	2768.85
434.10	2792.26
434.28	2679.91
434.47	2726.72
434.66	2867.16
434.85	2874.18
435.03	2977.16
435.22	3112.91
435.41	3122.27
435.59	3251.00
435.78	3082.49
435.97	3117.59
436.16	2998.23
436.34	2874.18
436.53	2918.65
436.72	2904.60
436.90	2920.99
437.09	2888.22
437.28	2799.28
437.46	2794.60
437.65	2857.79
437.84	2946.73
438.02	2902.26
438.21	2902.26
438.40	2977.16
438.58	3096.53
438.77	3066.10
438.96	3068.44
439.14	3103.55
439.33	3066.10
439.52	3126.96
439.70	3183.13
439.89	3227.60
440.08	3267.39
440.26	3052.06
440.45	3070.78
440.63	3192.49
440.82	3253.34
441.01	3229.94
441.19	3173.77
441.38	3260.37
441.57	3323.56
441.75	3361.01
441.94	3473.36
442.12	3431.23
442.31	3379.73
442.50	3421.86
442.68	3358.67
442.87	3234.62
443.05	3435.91
443.24	3449.95
443.43	3527.19
443.61	3538.89
443.80	3550.59
443.98	3304.84
444.17	3288.45
444.35	3435.91
444.54	3487.40
444.73	3524.85
444.91	3503.78
445.10	3562.30
445.28	3440.59
445.47	3496.76
445.65	3496.76
445.84	3527.19
446.02	3503.78
446.21	3489.74
446.39	3496.76
446.58	3548.25
446.77	3541.23
446.95	3386.76
447.14	3693.37
447.32	3616.13
447.51	3552.93
447.69	3478.04
447.88	3611.45
448.06	3634.85
448.25	3569.32
448.43	3499.10
448.62	3576.34
448.80	3400.80
448.99	3609.11
449.17	3693.37
449.36	3763.58
449.54	3623.15
449.73	3735.50
449.91	3644.21
450.10	3768.26
450.28	3829.12
450.46	3838.48
450.65	3805.71
450.83	3777.62
451.02	3810.39
451.20	3772.94
451.39	3719.11
451.57	3836.14
451.76	3920.40
451.94	3927.42
452.13	3955.51
452.31	3815.07
452.49	3815.07
452.68	3946.14
452.86	3751.88
453.05	3943.80
453.23	4086.58
453.42	3878.27
453.60	3857.20
453.78	4009.34
453.97	3939.12
454.15	3794.01
454.34	3901.67
454.52	4016.36
454.70	3805.71
454.89	3936.78
455.07	4002.32
455.26	3948.48
455.44	4135.73
455.62	3955.51
455.81	4131.05
455.99	4081.89
456.17	4037.42
456.36	3997.64
456.54	4084.23
456.73	4304.25
456.91	4222.33
457.09	4168.49
457.28	4273.82
457.46	4236.37
457.64	4269.14
457.83	4248.07
458.01	4093.60
458.19	4217.65
458.38	4311.27
458.56	4344.03
458.74	4191.90
458.93	4339.35
459.11	4234.03
459.29	4266.80
459.48	4498.51
459.66	4489.15
459.84	4407.23
460.03	4376.80
460.21	4475.10
460.39	4521.92
460.57	4346.37
460.76	4512.55
460.94	4568.73
461.12	4418.93
461.31	4475.10
461.49	4463.40
461.67	4582.77
461.85	4564.04
462.04	4526.60
462.22	4837.89
462.40	4688.09
462.59	4692.77
462.77	4538.30
462.95	4702.14
463.13	4575.75
463.32	4617.88
463.50	4814.48
463.68	4617.88
463.86	4676.39
464.05	4734.90
464.23	4704.48
464.41	4713.84
464.59	4627.24
464.78	4868.31
464.96	4786.40
465.14	4809.80
465.32	4704.48
465.50	4901.08
465.69	4798.10
465.87	4868.31
466.05	4884.70
466.23	4835.55
466.41	4765.33
466.60	4994.70
466.78	4905.76
466.96	4842.57
467.14	4793.42
467.32	4901.08
467.51	4880.02
467.69	4777.03
467.87	4898.74
468.05	4990.02
468.23	4915.12
468.41	4849.59
468.60	4889.38
468.78	5018.11
468.96	5004.07
469.14	5008.75
469.32	5217.05
469.50	5114.07
469.69	5160.88
469.87	5104.71
470.05	5121.09
470.23	5256.84
470.41	5001.72
470.59	5231.10
470.77	5217.05
470.95	5217.05
471.14	5195.99
471.32	5090.67
471.50	5233.44
471.68	5266.21
471.86	5219.39
472.04	5329.40
472.22	5713.25
472.40	5355.15
472.58	5362.17
472.77	5434.72
472.95	5504.94
473.13	5598.56
473.31	5441.75
473.49	5584.52
473.67	5558.77
473.85	5547.07
474.03	5771.76
474.21	5638.35
474.39	5659.42
474.57	5687.50
474.75	5664.10
474.93	5724.95
475.12	5738.99
475.30	5785.80
475.48	5731.97
475.66	5809.21
475.84	5877.09
476.02	5832.62
476.20	5968.37
476.38	5944.96
476.56	6129.86
476.74	5928.58
476.92	6085.39
477.10	6090.07
477.28	6113.48
477.46	6265.61
477.64	6319.45
477.82	6277.32
478.00	6370.94
478.18	6328.81
478.36	6228.17
478.54	6530.09
478.72	6422.43
478.90	6583.93
479.08	6525.41
479.26	6740.74
479.44	6803.94
479.62	6665.85
479.80	6649.46
479.98	6656.48
480.16	6932.67
480.34	6932.67
480.52	7007.56
480.70	7007.56
480.88	6850.75
481.06	7047.35
481.24	6949.05
481.41	7258.00
481.59	7234.60
481.77	7157.36
481.95	7342.26
482.13	7384.39
482.31	7438.22
482.49	7410.14
482.67	7651.21
482.85	7529.50
483.03	7658.23
483.21	7803.35
483.39	7698.02
483.57	7602.06
483.74	7831.43
483.92	7824.41
484.10	7882.92
484.28	7960.16
484.46	8236.35
484.64	8248.05
484.82	8241.03
485.00	8285.50
485.18	8241.03
485.35	8491.46
485.53	8542.96
485.71	8564.02
485.89	8716.16
486.07	8676.37
486.25	8521.89
486.43	8596.79
486.61	8636.58
486.78	8769.99
486.96	8840.20
487.14	9247.46
487.32	8990.00
487.50	9132.77
487.68	9207.67
487.85	9305.97
488.03	9275.54
488.21	9385.55
488.39	9277.88
488.57	9558.75
488.75	9460.45
488.92	9523.64
489.10	9434.70
489.28	9561.09
489.46	9790.46
489.64	9699.18
489.81	9867.70
489.99	10005.79
490.17	9984.73
490.35	10197.71
490.53	10099.41
490.70	10342.83
490.88	10155.58
491.06	10459.85
491.24	10520.71
491.41	10569.86
491.59	10396.66
491.77	10490.28
491.95	10682.20
492.13	10511.35
492.30	10810.93
492.48	10651.78
492.66	10782.85
492.84	10747.74
493.01	11059.03
493.19	10991.16
493.37	10979.45
493.54	10942.00
493.72	11140.95
493.90	11290.74
494.08	11154.99
494.25	11454.58
494.43	11218.19
494.61	11597.35
494.79	11431.18
494.96	11571.61
495.14	11604.38
495.32	11800.98
495.49	11686.29
495.67	11740.13
495.85	11969.50
496.02	12002.27
496.20	12135.68
496.38	11988.22
496.55	12348.67
496.73	12329.94
496.91	12212.92
497.09	12362.71
497.26	12383.77
497.44	12376.75
497.62	12294.83
497.79	12568.68
497.97	12620.17
498.14	12456.33
498.32	12624.85
498.50	12681.02
498.67	12791.03
498.85	12500.80
499.03	12840.18
499.20	12929.12
499.38	12812.09
499.56	13097.64
499.73	13238.07
499.91	13142.11
500.08	13193.60
500.26	12901.03
500.44	13319.99
500.61	13312.97
500.79	13404.25
500.97	13336.37
501.14	13577.45
501.32	13579.79
501.49	13607.87
501.67	13497.87
501.84	13764.69
502.02	13757.67
502.20	13619.58
502.37	13715.54
502.55	13724.90
502.72	13872.36
502.90	14083.00
503.07	13738.94
503.25	13701.50
503.43	13750.65
503.60	14036.19
503.78	13862.99
503.95	14083.00
504.13	14054.92
504.30	14134.50
504.48	14134.50
504.65	14218.75
504.83	14424.72
505.01	14700.90
505.18	14375.57
505.36	14614.30
505.53	14462.17
505.71	14436.42
505.88	14558.13
506.06	14441.11
506.23	14904.53
506.41	14436.42
506.58	14740.69
506.76	14483.24
506.93	14836.66
507.11	14801.55
507.28	14857.72
507.46	14934.96
507.63	14855.38
507.81	15033.26
507.98	15169.01
508.16	14693.88
508.33	15176.03
508.50	15260.29
508.68	15260.29
508.85	15183.06
509.03	15150.29
509.20	15358.60
509.38	15606.69
509.55	15445.20
509.73	15454.56
509.90	15477.96
510.08	15793.94
510.25	15569.24
510.42	15712.02
510.60	15611.37
510.77	15903.94
510.95	15616.05
511.12	15934.37
511.30	15807.98
511.47	15906.28
511.64	15903.94
511.82	16060.76
511.99	15969.48
512.17	15817.34
512.34	16100.55
512.51	16264.38
512.69	16168.42
512.86	16081.82
513.04	16264.38
513.21	16402.47
513.38	16329.92
513.56	16397.79
513.73	16617.80
513.90	16510.14
514.08	16713.77
514.25	16507.80
514.43	16608.44
514.60	16603.76
514.77	16570.99
514.95	16664.61
515.12	16463.33
515.29	16783.98
515.47	16613.12
515.64	17050.80
515.81	16793.34
515.99	16875.26
516.16	17186.55
516.33	17170.17
516.51	17034.42
516.68	17088.25
516.85	17106.98
517.03	17240.39
517.20	17219.32
517.37	17116.34
517.54	17198.26
517.72	17200.60
517.89	17336.35
518.06	17432.31
518.24	17296.56
518.41	17376.14
518.58	17200.60
518.75	17282.52
518.93	17703.81
519.10	17465.08
519.27	17404.22
519.45	17626.57
519.62	17898.08
519.79	17425.29
519.96	17385.50
520.14	17781.05
520.31	17465.08
520.48	17593.81
520.65	17568.06
520.83	17933.18
521.00	18178.94
521.17	17855.95
521.34	17769.35
521.52	18132.13
521.69	17921.48
521.86	18284.26
522.03	18024.47
522.20	18382.57
522.38	18061.91
522.55	18396.61
522.72	18272.56
522.89	18499.59
523.07	18752.37
523.24	18192.98
523.41	18515.98
523.58	18235.11
523.75	18513.64
523.92	18719.60
524.10	18689.18
524.27	18897.49
524.44	18494.91
524.61	18895.14
524.78	18602.58
524.96	18607.26
525.13	18740.67
525.30	18822.59
525.47	18813.23
525.64	18773.44
525.81	18951.32
525.98	18953.66
526.16	18902.17
526.33	19021.53
526.50	19023.87
526.67	19051.96
526.84	19302.40
527.01	19166.65
527.18	19325.80
527.36	18995.79
527.53	18970.04
527.70	19534.11
527.87	19124.52
528.04	19424.11
528.21	19662.84
528.38	19374.95
528.55	19389.00
528.72	19398.36
528.89	19161.97
529.07	19337.51
529.24	19091.75
529.41	19435.81
529.58	19487.30
529.75	19463.90
529.92	19456.87
530.09	19618.37
530.26	19545.81
530.43	19433.47
530.60	19482.62
530.77	19559.86
530.94	20032.65
531.11	19358.57
531.28	19775.19
531.46	19845.40
531.63	19960.09
531.80	19604.33
531.97	19882.85
532.14	19939.02
532.31	20065.41
532.48	20056.05
532.65	19990.52
532.82	19786.89
532.99	19887.53
533.16	19988.18
533.33	20414.15
533.50	20224.57
533.67	20442.24
533.84	19992.86
534.01	20245.63
534.18	20175.42
534.35	20367.34
534.52	20423.51
534.69	20514.80
534.86	20430.54
535.03	20161.37
535.20	20255.00
535.37	20339.26
535.54	20383.73
535.71	20166.06
535.88	20376.70
536.05	20472.67
536.22	20556.93
536.38	20680.97
536.55	20446.92
536.72	21008.65
536.89	20666.93
537.06	20912.69
537.23	20727.78
537.40	20982.90
537.57	20842.47
537.74	21113.97
537.91	20655.23
538.08	20868.22
538.25	20800.34
538.42	21268.45
538.59	21144.40
538.75	20709.06
538.92	20996.95
539.09	21113.97
539.26	20872.90
539.43	20819.07
539.60	20933.75
539.77	21600.80
539.94	21333.98
540.11	21132.70
540.28	21378.45
540.44	21394.84
540.61	21467.39
540.78	21268.45
540.95	21502.50
541.12	21685.06
541.29	21647.61
541.46	21827.84
541.62	21876.99
541.79	21830.18
541.96	21673.36
542.13	22036.14
542.30	21603.14
542.47	21741.24
542.63	21593.78
542.80	22043.17
542.97	22204.66
543.14	22424.67
543.31	21989.33
543.48	21874.65
543.64	22354.46
543.81	22082.95
543.98	22043.17
544.15	22277.22
544.32	22024.44
544.48	22588.51
544.65	22010.40
544.82	22537.02
544.99	21972.95
545.16	22382.54
545.32	22630.64
545.49	22759.37
545.66	23454.51
545.83	23234.50
546.00	23201.73
546.16	22754.69
546.33	22841.29
546.50	22244.45
546.67	22944.27
546.83	22338.07
547.00	22174.24
547.17	22307.65
547.34	22377.86
547.50	22672.77
547.67	22602.55
547.84	22274.88
548.00	22693.83
548.17	22778.09
548.34	22448.08
548.51	22656.39
548.67	22515.95
548.84	22560.42
549.01	22600.21
549.18	22625.96
549.34	22417.65
549.51	22628.30
549.68	22745.33
549.84	22450.42
550.01	22855.33
550.18	22675.11
550.34	22405.95
550.51	22850.65
550.68	22937.25
550.84	22824.90
551.01	22705.54
551.18	22803.84
551.34	22576.81
551.51	22682.13
551.68	22583.83
551.84	22410.63
552.01	22663.41
552.18	22747.67
552.34	22635.32
552.51	22838.95
552.68	22761.71
552.84	22799.16
553.01	23194.71
553.18	22544.04
553.34	22916.19
553.51	22710.22
553.67	22841.29
553.84	23227.48
554.01	22920.87
554.17	22948.95
554.34	23131.51
554.51	23023.85
554.67	23105.77
554.84	22602.55
555.00	22822.56
555.17	22604.89
555.33	22941.93
555.50	22848.31
555.67	23019.17
555.83	22904.48
556.00	22792.14
556.16	23117.47
556.33	23367.91
556.50	23087.04
556.66	22941.93
556.83	22869.37
556.99	23138.54
557.16	23211.09
557.32	23342.16
557.49	22986.40
557.65	23166.62
557.82	23087.04
557.98	23000.44
558.15	23161.94
558.32	23267.27
558.48	23304.71
558.65	23363.23
558.81	23431.10
558.98	23379.61
559.14	23442.81
559.31	23152.58
559.47	23288.33
559.64	23459.19
559.80	23098.75
559.97	23337.48
560.13	23484.94
560.30	23000.44
560.46	23737.71
560.63	23534.09
560.79	23742.39
560.96	23339.82
561.12	23452.17
561.29	23311.74
561.45	23599.62
561.61	23297.69
561.78	23360.89
561.94	23466.21
562.11	23548.13
562.27	23414.72
562.44	23623.03
562.60	23534.09
562.77	23749.42
562.93	23381.95
563.10	23335.14
563.26	23140.88
563.42	23716.65
563.59	23658.14
563.75	23538.77
563.92	23454.51
564.08	23625.37
564.24	23576.22
564.41	23990.49
564.57	23435.78
564.74	23751.76
564.90	23690.90
565.07	23885.17
565.23	23756.44
565.39	23522.38
565.56	23688.56
565.72	23307.05
565.88	23534.09
566.05	23613.66
566.21	23281.31
566.38	23618.35
566.54	23871.12
566.70	23517.70
566.87	23871.12
567.03	23969.43
567.19	23927.30
567.36	23765.80
567.52	23723.67
567.68	23779.84
567.85	23866.44
568.01	23662.82
568.17	23707.29
568.34	23672.18
568.50	23889.85
568.66	23843.04
568.83	23623.03
568.99	23730.69
569.15	23410.04
569.32	23817.29
569.48	23695.58
569.64	23751.76
569.81	23646.43
569.97	23627.71
570.13	23763.46
570.30	23559.83
570.46	23758.78
570.62	23779.84
570.78	23995.17
570.95	23763.46
571.11	23978.79
571.27	24039.64
571.43	23597.28
571.60	23683.88
571.76	23400.68
571.92	23957.72
572.09	23934.32
572.25	23875.80
572.41	23917.93
572.57	23880.49
572.74	23740.05
572.90	23761.12
573.06	24072.41
573.22	23789.20
573.38	24163.69
573.55	23772.82
573.71	24032.62
573.87	23964.75
574.03	24037.30
574.20	24212.84
574.36	23793.89
574.52	23939.00
574.68	23651.11
574.84	23896.87
575.01	24222.20
575.17	23941.34
575.33	23711.97
575.49	24151.99
575.65	23948.36
575.82	23866.44
575.98	24105.18
576.14	24105.18
576.30	24203.48
576.46	24196.46
576.62	24070.07
576.79	24065.39
576.95	23910.91
577.11	24119.22
577.27	24072.41
577.43	24086.45
577.59	23791.55
577.75	24142.63
577.92	23901.55
578.08	24222.20
578.24	24084.11
578.40	24084.11
578.56	23997.51
578.72	23992.83
578.88	24493.71
579.04	24063.05
579.21	24203.48
579.37	24149.65
579.53	24180.07
579.69	24088.79
579.85	24369.66
580.01	24116.88
580.17	24116.88
580.33	23864.10
580.49	24315.83
580.65	23866.44
580.82	24315.83
580.98	24100.50
581.14	23910.91
581.30	24313.48
581.46	23974.11
581.62	23957.72
581.78	23894.53
581.94	24226.89
582.10	23742.39
582.26	24456.26
582.42	24283.06
582.58	24027.94
582.74	24166.03
582.90	24299.44
583.06	24357.96
583.22	24224.54
583.38	24053.69
583.54	24336.89
583.70	24257.31
583.86	24364.98
584.02	23981.13
584.18	24144.97
584.34	24400.08
584.50	24114.54
584.66	23885.17
584.82	23714.31
584.98	23850.06
585.14	24376.68
585.30	24009.22
585.46	24425.83
585.62	24327.53
585.78	24320.51
585.94	24240.93
586.10	24187.10
586.26	24505.41
586.42	24264.33
586.58	24247.95
586.74	24011.56
586.90	24051.34
587.06	24130.92
587.22	24524.13
587.38	24086.45
587.54	24247.95
587.70	24304.12
587.86	24278.38
588.02	24470.30
588.18	24652.86
588.34	24325.19
588.49	24142.63
588.65	23978.79
588.81	23887.51
588.97	24250.29
589.13	24144.97
589.29	24313.48
589.45	24570.94
589.61	24514.77
589.77	24685.63
589.93	24357.96
590.08	24210.50
590.24	24187.10
590.40	24711.38
590.56	24360.30
590.72	24482.00
590.88	23871.12
