SpectraSuite Data File
++++++++++++++++++++++++++++++++++++
Date: Thu Oct 24 13:21:03 EDT 2013
User: stostad
Dark Spectrum Present: No
Reference Spectrum Present: No
Number of Sampled Component Spectra: 1
Spectrometers: USB2+H05261
Integration Time (usec): 100000 (USB2+H05261)
Spectra Averaged: 1 (USB2+H05261)
Boxcar Smoothing: 0 (USB2+H05261)
Correct for Electrical Dark: No (USB2+H05261)
Strobe/Lamp Enabled: No (USB2+H05261)
Correct for Detector Non-linearity: No (USB2+H05261)
Correct for Stray Light: No (USB2+H05261)
Number of Pixels in Processed Spectrum: 2048
>>>>>Begin Processed Spectral Data<<<<<
365.73	566.41
365.92	566.41
366.12	566.41
366.32	505.56
366.52	472.79
366.72	482.15
366.91	449.38
367.11	496.19
367.31	425.98
367.51	458.74
367.70	372.15
367.90	472.79
368.10	475.13
368.30	449.38
368.49	449.38
368.69	444.70
368.89	486.83
369.09	484.49
369.28	528.96
369.48	465.77
369.68	493.85
369.87	479.81
370.07	517.26
370.27	582.79
370.47	510.24
370.66	552.37
370.86	489.17
371.06	566.41
371.25	568.75
371.45	519.60
371.65	568.75
371.84	557.05
372.04	615.56
372.24	671.73
372.44	575.77
372.63	634.29
372.83	557.05
373.03	641.31
373.22	648.33
373.42	592.16
373.62	587.47
373.81	648.33
374.01	718.54
374.21	676.41
374.40	636.63
374.60	643.65
374.79	596.84
374.99	617.90
375.19	608.54
375.38	641.31
375.58	631.94
375.78	643.65
375.97	641.31
376.17	617.90
376.37	610.88
376.56	709.18
376.76	648.33
376.95	582.79
377.15	587.47
377.35	638.97
377.54	608.54
377.74	592.16
377.93	603.86
378.13	575.77
378.33	655.35
378.52	596.84
378.72	643.65
378.91	699.82
379.11	622.58
379.31	554.71
379.50	620.24
379.70	578.11
379.89	645.99
380.09	603.86
380.28	617.90
380.48	613.22
380.68	620.24
380.87	617.90
381.07	589.82
381.26	638.97
381.46	599.18
381.65	610.88
381.85	545.34
382.04	638.97
382.24	660.03
382.43	624.92
382.63	573.43
382.83	571.09
383.02	634.29
383.22	674.07
383.41	613.22
383.61	641.31
383.80	624.92
384.00	603.86
384.19	627.26
384.39	622.58
384.58	629.60
384.78	594.50
384.97	594.50
385.17	596.84
385.36	660.03
385.56	617.90
385.75	538.32
385.95	648.33
386.14	702.16
386.34	610.88
386.53	561.73
386.72	603.86
386.92	655.35
387.11	578.11
387.31	608.54
387.50	610.88
387.70	692.80
387.89	613.22
388.09	571.09
388.28	681.10
388.48	631.94
388.67	704.50
388.86	655.35
389.06	580.45
389.25	650.67
389.45	638.97
389.64	603.86
389.84	603.86
390.03	594.50
390.22	688.12
390.42	657.69
390.61	643.65
390.81	552.37
391.00	634.29
391.19	613.22
391.39	594.50
391.58	599.18
391.78	706.84
391.97	578.11
392.16	638.97
392.36	638.97
392.55	587.47
392.75	578.11
392.94	594.50
393.13	622.58
393.33	601.52
393.52	662.37
393.71	704.50
393.91	603.86
394.10	622.58
394.29	561.73
394.49	669.39
394.68	578.11
394.88	683.44
395.07	575.77
395.26	650.67
395.46	690.46
395.65	571.09
395.84	620.24
396.04	653.01
396.23	568.75
396.42	564.07
396.62	585.13
396.81	629.60
397.00	568.75
397.19	617.90
397.39	657.69
397.58	695.14
397.77	594.50
397.97	603.86
398.16	585.13
398.35	645.99
398.55	599.18
398.74	613.22
398.93	571.09
399.12	622.58
399.32	660.03
399.51	695.14
399.70	699.82
399.90	613.22
400.09	578.11
400.28	587.47
400.47	564.07
400.67	620.24
400.86	594.50
401.05	648.33
401.24	643.65
401.44	535.98
401.63	669.39
401.82	629.60
402.01	580.45
402.21	634.29
402.40	566.41
402.59	653.01
402.78	592.16
402.97	592.16
403.17	566.41
403.36	564.07
403.55	587.47
403.74	657.69
403.93	648.33
404.13	657.69
404.32	669.39
404.51	638.97
404.70	683.44
404.89	657.69
405.09	678.76
405.28	601.52
405.47	650.67
405.66	638.97
405.85	631.94
406.05	615.56
406.24	634.29
406.43	629.60
406.62	599.18
406.81	634.29
407.00	648.33
407.20	629.60
407.39	655.35
407.58	622.58
407.77	634.29
407.96	627.26
408.15	599.18
408.34	629.60
408.54	585.13
408.73	613.22
408.92	669.39
409.11	702.16
409.30	594.50
409.49	631.94
409.68	582.79
409.87	617.90
410.07	613.22
410.26	643.65
410.45	638.97
410.64	627.26
410.83	603.86
411.02	641.31
411.21	671.73
411.40	643.65
411.59	655.35
411.78	627.26
411.98	589.82
412.17	648.33
412.36	571.09
412.55	587.47
412.74	676.41
412.93	655.35
413.12	676.41
413.31	669.39
413.50	589.82
413.69	653.01
413.88	636.63
414.07	746.63
414.26	671.73
414.45	634.29
414.64	699.82
414.83	645.99
415.02	641.31
415.22	645.99
415.41	737.27
415.60	606.20
415.79	638.97
415.98	671.73
416.17	685.78
416.36	627.26
416.55	641.31
416.74	582.79
416.93	702.16
417.12	603.86
417.31	617.90
417.50	674.07
417.69	697.48
417.88	592.16
418.07	676.41
418.26	615.56
418.45	662.37
418.64	610.88
418.83	608.54
419.02	638.97
419.21	638.97
419.39	596.84
419.58	592.16
419.77	620.24
419.96	697.48
420.15	674.07
420.34	603.86
420.53	627.26
420.72	622.58
420.91	643.65
421.10	671.73
421.29	608.54
421.48	599.18
421.67	706.84
421.86	636.63
422.05	615.56
422.24	657.69
422.43	660.03
422.61	606.20
422.80	622.58
422.99	683.44
423.18	624.92
423.37	629.60
423.56	645.99
423.75	638.97
423.94	564.07
424.13	669.39
424.32	638.97
424.50	676.41
424.69	627.26
424.88	683.44
425.07	685.78
425.26	678.76
425.45	692.80
425.64	566.41
425.83	592.16
426.01	674.07
426.20	655.35
426.39	596.84
426.58	657.69
426.77	643.65
426.96	692.80
427.15	650.67
427.33	669.39
427.52	613.22
427.71	648.33
427.90	629.60
428.09	688.12
428.28	615.56
428.46	622.58
428.65	669.39
428.84	685.78
429.03	599.18
429.22	622.58
429.40	636.63
429.59	594.50
429.78	641.31
429.97	620.24
430.16	587.47
430.34	662.37
430.53	676.41
430.72	585.13
430.91	660.03
431.10	592.16
431.28	631.94
431.47	655.35
431.66	638.97
431.85	599.18
432.03	587.47
432.22	645.99
432.41	643.65
432.60	638.97
432.79	627.26
432.97	606.20
433.16	617.90
433.35	517.26
433.54	629.60
433.72	653.01
433.91	599.18
434.10	580.45
434.28	655.35
434.47	650.67
434.66	645.99
434.85	681.10
435.03	709.18
435.22	945.58
435.41	1071.97
435.59	1027.50
435.78	884.72
435.97	833.23
436.16	730.25
436.34	702.16
436.53	732.59
436.72	688.12
436.90	638.97
437.09	702.16
437.28	645.99
437.46	638.97
437.65	573.43
437.84	653.01
438.02	627.26
438.21	641.31
438.40	608.54
438.58	624.92
438.77	578.11
438.96	697.48
439.14	636.63
439.33	674.07
439.52	592.16
439.70	592.16
439.89	606.20
440.08	634.29
440.26	613.22
440.45	648.33
440.63	587.47
440.82	620.24
441.01	648.33
441.19	601.52
441.38	543.00
441.57	627.26
441.75	667.05
441.94	638.97
442.12	566.41
442.31	582.79
442.50	601.52
442.68	624.92
442.87	629.60
443.05	664.71
443.24	641.31
443.43	638.97
443.61	678.76
443.80	624.92
443.98	634.29
444.17	627.26
444.35	592.16
444.54	617.90
444.73	596.84
444.91	645.99
445.10	613.22
445.28	636.63
445.47	662.37
445.65	643.65
445.84	660.03
446.02	660.03
446.21	697.48
446.39	545.34
446.58	550.03
446.77	653.01
446.95	634.29
447.14	650.67
447.32	695.14
447.51	615.56
447.69	596.84
447.88	622.58
448.06	702.16
448.25	578.11
448.43	608.54
448.62	662.37
448.80	638.97
448.99	636.63
449.17	599.18
449.36	601.52
449.54	610.88
449.73	683.44
449.91	641.31
450.10	589.82
450.28	681.10
450.46	648.33
450.65	608.54
450.83	603.86
451.02	575.77
451.20	674.07
451.39	603.86
451.57	624.92
451.76	599.18
451.94	641.31
452.13	662.37
452.31	690.46
452.49	585.13
452.68	601.52
452.86	601.52
453.05	660.03
453.23	624.92
453.42	669.39
453.60	622.58
453.78	606.20
453.97	587.47
454.15	645.99
454.34	664.71
454.52	589.82
454.70	643.65
454.89	685.78
455.07	641.31
455.26	655.35
455.44	641.31
455.62	671.73
455.81	664.71
455.99	629.60
456.17	622.58
456.36	601.52
456.54	610.88
456.73	641.31
456.91	664.71
457.09	660.03
457.28	667.05
457.46	638.97
457.64	599.18
457.83	613.22
458.01	664.71
458.19	608.54
458.38	643.65
458.56	634.29
458.74	624.92
458.93	641.31
459.11	667.05
459.29	631.94
459.48	610.88
459.66	631.94
459.84	685.78
460.03	755.99
460.21	720.88
460.39	594.50
460.57	622.58
460.76	641.31
460.94	667.05
461.12	706.84
461.31	653.01
461.49	648.33
461.67	650.67
461.85	723.23
462.04	690.46
462.22	938.55
462.40	681.10
462.59	685.78
462.77	613.22
462.95	585.13
463.13	636.63
463.32	657.69
463.50	674.07
463.68	711.52
463.86	622.58
464.05	692.80
464.23	629.60
464.41	669.39
464.59	592.16
464.78	627.26
464.96	589.82
465.14	678.76
465.32	573.43
465.50	655.35
465.69	657.69
465.87	594.50
466.05	676.41
466.23	587.47
466.41	610.88
466.60	662.37
466.78	601.52
466.96	596.84
467.14	669.39
467.32	660.03
467.51	645.99
467.69	660.03
467.87	599.18
468.05	631.94
468.23	638.97
468.41	641.31
468.60	603.86
468.78	643.65
468.96	699.82
469.14	627.26
469.32	631.94
469.50	608.54
469.69	599.18
469.87	671.73
470.05	587.47
470.23	650.67
470.41	617.90
470.59	568.75
470.77	613.22
470.95	643.65
471.14	685.78
471.32	645.99
471.50	664.71
471.68	631.94
471.86	634.29
472.04	629.60
472.22	624.92
472.40	699.82
472.58	664.71
472.77	713.86
472.95	655.35
473.13	755.99
473.31	634.29
473.49	683.44
473.67	582.79
473.85	638.97
474.03	660.03
474.21	648.33
474.39	624.92
474.57	674.07
474.75	706.84
474.93	648.33
475.12	603.86
475.30	645.99
475.48	608.54
475.66	685.78
475.84	578.11
476.02	636.63
476.20	617.90
476.38	711.52
476.56	648.33
476.74	627.26
476.92	681.10
477.10	690.46
477.28	723.23
477.46	662.37
477.64	624.92
477.82	657.69
478.00	697.48
478.18	645.99
478.36	678.76
478.54	643.65
478.72	667.05
478.90	657.69
479.08	657.69
479.26	643.65
479.44	631.94
479.62	624.92
479.80	636.63
479.98	718.54
480.16	660.03
480.34	587.47
480.52	617.90
480.70	603.86
480.88	727.91
481.06	648.33
481.24	615.56
481.41	603.86
481.59	629.60
481.77	557.05
481.95	727.91
482.13	615.56
482.31	634.29
482.49	660.03
482.67	622.58
482.85	634.29
483.03	685.78
483.21	662.37
483.39	645.99
483.57	737.27
483.74	631.94
483.92	596.84
484.10	699.82
484.28	711.52
484.46	784.08
484.64	683.44
484.82	676.41
485.00	638.97
485.18	758.33
485.35	664.71
485.53	734.93
485.71	676.41
485.89	690.46
486.07	734.93
486.25	737.27
486.43	730.25
486.61	727.91
486.78	699.82
486.96	601.52
487.14	723.23
487.32	685.78
487.50	709.18
487.68	720.88
487.85	688.12
488.03	748.97
488.21	718.54
488.39	678.76
488.57	655.35
488.75	613.22
488.92	816.85
489.10	807.48
489.28	751.31
489.46	706.84
489.64	660.03
489.81	676.41
489.99	748.97
490.17	648.33
490.35	655.35
490.53	643.65
490.70	744.29
490.88	690.46
491.06	709.18
491.24	634.29
491.41	755.99
491.59	664.71
491.77	765.36
491.95	653.01
492.13	706.84
492.30	662.37
492.48	800.46
492.66	725.57
492.84	660.03
493.01	730.25
493.19	727.91
493.37	706.84
493.54	716.20
493.72	692.80
493.90	596.84
494.08	688.12
494.25	737.27
494.43	615.56
494.61	655.35
494.79	657.69
494.96	624.92
495.14	650.67
495.32	650.67
495.49	631.94
495.67	681.10
495.85	641.31
496.02	648.33
496.20	720.88
496.38	664.71
496.55	662.37
496.73	599.18
496.91	645.99
497.09	723.23
497.26	662.37
497.44	620.24
497.62	631.94
497.79	634.29
497.97	641.31
498.14	650.67
498.32	669.39
498.50	643.65
498.67	674.07
498.85	674.07
499.03	641.31
499.20	692.80
499.38	741.95
499.56	674.07
499.73	664.71
499.91	716.20
500.08	671.73
500.26	741.95
500.44	716.20
500.61	653.01
500.79	667.05
500.97	662.37
501.14	709.18
501.32	688.12
501.49	655.35
501.67	695.14
501.84	627.26
502.02	622.58
502.20	627.26
502.37	718.54
502.55	676.41
502.72	678.76
502.90	671.73
503.07	650.67
503.25	655.35
503.43	603.86
503.60	613.22
503.78	599.18
503.95	575.77
504.13	631.94
504.30	669.39
504.48	643.65
504.65	662.37
504.83	669.39
505.01	561.73
505.18	638.97
505.36	620.24
505.53	603.86
505.71	582.79
505.88	681.10
506.06	685.78
506.23	631.94
506.41	676.41
506.58	702.16
506.76	624.92
506.93	575.77
507.11	653.01
507.28	695.14
507.46	676.41
507.63	622.58
507.81	610.88
507.98	653.01
508.16	657.69
508.33	624.92
508.50	650.67
508.68	641.31
508.85	622.58
509.03	641.31
509.20	620.24
509.38	653.01
509.55	643.65
509.73	603.86
509.90	653.01
510.08	664.71
510.25	653.01
510.42	643.65
510.60	629.60
510.77	629.60
510.95	653.01
511.12	636.63
511.30	561.73
511.47	582.79
511.64	690.46
511.82	538.32
511.99	657.69
512.17	678.76
512.34	624.92
512.51	634.29
512.69	594.50
512.86	650.67
513.04	606.20
513.21	620.24
513.38	713.86
513.56	648.33
513.73	676.41
513.90	643.65
514.08	634.29
514.25	634.29
514.43	620.24
514.60	543.00
514.77	622.58
514.95	610.88
515.12	744.29
515.29	650.67
515.47	648.33
515.64	697.48
515.81	620.24
515.99	645.99
516.16	688.12
516.33	662.37
516.51	678.76
516.68	645.99
516.85	599.18
517.03	671.73
517.20	667.05
517.37	603.86
517.54	674.07
517.72	617.90
517.89	624.92
518.06	648.33
518.24	699.82
518.41	664.71
518.58	617.90
518.75	622.58
518.93	692.80
519.10	711.52
519.27	622.58
519.45	660.03
519.62	608.54
519.79	674.07
519.96	585.13
520.14	603.86
520.31	660.03
520.48	624.92
520.65	678.76
520.83	638.97
521.00	678.76
521.17	594.50
521.34	627.26
521.52	669.39
521.69	692.80
521.86	641.31
522.03	535.98
522.20	688.12
522.38	674.07
522.55	655.35
522.72	690.46
522.89	688.12
523.07	589.82
523.24	629.60
523.41	653.01
523.58	603.86
523.75	603.86
523.92	613.22
524.10	599.18
524.27	681.10
524.44	674.07
524.61	585.13
524.78	688.12
524.96	634.29
525.13	627.26
525.30	650.67
525.47	692.80
525.64	660.03
525.81	613.22
525.98	596.84
526.16	645.99
526.33	627.26
526.50	603.86
526.67	589.82
526.84	692.80
527.01	620.24
527.18	723.23
527.36	575.77
527.53	594.50
527.70	674.07
527.87	575.77
528.04	697.48
528.21	622.58
528.38	622.58
528.55	615.56
528.72	676.41
528.89	718.54
529.07	669.39
529.24	692.80
529.41	634.29
529.58	702.16
529.75	650.67
529.92	671.73
530.09	685.78
530.26	669.39
530.43	657.69
530.60	571.09
530.77	645.99
530.94	699.82
531.11	690.46
531.28	580.45
531.46	578.11
531.63	587.47
531.80	657.69
531.97	692.80
532.14	704.50
532.31	641.31
532.48	648.33
532.65	669.39
532.82	671.73
532.99	653.01
533.16	727.91
533.33	685.78
533.50	713.86
533.67	624.92
533.84	746.63
534.01	706.84
534.18	702.16
534.35	653.01
534.52	653.01
534.69	641.31
534.86	617.90
535.03	685.78
535.20	702.16
535.37	737.27
535.54	601.52
535.71	627.26
535.88	683.44
536.05	662.37
536.22	690.46
536.38	709.18
536.55	718.54
536.72	667.05
536.89	655.35
537.06	699.82
537.23	741.95
537.40	695.14
537.57	727.91
537.74	763.01
537.91	758.33
538.08	734.93
538.25	741.95
538.42	660.03
538.59	774.72
538.75	734.93
538.92	723.23
539.09	837.91
539.26	805.14
539.43	772.38
539.60	755.99
539.77	720.88
539.94	772.38
540.11	880.04
540.28	945.58
540.44	868.34
540.61	868.34
540.78	903.45
540.95	997.07
541.12	1130.48
541.29	1123.46
541.46	1245.16
541.62	1289.64
541.79	1172.61
541.96	1231.12
542.13	1181.97
542.30	1210.06
542.47	1139.84
542.63	1226.44
542.80	1165.59
542.97	1149.20
543.14	1086.01
543.31	1177.29
543.48	1142.18
543.64	1153.88
543.81	1076.65
543.98	1104.73
544.15	1114.10
544.32	1146.86
544.48	1109.41
544.65	1139.84
544.82	1146.86
544.99	1062.60
545.16	1116.44
545.32	1205.38
545.49	1558.80
545.66	1785.83
545.83	1940.30
546.00	1750.72
546.16	1453.47
546.33	1392.62
546.50	1261.55
546.67	1226.44
546.83	997.07
547.00	1015.79
547.17	952.60
547.34	978.34
547.50	908.13
547.67	889.40
547.84	931.53
548.00	866.00
548.17	964.30
548.34	819.19
548.51	917.49
548.67	854.30
548.84	908.13
549.01	858.98
549.18	819.19
549.34	863.66
549.51	840.25
549.68	819.19
549.84	760.67
550.01	812.17
550.18	791.10
550.34	819.19
550.51	821.53
550.68	814.51
550.84	758.33
551.01	730.25
551.18	720.88
551.34	779.40
551.51	777.06
551.68	695.14
551.84	753.65
552.01	814.51
552.18	706.84
552.34	800.46
552.51	763.01
552.68	678.76
552.84	709.18
553.01	704.50
553.18	734.93
553.34	688.12
553.51	697.48
553.67	685.78
553.84	711.52
554.01	779.40
554.17	730.25
554.34	730.25
554.51	725.57
554.67	681.10
554.84	716.20
555.00	608.54
555.17	674.07
555.33	683.44
555.50	678.76
555.67	585.13
555.83	723.23
556.00	634.29
556.16	711.52
556.33	681.10
556.50	608.54
556.66	702.16
556.83	664.71
556.99	681.10
557.16	641.31
557.32	702.16
557.49	697.48
557.65	674.07
557.82	645.99
557.98	660.03
558.15	610.88
558.32	613.22
558.48	603.86
558.65	653.01
558.81	713.86
558.98	720.88
559.14	690.46
559.31	650.67
559.47	660.03
559.64	702.16
559.80	744.29
559.97	690.46
560.13	730.25
560.30	641.31
560.46	664.71
560.63	725.57
560.79	690.46
560.96	678.76
561.12	627.26
561.29	650.67
561.45	653.01
561.61	650.67
561.78	667.05
561.94	741.95
562.11	617.90
562.27	641.31
562.44	643.65
562.60	636.63
562.77	631.94
562.93	697.48
563.10	601.52
563.26	671.73
563.42	685.78
563.59	624.92
563.75	664.71
563.92	685.78
564.08	732.59
564.24	622.58
564.41	634.29
564.57	669.39
564.74	664.71
564.90	599.18
565.07	599.18
565.23	655.35
565.39	629.60
565.56	617.90
565.72	664.71
565.88	629.60
566.05	620.24
566.21	608.54
566.38	638.97
566.54	594.50
566.70	575.77
566.87	664.71
567.03	657.69
567.19	599.18
567.36	592.16
567.52	638.97
567.68	617.90
567.85	594.50
568.01	664.71
568.17	620.24
568.34	660.03
568.50	697.48
568.66	571.09
568.83	681.10
568.99	617.90
569.15	676.41
569.32	603.86
569.48	669.39
569.64	734.93
569.81	692.80
569.97	641.31
570.13	643.65
570.30	585.13
570.46	638.97
570.62	622.58
570.78	725.57
570.95	599.18
571.11	720.88
571.27	662.37
571.43	685.78
571.60	631.94
571.76	580.45
571.92	599.18
572.09	631.94
572.25	653.01
572.41	596.84
572.57	613.22
572.74	667.05
572.90	603.86
573.06	624.92
573.22	667.05
573.38	664.71
573.55	697.48
573.71	629.60
573.87	678.76
574.03	631.94
574.20	613.22
574.36	739.61
574.52	655.35
574.68	671.73
574.84	650.67
575.01	655.35
575.17	582.79
575.33	667.05
575.49	737.27
575.65	716.20
575.82	709.18
575.98	620.24
576.14	571.09
576.30	599.18
576.46	786.42
576.62	938.55
576.79	851.96
576.95	866.00
577.11	755.99
577.27	720.88
577.43	819.19
577.59	744.29
577.75	716.20
577.92	620.24
578.08	683.44
578.24	624.92
578.40	702.16
578.56	791.10
578.72	858.98
578.88	922.17
579.04	795.78
579.21	828.55
579.37	695.14
579.53	674.07
579.69	727.91
579.85	723.23
580.01	765.36
580.17	669.39
580.33	723.23
580.49	767.70
580.65	723.23
580.82	718.54
580.98	645.99
581.14	688.12
581.30	699.82
581.46	737.27
581.62	669.39
581.78	713.86
581.94	781.74
582.10	744.29
582.26	674.07
582.42	739.61
582.58	793.44
582.74	758.33
582.90	695.14
583.06	781.74
583.22	781.74
583.38	765.36
583.54	704.50
583.70	788.76
583.86	746.63
584.02	765.36
584.18	870.68
584.34	791.10
584.50	685.78
584.66	748.97
584.82	713.86
584.98	709.18
585.14	758.33
585.30	751.31
585.46	732.59
585.62	798.12
585.78	760.67
585.94	718.54
586.10	748.97
586.26	746.63
586.42	795.78
586.58	702.16
586.74	847.27
586.90	767.70
587.06	828.55
587.22	854.30
587.38	837.91
587.54	793.44
587.70	770.04
587.86	833.23
588.02	826.21
588.18	870.68
588.34	784.08
588.49	748.97
588.65	683.44
588.81	641.31
588.97	692.80
589.13	779.40
589.29	716.20
589.45	725.57
589.61	727.91
589.77	727.91
589.93	688.12
590.08	667.05
590.24	662.37
590.40	718.54
590.56	734.93
590.72	758.33
590.88	692.80
591.04	695.14
591.20	664.71
591.35	767.70
591.51	725.57
591.67	784.08
591.83	645.99
591.99	760.67
592.15	791.10
592.31	870.68
592.46	725.57
592.62	765.36
592.78	821.53
592.94	868.34
593.10	793.44
593.26	774.72
593.41	807.48
593.57	795.78
593.73	802.80
593.89	795.78
594.05	741.95
594.20	692.80
594.36	746.63
594.52	718.54
594.68	760.67
594.84	690.46
594.99	695.14
595.15	683.44
595.31	765.36
595.47	683.44
595.62	709.18
595.78	667.05
595.94	587.47
596.10	699.82
596.25	662.37
596.41	706.84
596.57	753.65
596.73	627.26
596.88	683.44
597.04	711.52
597.20	711.52
597.36	650.67
597.51	765.36
597.67	671.73
597.83	685.78
597.99	716.20
598.14	648.33
598.30	664.71
598.46	704.50
598.61	765.36
598.77	737.27
598.93	671.73
599.09	765.36
599.24	692.80
599.40	676.41
599.56	720.88
599.71	751.31
599.87	638.97
600.03	683.44
600.18	699.82
600.34	819.19
600.50	755.99
600.65	702.16
600.81	697.48
600.97	627.26
601.12	704.50
601.28	674.07
601.44	744.29
601.59	683.44
601.75	627.26
601.91	634.29
602.06	643.65
602.22	760.67
602.37	660.03
602.53	641.31
602.69	690.46
602.84	627.26
603.00	655.35
603.16	683.44
603.31	671.73
603.47	638.97
603.62	664.71
603.78	631.94
603.94	760.67
604.09	676.41
604.25	606.20
604.40	713.86
604.56	617.90
604.71	732.59
604.87	678.76
605.03	763.01
605.18	692.80
605.34	692.80
605.49	727.91
605.65	676.41
605.80	636.63
605.96	758.33
606.12	723.23
606.27	723.23
606.43	690.46
606.58	709.18
606.74	634.29
606.89	678.76
607.05	709.18
607.20	653.01
607.36	748.97
607.51	692.80
607.67	664.71
607.82	725.57
607.98	713.86
608.13	828.55
608.29	751.31
608.44	746.63
608.60	744.29
608.75	711.52
608.91	718.54
609.06	784.08
609.22	798.12
609.37	798.12
609.53	835.57
609.68	849.61
609.84	889.40
