SpectraSuite Data File
++++++++++++++++++++++++++++++++++++
Date: Thu Oct 24 13:21:30 EDT 2013
User: stostad
Dark Spectrum Present: No
Reference Spectrum Present: No
Number of Sampled Component Spectra: 1
Spectrometers: USB2+H05261
Integration Time (usec): 100000 (USB2+H05261)
Spectra Averaged: 1 (USB2+H05261)
Boxcar Smoothing: 0 (USB2+H05261)
Correct for Electrical Dark: No (USB2+H05261)
Strobe/Lamp Enabled: No (USB2+H05261)
Correct for Detector Non-linearity: No (USB2+H05261)
Correct for Stray Light: No (USB2+H05261)
Number of Pixels in Processed Spectrum: 2048
>>>>>Begin Processed Spectral Data<<<<<
365.73	531.30
365.92	531.30
366.12	531.30
366.32	465.77
366.52	491.51
366.72	400.23
366.91	507.90
367.11	491.51
367.31	477.47
367.51	524.28
367.70	472.79
367.90	430.66
368.10	444.70
368.30	491.51
368.49	442.36
368.69	482.15
368.89	449.38
369.09	561.73
369.28	440.02
369.48	533.64
369.68	533.64
369.87	554.71
370.07	580.45
370.27	589.82
370.47	674.07
370.66	1027.50
370.86	1057.92
371.06	1128.14
371.25	1160.91
371.45	1076.65
371.65	1146.86
371.84	1160.91
372.04	1156.22
372.24	1081.33
372.44	1198.35
372.63	1226.44
372.83	1184.31
373.03	1247.51
373.22	1273.25
373.42	1268.57
373.62	1270.91
373.81	1193.67
374.01	1277.93
374.21	1221.76
374.40	1247.51
374.60	1315.38
374.79	1336.45
374.99	1247.51
375.19	1331.76
375.38	1474.54
375.58	1352.83
375.78	1352.83
375.97	1369.21
376.17	1418.36
376.37	1406.66
376.56	1378.58
376.76	1467.52
376.95	1359.85
377.15	1444.11
377.35	1451.13
377.54	1462.83
377.74	1406.66
377.93	1394.96
378.13	1425.39
378.33	1493.26
378.52	1453.47
378.72	1446.45
378.91	1423.05
379.11	1542.41
379.31	1458.15
379.50	1448.79
379.70	1533.05
379.89	1528.37
380.09	1509.65
380.28	1544.75
380.48	1502.62
380.68	1565.82
380.87	1526.03
381.07	1624.33
381.26	1549.43
381.46	1586.88
381.65	1626.67
381.85	1645.40
382.04	1647.74
382.24	1657.10
382.43	1603.27
382.63	1631.35
382.83	1556.46
383.02	1678.16
383.22	1708.59
383.41	1673.48
383.61	1781.15
383.80	1741.36
384.00	1748.38
384.19	1739.02
384.39	1741.36
384.58	1757.74
384.78	1666.46
384.97	1736.68
385.17	1722.63
385.36	1764.76
385.56	1809.23
385.75	1720.29
385.95	1851.36
386.14	1792.85
386.34	1760.08
386.53	1902.86
386.72	1865.41
386.92	1909.88
387.11	1893.49
387.31	1813.92
387.50	1872.43
387.70	1888.81
387.89	1905.20
388.09	1827.96
388.28	1935.62
388.48	1937.96
388.67	1961.37
388.86	1987.11
389.06	2047.97
389.25	1980.09
389.45	2017.54
389.64	1982.43
389.84	2157.97
390.03	2052.65
390.22	1949.67
390.42	2031.58
390.61	2052.65
390.81	2127.55
391.00	2160.31
391.19	2165.00
391.39	2097.12
391.58	2080.74
391.78	2204.78
391.97	2167.34
392.16	2204.78
392.36	2207.13
392.55	2136.91
392.75	2179.04
392.94	2331.17
393.13	2209.47
393.33	2228.19
393.52	2303.09
393.71	2352.24
393.91	2293.72
394.10	2275.00
394.29	2417.77
394.49	2270.32
394.68	2270.32
394.88	2237.55
395.07	2377.98
395.26	2434.16
395.46	2462.24
395.65	2415.43
395.84	2399.05
396.04	2392.03
396.23	2422.45
396.42	2427.14
396.62	2567.57
396.81	2605.02
397.00	2558.21
397.19	2548.84
397.39	2464.58
397.58	2663.53
397.77	2565.23
397.97	2675.23
398.16	2745.45
398.35	2764.17
398.55	2640.12
398.74	2724.38
398.93	2846.09
399.12	2724.38
399.32	2696.30
399.51	2743.11
399.70	2773.53
399.90	2740.77
400.09	2930.35
400.28	2825.03
400.47	2736.09
400.67	2923.33
400.86	2850.77
401.05	2963.12
401.24	2871.84
401.44	2909.29
401.63	3009.93
401.82	2942.05
402.01	3000.57
402.21	3040.36
402.40	3049.72
402.59	3056.74
402.78	3194.83
402.97	3122.27
403.17	3213.56
403.36	3045.04
403.55	3213.56
403.74	3272.07
403.93	3384.41
404.13	3309.52
404.32	3368.03
404.51	3192.49
404.70	3419.52
404.89	3267.39
405.09	3363.35
405.28	3353.99
405.47	3482.72
405.66	3494.42
405.85	3428.88
406.05	3468.67
406.24	3653.58
406.43	3524.85
406.62	3548.25
406.81	3571.66
407.00	3480.38
407.20	3564.64
407.39	3609.11
407.58	3644.21
407.77	3641.87
407.96	3794.01
408.15	3798.69
408.34	3536.55
408.54	3808.05
408.73	3889.97
408.92	3744.86
409.11	3948.48
409.30	3836.14
409.49	3976.57
409.68	3908.69
409.87	4009.34
410.07	4079.55
410.26	4037.42
410.45	4009.34
410.64	3978.91
410.83	4056.15
411.02	4229.35
411.21	4196.58
411.40	4184.88
411.59	4346.37
411.78	4294.88
411.98	4276.16
412.17	4383.82
412.36	4428.29
412.55	4435.32
412.74	4571.07
412.93	4535.96
413.12	4423.61
413.31	4596.81
413.50	4629.58
413.69	4554.68
413.88	4791.08
414.07	4702.14
414.26	4610.86
414.45	4903.42
414.64	4814.48
414.83	4945.55
415.02	5008.75
415.22	4971.30
415.41	4997.04
415.60	5121.09
415.79	5097.69
415.98	5170.24
416.17	5219.39
416.36	5282.59
416.55	5298.97
416.74	5224.08
416.93	5174.92
417.12	5247.48
417.31	5474.51
417.50	5518.98
417.69	5647.71
417.88	5502.60
418.07	5518.98
418.26	5579.84
418.45	5582.18
418.64	5771.76
418.83	5633.67
419.02	5872.40
419.21	5685.16
419.39	5991.77
419.58	5753.04
419.77	5706.23
419.96	5874.74
420.15	5813.89
420.34	5827.93
420.53	5968.37
420.72	5902.83
420.91	6003.47
421.10	6104.12
421.29	6106.46
421.48	6078.37
421.67	6050.28
421.86	6010.50
422.05	6174.33
422.24	6239.87
422.43	6265.61
422.61	6274.98
422.80	6284.34
422.99	6366.26
423.18	6256.25
423.37	6420.09
423.56	6392.00
423.75	6179.01
423.94	6221.14
424.13	5671.12
424.32	6064.33
424.50	6408.39
424.69	6628.40
424.88	6471.58
425.07	6296.04
425.26	6298.38
425.45	6494.99
425.64	6345.19
425.83	6370.94
426.01	6497.33
426.20	6523.07
426.39	6553.50
426.58	6480.94
426.77	6403.71
426.96	6609.67
427.15	6342.85
427.33	6658.82
427.52	6492.65
427.71	6637.76
427.90	6586.27
428.09	6771.17
428.28	6775.85
428.46	6862.45
428.65	6773.51
428.84	6995.86
429.03	6836.70
429.22	6820.32
429.40	6867.13
429.59	6960.75
429.78	6771.17
429.97	6703.29
430.16	7119.91
430.34	7297.79
430.53	7211.19
430.72	7077.78
430.91	7166.72
431.10	7108.21
431.28	7377.37
431.47	7250.98
431.66	7510.78
431.85	7250.98
432.03	7478.01
432.22	7798.66
432.41	7377.37
432.60	7445.24
432.79	7414.82
432.97	7595.04
433.16	7623.12
433.35	7838.45
433.54	7531.84
433.72	7742.49
433.91	7744.83
434.10	8095.91
434.28	7817.39
434.47	7751.85
434.66	7943.78
434.85	7981.23
435.03	8187.19
435.22	8074.85
435.41	8491.46
435.59	8248.05
435.78	8196.56
435.97	8341.67
436.16	8168.47
436.34	8210.60
436.53	8224.64
436.72	8297.20
436.90	8119.32
437.09	8374.44
437.28	8318.26
437.46	8311.24
437.65	8336.99
437.84	8606.15
438.02	8575.72
438.21	8468.06
438.40	8454.02
438.58	8898.72
438.77	9011.06
438.96	8655.30
439.14	8837.86
439.33	9083.62
439.52	9076.60
439.70	9158.52
439.89	9153.84
440.08	9116.39
440.26	9383.21
440.45	9350.44
440.63	9465.13
440.82	9563.43
441.01	9605.56
441.19	9673.43
441.38	9738.97
441.57	9818.55
441.75	9762.37
441.94	9963.66
442.12	9942.60
442.31	10129.84
442.50	10256.23
442.68	10099.41
442.87	10036.22
443.05	10216.44
443.24	10239.84
443.43	9994.09
443.61	10167.29
443.80	10480.92
443.98	10047.92
444.17	10120.48
444.35	10260.91
444.54	10387.30
444.73	10335.81
444.91	10370.91
445.10	10520.71
445.28	10560.50
445.47	10455.17
445.65	10509.01
445.84	10452.83
446.02	10789.87
446.21	10572.20
446.39	10581.56
446.58	10525.39
446.77	10703.27
446.95	10370.91
447.14	10689.23
447.32	10712.63
447.51	10480.92
447.69	10527.73
447.88	10700.93
448.06	10672.84
448.25	10698.59
448.43	10862.43
448.62	10906.90
448.80	10670.50
448.99	10911.58
449.17	10967.75
449.36	10923.28
449.54	11119.89
449.73	11049.67
449.91	11185.42
450.10	11349.26
450.28	11571.61
450.46	11229.89
450.65	11405.43
450.83	11492.03
451.02	11272.02
451.20	11524.80
451.39	11297.77
451.57	11375.00
451.76	11206.48
451.94	11346.92
452.13	11599.70
452.31	11669.91
452.49	11400.75
452.68	12030.35
452.86	11726.08
453.05	11779.92
453.23	11737.79
453.42	11712.04
453.60	11803.32
453.78	11997.59
453.97	12140.36
454.15	11789.28
454.34	11648.85
454.52	12018.65
454.70	12013.97
454.89	12182.49
455.07	12126.32
455.26	12285.47
455.44	12210.57
455.62	12292.49
455.81	12514.84
455.99	12432.93
456.17	12748.90
456.36	12603.78
456.54	12468.03
456.73	12627.19
456.91	13109.34
457.09	12776.98
457.28	13097.64
457.46	13135.09
457.64	13043.81
457.83	13303.60
458.01	13109.34
458.19	13425.31
458.38	13069.55
458.56	13366.80
458.74	13364.46
458.93	13401.91
459.11	13378.50
459.29	13392.55
459.48	13731.92
459.66	13568.09
459.84	13486.17
460.03	13788.10
460.21	13729.58
460.39	13734.26
460.57	13902.78
460.76	13820.86
460.94	14078.32
461.12	14024.49
461.31	14080.66
461.49	13806.82
461.67	14008.11
461.85	14281.95
462.04	13991.72
462.22	14452.81
462.40	14471.53
462.59	14190.67
462.77	14607.28
462.95	14471.53
463.13	14443.45
463.32	14321.74
463.50	14635.37
463.68	14508.98
463.86	14745.38
464.05	14537.07
464.23	14691.54
464.41	14717.29
464.59	14429.40
464.78	14949.00
464.96	14665.80
465.14	14754.74
465.32	15218.16
465.50	15166.67
465.69	15241.57
465.87	15169.01
466.05	15042.62
466.23	15206.46
466.41	15236.89
466.60	15489.67
466.78	15227.53
466.96	15061.35
467.14	15452.22
467.32	15201.78
467.51	15599.67
467.69	15272.00
467.87	15611.37
468.05	15868.83
468.23	15220.50
468.41	15400.72
468.60	15571.58
468.78	15915.64
468.96	15777.55
469.14	15943.73
469.32	15903.94
469.50	15854.79
469.69	16107.57
469.87	16184.80
470.05	16388.43
470.23	16496.10
470.41	16563.97
470.59	16528.86
470.77	16233.96
470.95	16552.27
471.14	16854.20
471.32	16355.66
471.50	16807.39
471.68	16727.81
471.86	17043.78
472.04	17226.34
472.22	17586.79
472.40	16957.18
472.58	17013.35
472.77	17334.01
472.95	17692.11
473.13	17797.43
473.31	17762.33
473.49	17486.14
473.67	17544.66
473.85	17755.30
474.03	18675.13
474.21	18239.79
474.39	18249.16
474.57	18171.92
474.75	18544.06
474.93	18604.92
475.12	18429.38
475.30	18813.23
475.48	18899.83
475.66	19056.64
475.84	18829.61
476.02	19281.33
476.20	19047.28
476.38	19466.24
476.56	19623.05
476.74	19908.60
476.92	19674.54
477.10	19634.75
477.28	20236.27
477.46	20285.42
477.64	20322.87
477.82	20615.44
478.00	21046.10
478.18	20851.83
478.36	21165.46
478.54	21158.44
478.72	21378.45
478.90	21488.46
479.08	21865.28
479.26	21823.16
479.44	21717.83
479.62	22253.81
479.80	22302.96
479.98	22448.08
480.16	23344.50
480.34	22555.74
480.52	23051.94
480.70	23166.62
480.88	22960.66
481.06	23515.36
481.24	23431.10
481.41	23688.56
481.59	24184.76
481.77	24170.71
481.95	24159.01
482.13	24624.78
482.31	24556.90
482.49	24982.88
482.67	25029.69
482.85	25153.74
483.03	25682.70
483.21	25883.98
483.39	26141.44
483.57	26153.15
483.74	26171.87
483.92	26382.52
484.10	26146.12
484.28	27056.59
484.46	27412.35
484.64	27569.17
484.82	27159.58
485.00	27569.17
485.18	28086.43
485.35	28425.81
485.53	28332.18
485.71	28938.38
485.89	29022.64
486.07	29078.82
486.25	28821.36
486.43	29315.21
486.61	29839.49
486.78	29675.65
486.96	30373.13
487.14	30431.65
487.32	30749.96
487.50	30866.98
487.68	31101.04
487.85	31580.85
488.03	31632.34
488.21	32016.19
488.39	31960.02
488.57	32355.57
488.75	32020.87
488.92	32535.79
489.10	33195.82
489.28	33209.86
489.46	33614.77
489.64	33752.87
489.81	34157.78
489.99	34117.99
490.17	34167.14
490.35	34630.57
490.53	34693.76
490.70	35143.14
490.88	34934.84
491.06	35550.40
491.24	35522.31
491.41	35770.41
491.59	36222.13
491.77	36432.78
491.95	36884.50
492.13	36657.47
492.30	36886.84
492.48	36840.03
492.66	37354.95
492.84	37532.83
493.01	38188.18
493.19	38085.20
493.37	38258.40
493.54	38242.01
493.72	38103.92
493.90	38403.51
494.08	38815.44
494.25	39562.08
494.43	39697.83
494.61	39882.73
494.79	40151.89
494.96	40095.72
495.14	40065.29
495.32	40697.24
495.49	40774.47
495.67	41060.02
495.85	41275.35
496.02	41525.78
496.20	41731.75
496.38	41787.92
496.55	42082.83
496.73	42799.04
496.91	42195.18
497.09	42667.97
497.26	42649.24
497.44	42834.14
497.62	43302.25
497.79	43838.23
497.97	43810.15
498.14	44163.57
498.32	44170.59
498.50	44273.57
498.67	44680.83
498.85	44383.58
499.03	44526.35
499.20	44779.13
499.38	45043.61
499.56	45181.70
499.73	45598.32
499.91	45958.76
500.08	45820.67
500.26	45425.12
500.44	45986.85
500.61	46539.21
500.79	46270.05
500.97	46600.07
501.14	46616.45
501.32	46644.54
501.49	46639.86
501.67	46934.76
501.84	47433.30
502.02	47522.24
502.20	47721.18
502.37	47863.96
502.55	47716.50
502.72	47697.78
502.90	47583.09
503.07	48067.58
503.25	48289.93
503.43	48158.86
503.60	48807.19
503.78	48584.84
503.95	48502.92
504.13	48790.81
504.30	48961.67
504.48	48907.83
504.65	49453.18
504.83	49469.56
505.01	49649.78
505.18	49401.69
505.36	49932.99
505.53	49909.58
505.71	50131.93
505.88	50042.99
506.06	50258.32
506.23	50452.59
506.41	50209.17
506.58	50499.40
506.76	50483.01
506.93	50749.84
507.11	50876.22
507.28	50990.91
507.46	51138.36
507.63	51470.72
507.81	51463.70
507.98	51215.60
508.16	51498.81
508.33	51222.62
508.50	51779.67
508.68	51732.86
508.85	52177.56
509.03	52179.90
509.20	51990.32
509.38	52062.88
509.55	52217.35
509.73	52863.34
509.90	53027.18
510.08	53069.31
510.25	52816.53
510.42	53010.79
510.60	52966.32
510.77	53085.69
510.95	53130.16
511.12	53134.84
511.30	53434.43
511.47	53614.65
511.64	53488.26
511.82	53984.46
511.99	53572.52
512.17	54052.33
512.34	53963.39
512.51	54040.63
512.69	54426.82
512.86	54185.74
513.04	54260.64
513.21	54464.27
513.38	54267.66
513.56	54319.15
513.73	54595.34
513.90	54543.84
514.08	54721.72
514.25	55044.72
514.43	54770.88
514.60	54625.76
514.77	54562.57
514.95	54990.89
515.12	54983.86
515.29	55185.15
515.47	55332.60
515.64	55756.24
515.81	55466.02
515.99	55426.23
516.16	55618.15
516.33	55655.60
516.51	56088.60
516.68	56027.74
516.85	55980.93
517.03	56231.37
517.20	56076.90
517.37	55760.92
517.54	55964.55
517.72	56053.49
517.89	56135.41
518.06	56170.52
518.24	56226.69
518.41	56350.74
518.58	56324.99
518.75	56179.88
518.93	56577.77
519.10	56545.00
519.27	56556.70
519.45	56725.22
519.62	56933.53
519.79	57181.63
519.96	56617.56
520.14	57092.69
520.31	56645.65
520.48	56968.64
520.65	56914.81
520.83	57221.42
521.00	57396.96
521.17	57504.62
521.34	57415.68
521.52	57359.51
521.69	57523.35
521.86	57535.05
522.03	57368.87
522.20	57762.08
522.38	57832.30
522.55	57818.25
522.72	57904.85
522.89	58085.07
523.07	58019.54
523.24	57900.17
523.41	58052.31
523.58	58171.67
523.75	58087.42
523.92	58401.05
524.10	58396.37
524.27	58534.46
524.44	58326.15
524.61	58419.77
524.78	58384.66
524.96	58656.17
525.13	58583.61
525.30	58866.81
525.47	58993.20
525.64	58756.81
525.81	58859.79
525.98	58906.60
526.16	58712.34
526.33	58953.41
526.50	59058.74
526.67	59047.04
526.84	59217.89
527.01	59096.19
527.18	59306.83
527.36	59278.75
527.53	59250.66
527.70	59440.24
527.87	59480.03
528.04	59344.28
528.21	59629.83
528.38	59491.74
528.55	59770.26
528.72	59700.04
528.89	59627.49
529.07	59515.14
529.24	59636.85
529.41	59870.90
529.58	59889.63
529.75	59852.18
529.92	59969.21
530.09	59957.50
530.26	59887.29
530.43	59833.46
530.60	59730.47
530.77	59941.12
530.94	60282.84
531.11	60229.01
531.28	60214.96
531.46	60254.75
531.63	60341.35
531.80	60032.40
531.97	60322.63
532.14	60376.46
532.31	60264.11
532.48	60491.15
532.65	60654.98
532.82	60460.72
532.99	60669.03
533.16	60378.80
533.33	60612.85
533.50	60879.67
533.67	60835.20
533.84	60755.63
534.01	60884.36
534.18	60903.08
534.35	61183.94
534.52	60956.91
534.69	60982.66
534.86	61057.56
535.03	60570.72
535.20	61076.28
535.37	61214.37
535.54	61422.68
535.71	61038.83
535.88	61233.10
536.05	61340.76
536.22	61352.46
536.38	61361.82
536.55	61371.19
536.72	61317.35
536.89	61425.02
537.06	61485.87
537.23	61647.37
537.40	61654.39
537.57	61502.26
537.74	61399.27
537.91	61846.32
538.08	61638.01
538.25	61432.04
538.42	61731.63
538.59	61848.66
538.75	61647.37
538.92	61640.35
539.09	61911.85
539.26	61652.05
539.43	61785.46
539.60	61944.62
539.77	61975.05
539.94	62134.20
540.11	62190.37
540.28	62157.61
540.44	62276.97
540.61	62113.14
540.78	62225.48
540.95	62129.52
541.12	62110.80
541.29	62190.37
541.46	62386.98
541.62	62436.13
541.79	62494.64
541.96	62082.71
542.13	62401.02
542.30	62302.72
542.47	62504.01
542.63	62532.09
542.80	62621.03
542.97	62702.95
543.14	63016.58
543.31	62738.06
543.48	62777.85
543.64	63037.65
543.81	62981.48
543.98	62766.15
544.15	63047.01
544.32	63058.71
544.48	63192.12
544.65	63011.90
544.82	63257.66
544.99	62859.77
545.16	63056.37
545.32	62990.84
545.49	63384.05
545.66	63348.94
545.83	63355.96
546.00	63728.11
546.16	63370.00
546.33	63416.82
546.50	63159.36
546.67	63388.73
546.83	62981.48
547.00	63166.38
547.17	63128.93
547.34	63117.23
547.50	63568.95
547.67	63781.94
547.84	63571.29
548.00	63847.47
548.17	63795.98
548.34	63585.33
548.51	63800.66
548.67	63458.94
548.84	63707.04
549.01	63484.69
549.18	63831.09
549.34	63641.51
549.51	63791.30
549.68	63917.69
549.84	63826.41
550.01	63725.77
550.18	63622.78
550.34	63735.13
550.51	63859.18
550.68	64008.97
550.84	63660.23
551.01	64224.30
551.18	63861.52
551.34	63798.32
551.51	63800.66
551.68	64023.01
551.84	63952.80
552.01	63898.97
552.18	64205.58
552.34	64111.95
552.51	64214.94
552.68	64280.47
552.84	64271.11
553.01	64423.25
553.18	64177.49
553.34	64310.90
553.51	64027.70
553.67	64219.62
553.84	64647.94
554.01	64367.07
554.17	64568.36
554.34	64437.29
554.51	64514.53
554.67	64619.85
554.84	64399.84
555.00	64331.96
555.17	64327.28
555.33	64465.38
555.50	64498.14
555.67	64647.94
555.83	64587.08
556.00	64741.56
556.16	64835.18
556.33	64708.79
556.50	64519.21
556.66	64519.21
556.83	64456.01
556.99	64776.67
557.16	64889.01
557.32	64905.40
557.49	65066.89
557.65	64615.17
557.82	64678.36
557.98	64804.75
558.15	64666.66
558.32	64921.78
558.48	64776.67
558.65	64921.78
558.81	64947.53
558.98	65071.57
559.14	64984.97
559.31	65139.45
559.47	65169.88
559.64	65237.75
559.80	65036.47
559.97	65052.85
560.13	65050.51
560.30	64867.95
560.46	65102.00
560.63	65059.87
560.79	65331.37
560.96	65401.59
561.12	65160.51
561.29	64966.25
561.45	65179.24
561.61	65055.19
561.78	65190.94
561.94	65378.18
562.11	65415.63
562.27	65310.31
562.44	65485.85
562.60	65385.21
562.77	65485.85
562.93	65422.65
563.10	65460.10
563.26	65221.37
563.42	65460.10
563.59	65525.64
563.75	65535.00
563.92	65429.68
564.08	65427.34
564.24	65441.38
564.41	65513.94
564.57	65352.44
564.74	65350.10
564.90	65535.00
565.07	65535.00
565.23	65535.00
565.39	65485.85
565.56	65535.00
565.72	65520.96
565.88	65535.00
566.05	65535.00
566.21	65535.00
566.38	65464.78
566.54	65520.96
566.70	65535.00
566.87	65535.00
567.03	65535.00
567.19	65535.00
567.36	65535.00
567.52	65535.00
567.68	65535.00
567.85	65535.00
568.01	65535.00
568.17	65535.00
568.34	65535.00
568.50	65535.00
568.66	65535.00
568.83	65535.00
568.99	65535.00
569.15	65535.00
569.32	65535.00
569.48	65535.00
569.64	65535.00
569.81	65535.00
569.97	65535.00
570.13	65535.00
570.30	65535.00
570.46	65535.00
570.62	65535.00
570.78	65535.00
570.95	65535.00
571.11	65535.00
571.27	65535.00
571.43	65535.00
571.60	65535.00
571.76	65535.00
571.92	65535.00
572.09	65535.00
572.25	65535.00
572.41	65535.00
572.57	65535.00
572.74	65535.00
572.90	65535.00
573.06	65535.00
573.22	65535.00
573.38	65535.00
573.55	65535.00
573.71	65535.00
573.87	65535.00
574.03	65535.00
574.20	65535.00
574.36	65535.00
574.52	65535.00
574.68	65535.00
574.84	65535.00
575.01	65535.00
575.17	65535.00
575.33	65535.00
575.49	65535.00
575.65	65535.00
575.82	65535.00
575.98	65535.00
576.14	65535.00
576.30	65535.00
576.46	65535.00
576.62	65535.00
576.79	65535.00
576.95	65535.00
577.11	65535.00
577.27	65535.00
577.43	65535.00
577.59	65535.00
577.75	65535.00
577.92	65535.00
578.08	65535.00
578.24	65535.00
578.40	65535.00
578.56	65535.00
578.72	65535.00
578.88	65535.00
579.04	65535.00
579.21	65535.00
579.37	65535.00
579.53	65535.00
579.69	65535.00
579.85	65535.00
580.01	65535.00
580.17	65535.00
580.33	65535.00
580.49	65535.00
580.65	65535.00
580.82	65535.00
580.98	65535.00
581.14	65535.00
581.30	65535.00
581.46	65535.00
581.62	65535.00
581.78	65535.00
581.94	65535.00
582.10	65535.00
582.26	65535.00
582.42	65535.00
582.58	65535.00
582.74	65535.00
582.90	65535.00
583.06	65535.00
583.22	65535.00
583.38	65535.00
583.54	65535.00
583.70	65535.00
583.86	65535.00
584.02	65535.00
584.18	65535.00
584.34	65535.00
584.50	65535.00
584.66	65535.00
584.82	65535.00
584.98	65535.00
585.14	65535.00
585.30	65535.00
585.46	65535.00
585.62	65535.00
585.78	65535.00
585.94	65535.00
586.10	65535.00
586.26	65535.00
586.42	65535.00
586.58	65535.00
586.74	65535.00
586.90	65535.00
587.06	65535.00
587.22	65535.00
