SpectraSuite Data File
++++++++++++++++++++++++++++++++++++
Date: Thu Oct 24 13:21:22 EDT 2013
User: stostad
Dark Spectrum Present: No
Reference Spectrum Present: No
Number of Sampled Component Spectra: 1
Spectrometers: USB2+H05261
Integration Time (usec): 100000 (USB2+H05261)
Spectra Averaged: 1 (USB2+H05261)
Boxcar Smoothing: 0 (USB2+H05261)
Correct for Electrical Dark: No (USB2+H05261)
Strobe/Lamp Enabled: No (USB2+H05261)
Correct for Detector Non-linearity: No (USB2+H05261)
Correct for Stray Light: No (USB2+H05261)
Number of Pixels in Processed Spectrum: 2048
>>>>>Begin Processed Spectral Data<<<<<
365.73	547.69
365.92	547.69
366.12	547.69
366.32	428.32
366.52	482.15
366.72	454.06
366.91	404.91
367.11	505.56
367.31	425.98
367.51	442.36
367.70	517.26
367.90	477.47
368.10	442.36
368.30	437.68
368.49	435.34
368.69	493.85
368.89	486.83
369.09	461.09
369.28	531.30
369.48	507.90
369.68	517.26
369.87	519.60
370.07	547.69
370.27	617.90
370.47	650.67
370.66	844.93
370.86	866.00
371.06	887.06
371.25	926.85
371.45	847.27
371.65	905.79
371.84	894.08
372.04	912.81
372.24	847.27
372.44	1013.45
372.63	1011.11
372.83	1015.79
373.03	931.53
373.22	1001.75
373.42	1053.24
373.62	1055.58
373.81	997.07
374.01	1008.77
374.21	1015.79
374.40	1097.71
374.60	994.73
374.79	1025.15
374.99	1015.79
375.19	999.41
375.38	1088.35
375.58	1116.44
375.78	987.71
375.97	1118.78
376.17	1050.90
376.37	1004.09
376.56	1008.77
376.76	1062.60
376.95	1039.20
377.15	1125.80
377.35	1163.25
377.54	1128.14
377.74	1078.99
377.93	1132.82
378.13	1144.52
378.33	1151.54
378.52	1149.20
378.72	1132.82
378.91	1174.95
379.11	1100.05
379.31	1160.91
379.50	1184.31
379.70	1224.10
379.89	1125.80
380.09	1156.22
380.28	1165.59
380.48	1191.33
380.68	1196.01
380.87	1167.93
381.07	1191.33
381.26	1188.99
381.46	1177.29
381.65	1196.01
381.85	1158.57
382.04	1277.93
382.24	1228.78
382.43	1287.29
382.63	1259.21
382.83	1301.34
383.02	1280.27
383.22	1205.38
383.41	1221.76
383.61	1334.11
383.80	1366.87
384.00	1313.04
384.19	1301.34
384.39	1294.32
384.58	1315.38
384.78	1256.87
384.97	1261.55
385.17	1324.74
385.36	1383.26
385.56	1380.92
385.75	1427.73
385.95	1357.51
386.14	1310.70
386.34	1308.36
386.53	1392.62
386.72	1322.40
386.92	1280.27
387.11	1329.42
387.31	1366.87
387.50	1437.09
387.70	1338.79
387.89	1413.68
388.09	1430.07
388.28	1497.94
388.48	1465.18
388.67	1437.09
388.86	1329.42
389.06	1526.03
389.25	1472.20
389.45	1476.88
389.64	1406.66
389.84	1441.77
390.03	1486.24
390.22	1490.92
390.42	1446.45
390.61	1547.09
390.81	1502.62
391.00	1479.22
391.19	1530.71
391.39	1556.46
391.58	1603.27
391.78	1509.65
391.97	1551.78
392.16	1563.48
392.36	1603.27
392.55	1647.74
392.75	1549.43
392.94	1537.73
393.13	1666.46
393.33	1586.88
393.52	1558.80
393.71	1591.56
393.91	1626.67
394.10	1703.91
394.29	1647.74
394.49	1666.46
394.68	1748.38
394.88	1736.68
395.07	1727.32
395.26	1760.08
395.46	1675.82
395.65	1727.32
395.84	1788.17
396.04	1856.04
396.23	1827.96
396.42	1811.57
396.62	1727.32
396.81	1753.06
397.00	1802.21
397.19	1834.98
397.39	1830.30
397.58	1797.53
397.77	1797.53
397.97	1860.73
398.16	1905.20
398.35	1982.43
398.55	1956.69
398.74	1853.70
398.93	1961.37
399.12	1930.94
399.32	1982.43
399.51	1900.52
399.70	1980.09
399.90	1926.26
400.09	2038.61
400.28	2029.24
400.47	1966.05
400.67	2101.80
400.86	2104.14
401.05	2045.63
401.24	2080.74
401.44	2101.80
401.63	2172.02
401.82	2176.70
402.01	2101.80
402.21	2139.25
402.40	2085.42
402.59	2165.00
402.78	2129.89
402.97	2267.98
403.17	2132.23
403.36	2228.19
403.55	2307.77
403.74	2399.05
403.93	2436.50
404.13	2270.32
404.32	2366.28
404.51	2377.98
404.70	2305.43
404.89	2296.07
405.09	2406.07
405.28	2368.62
405.47	2504.37
405.66	2354.58
405.85	2495.01
406.05	2417.77
406.24	2480.97
406.43	2450.54
406.62	2623.74
406.81	2576.93
407.00	2551.18
407.20	2476.29
407.39	2492.67
407.58	2574.59
407.77	2511.39
407.96	2651.83
408.15	2567.57
408.34	2565.23
408.54	2605.02
408.73	2555.86
408.92	2654.17
409.11	2705.66
409.30	2782.90
409.49	2635.44
409.68	2818.00
409.87	2841.41
410.07	2874.18
410.26	2675.23
410.45	2871.84
410.64	2836.73
410.83	2881.20
411.02	2935.03
411.21	3068.44
411.40	2871.84
411.59	2946.73
411.78	3056.74
411.98	2895.24
412.17	3012.27
412.36	3082.49
412.55	3026.31
412.74	3166.74
412.93	3091.85
413.12	3251.00
413.31	3349.31
413.50	3194.83
413.69	3251.00
413.88	3321.22
414.07	3353.99
414.26	3290.79
414.45	3342.28
414.64	3361.01
414.83	3501.44
415.02	3520.17
415.22	3440.59
415.41	3520.17
415.60	3421.86
415.79	3496.76
415.98	3632.51
416.17	3684.00
416.36	3578.68
416.55	3590.38
416.74	3709.75
416.93	3737.84
417.12	3665.28
417.31	3826.78
417.50	3754.22
417.69	3754.22
417.88	3740.18
418.07	3941.46
418.26	3822.09
418.45	3794.01
418.64	3948.48
418.83	3896.99
419.02	4016.36
419.21	4025.72
419.39	4109.98
419.58	4049.13
419.77	3904.01
419.96	4119.34
420.15	4018.70
420.34	4044.45
420.53	4149.77
420.72	4100.62
420.91	4093.60
421.10	4175.52
421.29	4262.12
421.48	4180.20
421.67	4257.43
421.86	4039.76
422.05	4273.82
422.24	4308.93
422.43	4283.18
422.61	4301.90
422.80	4315.95
422.99	4360.42
423.18	4468.08
423.37	4479.79
423.56	4292.54
423.75	4395.53
423.94	4339.35
424.13	4142.75
424.32	4248.07
424.50	4458.72
424.69	4493.83
424.88	4500.85
425.07	4367.44
425.26	4266.80
425.45	4400.21
425.64	4479.79
425.83	4362.76
426.01	4390.84
426.20	4393.19
426.39	4491.49
426.58	4517.23
426.77	4435.32
426.96	4580.43
427.15	4552.34
427.33	4652.98
427.52	4624.90
427.71	4842.57
427.90	4627.24
428.09	4475.10
428.28	4531.28
428.46	4692.77
428.65	4739.58
428.84	4856.61
429.03	4767.67
429.22	4695.11
429.40	4631.92
429.59	4910.44
429.78	4709.16
429.97	4732.56
430.16	4788.74
430.34	4851.93
430.53	5020.45
430.72	4898.74
430.91	4957.25
431.10	4891.72
431.28	5036.83
431.47	5083.64
431.66	5081.30
431.85	5018.11
432.03	5186.63
432.22	5296.63
432.41	5076.62
432.60	5184.29
432.79	5172.58
432.97	5205.35
433.16	5228.76
433.35	5191.31
433.54	5172.58
433.72	5420.68
433.91	5263.86
434.10	5408.98
434.28	5371.53
434.47	5380.89
434.66	5348.12
434.85	5589.20
435.03	5647.71
435.22	5458.13
435.41	5818.57
435.59	5762.40
435.78	5804.53
435.97	5802.19
436.16	5598.56
436.34	5694.52
436.53	5795.17
436.72	5781.12
436.90	5640.69
437.09	5888.79
437.28	5542.39
437.46	5760.06
437.65	5706.23
437.84	5839.64
438.02	5930.92
438.21	5781.12
438.40	5834.96
438.58	5865.38
438.77	5916.87
438.96	6104.12
439.14	6061.99
439.33	6076.03
439.52	6143.91
439.70	6305.40
439.89	6232.85
440.08	6307.74
440.26	6443.49
440.45	6328.81
440.63	6373.28
440.82	6796.92
441.01	6389.66
441.19	6532.44
441.38	6583.93
441.57	6658.82
441.75	6670.53
441.94	6916.28
442.12	6693.93
442.31	6832.02
442.50	6834.36
442.68	6689.25
442.87	6780.53
443.05	6888.20
443.24	6932.67
443.43	6876.49
443.61	6890.54
443.80	7412.48
443.98	6857.77
444.17	6649.46
444.35	7073.10
444.54	7159.70
444.73	7215.87
444.91	7166.72
445.10	7164.38
445.28	7215.87
445.47	6946.71
445.65	7152.68
445.84	7290.77
446.02	7150.34
446.21	7148.00
446.39	7253.32
446.58	7302.47
446.77	7169.06
446.95	7021.61
447.14	7236.94
447.32	7372.69
447.51	7412.48
447.69	7150.34
447.88	7279.07
448.06	7253.32
448.25	7241.62
448.43	7110.55
448.62	7204.17
448.80	7274.38
448.99	7246.30
449.17	7386.73
449.36	7288.43
449.54	7428.86
449.73	7344.60
449.91	7630.15
450.10	7602.06
450.28	7929.74
450.46	7772.92
450.65	7431.20
450.83	7618.44
451.02	7644.19
451.20	7824.41
451.39	7667.60
451.57	7669.94
451.76	7721.43
451.94	7672.28
452.13	7889.95
452.31	7990.59
452.49	7920.37
452.68	7815.05
452.86	7756.54
453.05	8039.74
453.23	8163.79
453.42	7943.78
453.60	7936.76
453.78	8121.66
453.97	7854.84
454.15	7861.86
454.34	8013.99
454.52	8170.81
454.70	8154.43
454.89	8294.86
455.07	8278.47
455.26	8388.48
455.44	8435.29
455.62	8322.94
455.81	8376.78
455.99	8489.12
456.17	8315.92
456.36	8266.77
456.54	8500.83
456.73	8685.73
456.91	8847.22
457.09	8739.56
457.28	8805.10
457.46	8681.05
457.64	8856.59
457.83	8884.67
458.01	8933.82
458.19	9151.49
458.38	8947.87
458.56	9050.85
458.74	9015.74
458.93	8861.27
459.11	8992.34
459.29	9132.77
459.48	9076.60
459.66	8901.06
459.84	9315.33
460.03	9221.71
460.21	9181.92
460.39	9296.61
460.57	9441.72
460.76	9378.53
460.94	9383.21
461.12	9399.59
461.31	9446.40
461.49	9507.26
461.67	9324.69
461.85	9434.70
462.04	9256.82
462.22	9650.03
462.40	9729.61
462.59	9769.40
462.77	9497.89
462.95	9769.40
463.13	9907.49
463.32	9589.17
463.50	9738.97
463.68	9788.12
463.86	10068.98
464.05	9717.90
464.23	9874.72
464.41	9947.28
464.59	9755.35
464.78	9902.81
464.96	9940.26
465.14	9757.69
465.32	9867.70
465.50	10176.65
465.69	10106.43
465.87	10200.05
466.05	10059.62
466.23	10094.73
466.41	10064.30
466.60	10422.41
466.78	10047.92
466.96	10260.91
467.14	10267.93
467.32	10272.61
467.51	10305.38
467.69	10195.37
467.87	10452.83
468.05	10427.09
468.23	10450.49
468.41	10174.31
468.60	10424.75
468.78	10396.66
468.96	10359.21
469.14	10930.30
469.32	10796.89
469.50	10415.38
469.69	10792.21
469.87	10869.45
470.05	10874.13
470.23	10787.53
470.41	11110.52
470.59	10951.37
470.77	11267.34
470.95	11026.26
471.14	10963.07
471.32	10750.08
471.50	11222.87
471.68	11140.95
471.86	11222.87
472.04	11262.66
472.22	11609.06
472.40	11307.13
472.58	11595.01
472.77	11730.76
472.95	11503.73
473.13	11985.88
473.31	11543.52
473.49	11672.25
473.67	11630.12
473.85	12095.89
474.03	12109.93
474.21	12229.30
474.39	12154.40
474.57	12112.27
474.75	12367.39
474.93	12477.40
475.12	12428.24
475.30	12444.63
475.48	12446.97
475.66	12496.12
475.84	12510.16
476.02	12671.66
476.20	12615.49
476.38	12973.59
476.56	12978.27
476.74	13041.46
476.92	12959.55
477.10	12872.95
477.28	13121.04
477.46	13209.98
477.64	13317.65
477.82	13568.09
478.00	13898.10
478.18	13399.57
478.36	13860.65
478.54	14134.50
478.72	14310.04
478.90	14202.37
479.08	14494.94
479.26	14361.53
479.44	14637.71
479.62	14649.41
479.80	14696.22
479.98	14951.34
480.16	14953.68
480.34	14881.13
480.52	15140.93
480.70	15246.25
480.88	15201.78
481.06	15522.43
481.24	15541.16
481.41	15761.17
481.59	15765.85
481.77	15721.38
481.95	16053.73
482.13	16269.06
482.31	16081.82
482.49	16528.86
482.67	16290.13
482.85	16718.45
483.03	16886.97
483.21	16683.34
483.39	17209.96
483.57	16915.05
483.74	17586.79
483.92	17425.29
484.10	17521.25
484.28	17448.69
484.46	17846.58
484.64	18363.84
484.82	17898.08
485.00	18405.97
485.18	18450.44
485.35	18747.69
485.53	18539.38
485.71	18857.70
485.89	19054.30
486.07	19089.41
486.25	18948.98
486.43	19587.94
486.61	19517.73
486.78	19791.57
486.96	19686.25
487.14	20074.77
487.32	19878.17
487.50	20173.08
487.68	20645.87
487.85	20620.12
488.03	21097.59
488.21	20999.29
488.39	20940.77
488.57	21198.23
488.75	21568.04
488.92	21465.05
489.10	21888.69
489.28	21748.26
489.46	21996.35
489.64	22008.06
489.81	22480.85
489.99	22602.55
490.17	22759.37
490.35	22970.02
490.53	22527.66
490.70	23040.23
490.88	23241.52
491.06	23300.03
491.24	23145.56
491.41	23545.79
491.59	23569.19
491.77	23878.15
491.95	24074.75
492.13	24191.78
492.30	24486.68
492.48	24306.46
492.66	24503.07
492.84	24725.42
493.01	25020.33
493.19	25053.09
493.37	25153.74
493.54	25319.92
493.72	25355.02
493.90	25542.27
494.08	25415.88
494.25	26054.84
494.43	26003.35
494.61	26211.66
494.79	26368.48
494.96	26099.31
495.14	26267.83
495.32	26974.67
495.49	26941.91
495.67	27061.27
495.85	26979.36
496.02	27367.88
496.20	27159.58
496.38	27828.97
496.55	27782.16
496.73	28236.22
496.91	28048.98
497.09	28254.95
497.26	28217.50
497.44	28283.03
497.62	28119.20
497.79	28683.27
497.97	28636.45
498.14	29284.78
498.32	29427.56
498.50	29343.30
498.67	29336.27
498.85	29544.58
499.03	29972.90
499.20	29656.93
499.38	29661.61
499.56	29942.47
499.73	30054.82
499.91	30356.75
500.08	30192.91
500.26	30221.00
500.44	30520.59
500.61	30384.83
500.79	30361.43
500.97	30874.01
501.14	31388.92
501.32	31150.19
501.49	31070.61
501.67	31136.15
501.84	31648.72
502.02	31243.81
502.20	31604.25
502.37	31751.71
502.55	31379.56
502.72	32051.30
502.90	31718.94
503.07	31952.99
503.25	32411.74
503.43	32140.24
503.60	32687.92
503.78	32416.42
503.95	32498.34
504.13	32430.46
504.30	32203.43
504.48	32725.37
504.65	33118.58
504.83	33514.13
505.01	33546.90
505.18	33235.61
505.36	33186.46
505.53	33387.74
505.71	33722.44
505.88	33539.88
506.06	33923.72
506.23	34246.72
506.41	34050.11
506.58	33855.85
506.76	34052.45
506.93	34195.23
507.11	34162.46
507.28	34731.21
507.46	34487.79
507.63	34895.05
507.81	34785.04
507.98	34539.29
508.16	34731.21
508.33	35117.40
508.50	35122.08
508.68	35360.81
508.85	35538.69
509.03	35428.69
509.20	35475.50
509.38	35739.98
509.55	36098.08
509.73	36247.88
509.90	36353.20
510.08	35985.74
510.25	36177.66
510.42	36418.74
510.60	36439.80
510.77	36414.05
510.95	36755.77
511.12	36627.04
511.30	36961.74
511.47	36718.32
511.64	36624.70
511.82	36715.98
511.99	37062.38
512.17	36809.61
512.34	37528.15
512.51	37724.75
512.69	37687.31
512.86	37722.41
513.04	38127.33
513.21	37628.79
513.38	37830.08
513.56	37731.78
513.73	37769.22
513.90	38260.74
514.08	38431.60
514.25	38934.81
514.43	38682.03
514.60	38569.69
514.77	38497.13
514.95	38635.22
515.12	38532.24
515.29	38834.17
515.47	39360.79
515.64	39426.32
515.81	39019.07
515.99	39365.47
516.16	39632.29
516.33	39494.20
516.51	39934.22
516.68	39667.40
516.85	39765.70
517.03	39669.74
517.20	39854.64
517.37	39917.84
517.54	40149.55
517.72	40334.45
517.89	39824.22
518.06	40552.12
518.24	40624.68
518.41	40467.86
518.58	40671.49
518.75	40219.77
518.93	40790.86
519.10	40786.18
519.27	40832.99
519.45	40891.50
519.62	41081.08
519.79	41464.93
519.96	41148.96
520.14	41338.54
520.31	41254.28
520.48	41390.03
520.65	41446.21
520.83	42031.34
521.00	41773.88
521.17	41411.10
521.34	41881.55
521.52	41799.63
521.69	42036.02
521.86	42267.73
522.03	42171.77
522.20	42581.37
522.38	42560.30
522.55	42471.36
522.72	42492.43
522.89	42747.54
523.07	42667.97
523.24	42410.51
523.41	42930.11
523.58	42529.87
523.75	43199.27
523.92	42780.31
524.10	43182.88
524.27	43257.78
524.44	43496.52
524.61	43482.47
524.78	43524.60
524.96	43594.82
525.13	43498.86
525.30	43856.96
525.47	44610.61
525.64	44067.61
525.81	44268.89
525.98	44245.49
526.16	43632.27
526.33	43913.13
526.50	44678.49
526.67	44299.32
526.84	44404.64
527.01	44648.06
527.18	44402.30
527.36	44617.63
527.53	44378.90
527.70	44933.60
527.87	44762.75
528.04	44830.62
528.21	45130.21
528.38	44762.75
528.55	45221.49
528.72	44713.59
528.89	44945.31
529.07	44971.05
529.24	45095.10
529.41	45336.18
529.58	45551.51
529.75	45617.04
529.92	45801.94
530.09	45790.24
530.26	45687.26
530.43	45647.47
530.60	45153.62
530.77	45284.68
530.94	46000.89
531.11	45984.51
531.28	46206.86
531.46	46190.47
531.63	46141.32
531.80	46085.15
531.97	46440.91
532.14	46279.41
532.31	46368.35
532.48	46391.76
532.65	46391.76
532.82	46651.56
532.99	46398.78
533.16	46644.54
533.33	46614.11
533.50	46574.32
533.67	47122.01
533.84	46550.91
534.01	47110.30
534.18	47208.61
534.35	47337.33
534.52	47199.24
534.69	47150.09
534.86	47040.09
535.03	46850.50
535.20	47576.07
535.37	47594.79
535.54	48013.75
535.71	47555.00
535.88	47393.51
536.05	47594.79
536.22	47697.78
536.38	48058.22
536.55	47966.94
536.72	47938.85
536.89	47676.71
537.06	48275.89
537.23	48397.60
537.40	48264.19
537.57	47648.63
537.74	48044.18
537.91	48357.81
538.08	48245.46
538.25	47700.12
538.42	48542.71
538.59	48992.09
538.75	48388.24
538.92	48769.74
539.09	48425.68
539.26	48903.15
539.43	48720.59
539.60	48769.74
539.77	48575.48
539.94	49230.83
540.11	48964.01
540.28	49031.88
540.44	49244.87
540.61	48835.28
540.78	48872.73
540.95	49209.76
541.12	48928.90
541.29	49710.64
541.46	49331.47
541.62	49705.96
541.79	49509.35
541.96	49439.14
542.13	49179.34
542.30	49553.82
542.47	49624.04
542.63	49750.43
542.80	50068.74
542.97	50384.71
543.14	50735.79
543.31	50562.59
543.48	50298.11
543.64	50534.51
543.81	50595.36
543.98	50302.79
544.15	50258.32
544.32	50382.37
544.48	50688.98
544.65	50490.04
544.82	50791.97
544.99	50302.79
545.16	50274.71
545.32	50494.72
545.49	50813.03
545.66	51185.18
545.83	51178.15
546.00	51597.11
546.16	50939.42
546.33	51089.21
546.50	50890.27
546.67	50726.43
546.83	50721.75
547.00	50651.53
547.17	50609.40
547.34	50906.65
547.50	51178.15
547.67	51552.64
547.84	51201.56
548.00	51552.64
548.17	51711.80
548.34	51253.05
548.51	51180.49
548.67	51550.30
548.84	51320.93
549.01	51026.02
549.18	51227.31
549.34	51924.78
549.51	51313.90
549.68	51442.63
549.84	51903.72
550.01	51770.31
550.18	51515.19
550.34	51395.82
550.51	51498.81
550.68	51760.95
550.84	51819.46
551.01	51786.69
551.18	51777.33
551.34	51562.00
551.51	51510.51
551.68	51873.29
551.84	51908.40
552.01	51765.63
552.18	51922.44
552.34	51728.18
552.51	52360.12
552.68	52200.97
552.84	52264.16
553.01	52081.60
553.18	52140.11
553.34	52224.37
553.51	52067.56
553.67	51791.37
553.84	52584.82
554.01	52657.37
554.17	52348.42
554.34	52371.83
554.51	52659.71
554.67	52683.12
554.84	52271.18
555.00	52364.81
555.17	52556.73
555.33	52397.57
555.50	52566.09
555.67	52404.59
555.83	52659.71
556.00	52835.25
556.16	52760.36
556.33	52928.87
556.50	52568.43
556.66	52879.72
556.83	52460.77
556.99	52832.91
557.16	52825.89
557.32	53216.76
557.49	52961.64
557.65	52769.72
557.82	53158.25
557.98	53092.71
558.15	52762.70
558.32	52900.79
558.48	52797.80
558.65	53083.35
558.81	52886.74
558.98	53172.29
559.14	53097.39
559.31	53116.12
559.47	52926.53
559.64	53205.06
559.80	53017.82
559.97	53048.24
560.13	53130.16
560.30	52956.96
560.46	53219.10
560.63	53338.47
560.79	53600.61
560.96	53558.48
561.12	53315.06
561.29	53102.07
561.45	53111.44
561.61	53125.48
561.78	53188.67
561.94	53485.92
562.11	53759.76
562.27	53467.20
562.44	53790.19
562.60	53778.49
562.77	53469.54
562.93	53455.50
563.10	53741.04
563.26	53123.14
563.42	53829.98
563.59	53719.98
563.75	53586.57
563.92	53722.32
564.08	53549.12
564.24	53593.59
564.41	53661.46
564.57	53436.77
564.74	53478.90
564.90	53872.11
565.07	53916.58
565.23	53844.02
565.39	54031.27
565.56	54026.59
565.72	53827.64
565.88	53954.03
566.05	53925.94
566.21	53614.65
566.38	53799.55
566.54	53624.01
566.70	53818.28
566.87	54005.52
567.03	53780.83
567.19	54452.56
567.36	54265.32
567.52	54087.44
567.68	54021.90
567.85	53811.26
568.01	54017.22
568.17	53904.88
568.34	54085.10
568.50	54007.86
568.66	54209.15
568.83	54241.92
568.99	53897.86
569.15	53907.22
569.32	53958.71
569.48	53734.02
569.64	53914.24
569.81	53670.82
569.97	53710.61
570.13	54234.89
570.30	54066.38
570.46	54225.53
570.62	54188.08
570.78	53764.45
570.95	53848.71
571.11	54061.69
571.27	54160.00
571.43	54218.51
571.60	54089.78
571.76	53954.03
571.92	54169.36
572.09	54080.42
572.25	54277.02
572.41	54583.63
572.57	54471.29
572.74	54457.24
572.90	54169.36
573.06	54398.73
573.22	54162.34
573.38	54148.29
573.55	53907.22
573.71	54791.94
573.87	54457.24
574.03	53989.14
574.20	54225.53
574.36	54323.83
574.52	54724.07
574.68	54461.93
574.84	54335.54
575.01	54511.08
575.17	54497.03
575.33	54377.67
575.49	54049.99
575.65	54628.10
575.82	54382.35
575.98	54291.07
576.14	54695.98
576.30	54351.92
576.46	54513.42
576.62	54398.73
576.79	54312.13
576.95	54129.57
577.11	54382.35
577.27	54677.25
577.43	54454.90
577.59	54686.62
577.75	54637.47
577.92	54272.34
578.08	54555.55
578.24	54534.48
578.40	54300.43
578.56	54422.14
578.72	54618.74
578.88	54906.63
579.04	54752.15
579.21	54277.02
579.37	54733.43
579.53	54864.50
579.69	54473.63
579.85	54520.44
580.01	54747.47
580.17	54478.31
580.33	54623.42
580.49	54642.15
580.65	54527.46
580.82	54665.55
580.98	54787.26
581.14	54918.33
581.30	54838.75
581.46	54651.51
581.62	54433.84
581.78	54323.83
581.94	54546.18
582.10	54436.18
582.26	54630.44
582.42	54550.87
582.58	54604.70
582.74	54934.71
582.90	54892.58
583.06	54614.06
583.22	54616.40
583.38	54415.11
583.54	54562.57
583.70	54695.98
583.86	54784.92
584.02	54660.87
584.18	54815.35
584.34	54576.61
584.50	54770.88
584.66	54761.51
584.82	54539.16
584.98	54578.95
585.14	54761.51
585.30	54595.34
585.46	54869.18
585.62	54550.87
585.78	55096.21
585.94	54770.88
586.10	54836.41
586.26	54850.45
586.42	54852.80
586.58	54794.28
586.74	54983.86
586.90	54616.40
587.06	54712.36
587.22	54892.58
587.38	54773.22
587.54	55121.96
587.70	55206.22
587.86	54923.01
588.02	55124.30
588.18	55138.34
588.34	55147.70
588.49	54925.35
588.65	54740.45
