SpectraSuite Data File
++++++++++++++++++++++++++++++++++++
Date: Thu Oct 24 13:21:05 EDT 2013
User: stostad
Dark Spectrum Present: No
Reference Spectrum Present: No
Number of Sampled Component Spectra: 1
Spectrometers: USB2+H05261
Integration Time (usec): 100000 (USB2+H05261)
Spectra Averaged: 1 (USB2+H05261)
Boxcar Smoothing: 0 (USB2+H05261)
Correct for Electrical Dark: No (USB2+H05261)
Strobe/Lamp Enabled: No (USB2+H05261)
Correct for Detector Non-linearity: No (USB2+H05261)
Correct for Stray Light: No (USB2+H05261)
Number of Pixels in Processed Spectrum: 2048
>>>>>Begin Processed Spectral Data<<<<<
365.73	552.37
365.92	552.37
366.12	552.37
366.32	477.47
366.52	449.38
366.72	512.58
366.91	500.87
367.11	444.70
367.31	447.04
367.51	475.13
367.70	449.38
367.90	411.93
368.10	447.04
368.30	524.28
368.49	430.66
368.69	512.58
368.89	557.05
369.09	461.09
369.28	533.64
369.48	507.90
369.68	526.62
369.87	575.77
370.07	489.17
370.27	521.94
370.47	606.20
370.66	676.41
370.86	718.54
371.06	674.07
371.25	753.65
371.45	685.78
371.65	786.42
371.84	660.03
372.04	657.69
372.24	774.72
372.44	781.74
372.63	725.57
372.83	730.25
373.03	709.18
373.22	770.04
373.42	802.80
373.62	800.46
373.81	636.63
374.01	777.06
374.21	805.14
374.40	758.33
374.60	844.93
374.79	835.57
374.99	807.48
375.19	798.12
375.38	828.55
375.58	830.89
375.78	816.85
375.97	800.46
376.17	856.64
376.37	800.46
376.56	788.76
376.76	807.48
376.95	807.48
377.15	858.98
377.35	861.32
377.54	849.61
377.74	816.85
377.93	816.85
378.13	770.04
378.33	800.46
378.52	793.44
378.72	795.78
378.91	837.91
379.11	802.80
379.31	798.12
379.50	760.67
379.70	844.93
379.89	786.42
380.09	805.14
380.28	873.02
380.48	847.27
380.68	847.27
380.87	863.66
381.07	875.36
381.26	828.55
381.46	847.27
381.65	821.53
381.85	882.38
382.04	854.30
382.24	903.45
382.43	840.25
382.63	772.38
382.83	851.96
383.02	908.13
383.22	863.66
383.41	894.08
383.61	753.65
383.80	891.74
384.00	819.19
384.19	894.08
384.39	884.72
384.58	880.04
384.78	866.00
384.97	926.85
385.17	854.30
385.36	896.43
385.56	912.81
385.75	828.55
385.95	847.27
386.14	924.51
386.34	910.47
386.53	894.08
386.72	868.34
386.92	901.11
387.11	880.04
387.31	905.79
387.50	945.58
387.70	929.19
387.89	896.43
388.09	870.68
388.28	891.74
388.48	968.98
388.67	929.19
388.86	877.70
389.06	978.34
389.25	1029.84
389.45	915.15
389.64	973.66
389.84	910.47
390.03	924.51
390.22	938.55
390.42	943.24
390.61	877.70
390.81	983.02
391.00	992.39
391.19	1067.28
391.39	896.43
391.58	1001.75
391.78	952.60
391.97	1029.84
392.16	990.05
392.36	997.07
392.55	938.55
392.75	973.66
392.94	1046.22
393.13	973.66
393.33	990.05
393.52	997.07
393.71	1076.65
393.91	1006.43
394.10	976.00
394.29	1034.52
394.49	1011.11
394.68	1078.99
394.88	1029.84
395.07	1086.01
395.26	1121.12
395.46	1025.15
395.65	1029.84
395.84	1048.56
396.04	1181.97
396.23	1027.50
396.42	1057.92
396.62	1093.03
396.81	1121.12
397.00	1125.80
397.19	992.39
397.39	1062.60
397.58	1144.52
397.77	952.60
397.97	1078.99
398.16	1078.99
398.35	1160.91
398.55	1184.31
398.74	1151.54
398.93	1118.78
399.12	1224.10
399.32	1181.97
399.51	1132.82
399.70	1107.07
399.90	1149.20
400.09	1196.01
400.28	1121.12
400.47	1151.54
400.67	1219.42
400.86	1160.91
401.05	1263.89
401.24	1179.63
401.44	1149.20
401.63	1207.72
401.82	1193.67
402.01	1224.10
402.21	1210.06
402.40	1242.82
402.59	1158.57
402.78	1181.97
402.97	1198.35
403.17	1303.68
403.36	1210.06
403.55	1240.48
403.74	1249.85
403.93	1287.29
404.13	1369.21
404.32	1299.00
404.51	1327.08
404.70	1259.21
404.89	1299.00
405.09	1256.87
405.28	1366.87
405.47	1313.04
405.66	1270.91
405.85	1263.89
406.05	1327.08
406.24	1303.68
406.43	1406.66
406.62	1306.02
406.81	1430.07
407.00	1343.47
407.20	1423.05
407.39	1401.98
407.58	1441.77
407.77	1448.79
407.96	1441.77
408.15	1387.94
408.34	1327.08
408.54	1355.17
408.73	1488.58
408.92	1455.81
409.11	1486.24
409.30	1479.22
409.49	1467.52
409.68	1493.26
409.87	1502.62
410.07	1458.15
410.26	1493.26
410.45	1526.03
410.64	1572.84
410.83	1493.26
411.02	1568.16
411.21	1568.16
411.40	1551.78
411.59	1572.84
411.78	1591.56
411.98	1526.03
412.17	1511.99
412.36	1619.65
412.55	1680.50
412.74	1647.74
412.93	1565.82
413.12	1619.65
413.31	1769.44
413.50	1626.67
413.69	1619.65
413.88	1849.02
414.07	1659.44
414.26	1708.59
414.45	1746.04
414.64	1769.44
414.83	1767.10
415.02	1750.72
415.22	1675.82
415.41	1839.66
415.60	1795.19
415.79	1764.76
415.98	1834.98
416.17	1818.60
416.36	1832.64
416.55	1753.06
416.74	1893.49
416.93	1762.42
417.12	1830.30
417.31	1832.64
417.50	1900.52
417.69	1989.46
417.88	1942.64
418.07	1956.69
418.26	1926.26
418.45	1898.17
418.64	1921.58
418.83	2015.20
419.02	2036.27
419.21	1935.62
419.39	1994.14
419.58	2015.20
419.77	1973.07
419.96	2094.78
420.15	2001.16
420.34	2045.63
420.53	2010.52
420.72	2050.31
420.91	1937.96
421.10	2064.35
421.29	2120.53
421.48	1966.05
421.67	2038.61
421.86	2113.50
422.05	2085.42
422.24	2122.87
422.43	2087.76
422.61	2003.50
422.80	2167.34
422.99	2071.37
423.18	2094.78
423.37	2087.76
423.56	2090.10
423.75	2071.37
423.94	2085.42
424.13	2010.52
424.32	2047.97
424.50	2157.97
424.69	2043.29
424.88	2209.47
425.07	2087.76
425.26	2132.23
425.45	2106.48
425.64	2097.12
425.83	2190.74
426.01	2157.97
426.20	2172.02
426.39	2160.31
426.58	2134.57
426.77	2174.36
426.96	2172.02
427.15	2174.36
427.33	2195.42
427.52	2162.66
427.71	2232.87
427.90	2223.51
428.09	2251.60
428.28	2150.95
428.46	2125.21
428.65	2258.62
428.84	2319.47
429.03	2289.04
429.22	2282.02
429.40	2223.51
429.59	2200.10
429.78	2289.04
429.97	2150.95
430.16	2267.98
430.34	2354.58
430.53	2392.03
430.72	2385.01
430.91	2319.47
431.10	2394.37
431.28	2436.50
431.47	2251.60
431.66	2380.32
431.85	2441.18
432.03	2480.97
432.22	2415.43
432.41	2438.84
432.60	2464.58
432.79	2375.64
432.97	2553.52
433.16	2403.73
433.35	2478.63
433.54	2553.52
433.72	2525.44
433.91	2410.75
434.10	2541.82
434.28	2527.78
434.47	2546.50
434.66	2534.80
434.85	2576.93
435.03	2658.85
435.22	2930.35
435.41	2963.12
435.59	3007.59
435.78	2848.43
435.97	2839.07
436.16	2708.00
436.34	2630.76
436.53	2726.72
436.72	2555.86
436.90	2581.61
437.09	2764.17
437.28	2614.38
437.46	2555.86
437.65	2612.04
437.84	2630.76
438.02	2675.23
438.21	2605.02
438.40	2677.57
438.58	2757.15
438.77	2689.28
438.96	2874.18
439.14	2799.28
439.33	2822.69
439.52	2787.58
439.70	2822.69
439.89	2885.88
440.08	3061.42
440.26	2942.05
440.45	2885.88
440.63	2918.65
440.82	3007.59
441.01	2928.01
441.19	3040.36
441.38	2981.84
441.57	2895.24
441.75	2988.86
441.94	2993.55
442.12	3124.62
442.31	3019.29
442.50	3073.12
442.68	2925.67
442.87	3063.76
443.05	3176.11
443.24	3152.70
443.43	3045.04
443.61	3124.62
443.80	3265.05
443.98	3059.08
444.17	3101.21
444.35	3038.02
444.54	3173.77
444.73	3082.49
444.91	3061.42
445.10	3281.43
445.28	3145.68
445.47	3187.81
445.65	3152.70
445.84	3190.15
446.02	3084.83
446.21	3164.40
446.39	3236.96
446.58	3229.94
446.77	3236.96
446.95	3098.87
447.14	3094.19
447.32	3129.30
447.51	3229.94
447.69	3197.17
447.88	3173.77
448.06	3253.34
448.25	3262.71
448.43	3234.62
448.62	3396.12
448.80	3222.92
448.99	3150.36
449.17	3288.45
449.36	3258.03
449.54	3281.43
449.73	3337.60
449.91	3473.36
450.10	3337.60
450.28	3478.04
450.46	3288.45
450.65	3297.81
450.83	3435.91
451.02	3344.63
451.20	3480.38
451.39	3370.37
451.57	3459.31
451.76	3379.73
451.94	3328.24
452.13	3466.33
452.31	3478.04
452.49	3482.72
452.68	3487.40
452.86	3445.27
453.05	3520.17
453.23	3447.61
453.42	3417.18
453.60	3522.51
453.78	3492.08
453.97	3372.71
454.15	3513.14
454.34	3557.61
454.52	3672.30
454.70	3581.02
454.89	3541.23
455.07	3634.85
455.26	3588.04
455.44	3583.36
455.62	3445.27
455.81	3606.77
455.99	3695.71
456.17	3527.19
456.36	3634.85
456.54	3585.70
456.73	3712.09
456.91	3758.90
457.09	3669.96
457.28	3779.97
457.46	3723.79
457.64	3854.86
457.83	3815.07
458.01	3808.05
458.19	3817.41
458.38	3810.39
458.56	3950.82
458.74	3911.04
458.93	3915.72
459.11	3880.61
459.29	3772.94
459.48	3803.37
459.66	3925.08
459.84	3901.67
460.03	3957.85
460.21	3831.46
460.39	3932.10
460.57	3871.25
460.76	4072.53
460.94	3936.78
461.12	3948.48
461.31	4014.02
461.49	3985.93
461.67	3911.04
461.85	4098.28
462.04	4102.96
462.22	4388.50
462.40	4128.70
462.59	4046.79
462.77	4025.72
462.95	4004.66
463.13	4053.81
463.32	4154.45
463.50	4229.35
463.68	4175.52
463.86	4133.39
464.05	4025.72
464.23	4154.45
464.41	4231.69
464.59	4173.18
464.78	4327.65
464.96	4182.54
465.14	4215.30
465.32	4205.94
465.50	4227.01
465.69	4358.08
465.87	4294.88
466.05	4255.09
466.23	4290.20
466.41	4184.88
466.60	4269.14
466.78	4388.50
466.96	4306.59
467.14	4278.50
467.32	4224.67
467.51	4400.21
467.69	4334.67
467.87	4475.10
468.05	4486.81
468.23	4442.34
468.41	4245.73
468.60	4376.80
468.78	4344.03
468.96	4351.06
469.14	4547.66
469.32	4550.00
469.50	4358.08
469.69	4397.87
469.87	4519.57
470.05	4507.87
470.23	4620.22
470.41	4542.98
470.59	4608.51
470.77	4624.90
470.95	4723.20
471.14	4671.71
471.32	4627.24
471.50	4704.48
471.68	4606.17
471.86	4676.39
472.04	4671.71
472.22	4912.78
472.40	4779.37
472.58	4706.82
472.77	4873.00
472.95	4706.82
473.13	4952.57
473.31	4816.82
473.49	4880.02
473.67	4898.74
473.85	4896.40
474.03	5093.01
474.21	5121.09
474.39	5020.45
474.57	5043.85
474.75	5027.47
474.93	5111.73
475.12	5093.01
475.30	5111.73
475.48	5149.18
475.66	5238.12
475.84	5046.20
476.02	5184.29
476.20	5249.82
476.38	5270.89
476.56	5467.49
476.74	5591.54
476.92	5434.72
477.10	5434.72
477.28	5502.60
477.46	5432.38
477.64	5488.56
477.82	5521.32
478.00	5720.27
478.18	5572.82
478.36	5696.86
478.54	5710.91
478.72	5785.80
478.90	5738.99
479.08	5982.41
479.26	5930.92
479.44	5907.51
479.62	5947.30
479.80	6022.20
479.98	6050.28
480.16	6193.06
480.34	6097.10
480.52	6183.70
480.70	6113.48
480.88	6148.59
481.06	6218.80
481.24	6214.12
481.41	6359.24
481.59	6389.66
481.77	6396.68
481.95	6581.59
482.13	6581.59
482.31	6462.22
482.49	6534.78
482.67	6597.97
482.85	6799.26
483.03	6684.57
483.21	6747.76
483.39	6878.83
483.57	7012.24
483.74	6888.20
483.92	6768.83
484.10	6684.57
484.28	7056.72
484.46	7110.55
484.64	7272.04
484.82	7150.34
485.00	7248.64
485.18	7403.11
485.35	7349.28
485.53	7496.74
485.71	7503.76
485.89	7747.17
486.07	7644.19
486.25	7648.87
486.43	7604.40
486.61	7798.66
486.78	7761.22
486.96	7852.50
487.14	7822.07
487.32	7913.35
487.50	7990.59
487.68	8112.30
487.85	8212.94
488.03	8217.62
488.21	8290.18
488.39	8322.94
488.57	8580.40
488.75	8386.14
488.92	8514.87
489.10	8528.91
489.28	8451.67
489.46	8652.96
489.64	8493.80
489.81	8774.67
489.99	8819.14
490.17	8762.97
490.35	8997.02
490.53	8762.97
490.70	8952.55
490.88	9029.79
491.06	9151.49
491.24	9092.98
491.41	9111.71
491.59	9212.35
491.77	9355.12
491.95	9245.12
492.13	9415.98
492.30	9380.87
492.48	9516.62
492.66	9631.30
492.84	9710.88
493.01	9624.28
493.19	9507.26
493.37	9764.72
493.54	9598.54
493.72	9781.10
493.90	9928.55
494.08	9919.19
494.25	10260.91
494.43	10235.16
494.61	9987.07
494.79	10071.33
494.96	10195.37
495.14	10143.88
495.32	10328.78
495.49	10281.97
495.67	10420.06
495.85	10352.19
496.02	10434.11
496.20	10548.79
496.38	10930.30
496.55	10640.08
496.73	11063.71
496.91	10867.11
497.09	10633.05
497.26	11014.56
497.44	10881.15
497.62	10731.36
497.79	10829.66
497.97	11176.06
498.14	11089.46
498.32	11351.60
498.50	11138.61
498.67	11367.98
498.85	11400.75
499.03	11321.17
499.20	11185.42
499.38	11302.45
499.56	11428.84
499.73	11412.45
499.91	11325.85
500.08	11592.67
500.26	11707.36
500.44	11726.08
500.61	11660.55
500.79	11683.95
500.97	11751.83
501.14	11747.15
501.32	11676.93
501.49	11777.58
501.67	11660.55
501.84	12184.83
502.02	11857.15
502.20	12215.26
502.37	12109.93
502.55	12025.67
502.72	12102.91
502.90	12035.03
503.07	12084.19
503.25	12243.34
503.43	12222.28
503.60	12304.20
503.78	12339.30
503.95	12343.99
504.13	12318.24
504.30	12477.40
504.48	12659.96
504.65	12374.41
504.83	12739.54
505.01	12491.44
505.18	12688.04
505.36	12835.50
505.53	12886.99
505.71	12805.07
505.88	12725.49
506.06	12922.10
506.23	13081.25
506.41	12908.05
506.58	12943.16
506.76	12884.65
506.93	13055.51
507.11	12954.87
507.28	13020.40
507.46	12992.31
507.63	12996.99
507.81	13226.37
507.98	13032.10
508.16	13114.02
508.33	13338.71
508.50	13469.78
508.68	13500.21
508.85	13654.69
509.03	13401.91
509.20	13518.93
509.38	13783.41
509.55	13722.56
509.73	13647.66
509.90	13825.54
510.08	13509.57
510.25	13846.61
510.42	13947.25
510.60	13813.84
510.77	13832.57
510.95	13865.33
511.12	14022.15
511.30	14141.52
511.47	13944.91
511.64	13907.46
511.82	14108.75
511.99	13942.57
512.17	14022.15
512.34	14075.98
512.51	14324.08
512.69	14328.76
512.86	14319.40
513.04	14476.21
513.21	14321.74
513.38	14389.61
513.56	14501.96
513.73	14118.11
513.90	14246.84
514.08	14373.23
514.25	14621.33
514.43	14710.27
514.60	14656.43
514.77	14637.71
514.95	14766.44
515.12	14806.23
515.29	14724.31
515.47	14909.21
515.64	14939.64
515.81	15082.41
515.99	15068.37
516.16	14848.36
516.33	14927.94
516.51	15030.92
516.68	14934.96
516.85	15122.20
517.03	14986.45
517.20	15183.06
517.37	15157.31
517.54	15260.29
517.72	15452.22
517.89	15152.63
518.06	15248.59
518.24	15400.72
518.41	15470.94
518.58	15400.72
518.75	15384.34
518.93	15442.85
519.10	15073.05
519.27	15508.39
519.45	15433.49
519.62	15517.75
519.79	15550.52
519.96	15412.43
520.14	15646.48
520.31	15321.15
520.48	15594.99
520.65	15475.62
520.83	15873.51
521.00	16016.29
521.17	15810.32
521.34	15763.51
521.52	15829.04
521.69	15407.75
521.86	16044.37
522.03	15953.09
522.20	16149.70
522.38	16046.71
522.55	16219.91
522.72	16030.33
522.89	15941.39
523.07	16058.42
523.24	16018.63
523.41	16489.07
523.58	16154.38
523.75	16521.84
523.92	16100.55
524.10	16512.48
524.27	16156.72
524.44	16624.83
524.61	16318.22
524.78	16332.26
524.96	16772.28
525.13	16322.90
525.30	16884.62
525.47	16772.28
525.64	16636.53
525.81	16673.98
525.98	16425.88
526.16	16552.27
526.33	16685.68
526.50	17034.42
526.67	16407.16
526.84	16641.21
527.01	16901.01
527.18	16940.80
527.36	16926.75
527.53	17224.00
527.70	17287.20
527.87	17046.12
528.04	17348.05
528.21	17102.29
528.38	17123.36
528.55	16985.27
528.72	16987.61
528.89	16926.75
529.07	16943.14
529.24	17057.82
529.41	17242.73
529.58	17275.49
529.75	17371.46
529.92	17289.54
530.09	17256.77
530.26	17256.77
530.43	17240.39
530.60	17006.33
530.77	17401.88
530.94	17514.23
531.11	17425.29
531.28	17504.87
531.46	17331.67
531.63	17436.99
531.80	17266.13
531.97	17273.15
532.14	17511.89
532.31	17523.59
532.48	17816.16
532.65	17940.21
532.82	17390.18
532.99	17479.12
533.16	17444.01
533.33	17532.95
533.50	17678.07
533.67	17755.30
533.84	17898.08
534.01	17879.35
534.18	17862.97
534.35	17914.46
534.52	17949.57
534.69	18136.81
534.86	17790.41
535.03	17738.92
535.20	17980.00
535.37	18136.81
535.54	18244.48
535.71	18033.83
535.88	17851.27
536.05	18008.08
536.22	18054.89
536.38	17954.25
536.55	18134.47
536.72	18230.43
536.89	18223.41
537.06	18328.74
537.23	18361.50
537.40	18354.48
537.57	18274.90
537.74	18148.51
537.91	18160.22
538.08	18429.38
538.25	17970.63
538.42	18150.85
538.59	18665.77
538.75	18185.96
538.92	18094.68
539.09	18333.42
539.26	18523.00
539.43	18136.81
539.60	18773.44
539.77	18553.43
539.94	18932.59
540.11	18759.39
540.28	18787.48
540.44	18817.91
540.61	18445.76
540.78	18757.05
540.95	18857.70
541.12	19105.79
541.29	19243.88
541.46	19040.26
541.62	19283.67
541.79	19543.47
541.96	19178.35
542.13	19398.36
542.30	19325.80
542.47	19494.32
542.63	19419.42
542.80	19555.18
542.97	19782.21
543.14	19936.68
543.31	19711.99
543.48	19419.42
543.64	19817.32
543.81	19889.87
543.98	19503.68
544.15	19571.56
544.32	19768.16
544.48	19550.49
544.65	19700.29
544.82	19454.53
544.99	19730.72
545.16	19466.24
545.32	19651.14
545.49	19960.09
545.66	20601.40
545.83	20608.42
546.00	20922.05
546.16	20262.02
546.33	20137.97
546.50	19672.20
546.67	19941.36
546.83	19817.32
547.00	19634.75
547.17	19697.95
547.34	19571.56
547.50	19901.58
547.67	20077.12
547.84	19641.78
548.00	19941.36
548.17	20119.24
548.34	19981.15
548.51	19564.54
548.67	20074.77
548.84	19854.76
549.01	19805.61
549.18	19983.49
549.34	19901.58
549.51	20086.48
549.68	20009.24
549.84	20002.22
550.01	19939.02
550.18	19880.51
550.34	19798.59
550.51	20112.22
550.68	20149.67
550.84	19800.93
551.01	20053.71
551.18	19990.52
551.34	20095.84
551.51	19962.43
551.68	19913.28
551.84	19747.10
552.01	19957.75
552.18	20067.75
552.34	19908.60
552.51	20128.61
552.68	20294.79
552.84	20266.70
553.01	20152.01
553.18	20039.67
553.34	19941.36
553.51	20130.95
553.67	20432.88
553.84	20102.86
554.01	20446.92
554.17	20306.49
554.34	20070.09
554.51	20231.59
554.67	20465.64
554.84	20283.08
555.00	20514.80
555.17	20072.43
555.33	20203.50
555.50	20332.23
555.67	19927.32
555.83	20596.71
556.00	20329.89
556.16	20421.17
556.33	20247.97
556.50	20386.07
556.66	20320.53
556.83	20287.76
556.99	20191.80
557.16	20339.26
557.32	20563.95
557.49	20486.71
557.65	20187.12
557.82	20437.56
557.98	20299.47
558.15	20538.20
558.32	20294.79
558.48	20194.14
558.65	20528.84
558.81	20510.11
558.98	20790.98
559.14	20596.71
559.31	20346.28
559.47	20648.21
559.64	20828.43
559.80	20577.99
559.97	20514.80
560.13	20306.49
560.30	20257.34
560.46	20477.35
560.63	20891.62
560.79	20723.10
560.96	20783.96
561.12	20938.43
561.29	20669.27
561.45	20549.90
561.61	20774.60
561.78	20767.57
561.94	20573.31
562.11	20762.89
562.27	20744.17
562.44	20730.12
562.60	20592.03
562.77	20664.59
562.93	20847.15
563.10	20723.10
563.26	20535.86
563.42	20767.57
563.59	20692.68
563.75	20931.41
563.92	20929.07
564.08	21062.48
564.24	21013.33
564.41	20994.61
564.57	20666.93
564.74	20652.89
564.90	21165.46
565.07	20835.45
565.23	20669.27
565.39	20608.42
565.56	21156.10
565.72	20678.63
565.88	20865.88
566.05	20896.30
566.21	20737.15
566.38	20844.81
566.54	20748.85
566.70	21177.17
566.87	21219.30
567.03	21120.99
567.19	21219.30
567.36	21003.97
567.52	20741.83
567.68	21043.76
567.85	20959.50
568.01	20994.61
568.17	20868.22
568.34	20905.66
568.50	21233.34
568.66	21137.38
568.83	21348.03
568.99	20849.49
569.15	20985.24
569.32	20987.58
569.48	20826.09
569.64	20842.47
569.81	20774.60
569.97	20915.03
570.13	20905.66
570.30	20484.37
570.46	21231.00
570.62	21216.96
570.78	21092.91
570.95	21027.37
571.11	21352.71
571.27	21036.74
571.43	21008.65
571.60	21333.98
571.76	20985.24
571.92	20978.22
572.09	20879.92
572.25	21015.67
572.41	21284.83
572.57	21282.49
572.74	21074.18
572.90	21228.66
573.06	21120.99
573.22	20980.56
573.38	21476.76
573.55	20968.86
573.71	21170.15
573.87	20912.69
574.03	20790.98
574.20	21191.21
574.36	21254.40
574.52	21036.74
574.68	21135.04
574.84	21336.32
575.01	20982.90
575.17	21394.84
575.33	21181.85
575.49	21235.68
575.65	21085.89
575.82	21422.92
575.98	21312.92
576.14	21184.19
576.30	21111.63
576.46	21088.23
576.62	21366.75
576.79	21479.10
576.95	20975.88
577.11	21207.59
577.27	21357.39
577.43	21472.07
577.59	21200.57
577.75	21284.83
577.92	21090.57
578.08	21025.03
578.24	21179.51
578.40	21373.77
578.56	21284.83
578.72	21467.39
578.88	21678.04
579.04	21734.21
579.21	21528.25
579.37	21617.19
579.53	21336.32
579.69	21308.24
579.85	21556.33
580.01	21057.80
580.17	21376.11
580.33	21397.18
580.49	21170.15
580.65	21441.65
580.82	21249.72
580.98	21216.96
581.14	21139.72
581.30	21303.56
581.46	21458.03
581.62	21266.11
581.78	21125.68
581.94	21345.69
582.10	21046.10
582.26	21151.42
582.42	21472.07
582.58	21465.05
582.74	21392.50
582.90	21062.48
583.06	21401.86
583.22	21235.68
583.38	21355.05
583.54	21209.93
583.70	21525.91
583.86	21493.14
584.02	21479.10
584.18	21610.17
584.34	21486.12
584.50	21385.47
584.66	21486.12
584.82	21319.94
584.98	21561.02
585.14	21291.85
585.30	21528.25
585.46	21165.46
585.62	21294.19
585.78	21345.69
585.94	21399.52
586.10	21247.38
586.26	21713.15
586.42	21570.38
586.58	21579.74
586.74	21481.44
586.90	21167.80
587.06	21308.24
587.22	21900.39
587.38	21781.03
587.54	21451.01
587.70	21570.38
587.86	21474.42
588.02	21523.57
588.18	21537.61
588.34	21546.97
588.49	21429.94
588.65	21418.24
588.81	21263.77
588.97	21467.39
589.13	21467.39
589.29	21179.51
589.45	21336.32
589.61	21795.07
589.77	21766.98
589.93	21467.39
590.08	21228.66
590.24	21481.44
590.40	21982.31
590.56	21551.65
590.72	21694.43
590.88	21233.34
591.04	21537.61
591.20	21497.82
