SpectraSuite Data File
++++++++++++++++++++++++++++++++++++
Date: Thu Oct 24 13:21:06 EDT 2013
User: stostad
Dark Spectrum Present: No
Reference Spectrum Present: No
Number of Sampled Component Spectra: 1
Spectrometers: USB2+H05261
Integration Time (usec): 100000 (USB2+H05261)
Spectra Averaged: 1 (USB2+H05261)
Boxcar Smoothing: 0 (USB2+H05261)
Correct for Electrical Dark: No (USB2+H05261)
Strobe/Lamp Enabled: No (USB2+H05261)
Correct for Detector Non-linearity: No (USB2+H05261)
Correct for Stray Light: No (USB2+H05261)
Number of Pixels in Processed Spectrum: 2048
>>>>>Begin Processed Spectral Data<<<<<
365.73	566.41
365.92	566.41
366.12	566.41
366.32	505.56
366.52	468.11
366.72	482.15
366.91	461.09
367.11	458.74
367.31	482.15
367.51	456.40
367.70	442.36
367.90	440.02
368.10	484.49
368.30	550.03
368.49	411.93
368.69	442.36
368.89	463.43
369.09	526.62
369.28	510.24
369.48	531.30
369.68	454.06
369.87	535.98
370.07	486.83
370.27	535.98
370.47	503.22
370.66	692.80
370.86	681.10
371.06	695.14
371.25	739.61
371.45	737.27
371.65	751.31
371.84	730.25
372.04	767.70
372.24	760.67
372.44	725.57
372.63	835.57
372.83	828.55
373.03	875.36
373.22	795.78
373.42	713.86
373.62	826.21
373.81	781.74
374.01	765.36
374.21	849.61
374.40	788.76
374.60	856.64
374.79	755.99
374.99	800.46
375.19	795.78
375.38	866.00
375.58	875.36
375.78	809.83
375.97	837.91
376.17	945.58
376.37	870.68
376.56	898.77
376.76	793.44
376.95	772.38
377.15	854.30
377.35	774.72
377.54	802.80
377.74	837.91
377.93	851.96
378.13	800.46
378.33	917.49
378.52	816.85
378.72	861.32
378.91	819.19
379.11	819.19
379.31	837.91
379.50	791.10
379.70	912.81
379.89	919.83
380.09	812.17
380.28	826.21
380.48	795.78
380.68	912.81
380.87	837.91
381.07	863.66
381.26	873.02
381.46	884.72
381.65	908.13
381.85	840.25
382.04	891.74
382.24	833.23
382.43	929.19
382.63	851.96
382.83	936.21
383.02	924.51
383.22	844.93
383.41	873.02
383.61	945.58
383.80	873.02
384.00	943.24
384.19	945.58
384.39	936.21
384.58	936.21
384.78	830.89
384.97	919.83
385.17	903.45
385.36	861.32
385.56	851.96
385.75	905.79
385.95	952.60
386.14	898.77
386.34	936.21
386.53	915.15
386.72	940.90
386.92	901.11
387.11	915.15
387.31	884.72
387.50	910.47
387.70	980.68
387.89	973.66
388.09	1011.11
388.28	966.64
388.48	1015.79
388.67	961.96
388.86	966.64
389.06	1027.50
389.25	1004.09
389.45	922.17
389.64	1055.58
389.84	1057.92
390.03	1018.13
390.22	1018.13
390.42	1018.13
390.61	978.34
390.81	957.28
391.00	1069.62
391.19	992.39
391.39	1039.20
391.58	1039.20
391.78	1006.43
391.97	1043.88
392.16	1020.47
392.36	1053.24
392.55	1025.15
392.75	983.02
392.94	1048.56
393.13	1078.99
393.33	1018.13
393.52	994.73
393.71	1118.78
393.91	1137.50
394.10	1093.03
394.29	1100.05
394.49	1043.88
394.68	1001.75
394.88	1018.13
395.07	1015.79
395.26	1078.99
395.46	1186.65
395.65	1093.03
395.84	1064.94
396.04	1111.75
396.23	1125.80
396.42	1090.69
396.62	1158.57
396.81	1107.07
397.00	1149.20
397.19	1221.76
397.39	1137.50
397.58	1196.01
397.77	1188.99
397.97	1207.72
398.16	1137.50
398.35	1135.16
398.55	1144.52
398.74	1165.59
398.93	1224.10
399.12	1266.23
399.32	1219.42
399.51	1135.16
399.70	1198.35
399.90	1179.63
400.09	1268.57
400.28	1296.66
400.47	1299.00
400.67	1212.40
400.86	1219.42
401.05	1217.08
401.24	1268.57
401.44	1294.32
401.63	1317.72
401.82	1313.04
402.01	1331.76
402.21	1341.13
402.40	1294.32
402.59	1357.51
402.78	1282.61
402.97	1221.76
403.17	1196.01
403.36	1270.91
403.55	1313.04
403.74	1369.21
403.93	1451.13
404.13	1446.45
404.32	1472.20
404.51	1380.92
404.70	1465.18
404.89	1357.51
405.09	1476.88
405.28	1458.15
405.47	1467.52
405.66	1425.39
405.85	1418.36
406.05	1418.36
406.24	1446.45
406.43	1369.21
406.62	1474.54
406.81	1479.22
407.00	1476.88
407.20	1441.77
407.39	1448.79
407.58	1563.48
407.77	1516.67
407.96	1467.52
408.15	1432.41
408.34	1502.62
408.54	1582.20
408.73	1451.13
408.92	1556.46
409.11	1593.90
409.30	1526.03
409.49	1610.29
409.68	1589.22
409.87	1526.03
410.07	1535.39
410.26	1542.41
410.45	1603.27
410.64	1638.38
410.83	1614.97
411.02	1614.97
411.21	1570.50
411.40	1647.74
411.59	1657.10
411.78	1631.35
411.98	1624.33
412.17	1746.04
412.36	1673.48
412.55	1760.08
412.74	1792.85
412.93	1837.32
413.12	1774.13
413.31	1788.17
413.50	1813.92
413.69	1909.88
413.88	1802.21
414.07	1839.66
414.26	1753.06
414.45	1811.57
414.64	1746.04
414.83	1891.15
415.02	1753.06
415.22	1874.77
415.41	1980.09
415.60	1956.69
415.79	1884.13
415.98	2033.93
416.17	2008.18
416.36	2001.16
416.55	1919.24
416.74	1996.48
416.93	2083.08
417.12	2078.40
417.31	2127.55
417.50	2012.86
417.69	2097.12
417.88	2143.93
418.07	2120.53
418.26	2099.46
418.45	2165.00
418.64	2251.60
418.83	2204.78
419.02	2057.33
419.21	2094.78
419.39	2174.36
419.58	2204.78
419.77	2204.78
419.96	2099.46
420.15	2232.87
420.34	2202.44
420.53	2223.51
420.72	2277.34
420.91	2253.94
421.10	2251.60
421.29	2314.79
421.48	2235.21
421.67	2275.00
421.86	2291.38
422.05	2338.20
422.24	2204.78
422.43	2223.51
422.61	2289.04
422.80	2310.11
422.99	2321.81
423.18	2314.79
423.37	2490.33
423.56	2277.34
423.75	2349.90
423.94	2253.94
424.13	2186.06
424.32	2312.45
424.50	2326.49
424.69	2312.45
424.88	2434.16
425.07	2246.91
425.26	2284.36
425.45	2265.64
425.64	2303.09
425.83	2399.05
426.01	2380.32
426.20	2321.81
426.39	2312.45
426.58	2340.54
426.77	2401.39
426.96	2333.51
427.15	2385.01
427.33	2464.58
427.52	2527.78
427.71	2417.77
427.90	2422.45
428.09	2396.71
428.28	2459.90
428.46	2401.39
428.65	2464.58
428.84	2553.52
429.03	2455.22
429.22	2420.11
429.40	2576.93
429.59	2492.67
429.78	2476.29
429.97	2438.84
430.16	2555.86
430.34	2450.54
430.53	2497.35
430.72	2560.55
430.91	2544.16
431.10	2567.57
431.28	2628.42
431.47	2588.63
431.66	2635.44
431.85	2590.97
432.03	2609.70
432.22	2743.11
432.41	2712.68
432.60	2644.81
432.79	2579.27
432.97	2703.32
433.16	2668.21
433.35	2609.70
433.54	2686.94
433.72	2710.34
433.91	2883.54
434.10	2644.81
434.28	2874.18
434.47	2825.03
434.66	2691.62
434.85	2801.62
435.03	2958.44
435.22	3122.27
435.41	3358.67
435.59	3171.43
435.78	3098.87
435.97	3084.83
436.16	3009.93
436.34	2696.30
436.53	2766.51
436.72	2986.52
436.90	2768.85
437.09	2951.42
437.28	2841.41
437.46	2942.05
437.65	2878.86
437.84	3080.14
438.02	3068.44
438.21	3066.10
438.40	3040.36
438.58	3054.40
438.77	2991.20
438.96	3009.93
439.14	3059.08
439.33	3087.17
439.52	3014.61
439.70	3080.14
439.89	3166.74
440.08	3232.28
440.26	3187.81
440.45	3218.24
440.63	3293.13
440.82	3325.90
441.01	3283.77
441.19	3143.34
441.38	3342.28
441.57	3417.18
441.75	3361.01
441.94	3368.03
442.12	3471.01
442.31	3295.47
442.50	3400.80
442.68	3445.27
442.87	3417.18
443.05	3344.63
443.24	3506.12
443.43	3475.70
443.61	3396.12
443.80	3487.40
443.98	3421.86
444.17	3421.86
444.35	3459.31
444.54	3515.48
444.73	3384.41
444.91	3506.12
445.10	3494.42
445.28	3632.51
445.47	3688.68
445.65	3543.57
445.84	3550.59
446.02	3595.06
446.21	3620.81
446.39	3609.11
446.58	3588.04
446.77	3630.17
446.95	3595.06
447.14	3548.25
447.32	3588.04
447.51	3410.16
447.69	3517.83
447.88	3585.70
448.06	3522.51
448.25	3592.72
448.43	3644.21
448.62	3702.73
448.80	3517.83
448.99	3569.32
449.17	3730.81
449.36	3655.92
449.54	3824.44
449.73	3674.64
449.91	3779.97
450.10	3798.69
450.28	3831.46
450.46	3880.61
450.65	3693.37
450.83	3730.81
451.02	3770.60
451.20	3798.69
451.39	3702.73
451.57	3822.09
451.76	3798.69
451.94	3894.65
452.13	3885.29
452.31	3885.29
452.49	3801.03
452.68	3969.55
452.86	3838.48
453.05	4049.13
453.23	3885.29
453.42	3915.72
453.60	3822.09
453.78	3976.57
453.97	3964.87
454.15	4042.11
454.34	3911.04
454.52	4016.36
454.70	3992.95
454.89	4025.72
455.07	4070.19
455.26	3978.91
455.44	4117.00
455.62	4117.00
455.81	4084.23
455.99	4154.45
456.17	4112.32
456.36	4070.19
456.54	4121.68
456.73	4156.79
456.91	4224.67
457.09	4327.65
457.28	4166.15
457.46	4215.30
457.64	4329.99
457.83	4292.54
458.01	4266.80
458.19	4276.16
458.38	4306.59
458.56	4280.84
458.74	4332.33
458.93	4381.48
459.11	4339.35
459.29	4376.80
459.48	4386.16
459.66	4437.66
459.84	4456.38
460.03	4404.89
460.21	4491.49
460.39	4444.68
460.57	4447.02
460.76	4524.26
460.94	4456.38
461.12	4477.44
461.31	4514.89
461.49	4526.60
461.67	4470.42
461.85	4732.56
462.04	4561.70
462.22	4865.97
462.40	4709.16
462.59	4493.83
462.77	4622.56
462.95	4746.61
463.13	4664.69
463.32	4547.66
463.50	4713.84
463.68	4683.41
463.86	4671.71
464.05	4606.17
464.23	4695.11
464.41	4620.22
464.59	4587.45
464.78	4812.14
464.96	4667.03
465.14	4819.16
465.32	4755.97
465.50	4830.87
465.69	4798.10
465.87	4655.33
466.05	4720.86
466.23	4748.95
466.41	4795.76
466.60	4830.87
466.78	4823.84
466.96	4709.16
467.14	4926.83
467.32	5013.43
467.51	5015.77
467.69	4826.18
467.87	4826.18
468.05	5013.43
468.23	4835.55
468.41	4968.96
468.60	4910.44
468.78	4882.36
468.96	4999.38
469.14	5221.74
469.32	5235.78
469.50	5071.94
469.69	5048.54
469.87	5013.43
470.05	5109.39
470.23	5111.73
470.41	5212.37
470.59	5111.73
470.77	5308.34
470.95	5242.80
471.14	5495.58
471.32	5214.71
471.50	5207.69
471.68	5191.31
471.86	5303.65
472.04	5324.72
472.22	5439.40
472.40	5369.19
472.58	5261.52
472.77	5310.68
472.95	5444.09
473.13	5605.58
473.31	5528.35
473.49	5528.35
473.67	5467.49
473.85	5502.60
474.03	5753.04
474.21	5729.63
474.39	5612.60
474.57	5734.31
474.75	5701.54
474.93	5762.40
475.12	5703.89
475.30	5753.04
475.48	5820.91
475.66	5872.40
475.84	5614.95
476.02	5947.30
476.20	6003.47
476.38	6139.23
476.56	6162.63
476.74	6029.22
476.92	6204.76
477.10	6118.16
477.28	6305.40
477.46	6289.02
477.64	6090.07
477.82	6314.77
478.00	6523.07
478.18	6375.62
478.36	6324.13
478.54	6509.03
478.72	6637.76
478.90	6492.65
479.08	6630.74
479.26	6565.20
479.44	6654.14
479.62	6715.00
479.80	6794.58
479.98	6916.28
480.16	6890.54
480.34	6860.11
480.52	7143.32
480.70	7005.22
480.88	6923.30
481.06	7162.04
481.24	7077.78
481.41	7262.68
481.59	7262.68
481.77	7314.17
481.95	7391.41
482.13	7410.14
482.31	7365.67
482.49	7527.16
482.67	7627.81
482.85	7414.82
483.03	7817.39
483.21	7798.66
483.39	7892.29
483.57	7770.58
483.74	7693.34
483.92	7941.44
484.10	8016.33
484.28	8011.65
484.46	8063.15
484.64	8304.22
484.82	8046.76
485.00	8259.75
485.18	8348.69
485.35	8535.93
485.53	8397.84
485.71	8589.77
485.89	8641.26
486.07	8599.13
486.25	8549.98
486.43	8718.50
486.61	8912.76
486.78	8966.59
486.96	9057.87
487.14	9022.77
487.32	9233.41
487.50	9069.58
487.68	9179.58
487.85	9324.69
488.03	9301.29
488.21	9423.00
488.39	9486.19
488.57	9729.61
488.75	9530.66
488.92	9856.00
489.10	9427.68
489.28	9729.61
489.46	9867.70
489.64	9816.21
489.81	10176.65
489.99	9970.68
490.17	9933.23
490.35	10244.52
490.53	10242.18
490.70	10413.04
490.88	10443.47
491.06	10363.89
491.24	10408.36
491.41	10441.13
491.59	10562.84
491.77	10583.90
491.95	10878.81
492.13	10600.29
492.30	10747.74
492.48	10738.38
492.66	10897.53
492.84	10787.53
493.01	11089.46
493.19	10904.56
493.37	11180.74
493.54	11307.13
493.72	11166.70
493.90	11208.83
494.08	11267.34
494.25	11487.35
494.43	11599.70
494.61	11730.76
494.79	11557.57
494.96	11580.97
495.14	11683.95
495.32	11819.71
495.49	11936.73
495.67	11950.78
495.85	11889.92
496.02	11808.00
496.20	12067.80
496.38	12159.08
496.55	12142.70
496.73	12177.81
496.91	12126.32
497.09	12175.47
497.26	12386.12
497.44	12592.08
497.62	12283.13
497.79	12645.91
497.97	12849.54
498.14	12769.96
498.32	12973.59
498.50	12802.73
498.67	13104.66
498.85	12751.24
499.03	13102.32
499.20	13132.75
499.38	13268.50
499.56	13125.72
499.73	12999.34
499.91	13462.76
500.08	13266.16
500.26	13446.38
500.44	13315.31
500.61	13390.20
500.79	13350.42
500.97	13582.13
501.14	13832.57
501.32	13577.45
501.49	13650.00
501.67	13495.53
501.84	13757.67
502.02	13572.77
502.20	13919.17
502.37	14097.05
502.55	13703.84
502.72	13736.60
502.90	13987.04
503.07	13916.83
503.25	14017.47
503.43	14085.34
503.60	14113.43
503.78	14106.41
503.95	14127.47
504.13	14143.86
504.30	14106.41
504.48	14263.22
504.65	14560.47
504.83	14773.46
505.01	14663.46
505.18	14434.08
505.36	14799.21
505.53	14604.94
505.71	14506.64
505.88	14801.55
506.06	14764.10
506.23	14726.65
506.41	14686.86
506.58	14857.72
506.76	14710.27
506.93	15220.50
507.11	15190.08
507.28	15143.27
507.46	14946.66
507.63	15342.21
507.81	15145.61
507.98	14895.17
508.16	15171.35
508.33	15087.09
508.50	15204.12
508.68	15545.84
508.85	15424.13
509.03	15503.71
509.20	15454.56
509.38	15676.91
509.55	15646.48
509.73	15915.64
509.90	15798.62
510.08	15791.59
510.25	15775.21
510.42	15716.70
510.60	15789.25
510.77	16035.01
510.95	15946.07
511.12	16198.85
511.30	16049.05
511.47	16276.09
511.64	16046.71
511.82	16320.56
511.99	15927.35
512.17	16250.34
512.34	16372.05
512.51	16325.24
512.69	16657.59
512.86	16615.46
513.04	16505.46
513.21	16243.32
513.38	16528.86
513.56	16608.44
513.73	16608.44
513.90	16755.90
514.08	16723.13
514.25	17018.04
514.43	16819.09
514.60	16945.48
514.77	16753.55
514.95	16807.39
515.12	16697.38
515.29	17076.55
515.47	17111.66
515.64	17273.15
515.81	16994.63
515.99	17083.57
516.16	17273.15
516.33	17312.94
516.51	17090.59
516.68	17427.63
516.85	17242.73
517.03	17577.42
517.20	17406.56
517.37	17181.87
517.54	17591.47
517.72	17451.03
517.89	17472.10
518.06	17577.42
518.24	17680.41
518.41	17769.35
518.58	17624.23
518.75	17432.31
518.93	17659.34
519.10	17633.60
519.27	17750.62
519.45	17867.65
519.62	18148.51
519.79	17832.54
519.96	17741.26
520.14	18033.83
520.31	17659.34
520.48	17949.57
520.65	17998.72
520.83	18295.97
521.00	18417.68
521.17	18094.68
521.34	18293.63
521.52	18132.13
521.69	18368.52
521.86	18265.54
522.03	18487.89
522.20	18188.30
522.38	18511.30
522.55	18625.98
522.72	18450.44
522.89	18705.56
523.07	18572.15
523.24	18457.46
523.41	18604.92
523.58	18707.90
523.75	18841.31
523.92	18771.10
524.10	18764.07
524.27	18904.51
524.44	18759.39
524.61	18785.14
524.78	19042.60
524.96	18939.62
525.13	19098.77
525.30	19145.58
525.47	19115.16
525.64	18874.08
525.81	19323.46
525.98	18958.34
526.16	19066.00
526.33	18953.66
526.50	19339.85
526.67	19204.10
526.84	19414.74
527.01	19246.23
527.18	19435.81
527.36	19578.58
527.53	19536.45
527.70	19379.64
527.87	19604.33
528.04	19541.13
528.21	19515.39
528.38	19798.59
528.55	19609.01
528.72	19653.48
528.89	19496.66
529.07	19524.75
529.24	19702.63
529.41	19756.46
529.58	19723.69
529.75	19693.27
529.92	19903.92
530.09	19946.05
530.26	19545.81
530.43	19850.08
530.60	19903.92
530.77	19777.53
530.94	19939.02
531.11	20210.53
531.28	20027.96
531.46	20247.97
531.63	20030.30
531.80	20018.60
531.97	20198.82
532.14	20034.99
532.31	20025.62
532.48	20217.55
532.65	20135.63
532.82	20311.17
532.99	20432.88
533.16	20121.59
533.33	20287.76
533.50	20725.44
533.67	20451.60
533.84	20460.96
534.01	20563.95
534.18	20453.94
534.35	20968.86
534.52	20713.74
534.69	20528.84
534.86	20680.97
535.03	20350.96
535.20	20690.34
535.37	20943.11
535.54	21172.49
535.71	20828.43
535.88	20877.58
536.05	20858.85
536.22	20908.01
536.38	20847.15
536.55	21113.97
536.72	21202.91
536.89	21046.10
537.06	21275.47
537.23	21345.69
537.40	21057.80
537.57	20875.24
537.74	21179.51
537.91	21404.20
538.08	21177.17
538.25	21392.50
538.42	21027.37
538.59	21336.32
538.75	20844.81
538.92	21226.32
539.09	21504.84
539.26	21575.06
539.43	21537.61
539.60	21380.79
539.77	21394.84
539.94	21535.27
540.11	21413.56
540.28	21813.79
540.44	21891.03
540.61	21792.73
540.78	21493.14
540.95	21771.66
541.12	21745.92
541.29	22211.68
541.46	22204.66
541.62	22010.40
541.79	22429.35
541.96	22340.41
542.13	22525.32
542.30	22473.82
542.47	22242.11
542.63	22246.79
542.80	22368.50
542.97	22689.15
543.14	22665.75
543.31	22916.19
543.48	22604.89
543.64	22417.65
543.81	22829.59
543.98	22469.14
544.15	22476.16
544.32	22628.30
544.48	22607.23
544.65	22838.95
544.82	22462.12
544.99	22637.66
545.16	22682.13
545.32	22562.76
545.49	23365.57
545.66	23461.53
545.83	23742.39
546.00	23812.61
546.16	23587.92
546.33	23138.54
546.50	22981.72
546.67	23028.53
546.83	22494.89
547.00	22483.19
547.17	22469.14
547.34	22995.76
547.50	22878.74
547.67	22897.46
547.84	22780.43
548.00	23143.22
548.17	23138.54
548.34	22869.37
548.51	23295.35
548.67	22918.53
548.84	23091.73
549.01	22937.25
549.18	22948.95
549.34	23105.77
549.51	23407.70
549.68	23269.61
549.84	23168.96
550.01	23108.11
550.18	22972.36
550.34	22822.56
550.51	22867.03
550.68	23484.94
550.84	22984.06
551.01	23091.73
551.18	22747.67
551.34	22874.06
551.51	22974.70
551.68	23056.62
551.84	23262.58
552.01	23084.70
552.18	23173.64
552.34	23337.48
552.51	23447.49
552.68	23384.29
552.84	23393.65
553.01	23154.92
553.18	23082.36
553.34	23601.96
553.51	23489.62
553.67	23452.17
553.84	23440.47
554.01	23407.70
554.17	23496.64
554.34	23194.71
554.51	23494.30
554.67	23714.31
554.84	23498.98
555.00	23634.73
555.17	23260.24
555.33	23608.98
555.50	23424.08
555.67	23564.51
555.83	23484.94
556.00	23637.07
556.16	23655.79
556.33	23625.37
556.50	23515.36
556.66	23487.28
556.83	23353.87
556.99	23611.32
557.16	24051.34
557.32	23447.49
557.49	23695.58
557.65	23644.09
557.82	23541.11
557.98	23761.12
558.15	23190.03
558.32	23819.63
558.48	23220.45
558.65	23936.66
558.81	23702.61
558.98	23758.78
559.14	23482.59
559.31	23868.78
559.47	23908.57
559.64	23592.60
559.80	23754.10
559.97	23875.80
560.13	23665.16
560.30	23887.51
560.46	24051.34
560.63	23786.86
560.79	23992.83
560.96	24116.88
561.12	24381.36
561.29	23892.19
561.45	23939.00
561.61	24243.27
561.78	24044.32
561.94	23812.61
562.11	24161.35
562.27	24006.87
562.44	23960.06
562.60	24060.71
562.77	24238.59
562.93	23931.98
563.10	24458.60
563.26	24107.52
563.42	23927.30
563.59	24226.89
563.75	23960.06
563.92	24437.53
564.08	24137.94
564.24	24072.41
564.41	24114.54
564.57	23765.80
564.74	23927.30
564.90	24734.78
565.07	24322.85
565.23	24332.21
565.39	23903.89
565.56	24261.99
565.72	24264.33
565.88	24374.34
566.05	24032.62
566.21	24060.71
566.38	24154.33
566.54	24142.63
566.70	24196.46
566.87	24629.46
567.03	24896.28
567.19	24552.22
567.36	24444.56
567.52	24444.56
567.68	24395.40
567.85	24444.56
568.01	24266.67
568.17	24159.01
568.34	24224.54
568.50	24259.65
568.66	24374.34
568.83	24617.75
568.99	24290.08
569.15	24606.05
569.32	24449.24
569.48	24442.21
569.64	24400.08
569.81	24215.18
569.97	24070.07
570.13	24470.30
570.30	24224.54
570.46	24301.78
570.62	24212.84
570.78	24381.36
570.95	24472.64
571.11	24683.29
571.27	24589.67
571.43	24051.34
571.60	24393.06
571.76	24332.21
571.92	24400.08
572.09	24589.67
572.25	24720.74
572.41	24872.87
572.57	24554.56
572.74	24545.20
572.90	24601.37
573.06	24573.28
573.22	24355.61
573.38	24491.37
573.55	24503.07
573.71	24755.85
573.87	24383.70
574.03	24624.78
574.20	24737.12
574.36	24706.70
574.52	24826.06
574.68	24844.79
574.84	24790.95
575.01	24428.17
575.17	24594.35
575.33	24575.62
575.49	24655.20
575.65	24718.40
575.82	24903.30
575.98	24790.95
576.14	24865.85
576.30	24622.44
576.46	24608.39
576.62	24882.24
576.79	24870.53
576.95	24678.61
577.11	24720.74
577.27	25188.85
577.43	24739.46
577.59	24390.72
577.75	24657.54
577.92	24414.13
578.08	24542.86
578.24	24545.20
578.40	24582.65
578.56	25036.71
578.72	25029.69
578.88	25284.81
579.04	25228.63
579.21	24945.43
579.37	24940.75
579.53	24711.38
579.69	25097.56
579.85	24439.87
580.01	24844.79
580.17	24709.04
580.33	24449.24
580.49	24741.80
580.65	24992.24
580.82	24760.53
580.98	24957.13
581.14	24510.09
581.30	25118.63
581.46	24833.08
581.62	24435.19
581.78	24514.77
581.94	24779.25
582.10	24842.45
582.26	24781.59
582.42	24732.44
582.58	24697.33
582.74	24950.11
582.90	24996.92
583.06	24884.58
583.22	24699.67
583.38	24690.31
583.54	24774.57
583.70	24807.34
583.86	25127.99
584.02	24856.49
584.18	25245.02
584.34	24737.12
584.50	24648.18
584.66	24432.85
584.82	24545.20
584.98	25001.60
585.14	24816.70
585.30	24968.84
585.46	25226.29
585.62	24919.68
585.78	24795.64
585.94	24856.49
586.10	25170.12
586.26	24922.02
586.42	25013.31
586.58	24863.51
586.74	25188.85
586.90	24872.87
587.06	24954.79
587.22	25090.54
587.38	24868.19
587.54	25259.06
587.70	25041.39
587.86	24842.45
588.02	24917.34
588.18	25001.60
588.34	25050.75
588.49	25130.33
588.65	24727.76
588.81	25006.28
588.97	24917.34
589.13	24732.44
589.29	25177.14
589.45	24702.01
589.61	25184.16
589.77	25490.77
589.93	24692.65
590.08	25226.29
590.24	25191.19
590.40	25067.14
590.56	25008.62
590.72	25193.53
