SpectraSuite Data File
++++++++++++++++++++++++++++++++++++
Date: Thu Oct 24 13:21:27 EDT 2013
User: stostad
Dark Spectrum Present: No
Reference Spectrum Present: No
Number of Sampled Component Spectra: 1
Spectrometers: USB2+H05261
Integration Time (usec): 100000 (USB2+H05261)
Spectra Averaged: 1 (USB2+H05261)
Boxcar Smoothing: 0 (USB2+H05261)
Correct for Electrical Dark: No (USB2+H05261)
Strobe/Lamp Enabled: No (USB2+H05261)
Correct for Detector Non-linearity: No (USB2+H05261)
Correct for Stray Light: No (USB2+H05261)
Number of Pixels in Processed Spectrum: 2048
>>>>>Begin Processed Spectral Data<<<<<
365.73	559.39
365.92	559.39
366.12	559.39
366.32	585.13
366.52	475.13
366.72	472.79
366.91	482.15
367.11	524.28
367.31	505.56
367.51	470.45
367.70	514.92
367.90	517.26
368.10	447.04
368.30	454.06
368.49	491.51
368.69	468.11
368.89	500.87
369.09	465.77
369.28	454.06
369.48	510.24
369.68	503.22
369.87	540.66
370.07	503.22
370.27	554.71
370.47	695.14
370.66	973.66
370.86	1013.45
371.06	1062.60
371.25	1067.28
371.45	968.98
371.65	1029.84
371.84	1067.28
372.04	1043.88
372.24	1053.24
372.44	1048.56
372.63	1130.48
372.83	1093.03
373.03	1100.05
373.22	1107.07
373.42	1071.97
373.62	1128.14
373.81	1196.01
374.01	1205.38
374.21	1151.54
374.40	1191.33
374.60	1181.97
374.79	1219.42
374.99	1266.23
375.19	1177.29
375.38	1153.88
375.58	1149.20
375.78	1224.10
375.97	1200.69
376.17	1268.57
376.37	1167.93
376.56	1226.44
376.76	1240.48
376.95	1188.99
377.15	1329.42
377.35	1224.10
377.54	1256.87
377.74	1235.80
377.93	1345.81
378.13	1210.06
378.33	1256.87
378.52	1348.15
378.72	1345.81
378.91	1277.93
379.11	1345.81
379.31	1282.61
379.50	1334.11
379.70	1336.45
379.89	1329.42
380.09	1308.36
380.28	1331.76
380.48	1362.19
380.68	1336.45
380.87	1369.21
381.07	1348.15
381.26	1373.89
381.46	1418.36
381.65	1467.52
381.85	1481.56
382.04	1385.60
382.24	1472.20
382.43	1420.71
382.63	1439.43
382.83	1448.79
383.02	1488.58
383.22	1509.65
383.41	1526.03
383.61	1465.18
383.80	1495.60
384.00	1507.30
384.19	1504.96
384.39	1591.56
384.58	1540.07
384.78	1455.81
384.97	1612.63
385.17	1568.16
385.36	1610.29
385.56	1664.12
385.75	1614.97
385.95	1472.20
386.14	1568.16
386.34	1528.37
386.53	1558.80
386.72	1575.18
386.92	1612.63
387.11	1621.99
387.31	1664.12
387.50	1713.27
387.70	1584.54
387.89	1652.42
388.09	1650.08
388.28	1617.31
388.48	1778.81
388.67	1678.16
388.86	1748.38
389.06	1605.61
389.25	1771.79
389.45	1732.00
389.64	1694.55
389.84	1797.53
390.03	1809.23
390.22	1816.26
390.42	1706.25
390.61	1827.96
390.81	1753.06
391.00	1783.49
391.19	1886.47
391.39	1823.28
391.58	1872.43
391.78	1813.92
391.97	1870.09
392.16	1900.52
392.36	1966.05
392.55	1933.28
392.75	1839.66
392.94	1954.35
393.13	2031.58
393.33	1909.88
393.52	1853.70
393.71	1921.58
393.91	2026.90
394.10	1994.14
394.29	2003.50
394.49	1998.82
394.68	2064.35
394.88	2111.16
395.07	2043.29
395.26	2071.37
395.46	2087.76
395.65	2106.48
395.84	2174.36
396.04	2134.57
396.23	2218.83
396.42	2193.08
396.62	2183.72
396.81	2284.36
397.00	2176.70
397.19	2143.93
397.39	2143.93
397.58	2296.07
397.77	2338.20
397.97	2289.04
398.16	2235.21
398.35	2275.00
398.55	2303.09
398.74	2324.15
398.93	2377.98
399.12	2387.35
399.32	2317.13
399.51	2429.48
399.70	2445.86
399.90	2406.07
400.09	2396.71
400.28	2495.01
400.47	2569.91
400.67	2502.03
400.86	2576.93
401.05	2523.10
401.24	2551.18
401.44	2527.78
401.63	2562.89
401.82	2605.02
402.01	2633.10
402.21	2682.25
402.40	2640.12
402.59	2654.17
402.78	2675.23
402.97	2600.34
403.17	2621.40
403.36	2799.28
403.55	2750.13
403.74	2740.77
403.93	2963.12
404.13	2827.37
404.32	2803.96
404.51	2904.60
404.70	3005.25
404.89	2963.12
405.09	2993.55
405.28	3007.59
405.47	2836.73
405.66	2892.90
405.85	2923.33
406.05	2988.86
406.24	2981.84
406.43	3012.27
406.62	3094.19
406.81	3155.04
407.00	2949.08
407.20	2946.73
407.39	3094.19
407.58	3119.93
407.77	3222.92
407.96	3272.07
408.15	3178.45
408.34	3253.34
408.54	3283.77
408.73	3213.56
408.92	3405.48
409.11	3534.21
409.30	3403.14
409.49	3492.08
409.68	3389.10
409.87	3454.63
410.07	3454.63
410.26	3485.06
410.45	3454.63
410.64	3506.12
410.83	3637.19
411.02	3595.06
411.21	3744.86
411.40	3552.93
411.59	3606.77
411.78	3571.66
411.98	3611.45
412.17	3742.52
412.36	3672.30
412.55	3826.78
412.74	3981.25
412.93	3971.89
413.12	3817.41
413.31	3943.80
413.50	4053.81
413.69	4021.04
413.88	4107.64
414.07	3969.55
414.26	4107.64
414.45	4107.64
414.64	4131.05
414.83	4056.15
415.02	4297.22
415.22	4355.74
415.41	4447.02
415.60	4337.01
415.79	4409.57
415.98	4505.53
416.17	4428.29
416.36	4477.44
416.55	4587.45
416.74	4503.19
416.93	4505.53
417.12	4582.77
417.31	4596.81
417.50	4505.53
417.69	4734.90
417.88	4816.82
418.07	4770.01
418.26	4732.56
418.45	4704.48
418.64	5046.20
418.83	4943.21
419.02	4905.76
419.21	5217.05
419.39	4959.60
419.58	5048.54
419.77	4910.44
419.96	5151.52
420.15	4987.68
420.34	5071.94
420.53	5118.75
420.72	5172.58
420.91	5245.14
421.10	5226.42
421.29	5181.95
421.48	5107.05
421.67	5242.80
421.86	5156.20
422.05	5242.80
422.24	5317.70
422.43	5294.29
422.61	5284.93
422.80	5568.13
422.99	5280.25
423.18	5394.93
423.37	5518.98
423.56	5310.68
423.75	5324.72
423.94	5231.10
424.13	4964.28
424.32	5331.74
424.50	5378.55
424.69	5451.11
424.88	5554.09
425.07	5423.02
425.26	5425.36
425.45	5439.40
425.64	5497.92
425.83	5514.30
426.01	5427.70
426.20	5397.28
426.39	5547.07
426.58	5455.79
426.77	5406.64
426.96	5582.18
427.15	5446.43
427.33	5727.29
427.52	5680.48
427.71	5682.82
427.90	5626.65
428.09	5741.33
428.28	5851.34
428.46	5769.42
428.65	5678.14
428.84	5982.41
429.03	5989.43
429.22	5994.11
429.40	5944.96
429.59	6066.67
429.78	5722.61
429.97	5701.54
430.16	6003.47
430.34	6087.73
430.53	6036.24
430.72	6087.73
430.91	6129.86
431.10	6101.78
431.28	6237.53
431.47	6310.08
431.66	6445.84
431.85	6368.60
432.03	6450.52
432.22	6471.58
432.41	6434.13
432.60	6478.60
432.79	6387.32
432.97	6382.64
433.16	6415.41
433.35	6382.64
433.54	6647.12
433.72	6654.14
433.91	6562.86
434.10	6691.59
434.28	6548.82
434.47	6843.73
434.66	6834.36
434.85	6815.64
435.03	6801.60
435.22	6979.48
435.41	7232.26
435.59	7033.31
435.78	7276.73
435.97	7176.08
436.16	7150.34
436.34	6967.77
436.53	6993.52
436.72	7255.66
436.90	6998.20
437.09	7190.13
437.28	7035.65
437.46	7260.34
437.65	7250.98
437.84	7215.87
438.02	7150.34
438.21	7325.88
438.40	7332.90
438.58	7529.50
438.77	7503.76
438.96	7487.37
439.14	7691.00
439.33	7789.30
439.52	7831.43
439.70	7625.47
439.89	8025.70
440.08	7911.01
440.26	7957.82
440.45	7878.24
440.63	8182.51
440.82	8234.00
441.01	8283.16
441.19	8159.11
441.38	8250.39
441.57	8329.97
441.75	8226.98
441.94	8538.27
442.12	8496.14
442.31	8692.75
442.50	8564.02
442.68	8627.21
442.87	8444.65
443.05	8650.62
443.24	8760.63
443.43	8772.33
443.61	8903.40
443.80	9085.96
443.98	8765.31
444.17	8262.09
444.35	8617.85
444.54	8952.55
444.73	8671.68
444.91	8805.10
445.10	8971.27
445.28	8926.80
445.47	8898.72
445.65	8933.82
445.84	8943.19
446.02	8973.61
446.21	8964.25
446.39	9156.18
446.58	9184.26
446.77	9139.79
446.95	8631.90
447.14	8947.87
447.32	9226.39
447.51	8837.86
447.69	8931.48
447.88	8933.82
448.06	9043.83
448.25	9210.01
448.43	9088.30
448.62	9085.96
448.80	9078.94
448.99	9053.19
449.17	9345.76
449.36	9163.20
449.54	9394.91
449.73	9586.83
449.91	9586.83
450.10	9287.25
450.28	9551.73
450.46	9572.79
450.65	9760.03
450.83	9614.92
451.02	9554.07
451.20	9811.53
451.39	9753.01
451.57	9771.74
451.76	9776.42
451.94	9785.78
452.13	9919.19
452.31	9830.25
452.49	9909.83
452.68	9895.78
452.86	9790.46
453.05	10036.22
453.23	10094.73
453.42	10134.52
453.60	9853.66
453.78	10265.59
453.97	10134.52
454.15	9937.91
454.34	10008.13
454.52	10106.43
454.70	10324.10
454.89	10483.26
455.07	10235.16
455.26	10258.57
455.44	10345.17
455.62	10504.32
455.81	10527.73
455.99	10703.27
456.17	10621.35
456.36	10595.61
456.54	10757.10
456.73	10988.82
456.91	10993.50
457.09	11082.44
457.28	11052.01
457.46	10813.28
457.64	11094.14
457.83	11035.63
458.01	11056.69
458.19	11119.89
458.38	11243.93
458.56	11318.83
458.74	11232.23
458.93	11428.84
459.11	11365.64
459.29	11325.85
459.48	11435.86
459.66	11613.74
459.84	11564.59
460.03	11803.32
460.21	11522.46
460.39	11496.71
460.57	11803.32
460.76	11686.29
460.94	11632.46
461.12	11997.59
461.31	11786.94
461.49	11719.06
461.67	11852.47
461.85	12079.50
462.04	11946.09
462.22	12414.20
462.40	12269.09
462.59	12163.76
462.77	12135.68
462.95	12238.66
463.13	12280.79
463.32	12421.22
463.50	12468.03
463.68	12116.95
463.86	12329.94
464.05	12255.04
464.23	12477.40
464.41	12519.53
464.59	12252.70
464.78	12837.84
464.96	12596.76
465.14	12355.69
465.32	12678.68
465.50	12931.46
465.69	13137.43
465.87	12847.20
466.05	12751.24
466.23	13006.36
466.41	12805.07
466.60	13085.94
466.78	12507.82
466.96	12936.14
467.14	12903.37
467.32	12833.16
467.51	13020.40
467.69	12755.92
467.87	13055.51
468.05	13392.55
468.23	13135.09
468.41	13256.79
468.60	13228.71
468.78	13369.14
468.96	13165.51
469.14	13202.96
469.32	13549.36
469.50	13275.52
469.69	13322.33
469.87	13778.73
470.05	13483.83
470.23	13694.47
470.41	13888.74
470.59	13855.97
470.77	14005.77
470.95	13994.06
471.14	14366.21
471.32	13891.08
471.50	14366.21
471.68	14127.47
471.86	14031.51
472.04	14202.37
472.22	14925.60
472.40	14200.03
472.58	14478.55
472.77	14700.90
472.95	14750.06
473.13	15272.00
473.31	14724.31
473.49	14874.10
473.67	14679.84
473.85	14815.59
474.03	15314.13
474.21	15400.72
474.39	15417.11
474.57	15325.83
474.75	15651.16
474.93	15442.85
475.12	15604.35
475.30	15908.62
475.48	15967.13
475.66	16067.78
475.84	15934.37
476.02	15939.05
476.20	16072.46
476.38	16458.65
476.56	16662.27
476.74	16531.20
476.92	16475.03
477.10	16556.95
477.28	16903.35
477.46	17032.08
477.64	16978.25
477.82	17303.58
478.00	17664.02
478.18	17444.01
478.36	17729.56
478.54	18162.56
478.72	18249.16
478.90	18237.45
479.08	18403.63
479.26	18434.06
479.44	18595.56
479.62	18740.67
479.80	18712.58
479.98	18995.79
480.16	19180.69
480.34	19002.81
480.52	19491.98
480.70	19578.58
480.88	19232.18
481.06	19756.46
481.24	19646.46
481.41	20287.76
481.59	20128.61
481.77	20355.64
481.95	20596.71
482.13	20739.49
482.31	20676.29
482.49	21322.28
482.67	21113.97
482.85	21544.63
483.03	21748.26
483.21	21537.61
483.39	21621.87
483.57	21926.14
483.74	22068.91
483.92	22691.49
484.10	21977.63
484.28	22721.92
484.46	23208.75
484.64	23358.55
484.82	23005.13
485.00	23405.36
485.18	23723.67
485.35	24308.80
485.53	24032.62
485.71	23901.55
485.89	24383.70
486.07	24542.86
486.25	24540.52
486.43	24868.19
486.61	24800.32
486.78	25270.76
486.96	25509.50
487.14	25703.76
487.32	25806.75
487.50	25797.38
487.68	26026.76
487.85	26593.17
488.03	26469.12
488.21	27119.79
488.39	26876.37
488.57	27281.28
488.75	27180.64
488.92	27337.46
489.10	28154.30
489.28	27875.78
489.46	28606.03
489.64	28322.82
489.81	28687.95
489.99	29195.84
490.17	28629.43
490.35	29385.43
490.53	29074.13
490.70	29881.62
490.88	29450.96
491.06	30213.98
491.24	30029.07
491.41	30040.78
491.59	30190.57
491.77	30630.59
491.95	31136.15
492.13	31058.91
492.30	31204.02
492.48	31112.74
492.66	31496.59
492.84	31644.04
493.01	31945.97
493.19	31875.76
493.37	32538.13
493.54	32297.05
493.72	32809.63
493.90	32313.44
494.08	33067.09
494.25	33228.59
494.43	33357.32
494.61	33553.92
494.79	33816.06
494.96	33661.58
495.14	33799.68
495.32	34698.44
495.49	34646.95
495.67	34539.29
495.85	34817.81
496.02	34806.11
496.20	34946.54
496.38	35330.39
496.55	35510.61
496.73	36208.09
496.91	36027.87
497.09	36084.04
497.26	36189.36
497.44	35936.59
497.62	36362.56
497.79	36865.78
497.97	36842.37
498.14	37083.45
498.32	37284.73
498.50	37167.71
498.67	37907.32
498.85	37486.02
499.03	37982.21
499.20	37977.53
499.38	37923.70
499.56	38504.15
499.73	38597.77
499.91	38569.69
500.08	38951.20
500.26	39021.41
500.44	39007.37
500.61	39426.32
500.79	39463.77
500.97	39543.35
501.14	40140.19
501.32	39976.35
501.49	39569.10
501.67	39686.12
501.84	40598.93
502.02	40009.12
502.20	40465.52
502.37	40666.81
502.55	40486.59
502.72	40339.13
502.90	41029.59
503.07	41324.50
503.25	41343.22
503.43	40694.89
503.60	41191.09
503.78	41567.91
503.95	41329.18
504.13	41806.65
504.30	41659.20
504.48	41937.72
504.65	41930.70
504.83	42625.84
505.01	42600.09
505.18	42897.34
505.36	42747.54
505.53	42576.69
505.71	42611.79
505.88	43138.41
506.06	43253.10
506.23	43330.34
506.41	43737.59
506.58	43320.98
506.76	43246.08
506.93	43784.40
507.11	43468.43
507.28	44067.61
507.46	44186.97
507.63	44229.10
507.81	44217.40
507.98	44142.50
508.16	44261.87
508.33	44823.60
508.50	44814.24
508.68	44769.77
508.85	44921.90
509.03	45186.38
509.20	44776.79
509.38	45420.44
509.55	45881.52
509.73	45670.87
509.90	45792.58
510.08	46206.86
510.25	46223.24
510.42	45937.69
510.60	46679.64
510.77	46473.68
510.95	46852.84
511.12	46588.36
511.30	46024.29
511.47	46925.40
511.64	46976.89
511.82	47402.87
511.99	46630.49
512.17	47337.33
512.34	47248.39
512.51	47737.57
512.69	47999.71
512.86	47611.18
513.04	48179.93
513.21	47906.08
513.38	48135.46
513.56	48254.82
513.73	48205.67
513.90	48711.23
514.08	48301.64
514.25	48809.53
514.43	48720.59
514.60	48886.77
514.77	48692.50
514.95	48956.99
515.12	48945.28
515.29	49088.06
515.47	49490.63
515.64	49827.66
515.81	49125.50
515.99	49099.76
516.16	49570.21
516.33	49741.06
516.51	49918.95
516.68	49881.50
516.85	50148.32
517.03	50251.30
517.20	50176.40
517.37	50274.71
517.54	50012.57
517.72	50284.07
517.89	50445.57
518.06	50520.46
518.24	50412.80
518.41	50623.45
518.58	50726.43
518.75	50321.52
518.93	50820.05
519.10	50714.73
519.27	50890.27
519.45	51082.19
519.62	51264.75
519.79	51154.75
519.96	51306.88
520.14	51423.91
520.31	51035.38
520.48	51082.19
520.65	51505.83
520.83	51594.77
521.00	52299.27
521.17	51704.77
521.34	51873.29
521.52	51885.00
521.69	52154.16
521.86	52163.52
522.03	51915.42
522.20	52229.05
522.38	52465.45
522.55	52779.08
522.72	52402.25
522.89	52552.05
523.07	52767.38
523.24	52629.29
523.41	52865.68
523.58	52818.87
523.75	52816.53
523.92	52547.37
524.10	53155.91
524.27	52980.37
524.44	53570.18
524.61	53464.86
524.78	52956.96
524.96	53228.46
525.13	53406.34
525.30	53413.37
525.47	53694.23
525.64	53867.43
525.81	53605.29
525.98	53741.04
526.16	53652.10
526.33	53663.80
526.50	53911.90
526.67	53727.00
526.84	53893.18
527.01	53977.43
527.18	54181.06
527.36	54237.23
527.53	54358.94
527.70	54504.06
527.87	54525.12
528.04	54660.87
528.21	54714.70
528.38	54429.16
528.55	54831.73
528.72	54766.20
528.89	54614.06
529.07	54513.42
529.24	54618.74
529.41	55063.44
529.58	55061.10
529.75	54967.48
529.92	55028.34
530.09	54930.03
530.26	54866.84
530.43	54918.33
530.60	54798.96
530.77	54937.05
530.94	55332.60
531.11	55327.92
531.28	55430.91
531.46	55547.93
531.63	55475.38
531.80	55501.12
531.97	55384.10
532.14	55753.90
532.31	55454.31
532.48	55922.42
532.65	55634.53
532.82	55496.44
532.99	55604.11
533.16	55557.30
533.33	55814.76
533.50	55833.48
533.67	55662.62
533.84	55529.21
534.01	55554.96
534.18	55978.59
534.35	56261.80
534.52	56222.01
534.69	56095.62
534.86	56116.68
535.03	55821.78
535.20	56278.18
535.37	56453.72
535.54	56626.92
535.71	56261.80
535.88	56577.77
536.05	56645.65
536.22	56580.11
536.38	56488.83
536.55	56650.33
536.72	56938.21
536.89	56746.29
537.06	56877.36
537.23	56830.55
537.40	56882.04
537.57	57020.13
537.74	56678.41
537.91	56987.36
538.08	57027.15
538.25	56552.02
538.42	57029.49
538.59	57343.12
538.75	57027.15
538.92	56868.00
539.09	57413.34
539.26	57265.89
539.43	57066.94
539.60	57254.18
539.77	57106.73
539.94	57488.24
540.11	57406.32
540.28	57638.03
540.44	57570.16
540.61	57333.76
540.78	57373.55
540.95	57394.62
541.12	57399.30
541.29	57521.01
541.46	57556.11
541.62	57832.30
541.79	57745.70
541.96	57794.85
542.13	57696.55
542.30	57841.66
542.47	57787.83
542.63	58033.58
542.80	58150.61
542.97	58174.02
543.14	58440.84
543.31	58314.45
543.48	58134.23
543.64	58541.48
543.81	58211.46
543.98	58300.40
544.15	58398.71
544.32	58492.33
544.48	58658.51
544.65	58628.08
544.82	58712.34
544.99	58471.26
545.16	58520.41
545.32	58712.34
545.49	58700.64
545.66	59063.42
545.83	58932.35
546.00	59084.48
546.16	59042.35
546.33	58738.08
546.50	58651.48
546.67	58941.71
546.83	58520.41
547.00	58789.58
547.17	58766.17
547.34	58824.68
547.50	59025.97
547.67	59374.71
547.84	59250.66
548.00	59267.05
548.17	59187.47
548.34	59201.51
548.51	59196.83
548.67	59306.83
548.84	59313.86
549.01	59171.08
549.18	59302.15
549.34	59241.30
549.51	59374.71
549.68	59442.59
549.84	59590.04
550.01	59402.80
550.18	59117.25
550.34	59250.66
550.51	59355.99
550.68	59496.42
550.84	59339.60
551.01	59407.48
551.18	59374.71
551.34	59428.54
551.51	59463.65
551.68	59590.04
551.84	59398.12
552.01	59678.98
552.18	59669.62
552.34	59657.91
552.51	59976.23
552.68	59711.75
552.84	59882.61
553.01	59826.43
553.18	59852.18
553.34	59746.86
553.51	59690.68
553.67	59955.16
553.84	60060.49
554.01	60147.09
554.17	60133.04
554.34	60065.17
554.51	60121.34
554.67	60200.92
554.84	60158.79
555.00	60034.74
555.17	60030.06
555.33	60191.56
555.50	59952.82
555.67	60062.83
555.83	60044.10
556.00	60252.41
556.16	60339.01
556.33	60189.22
556.50	60130.70
556.66	60430.29
556.83	60086.23
556.99	60397.52
557.16	60589.45
557.32	60498.17
557.49	60608.17
557.65	60210.28
557.82	60425.61
557.98	60238.37
558.15	60381.14
558.32	60357.74
558.48	60331.99
558.65	60427.95
558.81	60566.04
558.98	60659.66
559.14	60577.75
559.31	60547.32
559.47	60566.04
559.64	60493.49
559.80	60514.55
559.97	60636.26
560.13	60580.09
560.30	60615.19
560.46	60772.01
560.63	60650.30
560.79	60713.50
560.96	60690.09
561.12	60629.24
561.29	60877.33
561.45	60720.52
561.61	60669.03
561.78	60905.42
561.94	60886.70
562.11	61022.45
562.27	61071.60
562.44	61022.45
562.60	61024.79
562.77	60992.02
562.93	60776.69
563.10	61109.05
563.26	60769.67
563.42	61059.90
563.59	61015.43
563.75	61130.11
563.92	61200.33
564.08	60900.74
564.24	60996.70
564.41	61237.78
564.57	60725.20
564.74	60886.70
564.90	61254.16
565.07	61160.54
565.23	61263.52
565.39	61120.75
565.56	61296.29
565.72	61144.16
565.88	61141.81
566.05	61148.84
566.21	60935.85
566.38	60912.44
566.54	61073.94
566.70	61296.29
566.87	61439.06
567.03	61200.33
567.19	61680.14
567.36	61277.57
567.52	61329.06
567.68	61378.21
567.85	61022.45
568.01	61202.67
568.17	61228.41
568.34	61366.51
568.50	61205.01
568.66	61347.78
568.83	61553.75
568.99	61471.83
569.15	61289.27
569.32	61296.29
569.48	61230.75
569.64	61312.67
569.81	61207.35
569.97	61167.56
570.13	61499.92
570.30	61453.11
570.46	61448.42
570.62	61345.44
570.78	61109.05
570.95	61312.67
571.11	61659.07
571.27	61303.31
571.43	61310.33
571.60	61415.66
571.76	61286.93
571.92	61443.74
572.09	61638.01
572.25	61467.15
572.41	61371.19
572.57	61528.00
572.74	61769.08
572.90	61427.36
573.06	61410.98
573.22	61595.88
573.38	61661.41
573.55	61659.07
573.71	61703.54
573.87	61752.69
574.03	61647.37
574.20	61677.80
574.36	61783.12
574.52	61691.84
574.68	61577.15
574.84	61815.89
575.01	61464.81
575.17	61846.32
575.33	61528.00
575.49	61656.73
575.65	61792.48
575.82	61841.63
575.98	61677.80
576.14	61839.29
576.30	61733.97
576.46	61598.22
576.62	61577.15
576.79	61563.11
576.95	61565.45
577.11	61780.78
577.27	61769.08
577.43	61783.12
577.59	61736.31
577.75	61677.80
577.92	61638.01
578.08	61773.76
578.24	61726.95
578.40	61680.14
578.56	61752.69
578.72	61853.34
578.88	61921.21
579.04	62209.10
579.21	61839.29
579.37	61942.28
579.53	62045.26
579.69	61745.67
579.85	61914.19
580.01	61876.74
580.17	61900.15
580.33	61876.74
580.49	61949.30
580.65	62017.17
580.82	61918.87
580.98	61879.08
581.14	61939.94
581.30	62068.67
581.46	61799.50
581.62	61705.88
581.78	61843.98
581.94	61801.85
582.10	61740.99
582.26	62054.62
582.42	61993.77
582.58	61790.14
582.74	61848.66
582.90	62019.52
583.06	61956.32
583.22	61968.02
583.38	61815.89
583.54	61893.13
583.70	61797.16
583.86	61949.30
584.02	61991.43
584.18	62195.06
584.34	61883.76
584.50	62059.30
584.66	61914.19
584.82	61792.48
584.98	62045.26
585.14	61902.49
585.30	62024.20
585.46	62031.22
585.62	61883.76
585.78	62164.63
585.94	61970.36
586.10	62150.59
586.26	61928.23
586.42	62159.95
586.58	62033.56
586.74	62047.60
586.90	61867.38
587.06	62127.18
587.22	62262.93
587.38	61939.94
587.54	62225.48
587.70	62295.70
587.86	62157.61
