SpectraSuite Data File
++++++++++++++++++++++++++++++++++++
Date: Thu Oct 24 13:21:04 EDT 2013
User: stostad
Dark Spectrum Present: No
Reference Spectrum Present: No
Number of Sampled Component Spectra: 1
Spectrometers: USB2+H05261
Integration Time (usec): 100000 (USB2+H05261)
Spectra Averaged: 1 (USB2+H05261)
Boxcar Smoothing: 0 (USB2+H05261)
Correct for Electrical Dark: No (USB2+H05261)
Strobe/Lamp Enabled: No (USB2+H05261)
Correct for Detector Non-linearity: No (USB2+H05261)
Correct for Stray Light: No (USB2+H05261)
Number of Pixels in Processed Spectrum: 2048
>>>>>Begin Processed Spectral Data<<<<<
365.73	547.69
365.92	547.69
366.12	547.69
366.32	447.04
366.52	433.00
366.72	425.98
366.91	505.56
367.11	440.02
367.31	442.36
367.51	493.85
367.70	407.25
367.90	425.98
368.10	500.87
368.30	463.43
368.49	437.68
368.69	416.62
368.89	407.25
369.09	430.66
369.28	435.34
369.48	475.13
369.68	521.94
369.87	451.72
370.07	505.56
370.27	564.07
370.47	615.56
370.66	634.29
370.86	739.61
371.06	667.05
371.25	650.67
371.45	599.18
371.65	709.18
371.84	594.50
372.04	688.12
372.24	704.50
372.44	690.46
372.63	711.52
372.83	734.93
373.03	751.31
373.22	683.44
373.42	678.76
373.62	702.16
373.81	713.86
374.01	737.27
374.21	744.29
374.40	765.36
374.60	767.70
374.79	674.07
374.99	704.50
375.19	767.70
375.38	765.36
375.58	753.65
375.78	746.63
375.97	746.63
376.17	760.67
376.37	734.93
376.56	779.40
376.76	786.42
376.95	779.40
377.15	760.67
377.35	730.25
377.54	751.31
377.74	753.65
377.93	772.38
378.13	751.31
378.33	751.31
378.52	683.44
378.72	788.76
378.91	791.10
379.11	669.39
379.31	641.31
379.50	709.18
379.70	812.17
379.89	711.52
380.09	704.50
380.28	664.71
380.48	723.23
380.68	660.03
380.87	751.31
381.07	788.76
381.26	737.27
381.46	779.40
381.65	777.06
381.85	748.97
382.04	718.54
382.24	767.70
382.43	695.14
382.63	732.59
382.83	681.10
383.02	753.65
383.22	779.40
383.41	760.67
383.61	802.80
383.80	774.72
384.00	753.65
384.19	683.44
384.39	786.42
384.58	741.95
384.78	720.88
384.97	671.73
385.17	758.33
385.36	746.63
385.56	723.23
385.75	734.93
385.95	737.27
386.14	758.33
386.34	730.25
386.53	828.55
386.72	772.38
386.92	844.93
387.11	805.14
387.31	767.70
387.50	777.06
387.70	741.95
387.89	727.91
388.09	767.70
388.28	798.12
388.48	777.06
388.67	739.61
388.86	765.36
389.06	741.95
389.25	774.72
389.45	805.14
389.64	819.19
389.84	786.42
390.03	753.65
390.22	828.55
390.42	842.59
390.61	809.83
390.81	772.38
391.00	809.83
391.19	751.31
391.39	837.91
391.58	828.55
391.78	812.17
391.97	863.66
392.16	784.08
392.36	889.40
392.55	833.23
392.75	809.83
392.94	760.67
393.13	807.48
393.33	842.59
393.52	833.23
393.71	856.64
393.91	795.78
394.10	861.32
394.29	837.91
394.49	791.10
394.68	870.68
394.88	844.93
395.07	903.45
395.26	856.64
395.46	868.34
395.65	866.00
395.84	898.77
396.04	877.70
396.23	863.66
396.42	812.17
396.62	866.00
396.81	903.45
397.00	870.68
397.19	919.83
397.39	866.00
397.58	858.98
397.77	870.68
397.97	884.72
398.16	889.40
398.35	910.47
398.55	833.23
398.74	821.53
398.93	924.51
399.12	854.30
399.32	863.66
399.51	903.45
399.70	922.17
399.90	908.13
400.09	978.34
400.28	917.49
400.47	919.83
400.67	966.64
400.86	957.28
401.05	966.64
401.24	887.06
401.44	950.26
401.63	903.45
401.82	945.58
402.01	1006.43
402.21	980.68
402.40	1004.09
402.59	959.62
402.78	964.30
402.97	908.13
403.17	873.02
403.36	990.05
403.55	1020.47
403.74	1011.11
403.93	1034.52
404.13	1020.47
404.32	992.39
404.51	1015.79
404.70	957.28
404.89	973.66
405.09	1001.75
405.28	976.00
405.47	999.41
405.66	1004.09
405.85	1025.15
406.05	1025.15
406.24	1001.75
406.43	1102.39
406.62	947.92
406.81	1050.90
407.00	1067.28
407.20	971.32
407.39	1022.81
407.58	976.00
407.77	1025.15
407.96	1121.12
408.15	1097.71
408.34	1090.69
408.54	1081.33
408.73	1078.99
408.92	1088.35
409.11	1093.03
409.30	1057.92
409.49	1050.90
409.68	1111.75
409.87	1118.78
410.07	1149.20
410.26	1139.84
410.45	1165.59
410.64	1036.86
410.83	1116.44
411.02	1064.94
411.21	1069.62
411.40	1123.46
411.59	1174.95
411.78	1158.57
411.98	1107.07
412.17	1116.44
412.36	1132.82
412.55	1207.72
412.74	1252.19
412.93	1203.04
413.12	1207.72
413.31	1226.44
413.50	1184.31
413.69	1249.85
413.88	1226.44
414.07	1200.69
414.26	1268.57
414.45	1261.55
414.64	1306.02
414.83	1254.53
415.02	1254.53
415.22	1240.48
415.41	1308.36
415.60	1308.36
415.79	1350.49
415.98	1275.59
416.17	1355.17
416.36	1268.57
416.55	1291.98
416.74	1329.42
416.93	1266.23
417.12	1245.16
417.31	1338.79
417.50	1310.70
417.69	1299.00
417.88	1306.02
418.07	1366.87
418.26	1324.74
418.45	1282.61
418.64	1380.92
418.83	1373.89
419.02	1350.49
419.21	1380.92
419.39	1341.13
419.58	1355.17
419.77	1369.21
419.96	1469.86
420.15	1394.96
420.34	1350.49
420.53	1401.98
420.72	1493.26
420.91	1392.62
421.10	1458.15
421.29	1411.34
421.48	1430.07
421.67	1495.60
421.86	1427.73
422.05	1362.19
422.24	1397.30
422.43	1425.39
422.61	1460.49
422.80	1448.79
422.99	1406.66
423.18	1472.20
423.37	1423.05
423.56	1481.56
423.75	1448.79
423.94	1406.66
424.13	1284.95
424.32	1430.07
424.50	1462.83
424.69	1519.01
424.88	1469.86
425.07	1409.00
425.26	1434.75
425.45	1448.79
425.64	1401.98
425.83	1434.75
426.01	1474.54
426.20	1519.01
426.39	1486.24
426.58	1472.20
426.77	1481.56
426.96	1554.12
427.15	1371.55
427.33	1425.39
427.52	1547.09
427.71	1439.43
427.90	1526.03
428.09	1411.34
428.28	1502.62
428.46	1537.73
428.65	1533.05
428.84	1579.86
429.03	1629.01
429.22	1579.86
429.40	1504.96
429.59	1474.54
429.78	1504.96
429.97	1516.67
430.16	1526.03
430.34	1586.88
430.53	1614.97
430.72	1610.29
430.91	1533.05
431.10	1493.26
431.28	1593.90
431.47	1607.95
431.66	1523.69
431.85	1497.94
432.03	1626.67
432.22	1624.33
432.41	1577.52
432.60	1619.65
432.79	1591.56
432.97	1633.69
433.16	1603.27
433.35	1633.69
433.54	1619.65
433.72	1643.06
433.91	1741.36
434.10	1692.21
434.28	1724.97
434.47	1739.02
434.66	1699.23
434.85	1746.04
435.03	1795.19
435.22	1977.75
435.41	2174.36
435.59	2153.29
435.78	1933.28
435.97	1830.30
436.16	1834.98
436.34	1776.47
436.53	1820.94
436.72	1736.68
436.90	1762.42
437.09	1753.06
437.28	1776.47
437.46	1750.72
437.65	1764.76
437.84	1827.96
438.02	1813.92
438.21	1746.04
438.40	1776.47
438.58	1874.77
438.77	1830.30
438.96	1853.70
439.14	1781.15
439.33	1849.02
439.52	1858.39
439.70	1877.11
439.89	1949.67
440.08	1977.75
440.26	1961.37
440.45	1930.94
440.63	1912.22
440.82	1914.56
441.01	1874.77
441.19	1980.09
441.38	1900.52
441.57	2022.22
441.75	1973.07
441.94	1982.43
442.12	1984.77
442.31	2085.42
442.50	1944.99
442.68	2005.84
442.87	1909.88
443.05	2040.95
443.24	2059.67
443.43	2071.37
443.61	2052.65
443.80	2150.95
443.98	1984.77
444.17	1895.83
444.35	2083.08
444.54	2036.27
444.73	2115.84
444.91	2031.58
445.10	2045.63
445.28	2029.24
445.47	1963.71
445.65	2022.22
445.84	2108.82
446.02	2106.48
446.21	1987.11
446.39	2125.21
446.58	2064.35
446.77	2160.31
446.95	2111.16
447.14	2097.12
447.32	2183.72
447.51	2029.24
447.69	2122.87
447.88	2120.53
448.06	2127.55
448.25	2111.16
448.43	2242.23
448.62	2125.21
448.80	1987.11
448.99	2157.97
449.17	2054.99
449.36	2129.89
449.54	2167.34
449.73	2076.06
449.91	2223.51
450.10	2202.44
450.28	2246.91
450.46	2172.02
450.65	2230.53
450.83	2256.28
451.02	2244.57
451.20	2214.15
451.39	2106.48
451.57	2176.70
451.76	2296.07
451.94	2251.60
452.13	2237.55
452.31	2249.25
452.49	2129.89
452.68	2218.83
452.86	2260.96
453.05	2326.49
453.23	2333.51
453.42	2282.02
453.60	2300.75
453.78	2347.56
453.97	2181.38
454.15	2300.75
454.34	2272.66
454.52	2216.49
454.70	2331.17
454.89	2354.58
455.07	2260.96
455.26	2333.51
455.44	2413.09
455.62	2256.28
455.81	2303.09
455.99	2403.73
456.17	2345.22
456.36	2443.52
456.54	2441.18
456.73	2359.26
456.91	2387.35
457.09	2438.84
457.28	2417.77
457.46	2427.14
457.64	2544.16
457.83	2462.24
458.01	2471.61
458.19	2455.22
458.38	2462.24
458.56	2565.23
458.74	2579.27
458.93	2520.76
459.11	2516.08
459.29	2455.22
459.48	2621.40
459.66	2548.84
459.84	2548.84
460.03	2677.57
460.21	2581.61
460.39	2605.02
460.57	2551.18
460.76	2593.31
460.94	2644.81
461.12	2640.12
461.31	2607.36
461.49	2621.40
461.67	2546.50
461.85	2602.68
462.04	2541.82
462.22	2958.44
462.40	2574.59
462.59	2640.12
462.77	2705.66
462.95	2686.94
463.13	2569.91
463.32	2576.93
463.50	2693.96
463.68	2630.76
463.86	2675.23
464.05	2717.36
464.23	2759.49
464.41	2621.40
464.59	2738.43
464.78	2785.24
464.96	2841.41
465.14	2740.77
465.32	2719.70
465.50	2684.59
465.69	2799.28
465.87	2661.19
466.05	2757.15
466.23	2684.59
466.41	2832.05
466.60	2918.65
466.78	2792.26
466.96	2775.88
467.14	2843.75
467.32	2778.22
467.51	2848.43
467.69	2820.35
467.87	2794.60
468.05	2942.05
468.23	2913.97
468.41	2869.50
468.60	2878.86
468.78	2897.58
468.96	2813.32
469.14	2946.73
469.32	2827.37
469.50	2888.22
469.69	3028.65
469.87	2890.56
470.05	2942.05
470.23	2998.23
470.41	2904.60
470.59	2883.54
470.77	2939.71
470.95	2897.58
471.14	2899.92
471.32	2963.12
471.50	3033.33
471.68	3040.36
471.86	3028.65
472.04	2946.73
472.22	3073.12
472.40	3047.38
472.58	3063.76
472.77	3152.70
472.95	3098.87
473.13	3187.81
473.31	3040.36
473.49	3243.98
473.67	3225.26
473.85	3211.22
474.03	3133.98
474.21	3124.62
474.39	3136.32
474.57	3302.50
474.75	3206.53
474.93	3241.64
475.12	3204.19
475.30	3356.33
475.48	3311.86
475.66	3321.22
475.84	3332.92
476.02	3377.39
476.20	3353.99
476.38	3384.41
476.56	3482.72
476.74	3485.06
476.92	3421.86
477.10	3382.07
477.28	3592.72
477.46	3356.33
477.64	3517.83
477.82	3590.38
478.00	3646.55
478.18	3489.74
478.36	3646.55
478.54	3597.40
478.72	3655.92
478.90	3676.98
479.08	3735.50
479.26	3786.99
479.44	3798.69
479.62	3843.16
479.80	3803.37
479.98	3861.88
480.16	3845.50
480.34	4032.74
480.52	3995.29
480.70	3857.20
480.88	3875.93
481.06	3943.80
481.24	3918.06
481.41	4098.28
481.59	4060.83
481.77	4065.51
481.95	4095.94
482.13	4072.53
482.31	4077.21
482.49	4397.87
482.67	4259.78
482.85	4215.30
483.03	4250.41
483.21	4287.86
483.39	4308.93
483.57	4234.03
483.74	4456.38
483.92	4341.69
484.10	4521.92
484.28	4561.70
484.46	4629.58
484.64	4573.41
484.82	4629.58
485.00	4662.35
485.18	4512.55
485.35	4690.43
485.53	4802.78
485.71	4779.37
485.89	4835.55
486.07	4657.67
486.25	4758.31
486.43	4870.65
486.61	4901.08
486.78	4887.04
486.96	5027.47
487.14	4959.60
487.32	5067.26
487.50	5130.45
487.68	5008.75
487.85	5046.20
488.03	5184.29
488.21	5315.36
488.39	5252.16
488.57	5224.08
488.75	5252.16
488.92	5331.74
489.10	5359.83
489.28	5462.81
489.46	5460.47
489.64	5308.34
489.81	5359.83
489.99	5666.44
490.17	5671.12
490.35	5516.64
490.53	5462.81
490.70	5577.50
490.88	5664.10
491.06	5685.16
491.24	5659.42
491.41	5776.44
491.59	5792.83
491.77	5830.27
491.95	5877.09
492.13	5886.45
492.30	5996.45
492.48	5973.05
492.66	5970.71
492.84	5980.07
493.01	6059.65
493.19	6064.33
493.37	6132.20
493.54	6108.80
493.72	6272.64
493.90	6179.01
494.08	6296.04
494.25	6204.76
494.43	6235.19
494.61	6499.67
494.79	6497.33
494.96	6293.70
495.14	6466.90
495.32	6548.82
495.49	6485.62
495.67	6532.44
495.85	6448.18
496.02	6560.52
496.20	6675.21
496.38	6452.86
496.55	6628.40
496.73	6862.45
496.91	6691.59
497.09	6825.00
497.26	6785.21
497.44	6825.00
497.62	6764.15
497.79	6986.50
497.97	6848.41
498.14	6988.84
498.32	7096.50
498.50	7054.37
498.67	7059.06
498.85	6918.62
499.03	7162.04
499.20	7061.40
499.38	6965.43
499.56	7194.81
499.73	7346.94
499.91	7061.40
500.08	7253.32
500.26	7332.90
500.44	7143.32
500.61	7318.86
500.79	7311.83
500.97	7438.22
501.14	7440.56
501.32	7384.39
501.49	7543.55
501.67	7470.99
501.84	7494.40
502.02	7592.70
502.20	7592.70
502.37	7602.06
502.55	7646.53
502.72	7470.99
502.90	7543.55
503.07	7543.55
503.25	7681.64
503.43	7604.40
503.60	7637.17
503.78	7695.68
503.95	7693.34
504.13	7754.19
504.30	7871.22
504.48	7616.10
504.65	7925.05
504.83	8016.33
505.01	8042.08
505.18	8053.78
505.36	8023.36
505.53	7981.23
505.71	8079.53
505.88	7908.67
506.06	7988.25
506.23	8018.68
506.41	8011.65
506.58	8142.72
506.76	8285.50
506.93	8091.23
507.11	8168.47
507.28	8074.85
507.46	8255.07
507.63	8243.37
507.81	8418.91
507.98	8133.36
508.16	8521.89
508.33	8264.43
508.50	8283.16
508.68	8470.40
508.85	8416.57
509.03	8395.50
509.20	8393.16
509.38	8463.38
509.55	8634.24
509.73	8430.61
509.90	8416.57
510.08	8819.14
510.25	8545.30
510.42	8564.02
510.60	8681.05
510.77	8592.11
510.95	8519.55
511.12	8688.07
511.30	8641.26
511.47	8758.28
511.64	8849.57
511.82	8908.08
511.99	8816.80
512.17	8751.26
512.34	8837.86
512.51	8905.74
512.69	8814.46
512.86	8980.64
513.04	8994.68
513.21	8910.42
513.38	8957.23
513.56	9036.81
513.73	8816.80
513.90	8931.48
514.08	9076.60
514.25	9352.78
514.43	9102.34
514.60	9109.36
514.77	9291.93
514.95	9366.82
515.12	9362.14
515.29	9057.87
515.47	9060.21
515.64	9401.93
515.81	9268.52
515.99	9153.84
516.16	9291.93
516.33	9310.65
516.51	9605.56
516.68	9404.27
516.85	9338.74
517.03	9495.55
517.20	9699.18
517.37	9394.91
517.54	9640.67
517.72	9451.08
517.89	9610.24
518.06	9650.03
518.24	9727.27
518.41	9816.21
518.58	9689.82
518.75	9446.40
518.93	9497.89
519.10	9624.28
519.27	9664.07
519.45	9535.34
519.62	9643.01
519.79	9579.81
519.96	9591.52
520.14	9823.23
520.31	9736.63
520.48	9823.23
520.65	9951.96
520.83	9863.02
521.00	9834.93
521.17	9673.43
521.34	9909.83
521.52	9802.16
521.69	9961.32
521.86	9958.98
522.03	9841.95
522.20	10120.48
522.38	10265.59
522.55	9982.38
522.72	9996.43
522.89	9973.02
523.07	10099.41
523.24	10022.17
523.41	10497.30
523.58	10036.22
523.75	10153.24
523.92	10111.11
524.10	10218.78
524.27	10267.93
524.44	10244.52
524.61	10335.81
524.78	10303.04
524.96	10263.25
525.13	10246.87
525.30	10483.26
525.47	10485.60
525.64	10394.32
525.81	10548.79
525.98	10413.04
526.16	10501.98
526.33	10476.24
526.50	10611.99
526.67	10476.24
526.84	10384.96
527.01	10668.16
527.18	10504.32
527.36	10656.46
527.53	10483.26
527.70	10759.44
527.87	10750.08
528.04	10787.53
528.21	10738.38
528.38	10836.68
528.55	10913.92
528.72	10490.28
528.89	10569.86
529.07	10630.71
529.24	10581.56
529.41	10771.15
529.58	10668.16
529.75	10677.52
529.92	10832.00
530.09	10806.25
530.26	10920.94
530.43	10808.59
530.60	10853.06
530.77	10965.41
530.94	10956.05
531.11	10881.15
531.28	10920.94
531.46	11047.33
531.63	11176.06
531.80	10918.60
531.97	10953.71
532.14	11012.22
532.31	11063.71
532.48	11075.42
532.65	11005.20
532.82	11026.26
532.99	11133.93
533.16	10913.92
533.33	11211.17
533.50	11232.23
533.67	11346.92
533.84	11080.10
534.01	11190.10
534.18	11403.09
534.35	11288.40
534.52	11276.70
534.69	11227.55
534.86	11185.42
535.03	11023.92
535.20	11265.00
535.37	11346.92
535.54	11335.21
535.71	11363.30
535.88	11405.43
536.05	11353.94
536.22	11400.75
536.38	11517.78
536.55	11489.69
536.72	11602.04
536.89	11297.77
537.06	11550.54
537.23	11592.67
537.40	11662.89
537.57	11578.63
537.74	11623.10
537.91	11674.59
538.08	11468.62
538.25	11466.28
538.42	11688.64
538.59	11522.46
538.75	11651.19
538.92	11712.04
539.09	11758.85
539.26	11808.00
539.43	11864.18
539.60	11815.02
539.77	11934.39
539.94	12149.72
540.11	11950.78
540.28	12168.45
540.44	11988.22
540.61	11990.56
540.78	11978.86
540.95	12191.85
541.12	12301.86
541.29	12212.92
541.46	12379.09
541.62	12271.43
541.79	12428.24
541.96	12381.43
542.13	12299.52
542.30	12559.31
542.47	12365.05
542.63	12201.21
542.80	12395.48
542.97	12669.32
543.14	12631.87
543.31	12510.16
543.48	12533.57
543.64	12432.93
543.81	12723.15
543.98	12521.87
544.15	12578.04
544.32	12659.96
544.48	12456.33
544.65	12456.33
544.82	12299.52
544.99	12489.10
545.16	12526.55
545.32	12776.98
545.49	13146.79
545.66	13130.41
545.83	13390.20
546.00	13114.02
546.16	13116.36
546.33	13071.89
546.50	12692.73
546.67	12840.18
546.83	12624.85
547.00	12650.60
547.17	12437.61
547.34	12428.24
547.50	12837.84
547.67	12615.49
547.84	12620.17
548.00	12613.15
548.17	12681.02
548.34	12830.82
548.51	12737.20
548.67	13036.78
548.84	12718.47
549.01	12561.66
549.18	12596.76
549.34	12798.05
549.51	12706.77
549.68	12608.47
549.84	12767.62
550.01	12760.60
550.18	12678.68
550.34	12657.62
550.51	12929.12
550.68	13177.22
550.84	12835.50
551.01	12666.98
551.18	12746.56
551.34	12704.43
551.51	12875.29
551.68	12732.51
551.84	12905.71
552.01	12674.00
552.18	12840.18
552.34	12856.56
552.51	12746.56
552.68	12720.81
552.84	12755.92
553.01	12903.37
553.18	12854.22
553.34	12959.55
553.51	12837.84
553.67	12690.38
553.84	12865.92
554.01	13167.85
554.17	12823.80
554.34	12858.90
554.51	12957.21
554.67	12905.71
554.84	12950.18
555.00	12798.05
555.17	12882.31
555.33	12786.35
555.50	13013.38
555.67	12917.42
555.83	12870.61
556.00	13303.60
556.16	13212.32
556.33	13172.54
556.50	13294.24
556.66	12971.25
556.83	12989.97
556.99	13226.37
557.16	13310.63
557.32	13074.23
557.49	13221.69
557.65	13172.54
557.82	13156.15
557.98	13118.70
558.15	12978.27
558.32	13011.04
558.48	13252.11
558.65	13212.32
558.81	12936.14
558.98	13233.39
559.14	13298.92
559.31	13191.26
559.47	13170.19
559.64	13352.76
559.80	13509.57
559.97	13355.10
560.13	13104.66
560.30	13392.55
560.46	13266.16
560.63	13207.64
560.79	13160.83
560.96	13312.97
561.12	13554.04
561.29	13315.31
561.45	13256.79
561.61	13294.24
561.78	13387.86
561.94	13270.84
562.11	13366.80
562.27	13530.64
562.44	13088.28
562.60	13329.35
562.77	13254.45
562.93	13312.97
563.10	13507.23
563.26	13235.73
563.42	13584.47
563.59	13448.72
563.75	13362.12
563.92	13397.23
564.08	13392.55
564.24	13280.20
564.41	13408.93
564.57	13385.52
564.74	13151.47
564.90	13350.42
565.07	13383.18
565.23	13448.72
565.39	13327.01
565.56	13642.98
565.72	13193.60
565.88	13343.39
566.05	13572.77
566.21	13458.08
566.38	13429.99
566.54	13371.48
566.70	13813.84
566.87	13795.12
567.03	13645.32
567.19	13652.34
567.36	13628.94
567.52	13598.51
567.68	13507.23
567.85	13523.62
568.01	13462.76
568.17	13682.77
568.34	13345.73
568.50	13764.69
568.66	13568.09
568.83	13624.26
568.99	13467.44
569.15	13502.55
569.32	13593.83
569.48	13549.36
569.64	13532.98
569.81	13518.93
569.97	13696.82
570.13	13682.77
570.30	13551.70
570.46	13429.99
570.62	13507.23
570.78	13710.86
570.95	13422.97
571.11	13724.90
571.27	13624.26
571.43	13378.50
571.60	13577.45
571.76	13706.18
571.92	13540.00
572.09	13661.71
572.25	13603.19
572.41	13729.58
572.57	13717.88
572.74	13561.06
572.90	13703.84
573.06	13764.69
573.22	13767.03
573.38	13750.65
573.55	13640.64
573.71	13907.46
573.87	13937.89
574.03	13818.52
574.20	13825.54
574.36	13942.57
574.52	13830.23
574.68	13654.69
574.84	13879.38
575.01	13813.84
575.17	13841.93
575.33	13446.38
575.49	13469.78
575.65	13619.58
575.82	13584.47
575.98	13841.93
576.14	13729.58
576.30	13736.60
576.46	13760.01
576.62	14017.47
576.79	13853.63
576.95	14024.49
577.11	13949.59
577.27	13771.71
577.43	13818.52
577.59	14064.28
577.75	13944.91
577.92	13736.60
578.08	13879.38
578.24	13755.33
578.40	13947.25
578.56	13975.34
578.72	13965.98
578.88	14256.20
579.04	14012.79
579.21	13830.23
579.37	13975.34
579.53	13996.40
579.69	13809.16
579.85	13839.59
580.01	14106.41
580.17	13987.04
580.33	13699.16
580.49	13907.46
580.65	13905.12
580.82	14059.60
580.98	13867.67
581.14	13928.53
581.30	13855.97
581.46	14111.09
581.62	13881.72
581.78	13900.44
581.94	14108.75
582.10	13734.26
582.26	14036.19
582.42	13919.17
582.58	13879.38
582.74	14047.90
582.90	14225.78
583.06	13940.23
583.22	14064.28
583.38	13846.61
583.54	13902.78
583.70	14087.68
583.86	14040.87
584.02	13851.29
584.18	13874.70
584.34	14122.79
584.50	14319.40
584.66	13998.74
584.82	13961.30
584.98	13942.57
585.14	14127.47
585.30	14043.21
585.46	13933.21
585.62	14115.77
585.78	14129.81
585.94	14003.43
586.10	13839.59
586.26	13891.08
586.42	14125.13
586.58	14054.92
586.74	14090.02
586.90	14223.44
587.06	14085.34
587.22	14228.12
587.38	14141.52
587.54	14216.41
587.70	14232.80
587.86	14139.18
588.02	14010.45
588.18	14017.47
588.34	14200.03
588.49	14424.72
588.65	14263.22
588.81	14235.14
588.97	14204.71
589.13	14333.44
589.29	14277.27
589.45	14106.41
589.61	14090.02
589.77	14335.78
589.93	14108.75
590.08	14057.26
590.24	14319.40
590.40	14244.50
590.56	14101.73
590.72	14157.90
590.88	14125.13
591.04	14073.64
591.20	14190.67
591.35	14338.12
591.51	14511.32
591.67	14368.55
591.83	14356.85
591.99	13956.61
592.15	14059.60
592.31	14120.45
592.46	14160.24
592.62	14029.17
592.78	14242.16
592.94	14368.55
593.10	14012.79
593.26	14443.45
593.41	14520.68
