SpectraSuite Data File
++++++++++++++++++++++++++++++++++++
Date: Thu Oct 24 13:21:46 EDT 2013
User: stostad
Dark Spectrum Present: No
Reference Spectrum Present: No
Number of Sampled Component Spectra: 1
Spectrometers: USB2+H05261
Integration Time (usec): 100000 (USB2+H05261)
Spectra Averaged: 1 (USB2+H05261)
Boxcar Smoothing: 0 (USB2+H05261)
Correct for Electrical Dark: No (USB2+H05261)
Strobe/Lamp Enabled: No (USB2+H05261)
Correct for Detector Non-linearity: No (USB2+H05261)
Correct for Stray Light: No (USB2+H05261)
Number of Pixels in Processed Spectrum: 2048
>>>>>Begin Processed Spectral Data<<<<<
365.73	793.44
365.92	793.44
366.12	793.44
366.32	716.20
366.52	671.73
366.72	662.37
366.91	631.94
367.11	589.82
367.31	648.33
367.51	655.35
367.70	674.07
367.90	685.78
368.10	765.36
368.30	660.03
368.49	631.94
368.69	627.26
368.89	648.33
369.09	660.03
369.28	727.91
369.48	678.76
369.68	753.65
369.87	737.27
370.07	713.86
370.27	795.78
370.47	1102.39
370.66	1961.37
370.86	2207.13
371.06	2214.15
371.25	2214.15
371.45	2296.07
371.65	2260.96
371.84	2298.41
372.04	2331.17
372.24	2251.60
372.44	2289.04
372.63	2335.85
372.83	2366.28
373.03	2434.16
373.22	2471.61
373.42	2436.50
373.62	2394.37
373.81	2495.01
374.01	2438.84
374.21	2469.27
374.40	2576.93
374.60	2649.49
374.79	2569.91
374.99	2644.81
375.19	2736.09
375.38	2686.94
375.58	2677.57
375.78	2715.02
375.97	2736.09
376.17	2766.51
376.37	2815.66
376.56	2803.96
376.76	2792.26
376.95	2916.31
377.15	2899.92
377.35	2876.52
377.54	2836.73
377.74	2897.58
377.93	2970.14
378.13	2951.42
378.33	3084.83
378.52	2885.88
378.72	3035.67
378.91	3087.17
379.11	3096.53
379.31	3115.25
379.50	3035.67
379.70	3180.79
379.89	3229.94
380.09	3199.51
380.28	3194.83
380.48	3227.60
380.68	3363.35
380.87	3251.00
381.07	3384.41
381.26	3361.01
381.46	3368.03
381.65	3330.58
381.85	3426.54
382.04	3407.82
382.24	3562.30
382.43	3438.25
382.63	3449.95
382.83	3396.12
383.02	3550.59
383.22	3461.65
383.41	3637.19
383.61	3494.42
383.80	3590.38
384.00	3595.06
384.19	3698.05
384.39	3770.60
384.58	3833.80
384.78	3686.34
384.97	3777.62
385.17	3693.37
385.36	3730.81
385.56	3861.88
385.75	3777.62
385.95	3894.65
386.14	3880.61
386.34	3911.04
386.53	3922.74
386.72	3906.35
386.92	4121.68
387.11	4093.60
387.31	3964.87
387.50	4095.94
387.70	4049.13
387.89	4037.42
388.09	4124.02
388.28	4133.39
388.48	4306.59
388.67	4297.22
388.86	4365.10
389.06	4259.78
389.25	4414.25
389.45	4437.66
389.64	4315.95
389.84	4437.66
390.03	4442.34
390.22	4617.88
390.42	4528.94
390.61	4533.62
390.81	4613.20
391.00	4594.47
391.19	4692.77
391.39	4531.28
391.58	4809.80
391.78	4669.37
391.97	4767.67
392.16	4933.85
392.36	4985.34
392.55	4868.31
392.75	5034.49
392.94	4922.15
393.13	4901.08
393.33	5039.17
393.52	5093.01
393.71	5214.71
393.91	5053.22
394.10	5034.49
394.29	5313.02
394.49	5163.22
394.68	5315.36
394.88	5259.18
395.07	5465.15
395.26	5458.13
395.46	5455.79
395.65	5558.77
395.84	5713.25
396.04	5605.58
396.23	5659.42
396.42	5589.20
396.62	5809.21
396.81	5675.80
397.00	5729.63
397.19	5776.44
397.39	5757.72
397.58	5774.10
397.77	5804.53
397.97	5942.62
398.16	5933.26
398.35	6129.86
398.55	6179.01
398.74	6094.76
398.93	6291.36
399.12	6368.60
399.32	6221.14
399.51	6106.46
399.70	6340.51
399.90	6380.30
400.09	6490.31
400.28	6555.84
400.47	6413.07
400.67	6597.97
400.86	6466.90
401.05	6637.76
401.24	6541.80
401.44	6794.58
401.63	6853.09
401.82	6836.70
402.01	6630.74
402.21	6750.10
402.40	6904.58
402.59	6925.65
402.78	7096.50
402.97	7014.59
403.17	7328.22
403.36	6970.12
403.55	7140.97
403.74	7616.10
403.93	7550.57
404.13	7548.23
404.32	7407.80
404.51	7463.97
404.70	7611.42
404.89	7576.31
405.09	7606.74
405.28	7566.95
405.47	7716.75
405.66	7819.73
405.85	7819.73
406.05	7868.88
406.24	7964.84
406.43	7999.95
406.62	8105.28
406.81	8196.56
407.00	8030.38
407.20	8084.21
407.39	8060.80
407.58	8306.56
407.77	8458.70
407.96	8372.10
408.15	8379.12
408.34	8409.54
408.54	8655.30
408.73	8381.46
408.92	8685.73
409.11	8662.32
409.30	8784.03
409.49	8774.67
409.68	8737.22
409.87	9018.08
410.07	9191.28
410.26	9041.49
410.45	9102.34
410.64	9151.49
410.83	9350.44
411.02	9371.50
411.21	9490.87
411.40	9193.62
411.59	9654.71
411.78	9736.63
411.98	9614.92
412.17	9722.59
412.36	9830.25
412.55	9832.59
412.74	10190.69
412.93	10108.77
413.12	10169.63
413.31	10675.18
413.50	10487.94
413.69	10459.85
413.88	10684.55
414.07	10600.29
414.26	10745.40
414.45	10909.24
414.64	10876.47
414.83	10913.92
415.02	11152.65
415.22	11424.15
415.41	11033.29
415.60	11274.36
415.79	11632.46
415.98	11524.80
416.17	11845.45
416.36	11819.71
416.55	11690.98
416.74	11896.94
416.93	11852.47
417.12	12013.97
417.31	12435.27
417.50	12259.73
417.69	12535.91
417.88	12542.93
418.07	12573.36
418.26	12791.03
418.45	12638.89
418.64	12957.21
418.83	12905.71
419.02	13018.06
419.21	13334.03
419.39	13371.48
419.58	13252.11
419.77	13008.70
419.96	13518.93
420.15	13455.74
420.34	13570.43
420.53	13266.16
420.72	13596.17
420.91	13640.64
421.10	13963.64
421.29	13977.68
421.48	13666.39
421.67	14064.28
421.86	13884.06
422.05	14148.54
422.24	14185.99
422.43	14298.33
422.61	14272.59
422.80	14492.60
422.99	14284.29
423.18	14672.82
423.37	14506.64
423.56	14520.68
423.75	14366.21
423.94	14106.41
424.13	13338.71
424.32	14185.99
424.50	14750.06
424.69	14909.21
424.88	14754.74
425.07	14317.06
425.26	14286.63
425.45	14312.38
425.64	14246.84
425.83	14551.11
426.01	14684.52
426.20	14757.08
426.39	14815.59
426.58	14728.99
426.77	14731.33
426.96	14810.91
427.15	15040.28
427.33	15241.57
427.52	15016.88
427.71	15693.29
427.90	15239.23
428.09	15569.24
428.28	15756.49
428.46	15723.72
428.65	15477.96
428.84	16149.70
429.03	16276.09
429.22	15690.95
429.40	15908.62
429.59	16063.10
429.78	15466.26
429.97	15384.34
430.16	16208.21
430.34	16678.66
430.53	16538.23
430.72	16720.79
430.91	16676.32
431.10	16411.84
431.28	16685.68
431.47	17184.21
431.66	16865.90
431.85	17247.41
432.03	17446.35
432.22	17572.74
432.41	17488.48
432.60	17242.73
432.79	17757.64
432.97	18066.60
433.16	17750.62
433.35	17727.22
433.54	18115.75
433.72	18314.69
433.91	17905.10
434.10	18059.57
434.28	17944.89
434.47	18174.26
434.66	18223.41
434.85	18518.32
435.03	18878.76
435.22	18726.63
435.41	19517.73
435.59	19190.05
435.78	19321.12
435.97	18930.25
436.16	19227.50
436.34	19157.28
436.53	19484.96
436.72	19740.08
436.90	19005.15
437.09	19527.09
437.28	19239.20
437.46	19779.87
437.65	19538.79
437.84	19976.47
438.02	20238.61
438.21	19953.07
438.40	19803.27
438.58	20882.26
438.77	20587.35
438.96	20531.18
439.14	21336.32
439.33	21671.02
439.52	21102.27
439.70	21350.37
439.89	22017.42
440.08	22087.64
440.26	22345.09
440.45	21956.57
440.63	22176.58
440.82	22567.45
441.01	22515.95
441.19	22824.90
441.38	23201.73
441.57	22906.82
441.75	23384.29
441.94	23939.00
442.12	23763.46
442.31	23800.91
442.50	24119.22
442.68	23864.10
442.87	24077.09
443.05	24240.93
443.24	24678.61
443.43	24606.05
443.61	24505.41
443.80	25390.13
443.98	24126.24
444.17	23742.39
444.35	24535.84
444.54	24999.26
444.73	24680.95
444.91	24737.12
445.10	25172.46
445.28	25432.26
445.47	25076.50
445.65	25139.69
445.84	25371.41
446.02	25422.90
446.21	25331.62
446.39	25177.14
446.58	25324.60
446.77	25509.50
446.95	24915.00
447.14	25607.80
447.32	25769.30
447.51	25701.42
447.69	25640.57
447.88	25575.03
448.06	25460.35
448.25	25652.27
448.43	25984.63
448.62	26235.06
448.80	25867.60
448.99	26029.10
449.17	26298.26
449.36	26108.68
449.54	26436.35
449.73	26918.50
449.91	27213.41
450.10	26955.95
450.28	27461.51
450.46	27669.81
450.65	27143.19
450.83	27288.31
451.02	28006.85
451.20	27611.30
451.39	27906.21
451.57	27583.21
451.76	27676.83
451.94	27796.20
452.13	28343.89
452.31	28472.62
452.49	27931.95
452.68	28325.16
452.86	28252.61
453.05	28496.02
453.23	28833.06
453.42	28278.35
453.60	28685.61
453.78	29252.02
453.97	28847.10
454.15	29010.94
454.34	28739.44
454.52	29549.26
454.70	29411.17
454.89	29209.89
455.07	29525.86
455.26	30092.27
455.44	30609.53
455.62	30096.95
455.81	30293.55
455.99	30471.43
456.17	30429.30
456.36	30616.55
456.54	31395.95
456.73	31250.83
456.91	31885.12
457.09	31592.55
457.28	32229.18
457.46	31800.86
457.64	32123.85
457.83	32348.54
458.01	31889.80
458.19	32875.16
458.38	32393.01
458.56	32788.56
458.74	32418.76
458.93	32994.53
459.11	32992.19
459.29	32807.29
459.48	33163.05
459.66	33048.36
459.84	33397.10
460.03	33820.74
460.21	33752.87
460.39	33577.33
460.57	33481.36
460.76	34134.37
460.94	34574.39
461.12	34518.22
461.31	34534.60
461.49	34801.43
461.67	34686.74
461.85	35054.20
462.04	34443.32
462.22	35524.65
462.40	35775.09
462.59	35250.81
462.77	35173.57
462.95	35756.36
463.13	35700.19
463.32	35349.11
463.50	35835.94
463.68	36180.00
463.86	36325.11
464.05	36032.55
464.23	35959.99
464.41	36388.31
464.59	35730.62
464.78	36999.19
464.96	36856.42
465.14	36254.90
465.32	37102.17
465.50	37057.70
465.69	37249.63
465.87	37450.91
466.05	36968.76
466.23	37130.26
466.41	37823.06
466.60	38300.53
466.78	37146.64
466.96	37572.62
467.14	37816.04
467.32	37830.08
467.51	38712.46
467.69	37771.57
467.87	38244.35
468.05	38455.00
468.23	38618.84
468.41	37947.11
468.60	38539.26
468.78	39321.00
468.96	38857.57
469.14	39814.85
469.32	39817.19
469.50	38897.36
469.69	39782.09
469.87	40535.74
470.05	40172.96
470.23	40304.02
470.41	40788.52
470.59	40957.03
470.77	40474.88
470.95	41085.76
471.14	41846.44
471.32	41233.22
471.50	41579.62
471.68	41757.50
471.86	42256.03
472.04	42403.49
472.22	43751.63
472.40	42117.94
472.58	43129.05
472.77	43438.00
472.95	43737.59
473.13	44411.67
473.31	43704.82
473.49	43775.04
473.67	43430.98
473.85	43863.98
474.03	44748.70
474.21	44662.10
474.39	45509.38
474.57	45298.73
474.75	45574.91
474.93	46174.09
475.12	45918.97
475.30	46307.50
475.48	45881.52
475.66	47129.03
475.84	46288.77
476.02	47323.29
476.20	47374.78
476.38	47885.02
476.56	48961.67
476.74	48797.83
476.92	48231.42
477.10	48126.10
477.28	48931.24
477.46	49560.84
477.64	49666.17
477.82	50270.03
478.00	50944.10
478.18	50419.82
478.36	51426.25
478.54	51569.02
478.72	51650.94
478.90	51875.63
479.08	52388.21
479.26	52701.84
479.44	52760.36
479.62	52989.73
479.80	53485.92
479.98	53495.28
480.16	54181.06
480.34	53872.11
480.52	54457.24
480.70	54609.38
480.88	54047.65
481.06	54679.60
481.24	54948.76
481.41	55306.86
481.59	55636.87
481.77	55784.33
481.95	56004.34
482.13	56376.48
482.31	56231.37
482.49	56903.10
482.67	56947.57
482.85	57221.42
483.03	57509.30
483.21	57769.10
483.39	58089.76
483.57	57574.84
483.74	58152.95
483.92	58347.21
484.10	58157.63
484.28	59009.59
484.46	59288.11
484.64	59845.16
484.82	59276.41
485.00	59475.35
485.18	59985.59
485.35	60456.04
485.53	60322.63
485.71	60706.47
485.89	60886.70
486.07	60919.46
486.25	60753.29
486.43	61010.74
486.61	61270.54
486.78	61745.67
486.96	61876.74
487.14	62188.03
487.32	62136.54
487.50	62248.89
487.68	62443.15
487.85	62845.72
488.03	63049.35
488.21	63461.29
488.39	63271.70
488.57	63412.13
488.75	63693.00
488.92	63849.81
489.10	64238.34
489.28	64236.00
489.46	64523.89
489.64	64479.42
489.81	64935.82
489.99	65102.00
490.17	65214.35
490.35	65312.65
490.53	65424.99
490.70	65535.00
490.88	65535.00
491.06	65535.00
491.24	65535.00
491.41	65535.00
491.59	65535.00
491.77	65535.00
491.95	65535.00
492.13	65535.00
492.30	65535.00
492.48	65535.00
492.66	65535.00
492.84	65535.00
493.01	65535.00
493.19	65535.00
493.37	65535.00
493.54	65535.00
493.72	65535.00
493.90	65535.00
494.08	65535.00
494.25	65535.00
494.43	65535.00
494.61	65535.00
494.79	65535.00
494.96	65535.00
495.14	65535.00
495.32	65535.00
495.49	65535.00
495.67	65535.00
495.85	65535.00
496.02	65535.00
496.20	65535.00
496.38	65535.00
496.55	65535.00
496.73	65535.00
496.91	65535.00
497.09	65535.00
497.26	65535.00
497.44	65535.00
497.62	65535.00
497.79	65535.00
497.97	65535.00
498.14	65535.00
498.32	65535.00
498.50	65535.00
498.67	65535.00
498.85	65535.00
499.03	65535.00
499.20	65535.00
499.38	65535.00
499.56	65535.00
499.73	65535.00
499.91	65535.00
500.08	65535.00
500.26	65535.00
500.44	65535.00
500.61	65535.00
500.79	65535.00
500.97	65535.00
501.14	65535.00
501.32	65535.00
501.49	65535.00
501.67	65535.00
501.84	65535.00
502.02	65535.00
502.20	65535.00
502.37	65535.00
502.55	65535.00
502.72	65535.00
502.90	65535.00
503.07	65535.00
503.25	65535.00
503.43	65535.00
503.60	65535.00
503.78	65535.00
503.95	65535.00
504.13	65535.00
504.30	65535.00
504.48	65535.00
504.65	65535.00
504.83	65535.00
505.01	65535.00
505.18	65535.00
505.36	65535.00
505.53	65535.00
505.71	65535.00
505.88	65535.00
506.06	65535.00
506.23	65535.00
506.41	65535.00
506.58	65535.00
506.76	65535.00
506.93	65535.00
507.11	65535.00
507.28	65535.00
507.46	65535.00
507.63	65535.00
507.81	65535.00
507.98	65535.00
508.16	65535.00
508.33	65535.00
508.50	65535.00
508.68	65535.00
508.85	65535.00
509.03	65535.00
509.20	65535.00
509.38	65535.00
509.55	65535.00
509.73	65535.00
509.90	65535.00
510.08	65535.00
510.25	65535.00
510.42	65535.00
510.60	65535.00
510.77	65535.00
510.95	65535.00
511.12	65535.00
511.30	65535.00
511.47	65535.00
511.64	65535.00
511.82	65535.00
511.99	65535.00
512.17	65535.00
512.34	65535.00
512.51	65535.00
512.69	65535.00
512.86	65535.00
513.04	65535.00
513.21	65535.00
513.38	65535.00
513.56	65535.00
513.73	65535.00
513.90	65535.00
514.08	65535.00
514.25	65535.00
514.43	65535.00
514.60	65535.00
514.77	65535.00
514.95	65535.00
515.12	65535.00
515.29	65535.00
515.47	65535.00
515.64	65535.00
515.81	65535.00
515.99	65535.00
516.16	65535.00
516.33	65535.00
516.51	65535.00
516.68	65535.00
516.85	65535.00
517.03	65535.00
517.20	65535.00
517.37	65535.00
517.54	65535.00
517.72	65535.00
517.89	65535.00
518.06	65535.00
518.24	65535.00
518.41	65535.00
518.58	65535.00
518.75	65535.00
518.93	65535.00
519.10	65535.00
519.27	65535.00
519.45	65535.00
519.62	65535.00
519.79	65535.00
519.96	65535.00
520.14	65535.00
520.31	65535.00
520.48	65535.00
520.65	65535.00
520.83	65535.00
521.00	65535.00
521.17	65535.00
521.34	65535.00
521.52	65535.00
521.69	65535.00
521.86	65535.00
522.03	65535.00
522.20	65535.00
522.38	65535.00
522.55	65535.00
522.72	65535.00
522.89	65535.00
523.07	65535.00
523.24	65535.00
523.41	65535.00
523.58	65535.00
523.75	65535.00
523.92	65535.00
524.10	65535.00
524.27	65535.00
524.44	65535.00
524.61	65535.00
524.78	65535.00
524.96	65535.00
525.13	65535.00
525.30	65535.00
525.47	65535.00
525.64	65535.00
525.81	65535.00
525.98	65535.00
526.16	65535.00
526.33	65535.00
526.50	65535.00
526.67	65535.00
526.84	65535.00
527.01	65535.00
527.18	65535.00
527.36	65535.00
527.53	65535.00
527.70	65535.00
527.87	65535.00
528.04	65535.00
528.21	65535.00
528.38	65535.00
528.55	65535.00
528.72	65535.00
528.89	65535.00
529.07	65535.00
529.24	65535.00
529.41	65535.00
529.58	65535.00
529.75	65535.00
529.92	65535.00
530.09	65535.00
530.26	65535.00
530.43	65535.00
530.60	65535.00
530.77	65535.00
530.94	65535.00
531.11	65535.00
531.28	65535.00
531.46	65535.00
531.63	65535.00
531.80	65535.00
531.97	65535.00
532.14	65535.00
532.31	65535.00
532.48	65535.00
532.65	65535.00
532.82	65535.00
532.99	65535.00
533.16	65535.00
533.33	65535.00
533.50	65535.00
533.67	65535.00
533.84	65535.00
534.01	65535.00
534.18	65535.00
534.35	65535.00
534.52	65535.00
534.69	65535.00
534.86	65535.00
535.03	65535.00
535.20	65535.00
535.37	65535.00
535.54	65535.00
535.71	65535.00
535.88	65535.00
536.05	65535.00
536.22	65535.00
536.38	65535.00
536.55	65535.00
536.72	65535.00
536.89	65535.00
537.06	65535.00
537.23	65535.00
537.40	65535.00
537.57	65535.00
537.74	65535.00
537.91	65535.00
538.08	65535.00
538.25	65535.00
538.42	65535.00
538.59	65535.00
538.75	65535.00
538.92	65535.00
539.09	65535.00
539.26	65535.00
539.43	65535.00
539.60	65535.00
539.77	65535.00
539.94	65535.00
540.11	65535.00
540.28	65535.00
540.44	65535.00
540.61	65535.00
540.78	65535.00
540.95	65535.00
541.12	65535.00
541.29	65535.00
541.46	65535.00
541.62	65535.00
541.79	65535.00
541.96	65535.00
542.13	65535.00
542.30	65535.00
542.47	65535.00
542.63	65535.00
542.80	65535.00
542.97	65535.00
543.14	65535.00
543.31	65535.00
543.48	65535.00
543.64	65535.00
543.81	65535.00
543.98	65535.00
544.15	65535.00
544.32	65535.00
544.48	65535.00
544.65	65535.00
544.82	65535.00
544.99	65535.00
545.16	65535.00
545.32	65535.00
545.49	65535.00
545.66	65535.00
545.83	65535.00
546.00	65535.00
546.16	65535.00
546.33	65535.00
546.50	65535.00
546.67	65535.00
546.83	65535.00
547.00	65535.00
547.17	65535.00
547.34	65535.00
547.50	65535.00
547.67	65535.00
547.84	65535.00
548.00	65535.00
548.17	65535.00
548.34	65535.00
548.51	65535.00
548.67	65535.00
548.84	65535.00
549.01	65535.00
549.18	65535.00
549.34	65535.00
549.51	65535.00
549.68	65535.00
549.84	65535.00
550.01	65535.00
550.18	65535.00
550.34	65535.00
550.51	65535.00
550.68	65535.00
550.84	65535.00
551.01	65535.00
551.18	65535.00
551.34	65535.00
551.51	65535.00
551.68	65535.00
551.84	65535.00
552.01	65535.00
552.18	65535.00
552.34	65535.00
552.51	65535.00
552.68	65535.00
552.84	65535.00
553.01	65535.00
553.18	65535.00
553.34	65535.00
553.51	65535.00
553.67	65535.00
553.84	65535.00
554.01	65535.00
554.17	65535.00
554.34	65535.00
554.51	65535.00
554.67	65535.00
554.84	65535.00
555.00	65535.00
555.17	65535.00
555.33	65535.00
555.50	65535.00
555.67	65535.00
555.83	65535.00
556.00	65535.00
556.16	65535.00
556.33	65535.00
556.50	65535.00
556.66	65535.00
556.83	65535.00
556.99	65535.00
557.16	65535.00
557.32	65535.00
557.49	65535.00
557.65	65535.00
557.82	65535.00
557.98	65535.00
558.15	65535.00
558.32	65535.00
558.48	65535.00
558.65	65535.00
558.81	65535.00
558.98	65535.00
559.14	65535.00
559.31	65535.00
559.47	65535.00
559.64	65535.00
559.80	65535.00
559.97	65535.00
560.13	65535.00
560.30	65535.00
560.46	65535.00
560.63	65535.00
560.79	65535.00
560.96	65535.00
561.12	65535.00
561.29	65535.00
561.45	65535.00
561.61	65535.00
561.78	65535.00
561.94	65535.00
562.11	65535.00
562.27	65535.00
562.44	65535.00
562.60	65535.00
562.77	65535.00
562.93	65535.00
563.10	65535.00
563.26	65535.00
563.42	65535.00
563.59	65535.00
563.75	65535.00
563.92	65535.00
564.08	65535.00
564.24	65535.00
564.41	65535.00
564.57	65535.00
564.74	65535.00
564.90	65535.00
565.07	65535.00
565.23	65535.00
565.39	65535.00
565.56	65535.00
565.72	65535.00
565.88	65535.00
566.05	65535.00
566.21	65535.00
566.38	65535.00
566.54	65535.00
566.70	65535.00
566.87	65535.00
567.03	65535.00
567.19	65535.00
567.36	65535.00
567.52	65535.00
567.68	65535.00
567.85	65535.00
568.01	65535.00
568.17	65535.00
568.34	65535.00
568.50	65535.00
568.66	65535.00
568.83	65535.00
568.99	65535.00
569.15	65535.00
569.32	65535.00
569.48	65535.00
569.64	65535.00
569.81	65535.00
569.97	65535.00
570.13	65535.00
570.30	65535.00
570.46	65535.00
570.62	65535.00
570.78	65535.00
570.95	65535.00
571.11	65535.00
571.27	65535.00
571.43	65535.00
571.60	65535.00
571.76	65535.00
571.92	65535.00
572.09	65535.00
572.25	65535.00
572.41	65535.00
572.57	65535.00
572.74	65535.00
572.90	65535.00
573.06	65535.00
573.22	65535.00
573.38	65535.00
573.55	65535.00
573.71	65535.00
573.87	65535.00
574.03	65535.00
574.20	65535.00
574.36	65535.00
574.52	65535.00
574.68	65535.00
574.84	65535.00
575.01	65535.00
575.17	65535.00
575.33	65535.00
575.49	65535.00
575.65	65535.00
575.82	65535.00
575.98	65535.00
576.14	65535.00
576.30	65535.00
576.46	65535.00
576.62	65535.00
576.79	65535.00
576.95	65535.00
577.11	65535.00
577.27	65535.00
577.43	65535.00
577.59	65535.00
577.75	65535.00
577.92	65535.00
578.08	65535.00
578.24	65535.00
578.40	65535.00
578.56	65535.00
578.72	65535.00
578.88	65535.00
579.04	65535.00
579.21	65535.00
579.37	65535.00
579.53	65535.00
579.69	65535.00
579.85	65535.00
580.01	65535.00
580.17	65535.00
580.33	65535.00
580.49	65535.00
580.65	65535.00
580.82	65535.00
580.98	65535.00
581.14	65535.00
581.30	65535.00
581.46	65535.00
581.62	65535.00
581.78	65535.00
581.94	65535.00
582.10	65535.00
582.26	65535.00
582.42	65535.00
582.58	65535.00
582.74	65535.00
582.90	65535.00
583.06	65535.00
583.22	65535.00
583.38	65535.00
583.54	65535.00
583.70	65535.00
583.86	65535.00
584.02	65535.00
584.18	65535.00
584.34	65535.00
584.50	65535.00
584.66	65535.00
584.82	65535.00
584.98	65535.00
585.14	65535.00
585.30	65535.00
585.46	65535.00
585.62	65535.00
