SpectraSuite Data File
++++++++++++++++++++++++++++++++++++
Date: Thu Oct 24 13:21:29 EDT 2013
User: stostad
Dark Spectrum Present: No
Reference Spectrum Present: No
Number of Sampled Component Spectra: 1
Spectrometers: USB2+H05261
Integration Time (usec): 100000 (USB2+H05261)
Spectra Averaged: 1 (USB2+H05261)
Boxcar Smoothing: 0 (USB2+H05261)
Correct for Electrical Dark: No (USB2+H05261)
Strobe/Lamp Enabled: No (USB2+H05261)
Correct for Detector Non-linearity: No (USB2+H05261)
Correct for Stray Light: No (USB2+H05261)
Number of Pixels in Processed Spectrum: 2048
>>>>>Begin Processed Spectral Data<<<<<
365.73	650.67
365.92	650.67
366.12	650.67
366.32	552.37
366.52	493.85
366.72	491.51
366.91	519.60
367.11	482.15
367.31	346.40
367.51	400.23
367.70	418.96
367.90	456.40
368.10	484.49
368.30	470.45
368.49	514.92
368.69	449.38
368.89	505.56
369.09	491.51
369.28	519.60
369.48	500.87
369.68	500.87
369.87	528.96
370.07	475.13
370.27	566.41
370.47	685.78
370.66	1036.86
370.86	1064.94
371.06	1083.67
371.25	1057.92
371.45	1081.33
371.65	1095.37
371.84	1149.20
372.04	1151.54
372.24	1116.44
372.44	1172.61
372.63	1128.14
372.83	1226.44
373.03	1146.86
373.22	1191.33
373.42	1228.78
373.62	1242.82
373.81	1203.04
374.01	1303.68
374.21	1254.53
374.40	1254.53
374.60	1362.19
374.79	1233.46
374.99	1308.36
375.19	1291.98
375.38	1280.27
375.58	1310.70
375.78	1327.08
375.97	1226.44
376.17	1320.06
376.37	1270.91
376.56	1235.80
376.76	1376.24
376.95	1322.40
377.15	1385.60
377.35	1423.05
377.54	1392.62
377.74	1413.68
377.93	1418.36
378.13	1394.96
378.33	1423.05
378.52	1474.54
378.72	1299.00
378.91	1385.60
379.11	1394.96
379.31	1390.28
379.50	1430.07
379.70	1568.16
379.89	1472.20
380.09	1458.15
380.28	1516.67
380.48	1448.79
380.68	1476.88
380.87	1493.26
381.07	1481.56
381.26	1488.58
381.46	1579.86
381.65	1474.54
381.85	1640.72
382.04	1544.75
382.24	1671.14
382.43	1607.95
382.63	1647.74
382.83	1654.76
383.02	1685.19
383.22	1629.01
383.41	1605.61
383.61	1657.10
383.80	1638.38
384.00	1570.50
384.19	1598.59
384.39	1692.21
384.58	1607.95
384.78	1645.40
384.97	1638.38
385.17	1767.10
385.36	1741.36
385.56	1708.59
385.75	1652.42
385.95	1713.27
386.14	1771.79
386.34	1696.89
386.53	1781.15
386.72	1797.53
386.92	1792.85
387.11	1769.44
387.31	1832.64
387.50	1778.81
387.70	1820.94
387.89	1837.32
388.09	1799.87
388.28	1778.81
388.48	1792.85
388.67	1844.34
388.86	1874.77
389.06	1886.47
389.25	1966.05
389.45	1886.47
389.64	1846.68
389.84	1952.01
390.03	2033.93
390.22	1926.26
390.42	1991.80
390.61	1968.39
390.81	1980.09
391.00	2022.22
391.19	2054.99
391.39	1982.43
391.58	2101.80
391.78	2001.16
391.97	2054.99
392.16	2031.58
392.36	2230.53
392.55	2153.29
392.75	2090.10
392.94	2132.23
393.13	2125.21
393.33	2200.10
393.52	2200.10
393.71	2153.29
393.91	2167.34
394.10	2165.00
394.29	2162.66
394.49	2223.51
394.68	2223.51
394.88	2251.60
395.07	2305.43
395.26	2448.20
395.46	2333.51
395.65	2335.85
395.84	2349.90
396.04	2373.30
396.23	2324.15
396.42	2387.35
396.62	2422.45
396.81	2394.37
397.00	2478.63
397.19	2480.97
397.39	2502.03
397.58	2373.30
397.77	2626.08
397.97	2518.42
398.16	2569.91
398.35	2525.44
398.55	2539.48
398.74	2602.68
398.93	2647.15
399.12	2555.86
399.32	2663.53
399.51	2665.87
399.70	2677.57
399.90	2675.23
400.09	2588.63
400.28	2747.79
400.47	2544.16
400.67	2736.09
400.86	2806.30
401.05	2743.11
401.24	2785.24
401.44	2881.20
401.63	2867.16
401.82	2892.90
402.01	3002.91
402.21	2967.80
402.40	2951.42
402.59	2932.69
402.78	3068.44
402.97	3049.72
403.17	3035.67
403.36	3038.02
403.55	3115.25
403.74	3068.44
403.93	3176.11
404.13	3101.21
404.32	3126.96
404.51	3201.85
404.70	3185.47
404.89	3197.17
405.09	3133.98
405.28	3272.07
405.47	3148.02
405.66	3166.74
405.85	3159.72
406.05	3171.43
406.24	3356.33
406.43	3391.44
406.62	3442.93
406.81	3522.51
407.00	3382.07
407.20	3318.88
407.39	3368.03
407.58	3541.23
407.77	3527.19
407.96	3529.53
408.15	3639.53
408.34	3576.34
408.54	3599.74
408.73	3599.74
408.92	3653.58
409.11	3712.09
409.30	3733.15
409.49	3836.14
409.68	3789.33
409.87	3786.99
410.07	3826.78
410.26	3845.50
410.45	3786.99
410.64	3868.91
410.83	3868.91
411.02	3997.64
411.21	4030.40
411.40	3922.74
411.59	4088.92
411.78	4023.38
411.98	4217.65
412.17	4025.72
412.36	4264.46
412.55	4248.07
412.74	4423.61
412.93	4400.21
413.12	4276.16
413.31	4507.87
413.50	4470.42
413.69	4339.35
413.88	4615.54
414.07	4507.87
414.26	4589.79
414.45	4636.60
414.64	4669.37
414.83	4692.77
415.02	4702.14
415.22	4842.57
415.41	4676.39
415.60	4802.78
415.79	4884.70
415.98	4992.36
416.17	4929.17
416.36	4931.51
416.55	5062.58
416.74	5114.07
416.93	5050.88
417.12	5184.29
417.31	5006.41
417.50	5238.12
417.69	5195.99
417.88	5268.55
418.07	5322.38
418.26	5226.42
418.45	5420.68
418.64	5542.39
418.83	5266.21
419.02	5334.08
419.21	5643.03
419.39	5540.05
419.58	5371.53
419.77	5516.64
419.96	5788.14
420.15	5734.31
420.34	5727.29
420.53	5666.44
420.72	5778.78
420.91	5713.25
421.10	5888.79
421.29	5795.17
421.48	5837.30
421.67	5680.48
421.86	5746.02
422.05	5902.83
422.24	5874.74
422.43	5930.92
422.61	6012.84
422.80	6087.73
422.99	6057.31
423.18	6005.81
423.37	6106.46
423.56	6008.16
423.75	6167.31
423.94	6040.92
424.13	5685.16
424.32	5856.02
424.50	6080.71
424.69	6270.30
424.88	6179.01
425.07	6139.23
425.26	6029.22
425.45	6155.61
425.64	6040.92
425.83	6106.46
426.01	6300.72
426.20	6045.60
426.39	6122.84
426.58	6106.46
426.77	6104.12
426.96	6279.66
427.15	6239.87
427.33	6462.22
427.52	6160.29
427.71	6506.69
427.90	6406.05
428.09	6408.39
428.28	6565.20
428.46	6429.45
428.65	6450.52
428.84	6705.63
429.03	6675.21
429.22	6476.26
429.40	6614.35
429.59	6583.93
429.78	6473.92
429.97	6321.79
430.16	6780.53
430.34	6785.21
430.53	6860.11
430.72	6916.28
430.91	6946.71
431.10	6916.28
431.28	7047.35
431.47	6993.52
431.66	7087.14
431.85	7002.88
432.03	7105.87
432.22	7047.35
432.41	7140.97
432.60	7279.07
432.79	7260.34
432.97	7265.02
433.16	7227.57
433.35	7105.87
433.54	7377.37
433.72	7382.05
433.91	7351.62
434.10	7438.22
434.28	7379.71
434.47	7499.08
434.66	7625.47
434.85	7681.64
435.03	7747.17
435.22	7632.49
435.41	8142.72
435.59	7871.22
435.78	7889.95
435.97	7925.05
436.16	7698.02
436.34	7765.90
436.53	7969.52
436.72	8049.10
436.90	7810.37
437.09	8013.99
437.28	7768.24
437.46	8086.55
437.65	7941.44
437.84	8168.47
438.02	8018.68
438.21	8201.24
438.40	7981.23
438.58	8299.54
438.77	8606.15
438.96	8266.77
439.14	8435.29
439.33	8798.07
439.52	8603.81
439.70	8725.52
439.89	8812.12
440.08	8877.65
440.26	8908.08
440.45	8837.86
440.63	8971.27
440.82	9142.13
441.01	8978.30
441.19	9118.73
441.38	9373.85
441.57	9324.69
441.75	9376.19
441.94	9603.22
442.12	9469.81
442.31	9507.26
442.50	9488.53
442.68	9614.92
442.87	9544.70
443.05	9703.86
443.24	9900.47
443.43	9802.16
443.61	9834.93
443.80	10174.31
443.98	9626.62
444.17	9212.35
444.35	9841.95
444.54	9935.57
444.73	9944.94
444.91	10059.62
445.10	10106.43
445.28	9933.23
445.47	9954.30
445.65	10181.33
445.84	10059.62
446.02	9984.73
446.21	10249.21
446.39	10291.34
446.58	10146.22
446.77	10050.26
446.95	9961.32
447.14	10150.90
447.32	10335.81
447.51	10150.90
447.69	10005.79
447.88	10211.76
448.06	10101.75
448.25	10106.43
448.43	10218.78
448.62	10274.95
448.80	10193.03
448.99	10267.93
449.17	10427.09
449.36	10361.55
449.54	10621.35
449.73	10846.04
449.91	10925.62
450.10	10803.91
450.28	10817.96
450.46	10878.81
450.65	10670.50
450.83	10803.91
451.02	10862.43
451.20	11129.25
451.39	10920.94
451.57	11054.35
451.76	10560.50
451.94	11063.71
452.13	11035.63
452.31	11082.44
452.49	11129.25
452.68	11250.96
452.86	10927.96
453.05	11171.38
453.23	11372.66
453.42	11138.61
453.60	11164.36
453.78	11435.86
453.97	11293.08
454.15	11339.90
454.34	11218.19
454.52	11529.48
454.70	11370.32
454.89	11674.59
455.07	11391.39
455.26	11705.02
455.44	11922.69
455.62	11702.68
455.81	11892.26
455.99	11751.83
456.17	11967.16
456.36	11929.71
456.54	12138.02
456.73	12271.43
456.91	12535.91
457.09	12343.99
457.28	12493.78
457.46	12381.43
457.64	12571.02
457.83	12500.80
458.01	12376.75
458.19	12784.01
458.38	12669.32
458.56	12709.11
458.74	12786.35
458.93	12744.22
459.11	13015.72
459.29	12737.20
459.48	12732.51
459.66	12758.26
459.84	13015.72
460.03	13209.98
460.21	12739.54
460.39	13062.53
460.57	13231.05
460.76	13298.92
460.94	13348.08
461.12	13523.62
461.31	13277.86
461.49	13233.39
461.67	13437.02
461.85	13809.16
462.04	13439.36
462.22	13844.27
462.40	13898.10
462.59	13657.03
462.77	13848.95
462.95	13958.96
463.13	13687.45
463.32	13879.38
463.50	14026.83
463.68	13998.74
463.86	14274.93
464.05	13844.27
464.23	14068.96
464.41	14197.69
464.59	13888.74
464.78	14448.13
464.96	14281.95
465.14	14029.17
465.32	14209.39
465.50	14279.61
465.69	14956.02
465.87	14686.86
466.05	14434.08
466.23	14478.55
466.41	14586.22
466.60	14904.53
466.78	14438.76
466.96	14356.85
467.14	14618.99
467.32	14923.26
467.51	14806.23
467.69	14473.87
467.87	14525.36
468.05	15133.90
468.23	14892.83
468.41	14839.00
468.60	14930.28
468.78	14977.09
468.96	14700.90
469.14	15389.02
469.32	15452.22
469.50	15227.53
469.69	15332.85
469.87	15545.84
470.05	15517.75
470.23	15770.53
470.41	15667.55
470.59	15681.59
470.77	15648.82
470.95	15779.89
471.14	16130.97
471.32	15517.75
471.50	16116.93
471.68	16145.02
471.86	16035.01
472.04	16393.11
472.22	16580.36
472.40	16067.78
472.58	16173.10
472.77	16514.82
472.95	16659.93
473.13	17366.78
473.31	16629.51
473.49	16746.53
473.67	16556.95
473.85	16854.20
474.03	17495.50
474.21	17444.01
474.39	17486.14
474.57	17275.49
474.75	17895.74
474.93	17865.31
475.12	17591.47
475.30	18108.72
475.48	17930.84
475.66	17802.11
475.84	17968.29
476.02	18120.43
476.20	18087.66
476.38	18569.81
476.56	18768.76
476.74	18855.36
476.92	18675.13
477.10	18656.41
477.28	18911.53
477.46	19386.66
477.64	19225.16
477.82	19934.34
478.00	20112.22
478.18	19920.30
478.36	20149.67
478.54	20425.86
478.72	20348.62
478.90	20699.70
479.08	20915.03
479.26	21006.31
479.44	21069.50
479.62	20978.22
479.80	21528.25
479.98	21544.63
480.16	22087.64
480.34	21839.54
480.52	22190.62
480.70	22176.58
480.88	21970.61
481.06	22272.54
481.24	22171.89
481.41	22586.17
481.59	23070.66
481.77	22890.44
481.95	23304.71
482.13	23550.47
482.31	23449.83
482.49	24170.71
482.67	23817.29
482.85	24084.11
483.03	24554.56
483.21	24664.57
483.39	24755.85
483.57	24636.48
483.74	25144.38
483.92	25333.96
484.10	25207.57
484.28	25514.18
484.46	26139.10
484.64	26143.78
484.82	26380.18
485.00	26473.80
485.18	26948.93
485.35	27290.65
485.53	26902.12
485.71	27569.17
485.89	27695.56
486.07	27402.99
486.25	27777.48
486.43	28006.85
486.61	28306.44
486.78	28465.60
486.96	28620.07
487.14	28917.32
487.32	29010.94
487.50	29223.93
487.68	29460.32
487.85	30169.51
488.03	30347.39
488.21	30644.63
488.39	30412.92
488.57	30836.56
488.75	30710.17
488.92	31339.77
489.10	31122.10
489.28	31950.65
489.46	31927.25
489.64	31756.39
489.81	32610.68
489.99	32758.14
490.17	32723.03
490.35	33099.86
490.53	33373.70
490.70	33490.73
490.88	33294.12
491.06	34319.28
491.24	33984.58
491.41	33736.48
491.59	34117.99
491.77	34834.19
491.95	35089.31
492.13	34967.60
492.30	35196.98
492.48	35583.16
492.66	35449.75
492.84	35969.35
493.01	35864.03
493.19	35807.86
493.37	36655.13
493.54	36547.47
493.72	37015.57
493.90	36718.32
494.08	37766.88
494.25	37766.88
494.43	37748.16
494.61	37970.51
494.79	38103.92
494.96	38309.89
495.14	37958.81
495.32	38630.54
495.49	38789.70
495.67	38639.90
495.85	39309.30
496.02	39597.18
496.20	39772.72
496.38	39922.52
496.55	39917.84
496.73	40744.05
496.91	40823.62
497.09	40921.93
497.26	40547.44
497.44	40905.54
497.62	41198.11
497.79	41689.62
497.97	42139.00
498.14	41928.36
498.32	42433.91
498.50	42326.25
498.67	42717.12
498.85	42253.69
499.03	42775.63
499.20	43210.97
499.38	43332.68
499.56	43196.93
499.73	43405.23
499.91	43629.93
500.08	43807.81
500.26	43599.50
500.44	43896.75
500.61	44172.93
500.79	44524.01
500.97	44428.05
501.14	44999.14
501.32	44622.31
501.49	45022.54
501.67	45530.44
501.84	45390.01
502.02	45418.10
502.20	45467.25
502.37	45752.79
502.55	45390.01
502.72	45900.25
502.90	45818.33
503.07	46113.23
503.25	46499.42
503.43	46384.74
503.60	46408.14
503.78	46571.98
503.95	46703.05
504.13	46923.06
504.30	46986.25
504.48	46878.59
504.65	47203.92
504.83	47782.04
505.01	48058.22
505.18	47208.61
505.36	47973.96
505.53	47999.71
505.71	47653.31
505.88	48528.67
506.06	48437.39
506.23	48430.36
506.41	48381.21
506.58	48563.78
506.76	48825.92
506.93	48919.54
507.11	48947.62
507.28	49303.38
507.46	48884.43
507.63	49453.18
507.81	49413.39
507.98	49003.80
508.16	49544.46
508.33	49464.88
508.50	49677.87
508.68	50279.39
508.85	50314.50
509.03	50272.37
509.20	50272.37
509.38	50869.20
509.55	50436.20
509.73	50878.57
509.90	51051.76
510.08	51023.68
510.25	51058.79
510.42	51178.15
510.60	51412.21
510.77	51353.69
510.95	51489.45
511.12	51627.54
511.30	51896.70
511.47	51714.14
511.64	51896.70
511.82	51664.99
511.99	51407.53
512.17	51753.93
512.34	52191.61
512.51	52556.73
512.69	52816.53
512.86	52528.64
513.04	52779.08
513.21	52793.12
513.38	52797.80
513.56	52708.86
513.73	52783.76
513.90	53380.60
514.08	53092.71
514.25	53172.29
514.43	53368.90
514.60	53048.24
514.77	53418.05
514.95	53453.15
515.12	53160.59
515.29	53223.78
515.47	53935.30
515.64	54274.68
515.81	54038.29
515.99	54017.22
516.16	53848.71
516.33	54206.81
516.51	54351.92
516.68	54506.40
516.85	54782.58
517.03	54382.35
517.20	54422.14
517.37	54768.54
517.54	54305.11
517.72	54576.61
517.89	54595.34
518.06	55023.65
518.24	54541.50
518.41	54918.33
518.58	55068.12
518.75	54721.72
518.93	54894.92
519.10	54941.74
519.27	55234.30
519.45	55285.79
519.62	55454.31
519.79	55599.43
519.96	55547.93
520.14	55599.43
520.31	55538.57
520.48	55561.98
520.65	55367.71
520.83	55971.57
521.00	56086.26
521.17	55789.01
521.34	55906.04
521.52	55910.72
521.69	55854.54
521.86	56090.94
522.03	55913.06
522.20	56430.32
522.38	56638.62
522.55	56535.64
522.72	56612.88
522.89	56416.27
523.07	56935.87
523.24	56697.14
523.41	56910.13
523.58	56481.81
523.75	57190.99
523.92	56837.57
524.10	56963.96
524.27	57052.90
524.44	57158.22
524.61	57275.25
524.78	57045.88
524.96	57240.14
525.13	57371.21
525.30	57359.51
525.47	57476.54
525.64	57464.83
525.81	57595.90
525.98	57518.67
526.16	57354.83
526.33	57333.76
526.50	57881.45
526.67	57694.21
526.84	57762.08
527.01	57818.25
527.18	57860.38
527.36	57886.13
527.53	58145.93
527.70	58255.93
527.87	58190.40
528.04	58087.42
528.21	58307.43
528.38	58087.42
528.55	58478.28
528.72	58316.79
528.89	58342.53
529.07	58227.85
529.24	58262.96
529.41	58391.68
529.58	58539.14
529.75	58602.33
529.92	58810.64
530.09	58712.34
530.26	58679.57
530.43	58560.20
530.60	58412.75
530.77	58731.06
530.94	58979.16
531.11	58798.94
531.28	58857.45
531.46	58932.35
531.63	58831.71
531.80	59058.74
531.97	59182.79
532.14	59236.62
532.31	59014.27
532.48	59355.99
532.65	59100.87
532.82	59224.92
532.99	59295.13
533.16	59159.38
533.33	59498.76
533.50	59538.55
533.67	59461.31
533.84	59267.05
534.01	59524.50
534.18	59449.61
534.35	59735.15
534.52	59576.00
534.69	59676.64
534.86	59585.36
535.03	59552.59
535.20	59709.41
535.37	59767.92
535.54	60292.20
535.71	59735.15
535.88	60165.81
536.05	59702.38
536.22	59913.03
536.38	60133.04
536.55	60093.25
536.72	60247.73
536.89	60116.66
537.06	60088.57
537.23	60453.70
537.40	60224.32
537.57	60348.37
537.74	60090.91
537.91	60523.91
538.08	60273.48
538.25	59980.91
538.42	60310.92
538.59	60573.06
538.75	60479.44
538.92	60704.13
539.09	60502.85
539.26	60474.76
539.43	60542.64
539.60	60530.93
539.77	60662.00
539.94	60977.98
540.11	60640.94
540.28	60662.00
540.44	60919.46
540.61	60889.04
540.78	60685.41
540.95	60753.29
541.12	60893.72
541.29	61043.51
541.46	61097.34
541.62	61134.79
541.79	61291.61
541.96	60795.42
542.13	61029.47
542.30	61034.15
542.47	61172.24
542.63	61064.58
542.80	61558.43
542.97	61736.31
543.14	61733.97
543.31	61574.81
543.48	61738.65
543.64	61848.66
543.81	61740.99
543.98	61645.03
544.15	61815.89
544.32	61904.83
544.48	61946.96
544.65	61921.21
544.82	61733.97
544.99	61794.82
545.16	61851.00
545.32	61680.14
545.49	62003.13
545.66	62237.19
545.83	62054.62
546.00	62433.79
546.16	62216.12
546.33	62300.38
546.50	61956.32
546.67	62113.14
546.83	61998.45
547.00	61977.39
547.17	62005.47
547.34	62038.24
547.50	62300.38
547.67	62206.76
547.84	62415.07
548.00	62375.28
548.17	62555.50
548.34	62403.36
548.51	62466.56
548.67	62548.48
548.84	62307.40
549.01	62372.94
549.18	62478.26
549.34	62487.62
549.51	62480.60
549.68	62761.47
549.84	62543.80
550.01	62569.54
550.18	62333.15
550.34	62459.54
550.51	62770.83
550.68	62597.63
550.84	62321.44
551.01	62836.36
551.18	62742.74
551.34	62508.69
551.51	62763.81
551.68	62960.41
551.84	62742.74
552.01	62812.96
552.18	62899.56
552.34	62911.26
552.51	62925.30
552.68	62972.11
552.84	63082.12
553.01	63309.15
553.18	63171.06
553.34	63133.61
553.51	63047.01
553.67	62962.75
553.84	63409.79
554.01	63391.07
554.17	63367.66
554.34	63318.51
554.51	63147.65
554.67	63327.87
554.84	63536.18
555.00	63159.36
555.17	62990.84
555.33	63330.22
555.50	63334.90
555.67	63360.64
555.83	63398.09
556.00	63487.03
556.16	63590.01
556.33	63540.86
556.50	63433.20
556.66	63444.90
556.83	63065.73
556.99	63681.30
557.16	63653.21
557.32	63826.41
557.49	63594.70
557.65	63442.56
557.82	63444.90
557.98	63475.33
558.15	63465.97
558.32	63664.91
558.48	63604.06
558.65	63917.69
558.81	63697.68
558.98	63889.60
559.14	63884.92
559.31	63702.36
559.47	63702.36
559.64	63870.88
559.80	63828.75
559.97	63746.83
560.13	63688.32
560.30	63760.87
560.46	63781.94
560.63	64041.74
560.79	64088.55
560.96	64037.06
561.12	64053.44
561.29	63798.32
561.45	64067.48
561.61	64034.72
561.78	64062.80
561.94	64275.79
562.11	64030.04
562.27	64006.63
562.44	64163.45
562.60	64137.70
562.77	64191.53
562.93	64069.82
563.10	64320.26
563.26	63856.84
563.42	64327.28
563.59	64121.32
563.75	64147.06
563.92	64200.89
564.08	64245.36
564.24	64268.77
564.41	64121.32
564.57	64163.45
564.74	64107.27
564.90	64381.12
565.07	64240.68
565.23	64259.41
565.39	64465.38
565.56	64364.73
565.72	64338.99
565.88	64252.39
566.05	64203.24
566.21	64135.36
566.38	64114.29
566.54	64219.62
566.70	64399.84
566.87	64530.91
567.03	64367.07
567.19	64624.53
567.36	64669.00
567.52	64385.80
567.68	64669.00
567.85	64378.78
568.01	64645.60
568.17	64388.14
568.34	64530.91
568.50	64493.46
568.66	64488.78
568.83	64664.32
568.99	64664.32
569.15	64680.70
569.32	64559.00
569.48	64458.35
569.64	64659.64
569.81	64666.66
569.97	64514.53
570.13	64444.31
570.30	64587.08
570.46	64711.13
570.62	64507.50
570.78	64739.22
570.95	64437.29
571.11	64690.07
571.27	64346.01
571.43	64584.74
571.60	64849.22
571.76	64654.96
571.92	64821.14
572.09	64661.98
572.25	64781.35
572.41	64823.48
572.57	64853.90
572.74	64956.89
572.90	64626.87
573.06	64633.89
573.22	64764.96
573.38	64786.03
573.55	64762.62
573.71	64987.31
573.87	64874.97
574.03	64809.43
574.20	64844.54
574.36	64837.52
574.52	64830.50
574.68	64961.57
574.84	64917.10
575.01	64872.63
575.17	64987.31
575.33	64779.01
575.49	64886.67
575.65	64961.57
575.82	64999.02
575.98	64846.88
576.14	64980.29
576.30	64879.65
576.46	64860.93
576.62	64753.26
576.79	64835.18
576.95	64774.33
577.11	64884.33
577.27	65062.21
577.43	65048.17
577.59	65073.91
577.75	64891.35
577.92	65043.49
578.08	64748.58
578.24	64947.53
578.40	65001.36
578.56	64884.33
578.72	65087.96
578.88	65132.43
579.04	65216.69
579.21	65130.09
579.37	65155.83
579.53	65134.77
579.69	64800.07
579.85	64851.56
580.01	65111.36
580.17	64865.61
580.33	64968.59
580.49	64989.66
580.65	65179.24
580.82	65223.71
580.98	65003.70
581.14	65251.80
581.30	65261.16
581.46	65031.78
581.62	64977.95
581.78	64870.29
581.94	65080.94
582.10	65132.43
582.26	65146.47
582.42	65097.32
582.58	65094.98
582.74	65197.96
582.90	65055.19
583.06	65197.96
583.22	65190.94
583.38	65087.96
583.54	65041.15
583.70	64839.86
583.86	65153.49
584.02	65036.47
584.18	65228.39
584.34	65338.40
584.50	65183.92
584.66	65045.83
584.82	65031.78
584.98	65109.02
585.14	65155.83
585.30	65064.55
585.46	65127.75
585.62	64926.46
585.78	65272.86
585.94	65237.75
586.10	65132.43
586.26	65127.75
586.42	65247.11
586.58	65373.50
586.74	65057.53
586.90	65106.68
587.06	65055.19
587.22	65235.41
587.38	65415.63
