SpectraSuite Data File
++++++++++++++++++++++++++++++++++++
Date: Thu Oct 24 13:21:26 EDT 2013
User: stostad
Dark Spectrum Present: No
Reference Spectrum Present: No
Number of Sampled Component Spectra: 1
Spectrometers: USB2+H05261
Integration Time (usec): 100000 (USB2+H05261)
Spectra Averaged: 1 (USB2+H05261)
Boxcar Smoothing: 0 (USB2+H05261)
Correct for Electrical Dark: No (USB2+H05261)
Strobe/Lamp Enabled: No (USB2+H05261)
Correct for Detector Non-linearity: No (USB2+H05261)
Correct for Stray Light: No (USB2+H05261)
Number of Pixels in Processed Spectrum: 2048
>>>>>Begin Processed Spectral Data<<<<<
365.73	512.58
365.92	512.58
366.12	512.58
366.32	447.04
366.52	496.19
366.72	475.13
366.91	517.26
367.11	507.90
367.31	519.60
367.51	416.62
367.70	449.38
367.90	524.28
368.10	482.15
368.30	489.17
368.49	507.90
368.69	514.92
368.89	521.94
369.09	454.06
369.28	440.02
369.48	493.85
369.68	491.51
369.87	585.13
370.07	524.28
370.27	489.17
370.47	720.88
370.66	919.83
370.86	966.64
371.06	1034.52
371.25	1071.97
371.45	1008.77
371.65	1025.15
371.84	1055.58
372.04	1008.77
372.24	1032.18
372.44	1053.24
372.63	1167.93
372.83	1151.54
373.03	1064.94
373.22	1153.88
373.42	1111.75
373.62	1146.86
373.81	1149.20
374.01	1086.01
374.21	1188.99
374.40	1076.65
374.60	1170.27
374.79	1167.93
374.99	1214.74
375.19	1254.53
375.38	1212.40
375.58	1226.44
375.78	1261.55
375.97	1249.85
376.17	1291.98
376.37	1221.76
376.56	1160.91
376.76	1221.76
376.95	1205.38
377.15	1263.89
377.35	1167.93
377.54	1247.51
377.74	1231.12
377.93	1303.68
378.13	1273.25
378.33	1291.98
378.52	1299.00
378.72	1299.00
378.91	1320.06
379.11	1322.40
379.31	1198.35
379.50	1231.12
379.70	1296.66
379.89	1401.98
380.09	1303.68
380.28	1362.19
380.48	1348.15
380.68	1364.53
380.87	1324.74
381.07	1387.94
381.26	1352.83
381.46	1451.13
381.65	1390.28
381.85	1350.49
382.04	1383.26
382.24	1481.56
382.43	1437.09
382.63	1352.83
382.83	1495.60
383.02	1453.47
383.22	1537.73
383.41	1399.64
383.61	1430.07
383.80	1540.07
384.00	1497.94
384.19	1432.41
384.39	1439.43
384.58	1561.14
384.78	1563.48
384.97	1577.52
385.17	1556.46
385.36	1561.14
385.56	1582.20
385.75	1584.54
385.95	1521.35
386.14	1596.25
386.34	1619.65
386.53	1678.16
386.72	1605.61
386.92	1680.50
387.11	1598.59
387.31	1708.59
387.50	1619.65
387.70	1680.50
387.89	1584.54
388.09	1687.53
388.28	1624.33
388.48	1696.89
388.67	1680.50
388.86	1636.03
389.06	1626.67
389.25	1736.68
389.45	1734.34
389.64	1699.23
389.84	1710.93
390.03	1703.91
390.22	1675.82
390.42	1802.21
390.61	1722.63
390.81	1727.32
391.00	1764.76
391.19	1771.79
391.39	1811.57
391.58	1870.09
391.78	1858.39
391.97	1839.66
392.16	1802.21
392.36	1884.13
392.55	1830.30
392.75	1870.09
392.94	1832.64
393.13	1914.56
393.33	1909.88
393.52	1970.73
393.71	1947.33
393.91	1968.39
394.10	2017.54
394.29	2033.93
394.49	1919.24
394.68	2019.88
394.88	1963.71
395.07	2080.74
395.26	2078.40
395.46	2059.67
395.65	2038.61
395.84	2076.06
396.04	2237.55
396.23	2101.80
396.42	2050.31
396.62	2183.72
396.81	2200.10
397.00	2200.10
397.19	2237.55
397.39	2167.34
397.58	2223.51
397.77	2188.40
397.97	2150.95
398.16	2279.68
398.35	2375.64
398.55	2225.85
398.74	2249.25
398.93	2382.67
399.12	2272.66
399.32	2303.09
399.51	2310.11
399.70	2387.35
399.90	2377.98
400.09	2424.80
400.28	2452.88
400.47	2450.54
400.67	2487.99
400.86	2516.08
401.05	2457.56
401.24	2551.18
401.44	2457.56
401.63	2593.31
401.82	2597.99
402.01	2527.78
402.21	2567.57
402.40	2555.86
402.59	2609.70
402.78	2612.04
402.97	2633.10
403.17	2806.30
403.36	2747.79
403.55	2752.47
403.74	2911.63
403.93	2708.00
404.13	2780.56
404.32	2834.39
404.51	2993.55
404.70	2881.20
404.89	2944.39
405.09	2913.97
405.28	2883.54
405.47	2918.65
405.66	3002.91
405.85	2998.23
406.05	2885.88
406.24	2942.05
406.43	2988.86
406.62	3136.32
406.81	3073.12
407.00	3075.46
407.20	3042.70
407.39	3091.85
407.58	3141.00
407.77	3227.60
407.96	3183.13
408.15	3265.05
408.34	3115.25
408.54	3325.90
408.73	3190.15
408.92	3267.39
409.11	3349.31
409.30	3332.92
409.49	3461.65
409.68	3363.35
409.87	3379.73
410.07	3449.95
410.26	3428.88
410.45	3459.31
410.64	3379.73
410.83	3597.40
411.02	3545.91
411.21	3716.77
411.40	3562.30
411.59	3684.00
411.78	3613.79
411.98	3686.34
412.17	3740.18
412.36	3857.20
412.55	3899.33
412.74	3918.06
412.93	3831.46
413.12	3819.75
413.31	4021.04
413.50	3932.10
413.69	3775.28
413.88	3953.16
414.07	4079.55
414.26	4044.45
414.45	4112.32
414.64	4004.66
414.83	4191.90
415.02	4210.62
415.22	4304.25
415.41	4341.69
415.60	4390.84
415.79	4198.92
415.98	4475.10
416.17	4344.03
416.36	4308.93
416.55	4489.15
416.74	4561.70
416.93	4486.81
417.12	4498.51
417.31	4608.51
417.50	4613.20
417.69	4741.93
417.88	4767.67
418.07	4713.84
418.26	4741.93
418.45	4777.03
418.64	4898.74
418.83	4922.15
419.02	4798.10
419.21	4870.65
419.39	5039.17
419.58	4844.91
419.77	4823.84
419.96	5083.64
420.15	5015.77
420.34	5011.09
420.53	4858.95
420.72	5104.71
420.91	5151.52
421.10	5345.78
421.29	5242.80
421.48	5205.35
421.67	5226.42
421.86	5221.74
422.05	5207.69
422.24	5111.73
422.43	5125.77
422.61	5252.16
422.80	5289.61
422.99	5214.71
423.18	5320.04
423.37	5408.98
423.56	5291.95
423.75	5416.00
423.94	5266.21
424.13	4992.36
424.32	5212.37
424.50	5336.42
424.69	5729.63
424.88	5357.49
425.07	5397.28
425.26	5357.49
425.45	5427.70
425.64	5254.50
425.83	5446.43
426.01	5500.26
426.20	5523.66
426.39	5420.68
426.58	5542.39
426.77	5526.00
426.96	5589.20
427.15	5565.79
427.33	5643.03
427.52	5671.12
427.71	5645.37
427.90	5654.73
428.09	5694.52
428.28	5790.49
428.46	5802.19
428.65	5804.53
428.84	6181.35
429.03	5914.53
429.22	5708.57
429.40	5935.60
429.59	6045.60
429.78	5816.23
429.97	5596.22
430.16	5778.78
430.34	6047.94
430.53	6024.54
430.72	6099.44
430.91	6139.23
431.10	6141.57
431.28	6317.11
431.47	6284.34
431.66	6256.25
431.85	6251.57
432.03	6298.38
432.22	6497.33
432.41	6324.13
432.60	6305.40
432.79	6366.26
432.97	6544.14
433.16	6436.47
433.35	6408.39
433.54	6551.16
433.72	6518.39
433.91	6621.38
434.10	6523.07
434.28	6497.33
434.47	6724.36
434.66	6766.49
434.85	6841.39
435.03	7136.29
435.22	6977.14
435.41	7143.32
435.59	6988.84
435.78	7070.76
435.97	7197.15
436.16	6850.75
436.34	6895.22
436.53	7028.63
436.72	7082.46
436.90	7035.65
437.09	7073.10
437.28	6925.65
437.46	7063.74
437.65	6988.84
437.84	7096.50
438.02	7045.01
438.21	7382.05
438.40	7148.00
438.58	7435.88
438.77	7578.65
438.96	7529.50
439.14	7585.68
439.33	7716.75
439.52	7555.25
439.70	7548.23
439.89	7857.18
440.08	7843.14
440.26	7698.02
440.45	7768.24
440.63	7805.69
440.82	8149.75
441.01	7789.30
441.19	8138.04
441.38	8201.24
441.57	8187.19
441.75	8362.73
441.94	8320.60
442.12	8554.66
442.31	8477.42
442.50	8542.96
442.68	8519.55
442.87	8369.76
443.05	8699.77
443.24	8748.92
443.43	8585.08
443.61	8674.03
443.80	9015.74
443.98	8554.66
444.17	8283.16
444.35	8549.98
444.54	8713.81
444.73	8638.92
444.91	8854.25
445.10	8936.17
445.28	8795.73
445.47	8765.31
445.65	8718.50
445.84	8863.61
446.02	8945.53
446.21	8912.76
446.39	8849.57
446.58	9085.96
446.77	8943.19
446.95	8791.05
447.14	8872.97
447.32	9202.99
447.51	9125.75
447.69	9018.08
447.88	9055.53
448.06	8910.42
448.25	9064.89
448.43	9149.15
448.62	9092.98
448.80	8872.97
448.99	9322.35
449.17	9327.03
449.36	9114.05
449.54	9315.33
449.73	9383.21
449.91	9455.76
450.10	9600.88
450.28	9717.90
450.46	9628.96
450.65	9404.27
450.83	9530.66
451.02	9385.55
451.20	9731.95
451.39	9612.58
451.57	9474.49
451.76	9448.74
451.94	9605.56
452.13	9937.91
452.31	9750.67
452.49	9715.56
452.68	9827.91
452.86	9781.10
453.05	10111.11
453.23	10270.27
453.42	9872.38
453.60	9863.02
453.78	10143.88
453.97	9996.43
454.15	9898.13
454.34	10029.20
454.52	10291.34
454.70	10209.42
454.89	10216.44
455.07	10300.70
455.26	10296.02
455.44	10391.98
455.62	10326.44
455.81	10516.03
455.99	10424.75
456.17	10417.72
456.36	10611.99
456.54	10494.96
456.73	10860.09
456.91	10888.17
457.09	10860.09
457.28	11098.82
457.46	10789.87
457.64	10951.37
457.83	11070.73
458.01	10937.32
458.19	11232.23
458.38	11023.92
458.56	10965.41
458.74	11162.01
458.93	11288.40
459.11	11138.61
459.29	11250.96
459.48	11140.95
459.66	11417.13
459.84	11534.16
460.03	11595.01
460.21	11583.31
460.39	11641.82
460.57	11655.87
460.76	11576.29
460.94	11758.85
461.12	11733.11
461.31	11751.83
461.49	11838.43
461.67	11798.64
461.85	12114.61
462.04	11836.09
462.22	12126.32
462.40	12308.88
462.59	12006.95
462.77	12018.65
462.95	12119.29
463.13	12102.91
463.32	11936.73
463.50	12390.80
463.68	12180.15
463.86	12395.48
464.05	12091.21
464.23	12226.96
464.41	12468.03
464.59	12257.39
464.78	12645.91
464.96	12374.41
465.14	12266.75
465.32	12280.79
465.50	12638.89
465.69	12732.51
465.87	12905.71
466.05	12699.75
466.23	12599.10
466.41	12662.30
466.60	12966.57
466.78	12851.88
466.96	12769.96
467.14	12973.59
467.32	12901.03
467.51	12961.89
467.69	12814.43
467.87	12786.35
468.05	13219.35
468.23	12894.01
468.41	12947.84
468.60	13097.64
468.78	13289.56
468.96	13060.19
469.14	13294.24
469.32	13628.94
469.50	13212.32
469.69	13640.64
469.87	13598.51
470.05	13579.79
470.23	13729.58
470.41	13650.00
470.59	14207.05
470.77	13617.24
470.95	13418.29
471.14	14097.05
471.32	13593.83
471.50	14230.46
471.68	13961.30
471.86	14153.22
472.04	14328.76
472.22	14747.72
472.40	14558.13
472.58	14281.95
472.77	14394.29
472.95	14377.91
473.13	14974.75
473.31	14609.62
473.49	14817.93
473.67	14775.80
473.85	14888.15
474.03	15192.42
474.21	15227.53
474.39	15297.74
474.57	15337.53
474.75	15424.13
474.93	15662.86
475.12	15503.71
475.30	15569.24
475.48	15606.69
475.66	15908.62
475.84	15941.39
476.02	15873.51
476.20	16044.37
476.38	16444.60
476.56	16561.63
476.74	16430.56
476.92	16369.71
477.10	16636.53
477.28	16952.50
477.46	16833.13
477.64	17097.61
477.82	17060.16
478.00	17448.69
478.18	17483.80
478.36	17530.61
478.54	17724.88
478.72	17884.03
478.90	18010.42
479.08	18075.96
479.26	18279.58
479.44	18611.94
479.62	18698.54
479.80	18532.36
479.98	18728.97
480.16	18995.79
480.34	19026.21
480.52	19239.20
480.70	19372.61
480.88	19084.73
481.06	19440.49
481.24	19215.80
481.41	19564.54
481.59	20142.65
481.77	20180.10
481.95	20262.02
482.13	20545.22
482.31	20334.57
482.49	20908.01
482.67	20917.37
482.85	21277.81
483.03	21425.26
483.21	21900.39
483.39	21715.49
483.57	21287.17
483.74	21563.36
483.92	21933.16
484.10	22211.68
484.28	22455.10
484.46	22939.59
484.64	23393.65
484.82	22789.80
485.00	23297.69
485.18	23868.78
485.35	23988.15
485.53	23498.98
485.71	24137.94
485.89	24584.99
486.07	24421.15
486.25	24173.05
486.43	24397.74
486.61	24940.75
486.78	24945.43
486.96	25205.23
487.14	25303.53
487.32	25195.87
487.50	25724.83
487.68	25600.78
487.85	26085.27
488.03	26714.87
488.21	26806.16
488.39	26845.94
488.57	26815.52
488.75	27257.88
488.92	27232.13
489.10	27384.27
489.28	27578.53
489.46	28128.56
489.64	27831.31
489.81	28535.81
489.99	28566.24
490.17	28680.92
490.35	29078.82
490.53	28936.04
490.70	29446.28
490.88	28982.85
491.06	29715.44
491.24	29675.65
491.41	29685.01
491.59	30190.57
491.77	30560.37
491.95	30363.77
492.13	30794.43
492.30	30689.10
492.48	30862.30
492.66	31009.76
492.84	31339.77
493.01	31653.40
493.19	31842.99
493.37	31833.63
493.54	32205.77
493.72	32603.66
493.90	32465.57
494.08	32617.71
494.25	32835.38
494.43	32765.16
494.61	33202.84
494.79	33039.00
494.96	33244.97
495.14	33979.90
495.32	34176.50
495.49	34188.21
495.67	34387.15
495.85	34466.73
496.02	34586.10
496.20	34684.40
496.38	34869.30
496.55	34995.69
496.73	35999.78
496.91	35686.15
497.09	35716.58
497.26	35583.16
497.44	35992.76
497.62	35662.74
497.79	36409.37
497.97	36238.51
498.14	36926.63
498.32	36816.63
498.50	37050.68
498.67	37294.10
498.85	36769.82
499.03	37567.94
499.20	37933.06
499.38	37947.11
499.56	37619.43
499.73	38099.24
499.91	37874.55
500.08	38363.72
500.26	38337.98
500.44	38843.53
500.61	39379.51
500.79	38953.54
500.97	39133.76
501.14	39917.84
501.32	39531.65
501.49	39608.89
501.67	39541.01
501.84	40004.44
502.02	39880.39
502.20	40016.14
502.37	40098.06
502.55	40273.60
502.72	40297.00
502.90	40620.00
503.07	40737.02
503.25	41296.41
503.43	40629.36
503.60	41322.16
503.78	41125.55
503.95	41085.76
504.13	41523.44
504.30	41446.21
504.48	41659.20
504.65	42099.22
504.83	42607.11
505.01	42094.53
505.18	42426.89
505.36	42307.52
505.53	42082.83
505.71	42483.06
505.88	43012.02
506.06	42602.43
506.23	43140.75
506.41	42981.60
506.58	42890.32
506.76	43220.33
506.93	43882.70
507.11	43292.89
507.28	43672.06
507.46	43981.01
507.63	44205.70
507.81	44013.77
507.98	43318.64
508.16	43889.73
508.33	44100.37
508.50	44652.74
508.68	44692.53
508.85	44942.97
509.03	44744.02
509.20	44886.79
509.38	45242.56
509.55	45209.79
509.73	45310.43
509.90	45478.95
510.08	45287.03
510.25	45432.14
510.42	45780.88
510.60	45925.99
510.77	45860.46
510.95	46787.31
511.12	46178.77
511.30	46319.20
511.47	46707.73
511.64	46237.28
511.82	46829.44
511.99	46480.70
512.17	46817.74
512.34	47007.32
512.51	47569.05
512.69	47423.93
512.86	47421.59
513.04	47849.91
513.21	47536.28
513.38	47817.14
513.56	47405.21
513.73	47505.85
513.90	48051.20
514.08	47973.96
514.25	48336.74
514.43	48254.82
514.60	48102.69
514.77	48334.40
514.95	48692.50
515.12	48217.38
515.29	48547.39
515.47	48729.95
515.64	49235.51
515.81	48879.75
515.99	49228.49
516.16	48807.19
516.33	49118.48
516.51	49539.78
516.68	49205.08
516.85	49427.43
517.03	49762.13
517.20	49715.32
517.37	49560.84
517.54	49851.07
517.72	49591.27
517.89	49858.09
518.06	50042.99
518.24	50274.71
518.41	50162.36
518.58	50396.42
518.75	49902.56
518.93	50637.49
519.10	50464.29
519.27	50536.85
519.45	50618.77
519.62	50995.59
519.79	50930.06
519.96	50944.10
520.14	50855.16
520.31	50445.57
520.48	50939.42
520.65	51107.94
520.83	51735.20
521.00	51393.48
521.17	51236.67
521.34	51325.61
521.52	51625.20
521.69	51246.03
521.86	51676.69
522.03	51793.71
522.20	52055.85
522.38	52238.42
522.55	52030.11
522.72	52289.91
522.89	52048.83
523.07	52254.80
523.24	52172.88
523.41	52229.05
523.58	52224.37
523.75	52692.48
523.92	52605.88
524.10	52669.08
524.27	53076.33
524.44	53024.84
524.61	52914.83
524.78	52898.45
524.96	53015.47
525.13	53294.00
525.30	53361.87
525.47	53633.38
525.64	53338.47
525.81	53462.52
525.98	53301.02
526.16	53031.86
526.33	53506.99
526.50	53893.18
526.67	53506.99
526.84	53984.46
527.01	53719.98
527.18	53930.62
527.36	53633.38
527.53	53900.20
527.70	54082.76
527.87	54122.55
528.04	54087.44
528.21	54375.33
528.38	54162.34
528.55	54497.03
528.72	54356.60
528.89	54344.90
529.07	54396.39
529.24	54059.35
529.41	54672.57
529.58	54412.77
529.75	54574.27
529.92	54686.62
530.09	54754.49
530.26	54674.91
530.43	54602.36
530.60	54363.62
530.77	54686.62
530.94	55147.70
531.11	54953.44
531.28	54960.46
531.46	54768.54
531.63	55180.47
531.80	55077.49
531.97	55196.85
532.14	55220.26
532.31	55082.17
532.48	55435.59
532.65	55508.14
532.82	55487.08
532.99	55524.53
533.16	55400.48
533.33	55592.40
533.50	55543.25
533.67	55458.99
533.84	55363.03
534.01	55711.77
534.18	55686.03
534.35	56069.87
534.52	55805.39
534.69	56041.79
534.86	55718.79
535.03	55735.18
535.20	55987.95
535.37	56046.47
535.54	56292.22
535.71	56294.56
535.88	56126.05
536.05	56264.14
536.22	56406.91
536.38	56229.03
536.55	56264.14
536.72	56317.97
536.89	56437.34
537.06	56657.35
537.23	56657.35
537.40	56523.94
537.57	56549.68
537.74	56479.47
537.91	56488.83
538.08	56582.45
538.25	56484.15
538.42	56802.46
538.59	56896.08
538.75	56713.52
538.92	56865.66
539.09	56973.32
539.26	56963.96
539.43	56919.49
539.60	56919.49
539.77	56896.08
539.94	57242.48
540.11	57127.80
540.28	57268.23
540.44	57162.90
540.61	57275.25
540.78	57329.08
540.95	57563.14
541.12	57375.89
541.29	57368.87
541.46	57563.14
541.62	57408.66
541.79	57640.37
541.96	57378.23
542.13	57345.47
542.30	57621.65
542.47	57605.26
542.63	57712.93
542.80	57535.05
542.97	58092.10
543.14	58148.27
543.31	58017.20
543.48	58122.52
543.64	58049.97
543.81	58387.00
543.98	58127.20
544.15	58066.35
544.32	58316.79
544.48	58333.17
544.65	57963.37
544.82	58426.79
544.99	58162.31
545.16	58417.43
545.32	58302.74
545.49	58557.86
545.66	58632.76
545.83	58614.04
546.00	58740.42
546.16	58789.58
546.33	58707.66
546.50	58494.67
546.67	58616.38
546.83	58103.80
547.00	58408.07
547.17	58351.90
547.34	58515.73
547.50	58880.86
547.67	59093.85
547.84	59040.01
548.00	58831.71
548.17	59217.89
548.34	59040.01
548.51	58695.95
548.67	58852.77
548.84	58595.31
549.01	58866.81
549.18	58995.54
549.34	59189.81
549.51	59023.63
549.68	59323.22
549.84	59241.30
550.01	58873.84
550.18	58901.92
550.34	59159.38
550.51	59000.22
550.68	59236.62
550.84	58756.81
551.01	59379.39
551.18	59337.26
551.34	59306.83
551.51	59143.00
551.68	59437.90
551.84	59126.61
552.01	59344.28
552.18	59536.21
552.34	59367.69
552.51	59409.82
552.68	59402.80
552.84	59405.14
553.01	59704.73
553.18	59662.60
553.34	59330.24
553.51	59400.46
553.67	59517.48
553.84	59739.83
554.01	59646.21
554.17	59676.64
554.34	59833.46
554.51	59606.42
554.67	59781.96
554.84	59519.82
555.00	59573.66
555.17	59636.85
555.33	59664.94
555.50	59718.77
555.67	59922.40
555.83	59788.98
556.00	59812.39
556.16	60013.68
556.33	59934.10
556.50	59873.24
556.66	59959.84
556.83	59760.90
556.99	59990.27
557.16	60044.10
557.32	60172.83
557.49	60214.96
557.65	60076.87
557.82	60175.17
557.98	60079.21
558.15	60109.64
558.32	60280.50
558.48	60025.38
558.65	60205.60
558.81	60474.76
558.98	60210.28
559.14	60463.06
559.31	60271.14
559.47	60163.47
559.64	60346.03
559.80	60331.99
559.97	60287.52
560.13	60121.34
560.30	60467.74
560.46	60554.34
560.63	60687.75
560.79	60470.08
560.96	60739.24
561.12	60254.75
561.29	60439.65
561.45	60479.44
561.61	60774.35
561.78	60603.49
561.94	60523.91
562.11	60636.26
562.27	60842.23
562.44	60673.71
562.60	60544.98
562.77	60647.96
562.93	60598.81
563.10	60729.88
563.26	60355.39
563.42	60846.91
563.59	60680.73
563.75	60544.98
563.92	60622.22
564.08	60811.80
564.24	60844.57
564.41	60573.06
564.57	60711.16
564.74	60762.65
564.90	60828.18
565.07	60781.37
565.23	60954.57
565.39	60945.21
565.56	61153.52
565.72	61017.77
565.88	60926.49
566.05	60891.38
566.21	60931.17
566.38	60935.85
566.54	60828.18
566.70	60940.53
566.87	61160.54
567.03	61139.47
567.19	61296.29
567.36	61305.65
567.52	60924.14
567.68	60935.85
567.85	61062.24
568.01	60966.27
568.17	60924.14
568.34	60987.34
568.50	61097.34
568.66	61001.38
568.83	61235.44
568.99	60985.00
569.15	61109.05
569.32	61137.13
569.48	60931.17
569.64	61055.21
569.81	61043.51
569.97	60889.04
570.13	61055.21
570.30	61031.81
570.46	61228.41
570.62	61230.75
570.78	60912.44
570.95	60989.68
571.11	61244.80
571.27	61048.19
571.43	61113.73
571.60	61132.45
571.76	60959.25
571.92	61293.95
572.09	61399.27
572.25	61282.25
572.41	61284.59
572.57	61396.93
572.74	61441.40
572.90	61247.14
573.06	61090.32
573.22	61418.00
573.38	61478.85
573.55	61251.82
573.71	61638.01
573.87	61530.34
574.03	61268.20
574.20	61420.34
574.36	61296.29
574.52	61455.45
574.68	61268.20
574.84	61492.89
575.01	61263.52
575.17	61563.11
575.33	61272.88
575.49	61408.64
575.65	61511.62
575.82	61483.53
575.98	61345.44
576.14	61628.65
576.30	61684.82
576.46	61235.44
576.62	61389.91
576.79	61347.78
576.95	61408.64
577.11	61478.85
577.27	61429.70
577.43	61520.98
577.59	61429.70
577.75	61481.19
577.92	61350.12
578.08	61429.70
578.24	61504.60
578.40	61535.02
578.56	61598.22
578.72	61591.20
578.88	61836.95
579.04	61738.65
579.21	61600.56
579.37	61858.02
579.53	61588.86
579.69	61621.62
579.85	61535.02
580.01	61553.75
580.17	61630.99
580.33	61661.41
580.49	61752.69
580.65	61733.97
580.82	61647.37
580.98	61705.88
581.14	61703.54
581.30	61724.61
581.46	61553.75
581.62	61600.56
581.78	61537.36
581.94	61659.07
582.10	61591.20
582.26	61673.12
582.42	61623.96
582.58	61689.50
582.74	61649.71
582.90	61820.57
583.06	61745.67
583.22	61717.59
583.38	61577.15
583.54	61626.31
583.70	61612.26
583.86	61696.52
584.02	61560.77
584.18	61560.77
584.34	61778.44
584.50	61691.84
584.66	61762.06
584.82	61443.74
584.98	61762.06
585.14	61724.61
585.30	61546.73
585.46	61595.88
585.62	61663.75
585.78	62040.58
585.94	61563.11
586.10	61752.69
586.26	61750.35
586.42	61843.98
586.58	61806.53
586.74	61616.94
586.90	61677.80
587.06	61701.20
587.22	61939.94
587.38	61757.38
587.54	61916.53
587.70	62145.90
587.86	61939.94
