SpectraSuite Data File
++++++++++++++++++++++++++++++++++++
Date: Thu Oct 24 13:21:11 EDT 2013
User: stostad
Dark Spectrum Present: No
Reference Spectrum Present: No
Number of Sampled Component Spectra: 1
Spectrometers: USB2+H05261
Integration Time (usec): 100000 (USB2+H05261)
Spectra Averaged: 1 (USB2+H05261)
Boxcar Smoothing: 0 (USB2+H05261)
Correct for Electrical Dark: No (USB2+H05261)
Strobe/Lamp Enabled: No (USB2+H05261)
Correct for Detector Non-linearity: No (USB2+H05261)
Correct for Stray Light: No (USB2+H05261)
Number of Pixels in Processed Spectrum: 2048
>>>>>Begin Processed Spectral Data<<<<<
365.73	514.92
365.92	514.92
366.12	514.92
366.32	517.26
366.52	505.56
366.72	489.17
366.91	482.15
367.11	414.27
367.31	442.36
367.51	437.68
367.70	468.11
367.90	472.79
368.10	468.11
368.30	465.77
368.49	407.25
368.69	447.04
368.89	442.36
369.09	411.93
369.28	514.92
369.48	496.19
369.68	468.11
369.87	514.92
370.07	519.60
370.27	517.26
370.47	521.94
370.66	643.65
370.86	706.84
371.06	737.27
371.25	744.29
371.45	767.70
371.65	734.93
371.84	683.44
372.04	765.36
372.24	788.76
372.44	755.99
372.63	741.95
372.83	758.33
373.03	786.42
373.22	802.80
373.42	777.06
373.62	833.23
373.81	840.25
374.01	809.83
374.21	837.91
374.40	826.21
374.60	781.74
374.79	784.08
374.99	758.33
375.19	816.85
375.38	786.42
375.58	873.02
375.78	849.61
375.97	842.59
376.17	875.36
376.37	784.08
376.56	833.23
376.76	763.01
376.95	774.72
377.15	858.98
377.35	880.04
377.54	837.91
377.74	830.89
377.93	877.70
378.13	931.53
378.33	814.51
378.52	821.53
378.72	816.85
378.91	856.64
379.11	830.89
379.31	805.14
379.50	786.42
379.70	875.36
379.89	854.30
380.09	777.06
380.28	802.80
380.48	866.00
380.68	877.70
380.87	847.27
381.07	858.98
381.26	950.26
381.46	905.79
381.65	884.72
381.85	910.47
382.04	926.85
382.24	821.53
382.43	861.32
382.63	915.15
382.83	922.17
383.02	894.08
383.22	896.43
383.41	908.13
383.61	849.61
383.80	929.19
384.00	910.47
384.19	933.87
384.39	889.40
384.58	919.83
384.78	915.15
384.97	943.24
385.17	880.04
385.36	880.04
385.56	1034.52
385.75	945.58
385.95	931.53
386.14	929.19
386.34	945.58
386.53	964.30
386.72	924.51
386.92	950.26
387.11	964.30
387.31	931.53
387.50	978.34
387.70	968.98
387.89	854.30
388.09	950.26
388.28	957.28
388.48	1029.84
388.67	1008.77
388.86	1006.43
389.06	1001.75
389.25	964.30
389.45	973.66
389.64	1006.43
389.84	1025.15
390.03	950.26
390.22	980.68
390.42	983.02
390.61	1029.84
390.81	915.15
391.00	1032.18
391.19	1111.75
391.39	1055.58
391.58	1018.13
391.78	1048.56
391.97	1081.33
392.16	1025.15
392.36	1039.20
392.55	1043.88
392.75	1100.05
392.94	1011.11
393.13	1027.50
393.33	1004.09
393.52	1203.04
393.71	1132.82
393.91	1053.24
394.10	1088.35
394.29	1046.22
394.49	1083.67
394.68	1050.90
394.88	1069.62
395.07	1083.67
395.26	1097.71
395.46	1074.31
395.65	1151.54
395.84	1163.25
396.04	1221.76
396.23	1247.51
396.42	1116.44
396.62	1221.76
396.81	1188.99
397.00	1137.50
397.19	1219.42
397.39	1191.33
397.58	1210.06
397.77	1203.04
397.97	1217.08
398.16	1172.61
398.35	1247.51
398.55	1231.12
398.74	1137.50
398.93	1207.72
399.12	1165.59
399.32	1231.12
399.51	1249.85
399.70	1277.93
399.90	1238.14
400.09	1249.85
400.28	1224.10
400.47	1357.51
400.67	1242.82
400.86	1357.51
401.05	1315.38
401.24	1336.45
401.44	1413.68
401.63	1291.98
401.82	1350.49
402.01	1315.38
402.21	1394.96
402.40	1406.66
402.59	1341.13
402.78	1343.47
402.97	1376.24
403.17	1378.58
403.36	1345.81
403.55	1465.18
403.74	1338.79
403.93	1474.54
404.13	1481.56
404.32	1488.58
404.51	1385.60
404.70	1406.66
404.89	1352.83
405.09	1451.13
405.28	1483.90
405.47	1444.11
405.66	1488.58
405.85	1411.34
406.05	1404.32
406.24	1490.92
406.43	1465.18
406.62	1575.18
406.81	1488.58
407.00	1465.18
407.20	1533.05
407.39	1490.92
407.58	1547.09
407.77	1596.25
407.96	1645.40
408.15	1535.39
408.34	1584.54
408.54	1614.97
408.73	1631.35
408.92	1582.20
409.11	1636.03
409.30	1652.42
409.49	1701.57
409.68	1584.54
409.87	1638.38
410.07	1664.12
410.26	1685.19
410.45	1680.50
410.64	1675.82
410.83	1675.82
411.02	1708.59
411.21	1795.19
411.40	1706.25
411.59	1811.57
411.78	1701.57
411.98	1729.66
412.17	1825.62
412.36	1722.63
412.55	1830.30
412.74	1804.55
412.93	1891.15
413.12	1764.76
413.31	1987.11
413.50	1930.94
413.69	1832.64
413.88	1989.46
414.07	1923.92
414.26	1970.73
414.45	1937.96
414.64	2015.20
414.83	1949.67
415.02	2080.74
415.22	1989.46
415.41	2076.06
415.60	2092.44
415.79	2118.18
415.98	2043.29
416.17	2043.29
416.36	2115.84
416.55	1987.11
416.74	2125.21
416.93	2108.82
417.12	2012.86
417.31	2176.70
417.50	2176.70
417.69	2282.02
417.88	2139.25
418.07	2211.81
418.26	2190.74
418.45	2136.91
418.64	2193.08
418.83	2267.98
419.02	2242.23
419.21	2143.93
419.39	2289.04
419.58	2310.11
419.77	2235.21
419.96	2314.79
420.15	2338.20
420.34	2319.47
420.53	2338.20
420.72	2352.24
420.91	2272.66
421.10	2317.13
421.29	2368.62
421.48	2326.49
421.67	2298.41
421.86	2366.28
422.05	2293.72
422.24	2342.88
422.43	2511.39
422.61	2429.48
422.80	2452.88
422.99	2392.03
423.18	2368.62
423.37	2448.20
423.56	2483.31
423.75	2427.14
423.94	2434.16
424.13	2289.04
424.32	2373.30
424.50	2483.31
424.69	2541.82
424.88	2399.05
425.07	2422.45
425.26	2380.32
425.45	2567.57
425.64	2466.92
425.83	2497.35
426.01	2537.14
426.20	2373.30
426.39	2523.10
426.58	2509.05
426.77	2483.31
426.96	2530.12
427.15	2506.71
427.33	2565.23
427.52	2511.39
427.71	2637.78
427.90	2560.55
428.09	2616.72
428.28	2574.59
428.46	2525.44
428.65	2567.57
428.84	2724.38
429.03	2623.74
429.22	2637.78
429.40	2600.34
429.59	2614.38
429.78	2464.58
429.97	2621.40
430.16	2768.85
430.34	2703.32
430.53	2829.71
430.72	2757.15
430.91	2775.88
431.10	2658.85
431.28	2637.78
431.47	2810.98
431.66	2775.88
431.85	2729.06
432.03	2759.49
432.22	2729.06
432.41	2768.85
432.60	2766.51
432.79	2803.96
432.97	2773.53
433.16	2733.75
433.35	2843.75
433.54	2939.71
433.72	2937.37
433.91	2801.62
434.10	2803.96
434.28	2827.37
434.47	2965.46
434.66	2944.39
434.85	3047.38
435.03	3183.13
435.22	3227.60
435.41	3384.41
435.59	3370.37
435.78	3379.73
435.97	3201.85
436.16	3002.91
436.34	3131.64
436.53	3084.83
436.72	3042.70
436.90	3035.67
437.09	3047.38
437.28	2972.48
437.46	3148.02
437.65	3096.53
437.84	3131.64
438.02	3169.09
438.21	3110.57
438.40	3077.80
438.58	3304.84
438.77	3204.19
438.96	3185.47
439.14	3372.71
439.33	3365.69
439.52	3358.67
439.70	3386.76
439.89	3414.84
440.08	3342.28
440.26	3363.35
440.45	3304.84
440.63	3421.86
440.82	3431.23
441.01	3353.99
441.19	3520.17
441.38	3426.54
441.57	3541.23
441.75	3627.83
441.94	3695.71
442.12	3672.30
442.31	3639.53
442.50	3620.81
442.68	3604.42
442.87	3630.17
443.05	3548.25
443.24	3735.50
443.43	3618.47
443.61	3686.34
443.80	3817.41
443.98	3559.95
444.17	3468.67
444.35	3669.96
444.54	3733.15
444.73	3808.05
444.91	3583.36
445.10	3733.15
445.28	3676.98
445.47	3735.50
445.65	3756.56
445.84	3854.86
446.02	3698.05
446.21	3761.24
446.39	3719.11
446.58	3705.07
446.77	3843.16
446.95	3644.21
447.14	3688.68
447.32	3845.50
447.51	3784.65
447.69	3784.65
447.88	3843.16
448.06	3763.58
448.25	3740.18
448.43	3882.95
448.62	3749.54
448.80	3754.22
448.99	3798.69
449.17	3815.07
449.36	3894.65
449.54	3960.19
449.73	3857.20
449.91	3995.29
450.10	3983.59
450.28	4016.36
450.46	4140.41
450.65	3943.80
450.83	4042.11
451.02	3981.25
451.20	4203.60
451.39	3960.19
451.57	4084.23
451.76	4067.85
451.94	4049.13
452.13	4004.66
452.31	4124.02
452.49	4058.49
452.68	4058.49
452.86	4210.62
453.05	4241.05
453.23	4074.87
453.42	4205.94
453.60	4198.92
453.78	4238.71
453.97	4056.15
454.15	4205.94
454.34	4152.11
454.52	4149.77
454.70	4402.55
454.89	4131.05
455.07	4285.52
455.26	4271.48
455.44	4311.27
455.62	4430.63
455.81	4264.46
455.99	4339.35
456.17	4435.32
456.36	4269.14
456.54	4376.80
456.73	4475.10
456.91	4404.89
457.09	4372.12
457.28	4407.23
457.46	4470.42
457.64	4496.17
457.83	4615.54
458.01	4524.26
458.19	4500.85
458.38	4418.93
458.56	4606.17
458.74	4706.82
458.93	4709.16
459.11	4624.90
459.29	4650.64
459.48	4732.56
459.66	4594.47
459.84	4777.03
460.03	4823.84
460.21	4741.93
460.39	4784.06
460.57	4751.29
460.76	4730.22
460.94	4720.86
461.12	4798.10
461.31	4720.86
461.49	4802.78
461.67	4798.10
461.85	4884.70
462.04	4732.56
462.22	5221.74
462.40	4999.38
462.59	5085.98
462.77	4842.57
462.95	4912.78
463.13	4940.87
463.32	4912.78
463.50	5048.54
463.68	4865.97
463.86	5006.41
464.05	4901.08
464.23	5032.15
464.41	5064.92
464.59	4999.38
464.78	5238.12
464.96	5032.15
465.14	5048.54
465.32	5149.18
465.50	5053.22
465.69	5263.86
465.87	5032.15
466.05	4903.42
466.23	5076.62
466.41	5219.39
466.60	5205.35
466.78	5186.63
466.96	5165.56
467.14	5238.12
467.32	5287.27
467.51	5233.44
467.69	5289.61
467.87	5256.84
468.05	5350.46
468.23	5240.46
468.41	5100.03
468.60	5313.02
468.78	5186.63
468.96	5282.59
469.14	5341.10
469.32	5444.09
469.50	5364.51
469.69	5488.56
469.87	5331.74
470.05	5420.68
470.23	5462.81
470.41	5458.13
470.59	5579.84
470.77	5542.39
470.95	5474.51
471.14	5626.65
471.32	5462.81
471.50	5547.07
471.68	5612.60
471.86	5664.10
472.04	5614.95
472.22	5912.19
472.40	5673.46
472.58	5731.97
472.77	5738.99
472.95	5858.36
473.13	5872.40
473.31	5816.23
473.49	5944.96
473.67	5926.24
473.85	6015.18
474.03	6150.93
474.21	6108.80
474.39	6148.59
474.57	5998.79
474.75	6111.14
474.93	6167.31
475.12	6064.33
475.30	6239.87
475.48	6083.05
475.66	6314.77
475.84	6179.01
476.02	6284.34
476.20	6366.26
476.38	6466.90
476.56	6469.24
476.74	6340.51
476.92	6513.71
477.10	6516.05
477.28	6558.18
477.46	6693.93
477.64	6799.26
477.82	6785.21
478.00	6794.58
478.18	6988.84
478.36	6925.65
478.54	6796.92
478.72	6956.07
478.90	7042.67
479.08	7187.79
479.26	7201.83
479.44	7157.36
479.62	7316.51
479.80	7258.00
479.98	7391.41
480.16	7428.86
480.34	7311.83
480.52	7529.50
480.70	7552.91
480.88	7417.16
481.06	7541.21
481.24	7492.05
481.41	7637.17
481.59	7854.84
481.77	7801.01
481.95	7899.31
482.13	7976.55
482.31	7899.31
482.49	8259.75
482.67	8231.66
482.85	8053.78
483.03	8086.55
483.21	8212.94
483.39	8395.50
483.57	8446.99
483.74	8472.74
483.92	8505.51
484.10	8564.02
484.28	8580.40
484.46	8769.99
484.64	8753.60
484.82	8664.66
485.00	8842.54
485.18	9032.13
485.35	9200.65
485.53	9233.41
485.71	9060.21
485.89	9310.65
486.07	9235.75
486.25	9273.20
486.43	9287.25
486.61	9327.03
486.78	9511.94
486.96	9413.63
487.14	9743.65
487.32	9741.31
487.50	9481.51
487.68	9900.47
487.85	10029.20
488.03	10064.30
488.21	10239.84
488.39	9921.53
488.57	10186.01
488.75	10260.91
488.92	10193.03
489.10	10434.11
489.28	10518.37
489.46	10717.31
489.64	10546.45
489.81	10874.13
489.99	10808.59
490.17	10977.11
490.35	10904.56
490.53	11033.29
490.70	10944.34
490.88	11012.22
491.06	11297.77
491.24	11108.18
491.41	11180.74
491.59	11194.78
491.77	11400.75
491.95	11646.51
492.13	11667.57
492.30	11506.07
492.48	11454.58
492.66	11580.97
492.84	11728.42
493.01	11779.92
493.19	11744.81
493.37	11995.25
493.54	11978.86
493.72	12006.95
493.90	12121.63
494.08	12189.51
494.25	12187.17
494.43	12297.17
494.61	12320.58
494.79	12273.77
494.96	12334.62
495.14	12524.21
495.32	12755.92
495.49	12608.47
495.67	12985.29
495.85	12688.04
496.02	12732.51
496.20	13109.34
496.38	12929.12
496.55	13186.58
496.73	13399.57
496.91	13163.17
497.09	13055.51
497.26	13167.85
497.44	13453.40
497.62	13432.33
497.79	13570.43
497.97	13563.40
498.14	13731.92
498.32	13813.84
498.50	13968.32
498.67	13944.91
498.85	13933.21
499.03	13928.53
499.20	13752.99
499.38	14310.04
499.56	14061.94
499.73	14061.94
499.91	14057.26
500.08	14303.01
500.26	14267.91
500.44	14111.09
500.61	14525.36
500.79	14693.88
500.97	14469.19
501.14	14759.42
501.32	14855.38
501.49	14586.22
501.67	14672.82
501.84	14824.95
502.02	14679.84
502.20	14808.57
502.37	14841.34
502.55	14841.34
502.72	14857.72
502.90	14937.30
503.07	14782.82
503.25	14979.43
503.43	15126.88
503.60	15281.36
503.78	15332.85
503.95	15197.10
504.13	15208.80
504.30	15314.13
504.48	15281.36
504.65	15552.86
504.83	15487.32
505.01	15562.22
505.18	15585.63
505.36	15852.45
505.53	15641.80
505.71	15611.37
505.88	15953.09
506.06	15789.25
506.23	15985.86
506.41	15903.94
506.58	15854.79
506.76	15768.19
506.93	16224.59
507.11	15859.47
507.28	16369.71
507.46	16037.35
507.63	16475.03
507.81	16301.83
507.98	16163.74
508.16	16290.13
508.33	16439.92
508.50	16327.58
508.68	16844.84
508.85	16879.94
509.03	16631.85
509.20	16681.00
509.38	16919.73
509.55	16751.21
509.73	16943.14
509.90	16879.94
510.08	16709.08
510.25	16978.25
510.42	16959.52
510.60	17029.74
510.77	17085.91
510.95	17350.39
511.12	16730.15
511.30	16931.44
511.47	17322.30
511.64	17268.47
511.82	17401.88
511.99	17509.55
512.17	17502.53
512.34	17256.77
512.51	17893.40
512.69	17638.28
512.86	17619.55
513.04	17970.63
513.21	17556.36
513.38	17947.23
513.56	17785.73
513.73	17980.00
513.90	17884.03
514.08	17699.13
514.25	18073.62
514.43	18310.01
514.60	18143.83
514.77	18052.55
514.95	18164.90
515.12	18174.26
515.29	18061.91
515.47	18342.78
515.64	18066.60
515.81	18246.82
515.99	18427.04
516.16	18618.96
516.33	18523.00
516.51	18738.33
516.68	18651.73
516.85	18771.10
517.03	18618.96
517.20	18733.65
517.37	19007.49
517.54	18920.89
517.72	18813.23
517.89	18948.98
518.06	18991.11
518.24	18520.66
518.41	18829.61
518.58	18773.44
518.75	18635.35
518.93	18920.89
519.10	19047.28
519.27	19293.04
519.45	19117.50
519.62	18977.06
519.79	19056.64
519.96	19124.52
520.14	19213.46
520.31	19185.37
520.48	19250.91
520.65	19168.99
520.83	19693.27
521.00	19681.56
521.17	19817.32
521.34	19749.44
521.52	19625.39
521.69	19428.79
521.86	19896.89
522.03	19426.45
522.20	19688.59
522.38	19611.35
522.55	19836.04
522.72	19770.51
522.89	19962.43
523.07	20140.31
523.24	19936.68
523.41	19992.86
523.58	20023.28
523.75	20123.93
523.92	20053.71
524.10	20336.91
524.27	20294.79
524.44	20432.88
524.61	20400.11
524.78	20196.48
524.96	20393.09
525.13	20727.78
525.30	20599.05
525.47	20744.17
525.64	20489.05
525.81	20868.22
525.98	20748.85
526.16	20421.17
526.33	20821.41
526.50	21057.80
526.67	20908.01
526.84	20872.90
527.01	20746.51
527.18	20994.61
527.36	20842.47
527.53	20776.94
527.70	21067.16
527.87	20952.48
528.04	21362.07
528.21	21010.99
528.38	21240.36
528.55	21205.25
528.72	21071.84
528.89	21048.44
529.07	21240.36
529.24	21015.67
529.41	21486.12
529.58	21172.49
529.75	21235.68
529.92	21333.98
530.09	21097.59
530.26	21392.50
530.43	21504.84
530.60	21481.44
530.77	21331.64
530.94	21654.64
531.11	21645.27
531.28	21664.00
531.46	21837.20
531.63	22003.38
531.80	21738.90
531.97	21666.34
532.14	22082.95
532.31	21647.61
532.48	21956.57
532.65	21766.98
532.82	21862.94
532.99	21738.90
533.16	21820.81
533.33	21834.86
533.50	22157.85
533.67	22040.82
533.84	22073.59
534.01	22272.54
534.18	22125.08
534.35	22061.89
534.52	22078.27
534.69	22120.40
534.86	21846.56
535.03	22181.26
535.20	22361.48
535.37	22146.15
535.54	22457.44
535.71	22288.92
535.88	22291.26
536.05	22382.54
536.22	22462.12
536.38	22609.58
536.55	22679.79
536.72	22712.56
536.89	22611.92
537.06	22731.28
537.23	22803.84
537.40	22970.02
537.57	22497.23
537.74	22632.98
537.91	22581.49
538.08	23007.47
538.25	22661.07
538.42	22845.97
538.59	23117.47
538.75	22838.95
538.92	23049.60
539.09	23349.18
539.26	22750.01
539.43	23000.44
539.60	22869.37
539.77	23108.11
539.94	23117.47
540.11	23232.16
540.28	23756.44
540.44	23585.58
540.61	23307.05
540.78	23384.29
540.95	23440.47
541.12	23711.97
541.29	23611.32
541.46	23744.73
541.62	23927.30
541.79	23786.86
541.96	23927.30
542.13	23641.75
542.30	23941.34
542.47	24002.19
542.63	23894.53
542.80	24123.90
542.97	24261.99
543.14	24592.01
543.31	23990.49
543.48	24144.97
543.64	24357.96
543.81	24563.92
543.98	24390.72
544.15	24212.84
544.32	24526.47
544.48	24648.18
544.65	24142.63
544.82	24496.05
544.99	24222.20
545.16	24095.82
545.32	24297.10
545.49	24877.55
545.66	25113.95
545.83	25228.63
546.00	25137.35
546.16	25088.20
546.33	24741.80
546.50	24474.98
546.67	24907.98
546.83	24297.10
547.00	24374.34
547.17	24559.24
547.34	24236.25
547.50	24709.04
547.67	24755.85
547.84	24734.78
548.00	25102.25
548.17	24713.72
548.34	24496.05
548.51	24669.25
548.67	24514.77
548.84	24842.45
549.01	24704.35
549.18	24428.17
549.34	24886.92
549.51	24905.64
549.68	24641.16
549.84	24783.93
550.01	24725.42
550.18	24456.26
550.34	24287.74
550.51	24926.71
550.68	24968.84
550.84	24364.98
551.01	25003.94
551.18	24648.18
551.34	24596.69
551.51	24755.85
551.68	24568.60
551.84	24662.22
552.01	24638.82
552.18	24994.58
552.34	25008.62
552.51	25039.05
552.68	24971.18
552.84	25076.50
553.01	25055.43
553.18	24826.06
553.34	24994.58
553.51	25099.90
553.67	25074.16
553.84	25628.87
554.01	25230.98
554.17	25118.63
554.34	24959.47
554.51	24837.76
554.67	25205.23
554.84	25069.48
555.00	25252.04
555.17	24968.84
555.33	25025.01
555.50	25345.66
555.67	25472.05
555.83	25116.29
556.00	25539.93
556.16	25294.17
556.33	25083.52
556.50	25240.34
556.66	25343.32
556.83	25394.81
556.99	25518.86
557.16	25553.97
557.32	25802.07
557.49	25600.78
557.65	25453.33
557.82	25315.23
557.98	25226.29
558.15	25219.27
558.32	25598.44
558.48	25586.74
558.65	26008.03
558.81	25649.93
558.98	25518.86
559.14	25649.93
559.31	25315.23
559.47	25710.78
559.64	25912.07
559.80	25713.13
559.97	25699.08
560.13	25542.27
560.30	25671.00
560.46	25715.47
560.63	25565.67
560.79	25331.62
560.96	25661.63
561.12	25738.87
561.29	26054.84
561.45	25776.32
561.61	26251.45
561.78	25809.09
561.94	25930.80
562.11	26183.57
562.27	25647.59
562.44	25497.80
562.60	25879.30
562.77	25797.38
562.93	26024.42
563.10	25762.28
563.26	25448.64
563.42	26003.35
563.59	25867.60
563.75	25797.38
563.92	26199.96
564.08	25465.03
564.24	25752.91
564.41	25605.46
564.57	25795.04
564.74	25862.92
564.90	26141.44
565.07	26183.57
565.23	25965.90
565.39	25832.49
565.56	26267.83
565.72	25989.31
565.88	25874.62
566.05	25975.27
566.21	25818.45
566.38	25970.58
566.54	25832.49
566.70	26141.44
566.87	26134.42
567.03	25722.49
567.19	26246.77
567.36	26122.72
567.52	25869.94
567.68	26267.83
567.85	26206.98
568.01	26368.48
568.17	26251.45
568.34	26492.52
568.50	26214.00
568.66	26038.46
568.83	26008.03
568.99	26438.69
569.15	26476.14
569.32	26300.60
569.48	26195.28
569.64	26328.69
569.81	26331.03
569.97	26141.44
570.13	26361.45
570.30	26148.46
570.46	26253.79
570.62	26398.90
570.78	26031.44
570.95	26384.86
571.11	26113.36
571.27	26424.65
571.43	26089.95
571.60	25872.28
571.76	26267.83
571.92	26167.19
572.09	26426.99
572.25	26469.12
572.41	26181.23
572.57	26574.44
572.74	26148.46
572.90	26096.97
573.06	26513.59
573.22	26195.28
573.38	26429.33
573.55	26373.16
573.71	26436.35
573.87	26291.24
574.03	26218.68
574.20	26492.52
574.36	26251.45
574.52	26307.62
574.68	26441.03
574.84	26794.45
575.01	26237.41
575.17	26237.41
575.33	26553.38
575.49	26637.64
575.65	26749.98
575.82	26539.33
575.98	26508.91
576.14	26462.10
576.30	26749.98
576.46	26567.42
576.62	26773.39
576.79	26356.77
576.95	26265.49
577.11	26335.71
577.27	26199.96
577.43	26864.67
577.59	26567.42
577.75	26574.44
577.92	26455.08
578.08	26806.16
578.24	26157.83
578.40	26630.62
578.56	27012.12
578.72	26754.66
578.88	26529.97
579.04	26710.19
579.21	26492.52
579.37	26925.52
579.53	26553.38
579.69	26696.15
579.85	26281.88
580.01	26801.47
580.17	26717.22
580.33	26593.17
580.49	26103.99
580.65	26705.51
580.82	26609.55
580.98	26422.31
581.14	26525.29
581.30	26515.93
581.46	26443.37
581.62	26466.78
581.78	26328.69
581.94	26534.65
582.10	26438.69
582.26	26333.37
582.42	26670.40
582.58	26602.53
582.74	26771.05
582.90	26373.16
583.06	26494.86
583.22	26167.19
583.38	26567.42
583.54	26476.14
583.70	26780.41
583.86	26726.58
584.02	26515.93
584.18	26944.25
584.34	26555.72
584.50	26448.05
584.66	26553.38
584.82	26588.49
584.98	26581.46
585.14	26525.29
585.30	26780.41
585.46	26654.02
585.62	26864.67
585.78	26700.83
585.94	26661.04
586.10	27056.59
586.26	26675.09
586.42	26679.77
586.58	26647.00
586.74	26955.95
586.90	26817.86
587.06	26511.25
587.22	26651.68
587.38	26979.36
587.54	26969.99
587.70	26661.04
587.86	26735.94
588.02	27082.34
588.18	26859.99
588.34	26937.23
588.49	26539.33
588.65	26361.45
588.81	26576.78
588.97	26838.92
589.13	26808.50
589.29	26789.77
589.45	26984.04
589.61	26923.18
589.77	27239.15
589.93	26738.28
590.08	26965.31
590.24	26897.44
590.40	26628.27
590.56	26625.93
590.72	26630.62
