SpectraSuite Data File
++++++++++++++++++++++++++++++++++++
Date: Thu Oct 24 13:21:29 EDT 2013
User: stostad
Dark Spectrum Present: No
Reference Spectrum Present: No
Number of Sampled Component Spectra: 1
Spectrometers: USB2+H05261
Integration Time (usec): 100000 (USB2+H05261)
Spectra Averaged: 1 (USB2+H05261)
Boxcar Smoothing: 0 (USB2+H05261)
Correct for Electrical Dark: No (USB2+H05261)
Strobe/Lamp Enabled: No (USB2+H05261)
Correct for Detector Non-linearity: No (USB2+H05261)
Correct for Stray Light: No (USB2+H05261)
Number of Pixels in Processed Spectrum: 2048
>>>>>Begin Processed Spectral Data<<<<<
365.73	631.94
365.92	631.94
366.12	631.94
366.32	414.27
366.52	404.91
366.72	500.87
366.91	411.93
367.11	472.79
367.31	430.66
367.51	395.55
367.70	456.40
367.90	447.04
368.10	477.47
368.30	454.06
368.49	428.32
368.69	533.64
368.89	463.43
369.09	507.90
369.28	463.43
369.48	484.49
369.68	524.28
369.87	503.22
370.07	489.17
370.27	566.41
370.47	627.26
370.66	1001.75
370.86	1158.57
371.06	1062.60
371.25	1128.14
371.45	1146.86
371.65	1043.88
371.84	1107.07
372.04	1078.99
372.24	1163.25
372.44	1217.08
372.63	1146.86
372.83	1198.35
373.03	1252.19
373.22	1303.68
373.42	1121.12
373.62	1179.63
373.81	1210.06
374.01	1275.59
374.21	1254.53
374.40	1231.12
374.60	1263.89
374.79	1238.14
374.99	1322.40
375.19	1249.85
375.38	1296.66
375.58	1287.29
375.78	1235.80
375.97	1366.87
376.17	1418.36
376.37	1378.58
376.56	1469.86
376.76	1376.24
376.95	1409.00
377.15	1345.81
377.35	1416.02
377.54	1329.42
377.74	1373.89
377.93	1376.24
378.13	1338.79
378.33	1357.51
378.52	1481.56
378.72	1488.58
378.91	1479.22
379.11	1469.86
379.31	1392.62
379.50	1458.15
379.70	1357.51
379.89	1441.77
380.09	1479.22
380.28	1460.49
380.48	1458.15
380.68	1448.79
380.87	1540.07
381.07	1519.01
381.26	1561.14
381.46	1500.28
381.65	1533.05
381.85	1483.90
382.04	1591.56
382.24	1579.86
382.43	1598.59
382.63	1624.33
382.83	1561.14
383.02	1659.44
383.22	1540.07
383.41	1654.76
383.61	1657.10
383.80	1741.36
384.00	1666.46
384.19	1657.10
384.39	1694.55
384.58	1643.06
384.78	1713.27
384.97	1750.72
385.17	1699.23
385.36	1645.40
385.56	1743.70
385.75	1696.89
385.95	1739.02
386.14	1661.78
386.34	1743.70
386.53	1727.32
386.72	1736.68
386.92	1813.92
387.11	1722.63
387.31	1769.44
387.50	1657.10
387.70	1811.57
387.89	1748.38
388.09	1856.04
388.28	1912.22
388.48	1799.87
388.67	1806.89
388.86	1874.77
389.06	1935.62
389.25	1975.41
389.45	1996.48
389.64	1816.26
389.84	1940.30
390.03	1935.62
390.22	2029.24
390.42	1977.75
390.61	2001.16
390.81	1942.64
391.00	2003.50
391.19	2143.93
391.39	2083.08
391.58	2188.40
391.78	2050.31
391.97	2057.33
392.16	2062.01
392.36	2162.66
392.55	2136.91
392.75	2071.37
392.94	2118.18
393.13	2122.87
393.33	2141.59
393.52	2190.74
393.71	2083.08
393.91	2260.96
394.10	2253.94
394.29	2296.07
394.49	2237.55
394.68	2230.53
394.88	2284.36
395.07	2279.68
395.26	2340.54
395.46	2279.68
395.65	2366.28
395.84	2314.79
396.04	2422.45
396.23	2464.58
396.42	2356.92
396.62	2565.23
396.81	2441.18
397.00	2338.20
397.19	2413.09
397.39	2551.18
397.58	2579.27
397.77	2614.38
397.97	2537.14
398.16	2408.41
398.35	2551.18
398.55	2504.37
398.74	2619.06
398.93	2595.65
399.12	2679.91
399.32	2513.74
399.51	2717.36
399.70	2712.68
399.90	2679.91
400.09	2799.28
400.28	2672.89
400.47	2672.89
400.67	2806.30
400.86	2818.00
401.05	2789.92
401.24	2848.43
401.44	2869.50
401.63	2932.69
401.82	2953.76
402.01	2897.58
402.21	2794.60
402.40	3002.91
402.59	2944.39
402.78	2991.20
402.97	2878.86
403.17	3038.02
403.36	3016.95
403.55	3021.63
403.74	3148.02
403.93	3169.09
404.13	3293.13
404.32	3222.92
404.51	3131.64
404.70	3157.38
404.89	3253.34
405.09	3222.92
405.28	3239.30
405.47	3339.94
405.66	3262.71
405.85	3321.22
406.05	3248.66
406.24	3286.11
406.43	3335.26
406.62	3501.44
406.81	3566.98
407.00	3400.80
407.20	3370.37
407.39	3346.97
407.58	3595.06
407.77	3574.00
407.96	3555.27
408.15	3536.55
408.34	3499.10
408.54	3796.35
408.73	3672.30
408.92	3620.81
409.11	3709.75
409.30	3803.37
409.49	3777.62
409.68	3779.97
409.87	3768.26
410.07	3896.99
410.26	3829.12
410.45	3702.73
410.64	3871.25
410.83	4030.40
411.02	3999.98
411.21	4051.47
411.40	3953.16
411.59	3974.23
411.78	4095.94
411.98	4163.81
412.17	4229.35
412.36	4264.46
412.55	4234.03
412.74	4393.19
412.93	4227.01
413.12	4320.63
413.31	4449.36
413.50	4479.79
413.69	4444.68
413.88	4652.98
414.07	4533.62
414.26	4617.88
414.45	4732.56
414.64	4582.77
414.83	4741.93
415.02	4667.03
415.22	4835.55
415.41	4887.04
415.60	4880.02
415.79	4966.62
415.98	4851.93
416.17	5083.64
416.36	4992.36
416.55	4987.68
416.74	5228.76
416.93	5046.20
417.12	5013.43
417.31	5270.89
417.50	5376.21
417.69	5406.64
417.88	5336.42
418.07	5198.33
418.26	5289.61
418.45	5462.81
418.64	5652.39
418.83	5521.32
419.02	5467.49
419.21	5586.86
419.39	5614.95
419.58	5551.75
419.77	5549.41
419.96	5727.29
420.15	5713.25
420.34	5598.56
420.53	5682.82
420.72	5767.08
420.91	5717.93
421.10	5678.14
421.29	5795.17
421.48	5893.47
421.67	5858.36
421.86	6022.20
422.05	6033.90
422.24	5870.06
422.43	5987.09
422.61	5898.15
422.80	6036.24
422.99	5996.45
423.18	5966.03
423.37	6104.12
423.56	5980.07
423.75	6024.54
423.94	5884.11
424.13	5631.33
424.32	5863.04
424.50	6141.57
424.69	6361.58
424.88	6118.16
425.07	6094.76
425.26	6029.22
425.45	6057.31
425.64	6080.71
425.83	6195.40
426.01	6228.17
426.20	6214.12
426.39	6141.57
426.58	6146.25
426.77	6129.86
426.96	6197.74
427.15	6422.43
427.33	6317.11
427.52	6338.17
427.71	6534.78
427.90	6490.31
428.09	6546.48
428.28	6623.72
428.46	6691.59
428.65	6387.32
428.84	6731.38
429.03	6689.25
429.22	6558.18
429.40	6679.89
429.59	6590.95
429.78	6562.86
429.97	6335.83
430.16	6644.78
430.34	6710.32
430.53	6927.99
430.72	6951.39
430.91	7035.65
431.10	6867.13
431.28	6986.50
431.47	7014.59
431.66	7052.03
431.85	6946.71
432.03	7190.13
432.22	7314.17
432.41	7339.92
432.60	7234.60
432.79	7159.70
432.97	7232.26
433.16	7360.98
433.35	7314.17
433.54	7353.96
433.72	7566.95
433.91	7564.61
434.10	7475.67
434.28	7543.55
434.47	7639.51
434.66	7812.71
434.85	7723.77
435.03	7709.72
435.22	7985.91
435.41	8149.75
435.59	8028.04
435.78	8109.96
435.97	7983.57
436.16	7974.21
436.34	7999.95
436.53	8004.63
436.72	8121.66
436.90	7756.54
437.09	8046.76
437.28	7962.50
437.46	7981.23
437.65	7889.95
437.84	8308.90
438.02	8072.51
438.21	8287.84
438.40	8142.72
438.58	8301.88
438.77	8561.68
438.96	8500.83
439.14	8500.83
439.33	8578.06
439.52	8559.34
439.70	8798.07
439.89	8875.31
440.08	8919.78
440.26	8781.69
440.45	8798.07
440.63	8929.14
440.82	9202.99
441.01	9118.73
441.19	9179.58
441.38	9263.84
441.57	9149.15
441.75	9362.14
441.94	9406.61
442.12	9556.41
442.31	9575.13
442.50	9802.16
442.68	9348.10
442.87	9664.07
443.05	9832.59
443.24	9851.31
443.43	9790.46
443.61	9937.91
443.80	10026.86
443.98	9696.84
444.17	9533.00
444.35	10087.71
444.54	10218.78
444.73	9942.60
444.91	10017.49
445.10	9975.36
445.28	9966.00
445.47	9809.19
445.65	9984.73
445.84	10146.22
446.02	10157.92
446.21	10195.37
446.39	10099.41
446.58	10164.95
446.77	10171.97
446.95	9951.96
447.14	10225.80
447.32	10312.40
447.51	10214.10
447.69	9926.21
447.88	10076.01
448.06	10174.31
448.25	10321.76
448.43	10548.79
448.62	10427.09
448.80	10263.25
448.99	10452.83
449.17	10607.31
449.36	10368.57
449.54	10635.39
449.73	10836.68
449.91	11026.26
450.10	10839.02
450.28	10855.40
450.46	10967.75
450.65	10930.30
450.83	10970.09
451.02	10843.70
451.20	10878.81
451.39	10853.06
451.57	10918.60
451.76	11028.60
451.94	11098.82
452.13	10958.39
452.31	11131.59
452.49	11070.73
452.68	11178.40
452.86	10974.77
453.05	11365.64
453.23	11454.58
453.42	10986.47
453.60	11087.12
453.78	11419.47
453.97	11353.94
454.15	11604.38
454.34	11276.70
454.52	11695.66
454.70	11611.40
454.89	11712.04
455.07	11543.52
455.26	11826.73
455.44	12121.63
455.62	11829.07
455.81	11882.90
455.99	11812.68
456.17	11929.71
456.36	12042.06
456.54	12271.43
456.73	12248.02
456.91	12538.25
457.09	12575.70
457.28	12638.89
457.46	12428.24
457.64	12404.84
457.83	12465.69
458.01	12414.20
458.19	12732.51
458.38	12655.28
458.56	12800.39
458.74	12847.20
458.93	12765.28
459.11	12868.27
459.29	12922.10
459.48	12823.80
459.66	12732.51
459.84	13011.04
460.03	13099.98
460.21	13209.98
460.39	13123.38
460.57	13149.13
460.76	13465.10
460.94	13350.42
461.12	13631.28
461.31	13565.74
461.49	13275.52
461.67	13233.39
461.85	13589.15
462.04	13467.44
462.22	14221.10
462.40	13996.40
462.59	13628.94
462.77	13673.41
462.95	13722.56
463.13	13687.45
463.32	14001.08
463.50	13935.55
463.68	14066.62
463.86	14298.33
464.05	14139.18
464.23	13788.10
464.41	14300.67
464.59	13958.96
464.78	14459.83
464.96	14064.28
465.14	13996.40
465.32	14298.33
465.50	14621.33
465.69	14579.20
465.87	14527.71
466.05	14307.69
466.23	14492.60
466.41	14733.67
466.60	14979.43
466.78	14483.24
466.96	14523.02
467.14	15066.03
467.32	14806.23
467.51	15021.56
467.69	14588.56
467.87	14731.33
468.05	14806.23
468.23	14698.56
468.41	14782.82
468.60	15033.26
468.78	14991.13
468.96	14913.89
469.14	15353.91
469.32	15389.02
469.50	15140.93
469.69	15150.29
469.87	15695.63
470.05	15761.17
470.23	15716.70
470.41	15580.95
470.59	15941.39
470.77	15613.71
470.95	16016.29
471.14	16215.23
471.32	15833.72
471.50	16060.76
471.68	16208.21
471.86	16325.24
472.04	16133.31
472.22	16791.00
472.40	16123.95
472.58	16374.39
472.77	16526.52
472.95	16821.43
473.13	17312.94
473.31	16795.68
473.49	17046.12
473.67	16856.54
473.85	17158.47
474.03	17378.48
474.21	17561.04
474.39	17334.01
474.57	17507.21
474.75	17830.20
474.93	17727.22
475.12	18113.41
475.30	18164.90
475.48	17989.36
475.66	18160.22
475.84	18071.28
476.02	18293.63
476.20	18312.35
476.38	18534.70
476.56	18979.40
476.74	18878.76
476.92	19044.94
477.10	18970.04
477.28	19290.70
477.46	19187.71
477.64	19503.68
477.82	19807.95
478.00	20098.18
478.18	19609.01
478.36	20128.61
478.54	20676.29
478.72	20215.21
478.90	20563.95
479.08	20697.36
479.26	21427.60
479.44	21305.90
479.62	21474.42
479.80	21584.42
479.98	21465.05
480.16	22010.40
480.34	21570.38
480.52	22155.51
480.70	22162.53
480.88	22045.51
481.06	21935.50
481.24	22457.44
481.41	22583.83
481.59	22696.17
481.77	23058.96
481.95	23391.31
482.13	23763.46
482.31	23585.58
482.49	23821.97
482.67	23784.52
482.85	24074.75
483.03	24622.44
483.21	24627.12
483.39	25130.33
483.57	24620.10
483.74	25057.78
483.92	25462.69
484.10	24978.20
484.28	25685.04
484.46	26366.13
484.64	26672.74
484.82	26359.11
485.00	26525.29
485.18	26888.07
485.35	27257.88
485.53	27335.12
485.71	27295.33
485.89	28004.51
486.07	27517.68
486.25	27901.53
486.43	27845.35
486.61	28339.21
486.78	28971.15
486.96	28723.05
487.14	28938.38
487.32	29301.17
487.50	29287.12
487.68	29565.65
487.85	30192.91
488.03	30373.13
488.21	30726.55
488.39	30256.11
488.57	31189.98
488.75	30717.19
488.92	31388.92
489.10	31880.44
489.28	31702.56
489.46	32219.81
489.64	31969.38
489.81	32744.09
489.99	32886.87
490.17	32999.21
490.35	33310.50
490.53	33734.14
490.70	34033.73
490.88	33406.47
491.06	34394.17
491.24	34216.29
491.41	33895.64
491.59	34532.26
491.77	34546.31
491.95	35204.00
492.13	35627.63
492.30	35871.05
492.48	35285.92
492.66	35779.77
492.84	35791.47
493.01	36180.00
493.19	36510.02
493.37	36737.05
493.54	36613.00
493.72	37273.03
493.90	37429.85
494.08	37366.65
494.25	37598.37
494.43	37965.83
494.61	38129.67
494.79	38293.50
494.96	38160.09
495.14	38536.92
495.32	38993.32
495.49	39072.90
495.67	39239.08
495.85	39304.62
496.02	39854.64
496.20	39723.57
496.38	40215.08
496.55	40268.92
496.73	40875.12
496.91	40460.84
497.09	41284.71
497.26	41682.60
497.44	41081.08
497.62	40910.22
497.79	41694.30
497.97	41394.71
498.14	42380.08
498.32	42359.02
498.50	42534.56
498.67	42829.46
498.85	42873.93
499.03	42586.05
499.20	43143.09
499.38	43653.33
499.56	43622.90
499.73	43812.49
499.91	43533.96
500.08	44018.46
500.26	43536.30
500.44	44058.24
500.61	44547.42
500.79	44367.20
500.97	44875.09
501.14	45226.17
501.32	45151.27
501.49	44769.77
501.67	44961.69
501.84	45996.21
502.02	45345.54
502.20	45925.99
502.37	46117.92
502.55	45853.44
502.72	45806.62
502.90	45961.10
503.07	46476.02
503.25	47068.17
503.43	46522.83
503.60	46813.05
503.78	46672.62
503.95	46515.81
504.13	47054.13
504.30	47224.99
504.48	47103.28
504.65	47650.97
504.83	48027.79
505.01	47873.32
505.18	47463.72
505.36	48367.17
505.53	47873.32
505.71	48346.11
505.88	48404.62
506.06	48247.80
506.23	48697.19
506.41	48725.27
506.58	48690.16
506.76	48886.77
506.93	49275.30
507.11	48933.58
507.28	49708.30
507.46	49813.62
507.63	49378.28
507.81	49888.52
507.98	49652.12
508.16	49556.16
508.33	49621.70
508.50	50143.64
508.68	50571.96
508.85	50679.62
509.03	50710.05
509.20	50651.53
509.38	50651.53
509.55	50997.93
509.73	50958.14
509.90	51126.66
510.08	51489.45
510.25	51070.49
510.42	51320.93
510.60	51805.42
510.77	51222.62
510.95	51456.68
511.12	51508.17
511.30	51782.01
511.47	52301.61
511.64	51948.19
511.82	52432.68
511.99	52240.76
512.17	52238.42
512.34	52486.51
512.51	53085.69
512.69	52830.57
512.86	52711.20
513.04	52931.22
513.21	52903.13
513.38	52807.17
513.56	52928.87
513.73	53076.33
513.90	53158.25
514.08	53294.00
514.25	53317.40
514.43	53567.84
514.60	53504.65
514.77	53448.47
514.95	53389.96
515.12	53703.59
515.29	53804.24
515.47	54031.27
515.64	54333.20
515.81	54141.27
515.99	54066.38
516.16	54321.49
516.33	54258.30
516.51	54555.55
516.68	54351.92
516.85	54525.12
517.03	54986.21
517.20	54550.87
517.37	54827.05
517.54	54866.84
517.72	54848.11
517.89	54721.72
518.06	55009.61
518.24	55079.83
518.41	54913.65
518.58	55292.82
518.75	54873.86
518.93	55173.45
519.10	55281.11
519.27	55585.38
519.45	55526.87
519.62	55613.47
519.79	55449.63
519.96	55650.92
520.14	55547.93
520.31	55444.95
520.48	55716.45
520.65	55807.73
520.83	56060.51
521.00	56163.50
521.17	55941.14
521.34	55997.32
521.52	56266.48
521.69	56259.46
521.86	55887.31
522.03	56184.56
522.20	56502.87
522.38	56552.02
522.55	56704.16
522.72	56788.42
522.89	56640.96
523.07	56807.14
523.24	56666.71
523.41	56994.39
523.58	56603.52
523.75	56870.34
523.92	56839.91
524.10	56919.49
524.27	57350.15
524.44	57219.08
524.61	57275.25
524.78	57179.29
524.96	57312.70
525.13	57223.76
525.30	57661.44
525.47	57729.31
525.64	57427.38
525.81	57748.04
525.98	57719.95
526.16	57518.67
526.33	57773.78
526.50	58061.67
526.67	57813.57
526.84	57855.70
527.01	57942.30
527.18	57963.37
527.36	58061.67
527.53	57998.48
527.70	58337.85
527.87	58344.87
528.04	58223.17
528.21	58487.65
528.38	58436.16
528.55	58379.98
528.72	58312.11
528.89	58534.46
529.07	58267.64
529.24	58361.26
529.41	58679.57
529.58	58625.74
529.75	58574.25
529.92	58592.97
530.09	58808.30
530.26	58817.66
530.43	58768.51
530.60	58754.47
530.77	58885.54
530.94	59047.04
531.11	58915.96
531.28	58986.18
531.46	59182.79
531.63	59103.21
531.80	59032.99
531.97	58939.37
532.14	59194.49
532.31	59075.12
532.48	59311.52
532.65	59423.86
532.82	59320.88
532.99	59398.12
533.16	59187.47
533.33	59255.34
533.50	59798.35
533.67	59517.48
533.84	59571.32
534.01	59465.99
534.18	59487.06
534.35	59882.61
534.52	59721.11
534.69	60055.81
534.86	59739.83
535.03	59494.08
535.20	59765.58
535.37	59992.61
535.54	60140.07
535.71	59866.22
535.88	59994.95
536.05	60065.17
536.22	59840.48
536.38	60144.75
536.55	60231.35
536.72	60413.91
536.89	60458.38
537.06	60458.38
537.23	60374.12
537.40	60353.05
537.57	60362.42
537.74	60243.05
537.91	60533.28
538.08	60348.37
538.25	60303.90
538.42	60528.59
538.59	60652.64
538.75	60493.49
538.92	60704.13
539.09	60802.44
539.26	60598.81
539.43	60552.00
539.60	60757.97
539.77	60793.07
539.94	60963.93
540.11	61024.79
540.28	61031.81
540.44	61041.17
540.61	60985.00
540.78	61050.53
540.95	60942.87
541.12	61087.98
541.29	60970.96
541.46	61102.03
541.62	61123.09
541.79	61333.74
541.96	61015.43
542.13	61237.78
542.30	61340.76
542.47	61488.21
542.63	61371.19
542.80	61490.55
542.97	61666.09
543.14	61773.76
543.31	61642.69
543.48	61731.63
543.64	61991.43
543.81	61652.05
543.98	61787.80
544.15	61808.87
544.32	62040.58
544.48	62143.56
544.65	62101.43
544.82	62056.96
544.99	61808.87
545.16	62049.94
545.32	61673.12
545.49	62223.14
545.66	62293.36
545.83	62342.51
546.00	62443.15
546.16	62443.15
546.33	62340.17
546.50	62171.65
546.67	62248.89
546.83	61839.29
547.00	62117.82
547.17	62195.06
547.34	62223.14
547.50	62398.68
547.67	62473.58
547.84	62595.29
548.00	62475.92
548.17	62812.96
548.34	62443.15
548.51	62501.67
548.67	62604.65
548.84	62447.83
549.01	62340.17
549.18	62550.82
549.34	62775.51
549.51	62674.87
549.68	62817.64
549.84	62681.89
550.01	62719.34
550.18	62546.14
550.34	62824.66
550.51	62702.95
550.68	62712.31
550.84	62869.13
551.01	63070.42
551.18	62665.50
551.34	62574.22
551.51	62672.52
551.68	63063.39
551.84	62812.96
552.01	62789.55
552.18	62972.11
552.34	63007.22
552.51	63126.59
552.68	63152.33
552.84	63164.04
553.01	63208.51
553.18	63126.59
553.34	63224.89
553.51	62953.39
553.67	63068.08
553.84	63285.75
554.01	63510.44
554.17	63381.71
554.34	63264.68
554.51	63496.39
554.67	63458.94
554.84	63208.51
555.00	63262.34
555.17	63224.89
555.33	63421.50
555.50	63231.91
555.67	63454.26
555.83	63557.25
556.00	63440.22
556.16	63519.80
556.33	63407.45
556.50	63435.54
556.66	63480.01
556.83	63430.86
556.99	63554.91
557.16	63805.34
557.32	63957.48
557.49	63854.50
557.65	63484.69
557.82	63571.29
557.98	63575.97
558.15	63608.74
558.32	63819.39
558.48	63721.08
558.65	63854.50
558.81	63805.34
558.98	64058.12
559.14	64044.08
559.31	64067.48
559.47	63887.26
559.64	63936.41
559.80	63889.60
559.97	63945.78
560.13	63786.62
560.30	64055.78
560.46	64023.01
560.63	63969.18
560.79	64224.30
560.96	64135.36
561.12	64032.38
561.29	63959.82
561.45	64158.76
561.61	64126.00
561.78	64086.21
561.94	64238.34
562.11	64371.75
562.27	64355.37
562.44	64228.98
562.60	64505.16
562.77	64324.94
562.93	64079.19
563.10	64156.42
563.26	64137.70
563.42	64147.06
563.59	64163.45
563.75	64257.07
563.92	64528.57
564.08	64397.50
564.24	64486.44
564.41	64306.22
564.57	64308.56
564.74	64346.01
564.90	64320.26
565.07	64324.94
565.23	64362.39
565.39	64287.49
565.56	64647.94
565.72	64399.84
565.88	64381.12
566.05	64537.93
566.21	64264.09
566.38	64390.48
566.54	64367.07
566.70	64507.50
566.87	64652.62
567.03	64661.98
567.19	64860.93
567.36	64683.04
567.52	64505.16
567.68	64615.17
567.85	64451.33
568.01	64612.83
568.17	64554.32
568.34	64624.53
568.50	64631.55
568.66	64734.54
568.83	64722.83
568.99	64451.33
569.15	64664.32
569.32	64783.69
569.48	64699.43
569.64	64678.36
569.81	64547.29
569.97	64495.80
570.13	64821.14
570.30	64533.25
570.46	64631.55
570.62	64851.56
570.78	64619.85
570.95	64647.94
571.11	64851.56
571.27	64774.33
571.43	64626.87
571.60	64779.01
571.76	64629.21
571.92	64846.88
572.09	64851.56
572.25	64874.97
572.41	64741.56
572.57	64830.50
572.74	64863.27
572.90	64893.69
573.06	64811.77
573.22	64816.46
573.38	64774.33
573.55	64800.07
573.71	65186.26
573.87	64940.50
574.03	64830.50
574.20	65104.34
574.36	64879.65
574.52	65102.00
574.68	64947.53
574.84	64919.44
575.01	64975.61
575.17	65069.23
575.33	65020.08
575.49	64872.63
575.65	65144.13
575.82	65022.42
575.98	64994.34
576.14	65284.56
576.30	65125.41
576.46	64797.73
576.62	64851.56
576.79	65144.13
576.95	64924.12
577.11	64968.59
577.27	65123.07
577.43	65230.73
577.59	65141.79
577.75	65125.41
577.92	65062.21
578.08	65036.47
578.24	65050.51
578.40	65008.38
578.56	64963.91
578.72	65029.44
578.88	65410.95
579.04	65270.52
579.21	65190.94
579.37	65261.16
579.53	65251.80
579.69	65034.13
579.85	65022.42
580.01	65214.35
580.17	65162.85
580.33	65132.43
580.49	65209.67
580.65	65343.08
580.82	65261.16
580.98	65094.98
581.14	65326.69
581.30	65373.50
581.46	65181.58
581.62	65193.28
581.78	65125.41
581.94	65223.71
582.10	65134.77
582.26	65186.26
582.42	65029.44
582.58	65139.45
582.74	65256.48
582.90	65317.33
583.06	65336.05
583.22	65249.45
583.38	65417.97
583.54	65244.77
583.70	65165.20
583.86	65270.52
584.02	65137.11
584.18	65254.14
584.34	65375.84
584.50	65343.08
584.66	65371.16
584.82	65076.26
584.98	65226.05
585.14	65048.17
585.30	65174.56
585.46	65415.63
585.62	65069.23
585.78	65455.42
585.94	65254.14
586.10	65462.44
586.26	65422.65
586.42	65535.00
586.58	65424.99
586.74	65312.65
586.90	65340.74
587.06	65228.39
587.22	65403.93
587.38	65408.61
