SpectraSuite Data File
++++++++++++++++++++++++++++++++++++
Date: Thu Oct 24 13:21:01 EDT 2013
User: stostad
Dark Spectrum Present: No
Reference Spectrum Present: No
Number of Sampled Component Spectra: 1
Spectrometers: USB2+H05261
Integration Time (usec): 100000 (USB2+H05261)
Spectra Averaged: 1 (USB2+H05261)
Boxcar Smoothing: 0 (USB2+H05261)
Correct for Electrical Dark: No (USB2+H05261)
Strobe/Lamp Enabled: No (USB2+H05261)
Correct for Detector Non-linearity: No (USB2+H05261)
Correct for Stray Light: No (USB2+H05261)
Number of Pixels in Processed Spectrum: 2048
>>>>>Begin Processed Spectral Data<<<<<
365.73	594.50
365.92	594.50
366.12	594.50
366.32	442.36
366.52	472.79
366.72	461.09
366.91	510.24
367.11	395.55
367.31	444.70
367.51	425.98
367.70	470.45
367.90	477.47
368.10	486.83
368.30	425.98
368.49	386.19
368.69	458.74
368.89	573.43
369.09	425.98
369.28	437.68
369.48	463.43
369.68	491.51
369.87	484.49
370.07	505.56
370.27	535.98
370.47	517.26
370.66	561.73
370.86	491.51
371.06	533.64
371.25	599.18
371.45	587.47
371.65	627.26
371.84	582.79
372.04	514.92
372.24	585.13
372.44	566.41
372.63	720.88
372.83	657.69
373.03	622.58
373.22	578.11
373.42	655.35
373.62	596.84
373.81	580.45
374.01	580.45
374.21	573.43
374.40	629.60
374.60	667.05
374.79	631.94
374.99	613.22
375.19	650.67
375.38	692.80
375.58	692.80
375.78	617.90
375.97	599.18
376.17	653.01
376.37	629.60
376.56	650.67
376.76	559.39
376.95	578.11
377.15	634.29
377.35	587.47
377.54	573.43
377.74	557.05
377.93	613.22
378.13	638.97
378.33	613.22
378.52	603.86
378.72	671.73
378.91	704.50
379.11	580.45
379.31	622.58
379.50	613.22
379.70	629.60
379.89	645.99
380.09	648.33
380.28	580.45
380.48	615.56
380.68	664.71
380.87	589.82
381.07	660.03
381.26	585.13
381.46	585.13
381.65	585.13
381.85	641.31
382.04	641.31
382.24	603.86
382.43	653.01
382.63	624.92
382.83	603.86
383.02	662.37
383.22	723.23
383.41	636.63
383.61	648.33
383.80	610.88
384.00	578.11
384.19	610.88
384.39	681.10
384.58	697.48
384.78	601.52
384.97	648.33
385.17	678.76
385.36	648.33
385.56	613.22
385.75	643.65
385.95	613.22
386.14	552.37
386.34	559.39
386.53	615.56
386.72	564.07
386.92	554.71
387.11	648.33
387.31	692.80
387.50	540.66
387.70	608.54
387.89	594.50
388.09	608.54
388.28	648.33
388.48	578.11
388.67	575.77
388.86	535.98
389.06	571.09
389.25	631.94
389.45	564.07
389.64	669.39
389.84	674.07
390.03	641.31
390.22	610.88
390.42	622.58
390.61	613.22
390.81	662.37
391.00	678.76
391.19	650.67
391.39	582.79
391.58	599.18
391.78	601.52
391.97	667.05
392.16	608.54
392.36	613.22
392.55	624.92
392.75	631.94
392.94	603.86
393.13	610.88
393.33	627.26
393.52	636.63
393.71	557.05
393.91	568.75
394.10	603.86
394.29	589.82
394.49	638.97
394.68	596.84
394.88	629.60
395.07	671.73
395.26	629.60
395.46	613.22
395.65	594.50
395.84	636.63
396.04	777.06
396.23	674.07
396.42	660.03
396.62	662.37
396.81	690.46
397.00	594.50
397.19	662.37
397.39	678.76
397.58	653.01
397.77	667.05
397.97	594.50
398.16	671.73
398.35	568.75
398.55	617.90
398.74	585.13
398.93	678.76
399.12	634.29
399.32	564.07
399.51	596.84
399.70	629.60
399.90	629.60
400.09	606.20
400.28	669.39
400.47	674.07
400.67	678.76
400.86	664.71
401.05	596.84
401.24	650.67
401.44	603.86
401.63	662.37
401.82	631.94
402.01	601.52
402.21	608.54
402.40	676.41
402.59	676.41
402.78	622.58
402.97	634.29
403.17	643.65
403.36	723.23
403.55	669.39
403.74	662.37
403.93	671.73
404.13	695.14
404.32	683.44
404.51	660.03
404.70	648.33
404.89	674.07
405.09	660.03
405.28	645.99
405.47	592.16
405.66	643.65
405.85	634.29
406.05	585.13
406.24	585.13
406.43	596.84
406.62	650.67
406.81	674.07
407.00	610.88
407.20	580.45
407.39	636.63
407.58	585.13
407.77	594.50
407.96	706.84
408.15	615.56
408.34	603.86
408.54	603.86
408.73	608.54
408.92	589.82
409.11	692.80
409.30	664.71
409.49	653.01
409.68	620.24
409.87	657.69
410.07	653.01
410.26	650.67
410.45	589.82
410.64	653.01
410.83	657.69
411.02	592.16
411.21	653.01
411.40	615.56
411.59	582.79
411.78	643.65
411.98	631.94
412.17	660.03
412.36	580.45
412.55	620.24
412.74	662.37
412.93	631.94
413.12	608.54
413.31	608.54
413.50	678.76
413.69	664.71
413.88	631.94
414.07	617.90
414.26	575.77
414.45	594.50
414.64	615.56
414.83	629.60
415.02	650.67
415.22	627.26
415.41	627.26
415.60	585.13
415.79	622.58
415.98	622.58
416.17	645.99
416.36	624.92
416.55	582.79
416.74	653.01
416.93	610.88
417.12	629.60
417.31	596.84
417.50	550.03
417.69	608.54
417.88	706.84
418.07	636.63
418.26	727.91
418.45	589.82
418.64	650.67
418.83	617.90
419.02	627.26
419.21	573.43
419.39	624.92
419.58	636.63
419.77	655.35
419.96	650.67
420.15	638.97
420.34	622.58
420.53	662.37
420.72	692.80
420.91	636.63
421.10	641.31
421.29	620.24
421.48	620.24
421.67	634.29
421.86	564.07
422.05	589.82
422.24	599.18
422.43	580.45
422.61	622.58
422.80	674.07
422.99	624.92
423.18	645.99
423.37	638.97
423.56	676.41
423.75	606.20
423.94	671.73
424.13	592.16
424.32	627.26
424.50	559.39
424.69	634.29
424.88	681.10
425.07	674.07
425.26	695.14
425.45	690.46
425.64	650.67
425.83	634.29
426.01	622.58
426.20	653.01
426.39	603.86
426.58	645.99
426.77	624.92
426.96	711.52
427.15	606.20
427.33	641.31
427.52	596.84
427.71	678.76
427.90	613.22
428.09	641.31
428.28	667.05
428.46	629.60
428.65	645.99
428.84	575.77
429.03	739.61
429.22	664.71
429.40	662.37
429.59	653.01
429.78	592.16
429.97	622.58
430.16	580.45
430.34	603.86
430.53	627.26
430.72	648.33
430.91	638.97
431.10	704.50
431.28	596.84
431.47	697.48
431.66	599.18
431.85	716.20
432.03	681.10
432.22	641.31
432.41	613.22
432.60	660.03
432.79	669.39
432.97	688.12
433.16	643.65
433.35	674.07
433.54	671.73
433.72	634.29
433.91	629.60
434.10	653.01
434.28	653.01
434.47	641.31
434.66	678.76
434.85	723.23
435.03	849.61
435.22	1076.65
435.41	1144.52
435.59	1078.99
435.78	983.02
435.97	877.70
436.16	819.19
436.34	655.35
436.53	613.22
436.72	606.20
436.90	681.10
437.09	622.58
437.28	664.71
437.46	650.67
437.65	685.78
437.84	688.12
438.02	674.07
438.21	641.31
438.40	671.73
438.58	615.56
438.77	594.50
438.96	695.14
439.14	638.97
439.33	676.41
439.52	671.73
439.70	617.90
439.89	667.05
440.08	662.37
440.26	662.37
440.45	638.97
440.63	631.94
440.82	566.41
441.01	620.24
441.19	662.37
441.38	720.88
441.57	697.48
441.75	613.22
441.94	589.82
442.12	592.16
442.31	559.39
442.50	681.10
442.68	594.50
442.87	653.01
443.05	685.78
443.24	589.82
443.43	669.39
443.61	669.39
443.80	676.41
443.98	669.39
444.17	671.73
444.35	723.23
444.54	697.48
444.73	692.80
444.91	688.12
445.10	596.84
445.28	681.10
445.47	653.01
445.65	610.88
445.84	608.54
446.02	603.86
446.21	662.37
446.39	645.99
446.58	627.26
446.77	643.65
446.95	713.86
447.14	681.10
447.32	671.73
447.51	732.59
447.69	678.76
447.88	624.92
448.06	727.91
448.25	622.58
448.43	650.67
448.62	594.50
448.80	645.99
448.99	699.82
449.17	596.84
449.36	650.67
449.54	695.14
449.73	587.47
449.91	610.88
450.10	638.97
450.28	683.44
450.46	753.65
450.65	667.05
450.83	660.03
451.02	631.94
451.20	636.63
451.39	671.73
451.57	671.73
451.76	589.82
451.94	582.79
452.13	685.78
452.31	641.31
452.49	641.31
452.68	617.90
452.86	578.11
453.05	685.78
453.23	636.63
453.42	631.94
453.60	606.20
453.78	669.39
453.97	704.50
454.15	596.84
454.34	702.16
454.52	596.84
454.70	655.35
454.89	653.01
455.07	603.86
455.26	664.71
455.44	648.33
455.62	718.54
455.81	589.82
455.99	683.44
456.17	690.46
456.36	690.46
456.54	617.90
456.73	690.46
456.91	692.80
457.09	594.50
457.28	692.80
457.46	641.31
457.64	631.94
457.83	699.82
458.01	664.71
458.19	641.31
458.38	683.44
458.56	681.10
458.74	638.97
458.93	657.69
459.11	636.63
459.29	594.50
459.48	648.33
459.66	655.35
459.84	617.90
460.03	683.44
460.21	613.22
460.39	615.56
460.57	641.31
460.76	660.03
460.94	685.78
461.12	662.37
461.31	660.03
461.49	653.01
461.67	648.33
461.85	716.20
462.04	667.05
462.22	971.32
462.40	634.29
462.59	713.86
462.77	690.46
462.95	669.39
463.13	596.84
463.32	617.90
463.50	648.33
463.68	613.22
463.86	650.67
464.05	641.31
464.23	667.05
464.41	606.20
464.59	599.18
464.78	634.29
464.96	648.33
465.14	627.26
465.32	653.01
465.50	613.22
465.69	599.18
465.87	596.84
466.05	678.76
466.23	599.18
466.41	610.88
466.60	645.99
466.78	643.65
466.96	603.86
467.14	653.01
467.32	660.03
467.51	585.13
467.69	711.52
467.87	636.63
468.05	559.39
468.23	688.12
468.41	650.67
468.60	664.71
468.78	667.05
468.96	657.69
469.14	641.31
469.32	631.94
469.50	683.44
469.69	716.20
469.87	706.84
470.05	650.67
470.23	660.03
470.41	634.29
470.59	753.65
470.77	683.44
470.95	599.18
471.14	622.58
471.32	725.57
471.50	671.73
471.68	603.86
471.86	638.97
472.04	631.94
472.22	627.26
472.40	631.94
472.58	681.10
472.77	671.73
472.95	678.76
473.13	650.67
473.31	645.99
473.49	674.07
473.67	692.80
473.85	608.54
474.03	624.92
474.21	615.56
474.39	622.58
474.57	699.82
474.75	638.97
474.93	636.63
475.12	638.97
475.30	645.99
475.48	575.77
475.66	617.90
475.84	657.69
476.02	727.91
476.20	674.07
476.38	650.67
476.56	683.44
476.74	596.84
476.92	641.31
477.10	568.75
477.28	671.73
477.46	681.10
477.64	631.94
477.82	610.88
478.00	589.82
478.18	695.14
478.36	582.79
478.54	704.50
478.72	662.37
478.90	662.37
479.08	634.29
479.26	706.84
479.44	660.03
479.62	711.52
479.80	641.31
479.98	671.73
480.16	650.67
480.34	622.58
480.52	585.13
480.70	697.48
480.88	650.67
481.06	664.71
481.24	636.63
481.41	631.94
481.59	641.31
481.77	578.11
481.95	653.01
482.13	704.50
482.31	671.73
482.49	613.22
482.67	678.76
482.85	662.37
483.03	641.31
483.21	564.07
483.39	580.45
483.57	627.26
483.74	589.82
483.92	622.58
484.10	713.86
484.28	678.76
484.46	723.23
484.64	627.26
484.82	669.39
485.00	760.67
485.18	657.69
485.35	678.76
485.53	723.23
485.71	720.88
485.89	706.84
486.07	667.05
486.25	692.80
486.43	706.84
486.61	685.78
486.78	723.23
486.96	791.10
487.14	706.84
487.32	653.01
487.50	704.50
487.68	746.63
487.85	755.99
488.03	725.57
488.21	624.92
488.39	730.25
488.57	748.97
488.75	660.03
488.92	702.16
489.10	765.36
489.28	760.67
489.46	711.52
489.64	732.59
489.81	739.61
489.99	697.48
490.17	725.57
490.35	711.52
490.53	751.31
490.70	727.91
490.88	660.03
491.06	734.93
491.24	636.63
491.41	688.12
491.59	767.70
491.77	725.57
491.95	706.84
492.13	636.63
492.30	667.05
492.48	765.36
492.66	704.50
492.84	702.16
493.01	671.73
493.19	645.99
493.37	706.84
493.54	711.52
493.72	683.44
493.90	772.38
494.08	688.12
494.25	638.97
494.43	697.48
494.61	683.44
494.79	678.76
494.96	737.27
495.14	667.05
495.32	699.82
495.49	671.73
495.67	671.73
495.85	744.29
496.02	667.05
496.20	720.88
496.38	678.76
496.55	734.93
496.73	709.18
496.91	660.03
497.09	664.71
497.26	678.76
497.44	676.41
497.62	671.73
497.79	589.82
497.97	697.48
498.14	648.33
498.32	660.03
498.50	629.60
498.67	688.12
498.85	699.82
499.03	688.12
499.20	727.91
499.38	629.60
499.56	674.07
499.73	725.57
499.91	608.54
500.08	695.14
500.26	695.14
500.44	613.22
500.61	608.54
500.79	596.84
500.97	674.07
501.14	641.31
501.32	678.76
501.49	678.76
501.67	629.60
501.84	664.71
502.02	648.33
502.20	676.41
502.37	629.60
502.55	741.95
502.72	617.90
502.90	697.48
503.07	706.84
503.25	674.07
503.43	592.16
503.60	674.07
503.78	650.67
503.95	669.39
504.13	601.52
504.30	624.92
504.48	739.61
504.65	695.14
504.83	660.03
505.01	615.56
505.18	667.05
505.36	650.67
505.53	608.54
505.71	585.13
505.88	634.29
506.06	613.22
506.23	603.86
506.41	620.24
506.58	636.63
506.76	676.41
506.93	608.54
507.11	615.56
507.28	582.79
507.46	631.94
507.63	676.41
507.81	685.78
507.98	695.14
508.16	674.07
508.33	685.78
508.50	629.60
508.68	657.69
508.85	580.45
509.03	711.52
509.20	627.26
509.38	550.03
509.55	674.07
509.73	683.44
509.90	667.05
510.08	624.92
510.25	699.82
510.42	634.29
510.60	627.26
510.77	641.31
510.95	669.39
511.12	683.44
511.30	657.69
511.47	676.41
511.64	681.10
511.82	669.39
511.99	690.46
512.17	716.20
512.34	634.29
512.51	667.05
512.69	655.35
512.86	657.69
513.04	624.92
513.21	695.14
513.38	643.65
513.56	615.56
513.73	608.54
513.90	669.39
514.08	641.31
514.25	681.10
514.43	716.20
514.60	660.03
514.77	638.97
514.95	606.20
515.12	674.07
515.29	617.90
515.47	589.82
515.64	653.01
515.81	622.58
515.99	662.37
516.16	681.10
516.33	561.73
516.51	594.50
516.68	627.26
516.85	627.26
517.03	585.13
517.20	641.31
517.37	648.33
517.54	610.88
517.72	568.75
517.89	599.18
518.06	653.01
518.24	683.44
518.41	653.01
518.58	711.52
518.75	695.14
518.93	643.65
519.10	667.05
519.27	606.20
519.45	662.37
519.62	615.56
519.79	671.73
519.96	613.22
520.14	578.11
520.31	664.71
520.48	592.16
520.65	653.01
520.83	676.41
521.00	667.05
521.17	720.88
521.34	716.20
521.52	564.07
521.69	716.20
521.86	655.35
522.03	641.31
522.20	669.39
522.38	638.97
522.55	653.01
522.72	599.18
522.89	599.18
523.07	657.69
523.24	606.20
523.41	617.90
523.58	636.63
523.75	648.33
523.92	606.20
524.10	669.39
524.27	631.94
524.44	655.35
524.61	629.60
524.78	704.50
524.96	636.63
525.13	695.14
525.30	678.76
525.47	601.52
525.64	608.54
525.81	638.97
525.98	608.54
526.16	643.65
526.33	664.71
526.50	641.31
526.67	643.65
526.84	653.01
527.01	681.10
527.18	641.31
527.36	622.58
527.53	636.63
527.70	601.52
527.87	671.73
528.04	671.73
528.21	650.67
528.38	641.31
528.55	667.05
528.72	636.63
528.89	608.54
529.07	662.37
529.24	681.10
529.41	683.44
529.58	627.26
529.75	674.07
529.92	685.78
530.09	592.16
530.26	650.67
530.43	706.84
530.60	674.07
530.77	678.76
530.94	606.20
531.11	660.03
531.28	683.44
531.46	608.54
531.63	655.35
531.80	648.33
531.97	615.56
532.14	699.82
532.31	704.50
532.48	669.39
532.65	636.63
532.82	662.37
532.99	631.94
533.16	636.63
533.33	674.07
533.50	627.26
533.67	653.01
533.84	732.59
534.01	683.44
534.18	660.03
534.35	655.35
534.52	744.29
534.69	737.27
534.86	669.39
535.03	641.31
535.20	667.05
535.37	688.12
535.54	664.71
535.71	648.33
535.88	704.50
536.05	725.57
536.22	795.78
536.38	678.76
536.55	716.20
536.72	674.07
536.89	695.14
537.06	681.10
537.23	737.27
537.40	711.52
537.57	681.10
537.74	744.29
537.91	751.31
538.08	685.78
538.25	683.44
538.42	798.12
538.59	746.63
538.75	732.59
538.92	767.70
539.09	678.76
539.26	786.42
539.43	833.23
539.60	814.51
539.77	922.17
539.94	905.79
540.11	868.34
540.28	947.92
540.44	938.55
540.61	1027.50
540.78	971.32
540.95	1097.71
541.12	1174.95
541.29	1191.33
541.46	1280.27
541.62	1324.74
541.79	1280.27
541.96	1327.08
542.13	1289.64
542.30	1291.98
542.47	1158.57
542.63	1280.27
542.80	1214.74
542.97	1181.97
543.14	1219.42
543.31	1238.14
543.48	1273.25
543.64	1259.21
543.81	1233.46
543.98	1167.93
544.15	1196.01
544.32	1242.82
544.48	1193.67
544.65	1207.72
544.82	1186.65
544.99	1121.12
545.16	1177.29
545.32	1313.04
545.49	1614.97
545.66	1989.46
545.83	2186.06
546.00	1912.22
546.16	1598.59
546.33	1385.60
546.50	1385.60
546.67	1252.19
546.83	1174.95
547.00	1022.81
547.17	978.34
547.34	917.49
547.50	980.68
547.67	954.94
547.84	978.34
548.00	957.28
548.17	908.13
548.34	952.60
548.51	915.15
548.67	905.79
548.84	1013.45
549.01	880.04
549.18	868.34
549.34	844.93
549.51	835.57
549.68	903.45
549.84	896.43
550.01	830.89
550.18	863.66
550.34	802.80
550.51	800.46
550.68	912.81
550.84	828.55
551.01	800.46
551.18	816.85
551.34	816.85
551.51	793.44
551.68	753.65
551.84	844.93
552.01	800.46
552.18	711.52
552.34	763.01
552.51	833.23
552.68	730.25
552.84	795.78
553.01	744.29
553.18	704.50
553.34	751.31
553.51	744.29
553.67	711.52
553.84	718.54
554.01	723.23
554.17	692.80
554.34	688.12
554.51	676.41
554.67	774.72
554.84	706.84
555.00	641.31
555.17	704.50
555.33	681.10
555.50	697.48
555.67	702.16
555.83	704.50
556.00	720.88
556.16	718.54
556.33	713.86
556.50	641.31
556.66	690.46
556.83	629.60
556.99	674.07
557.16	653.01
557.32	622.58
557.49	711.52
557.65	685.78
557.82	697.48
557.98	695.14
558.15	662.37
558.32	641.31
558.48	643.65
558.65	667.05
558.81	636.63
558.98	678.76
559.14	676.41
559.31	638.97
559.47	690.46
559.64	596.84
559.80	688.12
559.97	664.71
560.13	629.60
560.30	641.31
560.46	664.71
560.63	648.33
560.79	688.12
560.96	683.44
561.12	683.44
561.29	648.33
561.45	704.50
561.61	671.73
561.78	821.53
561.94	683.44
562.11	622.58
562.27	653.01
562.44	685.78
562.60	634.29
562.77	613.22
562.93	676.41
563.10	629.60
563.26	711.52
563.42	606.20
563.59	648.33
563.75	638.97
563.92	634.29
564.08	692.80
564.24	596.84
564.41	681.10
564.57	620.24
564.74	638.97
564.90	671.73
565.07	688.12
565.23	664.71
565.39	695.14
565.56	636.63
565.72	622.58
565.88	678.76
566.05	699.82
566.21	617.90
566.38	596.84
566.54	650.67
566.70	643.65
566.87	641.31
567.03	638.97
567.19	641.31
567.36	669.39
567.52	685.78
567.68	631.94
567.85	664.71
568.01	631.94
568.17	685.78
568.34	699.82
568.50	681.10
568.66	727.91
568.83	711.52
568.99	690.46
569.15	636.63
569.32	622.58
569.48	610.88
569.64	599.18
569.81	617.90
569.97	669.39
570.13	669.39
570.30	655.35
570.46	671.73
570.62	664.71
570.78	641.31
570.95	653.01
571.11	674.07
571.27	641.31
571.43	671.73
571.60	678.76
571.76	634.29
571.92	660.03
572.09	681.10
572.25	594.50
572.41	650.67
572.57	676.41
572.74	617.90
572.90	653.01
573.06	624.92
573.22	681.10
573.38	704.50
573.55	561.73
573.71	669.39
573.87	662.37
574.03	578.11
574.20	660.03
574.36	755.99
574.52	622.58
574.68	650.67
574.84	667.05
575.01	660.03
575.17	681.10
575.33	697.48
575.49	671.73
575.65	685.78
575.82	657.69
575.98	669.39
576.14	683.44
576.30	678.76
576.46	828.55
576.62	858.98
576.79	901.11
576.95	887.06
577.11	842.59
577.27	791.10
577.43	786.42
577.59	781.74
577.75	629.60
577.92	713.86
578.08	732.59
578.24	674.07
578.40	730.25
578.56	753.65
578.72	875.36
578.88	992.39
579.04	875.36
579.21	835.57
579.37	784.08
579.53	734.93
579.69	795.78
579.85	781.74
580.01	779.40
580.17	704.50
580.33	744.29
580.49	821.53
580.65	763.01
580.82	709.18
580.98	763.01
581.14	751.31
581.30	716.20
581.46	807.48
581.62	816.85
581.78	758.33
581.94	788.76
582.10	732.59
582.26	699.82
582.42	795.78
582.58	760.67
582.74	807.48
582.90	840.25
583.06	828.55
583.22	814.51
583.38	809.83
583.54	821.53
583.70	784.08
583.86	765.36
584.02	795.78
584.18	786.42
584.34	802.80
584.50	772.38
584.66	765.36
584.82	734.93
584.98	770.04
585.14	763.01
585.30	772.38
585.46	720.88
585.62	741.95
585.78	779.40
585.94	723.23
586.10	713.86
586.26	755.99
586.42	828.55
586.58	807.48
586.74	802.80
586.90	894.08
587.06	917.49
587.22	866.00
587.38	835.57
587.54	830.89
587.70	877.70
587.86	866.00
588.02	786.42
588.18	739.61
588.34	795.78
588.49	763.01
588.65	683.44
588.81	678.76
588.97	737.27
589.13	702.16
589.29	718.54
589.45	751.31
589.61	704.50
589.77	767.70
589.93	765.36
590.08	744.29
590.24	741.95
590.40	739.61
590.56	763.01
590.72	723.23
590.88	697.48
591.04	711.52
591.20	772.38
591.35	791.10
591.51	690.46
591.67	723.23
591.83	692.80
591.99	718.54
592.15	730.25
592.31	730.25
592.46	805.14
592.62	807.48
592.78	716.20
592.94	772.38
593.10	795.78
593.26	809.83
593.41	800.46
593.57	744.29
593.73	720.88
593.89	674.07
594.05	746.63
594.20	760.67
594.36	732.59
594.52	671.73
594.68	690.46
594.84	739.61
594.99	716.20
595.15	725.57
595.31	706.84
595.47	697.48
595.62	681.10
595.78	734.93
595.94	678.76
596.10	697.48
596.25	643.65
596.41	711.52
596.57	702.16
596.73	711.52
596.88	624.92
597.04	664.71
597.20	727.91
597.36	709.18
597.51	718.54
597.67	667.05
597.83	706.84
597.99	713.86
598.14	755.99
598.30	751.31
598.46	643.65
598.61	690.46
598.77	732.59
598.93	690.46
599.09	716.20
599.24	711.52
599.40	814.51
599.56	807.48
599.71	697.48
599.87	732.59
600.03	723.23
600.18	786.42
600.34	763.01
600.50	741.95
600.65	772.38
600.81	723.23
600.97	669.39
601.12	655.35
601.28	695.14
601.44	667.05
601.59	653.01
601.75	655.35
601.91	697.48
602.06	716.20
602.22	690.46
602.37	631.94
602.53	690.46
602.69	629.60
602.84	720.88
603.00	758.33
603.16	737.27
603.31	685.78
603.47	660.03
603.62	669.39
603.78	741.95
603.94	650.67
604.09	732.59
604.25	688.12
604.40	725.57
604.56	601.52
604.71	681.10
604.87	718.54
605.03	706.84
605.18	662.37
605.34	781.74
605.49	751.31
605.65	671.73
605.80	699.82
605.96	720.88
606.12	709.18
606.27	753.65
606.43	699.82
606.58	662.37
606.74	784.08
606.89	751.31
607.05	716.20
607.20	681.10
607.36	720.88
607.51	706.84
607.67	727.91
607.82	713.86
607.98	800.46
608.13	737.27
608.29	812.17
608.44	807.48
608.60	746.63
608.75	802.80
608.91	723.23
609.06	809.83
609.22	861.32
609.37	929.19
609.53	812.17
609.68	933.87
609.84	926.85
