SpectraSuite Data File
++++++++++++++++++++++++++++++++++++
Date: Thu Oct 24 13:21:30 EDT 2013
User: stostad
Dark Spectrum Present: No
Reference Spectrum Present: No
Number of Sampled Component Spectra: 1
Spectrometers: USB2+H05261
Integration Time (usec): 100000 (USB2+H05261)
Spectra Averaged: 1 (USB2+H05261)
Boxcar Smoothing: 0 (USB2+H05261)
Correct for Electrical Dark: No (USB2+H05261)
Strobe/Lamp Enabled: No (USB2+H05261)
Correct for Detector Non-linearity: No (USB2+H05261)
Correct for Stray Light: No (USB2+H05261)
Number of Pixels in Processed Spectrum: 2048
>>>>>Begin Processed Spectral Data<<<<<
365.73	624.92
365.92	624.92
366.12	624.92
366.32	484.49
366.52	456.40
366.72	503.22
366.91	430.66
367.11	512.58
367.31	484.49
367.51	433.00
367.70	507.90
367.90	510.24
368.10	433.00
368.30	442.36
368.49	456.40
368.69	456.40
368.89	477.47
369.09	489.17
369.28	521.94
369.48	503.22
369.68	519.60
369.87	531.30
370.07	498.53
370.27	545.34
370.47	702.16
370.66	1076.65
370.86	1027.50
371.06	1102.39
371.25	1188.99
371.45	1191.33
371.65	1135.16
371.84	1170.27
372.04	1090.69
372.24	1160.91
372.44	1261.55
372.63	1191.33
372.83	1240.48
373.03	1287.29
373.22	1184.31
373.42	1247.51
373.62	1231.12
373.81	1294.32
374.01	1345.81
374.21	1296.66
374.40	1228.78
374.60	1266.23
374.79	1277.93
374.99	1418.36
375.19	1345.81
375.38	1390.28
375.58	1350.49
375.78	1406.66
375.97	1355.17
376.17	1385.60
376.37	1336.45
376.56	1399.64
376.76	1320.06
376.95	1366.87
377.15	1434.75
377.35	1486.24
377.54	1425.39
377.74	1432.41
377.93	1409.00
378.13	1451.13
378.33	1437.09
378.52	1488.58
378.72	1495.60
378.91	1516.67
379.11	1404.32
379.31	1465.18
379.50	1483.90
379.70	1511.99
379.89	1502.62
380.09	1481.56
380.28	1614.97
380.48	1462.83
380.68	1575.18
380.87	1612.63
381.07	1448.79
381.26	1591.56
381.46	1502.62
381.65	1570.50
381.85	1600.93
382.04	1591.56
382.24	1582.20
382.43	1612.63
382.63	1582.20
382.83	1629.01
383.02	1554.12
383.22	1727.32
383.41	1783.49
383.61	1668.80
383.80	1643.06
384.00	1631.35
384.19	1736.68
384.39	1799.87
384.58	1692.21
384.78	1748.38
384.97	1671.14
385.17	1746.04
385.36	1687.53
385.56	1783.49
385.75	1724.97
385.95	1708.59
386.14	1923.92
386.34	1788.17
386.53	1795.19
386.72	1886.47
386.92	1790.51
387.11	1914.56
387.31	1879.45
387.50	1760.08
387.70	1799.87
387.89	1909.88
388.09	1851.36
388.28	1944.99
388.48	1912.22
388.67	1959.03
388.86	1905.20
389.06	2019.88
389.25	1944.99
389.45	2008.18
389.64	1923.92
389.84	2050.31
390.03	2005.84
390.22	2059.67
390.42	2043.29
390.61	1865.41
390.81	2031.58
391.00	2033.93
391.19	2083.08
391.39	2099.46
391.58	2157.97
391.78	2195.42
391.97	2118.18
392.16	2176.70
392.36	2267.98
392.55	2272.66
392.75	2204.78
392.94	2333.51
393.13	2150.95
393.33	2197.76
393.52	2272.66
393.71	2275.00
393.91	2373.30
394.10	2342.88
394.29	2314.79
394.49	2331.17
394.68	2335.85
394.88	2382.67
395.07	2434.16
395.26	2410.75
395.46	2359.26
395.65	2345.22
395.84	2499.69
396.04	2527.78
396.23	2607.36
396.42	2462.24
396.62	2502.03
396.81	2560.55
397.00	2452.88
397.19	2518.42
397.39	2455.22
397.58	2691.62
397.77	2553.52
397.97	2642.46
398.16	2586.29
398.35	2686.94
398.55	2597.99
398.74	2679.91
398.93	2771.19
399.12	2612.04
399.32	2696.30
399.51	2768.85
399.70	2733.75
399.90	2827.37
400.09	2722.04
400.28	2843.75
400.47	2932.69
400.67	2937.37
400.86	2883.54
401.05	2853.11
401.24	2902.26
401.44	3049.72
401.63	3038.02
401.82	2923.33
402.01	2902.26
402.21	2988.86
402.40	3080.14
402.59	3077.80
402.78	3052.06
402.97	3045.04
403.17	3138.66
403.36	3141.00
403.55	3138.66
403.74	3309.52
403.93	3248.66
404.13	3328.24
404.32	3251.00
404.51	3234.62
404.70	3379.73
404.89	3281.43
405.09	3384.41
405.28	3342.28
405.47	3346.97
405.66	3386.76
405.85	3417.18
406.05	3440.59
406.24	3513.14
406.43	3438.25
406.62	3480.38
406.81	3508.46
407.00	3478.04
407.20	3597.40
407.39	3456.97
407.58	3684.00
407.77	3606.77
407.96	3630.17
408.15	3634.85
408.34	3667.62
408.54	3754.22
408.73	3815.07
408.92	3894.65
409.11	3948.48
409.30	3913.38
409.49	3943.80
409.68	3920.40
409.87	3854.86
410.07	4065.51
410.26	3988.27
410.45	3988.27
410.64	3983.59
410.83	4133.39
411.02	3950.82
411.21	4168.49
411.40	4236.37
411.59	4367.44
411.78	4121.68
411.98	4238.71
412.17	4334.67
412.36	4367.44
412.55	4542.98
412.74	4545.32
412.93	4458.72
413.12	4322.97
413.31	4592.13
413.50	4545.32
413.69	4690.43
413.88	4844.91
414.07	4723.20
414.26	4748.95
414.45	4791.08
414.64	4779.37
414.83	4833.21
415.02	4821.50
415.22	4952.57
415.41	5100.03
415.60	4978.32
415.79	4990.02
415.98	5102.37
416.17	5210.03
416.36	5160.88
416.55	5193.65
416.74	5380.89
416.93	5102.37
417.12	5317.70
417.31	5378.55
417.50	5359.83
417.69	5453.45
417.88	5465.15
418.07	5589.20
418.26	5572.82
418.45	5626.65
418.64	5799.85
418.83	5692.18
419.02	5865.38
419.21	5788.14
419.39	5849.00
419.58	5746.02
419.77	5589.20
419.96	5731.97
420.15	5870.06
420.34	5921.56
420.53	5877.09
420.72	5959.00
420.91	6171.99
421.10	6132.20
421.29	6092.41
421.48	6052.63
421.67	6057.31
421.86	6045.60
422.05	6043.26
422.24	6197.74
422.43	6129.86
422.61	6356.90
422.80	6445.84
422.99	6314.77
423.18	6305.40
423.37	6289.02
423.56	6242.21
423.75	6230.51
423.94	6157.95
424.13	5888.79
424.32	5914.53
424.50	6263.27
424.69	6436.47
424.88	6445.84
425.07	6251.57
425.26	6258.59
425.45	6326.47
425.64	6296.04
425.83	6326.47
426.01	6438.81
426.20	6579.25
426.39	6394.34
426.58	6520.73
426.77	6490.31
426.96	6410.73
427.15	6483.28
427.33	6705.63
427.52	6494.99
427.71	6644.78
427.90	6658.82
428.09	6806.28
428.28	6782.87
428.46	6761.81
428.65	6656.48
428.84	6857.77
429.03	6956.07
429.22	6864.79
429.40	6984.16
429.59	6857.77
429.78	6593.29
429.97	6612.01
430.16	6925.65
430.34	7314.17
430.53	7229.91
430.72	6918.62
430.91	7136.29
431.10	7033.31
431.28	7449.93
431.47	7246.30
431.66	7393.75
431.85	7173.74
432.03	7599.72
432.22	7454.61
432.41	7435.88
432.60	7349.28
432.79	7644.19
432.97	7456.95
433.16	7559.93
433.35	7557.59
433.54	7599.72
433.72	7805.69
433.91	7733.13
434.10	7796.32
434.28	7712.07
434.47	7962.50
434.66	7817.39
434.85	8039.74
435.03	7971.86
435.22	8170.81
435.41	8503.17
435.59	8278.47
435.78	8081.87
435.97	8226.98
436.16	8028.04
436.34	8091.23
436.53	8430.61
436.72	8493.80
436.90	8077.19
437.09	8271.45
437.28	8109.96
437.46	8231.66
437.65	8358.05
437.84	8461.04
438.02	8575.72
438.21	8468.06
438.40	8334.65
438.58	8744.24
438.77	8814.46
438.96	8648.28
439.14	8755.94
439.33	9137.45
439.52	8865.95
439.70	8997.02
439.89	9259.16
440.08	9387.89
440.26	9320.01
440.45	9195.96
440.63	9453.42
440.82	9610.24
441.01	9287.25
441.19	9533.00
441.38	9586.83
441.57	9767.06
441.75	9790.46
441.94	9961.32
442.12	10036.22
442.31	10136.86
442.50	10068.98
442.68	9844.29
442.87	10148.56
443.05	10221.12
443.24	10225.80
443.43	10134.52
443.61	10246.87
443.80	10569.86
443.98	10181.33
444.17	9834.93
444.35	10214.10
444.54	10380.28
444.73	10270.27
444.91	10200.05
445.10	10520.71
445.28	10415.38
445.47	10431.77
445.65	10293.68
445.84	10525.39
446.02	10504.32
446.21	10490.28
446.39	10567.52
446.58	10555.82
446.77	10422.41
446.95	10305.38
447.14	10658.80
447.32	10480.92
447.51	10499.64
447.69	10555.82
447.88	10656.46
448.06	10464.54
448.25	10647.10
448.43	10740.72
448.62	10693.91
448.80	10679.86
448.99	10843.70
449.17	10817.96
449.36	10705.61
449.54	10801.57
449.73	11173.72
449.91	11281.38
450.10	11295.43
450.28	11365.64
450.46	11316.49
450.65	11157.33
450.83	11176.06
451.02	11150.31
451.20	11475.65
451.39	11440.54
451.57	11428.84
451.76	11396.07
451.94	11372.66
452.13	11779.92
452.31	11557.57
452.49	11494.37
452.68	11587.99
452.86	11625.44
453.05	11918.01
453.23	11714.38
453.42	11655.87
453.60	11730.76
453.78	11843.11
453.97	11859.49
454.15	11836.09
454.34	11702.68
454.52	12269.09
454.70	11838.43
454.89	11927.37
455.07	12072.48
455.26	12320.58
455.44	12276.11
455.62	12531.23
455.81	12479.74
455.99	12367.39
456.17	12329.94
456.36	12465.69
456.54	12540.59
456.73	12748.90
456.91	12915.08
457.09	12875.29
457.28	13104.66
457.46	12655.28
457.64	13261.48
457.83	13029.76
458.01	13011.04
458.19	13245.09
458.38	13088.28
458.56	13336.37
458.74	13097.64
458.93	13289.56
459.11	13577.45
459.29	13425.31
459.48	13462.76
459.66	13289.56
459.84	13633.62
460.03	13708.52
460.21	13561.06
460.39	13659.37
460.57	13696.82
460.76	13717.88
460.94	13973.00
461.12	13987.04
461.31	13827.88
461.49	14104.07
461.67	13963.64
461.85	14080.66
462.04	13935.55
462.22	14408.34
462.40	14195.35
462.59	14134.50
462.77	14204.71
462.95	14480.89
463.13	14476.21
463.32	14459.83
463.50	14387.27
463.68	14810.91
463.86	14539.41
464.05	14438.76
464.23	14567.49
464.41	14810.91
464.59	14338.12
464.78	14993.47
464.96	14710.27
465.14	14464.51
465.32	14630.69
465.50	15059.01
465.69	15026.24
465.87	15122.20
466.05	15239.23
466.23	15047.30
466.41	15253.27
466.60	15531.80
466.78	15211.14
466.96	14963.04
467.14	15208.80
467.32	15433.49
467.51	15646.48
467.69	15286.04
467.87	15190.08
468.05	15641.80
468.23	15454.56
468.41	15433.49
468.60	15775.21
468.78	15815.00
468.96	15330.51
469.14	15939.05
469.32	16189.49
469.50	15765.85
469.69	16264.38
469.87	16294.81
470.05	16154.38
470.23	16451.63
470.41	16250.34
470.59	16538.23
470.77	16262.04
470.95	16397.79
471.14	16629.51
471.32	16046.71
471.50	16800.37
471.68	16943.14
471.86	16851.86
472.04	17008.67
472.22	17469.76
472.40	17008.67
472.58	17029.74
472.77	17308.26
472.95	17219.32
473.13	17802.11
473.31	17692.11
473.49	17488.48
473.67	17486.14
473.85	17848.93
474.03	18382.57
474.21	17919.14
474.39	18101.70
474.57	18291.29
474.75	18448.10
474.93	18747.69
475.12	18476.19
475.30	18782.80
475.48	18422.36
475.66	18883.44
475.84	18960.68
476.02	19112.81
476.20	18897.49
476.38	19592.62
476.56	19711.99
476.74	19559.86
476.92	19590.28
477.10	19880.51
477.28	20159.03
477.46	20184.78
477.64	20383.73
477.82	20166.06
478.00	20783.96
478.18	20812.04
478.36	20795.66
478.54	21191.21
478.72	21165.46
478.90	21525.91
479.08	21682.72
479.26	21766.98
479.44	21539.95
479.62	22143.81
479.80	22286.58
479.98	22167.21
480.16	23215.77
480.34	22576.81
480.52	23143.22
480.70	23136.20
480.88	22731.28
481.06	23257.90
481.24	23243.86
481.41	23428.76
481.59	23693.24
481.77	24142.63
481.95	24486.68
482.13	24512.43
482.31	24620.10
482.49	24725.42
482.67	24863.51
482.85	24786.27
483.03	25692.06
483.21	25743.55
483.39	25935.48
483.57	25577.37
483.74	25652.27
483.92	26663.38
484.10	26443.37
484.28	26855.31
484.46	26895.10
484.64	27644.07
484.82	27222.77
485.00	27239.15
485.18	27985.79
485.35	28465.60
485.53	28266.65
485.71	28627.09
485.89	28957.11
486.07	28795.61
486.25	28849.44
486.43	28964.13
486.61	29518.84
486.78	29703.74
486.96	29933.11
487.14	30422.28
487.32	30569.74
487.50	30553.35
487.68	31103.38
487.85	31222.75
488.03	31978.74
488.21	31761.07
488.39	31847.67
488.57	32315.78
488.75	32219.81
488.92	32371.95
489.10	32692.60
489.28	32868.14
489.46	33724.78
489.64	33165.39
489.81	34328.64
489.99	33802.02
490.17	34127.35
490.35	34403.53
490.53	34700.78
490.70	34911.43
490.88	34780.36
491.06	35569.12
491.24	35353.79
491.41	35873.39
491.59	36027.87
491.77	36339.16
491.95	36666.83
492.13	36491.29
492.30	36940.68
492.48	36982.80
492.66	37338.57
492.84	37338.57
493.01	37755.18
493.19	37523.47
493.37	37930.72
493.54	38176.48
493.72	38459.68
493.90	38483.09
494.08	39487.18
494.25	39295.25
494.43	39133.76
494.61	39431.01
494.79	40069.97
494.96	39718.89
495.14	39777.40
495.32	40641.06
495.49	40877.46
495.67	40563.82
495.85	40952.35
496.02	41228.54
496.20	42010.28
496.38	41701.32
496.55	41876.86
496.73	42862.23
496.91	42340.29
497.09	42286.46
497.26	42646.90
497.44	42754.57
497.62	43037.77
497.79	43161.82
497.97	43381.83
498.14	43779.72
498.32	43927.17
498.50	43878.02
498.67	44226.76
498.85	44479.54
499.03	44514.65
499.20	44786.15
499.38	44870.41
499.56	45305.75
499.73	44940.63
499.91	45546.82
500.08	45607.68
500.26	45722.37
500.44	45614.70
500.61	46113.23
500.79	45860.46
500.97	46567.30
501.14	46567.30
501.32	46726.46
501.49	46794.33
501.67	46705.39
501.84	47271.80
502.02	47559.69
502.20	47435.64
502.37	47229.67
502.55	47365.42
502.72	47646.29
502.90	47796.08
503.07	47674.37
503.25	47625.22
503.43	47634.58
503.60	48121.41
503.78	48357.81
503.95	48229.08
504.13	48390.58
504.30	48722.93
504.48	48540.37
504.65	49233.17
504.83	49024.86
505.01	49530.42
505.18	49588.93
505.36	49748.09
505.53	49593.61
505.71	49839.37
505.88	49869.79
506.06	49991.50
506.23	50485.36
506.41	50143.64
506.58	50307.47
506.76	50330.88
506.93	50798.99
507.11	50848.14
507.28	51084.53
507.46	50901.97
507.63	50953.46
507.81	50782.60
507.98	51192.20
508.16	51339.65
508.33	51370.08
508.50	51777.33
508.68	51894.36
508.85	51924.78
509.03	51980.96
509.20	52046.49
509.38	52004.36
509.55	52430.34
509.73	52154.16
509.90	52566.09
510.08	52332.04
510.25	52519.28
510.42	52582.48
510.60	52933.56
510.77	52968.66
510.95	53078.67
511.12	52879.72
511.30	53153.57
511.47	53450.81
511.64	53394.64
511.82	53696.57
511.99	53666.14
512.17	53708.27
512.34	53743.38
512.51	54251.28
512.69	54124.89
512.86	53918.92
513.04	54419.80
513.21	54323.83
513.38	54202.13
513.56	54396.39
513.73	54391.71
513.90	54380.01
514.08	54335.54
514.25	54663.21
514.43	54630.44
514.60	54791.94
514.77	54703.00
514.95	54923.01
515.12	54700.66
515.29	54653.85
515.47	55229.62
515.64	55402.82
515.81	55093.87
515.99	55540.91
516.16	55461.33
516.33	55208.56
516.51	55618.15
516.68	55739.86
516.85	55632.19
517.03	55952.85
517.20	55875.61
517.37	55950.51
517.54	55767.94
517.72	55552.62
517.89	55943.48
518.06	56413.93
518.24	56280.52
518.41	56170.52
518.58	56114.34
518.75	56191.58
518.93	56287.54
519.10	56512.23
519.27	56610.54
519.45	56409.25
519.62	56694.80
519.79	56868.00
519.96	56797.78
520.14	56753.31
520.31	56502.87
520.48	56816.50
520.65	56753.31
520.83	57059.92
521.00	57303.34
521.17	57359.51
521.34	57551.43
521.52	57233.12
521.69	57235.46
521.86	57443.77
522.03	57439.09
522.20	57535.05
522.38	57790.17
522.55	57827.62
522.72	57935.28
522.89	57886.13
523.07	57900.17
523.24	57738.68
523.41	57900.17
523.58	57930.60
523.75	58274.66
523.92	58190.40
524.10	58234.87
524.27	58450.20
524.44	58394.03
524.61	58333.17
524.78	58185.72
524.96	58639.78
525.13	58578.93
525.30	58588.29
525.47	58693.61
525.64	58735.74
525.81	58857.45
525.98	59061.08
526.16	58602.33
526.33	58710.00
526.50	58911.28
526.67	58981.50
526.84	59068.10
527.01	59112.57
527.18	58906.60
527.36	59145.34
527.53	59215.55
527.70	59075.12
527.87	59290.45
528.04	59147.68
528.21	59550.25
528.38	59449.61
528.55	59430.88
528.72	59267.05
528.89	59454.29
529.07	59236.62
529.24	59480.03
529.41	59739.83
529.58	59576.00
529.75	59578.34
529.92	59817.07
530.09	59655.57
530.26	59533.87
530.43	59681.32
530.60	59831.11
530.77	59852.18
530.94	60090.91
531.11	59838.14
531.28	60126.02
531.46	60114.32
531.63	60207.94
531.80	60273.48
531.97	60261.77
532.14	60158.79
532.31	60041.76
532.48	60278.16
532.65	60474.76
532.82	60212.62
532.99	60327.31
533.16	60250.07
533.33	60390.50
533.50	60685.41
533.67	60664.35
533.84	60526.25
534.01	60701.79
534.18	60732.22
534.35	60874.99
534.52	60884.36
534.69	60968.61
534.86	60814.14
535.03	60378.80
535.20	60905.42
535.37	61034.15
535.54	61228.41
535.71	61057.56
535.88	61151.18
536.05	61195.65
536.22	61116.07
536.38	61125.43
536.55	61237.78
536.72	61205.01
536.89	61289.27
537.06	61439.06
537.23	61378.21
537.40	61586.52
537.57	61378.21
537.74	61420.34
537.91	61605.24
538.08	61441.40
538.25	61336.08
538.42	61528.00
538.59	61869.72
538.75	61455.45
538.92	61703.54
539.09	61708.22
539.26	61705.88
539.43	61511.62
539.60	61888.45
539.77	61731.63
539.94	62120.16
540.11	62134.20
540.28	62159.95
540.44	62073.35
540.61	61900.15
540.78	61942.28
540.95	62007.81
541.12	61717.59
541.29	62124.84
541.46	62213.78
541.62	62342.51
541.79	62370.60
541.96	61907.17
542.13	62431.45
542.30	62253.57
542.47	62372.94
542.63	62358.89
542.80	62539.11
542.97	62773.17
543.14	62869.13
543.31	62705.29
543.48	62883.17
543.64	63011.90
543.81	62890.19
543.98	62691.25
544.15	62836.36
544.32	63135.95
544.48	63241.28
544.65	62941.69
544.82	63072.76
544.99	62937.01
545.16	63121.91
545.32	63168.72
545.49	63285.75
545.66	63196.80
545.83	63365.32
546.00	63491.71
546.16	63458.94
546.33	63351.28
546.50	63234.25
546.67	63290.43
546.83	62925.30
547.00	63157.02
547.17	62948.71
547.34	63252.98
547.50	63503.42
547.67	63643.85
547.84	63540.86
548.00	63622.78
548.17	63709.38
548.34	63487.03
548.51	63447.24
548.67	63372.34
548.84	63414.47
549.01	63531.50
549.18	63508.10
549.34	63777.26
549.51	63765.56
549.68	63678.96
549.84	63571.29
550.01	63704.70
550.18	63629.80
550.34	63737.47
550.51	63643.85
550.68	63732.79
550.84	63707.04
551.01	63861.52
551.18	63819.39
551.34	63875.56
551.51	63898.97
551.68	63826.41
551.84	64004.29
552.01	63873.22
552.18	64072.17
552.34	63859.18
552.51	64252.39
552.68	63852.15
552.84	64217.28
553.01	64336.65
553.18	64104.93
553.34	64259.41
553.51	64123.66
553.67	64301.54
553.84	64465.38
554.01	64327.28
554.17	64591.76
554.34	64364.73
554.51	64074.51
554.67	64388.14
554.84	64331.96
555.00	64324.94
555.17	64111.95
555.33	64458.35
555.50	64219.62
555.67	64479.42
555.83	64360.05
556.00	64526.23
556.16	64619.85
556.33	64551.98
556.50	64399.84
556.66	64622.19
556.83	64563.68
556.99	64722.83
557.16	64650.28
557.32	64921.78
557.49	64860.93
557.65	64666.66
557.82	64669.00
557.98	64629.21
558.15	64736.88
558.32	64673.68
558.48	64774.33
558.65	64708.79
558.81	64914.76
558.98	64669.00
559.14	64942.84
559.31	64856.24
559.47	64741.56
559.64	65027.10
559.80	64858.59
559.97	65057.53
560.13	64746.24
560.30	64921.78
560.46	65104.34
560.63	65204.98
560.79	65113.70
560.96	65200.30
561.12	64940.50
561.29	65102.00
561.45	64975.61
561.61	65120.73
561.78	65020.08
561.94	65190.94
562.11	65254.14
562.27	65223.71
562.44	65441.38
562.60	65333.71
562.77	65317.33
562.93	65228.39
563.10	65289.24
563.26	65078.60
563.42	65518.62
563.59	65244.77
563.75	65263.50
563.92	65380.52
564.08	65364.14
564.24	65535.00
564.41	65314.99
564.57	65354.78
564.74	65310.31
564.90	65399.25
565.07	65483.51
565.23	65490.53
565.39	65535.00
565.56	65535.00
565.72	65329.03
565.88	65410.95
566.05	65368.82
566.21	65364.14
566.38	65317.33
566.54	65350.10
566.70	65535.00
566.87	65535.00
567.03	65535.00
567.19	65535.00
567.36	65535.00
567.52	65420.31
567.68	65535.00
567.85	65535.00
568.01	65535.00
568.17	65535.00
568.34	65535.00
568.50	65535.00
568.66	65535.00
568.83	65535.00
568.99	65535.00
569.15	65535.00
569.32	65535.00
569.48	65535.00
569.64	65535.00
569.81	65535.00
569.97	65535.00
570.13	65535.00
570.30	65535.00
570.46	65535.00
570.62	65535.00
570.78	65497.55
570.95	65535.00
571.11	65535.00
571.27	65532.66
571.43	65535.00
571.60	65535.00
571.76	65535.00
571.92	65535.00
572.09	65535.00
572.25	65535.00
572.41	65535.00
572.57	65535.00
572.74	65535.00
572.90	65535.00
573.06	65535.00
573.22	65535.00
573.38	65535.00
573.55	65535.00
573.71	65535.00
573.87	65535.00
574.03	65535.00
574.20	65535.00
574.36	65535.00
574.52	65535.00
574.68	65535.00
574.84	65535.00
575.01	65535.00
575.17	65535.00
575.33	65535.00
575.49	65535.00
575.65	65535.00
575.82	65535.00
575.98	65535.00
576.14	65535.00
576.30	65535.00
576.46	65535.00
576.62	65535.00
576.79	65535.00
576.95	65535.00
577.11	65535.00
577.27	65535.00
577.43	65535.00
577.59	65535.00
577.75	65535.00
577.92	65535.00
578.08	65535.00
578.24	65535.00
578.40	65535.00
578.56	65535.00
578.72	65535.00
578.88	65535.00
579.04	65535.00
579.21	65535.00
579.37	65535.00
579.53	65535.00
579.69	65535.00
579.85	65535.00
580.01	65535.00
580.17	65535.00
580.33	65535.00
580.49	65535.00
580.65	65535.00
580.82	65535.00
580.98	65535.00
581.14	65535.00
581.30	65535.00
581.46	65535.00
581.62	65535.00
581.78	65535.00
581.94	65535.00
582.10	65535.00
582.26	65535.00
582.42	65535.00
582.58	65535.00
582.74	65535.00
582.90	65535.00
583.06	65535.00
583.22	65535.00
583.38	65535.00
583.54	65535.00
583.70	65535.00
583.86	65535.00
584.02	65535.00
584.18	65535.00
584.34	65535.00
584.50	65535.00
584.66	65535.00
584.82	65535.00
584.98	65535.00
585.14	65535.00
585.30	65535.00
585.46	65535.00
585.62	65535.00
585.78	65535.00
585.94	65535.00
586.10	65535.00
586.26	65535.00
586.42	65535.00
586.58	65535.00
586.74	65535.00
586.90	65535.00
587.06	65535.00
587.22	65535.00
