SpectraSuite Data File
++++++++++++++++++++++++++++++++++++
Date: Thu Oct 24 13:21:07 EDT 2013
User: stostad
Dark Spectrum Present: No
Reference Spectrum Present: No
Number of Sampled Component Spectra: 1
Spectrometers: USB2+H05261
Integration Time (usec): 100000 (USB2+H05261)
Spectra Averaged: 1 (USB2+H05261)
Boxcar Smoothing: 0 (USB2+H05261)
Correct for Electrical Dark: No (USB2+H05261)
Strobe/Lamp Enabled: No (USB2+H05261)
Correct for Detector Non-linearity: No (USB2+H05261)
Correct for Stray Light: No (USB2+H05261)
Number of Pixels in Processed Spectrum: 2048
>>>>>Begin Processed Spectral Data<<<<<
365.73	561.73
365.92	561.73
366.12	561.73
366.32	503.22
366.52	433.00
366.72	458.74
366.91	521.94
367.11	517.26
367.31	454.06
367.51	510.24
367.70	454.06
367.90	409.59
368.10	440.02
368.30	463.43
368.49	454.06
368.69	449.38
368.89	435.34
369.09	472.79
369.28	465.77
369.48	472.79
369.68	489.17
369.87	493.85
370.07	580.45
370.27	571.09
370.47	589.82
370.66	713.86
370.86	641.31
371.06	765.36
371.25	802.80
371.45	706.84
371.65	774.72
371.84	695.14
372.04	723.23
372.24	697.48
372.44	718.54
372.63	791.10
372.83	823.87
373.03	723.23
373.22	816.85
373.42	718.54
373.62	795.78
373.81	851.96
374.01	793.44
374.21	840.25
374.40	840.25
374.60	863.66
374.79	854.30
374.99	821.53
375.19	786.42
375.38	786.42
375.58	837.91
375.78	896.43
375.97	805.14
376.17	800.46
376.37	814.51
376.56	903.45
376.76	851.96
376.95	781.74
377.15	753.65
377.35	842.59
377.54	788.76
377.74	842.59
377.93	868.34
378.13	770.04
378.33	875.36
378.52	905.79
378.72	847.27
378.91	840.25
379.11	763.01
379.31	894.08
379.50	863.66
379.70	868.34
379.89	830.89
380.09	861.32
380.28	807.48
380.48	826.21
380.68	826.21
380.87	884.72
381.07	858.98
381.26	891.74
381.46	917.49
381.65	903.45
381.85	912.81
382.04	891.74
382.24	868.34
382.43	835.57
382.63	840.25
382.83	880.04
383.02	851.96
383.22	847.27
383.41	917.49
383.61	877.70
383.80	903.45
384.00	875.36
384.19	891.74
384.39	922.17
384.58	917.49
384.78	870.68
384.97	983.02
385.17	987.71
385.36	873.02
385.56	891.74
385.75	976.00
385.95	926.85
386.14	924.51
386.34	908.13
386.53	915.15
386.72	938.55
386.92	954.94
387.11	983.02
387.31	957.28
387.50	858.98
387.70	985.37
387.89	903.45
388.09	997.07
388.28	903.45
388.48	957.28
388.67	1041.54
388.86	922.17
389.06	978.34
389.25	952.60
389.45	880.04
389.64	961.96
389.84	976.00
390.03	1004.09
390.22	1020.47
390.42	1034.52
390.61	980.68
390.81	936.21
391.00	943.24
391.19	1071.97
391.39	1067.28
391.58	1039.20
391.78	1001.75
391.97	1097.71
392.16	983.02
392.36	1020.47
392.55	1064.94
392.75	1055.58
392.94	1008.77
393.13	1039.20
393.33	1048.56
393.52	1057.92
393.71	1032.18
393.91	1088.35
394.10	1064.94
394.29	1067.28
394.49	1050.90
394.68	1048.56
394.88	1104.73
395.07	1074.31
395.26	1156.22
395.46	1018.13
395.65	1125.80
395.84	1132.82
396.04	1130.48
396.23	1102.39
396.42	1008.77
396.62	1163.25
396.81	1184.31
397.00	1121.12
397.19	1181.97
397.39	1198.35
397.58	1231.12
397.77	1109.41
397.97	1179.63
398.16	1149.20
398.35	1109.41
398.55	1123.46
398.74	1188.99
398.93	1198.35
399.12	1233.46
399.32	1135.16
399.51	1174.95
399.70	1207.72
399.90	1228.78
400.09	1132.82
400.28	1226.44
400.47	1221.76
400.67	1359.85
400.86	1306.02
401.05	1287.29
401.24	1228.78
401.44	1203.04
401.63	1266.23
401.82	1331.76
402.01	1289.64
402.21	1313.04
402.40	1294.32
402.59	1291.98
402.78	1242.82
402.97	1308.36
403.17	1296.66
403.36	1310.70
403.55	1378.58
403.74	1385.60
403.93	1423.05
404.13	1413.68
404.32	1390.28
404.51	1376.24
404.70	1369.21
404.89	1352.83
405.09	1357.51
405.28	1474.54
405.47	1472.20
405.66	1432.41
405.85	1376.24
406.05	1392.62
406.24	1451.13
406.43	1434.75
406.62	1502.62
406.81	1446.45
407.00	1479.22
407.20	1448.79
407.39	1535.39
407.58	1458.15
407.77	1504.96
407.96	1549.43
408.15	1458.15
408.34	1591.56
408.54	1462.83
408.73	1526.03
408.92	1511.99
409.11	1502.62
409.30	1565.82
409.49	1544.75
409.68	1610.29
409.87	1614.97
410.07	1579.86
410.26	1633.69
410.45	1664.12
410.64	1575.18
410.83	1722.63
411.02	1526.03
411.21	1703.91
411.40	1724.97
411.59	1767.10
411.78	1673.48
411.98	1713.27
412.17	1717.95
412.36	1696.89
412.55	1699.23
412.74	1781.15
412.93	1818.60
413.12	1734.34
413.31	1816.26
413.50	1851.36
413.69	1813.92
413.88	1921.58
414.07	1844.34
414.26	1944.99
414.45	2005.84
414.64	1832.64
414.83	1877.11
415.02	1942.64
415.22	1912.22
415.41	1888.81
415.60	1937.96
415.79	2050.31
415.98	1987.11
416.17	1963.71
416.36	1895.83
416.55	2008.18
416.74	1923.92
416.93	1954.35
417.12	1970.73
417.31	2076.06
417.50	2015.20
417.69	2202.44
417.88	2134.57
418.07	2097.12
418.26	2069.03
418.45	2132.23
418.64	2143.93
418.83	2146.27
419.02	2085.42
419.21	2204.78
419.39	2190.74
419.58	2097.12
419.77	2099.46
419.96	2195.42
420.15	2230.53
420.34	2162.66
420.53	2204.78
420.72	2223.51
420.91	2190.74
421.10	2270.32
421.29	2298.41
421.48	2197.76
421.67	2244.57
421.86	2317.13
422.05	2296.07
422.24	2242.23
422.43	2289.04
422.61	2305.43
422.80	2291.38
422.99	2197.76
423.18	2319.47
423.37	2347.56
423.56	2326.49
423.75	2267.98
423.94	2244.57
424.13	2225.85
424.32	2190.74
424.50	2298.41
424.69	2319.47
424.88	2296.07
425.07	2394.37
425.26	2193.08
425.45	2251.60
425.64	2314.79
425.83	2258.62
426.01	2342.88
426.20	2342.88
426.39	2396.71
426.58	2267.98
426.77	2394.37
426.96	2434.16
427.15	2403.73
427.33	2408.41
427.52	2349.90
427.71	2385.01
427.90	2434.16
428.09	2286.70
428.28	2485.65
428.46	2506.71
428.65	2333.51
428.84	2452.88
429.03	2562.89
429.22	2471.61
429.40	2560.55
429.59	2478.63
429.78	2520.76
429.97	2520.76
430.16	2560.55
430.34	2565.23
430.53	2487.99
430.72	2415.43
430.91	2569.91
431.10	2551.18
431.28	2546.50
431.47	2530.12
431.66	2544.16
431.85	2621.40
432.03	2691.62
432.22	2703.32
432.41	2696.30
432.60	2738.43
432.79	2581.61
432.97	2761.83
433.16	2696.30
433.35	2684.59
433.54	2633.10
433.72	2789.92
433.91	2693.96
434.10	2759.49
434.28	2719.70
434.47	2712.68
434.66	2808.64
434.85	2834.39
435.03	2857.79
435.22	3009.93
435.41	3190.15
435.59	3234.62
435.78	3080.14
435.97	3059.08
436.16	2972.48
436.34	2822.69
436.53	2803.96
436.72	2953.76
436.90	2803.96
437.09	2923.33
437.28	2918.65
437.46	2775.88
437.65	2967.80
437.84	2960.78
438.02	3052.06
438.21	3061.42
438.40	3066.10
438.58	3054.40
438.77	2956.10
438.96	2925.67
439.14	3169.09
439.33	3239.30
439.52	3073.12
439.70	3173.77
439.89	3133.98
440.08	3274.41
440.26	3199.51
440.45	3197.17
440.63	3150.36
440.82	3309.52
441.01	3220.58
441.19	3269.73
441.38	3208.87
441.57	3199.51
441.75	3391.44
441.94	3379.73
442.12	3463.99
442.31	3307.18
442.50	3442.93
442.68	3283.77
442.87	3492.08
443.05	3499.10
443.24	3398.46
443.43	3389.10
443.61	3440.59
443.80	3438.25
443.98	3454.63
444.17	3433.57
444.35	3358.67
444.54	3616.13
444.73	3508.46
444.91	3515.48
445.10	3557.61
445.28	3529.53
445.47	3499.10
445.65	3501.44
445.84	3590.38
446.02	3700.39
446.21	3545.91
446.39	3555.27
446.58	3548.25
446.77	3585.70
446.95	3447.61
447.14	3461.65
447.32	3709.75
447.51	3616.13
447.69	3576.34
447.88	3648.90
448.06	3716.77
448.25	3609.11
448.43	3669.96
448.62	3428.88
448.80	3513.14
448.99	3604.42
449.17	3712.09
449.36	3623.15
449.54	3604.42
449.73	3747.20
449.91	3515.48
450.10	3705.07
450.28	3726.13
450.46	3733.15
450.65	3772.94
450.83	3686.34
451.02	3794.01
451.20	3901.67
451.39	3655.92
451.57	3775.28
451.76	3681.66
451.94	3779.97
452.13	3775.28
452.31	3904.01
452.49	3679.32
452.68	3861.88
452.86	3875.93
453.05	4011.68
453.23	3831.46
453.42	3819.75
453.60	3922.74
453.78	3932.10
453.97	3866.56
454.15	3906.35
454.34	3843.16
454.52	3948.48
454.70	3995.29
454.89	3901.67
455.07	4065.51
455.26	4021.04
455.44	4093.60
455.62	3948.48
455.81	4084.23
455.99	4093.60
456.17	4121.68
456.36	4149.77
456.54	4044.45
456.73	4081.89
456.91	4301.90
457.09	4159.13
457.28	4306.59
457.46	4191.90
457.64	4278.50
457.83	4212.96
458.01	4166.15
458.19	4294.88
458.38	4273.82
458.56	4372.12
458.74	4332.33
458.93	4337.01
459.11	4210.62
459.29	4198.92
459.48	4397.87
459.66	4337.01
459.84	4322.97
460.03	4622.56
460.21	4418.93
460.39	4479.79
460.57	4383.82
460.76	4498.51
460.94	4540.64
461.12	4397.87
461.31	4498.51
461.49	4414.25
461.67	4528.94
461.85	4514.89
462.04	4561.70
462.22	4877.68
462.40	4709.16
462.59	4578.09
462.77	4557.02
462.95	4575.75
463.13	4617.88
463.32	4585.11
463.50	4636.60
463.68	4620.22
463.86	4557.02
464.05	4533.62
464.23	4594.47
464.41	4678.73
464.59	4671.71
464.78	4704.48
464.96	4746.61
465.14	4634.26
465.32	4774.69
465.50	4781.71
465.69	4765.33
465.87	4697.46
466.05	4690.43
466.23	4695.11
466.41	4688.09
466.60	4973.64
466.78	4718.52
466.96	4978.32
467.14	4669.37
467.32	5025.13
467.51	4821.50
467.69	4805.12
467.87	4880.02
468.05	4865.97
468.23	4957.25
468.41	4690.43
468.60	4994.70
468.78	4980.66
468.96	4898.74
469.14	5078.96
469.32	5020.45
469.50	4966.62
469.69	5081.30
469.87	5093.01
470.05	5135.14
470.23	5123.43
470.41	5139.82
470.59	5121.09
470.77	5050.88
470.95	5118.75
471.14	5301.31
471.32	5212.37
471.50	5413.66
471.68	5345.78
471.86	5259.18
472.04	5174.92
472.22	5287.27
472.40	5322.38
472.58	5387.91
472.77	5486.22
472.95	5465.15
473.13	5633.67
473.31	5434.72
473.49	5425.36
473.67	5430.04
473.85	5540.05
474.03	5575.16
474.21	5600.90
474.39	5633.67
474.57	5523.66
474.75	5591.54
474.93	5760.06
475.12	5680.48
475.30	5720.27
475.48	5643.03
475.66	5659.42
475.84	5753.04
476.02	6111.14
476.20	5860.70
476.38	6052.63
476.56	6097.10
476.74	5937.94
476.92	5909.85
477.10	5802.19
477.28	6090.07
477.46	6244.55
477.64	6354.55
477.82	6136.88
478.00	6195.40
478.18	6256.25
478.36	6466.90
478.54	6413.07
478.72	6483.28
478.90	6628.40
479.08	6684.57
479.26	6642.44
479.44	6555.84
479.62	6665.85
479.80	6785.21
479.98	6717.34
480.16	7080.12
480.34	6846.07
480.52	6942.03
480.70	7124.59
480.88	6951.39
481.06	6881.18
481.24	6890.54
481.41	7082.46
481.59	7164.38
481.77	7330.56
481.95	7265.02
482.13	7438.22
482.31	7508.44
482.49	7482.69
482.67	7412.48
482.85	7590.36
483.03	7627.81
483.21	7789.30
483.39	7850.16
483.57	7728.45
483.74	7761.22
483.92	7868.88
484.10	7953.14
484.28	8009.31
484.46	8056.12
484.64	8121.66
484.82	8093.57
485.00	8241.03
485.18	8287.84
485.35	8306.56
485.53	8374.44
485.71	8344.01
485.89	8709.13
486.07	8634.24
486.25	8762.97
486.43	8681.05
486.61	8814.46
486.78	8802.75
486.96	8788.71
487.14	8814.46
487.32	8929.14
487.50	9029.79
487.68	9095.32
487.85	9268.52
488.03	9334.06
488.21	9415.98
488.39	9425.34
488.57	9624.28
488.75	9528.32
488.92	9767.06
489.10	9624.28
489.28	9727.27
489.46	9984.73
489.64	9863.02
489.81	9923.87
489.99	10001.11
490.17	9898.13
490.35	10071.33
490.53	9949.62
490.70	10312.40
490.88	10162.61
491.06	10370.91
491.24	10401.34
491.41	10366.23
491.59	10422.41
491.77	10509.01
491.95	10834.34
492.13	10567.52
492.30	10707.95
492.48	10890.51
492.66	10846.04
492.84	10745.40
493.01	11054.35
493.19	11066.05
493.37	10963.07
493.54	11150.31
493.72	11115.20
493.90	11262.66
494.08	11190.10
494.25	11206.48
494.43	11389.05
494.61	11536.50
494.79	11412.45
494.96	11592.67
495.14	11686.29
495.32	11740.13
495.49	11831.41
495.67	11861.84
495.85	11819.71
496.02	11817.36
496.20	11915.67
496.38	12079.50
496.55	12098.23
496.73	12212.92
496.91	12198.87
497.09	12093.55
497.26	12102.91
497.44	12325.26
497.62	12369.73
497.79	12580.38
497.97	12592.08
498.14	12652.94
498.32	12819.11
498.50	12765.28
498.67	12964.23
498.85	12973.59
499.03	12903.37
499.20	13151.47
499.38	12889.33
499.56	13006.36
499.73	13184.24
499.91	13104.66
500.08	13095.30
500.26	12950.18
500.44	13305.95
500.61	13240.41
500.79	13385.52
500.97	13467.44
501.14	13621.92
501.32	13722.56
501.49	13502.55
501.67	13444.04
501.84	13731.92
502.02	13657.03
502.20	13841.93
502.37	13792.78
502.55	13701.50
502.72	13870.01
502.90	13851.29
503.07	14043.21
503.25	14073.64
503.43	14019.81
503.60	14211.73
503.78	13961.30
503.95	13933.21
504.13	14108.75
504.30	14277.27
504.48	14193.01
504.65	14326.42
504.83	14396.64
505.01	14279.61
505.18	14380.25
505.36	14796.87
505.53	14555.79
505.71	14537.07
505.88	14588.56
506.06	14583.88
506.23	14731.33
506.41	14736.01
506.58	14789.85
506.76	14700.90
506.93	15000.49
507.11	14892.83
507.28	15007.52
507.46	15021.56
507.63	14883.47
507.81	15117.52
507.98	14944.32
508.16	15054.33
508.33	15349.23
508.50	15332.85
508.68	15503.71
508.85	15405.41
509.03	15173.69
509.20	15466.26
509.38	15651.16
509.55	15419.45
509.73	15674.57
509.90	15613.71
510.08	15613.71
510.25	15768.19
510.42	15871.17
510.60	15782.23
510.77	15751.81
510.95	15861.81
511.12	16018.63
511.30	15976.50
511.47	15880.53
511.64	15840.75
511.82	16060.76
511.99	15847.77
512.17	16205.87
512.34	16224.59
512.51	16245.66
512.69	16360.34
512.86	16292.47
513.04	16407.16
513.21	16524.18
513.38	16379.07
513.56	16641.21
513.73	16629.51
513.90	16512.48
514.08	16521.84
514.25	16746.53
514.43	16662.27
514.60	16786.32
514.77	16718.45
514.95	16905.69
515.12	16737.17
515.29	16879.94
515.47	17193.58
515.64	16954.84
515.81	16919.73
515.99	16884.62
516.16	17128.04
516.33	16893.99
516.51	17305.92
516.68	17240.39
516.85	17123.36
517.03	17378.48
517.20	17355.07
517.37	17404.22
517.54	17495.50
517.72	17497.84
517.89	17469.76
518.06	17408.90
518.24	17619.55
518.41	17530.61
518.58	17547.00
518.75	17294.22
518.93	17378.48
519.10	17322.30
519.27	17645.30
519.45	17458.06
519.62	17699.13
519.79	17769.35
519.96	17516.57
520.14	17968.29
520.31	17748.28
520.48	17816.16
520.65	17884.03
520.83	18085.32
521.00	18239.79
521.17	18082.98
521.34	17954.25
521.52	17989.36
521.69	18326.39
521.86	17961.27
522.03	18054.89
522.20	18403.63
522.38	18244.48
522.55	18640.03
522.72	18427.04
522.89	18150.85
523.07	18450.44
523.24	18101.70
523.41	18504.28
523.58	18331.08
523.75	18738.33
523.92	18686.84
524.10	18944.30
524.27	18775.78
524.44	18728.97
524.61	19066.00
524.78	18977.06
524.96	18876.42
525.13	19035.58
525.30	19054.30
525.47	19023.87
525.64	19028.56
525.81	19173.67
525.98	19051.96
526.16	18913.87
526.33	19080.05
526.50	19513.05
526.67	19108.13
526.84	19082.39
527.01	19435.81
527.18	19374.95
527.36	19630.07
527.53	19201.76
527.70	19386.66
527.87	19709.65
528.04	19440.49
528.21	19634.75
528.38	19674.54
528.55	19482.62
528.72	19571.56
528.89	19393.68
529.07	19208.78
529.24	19531.77
529.41	19908.60
529.58	19716.67
529.75	19784.55
529.92	19852.42
530.09	19559.86
530.26	19709.65
530.43	19964.77
530.60	19847.74
530.77	19873.49
530.94	20257.34
531.11	19910.94
531.28	19906.26
531.46	20088.82
531.63	20121.59
531.80	19927.32
531.97	20027.96
532.14	20053.71
532.31	20142.65
532.48	20067.75
532.65	20379.04
532.82	20266.70
532.99	20238.61
533.16	20105.20
533.33	20077.12
533.50	20161.37
533.67	20318.19
533.84	20285.42
534.01	20299.47
534.18	20659.91
534.35	20627.14
534.52	20404.79
534.69	20318.19
534.86	20582.67
535.03	20306.49
535.20	20680.97
535.37	20931.41
535.54	20830.77
535.71	20599.05
535.88	20503.09
536.05	20498.41
536.22	20601.40
536.38	20697.36
536.55	21252.06
536.72	20727.78
536.89	20683.31
537.06	21010.99
537.23	21146.74
537.40	20924.39
537.57	20957.16
537.74	20905.66
537.91	21160.78
538.08	21233.34
538.25	20898.64
538.42	20973.54
538.59	21018.01
538.75	21209.93
538.92	21125.68
539.09	21408.88
539.26	21249.72
539.43	21181.85
539.60	21333.98
539.77	21270.79
539.94	21373.77
540.11	21624.21
540.28	21635.91
540.44	21598.46
540.61	21589.10
540.78	21537.61
540.95	21586.76
541.12	21757.62
541.29	21834.86
541.46	22101.68
541.62	22225.73
541.79	22286.58
541.96	21846.56
542.13	21874.65
542.30	22087.64
542.47	22398.93
542.63	22150.83
542.80	22195.30
542.97	22092.32
543.14	22831.93
543.31	22682.13
543.48	22331.05
543.64	22658.73
543.81	22649.36
543.98	22511.27
544.15	22530.00
544.32	22731.28
544.48	22721.92
544.65	22443.40
544.82	22635.32
544.99	22274.88
545.16	22466.80
545.32	22668.09
545.49	23005.13
545.66	23733.03
545.83	23990.49
546.00	23344.50
546.16	23349.18
546.33	23080.02
546.50	22684.47
546.67	22916.19
546.83	22480.85
547.00	22354.46
547.17	22419.99
547.34	22808.52
547.50	22635.32
547.67	22862.35
547.84	23117.47
548.00	22972.36
548.17	22904.48
548.34	22925.55
548.51	22455.10
548.67	23021.51
548.84	23009.81
549.01	22759.37
549.18	22876.40
549.34	23051.94
549.51	22757.03
549.68	23206.41
549.84	22813.20
550.01	22845.97
550.18	22740.64
550.34	22742.99
550.51	22721.92
550.68	23197.05
550.84	22845.97
551.01	22970.02
551.18	22609.58
551.34	22911.50
551.51	22930.23
551.68	22937.25
551.84	22792.14
552.01	22771.07
552.18	22984.06
552.34	23171.30
552.51	23356.21
552.68	23178.33
552.84	23190.03
553.01	23318.76
553.18	23063.64
553.34	23077.68
553.51	23248.54
553.67	23014.49
553.84	23606.64
554.01	23536.43
554.17	23351.52
554.34	23548.13
554.51	23220.45
554.67	23639.41
554.84	23206.41
555.00	23117.47
555.17	23220.45
555.33	23140.88
555.50	23138.54
555.67	23398.34
555.83	23576.22
556.00	23520.04
556.16	23784.52
556.33	23307.05
556.50	23562.17
556.66	23192.37
556.83	23005.13
556.99	23426.42
557.16	23777.50
557.32	23475.57
557.49	23934.32
557.65	23498.98
557.82	23405.36
557.98	23742.39
558.15	23316.42
558.32	23403.02
558.48	23555.15
558.65	23662.82
558.81	23489.62
558.98	23386.63
559.14	23667.50
559.31	23850.06
559.47	23604.30
559.64	23426.42
559.80	23796.23
559.97	23723.67
560.13	23349.18
560.30	23580.90
560.46	23639.41
560.63	24013.90
560.79	23873.46
560.96	23723.67
561.12	23627.71
561.29	23805.59
561.45	23428.76
561.61	24053.69
561.78	23758.78
561.94	24100.50
562.11	23962.40
562.27	24292.42
562.44	23854.74
562.60	24212.84
562.77	24173.05
562.93	23868.78
563.10	23798.57
563.26	23978.79
563.42	24105.18
563.59	23606.64
563.75	23997.51
563.92	24271.36
564.08	24009.22
564.24	23981.13
564.41	24081.77
564.57	23962.40
564.74	23791.55
564.90	24177.73
565.07	23901.55
565.23	23967.09
565.39	24081.77
565.56	24198.80
565.72	23901.55
565.88	24041.98
566.05	24067.73
566.21	23894.53
566.38	24313.48
566.54	24222.20
566.70	24512.43
566.87	24446.90
567.03	24306.46
567.19	24720.74
567.36	24194.12
567.52	24095.82
567.68	24315.83
567.85	24376.68
568.01	24362.64
568.17	24126.24
568.34	24166.03
568.50	24444.56
568.66	24287.74
568.83	24063.05
568.99	24489.03
569.15	24304.12
569.32	24257.31
569.48	24151.99
569.64	24196.46
569.81	24395.40
569.97	24259.65
570.13	24400.08
570.30	24278.38
570.46	24404.77
570.62	24177.73
570.78	24236.25
570.95	24308.80
571.11	24606.05
571.27	24542.86
571.43	24180.07
571.60	23955.38
571.76	24006.87
571.92	24444.56
572.09	24547.54
572.25	24477.32
572.41	24357.96
572.57	24687.97
572.74	24687.97
572.90	24568.60
573.06	24858.83
573.22	24163.69
573.38	24130.92
573.55	23931.98
573.71	24737.12
573.87	24400.08
574.03	24208.16
574.20	24084.11
574.36	24369.66
574.52	24091.13
574.68	24510.09
574.84	24584.99
575.01	24343.91
575.17	24386.04
575.33	24512.43
575.49	24393.06
575.65	24809.68
575.82	24388.38
575.98	24570.94
576.14	24348.59
576.30	24697.33
576.46	24538.18
576.62	24631.80
576.79	24718.40
576.95	24453.92
577.11	24505.41
577.27	24851.81
577.43	24643.50
577.59	24744.14
577.75	24847.13
577.92	24322.85
578.08	24208.16
578.24	24437.53
578.40	24592.01
578.56	24652.86
578.72	24826.06
578.88	24790.95
579.04	24767.55
579.21	24945.43
579.37	25008.62
579.53	24961.81
579.69	24659.88
579.85	24503.07
580.01	24601.37
580.17	24512.43
580.33	24540.52
580.49	24580.31
580.65	24774.57
580.82	24467.96
580.98	24587.33
581.14	24484.34
581.30	24631.80
581.46	24421.15
581.62	24737.12
581.78	24346.25
581.94	24416.47
582.10	24299.44
582.26	24765.21
582.42	24467.96
582.58	24332.21
582.74	24718.40
582.90	24905.64
583.06	24648.18
583.22	24702.01
583.38	24730.10
583.54	24568.60
583.70	24868.19
583.86	24723.08
584.02	24549.88
584.18	24933.73
584.34	24898.62
584.50	24702.01
584.66	24702.01
584.82	24517.11
584.98	24812.02
585.14	24694.99
585.30	24847.13
585.46	24854.15
585.62	24175.39
585.78	24734.78
585.94	24816.70
586.10	24940.75
586.26	24870.53
586.42	24781.59
586.58	24797.98
586.74	24650.52
586.90	24800.32
587.06	24732.44
587.22	25160.76
587.38	24917.34
587.54	24847.13
587.70	25151.40
587.86	24973.52
588.02	24397.74
588.18	24835.42
588.34	24910.32
588.49	25003.94
588.65	24797.98
588.81	24776.91
588.97	24849.47
589.13	24891.60
589.29	25076.50
589.45	24362.64
589.61	25003.94
589.77	25034.37
589.93	24781.59
590.08	25216.93
590.24	24982.88
590.40	24844.79
590.56	25064.80
590.72	24599.03
590.88	24662.22
