SpectraSuite Data File
++++++++++++++++++++++++++++++++++++
Date: Thu Oct 24 13:21:36 EDT 2013
User: stostad
Dark Spectrum Present: No
Reference Spectrum Present: No
Number of Sampled Component Spectra: 1
Spectrometers: USB2+H05261
Integration Time (usec): 100000 (USB2+H05261)
Spectra Averaged: 1 (USB2+H05261)
Boxcar Smoothing: 0 (USB2+H05261)
Correct for Electrical Dark: No (USB2+H05261)
Strobe/Lamp Enabled: No (USB2+H05261)
Correct for Detector Non-linearity: No (USB2+H05261)
Correct for Stray Light: No (USB2+H05261)
Number of Pixels in Processed Spectrum: 2048
>>>>>Begin Processed Spectral Data<<<<<
365.73	531.30
365.92	531.30
366.12	531.30
366.32	519.60
366.52	510.24
366.72	463.43
366.91	545.34
367.11	507.90
367.31	489.17
367.51	524.28
367.70	505.56
367.90	454.06
368.10	461.09
368.30	458.74
368.49	486.83
368.69	505.56
368.89	465.77
369.09	554.71
369.28	463.43
369.48	475.13
369.68	526.62
369.87	526.62
370.07	496.19
370.27	575.77
370.47	739.61
370.66	1158.57
370.86	1151.54
371.06	1193.67
371.25	1233.46
371.45	1238.14
371.65	1259.21
371.84	1252.19
372.04	1275.59
372.24	1310.70
372.44	1329.42
372.63	1322.40
372.83	1380.92
373.03	1380.92
373.22	1399.64
373.42	1444.11
373.62	1427.73
373.81	1369.21
374.01	1479.22
374.21	1502.62
374.40	1542.41
374.60	1544.75
374.79	1490.92
374.99	1514.33
375.19	1488.58
375.38	1453.47
375.58	1577.52
375.78	1586.88
375.97	1610.29
376.17	1565.82
376.37	1565.82
376.56	1535.39
376.76	1572.84
376.95	1582.20
377.15	1568.16
377.35	1617.31
377.54	1584.54
377.74	1584.54
377.93	1614.97
378.13	1682.85
378.33	1743.70
378.52	1694.55
378.72	1699.23
378.91	1820.94
379.11	1671.14
379.31	1774.13
379.50	1671.14
379.70	1771.79
379.89	1776.47
380.09	1685.19
380.28	1790.51
380.48	1799.87
380.68	1743.70
380.87	1879.45
381.07	1788.17
381.26	1858.39
381.46	1884.13
381.65	1905.20
381.85	1856.04
382.04	1907.54
382.24	1863.07
382.43	1879.45
382.63	1914.56
382.83	1893.49
383.02	1905.20
383.22	1977.75
383.41	1895.83
383.61	1898.17
383.80	2005.84
384.00	1977.75
384.19	1991.80
384.39	1881.79
384.58	1984.77
384.78	2043.29
384.97	2108.82
385.17	2003.50
385.36	2141.59
385.56	1952.01
385.75	2031.58
385.95	2108.82
386.14	2118.18
386.34	2087.76
386.53	2090.10
386.72	2031.58
386.92	2195.42
387.11	2101.80
387.31	2218.83
387.50	2218.83
387.70	2176.70
387.89	2242.23
388.09	2242.23
388.28	2092.44
388.48	2172.02
388.67	2321.81
388.86	2289.04
389.06	2310.11
389.25	2272.66
389.45	2422.45
389.64	2286.70
389.84	2291.38
390.03	2562.89
390.22	2492.67
390.42	2335.85
390.61	2396.71
390.81	2366.28
391.00	2464.58
391.19	2553.52
391.39	2497.35
391.58	2462.24
391.78	2429.48
391.97	2602.68
392.16	2473.95
392.36	2616.72
392.55	2513.74
392.75	2520.76
392.94	2637.78
393.13	2712.68
393.33	2661.19
393.52	2656.51
393.71	2750.13
393.91	2733.75
394.10	2602.68
394.29	2726.72
394.49	2773.53
394.68	2768.85
394.88	2803.96
395.07	2825.03
395.26	2829.71
395.46	2984.18
395.65	2904.60
395.84	2906.95
396.04	2949.08
396.23	3009.93
396.42	2862.48
396.62	2916.31
396.81	2953.76
397.00	3019.29
397.19	2953.76
397.39	2977.16
397.58	3061.42
397.77	3059.08
397.97	3213.56
398.16	3201.85
398.35	3136.32
398.55	3000.57
398.74	3148.02
398.93	3356.33
399.12	3346.97
399.32	3236.96
399.51	3302.50
399.70	3241.64
399.90	3344.63
400.09	3225.26
400.28	3325.90
400.47	3337.60
400.67	3400.80
400.86	3468.67
401.05	3515.48
401.24	3353.99
401.44	3452.29
401.63	3452.29
401.82	3475.70
402.01	3520.17
402.21	3468.67
402.40	3438.25
402.59	3538.89
402.78	3698.05
402.97	3691.02
403.17	3709.75
403.36	3595.06
403.55	3700.39
403.74	3915.72
403.93	4007.00
404.13	3866.56
404.32	3901.67
404.51	3967.21
404.70	3796.35
404.89	3850.18
405.09	3976.57
405.28	4016.36
405.47	4070.19
405.66	3950.82
405.85	3992.95
406.05	3962.53
406.24	4159.13
406.43	4098.28
406.62	4290.20
406.81	4154.45
407.00	4222.33
407.20	4145.09
407.39	4084.23
407.58	4255.09
407.77	4428.29
407.96	4191.90
408.15	4390.84
408.34	4337.01
408.54	4442.34
408.73	4362.76
408.92	4599.15
409.11	4470.42
409.30	4624.90
409.49	4594.47
409.68	4645.96
409.87	4601.49
410.07	4727.88
410.26	4809.80
410.45	4711.50
410.64	4774.69
410.83	4931.51
411.02	4938.53
411.21	4985.34
411.40	4968.96
411.59	4985.34
411.78	5029.81
411.98	4833.21
412.17	5191.31
412.36	5198.33
412.55	5235.78
412.74	5322.38
412.93	5366.85
413.12	5186.63
413.31	5462.81
413.50	5315.36
413.69	5308.34
413.88	5441.75
414.07	5650.05
414.26	5643.03
414.45	5528.35
414.64	5722.61
414.83	5877.09
415.02	5961.34
415.22	5769.42
415.41	6003.47
415.60	5895.81
415.79	5923.90
415.98	6118.16
416.17	6101.78
416.36	6064.33
416.55	6183.70
416.74	6279.66
416.93	6047.94
417.12	6370.94
417.31	6338.17
417.50	6490.31
417.69	6413.07
417.88	6539.46
418.07	6565.20
418.26	6499.67
418.45	6621.38
418.64	6792.23
418.83	6663.51
419.02	6750.10
419.21	6757.13
419.39	6829.68
419.58	6717.34
419.77	6747.76
419.96	6803.94
420.15	6993.52
420.34	7037.99
420.53	6977.14
420.72	7227.57
420.91	7042.67
421.10	7047.35
421.29	7222.89
421.48	7026.29
421.67	7258.00
421.86	7059.06
422.05	7150.34
422.24	7133.95
422.43	7302.47
422.61	7492.05
422.80	7435.88
422.99	7379.71
423.18	7534.18
423.37	7639.51
423.56	7555.25
423.75	7405.46
423.94	7155.02
424.13	7012.24
424.32	7129.27
424.50	7494.40
424.69	7606.74
424.88	7534.18
425.07	7515.46
425.26	7466.31
425.45	7452.27
425.64	7438.22
425.83	7571.63
426.01	7389.07
426.20	7613.76
426.39	7644.19
426.58	7506.10
426.77	7573.97
426.96	7674.62
427.15	7550.57
427.33	7908.67
427.52	7669.94
427.71	7894.63
427.90	7859.52
428.09	7936.76
428.28	8170.81
428.46	8035.06
428.65	8109.96
428.84	8262.09
429.03	8109.96
429.22	7868.88
429.40	8327.63
429.59	8131.02
429.78	7836.11
429.97	7613.76
430.16	8152.09
430.34	8332.31
430.53	8353.37
430.72	8322.94
430.91	8430.61
431.10	8517.21
431.28	8423.59
431.47	8554.66
431.66	8786.37
431.85	8725.52
432.03	8865.95
432.22	8737.22
432.41	8870.63
432.60	8781.69
432.79	8938.51
432.97	8910.42
433.16	9027.45
433.35	9041.49
433.54	8924.46
433.72	9172.56
433.91	8933.82
434.10	9280.22
434.28	9153.84
434.47	9200.65
434.66	9514.28
434.85	9287.25
435.03	9687.48
435.22	9549.39
435.41	9767.06
435.59	9769.40
435.78	9668.75
435.97	9865.36
436.16	9652.37
436.34	9788.12
436.53	9708.54
436.72	9970.68
436.90	9533.00
437.09	9788.12
437.28	9575.13
437.46	9781.10
437.65	9998.77
437.84	10104.09
438.02	10029.20
438.21	9921.53
438.40	9919.19
438.58	10389.64
438.77	10274.95
438.96	10328.78
439.14	10654.12
439.33	10860.09
439.52	10661.14
439.70	10789.87
439.89	10944.34
440.08	10913.92
440.26	10970.09
440.45	10672.84
440.63	10899.87
440.82	11403.09
441.01	11208.83
441.19	11473.31
441.38	11236.91
441.57	11489.69
441.75	11522.46
441.94	11644.17
442.12	11616.08
442.31	11847.79
442.50	11906.31
442.68	11894.60
442.87	11875.88
443.05	11903.96
443.24	12147.38
443.43	12072.48
443.61	12226.96
443.80	12465.69
443.98	12063.12
444.17	11632.46
444.35	12173.13
444.54	12430.59
444.73	12358.03
444.91	12243.34
445.10	12248.02
445.28	12421.22
445.47	12372.07
445.65	12351.01
445.84	12470.37
446.02	12615.49
446.21	12390.80
446.39	12472.71
446.58	12730.17
446.77	12596.76
446.95	12217.60
447.14	12521.87
447.32	12788.69
447.51	12552.29
447.69	12360.37
447.88	12634.21
448.06	12561.66
448.25	12561.66
448.43	12938.48
448.62	12760.60
448.80	12730.17
448.99	12786.35
449.17	12903.37
449.36	12908.05
449.54	13350.42
449.73	13338.71
449.91	13413.61
450.10	13212.32
450.28	13495.53
450.46	13500.21
450.65	13446.38
450.83	13406.59
451.02	13355.10
451.20	13593.83
451.39	13699.16
451.57	13341.05
451.76	13425.31
451.94	13891.08
452.13	13748.31
452.31	13984.70
452.49	13568.09
452.68	14209.39
452.86	13834.91
453.05	14164.92
453.23	14143.86
453.42	14017.47
453.60	13738.94
453.78	14132.15
453.97	13905.12
454.15	14221.10
454.34	14036.19
454.52	14525.36
454.70	14485.58
454.89	14473.87
455.07	14455.15
455.26	14576.86
455.44	14710.27
455.62	14871.76
455.81	14726.65
455.99	14726.65
456.17	14939.64
456.36	14993.47
456.54	14895.17
456.73	15279.02
456.91	15632.44
457.09	15482.64
457.28	15484.98
457.46	15466.26
457.64	15716.70
457.83	15829.04
458.01	15592.65
458.19	15852.45
458.38	15630.10
458.56	16023.31
458.74	15922.66
458.93	16091.18
459.11	16217.57
459.29	16238.64
459.48	16170.76
459.66	15955.43
459.84	16189.49
460.03	16533.54
460.21	16280.77
460.39	16350.98
460.57	16460.99
460.76	16732.49
460.94	16521.84
461.12	16390.77
461.31	16458.65
461.49	16678.66
461.67	16510.14
461.85	16929.09
462.04	16966.54
462.22	17301.24
462.40	17352.73
462.59	17092.93
462.77	17245.07
462.95	17392.52
463.13	17074.21
463.32	17474.44
463.50	17724.88
463.68	17575.08
463.86	17841.90
464.05	17394.86
464.23	17334.01
464.41	17565.72
464.59	17539.97
464.78	18150.85
464.96	17715.51
465.14	17923.82
465.32	17879.35
465.50	17998.72
465.69	17980.00
465.87	18082.98
466.05	18043.19
466.23	18071.28
466.41	18218.73
466.60	18317.03
466.78	18029.15
466.96	18157.88
467.14	18609.60
467.32	18560.45
467.51	18799.18
467.69	18178.94
467.87	18754.71
468.05	18801.52
468.23	18434.06
468.41	18799.18
468.60	18956.00
468.78	18951.32
468.96	18670.45
469.14	19173.67
469.32	19087.07
469.50	18611.94
469.69	18864.72
469.87	19503.68
470.05	19524.75
470.23	19597.31
470.41	19672.20
470.59	19676.88
470.77	19744.76
470.95	19342.19
471.14	20210.53
471.32	19908.60
471.50	20027.96
471.68	20112.22
471.86	20184.78
472.04	20189.46
472.22	20964.18
472.40	20496.07
472.58	20610.76
472.77	21226.32
472.95	20861.19
473.13	21727.19
473.31	20790.98
473.49	21074.18
473.67	21170.15
473.85	21245.04
474.03	21865.28
474.21	21476.76
474.39	21586.76
474.57	21631.23
474.75	22195.30
474.93	22473.82
475.12	22246.79
475.30	22689.15
475.48	22139.13
475.66	22984.06
475.84	22551.06
476.02	23143.22
476.20	23133.86
476.38	23204.07
476.56	23910.91
476.74	23859.42
476.92	23667.50
477.10	23983.47
477.28	24231.57
477.46	24016.24
477.64	24430.51
477.82	24631.80
478.00	25029.69
478.18	25284.81
478.36	25352.68
478.54	25998.67
478.72	25558.65
478.90	25891.01
479.08	26235.06
479.26	26579.12
479.44	26178.89
479.62	27002.76
479.80	27119.79
479.98	27318.73
480.16	27646.41
480.34	27360.86
480.52	27892.16
480.70	27899.19
480.88	27360.86
481.06	27936.63
481.24	28030.26
481.41	28793.27
481.59	28744.12
481.77	29046.05
481.95	28973.49
482.13	29336.27
482.31	29523.52
482.49	30265.47
482.67	30398.88
482.85	30377.81
483.03	30490.16
483.21	30888.05
483.39	31351.48
483.57	31044.87
483.74	31304.67
483.92	32261.94
484.10	31587.87
484.28	32992.19
484.46	32870.48
484.64	33064.75
484.82	32788.56
485.00	33184.12
485.18	33553.92
485.35	34766.32
485.53	34171.82
485.71	34403.53
485.89	34719.51
486.07	34866.96
486.25	34794.40
486.43	35126.76
486.61	35695.51
486.78	35857.01
486.96	36385.97
487.14	36615.34
487.32	36505.34
487.50	37504.74
487.68	37539.85
487.85	37921.36
488.03	38305.21
488.21	38548.62
488.39	38415.21
488.57	38778.00
488.75	38717.14
488.92	39138.44
489.10	40067.63
489.28	39941.24
489.46	40245.51
489.64	40348.50
489.81	40655.11
489.99	40858.73
490.17	41539.83
490.35	41797.29
490.53	41876.86
490.70	42045.38
490.88	42319.23
491.06	42672.65
491.24	42838.83
491.41	43000.32
491.59	43330.34
491.77	43189.91
491.95	43627.59
492.13	44308.68
492.30	44451.45
492.48	44357.83
492.66	44594.23
492.84	44751.04
493.01	45333.84
493.19	45230.85
493.37	45862.80
493.54	45804.28
493.72	46340.27
493.90	46342.61
494.08	46857.52
494.25	46878.59
494.43	46923.06
494.61	47760.97
494.79	47655.65
494.96	47489.47
495.14	47969.28
495.32	48247.80
495.49	48151.84
495.67	48788.47
495.85	48954.64
496.02	49193.38
496.20	49460.20
496.38	49350.20
496.55	49399.35
496.73	50405.78
496.91	50035.97
497.09	50405.78
497.26	50445.57
497.44	50672.60
497.62	50696.00
497.79	50981.55
497.97	50923.04
498.14	51398.16
498.32	51763.29
498.50	51711.80
498.67	51936.49
498.85	52289.91
499.03	52207.99
499.20	52278.21
499.38	52516.94
499.56	52837.59
499.73	52706.52
499.91	52989.73
500.08	53413.37
500.26	53062.29
500.44	53235.48
500.61	53394.64
500.79	53132.50
500.97	53521.03
501.14	53923.60
501.32	53874.45
501.49	53736.36
501.67	54204.47
501.84	54082.76
502.02	54368.30
502.20	54426.82
502.37	54646.83
502.55	54536.82
502.72	54805.98
502.90	54841.09
503.07	54705.34
503.25	54815.35
503.43	54988.55
503.60	55161.75
503.78	55426.23
503.95	55458.99
504.13	55622.83
504.30	55632.19
504.48	55557.30
504.65	55648.58
504.83	56074.55
505.01	56296.91
505.18	56170.52
505.36	56594.15
505.53	56013.70
505.71	56287.54
505.88	56573.09
506.06	56247.75
506.23	56823.53
506.41	56556.70
506.58	56797.78
506.76	56844.59
506.93	56975.66
507.11	56980.34
507.28	57116.09
507.46	57359.51
507.63	57298.65
507.81	57366.53
507.98	57331.42
508.16	57172.27
508.33	57368.87
508.50	57806.55
508.68	57928.26
508.85	57902.51
509.03	57696.55
509.20	57993.79
509.38	58431.47
509.55	58169.33
509.73	58284.02
509.90	58445.52
510.08	58609.35
510.25	58695.95
510.42	58670.21
510.60	58698.30
510.77	58728.72
510.95	58922.99
511.12	58607.01
511.30	58710.00
511.47	59316.20
511.64	58934.69
511.82	59154.70
511.99	59119.59
512.17	59318.54
512.34	59217.89
512.51	59618.13
512.69	59583.02
512.86	59751.54
513.04	59898.99
513.21	59852.18
513.38	59753.88
513.56	59786.64
513.73	59859.20
513.90	60076.87
514.08	60236.03
514.25	60282.84
514.43	60402.21
514.60	60219.64
514.77	60261.77
514.95	60477.10
515.12	60280.50
515.29	60371.78
515.47	60722.86
515.64	60882.02
515.81	60680.73
515.99	60832.86
516.16	60842.23
516.33	60739.24
516.51	61041.17
516.68	61041.17
516.85	61125.43
517.03	61172.24
517.20	61324.38
517.37	61144.16
517.54	61359.48
517.72	61069.26
517.89	61043.51
518.06	61565.45
518.24	61511.62
518.41	61579.49
518.58	61504.60
518.75	61216.71
518.93	61687.16
519.10	61619.28
519.27	61888.45
519.45	61813.55
519.62	62145.90
519.79	61963.34
519.96	62115.48
520.14	62080.37
520.31	61888.45
520.48	62284.00
520.65	62209.10
520.83	62188.03
521.00	62403.36
521.17	62511.03
521.34	62445.49
521.52	62480.60
521.69	62525.07
521.86	62548.48
522.03	62628.05
522.20	62983.82
522.38	62880.83
522.55	62988.50
522.72	63096.16
522.89	62838.70
523.07	63002.54
523.24	62834.02
523.41	62946.37
523.58	62770.83
523.75	63323.19
523.92	63234.25
524.10	63426.18
524.27	63458.94
524.44	63318.51
524.61	63428.52
524.78	63575.97
524.96	63559.59
525.13	63606.40
525.30	63767.90
525.47	63983.22
525.64	63662.57
525.81	63711.72
525.98	63814.71
526.16	63683.64
526.33	63826.41
526.50	64118.98
526.67	63849.81
526.84	64210.26
527.01	64158.76
527.18	64163.45
527.36	64142.38
527.53	64067.48
527.70	64320.26
527.87	64385.80
528.04	64236.00
528.21	64551.98
528.38	64439.63
528.55	64650.28
528.72	64362.39
528.89	64324.94
529.07	64444.31
529.24	64451.33
529.41	64783.69
529.58	64823.48
529.75	64940.50
529.92	64715.81
530.09	64776.67
530.26	64797.73
530.43	64865.61
530.60	64755.60
530.77	64657.30
530.94	64989.66
531.11	65104.34
531.28	64984.97
531.46	65092.64
531.63	65132.43
531.80	65031.78
531.97	65197.96
532.14	65293.92
532.31	65207.32
532.48	65380.52
532.65	65441.38
532.82	65307.97
532.99	65535.00
533.16	65322.01
533.33	65535.00
533.50	65535.00
533.67	65478.83
533.84	65535.00
534.01	65509.25
534.18	65535.00
534.35	65535.00
534.52	65535.00
534.69	65535.00
534.86	65535.00
535.03	65535.00
535.20	65535.00
535.37	65535.00
535.54	65535.00
535.71	65535.00
535.88	65535.00
536.05	65535.00
536.22	65535.00
536.38	65535.00
536.55	65535.00
536.72	65535.00
536.89	65535.00
537.06	65535.00
537.23	65535.00
537.40	65535.00
537.57	65535.00
537.74	65535.00
537.91	65535.00
538.08	65535.00
538.25	65535.00
538.42	65535.00
538.59	65535.00
538.75	65535.00
538.92	65535.00
539.09	65535.00
539.26	65535.00
539.43	65535.00
539.60	65535.00
539.77	65535.00
539.94	65535.00
540.11	65535.00
540.28	65535.00
540.44	65535.00
540.61	65535.00
540.78	65535.00
540.95	65535.00
541.12	65535.00
541.29	65535.00
541.46	65535.00
541.62	65535.00
541.79	65535.00
541.96	65535.00
542.13	65535.00
542.30	65535.00
542.47	65535.00
542.63	65535.00
542.80	65535.00
542.97	65535.00
543.14	65535.00
543.31	65535.00
543.48	65535.00
543.64	65535.00
543.81	65535.00
543.98	65535.00
544.15	65535.00
544.32	65535.00
544.48	65535.00
544.65	65535.00
544.82	65535.00
544.99	65535.00
545.16	65535.00
545.32	65535.00
545.49	65535.00
545.66	65535.00
545.83	65535.00
546.00	65535.00
546.16	65535.00
546.33	65535.00
546.50	65535.00
546.67	65535.00
546.83	65535.00
547.00	65535.00
547.17	65535.00
547.34	65535.00
547.50	65535.00
547.67	65535.00
547.84	65535.00
548.00	65535.00
548.17	65535.00
548.34	65535.00
548.51	65535.00
548.67	65535.00
548.84	65535.00
549.01	65535.00
549.18	65535.00
549.34	65535.00
549.51	65535.00
549.68	65535.00
549.84	65535.00
550.01	65535.00
550.18	65535.00
550.34	65535.00
550.51	65535.00
550.68	65535.00
550.84	65535.00
551.01	65535.00
551.18	65535.00
551.34	65535.00
551.51	65535.00
551.68	65535.00
551.84	65535.00
552.01	65535.00
552.18	65535.00
552.34	65535.00
552.51	65535.00
552.68	65535.00
552.84	65535.00
553.01	65535.00
553.18	65535.00
553.34	65535.00
553.51	65535.00
553.67	65535.00
553.84	65535.00
554.01	65535.00
554.17	65535.00
554.34	65535.00
554.51	65535.00
554.67	65535.00
554.84	65535.00
555.00	65535.00
555.17	65535.00
555.33	65535.00
555.50	65535.00
555.67	65535.00
555.83	65535.00
556.00	65535.00
556.16	65535.00
556.33	65535.00
556.50	65535.00
556.66	65535.00
556.83	65535.00
556.99	65535.00
557.16	65535.00
557.32	65535.00
557.49	65535.00
557.65	65535.00
557.82	65535.00
557.98	65535.00
558.15	65535.00
558.32	65535.00
558.48	65535.00
558.65	65535.00
558.81	65535.00
558.98	65535.00
559.14	65535.00
559.31	65535.00
559.47	65535.00
559.64	65535.00
559.80	65535.00
559.97	65535.00
560.13	65535.00
560.30	65535.00
560.46	65535.00
560.63	65535.00
560.79	65535.00
560.96	65535.00
561.12	65535.00
561.29	65535.00
561.45	65535.00
561.61	65535.00
561.78	65535.00
561.94	65535.00
562.11	65535.00
562.27	65535.00
562.44	65535.00
562.60	65535.00
562.77	65535.00
562.93	65535.00
563.10	65535.00
563.26	65535.00
563.42	65535.00
563.59	65535.00
563.75	65535.00
563.92	65535.00
564.08	65535.00
564.24	65535.00
564.41	65535.00
564.57	65535.00
564.74	65535.00
564.90	65535.00
565.07	65535.00
565.23	65535.00
565.39	65535.00
565.56	65535.00
565.72	65535.00
565.88	65535.00
566.05	65535.00
566.21	65535.00
566.38	65535.00
566.54	65535.00
566.70	65535.00
566.87	65535.00
567.03	65535.00
567.19	65535.00
567.36	65535.00
567.52	65535.00
567.68	65535.00
567.85	65535.00
568.01	65535.00
568.17	65535.00
568.34	65535.00
568.50	65535.00
568.66	65535.00
568.83	65535.00
568.99	65535.00
569.15	65535.00
569.32	65535.00
569.48	65535.00
569.64	65535.00
569.81	65535.00
569.97	65535.00
570.13	65535.00
570.30	65535.00
570.46	65535.00
570.62	65535.00
570.78	65535.00
570.95	65535.00
571.11	65535.00
571.27	65535.00
571.43	65535.00
571.60	65535.00
571.76	65535.00
571.92	65535.00
572.09	65535.00
572.25	65535.00
572.41	65535.00
572.57	65535.00
572.74	65535.00
572.90	65535.00
573.06	65535.00
573.22	65535.00
573.38	65535.00
573.55	65535.00
573.71	65535.00
573.87	65535.00
574.03	65535.00
574.20	65535.00
574.36	65535.00
574.52	65535.00
574.68	65535.00
574.84	65535.00
575.01	65535.00
575.17	65535.00
575.33	65535.00
575.49	65535.00
575.65	65535.00
575.82	65535.00
575.98	65535.00
576.14	65535.00
576.30	65535.00
576.46	65535.00
576.62	65535.00
576.79	65535.00
576.95	65535.00
577.11	65535.00
577.27	65535.00
577.43	65535.00
577.59	65535.00
577.75	65535.00
577.92	65535.00
578.08	65535.00
578.24	65535.00
578.40	65535.00
578.56	65535.00
578.72	65535.00
578.88	65535.00
579.04	65535.00
579.21	65535.00
579.37	65535.00
579.53	65535.00
579.69	65535.00
579.85	65535.00
580.01	65535.00
580.17	65535.00
580.33	65535.00
580.49	65535.00
580.65	65535.00
580.82	65535.00
580.98	65535.00
581.14	65535.00
581.30	65535.00
581.46	65535.00
581.62	65535.00
581.78	65535.00
581.94	65535.00
582.10	65535.00
582.26	65535.00
582.42	65535.00
582.58	65535.00
582.74	65535.00
582.90	65535.00
583.06	65535.00
583.22	65535.00
583.38	65535.00
583.54	65535.00
583.70	65535.00
583.86	65535.00
584.02	65535.00
584.18	65535.00
584.34	65535.00
584.50	65535.00
584.66	65535.00
584.82	65535.00
584.98	65535.00
585.14	65535.00
585.30	65535.00
585.46	65535.00
585.62	65535.00
585.78	65535.00
585.94	65535.00
586.10	65535.00
586.26	65535.00
586.42	65535.00
586.58	65535.00
586.74	65535.00
586.90	65535.00
587.06	65535.00
