SpectraSuite Data File
++++++++++++++++++++++++++++++++++++
Date: Thu Oct 24 13:21:19 EDT 2013
User: stostad
Dark Spectrum Present: No
Reference Spectrum Present: No
Number of Sampled Component Spectra: 1
Spectrometers: USB2+H05261
Integration Time (usec): 100000 (USB2+H05261)
Spectra Averaged: 1 (USB2+H05261)
Boxcar Smoothing: 0 (USB2+H05261)
Correct for Electrical Dark: No (USB2+H05261)
Strobe/Lamp Enabled: No (USB2+H05261)
Correct for Detector Non-linearity: No (USB2+H05261)
Correct for Stray Light: No (USB2+H05261)
Number of Pixels in Processed Spectrum: 2048
>>>>>Begin Processed Spectral Data<<<<<
365.73	477.47
365.92	477.47
366.12	477.47
366.32	524.28
366.52	451.72
366.72	475.13
366.91	512.58
367.11	423.64
367.31	433.00
367.51	465.77
367.70	468.11
367.90	458.74
368.10	514.92
368.30	414.27
368.49	428.32
368.69	465.77
368.89	447.04
369.09	449.38
369.28	437.68
369.48	437.68
369.68	543.00
369.87	540.66
370.07	552.37
370.27	510.24
370.47	636.63
370.66	758.33
370.86	849.61
371.06	877.70
371.25	833.23
371.45	849.61
371.65	945.58
371.84	891.74
372.04	924.51
372.24	898.77
372.44	910.47
372.63	985.37
372.83	917.49
373.03	931.53
373.22	931.53
373.42	950.26
373.62	985.37
373.81	964.30
374.01	936.21
374.21	973.66
374.40	945.58
374.60	997.07
374.79	959.62
374.99	961.96
375.19	968.98
375.38	1027.50
375.58	926.85
375.78	1015.79
375.97	1015.79
376.17	1032.18
376.37	1025.15
376.56	966.64
376.76	1046.22
376.95	1018.13
377.15	1039.20
377.35	1048.56
377.54	1041.54
377.74	1004.09
377.93	1039.20
378.13	1006.43
378.33	1074.31
378.52	1102.39
378.72	1069.62
378.91	1093.03
379.11	1046.22
379.31	1067.28
379.50	985.37
379.70	1053.24
379.89	1102.39
380.09	1048.56
380.28	1100.05
380.48	1128.14
380.68	1090.69
380.87	1132.82
381.07	1100.05
381.26	1137.50
381.46	1048.56
381.65	1020.47
381.85	1135.16
382.04	1135.16
382.24	1172.61
382.43	1104.73
382.63	1128.14
382.83	1123.46
383.02	1149.20
383.22	1146.86
383.41	1167.93
383.61	1095.37
383.80	1149.20
384.00	1228.78
384.19	1118.78
384.39	1174.95
384.58	1207.72
384.78	1174.95
384.97	1118.78
385.17	1245.16
385.36	1275.59
385.56	1184.31
385.75	1188.99
385.95	1191.33
386.14	1249.85
386.34	1242.82
386.53	1207.72
386.72	1217.08
386.92	1193.67
387.11	1214.74
387.31	1259.21
387.50	1252.19
387.70	1263.89
387.89	1205.38
388.09	1207.72
388.28	1261.55
388.48	1266.23
388.67	1313.04
388.86	1247.51
389.06	1308.36
389.25	1390.28
389.45	1355.17
389.64	1364.53
389.84	1355.17
390.03	1392.62
390.22	1329.42
390.42	1350.49
390.61	1341.13
390.81	1352.83
391.00	1387.94
391.19	1390.28
391.39	1551.78
391.58	1401.98
391.78	1416.02
391.97	1519.01
392.16	1359.85
392.36	1392.62
392.55	1380.92
392.75	1411.34
392.94	1523.69
393.13	1472.20
393.33	1404.32
393.52	1511.99
393.71	1460.49
393.91	1474.54
394.10	1465.18
394.29	1523.69
394.49	1509.65
394.68	1535.39
394.88	1523.69
395.07	1654.76
395.26	1554.12
395.46	1568.16
395.65	1547.09
395.84	1579.86
396.04	1589.22
396.23	1640.72
396.42	1582.20
396.62	1748.38
396.81	1572.84
397.00	1600.93
397.19	1638.38
397.39	1703.91
397.58	1685.19
397.77	1675.82
397.97	1659.44
398.16	1654.76
398.35	1654.76
398.55	1659.44
398.74	1724.97
398.93	1715.61
399.12	1699.23
399.32	1680.50
399.51	1743.70
399.70	1788.17
399.90	1720.29
400.09	1717.95
400.28	1774.13
400.47	1732.00
400.67	1764.76
400.86	1865.41
401.05	1757.74
401.24	1856.04
401.44	1818.60
401.63	1895.83
401.82	1893.49
402.01	1874.77
402.21	2019.88
402.40	1802.21
402.59	1909.88
402.78	1902.86
402.97	1968.39
403.17	1933.28
403.36	2003.50
403.55	1966.05
403.74	2066.69
403.93	2094.78
404.13	2153.29
404.32	2129.89
404.51	2155.63
404.70	2120.53
404.89	2097.12
405.09	2167.34
405.28	2113.50
405.47	2139.25
405.66	2169.68
405.85	2225.85
406.05	2202.44
406.24	2223.51
406.43	2169.68
406.62	2289.04
406.81	2385.01
407.00	2293.72
407.20	2225.85
407.39	2235.21
407.58	2277.34
407.77	2286.70
407.96	2349.90
408.15	2385.01
408.34	2253.94
408.54	2321.81
408.73	2377.98
408.92	2462.24
409.11	2401.39
409.30	2492.67
409.49	2422.45
409.68	2464.58
409.87	2441.18
410.07	2452.88
410.26	2567.57
410.45	2572.25
410.64	2513.74
410.83	2509.05
411.02	2560.55
411.21	2654.17
411.40	2600.34
411.59	2661.19
411.78	2644.81
411.98	2656.51
412.17	2696.30
412.36	2733.75
412.55	2775.88
412.74	2801.62
412.93	2789.92
413.12	2729.06
413.31	3002.91
413.50	2897.58
413.69	2944.39
413.88	3021.63
414.07	2977.16
414.26	2974.82
414.45	2883.54
414.64	2916.31
414.83	3084.83
415.02	3136.32
415.22	3173.77
415.41	3152.70
415.60	3042.70
415.79	3171.43
415.98	3297.81
416.17	3105.89
416.36	3199.51
416.55	3201.85
416.74	3225.26
416.93	3117.59
417.12	3199.51
417.31	3353.99
417.50	3356.33
417.69	3433.57
417.88	3419.52
418.07	3372.71
418.26	3389.10
418.45	3513.14
418.64	3531.87
418.83	3424.20
419.02	3419.52
419.21	3435.91
419.39	3482.72
419.58	3531.87
419.77	3595.06
419.96	3592.72
420.15	3674.64
420.34	3662.94
420.53	3581.02
420.72	3786.99
420.91	3602.08
421.10	3691.02
421.29	3719.11
421.48	3693.37
421.67	3779.97
421.86	3815.07
422.05	3824.44
422.24	3648.90
422.43	3693.37
422.61	3784.65
422.80	3812.73
422.99	3754.22
423.18	3838.48
423.37	3808.05
423.56	3857.20
423.75	3838.48
423.94	3803.37
424.13	3538.89
424.32	3765.92
424.50	3805.71
424.69	3871.25
424.88	3843.16
425.07	3864.22
425.26	3908.69
425.45	3857.20
425.64	3730.81
425.83	3946.14
426.01	3962.53
426.20	3871.25
426.39	3857.20
426.58	4011.68
426.77	3915.72
426.96	3971.89
427.15	4035.08
427.33	4067.85
427.52	4070.19
427.71	4102.96
427.90	4042.11
428.09	4081.89
428.28	4194.24
428.46	4023.38
428.65	4184.88
428.84	4168.49
429.03	4248.07
429.22	4280.84
429.40	4147.43
429.59	4250.41
429.78	4166.15
429.97	4056.15
430.16	4266.80
430.34	4510.21
430.53	4397.87
430.72	4245.73
430.91	4276.16
431.10	4344.03
431.28	4432.97
431.47	4444.68
431.66	4409.57
431.85	4442.34
432.03	4688.09
432.22	4554.68
432.41	4496.17
432.60	4533.62
432.79	4678.73
432.97	4718.52
433.16	4620.22
433.35	4559.36
433.54	4596.81
433.72	4683.41
433.91	4807.46
434.10	4645.96
434.28	4681.07
434.47	4896.40
434.66	4887.04
434.85	4865.97
435.03	5022.79
435.22	5027.47
435.41	5270.89
435.59	5200.67
435.78	5111.73
435.97	5027.47
436.16	4957.25
436.34	4926.83
436.53	5036.83
436.72	4936.19
436.90	4992.36
437.09	5018.11
437.28	5006.41
437.46	5050.88
437.65	5074.28
437.84	5158.54
438.02	5011.09
438.21	5062.58
438.40	5172.58
438.58	5289.61
438.77	5160.88
438.96	5427.70
439.14	5418.34
439.33	5275.57
439.52	5434.72
439.70	5521.32
439.89	5577.50
440.08	5467.49
440.26	5352.81
440.45	5586.86
440.63	5495.58
440.82	5675.80
441.01	5692.18
441.19	5834.96
441.38	5802.19
441.57	5811.55
441.75	5926.24
441.94	5851.34
442.12	6024.54
442.31	6087.73
442.50	6120.50
442.68	5923.90
442.87	5891.13
443.05	5994.11
443.24	6087.73
443.43	6078.37
443.61	6160.29
443.80	6186.04
443.98	6094.76
444.17	5823.25
444.35	6099.44
444.54	6249.23
444.73	6043.26
444.91	6115.82
445.10	6225.82
445.28	6040.92
445.47	6129.86
445.65	6232.85
445.84	6319.45
446.02	6333.49
446.21	6282.00
446.39	6270.30
446.58	6485.62
446.77	6436.47
446.95	6319.45
447.14	6190.72
447.32	6464.56
447.51	6305.40
447.69	6392.00
447.88	6380.30
448.06	6331.15
448.25	6565.20
448.43	6443.49
448.62	6382.64
448.80	6342.85
448.99	6319.45
449.17	6689.25
449.36	6392.00
449.54	6597.97
449.73	6602.65
449.91	6590.95
450.10	6612.01
450.28	6576.91
450.46	6635.42
450.65	6626.06
450.83	6892.88
451.02	6773.51
451.20	6808.62
451.39	6813.30
451.57	6810.96
451.76	6752.45
451.94	6897.56
452.13	6862.45
452.31	6927.99
452.49	6855.43
452.68	6939.69
452.86	6871.81
453.05	7054.37
453.23	6963.09
453.42	6906.92
453.60	6857.77
453.78	7045.01
453.97	6958.41
454.15	7096.50
454.34	6972.46
454.52	7108.21
454.70	7110.55
454.89	6951.39
455.07	7117.57
455.26	7185.44
455.44	7234.60
455.62	7442.90
455.81	7269.70
455.99	7382.05
456.17	7358.64
456.36	7288.43
456.54	7379.71
456.73	7667.60
456.91	7599.72
457.09	7564.61
457.28	7646.53
457.46	7487.37
457.64	7700.36
457.83	7660.57
458.01	7737.81
458.19	7915.69
458.38	7775.26
458.56	7960.16
458.74	7964.84
458.93	7786.96
459.11	7810.37
459.29	7836.11
459.48	7836.11
459.66	7831.43
459.84	8086.55
460.03	8046.76
460.21	8013.99
460.39	8187.19
460.57	8081.87
460.76	8205.92
460.94	8301.88
461.12	8166.13
461.31	8163.79
461.49	8215.28
461.67	8318.26
461.85	8554.66
462.04	8182.51
462.22	8732.54
462.40	8524.23
462.59	8259.75
462.77	8334.65
462.95	8461.04
463.13	8400.18
463.32	8318.26
463.50	8552.32
463.68	8554.66
463.86	8657.64
464.05	8496.14
464.23	8484.44
464.41	8486.78
464.59	8524.23
464.78	8802.75
464.96	8638.92
465.14	8580.40
465.32	8739.56
465.50	8823.82
465.69	8638.92
465.87	8765.31
466.05	8713.81
466.23	8762.97
466.41	8720.84
466.60	9144.47
466.78	8891.70
466.96	9100.00
467.14	8992.34
467.32	8863.61
467.51	8849.57
467.69	8891.70
467.87	9018.08
468.05	9085.96
468.23	8889.35
468.41	8826.16
468.60	9226.39
468.78	9172.56
468.96	9055.53
469.14	9200.65
469.32	9570.45
469.50	9188.94
469.69	9254.48
469.87	9331.72
470.05	9448.74
470.23	9535.34
470.41	9376.19
470.59	9474.49
470.77	9727.27
470.95	9549.39
471.14	9935.57
471.32	9437.04
471.50	9771.74
471.68	9610.24
471.86	9973.02
472.04	9928.55
472.22	9987.07
472.40	9626.62
472.58	9905.15
472.77	10104.09
472.95	10178.99
473.13	10523.05
473.31	10352.19
473.49	10228.14
473.67	10094.73
473.85	10171.97
474.03	10326.44
474.21	10459.85
474.39	10565.18
474.57	10492.62
474.75	10714.97
474.93	10726.68
475.12	10773.49
475.30	10920.94
475.48	10714.97
475.66	10736.04
475.84	10913.92
476.02	11037.97
476.20	10965.41
476.38	11293.08
476.56	11573.95
476.74	11145.63
476.92	11358.62
477.10	11293.08
477.28	11604.38
477.46	11480.33
477.64	11749.49
477.82	11744.81
478.00	11974.18
478.18	11726.08
478.36	11800.98
478.54	12205.89
478.72	12233.98
478.90	12161.42
479.08	12233.98
479.26	12620.17
479.44	12620.17
479.62	12692.73
479.80	12788.69
479.98	12891.67
480.16	13167.85
480.34	13109.34
480.52	13083.59
480.70	13343.39
480.88	12982.95
481.06	13128.06
481.24	13451.06
481.41	13273.18
481.59	13748.31
481.77	13532.98
481.95	13745.97
482.13	14050.24
482.31	13841.93
482.49	14185.99
482.67	14340.46
482.85	14403.66
483.03	14293.65
483.21	14609.62
483.39	14932.62
483.57	14899.85
483.74	14848.36
483.92	15021.56
484.10	14703.25
484.28	15096.46
484.46	15667.55
484.64	15700.31
484.82	15693.29
485.00	15524.77
485.18	15999.90
485.35	16208.21
485.53	16353.32
485.71	16147.36
485.89	16865.90
486.07	16442.26
486.25	16367.37
486.43	16699.72
486.61	16985.27
486.78	17064.85
486.96	17123.36
487.14	17472.10
487.32	17348.05
487.50	17366.78
487.68	17509.55
487.85	17825.52
488.03	17923.82
488.21	17982.34
488.39	17982.34
488.57	18136.81
488.75	18698.54
488.92	18176.60
489.10	18686.84
489.28	18761.73
489.46	19300.06
489.64	18881.10
489.81	19646.46
489.99	19255.59
490.17	19419.42
490.35	19847.74
490.53	19854.76
490.70	19772.85
490.88	19686.25
491.06	20161.37
491.24	20194.14
491.41	20215.21
491.59	20491.39
491.77	20592.03
491.95	20657.57
492.13	20868.22
492.30	20800.34
492.48	21163.12
492.66	21202.91
492.84	21228.66
493.01	21427.60
493.19	21404.20
493.37	21790.39
493.54	21738.90
493.72	21921.46
493.90	22111.04
494.08	22195.30
494.25	22230.41
494.43	22494.89
494.61	22544.04
494.79	22607.23
494.96	22766.39
495.14	23229.82
495.32	23262.58
495.49	22934.91
495.67	23381.95
495.85	23419.40
496.02	23616.01
496.20	23934.32
496.38	23634.73
496.55	24046.66
496.73	24360.30
496.91	24009.22
497.09	24348.59
497.26	24151.99
497.44	24313.48
497.62	24580.31
497.79	24823.72
497.97	24638.82
498.14	25200.55
498.32	25249.70
498.50	25095.22
498.67	25521.20
498.85	25254.38
499.03	25563.33
499.20	25926.11
499.38	25802.07
499.56	25678.02
499.73	26143.78
499.91	25811.43
500.08	25935.48
500.26	25568.01
500.44	26075.91
500.61	26396.56
500.79	26700.83
500.97	26703.17
501.14	26857.65
501.32	26803.82
501.49	26611.89
501.67	26792.11
501.84	26934.88
502.02	27351.50
502.20	27702.58
502.37	27372.57
502.55	27431.08
502.72	27318.73
502.90	27611.30
503.07	27667.47
503.25	27468.53
503.43	27604.28
503.60	27606.62
503.78	28158.99
503.95	27510.66
504.13	28123.88
504.30	27995.15
504.48	28325.16
504.65	28582.62
504.83	28723.05
505.01	28711.35
505.18	28772.21
505.36	28746.46
505.53	28467.94
505.71	29153.71
505.88	29214.57
506.06	29244.99
506.23	28542.83
506.41	29027.32
506.58	29486.07
506.76	29336.27
506.93	29642.88
507.11	29336.27
507.28	30319.30
507.46	29649.91
507.63	30225.68
507.81	30064.18
507.98	30115.67
508.16	29979.92
508.33	29942.47
508.50	30331.00
508.68	30888.05
508.85	30469.09
509.03	30717.19
509.20	30579.10
509.38	30871.67
509.55	30778.04
509.73	31365.52
509.90	31424.03
510.08	31065.93
510.25	31124.44
510.42	31309.35
510.60	31468.50
510.77	31241.47
510.95	31718.94
511.12	31929.59
511.30	31299.98
511.47	32142.58
511.64	31426.37
511.82	31828.95
511.99	31931.93
512.17	31906.18
512.34	32187.05
512.51	32278.33
512.69	32393.01
512.86	32481.95
513.04	33273.06
513.21	32725.37
513.38	32861.12
513.56	32950.06
513.73	32758.14
513.90	33010.92
514.08	33244.97
514.25	33205.18
514.43	33481.36
514.60	33151.35
514.77	33029.64
514.95	33401.79
515.12	33387.74
515.29	33469.66
515.47	34031.39
515.64	33928.41
515.81	33677.97
515.99	34148.42
516.16	33722.44
516.33	33907.34
516.51	34459.71
516.68	34696.10
516.85	34125.01
517.03	34520.56
517.20	34410.56
517.37	34696.10
517.54	34597.80
517.72	34415.24
517.89	34848.24
518.06	34534.60
518.24	35154.85
518.41	35180.59
518.58	35180.59
518.75	34946.54
518.93	35269.53
519.10	35215.70
519.27	34958.24
519.45	35253.15
519.62	35618.27
519.79	35742.32
519.96	35517.63
520.14	35484.86
520.31	35154.85
520.48	35976.37
520.65	35620.61
520.83	36109.78
521.00	35878.07
521.17	35653.38
521.34	36273.62
521.52	36182.34
521.69	36144.89
521.86	36301.71
522.03	36430.44
522.20	36542.78
522.38	36687.90
522.55	37081.11
522.72	36828.33
522.89	36818.97
523.07	37418.14
523.24	36835.35
523.41	37146.64
523.58	36999.19
523.75	37357.29
523.92	37205.16
524.10	37338.57
524.27	37163.03
524.44	37724.75
524.61	37778.59
524.78	37544.53
524.96	37535.17
525.13	37818.38
525.30	38082.86
525.47	37780.93
525.64	37731.78
525.81	38127.33
525.98	38155.41
526.16	37696.67
526.33	37928.38
526.50	38272.44
526.67	38258.40
526.84	38583.73
527.01	38394.15
527.18	38143.71
527.36	38761.61
527.53	38546.28
527.70	38824.81
527.87	39012.05
528.04	38731.18
528.21	39058.86
528.38	38782.68
528.55	39395.90
528.72	38925.45
528.89	39154.82
529.07	39164.18
529.24	38562.67
529.41	39227.38
529.58	39419.30
529.75	39185.25
529.92	39494.20
530.09	39384.19
530.26	39468.45
530.43	39725.91
530.60	39440.37
530.77	39622.93
530.94	39915.50
531.11	39938.90
531.28	39807.83
531.46	40128.48
531.63	39817.19
531.80	40095.72
531.97	40076.99
532.14	40245.51
532.31	40430.41
532.48	40912.56
532.65	40657.45
532.82	40509.99
532.99	40472.54
533.16	40194.02
533.33	40762.77
533.50	40795.54
533.67	40652.76
533.84	40397.65
534.01	40886.82
534.18	41139.60
534.35	41017.89
534.52	40952.35
534.69	40823.62
534.86	40933.63
535.03	40811.92
535.20	41170.02
535.37	40964.06
535.54	41865.16
535.71	41099.81
535.88	41724.73
536.05	41560.89
536.22	41649.83
536.38	41474.29
536.55	41572.60
536.72	41855.80
536.89	41682.60
537.06	41818.35
537.23	42382.42
537.40	41858.14
537.57	41970.49
537.74	41706.01
537.91	42043.04
538.08	41979.85
538.25	41619.41
538.42	41979.85
538.59	42370.72
538.75	42012.62
538.92	42300.50
539.09	42192.84
539.26	42333.27
539.43	42249.01
539.60	42876.27
539.77	42763.93
539.94	43054.15
540.11	42930.11
540.28	42756.91
540.44	42684.35
540.61	43089.26
540.78	42845.85
540.95	42752.23
541.12	43175.86
541.29	43335.02
541.46	43096.28
541.62	43381.83
541.79	43791.42
541.96	43243.74
542.13	43608.86
542.30	43250.76
542.47	43304.59
542.63	43292.89
542.80	44013.77
542.97	44130.80
543.14	44163.57
543.31	44048.88
543.48	43981.01
543.64	44832.96
543.81	44573.16
543.98	44793.17
544.15	44362.51
544.32	44498.26
544.48	44807.22
544.65	44481.88
544.82	44406.98
544.99	44318.04
545.16	44292.30
545.32	44554.44
545.49	45170.00
545.66	45146.59
545.83	45071.70
546.00	45184.04
546.16	44942.97
546.33	45247.24
546.50	44612.95
546.67	45036.59
546.83	44474.86
547.00	44837.64
547.17	44924.24
547.34	45116.17
547.50	44524.01
547.67	45015.52
547.84	45141.91
548.00	45490.65
548.17	45909.61
548.34	44912.54
548.51	45462.57
548.67	45284.68
548.84	45324.47
549.01	45902.59
549.18	45509.38
549.34	45584.27
549.51	45708.32
549.68	45684.92
549.84	45717.68
550.01	45284.68
550.18	45090.42
550.34	45382.99
550.51	45741.09
550.68	45691.94
550.84	45565.55
551.01	45907.27
551.18	45514.06
551.34	45546.82
551.51	45696.62
551.68	45734.07
551.84	45523.42
552.01	45600.66
552.18	45963.44
552.34	46066.42
552.51	46417.50
552.68	46370.69
552.84	46068.76
553.01	46490.06
553.18	46073.45
553.34	45872.16
553.51	46117.92
553.67	46185.79
553.84	46920.72
554.01	46892.63
554.17	46553.26
554.34	46616.45
554.51	46557.94
554.67	46721.77
554.84	46356.65
555.00	46464.32
555.17	46251.33
555.33	46342.61
555.50	46216.22
555.67	46328.56
555.83	46927.74
556.00	46717.09
556.16	47002.64
556.33	46747.52
556.50	46354.31
556.66	46490.06
556.83	46637.51
556.99	46569.64
557.16	47262.44
557.32	47150.09
557.49	47037.75
557.65	47033.07
557.82	47023.70
557.98	46953.49
558.15	46822.42
558.32	47210.95
558.48	47021.36
558.65	47234.35
558.81	47337.33
558.98	47112.64
559.14	47327.97
559.31	47330.31
559.47	46873.91
559.64	47337.33
559.80	46913.70
559.97	47119.66
560.13	47199.24
560.30	47346.70
560.46	47491.81
560.63	47491.81
560.79	47529.26
560.96	47906.08
561.12	47639.26
561.29	47285.84
561.45	47753.95
561.61	47730.54
561.78	47412.23
561.94	47786.72
562.11	48025.45
562.27	47814.80
562.44	47922.47
562.60	47878.00
562.77	47585.43
562.93	47349.04
563.10	48088.65
563.26	47449.68
563.42	47796.08
563.59	47913.11
563.75	47962.26
563.92	47973.96
564.08	47721.18
564.24	48081.63
564.41	47737.57
564.57	47428.62
564.74	47550.32
564.90	48069.92
565.07	48523.99
565.23	48385.89
565.39	48336.74
565.56	48170.57
565.72	48236.10
565.88	48584.84
566.05	47889.70
566.21	47728.20
566.38	47552.66
566.54	47508.19
566.70	48039.50
566.87	48287.59
567.03	48409.30
567.19	48598.88
567.36	48821.23
567.52	48346.11
567.68	48191.63
567.85	48177.59
568.01	48470.15
568.17	48121.41
568.34	47856.93
568.50	48016.09
568.66	48196.31
568.83	48154.18
568.99	48257.17
569.15	48044.18
569.32	47943.53
569.48	47943.53
569.64	48083.97
569.81	48327.38
569.97	48437.39
570.13	48715.91
570.30	48425.68
570.46	48594.20
570.62	48121.41
570.78	48247.80
570.95	48121.41
571.11	48395.26
571.27	48259.51
571.43	48446.75
571.60	48168.22
571.76	48369.51
571.92	48144.82
572.09	48638.67
572.25	48713.57
572.41	48809.53
572.57	48942.94
572.74	49088.06
572.90	48264.19
573.06	48622.29
573.22	48353.13
573.38	48898.47
573.55	48357.81
573.71	48418.66
573.87	48481.86
574.03	48914.86
574.20	48891.45
574.36	48835.28
574.52	48355.47
574.68	48648.03
574.84	48729.95
575.01	48732.29
575.17	48980.39
575.33	48460.79
575.49	48619.95
575.65	48648.03
575.82	49291.68
575.98	48449.09
576.14	49167.63
576.30	49209.76
576.46	49221.47
576.62	48601.22
576.79	48563.78
576.95	48900.81
577.11	48994.43
577.27	48945.28
577.43	49134.87
577.59	48947.62
577.75	48633.99
577.92	48697.19
578.08	49071.67
578.24	48800.17
578.40	48942.94
578.56	48638.67
578.72	48832.94
578.88	49062.31
579.04	49368.92
579.21	48966.35
579.37	49172.31
579.53	48985.07
579.69	48648.03
579.85	48722.93
580.01	49401.69
580.17	48690.16
580.33	49069.33
580.49	49095.08
580.65	49432.11
580.82	49209.76
580.98	49066.99
581.14	49347.86
581.30	49373.60
581.46	49013.16
581.62	48940.60
581.78	48964.01
581.94	49256.57
582.10	48788.47
582.26	49008.48
582.42	49228.49
582.58	48964.01
582.74	49265.94
582.90	49265.94
583.06	49099.76
583.22	49226.15
583.38	49179.34
583.54	48720.59
583.70	48973.37
583.86	49237.85
584.02	49144.23
584.18	49514.03
584.34	48774.42
584.50	49296.36
584.66	48942.94
584.82	49015.50
584.98	49090.40
585.14	49191.04
585.30	49010.82
585.46	49247.21
585.62	49104.44
585.78	49546.80
585.94	49071.67
586.10	49291.68
586.26	49008.48
586.42	49467.22
586.58	49298.70
586.74	49195.72
586.90	48816.55
587.06	49242.53
587.22	49345.51
587.38	48898.47
587.54	49507.01
587.70	49867.45
587.86	49607.65
588.02	49666.17
588.18	49404.03
588.34	49420.41
588.49	49408.71
588.65	48896.13
588.81	49289.34
588.97	49373.60
589.13	49516.37
