SpectraSuite Data File
++++++++++++++++++++++++++++++++++++
Date: Thu Oct 24 13:21:12 EDT 2013
User: stostad
Dark Spectrum Present: No
Reference Spectrum Present: No
Number of Sampled Component Spectra: 1
Spectrometers: USB2+H05261
Integration Time (usec): 100000 (USB2+H05261)
Spectra Averaged: 1 (USB2+H05261)
Boxcar Smoothing: 0 (USB2+H05261)
Correct for Electrical Dark: No (USB2+H05261)
Strobe/Lamp Enabled: No (USB2+H05261)
Correct for Detector Non-linearity: No (USB2+H05261)
Correct for Stray Light: No (USB2+H05261)
Number of Pixels in Processed Spectrum: 2048
>>>>>Begin Processed Spectral Data<<<<<
365.73	571.09
365.92	571.09
366.12	571.09
366.32	500.87
366.52	470.45
366.72	486.83
366.91	463.43
367.11	463.43
367.31	421.30
367.51	463.43
367.70	397.89
367.90	493.85
368.10	479.81
368.30	456.40
368.49	454.06
368.69	430.66
368.89	524.28
369.09	489.17
369.28	451.72
369.48	447.04
369.68	486.83
369.87	498.53
370.07	433.00
370.27	566.41
370.47	552.37
370.66	711.52
370.86	685.78
371.06	725.57
371.25	683.44
371.45	690.46
371.65	741.95
371.84	709.18
372.04	697.48
372.24	688.12
372.44	763.01
372.63	732.59
372.83	730.25
373.03	819.19
373.22	748.97
373.42	800.46
373.62	784.08
373.81	795.78
374.01	851.96
374.21	784.08
374.40	725.57
374.60	816.85
374.79	737.27
374.99	826.21
375.19	807.48
375.38	891.74
375.58	847.27
375.78	779.40
375.97	802.80
376.17	833.23
376.37	805.14
376.56	774.72
376.76	842.59
376.95	777.06
377.15	863.66
377.35	847.27
377.54	800.46
377.74	842.59
377.93	821.53
378.13	737.27
378.33	917.49
378.52	866.00
378.72	851.96
378.91	889.40
379.11	889.40
379.31	819.19
379.50	835.57
379.70	910.47
379.89	816.85
380.09	833.23
380.28	821.53
380.48	924.51
380.68	870.68
380.87	880.04
381.07	877.70
381.26	884.72
381.46	854.30
381.65	908.13
381.85	823.87
382.04	854.30
382.24	938.55
382.43	842.59
382.63	847.27
382.83	863.66
383.02	891.74
383.22	917.49
383.41	873.02
383.61	919.83
383.80	947.92
384.00	905.79
384.19	915.15
384.39	917.49
384.58	863.66
384.78	901.11
384.97	898.77
385.17	851.96
385.36	929.19
385.56	870.68
385.75	905.79
385.95	887.06
386.14	940.90
386.34	978.34
386.53	1011.11
386.72	887.06
386.92	976.00
387.11	966.64
387.31	854.30
387.50	950.26
387.70	917.49
387.89	868.34
388.09	905.79
388.28	983.02
388.48	964.30
388.67	901.11
388.86	866.00
389.06	945.58
389.25	936.21
389.45	973.66
389.64	887.06
389.84	961.96
390.03	976.00
390.22	938.55
390.42	1027.50
390.61	978.34
390.81	940.90
391.00	936.21
391.19	1064.94
391.39	994.73
391.58	1125.80
391.78	973.66
391.97	1046.22
392.16	971.32
392.36	1022.81
392.55	1060.26
392.75	1018.13
392.94	1018.13
393.13	994.73
393.33	1069.62
393.52	1062.60
393.71	1097.71
393.91	1053.24
394.10	1041.54
394.29	1043.88
394.49	1022.81
394.68	1097.71
394.88	1050.90
395.07	1083.67
395.26	1156.22
395.46	1160.91
395.65	1088.35
395.84	1055.58
396.04	1104.73
396.23	1158.57
396.42	1174.95
396.62	1142.18
396.81	1193.67
397.00	1128.14
397.19	1151.54
397.39	1107.07
397.58	1165.59
397.77	1174.95
397.97	1144.52
398.16	1142.18
398.35	1137.50
398.55	1163.25
398.74	1217.08
398.93	1188.99
399.12	1210.06
399.32	1132.82
399.51	1174.95
399.70	1277.93
399.90	1214.74
400.09	1240.48
400.28	1252.19
400.47	1198.35
400.67	1165.59
400.86	1196.01
401.05	1238.14
401.24	1273.25
401.44	1233.46
401.63	1282.61
401.82	1256.87
402.01	1268.57
402.21	1317.72
402.40	1261.55
402.59	1284.95
402.78	1294.32
402.97	1219.42
403.17	1458.15
403.36	1324.74
403.55	1362.19
403.74	1385.60
403.93	1394.96
404.13	1451.13
404.32	1476.88
404.51	1441.77
404.70	1526.03
404.89	1467.52
405.09	1383.26
405.28	1313.04
405.47	1401.98
405.66	1376.24
405.85	1542.41
406.05	1406.66
406.24	1409.00
406.43	1434.75
406.62	1476.88
406.81	1514.33
407.00	1458.15
407.20	1401.98
407.39	1493.26
407.58	1540.07
407.77	1535.39
407.96	1509.65
408.15	1474.54
408.34	1589.22
408.54	1551.78
408.73	1547.09
408.92	1584.54
409.11	1582.20
409.30	1680.50
409.49	1643.06
409.68	1617.31
409.87	1612.63
410.07	1610.29
410.26	1638.38
410.45	1652.42
410.64	1600.93
410.83	1612.63
411.02	1713.27
411.21	1743.70
411.40	1636.03
411.59	1776.47
411.78	1682.85
411.98	1774.13
412.17	1706.25
412.36	1776.47
412.55	1739.02
412.74	1827.96
412.93	1792.85
413.12	1783.49
413.31	1849.02
413.50	1860.73
413.69	1753.06
413.88	1863.07
414.07	1893.49
414.26	1886.47
414.45	1905.20
414.64	1895.83
414.83	1916.90
415.02	2022.22
415.22	1975.41
415.41	1987.11
415.60	1947.33
415.79	1944.99
415.98	1947.33
416.17	2017.54
416.36	1961.37
416.55	1977.75
416.74	2094.78
416.93	2099.46
417.12	2010.52
417.31	2043.29
417.50	2113.50
417.69	2179.04
417.88	2087.76
418.07	2139.25
418.26	2148.61
418.45	2143.93
418.64	2251.60
418.83	2172.02
419.02	2176.70
419.21	2249.25
419.39	2237.55
419.58	2242.23
419.77	2214.15
419.96	2193.08
420.15	2399.05
420.34	2218.83
420.53	2263.30
420.72	2406.07
420.91	2260.96
421.10	2310.11
421.29	2267.98
421.48	2197.76
421.67	2284.36
421.86	2359.26
422.05	2279.68
422.24	2284.36
422.43	2321.81
422.61	2352.24
422.80	2354.58
422.99	2363.94
423.18	2296.07
423.37	2401.39
423.56	2359.26
423.75	2342.88
423.94	2314.79
424.13	2284.36
424.32	2363.94
424.50	2363.94
424.69	2436.50
424.88	2424.80
425.07	2452.88
425.26	2392.03
425.45	2499.69
425.64	2361.60
425.83	2389.69
426.01	2401.39
426.20	2574.59
426.39	2478.63
426.58	2478.63
426.77	2375.64
426.96	2354.58
427.15	2473.95
427.33	2436.50
427.52	2422.45
427.71	2429.48
427.90	2466.92
428.09	2513.74
428.28	2513.74
428.46	2546.50
428.65	2490.33
428.84	2562.89
429.03	2642.46
429.22	2590.97
429.40	2546.50
429.59	2523.10
429.78	2392.03
429.97	2436.50
430.16	2471.61
430.34	2455.22
430.53	2656.51
430.72	2633.10
430.91	2663.53
431.10	2548.84
431.28	2595.65
431.47	2745.45
431.66	2722.04
431.85	2679.91
432.03	2726.72
432.22	2773.53
432.41	2626.08
432.60	2693.96
432.79	2661.19
432.97	2773.53
433.16	2754.81
433.35	2782.90
433.54	2766.51
433.72	2822.69
433.91	2874.18
434.10	2857.79
434.28	2789.92
434.47	2864.82
434.66	2810.98
434.85	2885.88
435.03	3000.57
435.22	3129.30
435.41	3318.88
435.59	3321.22
435.78	3166.74
435.97	3187.81
436.16	3133.98
436.34	2864.82
436.53	2860.13
436.72	3091.85
436.90	2904.60
437.09	3096.53
437.28	2958.44
437.46	2923.33
437.65	3052.06
437.84	3073.12
438.02	2967.80
438.21	3021.63
438.40	3000.57
438.58	3101.21
438.77	3290.79
438.96	3152.70
439.14	3103.55
439.33	3206.53
439.52	3073.12
439.70	3225.26
439.89	3290.79
440.08	3286.11
440.26	3346.97
440.45	3218.24
440.63	3293.13
440.82	3288.45
441.01	3166.74
441.19	3335.26
441.38	3398.46
441.57	3314.20
441.75	3487.40
441.94	3407.82
442.12	3576.34
442.31	3513.14
442.50	3461.65
442.68	3506.12
442.87	3463.99
443.05	3637.19
443.24	3494.42
443.43	3478.04
443.61	3466.33
443.80	3700.39
443.98	3522.51
444.17	3426.54
444.35	3513.14
444.54	3571.66
444.73	3522.51
444.91	3660.60
445.10	3627.83
445.28	3613.79
445.47	3609.11
445.65	3801.03
445.84	3662.94
446.02	3625.49
446.21	3545.91
446.39	3559.95
446.58	3684.00
446.77	3669.96
446.95	3660.60
447.14	3637.19
447.32	3691.02
447.51	3716.77
447.69	3604.42
447.88	3595.06
448.06	3637.19
448.25	3669.96
448.43	3679.32
448.62	3583.36
448.80	3611.45
448.99	3801.03
449.17	3705.07
449.36	3817.41
449.54	3796.35
449.73	3822.09
449.91	3943.80
450.10	3824.44
450.28	3784.65
450.46	3906.35
450.65	3845.50
450.83	3859.54
451.02	3882.95
451.20	3911.04
451.39	3932.10
451.57	3801.03
451.76	3922.74
451.94	3925.08
452.13	3932.10
452.31	3925.08
452.49	3957.85
452.68	3950.82
452.86	4037.42
453.05	3948.48
453.23	4032.74
453.42	3908.69
453.60	3978.91
453.78	3953.16
453.97	3889.97
454.15	4023.38
454.34	3911.04
454.52	4133.39
454.70	4030.40
454.89	4046.79
455.07	3992.95
455.26	4067.85
455.44	4201.26
455.62	4159.13
455.81	4170.83
455.99	4159.13
456.17	4234.03
456.36	4154.45
456.54	4210.62
456.73	4262.12
456.91	4332.33
457.09	4243.39
457.28	4325.31
457.46	4198.92
457.64	4395.53
457.83	4332.33
458.01	4208.28
458.19	4400.21
458.38	4348.72
458.56	4440.00
458.74	4297.22
458.93	4416.59
459.11	4423.61
459.29	4454.04
459.48	4477.44
459.66	4491.49
459.84	4514.89
460.03	4575.75
460.21	4484.47
460.39	4573.41
460.57	4538.30
460.76	4540.64
460.94	4592.13
461.12	4578.09
461.31	4585.11
461.49	4503.19
461.67	4627.24
461.85	4667.03
462.04	4568.73
462.22	5029.81
462.40	4844.91
462.59	4634.26
462.77	4741.93
462.95	4777.03
463.13	4741.93
463.32	4793.42
463.50	4795.76
463.68	4786.40
463.86	4887.04
464.05	4655.33
464.23	4798.10
464.41	4833.21
464.59	4823.84
464.78	4814.48
464.96	4975.98
465.14	4758.31
465.32	4880.02
465.50	4940.87
465.69	5137.48
465.87	4905.76
466.05	5015.77
466.23	4793.42
466.41	5008.75
466.60	5132.79
466.78	4919.81
466.96	4936.19
467.14	4873.00
467.32	4950.23
467.51	5050.88
467.69	4854.27
467.87	4973.64
468.05	5116.41
468.23	5050.88
468.41	5022.79
468.60	5163.22
468.78	5174.92
468.96	5046.20
469.14	5254.50
469.32	5184.29
469.50	5275.57
469.69	5109.39
469.87	5296.63
470.05	5172.58
470.23	5160.88
470.41	5200.67
470.59	5128.11
470.77	5184.29
470.95	5233.44
471.14	5493.24
471.32	5245.14
471.50	5345.78
471.68	5406.64
471.86	5338.76
472.04	5266.21
472.22	5537.71
472.40	5523.66
472.58	5404.30
472.77	5488.56
472.95	5605.58
473.13	5748.36
473.31	5509.62
473.49	5636.01
473.67	5636.01
473.85	5591.54
474.03	5617.29
474.21	5832.62
474.39	5659.42
474.57	5809.21
474.75	5860.70
474.93	5785.80
475.12	5902.83
475.30	5874.74
475.48	6019.86
475.66	5895.81
475.84	5809.21
476.02	6085.39
476.20	5947.30
476.38	6038.58
476.56	6188.38
476.74	6291.36
476.92	6162.63
477.10	6118.16
477.28	6267.95
477.46	6197.74
477.64	6399.02
477.82	6417.75
478.00	6626.06
478.18	6551.16
478.36	6593.29
478.54	6623.72
478.72	6750.10
478.90	6752.45
479.08	6787.55
479.26	6750.10
479.44	6911.60
479.62	6871.81
479.80	6998.20
479.98	6946.71
480.16	6960.75
480.34	6981.82
480.52	7176.08
480.70	7042.67
480.88	7049.69
481.06	7194.81
481.24	7309.49
481.41	7283.75
481.59	7536.52
481.77	7524.82
481.95	7449.93
482.13	7674.62
482.31	7393.75
482.49	7653.55
482.67	7775.26
482.85	7630.15
483.03	7901.65
483.21	7808.03
483.39	7913.35
483.57	7953.14
483.74	8018.68
483.92	7995.27
484.10	8140.38
484.28	8194.22
484.46	8411.89
484.64	8477.42
484.82	8376.78
485.00	8416.57
485.18	8692.75
485.35	8629.56
485.53	8678.71
485.71	8699.77
485.89	8704.45
486.07	8737.22
486.25	8994.68
486.43	9184.26
486.61	9011.06
486.78	9200.65
486.96	9174.90
487.14	9425.34
487.32	9273.20
487.50	9153.84
487.68	9453.42
487.85	9577.47
488.03	9537.68
488.21	9439.38
488.39	9635.99
488.57	9692.16
488.75	9675.77
488.92	9802.16
489.10	9816.21
489.28	10043.24
489.46	10113.45
489.64	9916.85
489.81	10277.29
489.99	10235.16
490.17	10244.52
490.35	10394.32
490.53	10590.92
490.70	10661.14
490.88	10628.37
491.06	10586.24
491.24	10824.98
491.41	10738.38
491.59	10918.60
491.77	11044.99
491.95	10810.93
492.13	10834.34
492.30	11016.90
492.48	11098.82
492.66	11037.97
492.84	10892.85
493.01	11382.03
493.19	11133.93
493.37	11517.78
493.54	11543.52
493.72	11531.82
493.90	11389.05
494.08	11454.58
494.25	11648.85
494.43	11576.29
494.61	11550.54
494.79	11742.47
494.96	11836.09
495.14	11742.47
495.32	12028.01
495.49	12023.33
495.67	12208.23
495.85	12149.72
496.02	12222.28
496.20	12285.47
496.38	12439.95
496.55	12512.50
496.73	12945.50
496.91	12393.14
497.09	12542.93
497.26	12837.84
497.44	12830.82
497.62	12737.20
497.79	12879.97
497.97	12704.43
498.14	12826.14
498.32	13202.96
498.50	12856.56
498.67	13231.05
498.85	12908.05
499.03	13291.90
499.20	13128.06
499.38	13490.85
499.56	13376.16
499.73	13448.72
499.91	13266.16
500.08	13591.49
500.26	13668.73
500.44	13525.96
500.61	13748.31
500.79	13785.76
500.97	13989.38
501.14	13736.60
501.32	13858.31
501.49	13951.93
501.67	14008.11
501.84	13949.59
502.02	13853.63
502.20	13851.29
502.37	14108.75
502.55	13886.40
502.72	14176.62
502.90	14310.04
503.07	14253.86
503.25	14347.48
503.43	14457.49
503.60	14508.98
503.78	14314.72
503.95	14291.31
504.13	14462.17
504.30	14441.11
504.48	14370.89
504.65	14892.83
504.83	15047.30
505.01	14918.57
505.18	14740.69
505.36	14876.44
505.53	14967.73
505.71	14754.74
505.88	15075.39
506.06	15051.99
506.23	15012.20
506.41	14925.60
506.58	15295.40
506.76	14993.47
506.93	15091.77
507.11	15267.31
507.28	15367.96
507.46	15592.65
507.63	15552.86
507.81	15459.24
507.98	15356.25
508.16	15597.33
508.33	15442.85
508.50	15351.57
508.68	15667.55
508.85	15901.60
509.03	15761.17
509.20	15639.46
509.38	16023.31
509.55	15943.73
509.73	15843.09
509.90	16287.79
510.08	16191.83
510.25	16105.23
510.42	15882.88
510.60	16184.80
510.77	16187.14
510.95	16358.00
511.12	16229.27
511.30	16301.83
511.47	16404.81
511.64	16432.90
511.82	16812.07
511.99	16641.21
512.17	16683.34
512.34	16479.71
512.51	16636.53
512.69	16519.50
512.86	16718.45
513.04	16781.64
513.21	16716.11
513.38	16919.73
513.56	16929.09
513.73	16739.51
513.90	17036.76
514.08	16809.73
514.25	17050.80
514.43	17460.40
514.60	17172.51
514.77	17228.68
514.95	17310.60
515.12	17149.11
515.29	16893.99
515.47	17268.47
515.64	17385.50
515.81	17479.12
515.99	17469.76
516.16	17673.39
516.33	17640.62
516.51	17638.28
516.68	17724.88
516.85	17678.07
517.03	17862.97
517.20	17734.24
517.37	17769.35
517.54	17696.79
517.72	17724.88
517.89	17600.83
518.06	17844.24
518.24	17923.82
518.41	17930.84
518.58	17757.64
518.75	17804.46
518.93	17841.90
519.10	17689.77
519.27	18207.03
519.45	18139.15
519.62	18466.83
519.79	18143.83
519.96	18300.65
520.14	18235.11
520.31	18288.95
520.48	18092.34
520.65	18242.14
520.83	18398.95
521.00	18707.90
521.17	18780.46
521.34	18501.93
521.52	18759.39
521.69	18342.78
521.86	18478.53
522.03	18576.83
522.20	18717.26
522.38	19435.81
522.55	18829.61
522.72	18773.44
522.89	19061.32
523.07	18958.34
523.24	18845.99
523.41	19037.92
523.58	18883.44
523.75	19087.07
523.92	18998.13
524.10	19513.05
524.27	19229.84
524.44	19323.46
524.61	19349.21
524.78	19290.70
524.96	19080.05
525.13	19178.35
525.30	19236.86
525.47	19463.90
525.64	19637.09
525.81	19314.10
525.98	19349.21
526.16	19489.64
526.33	19517.73
526.50	19709.65
526.67	19506.02
526.84	19630.07
527.01	19536.45
527.18	19749.44
527.36	19782.21
527.53	19487.30
527.70	20009.24
527.87	20046.69
528.04	19721.35
528.21	20074.77
528.38	19988.18
528.55	19910.94
528.72	19887.53
528.89	19758.80
529.07	19838.38
529.24	20018.60
529.41	20287.76
529.58	20196.48
529.75	20123.93
529.92	20079.46
530.09	20168.40
530.26	20236.27
530.43	20325.21
530.60	20114.56
530.77	20144.99
530.94	20437.56
531.11	20355.64
531.28	20255.00
531.46	20154.35
531.63	20475.01
531.80	20306.49
531.97	20449.26
532.14	20416.49
532.31	20606.08
532.48	20423.51
532.65	20926.73
532.82	20617.78
532.99	20177.76
533.16	20575.65
533.33	20805.02
533.50	20809.70
533.67	20819.07
533.84	20758.21
534.01	20980.56
534.18	20826.09
534.35	21240.36
534.52	20975.88
534.69	20849.49
534.86	20903.32
535.03	20910.35
535.20	21135.04
535.37	21308.24
535.54	21060.14
535.71	21200.57
535.88	21345.69
536.05	21303.56
536.22	21326.96
536.38	21310.58
536.55	21387.82
536.72	21383.13
536.89	21289.51
537.06	21818.47
537.23	21357.39
537.40	21493.14
537.57	21591.44
537.74	21703.79
537.91	21603.14
538.08	21408.88
538.25	21509.52
538.42	21469.73
538.59	21556.33
538.75	21621.87
538.92	21710.81
539.09	21612.51
539.26	21443.99
539.43	21804.43
539.60	21572.72
539.77	21968.27
539.94	22019.76
540.11	21968.27
540.28	22024.44
540.44	22010.40
540.61	22228.07
540.78	21944.86
540.95	22462.12
541.12	22143.81
541.29	22260.84
541.46	22415.31
541.62	22707.88
541.79	22836.61
541.96	22478.50
542.13	22768.73
542.30	22331.05
542.47	22445.74
542.63	22621.28
542.80	22597.87
542.97	22738.30
543.14	22539.36
543.31	22871.72
543.48	22927.89
543.64	22977.04
543.81	22621.28
543.98	22981.72
544.15	23070.66
544.32	23028.53
544.48	23323.44
544.65	23192.37
544.82	23112.79
544.99	22991.08
545.16	22913.84
545.32	23218.11
545.49	23585.58
545.66	23910.91
545.83	24144.97
546.00	24215.18
546.16	23679.20
546.33	23613.66
546.50	23098.75
546.67	23374.93
546.83	22895.12
547.00	22993.42
547.17	23126.83
547.34	23023.85
547.50	23077.68
547.67	23414.72
547.84	23082.36
548.00	23187.69
548.17	23344.50
548.34	22998.10
548.51	23330.46
548.67	23016.83
548.84	23000.44
549.01	23117.47
549.18	23220.45
549.34	23548.13
549.51	23117.47
549.68	23346.84
549.84	23262.58
550.01	23239.18
550.18	23393.65
550.34	23096.41
550.51	23400.68
550.68	23262.58
550.84	23253.22
551.01	23351.52
551.18	23089.38
551.34	22860.01
551.51	23381.95
551.68	23278.97
551.84	23592.60
552.01	23178.33
552.18	23157.26
552.34	23580.90
552.51	23527.06
552.68	23220.45
552.84	23199.39
553.01	23674.52
553.18	23644.09
553.34	23662.82
553.51	23353.87
553.67	23498.98
553.84	23733.03
554.01	23524.72
554.17	23527.06
554.34	23868.78
554.51	23765.80
554.67	23503.66
554.84	23419.40
555.00	23763.46
555.17	23330.46
555.33	23704.95
555.50	23697.92
555.67	23658.14
555.83	23718.99
556.00	23646.43
556.16	23742.39
556.33	23597.28
556.50	24137.94
556.66	23658.14
556.83	23854.74
556.99	23828.99
557.16	24177.73
557.32	23967.09
557.49	23917.93
557.65	23608.98
557.82	23676.86
557.98	23805.59
558.15	23906.23
558.32	24290.08
558.48	23550.47
558.65	23931.98
558.81	24072.41
558.98	23957.72
559.14	24037.30
559.31	23927.30
559.47	23697.92
559.64	23955.38
559.80	23777.50
559.97	24182.42
560.13	24166.03
560.30	23639.41
560.46	24023.26
560.63	24449.24
560.79	24446.90
560.96	24002.19
561.12	24079.43
561.29	24474.98
561.45	23988.15
561.61	24039.64
561.78	24215.18
561.94	24320.51
562.11	24217.52
562.27	24060.71
562.44	24357.96
562.60	24329.87
562.77	24322.85
562.93	24159.01
563.10	24388.38
563.26	24049.00
563.42	24622.44
563.59	24507.75
563.75	24627.12
563.92	24376.68
564.08	24402.43
564.24	24489.03
564.41	24491.37
564.57	24273.70
564.74	24142.63
564.90	24547.54
565.07	24088.79
565.23	24369.66
565.39	24198.80
565.56	24809.68
565.72	24184.76
565.88	24482.00
566.05	24484.34
566.21	24142.63
566.38	24325.19
566.54	24421.15
566.70	24308.80
566.87	24442.21
567.03	24606.05
567.19	24430.51
567.36	24615.41
567.52	24479.66
567.68	24802.66
567.85	24486.68
568.01	24685.63
568.17	24208.16
568.34	24606.05
568.50	24760.53
568.66	24355.61
568.83	24421.15
568.99	24577.97
569.15	24404.77
569.32	24400.08
569.48	24418.81
569.64	24503.07
569.81	24315.83
569.97	24524.13
570.13	24795.64
570.30	24446.90
570.46	24732.44
570.62	24968.84
570.78	24606.05
570.95	24505.41
571.11	24306.46
571.27	24465.62
571.43	24428.17
571.60	24512.43
571.76	24177.73
571.92	24472.64
572.09	24683.29
572.25	25118.63
572.41	24957.13
572.57	24662.22
572.74	24606.05
572.90	24428.17
573.06	24638.82
573.22	24727.76
573.38	24783.93
573.55	24608.39
573.71	24655.20
573.87	24734.78
574.03	24606.05
574.20	24374.34
574.36	24446.90
574.52	24367.32
574.68	24568.60
574.84	24882.24
575.01	24648.18
575.17	24498.39
575.33	24531.15
575.49	24449.24
575.65	24882.24
575.82	25081.18
575.98	25076.50
576.14	24638.82
576.30	24971.18
576.46	25315.23
576.62	24643.50
576.79	24458.60
576.95	24776.91
577.11	24709.04
577.27	25008.62
577.43	24943.09
577.59	24917.34
577.75	24795.64
577.92	24350.93
578.08	24999.26
578.24	24503.07
578.40	24622.44
578.56	24851.81
578.72	24826.06
578.88	25137.35
579.04	24910.32
579.21	25050.75
579.37	24858.83
579.53	25088.20
579.69	24732.44
579.85	24842.45
580.01	25153.74
580.17	25158.42
580.33	25013.31
580.49	24821.38
580.65	25116.29
580.82	24746.48
580.98	24882.24
581.14	24617.75
581.30	24978.20
581.46	24685.63
581.62	24580.31
581.78	24978.20
581.94	24603.71
582.10	24540.52
582.26	24968.84
582.42	24783.93
582.58	24849.47
582.74	25113.95
582.90	25259.06
583.06	25289.49
583.22	24875.21
583.38	25041.39
583.54	24910.32
583.70	24709.04
583.86	24657.54
584.02	24802.66
584.18	25191.19
584.34	24769.89
584.50	24947.77
584.66	24823.72
584.82	24545.20
584.98	25057.78
585.14	24678.61
585.30	24933.73
585.46	25008.62
585.62	25069.48
585.78	25006.28
585.94	24900.96
586.10	24854.15
586.26	24947.77
586.42	25069.48
586.58	24858.83
586.74	25345.66
586.90	24971.18
587.06	24826.06
587.22	25219.27
587.38	24954.79
587.54	24957.13
587.70	25418.22
587.86	25160.76
588.02	25025.01
588.18	24950.11
588.34	25209.91
588.49	25015.65
588.65	25043.73
588.81	24697.33
588.97	24650.52
589.13	24702.01
589.29	24985.22
589.45	25298.85
589.61	25144.38
589.77	25001.60
589.93	25160.76
590.08	25259.06
590.24	25144.38
590.40	25130.33
590.56	24893.94
590.72	25338.64
590.88	24739.46
