SpectraSuite Data File
++++++++++++++++++++++++++++++++++++
Date: Thu Oct 24 13:21:16 EDT 2013
User: stostad
Dark Spectrum Present: No
Reference Spectrum Present: No
Number of Sampled Component Spectra: 1
Spectrometers: USB2+H05261
Integration Time (usec): 100000 (USB2+H05261)
Spectra Averaged: 1 (USB2+H05261)
Boxcar Smoothing: 0 (USB2+H05261)
Correct for Electrical Dark: No (USB2+H05261)
Strobe/Lamp Enabled: No (USB2+H05261)
Correct for Detector Non-linearity: No (USB2+H05261)
Correct for Stray Light: No (USB2+H05261)
Number of Pixels in Processed Spectrum: 2048
>>>>>Begin Processed Spectral Data<<<<<
365.73	524.28
365.92	524.28
366.12	524.28
366.32	423.64
366.52	538.32
366.72	514.92
366.91	458.74
367.11	528.96
367.31	444.70
367.51	444.70
367.70	418.96
367.90	447.04
368.10	409.59
368.30	498.53
368.49	402.57
368.69	500.87
368.89	435.34
369.09	458.74
369.28	433.00
369.48	461.09
369.68	533.64
369.87	472.79
370.07	521.94
370.27	559.39
370.47	547.69
370.66	793.44
370.86	837.91
371.06	814.51
371.25	819.19
371.45	833.23
371.65	870.68
371.84	854.30
372.04	800.46
372.24	856.64
372.44	851.96
372.63	807.48
372.83	954.94
373.03	896.43
373.22	931.53
373.42	814.51
373.62	866.00
373.81	805.14
374.01	868.34
374.21	894.08
374.40	940.90
374.60	947.92
374.79	908.13
374.99	929.19
375.19	957.28
375.38	976.00
375.58	877.70
375.78	947.92
375.97	851.96
376.17	926.85
376.37	905.79
376.56	901.11
376.76	947.92
376.95	917.49
377.15	910.47
377.35	957.28
377.54	908.13
377.74	940.90
377.93	1008.77
378.13	891.74
378.33	1011.11
378.52	1018.13
378.72	924.51
378.91	980.68
379.11	976.00
379.31	945.58
379.50	933.87
379.70	1022.81
379.89	959.62
380.09	994.73
380.28	931.53
380.48	1032.18
380.68	980.68
380.87	952.60
381.07	1011.11
381.26	1015.79
381.46	1055.58
381.65	999.41
381.85	990.05
382.04	1032.18
382.24	1022.81
382.43	1011.11
382.63	997.07
382.83	1027.50
383.02	1004.09
383.22	1050.90
383.41	1097.71
383.61	1046.22
383.80	1114.10
384.00	1083.67
384.19	1022.81
384.39	985.37
384.58	1062.60
384.78	1057.92
384.97	1095.37
385.17	1156.22
385.36	1135.16
385.56	1100.05
385.75	1116.44
385.95	1071.97
386.14	1078.99
386.34	1135.16
386.53	1146.86
386.72	1146.86
386.92	1135.16
387.11	1121.12
387.31	1137.50
387.50	1149.20
387.70	1144.52
387.89	1196.01
388.09	1104.73
388.28	1146.86
388.48	1123.46
388.67	1181.97
388.86	1118.78
389.06	1210.06
389.25	1207.72
389.45	1212.40
389.64	1252.19
389.84	1181.97
390.03	1135.16
390.22	1193.67
390.42	1231.12
390.61	1144.52
390.81	1146.86
391.00	1179.63
391.19	1156.22
391.39	1224.10
391.58	1210.06
391.78	1221.76
391.97	1186.65
392.16	1268.57
392.36	1247.51
392.55	1125.80
392.75	1320.06
392.94	1221.76
393.13	1299.00
393.33	1263.89
393.52	1252.19
393.71	1254.53
393.91	1291.98
394.10	1315.38
394.29	1387.94
394.49	1296.66
394.68	1406.66
394.88	1315.38
395.07	1336.45
395.26	1434.75
395.46	1392.62
395.65	1439.43
395.84	1411.34
396.04	1465.18
396.23	1362.19
396.42	1336.45
396.62	1357.51
396.81	1483.90
397.00	1441.77
397.19	1348.15
397.39	1401.98
397.58	1474.54
397.77	1385.60
397.97	1481.56
398.16	1434.75
398.35	1500.28
398.55	1472.20
398.74	1479.22
398.93	1511.99
399.12	1500.28
399.32	1481.56
399.51	1547.09
399.70	1462.83
399.90	1579.86
400.09	1537.73
400.28	1577.52
400.47	1544.75
400.67	1568.16
400.86	1650.08
401.05	1584.54
401.24	1673.48
401.44	1579.86
401.63	1614.97
401.82	1544.75
402.01	1598.59
402.21	1617.31
402.40	1720.29
402.59	1626.67
402.78	1689.87
402.97	1664.12
403.17	1717.95
403.36	1706.25
403.55	1729.66
403.74	1715.61
403.93	1746.04
404.13	1898.17
404.32	1792.85
404.51	1743.70
404.70	1760.08
404.89	1870.09
405.09	1921.58
405.28	1823.28
405.47	1844.34
405.66	1830.30
405.85	1891.15
406.05	1778.81
406.24	1844.34
406.43	1933.28
406.62	1937.96
406.81	1970.73
407.00	1954.35
407.20	1905.20
407.39	1898.17
407.58	1947.33
407.77	1994.14
407.96	1954.35
408.15	1987.11
408.34	2052.65
408.54	2087.76
408.73	2029.24
408.92	2136.91
409.11	2050.31
409.30	2104.14
409.49	2111.16
409.68	2015.20
409.87	2099.46
410.07	2129.89
410.26	2136.91
410.45	2186.06
410.64	2120.53
410.83	2197.76
411.02	2181.38
411.21	2207.13
411.40	2165.00
411.59	2246.91
411.78	2324.15
411.98	2296.07
412.17	2462.24
412.36	2335.85
412.55	2335.85
412.74	2399.05
412.93	2298.41
413.12	2260.96
413.31	2354.58
413.50	2406.07
413.69	2478.63
413.88	2537.14
414.07	2410.75
414.26	2502.03
414.45	2457.56
414.64	2583.95
414.83	2551.18
415.02	2633.10
415.22	2583.95
415.41	2558.21
415.60	2593.31
415.79	2738.43
415.98	2607.36
416.17	2778.22
416.36	2700.98
416.55	2644.81
416.74	2733.75
416.93	2820.35
417.12	2705.66
417.31	2836.73
417.50	2780.56
417.69	2953.76
417.88	2881.20
418.07	2700.98
418.26	2848.43
418.45	2860.13
418.64	3075.46
418.83	2895.24
419.02	2979.50
419.21	3009.93
419.39	2949.08
419.58	2923.33
419.77	2974.82
419.96	3150.36
420.15	3138.66
420.34	3000.57
420.53	3047.38
420.72	3141.00
420.91	3007.59
421.10	3183.13
421.29	3145.68
421.48	3068.44
421.67	3066.10
421.86	3258.03
422.05	3290.79
422.24	3178.45
422.43	3187.81
422.61	3141.00
422.80	3162.06
422.99	3288.45
423.18	3253.34
423.37	3297.81
423.56	3241.64
423.75	3183.13
423.94	3213.56
424.13	3070.78
424.32	3176.11
424.50	3225.26
424.69	3361.01
424.88	3199.51
425.07	3248.66
425.26	3183.13
425.45	3286.11
425.64	3243.98
425.83	3344.63
426.01	3208.87
426.20	3375.05
426.39	3375.05
426.58	3304.84
426.77	3281.43
426.96	3396.12
427.15	3330.58
427.33	3356.33
427.52	3344.63
427.71	3304.84
427.90	3258.03
428.09	3304.84
428.28	3454.63
428.46	3468.67
428.65	3417.18
428.84	3487.40
429.03	3494.42
429.22	3522.51
429.40	3506.12
429.59	3508.46
429.78	3410.16
429.97	3339.94
430.16	3393.78
430.34	3576.34
430.53	3574.00
430.72	3562.30
430.91	3550.59
431.10	3595.06
431.28	3695.71
431.47	3655.92
431.66	3833.80
431.85	3665.28
432.03	3756.56
432.22	3868.91
432.41	3702.73
432.60	3789.33
432.79	3782.31
432.97	3775.28
433.16	3836.14
433.35	3754.22
433.54	3758.90
433.72	3988.27
433.91	3737.84
434.10	3925.08
434.28	3845.50
434.47	3857.20
434.66	3847.84
434.85	3939.12
435.03	4124.02
435.22	4210.62
435.41	4348.72
435.59	4175.52
435.78	4329.99
435.97	4255.09
436.16	4224.67
436.34	3976.57
436.53	3999.98
436.72	4201.26
436.90	4081.89
437.09	4091.26
437.28	4100.62
437.46	4039.76
437.65	4025.72
437.84	4262.12
438.02	4105.30
438.21	4229.35
438.40	4133.39
438.58	4376.80
438.77	4388.50
438.96	4234.03
439.14	4416.59
439.33	4404.89
439.52	4554.68
439.70	4461.06
439.89	4571.07
440.08	4681.07
440.26	4690.43
440.45	4578.09
440.63	4580.43
440.82	4669.37
441.01	4561.70
441.19	4711.50
441.38	4910.44
441.57	4650.64
441.75	4947.89
441.94	4992.36
442.12	5022.79
442.31	4887.04
442.50	4828.53
442.68	4943.21
442.87	4868.31
443.05	4985.34
443.24	5034.49
443.43	4983.00
443.61	5064.92
443.80	5165.56
443.98	4917.47
444.17	4704.48
444.35	4994.70
444.54	5139.82
444.73	5085.98
444.91	5102.37
445.10	5027.47
445.28	5008.75
445.47	5088.32
445.65	5046.20
445.84	5160.88
446.02	5266.21
446.21	5144.50
446.39	5111.73
446.58	5139.82
446.77	5111.73
446.95	5219.39
447.14	5296.63
447.32	5254.50
447.51	5125.77
447.69	5093.01
447.88	5158.54
448.06	5338.76
448.25	5111.73
448.43	5135.14
448.62	5235.78
448.80	5078.96
448.99	5198.33
449.17	5261.52
449.36	5245.14
449.54	5350.46
449.73	5308.34
449.91	5453.45
450.10	5418.34
450.28	5490.90
450.46	5423.02
450.65	5467.49
450.83	5530.69
451.02	5568.13
451.20	5565.79
451.39	5493.24
451.57	5687.50
451.76	5497.92
451.94	5572.82
452.13	5617.29
452.31	5661.76
452.49	5568.13
452.68	5624.31
452.86	5411.32
453.05	5685.16
453.23	5853.68
453.42	5650.05
453.60	5586.86
453.78	5816.23
453.97	5647.71
454.15	5771.76
454.34	5640.69
454.52	5746.02
454.70	5703.89
454.89	5818.57
455.07	5858.36
455.26	5940.28
455.44	5930.92
455.62	5825.59
455.81	5909.85
455.99	5867.72
456.17	5827.93
456.36	6054.97
456.54	5984.75
456.73	6251.57
456.91	6228.17
457.09	6134.54
457.28	6125.18
457.46	6179.01
457.64	6298.38
457.83	6207.10
458.01	6087.73
458.19	6321.79
458.38	6179.01
458.56	6340.51
458.74	6375.62
458.93	6293.70
459.11	6221.14
459.29	6431.79
459.48	6422.43
459.66	6579.25
459.84	6539.46
460.03	6600.31
460.21	6560.52
460.39	6532.44
460.57	6509.03
460.76	6579.25
460.94	6492.65
461.12	6686.91
461.31	6509.03
461.49	6565.20
461.67	6759.47
461.85	6684.57
462.04	6572.22
462.22	7208.85
462.40	6942.03
462.59	6822.66
462.77	6832.02
462.95	6897.56
463.13	6911.60
463.32	7070.76
463.50	6944.37
463.68	6895.22
463.86	7101.19
464.05	6972.46
464.23	6998.20
464.41	7014.59
464.59	6857.77
464.78	7061.40
464.96	6998.20
465.14	7089.48
465.32	7133.95
465.50	6977.14
465.69	7150.34
465.87	7187.79
466.05	7012.24
466.23	7012.24
466.41	7101.19
466.60	7279.07
466.78	7162.04
466.96	7190.13
467.14	7206.51
467.32	7215.87
467.51	7375.03
467.69	7190.13
467.87	7332.90
468.05	7234.60
468.23	7236.94
468.41	7211.19
468.60	7332.90
468.78	7524.82
468.96	7520.14
469.14	7272.04
469.32	7609.08
469.50	7396.09
469.69	7686.32
469.87	7604.40
470.05	7499.08
470.23	7672.28
470.41	7716.75
470.59	7826.75
470.77	7700.36
470.95	7688.66
471.14	7737.81
471.32	7571.63
471.50	7836.11
471.68	7808.03
471.86	7999.95
472.04	7934.42
472.22	8154.43
472.40	8161.45
472.58	8116.98
472.77	8121.66
472.95	8175.49
473.13	8276.13
473.31	8255.07
473.49	8245.71
473.67	8189.53
473.85	8304.22
474.03	8358.05
474.21	8432.95
474.39	8561.68
474.57	8610.83
474.75	8629.56
474.93	8674.03
475.12	8547.64
475.30	8737.22
475.48	8720.84
475.66	8730.20
475.84	8730.20
476.02	8994.68
476.20	8854.25
476.38	9254.48
476.56	9224.05
476.74	8973.61
476.92	9144.47
477.10	9221.71
477.28	9362.14
477.46	9212.35
477.64	9305.97
477.82	9404.27
478.00	9783.44
478.18	9607.90
478.36	9607.90
478.54	9839.61
478.72	9923.87
478.90	9947.28
479.08	10078.35
479.26	10221.12
479.44	10216.44
479.62	10146.22
479.80	10204.74
479.98	10361.55
480.16	10223.46
480.34	10420.06
480.52	10621.35
480.70	10626.03
480.88	10370.91
481.06	10509.01
481.24	10862.43
481.41	10745.40
481.59	10909.24
481.77	10918.60
481.95	10913.92
482.13	11267.34
482.31	11204.14
482.49	11431.18
482.67	11367.98
482.85	11660.55
483.03	11655.87
483.21	11833.75
483.39	11871.20
483.57	11662.89
483.74	11690.98
483.92	11985.88
484.10	11791.62
484.28	12189.51
484.46	12470.37
484.64	12697.41
484.82	12212.92
485.00	12645.91
485.18	12755.92
485.35	12833.16
485.53	12924.44
485.71	13090.62
485.89	13107.00
486.07	13050.83
486.25	13427.65
486.43	13303.60
486.61	13408.93
486.78	13778.73
486.96	13490.85
487.14	13968.32
487.32	13902.78
487.50	14005.77
487.68	13923.85
487.85	14178.97
488.03	14485.58
488.21	14516.00
488.39	14562.81
488.57	14658.78
488.75	14501.96
488.92	14754.74
489.10	14970.07
489.28	14991.13
489.46	15138.58
489.64	14995.81
489.81	15213.48
489.99	15201.78
490.17	15461.58
490.35	15583.29
490.53	15721.38
490.70	15885.22
490.88	15843.09
491.06	15999.90
491.24	15864.15
491.41	16027.99
491.59	16219.91
491.77	16341.62
491.95	16767.60
492.13	16383.75
492.30	16681.00
492.48	16505.46
492.66	16765.26
492.84	16779.30
493.01	16919.73
493.19	16863.56
493.37	17032.08
493.54	17202.94
493.72	17692.11
493.90	17029.74
494.08	17549.34
494.25	17846.58
494.43	17666.36
494.61	17830.20
494.79	18225.75
494.96	17830.20
495.14	18085.32
495.32	18162.56
495.49	18251.50
495.67	18473.85
495.85	18291.29
496.02	18768.76
496.20	18757.05
496.38	18717.26
496.55	18845.99
496.73	19314.10
496.91	19332.82
497.09	19452.19
497.26	19211.12
497.44	19227.50
497.62	19405.38
497.79	19632.41
497.97	19686.25
498.14	20102.86
498.32	20027.96
498.50	19768.16
498.67	19840.72
498.85	19819.66
499.03	19981.15
499.20	20271.38
499.38	20255.00
499.56	20580.33
499.73	20519.48
499.91	20280.74
500.08	20477.35
500.26	20819.07
500.44	20699.70
500.61	21029.71
500.79	21193.55
500.97	21315.26
501.14	21369.09
501.32	21179.51
501.49	21240.36
501.67	21235.68
501.84	21914.44
502.02	21448.67
502.20	21490.80
502.37	21603.14
502.55	21305.90
502.72	21781.03
502.90	21778.68
503.07	21591.44
503.25	21837.20
503.43	22036.14
503.60	21984.65
503.78	22033.80
503.95	21994.01
504.13	22237.43
504.30	22265.52
504.48	22141.47
504.65	22611.92
504.83	22539.36
505.01	22501.91
505.18	22614.26
505.36	22757.03
505.53	22621.28
505.71	23339.82
505.88	23012.15
506.06	22981.72
506.23	22941.93
506.41	23110.45
506.58	23594.94
506.76	22963.00
506.93	23335.14
507.11	23482.59
507.28	23639.41
507.46	23793.89
507.63	23456.85
507.81	23899.21
507.98	23513.02
508.16	23309.40
508.33	23826.65
508.50	23903.89
508.68	24271.36
508.85	24130.92
509.03	24397.74
509.20	24245.61
509.38	24538.18
509.55	24718.40
509.73	24877.55
509.90	24694.99
510.08	24746.48
510.25	24636.48
510.42	24772.23
510.60	24493.71
510.77	25008.62
510.95	25027.35
511.12	24884.58
511.30	25420.56
511.47	25153.74
511.64	25350.34
511.82	25467.37
511.99	25165.44
512.17	25390.13
512.34	25488.43
512.51	25696.74
512.69	25898.03
512.86	26202.30
513.04	25998.67
513.21	25905.05
513.38	25804.41
513.56	25790.36
513.73	26286.56
513.90	26089.95
514.08	26174.21
514.25	26473.80
514.43	26225.70
514.60	26363.79
514.77	26426.99
514.95	26536.99
515.12	26319.32
515.29	26520.61
515.47	26764.03
515.64	26967.65
515.81	26618.91
515.99	26951.27
516.16	26974.67
516.33	26986.38
516.51	27044.89
516.68	27234.47
516.85	27232.13
517.03	27178.30
517.20	27307.03
517.37	27524.70
517.54	27213.41
517.72	27810.25
517.89	27608.96
518.06	27550.45
518.24	27491.93
518.41	27737.69
518.58	27763.43
518.75	27562.15
518.93	27667.47
519.10	27601.94
519.27	28098.13
519.45	27630.02
519.62	28051.32
519.79	27733.01
519.96	27861.74
520.14	28198.77
520.31	27988.13
520.48	28081.75
520.65	27894.50
520.83	28498.36
521.00	28807.31
521.17	28648.16
521.34	28819.02
521.52	28657.52
521.69	28659.86
521.86	28793.27
522.03	28627.09
522.20	29127.97
522.38	28821.36
522.55	28980.51
522.72	29120.95
522.89	28917.32
523.07	29193.50
523.24	28971.15
523.41	29268.40
523.58	28666.88
523.75	29605.44
523.92	29462.66
524.10	29434.58
524.27	29429.90
524.44	29523.52
524.61	29701.40
524.78	29905.02
524.96	29937.79
525.13	30110.99
525.30	29905.02
525.47	30005.67
525.64	30125.04
525.81	29825.45
525.98	29902.68
526.16	29888.64
526.33	30349.73
526.50	30611.87
526.67	30050.14
526.84	30441.01
527.01	30403.56
527.18	30663.36
527.36	30960.61
527.53	30546.33
527.70	30909.11
527.87	31005.08
528.04	31023.80
528.21	30939.54
528.38	30604.84
528.55	30871.67
528.72	30960.61
528.89	31002.74
529.07	31094.02
529.24	30588.46
529.41	31405.31
529.58	30827.20
529.75	30930.18
529.92	31407.65
530.09	31395.95
530.26	30897.41
530.43	31152.53
530.60	31147.85
530.77	31309.35
530.94	31648.72
531.11	31887.46
531.28	31655.75
531.46	31793.84
531.63	31527.02
531.80	31388.92
531.97	31882.78
532.14	31672.13
532.31	31819.58
532.48	31943.63
532.65	32114.49
532.82	31868.73
532.99	32100.45
533.16	31850.01
533.33	32116.83
533.50	32151.94
533.67	32198.75
533.84	32212.79
534.01	32287.69
534.18	32194.07
534.35	32594.30
534.52	32360.25
534.69	32458.55
534.86	32224.50
535.03	32189.39
535.20	32598.98
535.37	32875.16
535.54	33146.67
535.71	33113.90
535.88	33158.37
536.05	32966.45
536.22	33130.28
536.38	32606.00
536.55	33401.79
536.72	33645.20
536.89	33448.60
537.06	33083.47
537.23	33521.15
537.40	33048.36
537.57	33202.84
537.74	33191.14
537.91	33556.26
538.08	33251.99
538.25	33582.01
538.42	33282.42
538.59	33462.64
538.75	33558.60
538.92	33479.02
539.09	33418.17
539.26	33507.11
539.43	33326.89
539.60	33397.10
539.77	34113.31
539.94	33998.62
540.11	34050.11
540.28	34323.96
540.44	34139.05
540.61	34185.86
540.78	34120.33
540.95	34471.41
541.12	34206.93
541.29	34082.88
541.46	34366.09
541.62	34569.71
541.79	34476.09
541.96	34459.71
542.13	34235.02
542.30	34611.84
542.47	34614.18
542.63	34632.91
542.80	34817.81
542.97	35229.74
543.14	35351.45
543.31	34848.24
543.48	35239.11
543.64	35206.34
543.81	35206.34
543.98	34969.94
544.15	34876.32
544.32	35810.20
544.48	35859.35
544.65	35578.48
544.82	35468.48
544.99	35571.46
545.16	35461.46
545.32	35744.66
545.49	35580.82
545.66	36453.84
545.83	36182.34
546.00	36212.77
546.16	36121.49
546.33	35948.29
546.50	35901.48
546.67	35744.66
546.83	35550.40
547.00	35662.74
547.17	35859.35
547.34	35555.08
547.50	35899.14
547.67	36416.40
547.84	36357.88
548.00	36201.07
548.17	36355.54
548.34	35770.41
548.51	36306.39
548.67	36329.80
548.84	36102.76
549.01	35819.56
549.18	36432.78
549.34	36472.57
549.51	36095.74
549.68	36676.19
549.84	36182.34
550.01	36065.31
550.18	36046.59
550.34	36189.36
550.51	36100.42
550.68	36280.64
550.84	36561.51
551.01	36893.86
551.18	35995.10
551.34	36037.23
551.51	36350.86
551.68	36388.31
551.84	36280.64
552.01	36638.75
552.18	36357.88
552.34	36559.17
552.51	36877.48
552.68	36421.08
552.84	36741.73
553.01	37186.43
553.18	36704.28
553.34	36811.95
553.51	36601.30
553.67	37034.30
553.84	37336.23
554.01	36914.93
554.17	36905.57
554.34	37195.79
554.51	37095.15
554.67	36818.97
554.84	37099.83
555.00	36985.15
555.17	36655.13
555.33	37219.20
555.50	36964.08
555.67	36996.85
555.83	36896.20
556.00	37095.15
556.16	37610.07
556.33	37249.63
556.50	37322.18
556.66	37322.18
556.83	36868.12
556.99	37024.93
557.16	37521.13
557.32	37336.23
557.49	37682.62
557.65	37722.41
557.82	37521.13
557.98	37888.59
558.15	37207.50
558.32	37317.50
558.48	37301.12
558.65	37638.15
558.81	37457.93
558.98	37422.83
559.14	37507.08
559.31	37462.61
559.47	37577.30
559.64	37546.87
559.80	37883.91
559.97	37858.17
560.13	37205.16
560.30	37572.62
560.46	37631.13
560.63	37954.13
560.79	37851.14
560.96	37830.08
561.12	37787.95
561.29	37631.13
561.45	37745.82
561.61	38181.16
561.78	37986.89
561.94	38047.75
562.11	38124.99
562.27	38286.48
562.44	37809.01
562.60	38410.53
562.77	38410.53
562.93	37736.46
563.10	38515.86
563.26	37897.95
563.42	38335.63
563.59	38122.65
563.75	38043.07
563.92	38478.41
564.08	38225.63
564.24	38560.33
564.41	38220.95
564.57	38036.05
564.74	37757.52
564.90	38398.83
565.07	38227.97
565.23	38174.14
565.39	38347.34
565.56	38747.57
565.72	38499.47
565.88	38742.89
566.05	38176.48
566.21	38518.20
566.38	38705.44
566.54	38160.09
566.70	38630.54
566.87	39082.27
567.03	37790.29
567.19	39068.22
567.36	38581.39
567.52	38450.32
567.68	38471.39
567.85	38660.97
568.01	38761.61
568.17	38639.90
568.34	38745.23
568.50	38543.94
568.66	38827.15
568.83	38909.07
568.99	38459.68
569.15	38583.73
569.32	38806.08
569.48	38422.23
569.64	38635.22
569.81	38557.99
569.97	38611.82
570.13	38801.40
570.30	38553.30
570.46	38693.74
570.62	38899.70
570.78	38635.22
570.95	38382.45
571.11	39110.35
571.27	38553.30
571.43	38714.80
571.60	38389.47
571.76	38806.08
571.92	38834.17
572.09	38209.25
572.25	38948.85
572.41	39044.82
572.57	38792.04
572.74	39398.24
572.90	38885.66
573.06	39089.29
573.22	39051.84
573.38	38761.61
573.55	38958.22
573.71	38707.78
573.87	39206.31
574.03	38831.83
574.20	39180.57
574.36	38817.78
574.52	39000.35
574.68	38979.28
574.84	39454.41
575.01	39292.91
575.17	39234.40
575.33	38927.79
575.49	38890.34
575.65	38761.61
575.82	39262.49
575.98	39391.22
576.14	39154.82
576.30	39426.32
576.46	38913.75
576.62	39295.25
576.79	39285.89
576.95	39002.69
577.11	38738.21
577.27	39484.84
577.43	39522.29
577.59	39110.35
577.75	39206.31
577.92	38672.67
578.08	39147.80
578.24	39250.78
578.40	39005.03
578.56	39594.84
578.72	39498.88
578.88	40095.72
579.04	39470.79
579.21	39255.46
579.37	39367.81
579.53	39440.37
579.69	39239.08
579.85	39285.89
580.01	39346.75
580.17	38927.79
580.33	39215.68
580.49	39035.45
580.65	38976.94
580.82	39246.10
580.98	39571.44
581.14	39257.81
581.30	39864.00
581.46	39140.78
581.62	38745.23
581.78	39180.57
581.94	39194.61
582.10	38911.41
582.26	39220.36
582.42	38962.90
582.58	39225.04
582.74	39150.14
582.90	39423.98
583.06	39225.04
583.22	39435.69
583.38	39405.26
583.54	39260.15
583.70	39267.17
583.86	39494.20
584.02	39005.03
584.18	39229.72
584.34	39370.15
584.50	39611.23
584.66	39716.55
584.82	39093.97
584.98	39332.70
585.14	39625.27
585.30	39922.52
585.46	39643.99
585.62	39122.05
585.78	39676.76
585.94	39199.29
586.10	39182.91
586.26	39587.82
586.42	39313.98
586.58	39950.60
586.74	39690.80
586.90	39201.63
587.06	39400.58
587.22	39730.59
587.38	39236.74
587.54	39889.75
587.70	40030.18
587.86	39522.29
588.02	39330.36
588.18	39515.26
588.34	39849.96
588.49	39833.58
588.65	39756.34
588.81	39578.46
588.97	39786.77
589.13	39503.56
589.29	39536.33
589.45	39875.71
589.61	39669.74
589.77	40327.43
