SpectraSuite Data File
++++++++++++++++++++++++++++++++++++
Date: Thu Oct 24 13:21:30 EDT 2013
User: stostad
Dark Spectrum Present: No
Reference Spectrum Present: No
Number of Sampled Component Spectra: 1
Spectrometers: USB2+H05261
Integration Time (usec): 100000 (USB2+H05261)
Spectra Averaged: 1 (USB2+H05261)
Boxcar Smoothing: 0 (USB2+H05261)
Correct for Electrical Dark: No (USB2+H05261)
Strobe/Lamp Enabled: No (USB2+H05261)
Correct for Detector Non-linearity: No (USB2+H05261)
Correct for Stray Light: No (USB2+H05261)
Number of Pixels in Processed Spectrum: 2048
>>>>>Begin Processed Spectral Data<<<<<
365.73	535.98
365.92	535.98
366.12	535.98
366.32	418.96
366.52	411.93
366.72	496.19
366.91	514.92
367.11	479.81
367.31	456.40
367.51	411.93
367.70	458.74
367.90	519.60
368.10	404.91
368.30	503.22
368.49	470.45
368.69	461.09
368.89	472.79
369.09	491.51
369.28	486.83
369.48	519.60
369.68	507.90
369.87	489.17
370.07	486.83
370.27	585.13
370.47	751.31
370.66	1130.48
370.86	1116.44
371.06	1153.88
371.25	1205.38
371.45	1071.97
371.65	1076.65
371.84	1111.75
372.04	1191.33
372.24	1205.38
372.44	1121.12
372.63	1149.20
372.83	1315.38
373.03	1170.27
373.22	1231.12
373.42	1200.69
373.62	1296.66
373.81	1245.16
374.01	1284.95
374.21	1287.29
374.40	1338.79
374.60	1242.82
374.79	1233.46
374.99	1324.74
375.19	1376.24
375.38	1247.51
375.58	1390.28
375.78	1387.94
375.97	1390.28
376.17	1413.68
376.37	1385.60
376.56	1406.66
376.76	1453.47
376.95	1416.02
377.15	1399.64
377.35	1357.51
377.54	1451.13
377.74	1376.24
377.93	1373.89
378.13	1507.30
378.33	1423.05
378.52	1458.15
378.72	1516.67
378.91	1509.65
379.11	1516.67
379.31	1397.30
379.50	1535.39
379.70	1533.05
379.89	1537.73
380.09	1568.16
380.28	1549.43
380.48	1490.92
380.68	1556.46
380.87	1575.18
381.07	1556.46
381.26	1565.82
381.46	1629.01
381.65	1570.50
381.85	1673.48
382.04	1619.65
382.24	1610.29
382.43	1643.06
382.63	1680.50
382.83	1619.65
383.02	1687.53
383.22	1736.68
383.41	1701.57
383.61	1739.02
383.80	1732.00
384.00	1783.49
384.19	1739.02
384.39	1755.40
384.58	1783.49
384.78	1713.27
384.97	1795.19
385.17	1722.63
385.36	1804.55
385.56	1788.17
385.75	1764.76
385.95	1757.74
386.14	1746.04
386.34	1898.17
386.53	1813.92
386.72	1755.40
386.92	1856.04
387.11	1914.56
387.31	1778.81
387.50	1912.22
387.70	1856.04
387.89	2057.33
388.09	1952.01
388.28	2003.50
388.48	1895.83
388.67	1968.39
388.86	1966.05
389.06	1994.14
389.25	2052.65
389.45	2008.18
389.64	1968.39
389.84	2157.97
390.03	2064.35
390.22	1996.48
390.42	2010.52
390.61	2052.65
390.81	2183.72
391.00	2062.01
391.19	2031.58
391.39	2193.08
391.58	2118.18
391.78	2113.50
391.97	2139.25
392.16	2153.29
392.36	2239.89
392.55	2155.63
392.75	2223.51
392.94	2246.91
393.13	2230.53
393.33	2272.66
393.52	2314.79
393.71	2277.34
393.91	2188.40
394.10	2338.20
394.29	2265.64
394.49	2312.45
394.68	2333.51
394.88	2305.43
395.07	2377.98
395.26	2387.35
395.46	2438.84
395.65	2476.29
395.84	2480.97
396.04	2607.36
396.23	2495.01
396.42	2525.44
396.62	2476.29
396.81	2499.69
397.00	2541.82
397.19	2597.99
397.39	2553.52
397.58	2569.91
397.77	2649.49
397.97	2642.46
398.16	2705.66
398.35	2691.62
398.55	2640.12
398.74	2810.98
398.93	2794.60
399.12	2679.91
399.32	2754.81
399.51	2640.12
399.70	2839.07
399.90	2799.28
400.09	2764.17
400.28	2810.98
400.47	2972.48
400.67	2937.37
400.86	2895.24
401.05	2904.60
401.24	2960.78
401.44	3094.19
401.63	2890.56
401.82	2932.69
402.01	2862.48
402.21	2925.67
402.40	3026.31
402.59	3122.27
402.78	3112.91
402.97	3091.85
403.17	3197.17
403.36	3204.19
403.55	3199.51
403.74	3248.66
403.93	3267.39
404.13	3251.00
404.32	3243.98
404.51	3314.20
404.70	3375.05
404.89	3286.11
405.09	3325.90
405.28	3468.67
405.47	3552.93
405.66	3492.08
405.85	3403.14
406.05	3651.24
406.24	3447.61
406.43	3463.99
406.62	3705.07
406.81	3648.90
407.00	3482.72
407.20	3527.19
407.39	3669.96
407.58	3815.07
407.77	3620.81
407.96	3761.24
408.15	3777.62
408.34	3630.17
408.54	3871.25
408.73	3894.65
408.92	3829.12
409.11	3929.76
409.30	3871.25
409.49	3976.57
409.68	4002.32
409.87	3978.91
410.07	4229.35
410.26	3999.98
410.45	4067.85
410.64	4091.26
410.83	4170.83
411.02	4180.20
411.21	4203.60
411.40	4278.50
411.59	4294.88
411.78	4411.91
411.98	4374.46
412.17	4353.40
412.36	4526.60
412.55	4372.12
412.74	4662.35
412.93	4517.23
413.12	4442.34
413.31	4690.43
413.50	4627.24
413.69	4603.83
413.88	4706.82
414.07	4751.29
414.26	4800.44
414.45	4917.47
414.64	4767.67
414.83	4826.18
415.02	5057.90
415.22	4975.98
415.41	5198.33
415.60	5055.56
415.79	5198.33
415.98	5156.20
416.17	5167.90
416.36	5256.84
416.55	5179.61
416.74	5369.19
416.93	5303.65
417.12	5453.45
417.31	5511.96
417.50	5488.56
417.69	5650.05
417.88	5610.26
418.07	5769.42
418.26	5626.65
418.45	5912.19
418.64	5804.53
418.83	5811.55
419.02	5748.36
419.21	5930.92
419.39	5813.89
419.58	5867.72
419.77	5741.33
419.96	5912.19
420.15	6202.42
420.34	5919.21
420.53	5977.73
420.72	5984.75
420.91	6111.14
421.10	6026.88
421.29	5973.05
421.48	6139.23
421.67	6087.73
421.86	6232.85
422.05	6164.97
422.24	6136.88
422.43	6389.66
422.61	6279.66
422.80	6441.15
422.99	6328.81
423.18	6368.60
423.37	6541.80
423.56	6478.60
423.75	6356.90
423.94	6331.15
424.13	5893.47
424.32	6174.33
424.50	6415.41
424.69	6525.41
424.88	6544.14
425.07	6347.53
425.26	6291.36
425.45	6310.08
425.64	6502.01
425.83	6452.86
426.01	6665.85
426.20	6389.66
426.39	6562.86
426.58	6434.13
426.77	6527.75
426.96	6649.46
427.15	6399.02
427.33	6710.32
427.52	6647.12
427.71	6843.73
427.90	6778.19
428.09	6820.32
428.28	7019.27
428.46	6939.69
428.65	6794.58
428.84	7103.53
429.03	7070.76
429.22	6782.87
429.40	7021.61
429.59	6794.58
429.78	6768.83
429.97	6665.85
430.16	6960.75
430.34	7012.24
430.53	7155.02
430.72	7190.13
430.91	7169.06
431.10	7246.30
431.28	7295.45
431.47	7389.07
431.66	7611.42
431.85	7267.36
432.03	7419.50
432.22	7566.95
432.41	7513.12
432.60	7426.52
432.79	7578.65
432.97	7854.84
433.16	7655.89
433.35	7716.75
433.54	7669.94
433.72	7847.82
433.91	7929.74
434.10	7866.54
434.28	7791.64
434.47	7953.14
434.66	7857.18
434.85	8065.49
435.03	8301.88
435.22	8205.92
435.41	8437.63
435.59	8121.66
435.78	8374.44
435.97	8479.76
436.16	8273.79
436.34	8039.74
436.53	8264.43
436.72	8374.44
436.90	8140.38
437.09	8416.57
437.28	8341.67
437.46	8346.35
437.65	8512.53
437.84	8585.08
438.02	8606.15
438.21	8470.40
438.40	8428.27
438.58	8903.40
438.77	8917.44
438.96	8858.93
439.14	9048.51
439.33	9111.71
439.52	9294.27
439.70	9149.15
439.89	9308.31
440.08	9359.80
440.26	9411.29
440.45	9362.14
440.63	9504.92
440.82	9771.74
441.01	9516.62
441.19	9727.27
441.38	9741.31
441.57	9767.06
441.75	9980.04
441.94	10008.13
442.12	10122.82
442.31	10094.73
442.50	10125.16
442.68	9991.75
442.87	10270.27
443.05	10476.24
443.24	10595.61
443.43	10143.88
443.61	10188.35
443.80	10523.05
443.98	10237.50
444.17	9940.26
444.35	10382.62
444.54	10630.71
444.73	10408.36
444.91	10469.22
445.10	10455.17
445.28	10480.92
445.47	10394.32
445.65	10361.55
445.84	10691.57
446.02	10731.36
446.21	10764.12
446.39	10724.33
446.58	10649.44
446.77	10787.53
446.95	10548.79
447.14	10579.22
447.32	10871.79
447.51	10726.68
447.69	10539.43
447.88	10640.08
448.06	10764.12
448.25	10806.25
448.43	10998.18
448.62	10717.31
448.80	10553.48
448.99	10810.93
449.17	11108.18
449.36	10904.56
449.54	11131.59
449.73	11183.08
449.91	11459.26
450.10	11360.96
450.28	11503.73
450.46	11136.27
450.65	11356.28
450.83	11508.41
451.02	11616.08
451.20	11712.04
451.39	11634.80
451.57	11398.41
451.76	11410.11
451.94	11726.08
452.13	11653.53
452.31	11873.54
452.49	11550.54
452.68	11695.66
452.86	11758.85
453.05	11967.16
453.23	11894.60
453.42	11833.75
453.60	11971.84
453.78	11925.03
453.97	11906.31
454.15	12203.55
454.34	11913.33
454.52	12006.95
454.70	12287.81
454.89	12416.54
455.07	12276.11
455.26	12510.16
455.44	12608.47
455.62	12292.49
455.81	12540.59
455.99	12751.24
456.17	12549.95
456.36	12589.74
456.54	12889.33
456.73	13053.17
456.91	13294.24
457.09	12835.50
457.28	13177.22
457.46	13011.04
457.64	13099.98
457.83	13359.78
458.01	13076.57
458.19	13502.55
458.38	13432.33
458.56	13479.15
458.74	13547.02
458.93	13275.52
459.11	13619.58
459.29	13380.84
459.48	13687.45
459.66	13327.01
459.84	13778.73
460.03	14003.43
460.21	13881.72
460.39	13731.92
460.57	13804.48
460.76	13855.97
460.94	14115.77
461.12	13865.33
461.31	14333.44
461.49	14244.50
461.67	13982.36
461.85	14307.69
462.04	13998.74
462.22	14572.18
462.40	14775.80
462.59	14485.58
462.77	14485.58
462.95	14609.62
463.13	14389.61
463.32	14576.86
463.50	14696.22
463.68	15007.52
463.86	14906.87
464.05	14675.16
464.23	14745.38
464.41	14941.98
464.59	14705.59
464.78	15208.80
464.96	14941.98
465.14	14691.54
465.32	15213.48
465.50	15454.56
465.69	15028.58
465.87	15295.40
466.05	15295.40
466.23	15576.27
466.41	15360.94
466.60	15763.51
466.78	15091.77
466.96	15545.84
467.14	15468.60
467.32	15520.09
467.51	15391.36
467.69	15377.32
467.87	15688.61
468.05	16058.42
468.23	15632.44
468.41	15676.91
468.60	15894.58
468.78	16105.23
468.96	15857.13
469.14	16081.82
469.32	16248.00
469.50	15756.49
469.69	16086.50
469.87	16622.48
470.05	16603.76
470.23	16769.94
470.41	16409.50
470.59	16418.86
470.77	16533.54
470.95	16706.74
471.14	17207.62
471.32	16498.44
471.50	17099.95
471.68	17193.58
471.86	16889.31
472.04	17179.53
472.22	17167.83
472.40	17078.89
472.58	17575.08
472.77	17649.98
472.95	17792.75
473.13	18263.20
473.31	17659.34
473.49	17715.51
473.67	17855.95
473.85	18141.49
474.03	18523.00
474.21	18448.10
474.39	18480.87
474.57	18218.73
474.75	18895.14
474.93	18822.59
475.12	18679.82
475.30	18934.93
475.48	18778.12
475.66	19051.96
475.84	19068.34
476.02	19440.49
476.20	19257.93
476.38	19276.65
476.56	20240.95
476.74	20011.58
476.92	19688.59
477.10	19955.41
477.28	20294.79
477.46	20278.40
477.64	20311.17
477.82	20552.24
478.00	21090.57
478.18	20688.00
478.36	21291.85
478.54	21600.80
478.72	21366.75
478.90	21916.78
479.08	22080.61
479.26	22295.94
479.44	22207.00
479.62	22593.19
479.80	22480.85
479.98	22836.61
480.16	23119.81
480.34	22864.69
480.52	23477.91
480.70	23431.10
480.88	23192.37
481.06	23578.56
481.24	23466.21
481.41	23868.78
481.59	24313.48
481.77	24739.46
481.95	24346.25
482.13	24922.02
482.31	24629.46
482.49	25418.22
482.67	25338.64
482.85	25476.73
483.03	25481.41
483.21	26204.64
483.39	26380.18
483.57	26129.74
483.74	26597.85
483.92	26948.93
484.10	26724.24
484.28	27435.76
484.46	27541.08
484.64	28205.80
484.82	27632.36
485.00	27775.14
485.18	28393.04
485.35	28767.52
485.53	28657.52
485.71	28952.43
485.89	29436.92
486.07	29216.91
486.25	28999.24
486.43	29207.55
486.61	29773.95
486.78	30265.47
486.96	30263.13
487.14	31077.63
487.32	30909.11
487.50	31049.55
487.68	31360.84
487.85	31662.77
488.03	31798.52
488.21	32488.98
488.39	32058.32
488.57	32914.95
488.75	32706.65
488.92	32821.33
489.10	33502.43
489.28	33097.52
489.46	34139.05
489.64	33663.93
489.81	34698.44
489.99	34101.61
490.17	34602.48
490.35	35325.71
490.53	35519.97
490.70	35585.50
490.88	35299.96
491.06	36126.17
491.24	36205.75
491.41	36603.64
491.59	36439.80
491.77	36762.79
491.95	37249.63
492.13	36907.91
492.30	37734.12
492.48	37251.97
492.66	38139.03
492.84	37792.63
493.01	38314.57
493.19	37996.26
493.37	38513.52
493.54	39000.35
493.72	38897.36
493.90	38796.72
494.08	39742.30
494.25	39695.49
494.43	40332.11
494.61	40044.23
494.79	40446.80
494.96	39903.79
495.14	40304.02
495.32	40919.59
495.49	41116.19
495.67	41563.23
495.85	41729.41
496.02	42005.59
496.20	41998.57
496.38	42288.80
496.55	42447.96
496.73	43009.68
496.91	42904.36
497.09	43557.37
497.26	43255.44
497.44	43014.37
497.62	43768.02
497.79	43632.27
497.97	43917.81
498.14	44545.08
498.32	44708.91
498.50	44685.51
498.67	45031.91
498.85	44699.55
499.03	45130.21
499.20	45352.56
499.38	45717.68
499.56	45944.72
499.73	45797.26
499.91	46075.79
500.08	46160.05
500.26	45851.09
500.44	46983.91
500.61	46820.08
500.79	46590.70
500.97	46461.97
501.14	47419.25
501.32	47166.48
501.49	47009.66
501.67	47709.48
501.84	47943.53
502.02	47646.29
502.20	48226.74
502.37	48451.43
502.55	47913.11
502.72	48252.48
502.90	48299.30
503.07	48219.72
503.25	48657.40
503.43	48631.65
503.60	48889.11
503.78	49029.54
503.95	48926.56
504.13	49066.99
504.30	49289.34
504.48	49200.40
504.65	49518.71
504.83	50099.17
505.01	50099.17
505.18	49797.24
505.36	50284.07
505.53	49930.65
505.71	50305.13
505.88	50419.82
506.06	50274.71
506.23	50873.88
506.41	50822.39
506.58	50876.22
506.76	50941.76
506.93	51323.27
507.11	51192.20
507.28	51358.38
507.46	51629.88
507.63	51653.28
507.81	52004.36
507.98	51299.86
508.16	51611.15
508.33	52009.04
508.50	52147.14
508.68	52523.96
508.85	52229.05
509.03	52301.61
509.20	52385.87
509.38	52357.78
509.55	52959.30
509.73	52942.92
509.90	52898.45
510.08	53090.37
510.25	53078.67
510.42	53289.32
510.60	53169.95
510.77	53361.87
510.95	53422.73
511.12	53387.62
511.30	53717.64
511.47	53996.16
511.64	53958.71
511.82	54148.29
511.99	53963.39
512.17	53792.53
512.34	54167.02
512.51	54279.36
512.69	54539.16
512.86	54443.20
513.04	54698.32
513.21	54473.63
513.38	54801.30
513.56	54630.44
513.73	54550.87
513.90	55178.13
514.08	55040.04
514.25	55157.06
514.43	55229.62
514.60	55262.39
514.77	55143.02
514.95	55540.91
515.12	55297.50
515.29	55444.95
515.47	55875.61
515.64	56048.81
515.81	55791.35
515.99	55693.05
516.16	55910.72
516.33	55884.97
516.51	56097.96
516.68	56079.24
516.85	56212.65
517.03	56135.41
517.20	56512.23
517.37	56287.54
517.54	56289.88
517.72	56053.49
517.89	56474.79
518.06	56463.08
518.24	56589.47
518.41	56685.43
518.58	56598.83
518.75	56563.73
518.93	56877.36
519.10	56769.69
519.27	56905.44
519.45	57270.57
519.62	57198.01
519.79	57118.43
519.96	57317.38
520.14	57240.14
520.31	57223.76
520.48	57286.95
520.65	57371.21
520.83	57551.43
521.00	57668.46
521.17	57247.16
521.34	57626.33
521.52	57729.31
521.69	57532.71
521.86	57904.85
522.03	58031.24
522.20	58110.82
522.38	58078.05
522.55	58340.19
522.72	58171.67
522.89	58026.56
523.07	58258.27
523.24	58185.72
523.41	58482.97
523.58	58445.52
523.75	58501.69
523.92	58473.60
524.10	58625.74
524.27	58698.30
524.44	58576.59
524.61	58801.28
524.78	58698.30
524.96	58658.51
525.13	59082.14
525.30	59187.47
525.47	59112.57
525.64	59274.07
525.81	59119.59
525.98	59128.95
526.16	58965.12
526.33	58937.03
526.50	59386.41
526.67	59299.81
526.84	59339.60
527.01	59428.54
527.18	59407.48
527.36	59461.31
527.53	59337.26
527.70	59636.85
527.87	59845.16
528.04	59470.67
528.21	59894.31
528.38	59887.29
528.55	59955.16
528.72	59910.69
528.89	59887.29
529.07	59859.20
529.24	59676.64
529.41	59877.93
529.58	60034.74
529.75	60252.41
529.92	60399.86
530.09	60261.77
530.26	60161.13
530.43	60243.05
530.60	60168.15
530.77	60278.16
530.94	60315.61
531.11	60444.33
531.28	60629.24
531.46	60493.49
531.63	60371.78
531.80	60378.80
531.97	60472.42
532.14	60814.14
532.31	60779.03
532.48	60814.14
532.65	60816.48
532.82	60804.78
532.99	60711.16
533.16	60746.26
533.33	60882.02
533.50	61228.41
533.67	61027.13
533.84	60786.05
534.01	61109.05
534.18	61055.21
534.35	61350.12
534.52	61099.68
534.69	61202.67
534.86	61179.26
535.03	61097.34
535.20	61403.95
535.37	61410.98
535.54	61579.49
535.71	61626.31
535.88	61478.85
536.05	61502.26
536.22	61630.99
536.38	61504.60
536.55	61607.58
536.72	61703.54
536.89	61813.55
537.06	61804.19
537.23	61752.69
537.40	61820.57
537.57	61858.02
537.74	61668.44
537.91	61968.02
538.08	61750.35
538.25	61621.62
538.42	62173.99
538.59	62305.06
538.75	62092.07
538.92	62066.33
539.09	62361.23
539.26	62019.52
539.43	61895.47
539.60	62073.35
539.77	62202.08
539.94	62464.22
540.11	62344.85
540.28	62511.03
540.44	62340.17
540.61	62262.93
540.78	62281.66
540.95	62384.64
541.12	62405.70
541.29	62569.54
541.46	62595.29
541.62	62670.18
541.79	62817.64
541.96	62609.33
542.13	62709.97
542.30	62534.43
542.47	62588.27
542.63	62812.96
542.80	62993.18
542.97	63171.06
543.14	63208.51
543.31	63161.70
543.48	63037.65
543.64	63131.27
543.81	63175.74
543.98	63222.55
544.15	63206.17
544.32	63489.37
544.48	63529.16
544.65	63405.11
544.82	63416.82
544.99	63227.23
545.16	63561.93
545.32	63203.83
545.49	63487.03
545.66	63573.63
545.83	63664.91
546.00	63898.97
546.16	63676.61
546.33	63580.65
546.50	63505.76
546.67	63592.36
546.83	63334.90
547.00	63423.84
547.17	63515.12
547.34	63587.67
547.50	63737.47
547.67	64149.40
547.84	63901.31
548.00	64168.13
548.17	63903.65
548.34	63880.24
548.51	63901.31
548.67	63833.43
548.84	63955.14
549.01	64006.63
549.18	63999.61
549.34	64039.40
549.51	64060.46
549.68	64324.94
549.84	64025.35
550.01	64161.11
550.18	63824.07
550.34	63999.61
550.51	64100.25
550.68	64163.45
550.84	64097.91
551.01	64243.02
551.18	64030.04
551.34	64161.11
551.51	64214.94
551.68	64287.49
551.84	64231.32
552.01	64294.52
552.18	64205.58
552.34	64495.80
552.51	64479.42
552.68	64484.10
552.84	64470.06
553.01	64460.69
553.18	64624.53
553.34	64413.88
553.51	64402.18
553.67	64488.78
553.84	64851.56
554.01	64673.68
554.17	64788.37
554.34	64811.77
554.51	64640.92
554.67	64741.56
554.84	64732.20
555.00	64690.07
555.17	64608.15
555.33	64811.77
555.50	64933.48
555.67	64715.81
555.83	64938.16
556.00	65111.36
556.16	65111.36
556.33	64811.77
556.50	64748.58
556.66	64898.37
556.83	64729.86
556.99	65083.28
557.16	65155.83
557.32	65111.36
557.49	65382.87
557.65	65214.35
557.82	65059.87
557.98	65219.03
558.15	64917.10
558.32	65111.36
558.48	65048.17
558.65	65064.55
558.81	65190.94
558.98	65307.97
559.14	65249.45
559.31	65483.51
559.47	65050.51
559.64	65277.54
559.80	65254.14
559.97	65237.75
560.13	65336.05
560.30	65427.34
560.46	65307.97
560.63	65525.64
560.79	65439.04
560.96	65535.00
561.12	65535.00
561.29	65247.11
561.45	65436.70
561.61	65387.55
561.78	65467.12
561.94	65535.00
562.11	65535.00
562.27	65504.57
562.44	65535.00
562.60	65535.00
562.77	65527.98
562.93	65509.25
563.10	65535.00
563.26	65439.04
563.42	65535.00
563.59	65415.63
563.75	65535.00
563.92	65535.00
564.08	65535.00
564.24	65535.00
564.41	65497.55
564.57	65535.00
564.74	65535.00
564.90	65535.00
565.07	65535.00
565.23	65535.00
565.39	65535.00
565.56	65535.00
565.72	65535.00
565.88	65535.00
566.05	65535.00
566.21	65535.00
566.38	65535.00
566.54	65535.00
566.70	65535.00
566.87	65535.00
567.03	65535.00
567.19	65535.00
567.36	65535.00
567.52	65535.00
567.68	65535.00
567.85	65535.00
568.01	65535.00
568.17	65535.00
568.34	65535.00
568.50	65535.00
568.66	65535.00
568.83	65535.00
568.99	65535.00
569.15	65535.00
569.32	65535.00
569.48	65535.00
569.64	65535.00
569.81	65535.00
569.97	65535.00
570.13	65535.00
570.30	65535.00
570.46	65535.00
570.62	65535.00
570.78	65535.00
570.95	65535.00
571.11	65535.00
571.27	65535.00
571.43	65535.00
571.60	65535.00
571.76	65535.00
571.92	65535.00
572.09	65535.00
572.25	65535.00
572.41	65535.00
572.57	65535.00
572.74	65535.00
572.90	65535.00
573.06	65535.00
573.22	65535.00
573.38	65535.00
573.55	65535.00
573.71	65535.00
573.87	65535.00
574.03	65535.00
574.20	65535.00
574.36	65535.00
574.52	65535.00
574.68	65535.00
574.84	65535.00
575.01	65535.00
575.17	65535.00
575.33	65535.00
575.49	65535.00
575.65	65535.00
575.82	65535.00
575.98	65535.00
576.14	65535.00
576.30	65535.00
576.46	65535.00
576.62	65535.00
576.79	65535.00
576.95	65535.00
577.11	65535.00
577.27	65535.00
577.43	65535.00
577.59	65535.00
577.75	65535.00
577.92	65535.00
578.08	65535.00
578.24	65535.00
578.40	65535.00
578.56	65535.00
578.72	65535.00
578.88	65535.00
579.04	65535.00
579.21	65535.00
579.37	65535.00
579.53	65535.00
579.69	65535.00
579.85	65535.00
580.01	65535.00
580.17	65535.00
580.33	65535.00
580.49	65535.00
580.65	65535.00
580.82	65535.00
580.98	65535.00
581.14	65535.00
581.30	65535.00
581.46	65535.00
581.62	65535.00
581.78	65535.00
581.94	65535.00
582.10	65535.00
582.26	65535.00
582.42	65535.00
582.58	65535.00
582.74	65535.00
582.90	65535.00
583.06	65535.00
583.22	65535.00
583.38	65535.00
583.54	65535.00
583.70	65535.00
583.86	65535.00
584.02	65535.00
584.18	65535.00
584.34	65535.00
584.50	65535.00
584.66	65535.00
584.82	65535.00
584.98	65535.00
585.14	65535.00
585.30	65535.00
585.46	65535.00
585.62	65535.00
585.78	65535.00
585.94	65535.00
586.10	65535.00
586.26	65535.00
586.42	65535.00
586.58	65535.00
586.74	65535.00
586.90	65535.00
587.06	65535.00
587.22	65535.00
