SpectraSuite Data File
++++++++++++++++++++++++++++++++++++
Date: Thu Oct 24 13:21:39 EDT 2013
User: stostad
Dark Spectrum Present: No
Reference Spectrum Present: No
Number of Sampled Component Spectra: 1
Spectrometers: USB2+H05261
Integration Time (usec): 100000 (USB2+H05261)
Spectra Averaged: 1 (USB2+H05261)
Boxcar Smoothing: 0 (USB2+H05261)
Correct for Electrical Dark: No (USB2+H05261)
Strobe/Lamp Enabled: No (USB2+H05261)
Correct for Detector Non-linearity: No (USB2+H05261)
Correct for Stray Light: No (USB2+H05261)
Number of Pixels in Processed Spectrum: 2048
>>>>>Begin Processed Spectral Data<<<<<
365.73	547.69
365.92	547.69
366.12	547.69
366.32	507.90
366.52	468.11
366.72	475.13
366.91	463.43
367.11	454.06
367.31	500.87
367.51	484.49
367.70	482.15
367.90	458.74
368.10	468.11
368.30	491.51
368.49	440.02
368.69	472.79
368.89	442.36
369.09	526.62
369.28	512.58
369.48	482.15
369.68	533.64
369.87	512.58
370.07	547.69
370.27	503.22
370.47	669.39
370.66	1174.95
370.86	1184.31
371.06	1233.46
371.25	1306.02
371.45	1198.35
371.65	1322.40
371.84	1317.72
372.04	1231.12
372.24	1219.42
372.44	1320.06
372.63	1352.83
372.83	1327.08
373.03	1324.74
373.22	1306.02
373.42	1362.19
373.62	1425.39
373.81	1404.32
374.01	1514.33
374.21	1474.54
374.40	1516.67
374.60	1507.30
374.79	1516.67
374.99	1465.18
375.19	1465.18
375.38	1479.22
375.58	1519.01
375.78	1507.30
375.97	1521.35
376.17	1526.03
376.37	1547.09
376.56	1556.46
376.76	1526.03
376.95	1570.50
377.15	1614.97
377.35	1591.56
377.54	1600.93
377.74	1565.82
377.93	1577.52
378.13	1657.10
378.33	1647.74
378.52	1715.61
378.72	1736.68
378.91	1673.48
379.11	1624.33
379.31	1607.95
379.50	1729.66
379.70	1757.74
379.89	1682.85
380.09	1844.34
380.28	1743.70
380.48	1762.42
380.68	1755.40
380.87	1802.21
381.07	1804.55
381.26	1905.20
381.46	1790.51
381.65	1785.83
381.85	1816.26
382.04	1802.21
382.24	1907.54
382.43	1753.06
382.63	1891.15
382.83	1811.57
383.02	1907.54
383.22	1975.41
383.41	1977.75
383.61	1884.13
383.80	1968.39
384.00	1888.81
384.19	2059.67
384.39	1975.41
384.58	1994.14
384.78	1973.07
384.97	1949.67
385.17	1973.07
385.36	1977.75
385.56	2134.57
385.75	2076.06
385.95	2071.37
386.14	1966.05
386.34	1998.82
386.53	2036.27
386.72	2143.93
386.92	2080.74
387.11	2092.44
387.31	2197.76
387.50	2200.10
387.70	2120.53
387.89	2277.34
388.09	2125.21
388.28	2122.87
388.48	2188.40
388.67	2300.75
388.86	2279.68
389.06	2282.02
389.25	2317.13
389.45	2326.49
389.64	2253.94
389.84	2265.64
390.03	2333.51
390.22	2445.86
390.42	2415.43
390.61	2422.45
390.81	2429.48
391.00	2319.47
391.19	2469.27
391.39	2485.65
391.58	2523.10
391.78	2429.48
391.97	2513.74
392.16	2548.84
392.36	2485.65
392.55	2464.58
392.75	2504.37
392.94	2621.40
393.13	2544.16
393.33	2560.55
393.52	2630.76
393.71	2626.08
393.91	2677.57
394.10	2583.95
394.29	2703.32
394.49	2637.78
394.68	2717.36
394.88	2785.24
395.07	2799.28
395.26	2867.16
395.46	2967.80
395.65	2794.60
395.84	2864.82
396.04	2808.64
396.23	2911.63
396.42	2974.82
396.62	2998.23
396.81	2970.14
397.00	3014.61
397.19	3038.02
397.39	2925.67
397.58	3084.83
397.77	3026.31
397.97	3052.06
398.16	3159.72
398.35	3143.34
398.55	3028.65
398.74	3105.89
398.93	3143.34
399.12	3138.66
399.32	3176.11
399.51	3225.26
399.70	3190.15
399.90	3178.45
400.09	3330.58
400.28	3288.45
400.47	3309.52
400.67	3370.37
400.86	3417.18
401.05	3433.57
401.24	3307.18
401.44	3400.80
401.63	3517.83
401.82	3574.00
402.01	3431.23
402.21	3548.25
402.40	3557.61
402.59	3510.80
402.78	3595.06
402.97	3517.83
403.17	3482.72
403.36	3754.22
403.55	3768.26
403.74	3808.05
403.93	3892.31
404.13	3805.71
404.32	3754.22
404.51	3740.18
404.70	3929.76
404.89	3859.54
405.09	4065.51
405.28	3875.93
405.47	3960.19
405.66	4063.17
405.85	3997.64
406.05	3960.19
406.24	4119.34
406.43	4168.49
406.62	4187.22
406.81	4217.65
407.00	4124.02
407.20	4063.17
407.39	4182.54
407.58	4198.92
407.77	4315.95
407.96	4425.95
408.15	4337.01
408.34	4177.86
408.54	4297.22
408.73	4285.52
408.92	4290.20
409.11	4470.42
409.30	4374.46
409.49	4542.98
409.68	4447.02
409.87	4671.71
410.07	4580.43
410.26	4617.88
410.45	4777.03
410.64	4779.37
410.83	4802.78
411.02	4805.12
411.21	4755.97
411.40	4758.31
411.59	4861.29
411.78	4788.74
411.98	4854.27
412.17	5071.94
412.36	5060.24
412.55	5191.31
412.74	5128.11
412.93	5191.31
413.12	5125.77
413.31	5266.21
413.50	5275.57
413.69	5345.78
413.88	5516.64
414.07	5301.31
414.26	5537.71
414.45	5542.39
414.64	5479.19
414.83	5523.66
415.02	5551.75
415.22	5692.18
415.41	5893.47
415.60	5912.19
415.79	5790.49
415.98	5771.76
416.17	5996.45
416.36	5860.70
416.55	5982.41
416.74	6073.69
416.93	6129.86
417.12	6251.57
417.31	6237.53
417.50	6134.54
417.69	6487.96
417.88	6326.47
418.07	6513.71
418.26	6394.34
418.45	6373.28
418.64	6539.46
418.83	6497.33
419.02	6607.33
419.21	6642.44
419.39	6567.54
419.58	6579.25
419.77	6710.32
419.96	6808.62
420.15	6897.56
420.34	6745.42
420.53	6822.66
420.72	6970.12
420.91	6932.67
421.10	6841.39
421.29	7070.76
421.48	6988.84
421.67	6942.03
421.86	6843.73
422.05	7066.08
422.24	6965.43
422.43	7124.59
422.61	7190.13
422.80	7276.73
422.99	7265.02
423.18	7344.60
423.37	7316.51
423.56	7115.23
423.75	7169.06
423.94	7026.29
424.13	6717.34
424.32	7068.42
424.50	7227.57
424.69	7344.60
424.88	7447.58
425.07	7344.60
425.26	7220.55
425.45	7288.43
425.64	7253.32
425.83	7403.11
426.01	7335.24
426.20	7307.15
426.39	7564.61
426.58	7368.01
426.77	7403.11
426.96	7648.87
427.15	7445.24
427.33	7496.74
427.52	7651.21
427.71	7653.55
427.90	7747.17
428.09	7772.92
428.28	7864.20
428.46	7801.01
428.65	7793.98
428.84	8191.88
429.03	7922.71
429.22	8145.06
429.40	8002.29
429.59	8016.33
429.78	7789.30
429.97	7644.19
430.16	8063.15
430.34	8156.77
430.53	8351.03
430.72	8154.43
430.91	8341.67
431.10	7953.14
431.28	8528.91
431.47	8482.10
431.66	8456.36
431.85	8465.72
432.03	8755.94
432.22	8851.91
432.41	8622.53
432.60	8613.17
432.79	8645.94
432.97	8648.28
433.16	8568.70
433.35	8671.68
433.54	9109.36
433.72	9006.38
433.91	9102.34
434.10	8964.25
434.28	8980.64
434.47	9020.42
434.66	9125.75
434.85	9324.69
435.03	9420.66
435.22	9345.76
435.41	9481.51
435.59	9668.75
435.78	9427.68
435.97	9617.26
436.16	9144.47
436.34	9462.79
436.53	9397.25
436.72	9755.35
436.90	9378.53
437.09	9708.54
437.28	9631.30
437.46	9701.52
437.65	9682.80
437.84	9898.13
438.02	9790.46
438.21	9935.57
438.40	9706.20
438.58	10207.08
438.77	10207.08
438.96	10129.84
439.14	10228.14
439.33	10349.85
439.52	10492.62
439.70	10740.72
439.89	10485.60
440.08	10572.20
440.26	10927.96
440.45	10623.69
440.63	10747.74
440.82	11080.10
441.01	10946.69
441.19	11101.16
441.38	11187.76
441.57	11169.04
441.75	11384.37
441.94	11527.14
442.12	11618.42
442.31	11779.92
442.50	11772.89
442.68	11646.51
442.87	11751.83
443.05	11847.79
443.24	11988.22
443.43	11796.30
443.61	11864.18
443.80	12358.03
443.98	11639.48
444.17	11377.34
444.35	11857.15
444.54	12093.55
444.73	12067.80
444.91	12053.76
445.10	11997.59
445.28	12177.81
445.47	12088.87
445.65	11929.71
445.84	12250.36
446.02	12276.11
446.21	12226.96
446.39	12306.54
446.58	12608.47
446.77	12388.46
446.95	12091.21
447.14	12219.94
447.32	12395.48
447.51	12456.33
447.69	12292.49
447.88	12287.81
448.06	12259.73
448.25	12376.75
448.43	12325.26
448.62	12381.43
448.80	12271.43
448.99	12753.58
449.17	12549.95
449.36	12463.35
449.54	12828.48
449.73	12992.31
449.91	13018.06
450.10	13018.06
450.28	13128.06
450.46	13205.30
450.65	12889.33
450.83	13233.39
451.02	13167.85
451.20	13324.67
451.39	13493.19
451.57	13352.76
451.76	13053.17
451.94	13647.66
452.13	13579.79
452.31	13708.52
452.49	13345.73
452.68	13788.10
452.86	13652.34
453.05	13851.29
453.23	13895.76
453.42	13577.45
453.60	13837.25
453.78	14071.30
453.97	13680.43
454.15	13827.88
454.34	13886.40
454.52	14230.46
454.70	14136.84
454.89	14216.41
455.07	14171.94
455.26	14317.06
455.44	14450.47
455.62	14757.08
455.81	14487.92
455.99	14391.95
456.17	14731.33
456.36	14745.38
456.54	14593.24
456.73	15037.94
456.91	15154.97
457.09	15218.16
457.28	15367.96
457.46	15030.92
457.64	15552.86
457.83	15571.58
458.01	15180.71
458.19	15955.43
458.38	15552.86
458.56	15594.99
458.74	15707.34
458.93	15403.07
459.11	15623.08
459.29	15786.91
459.48	15990.54
459.66	15765.85
459.84	15852.45
460.03	16067.78
460.21	16196.51
460.39	15967.13
460.57	15852.45
460.76	16226.93
460.94	16229.27
461.12	16315.87
461.31	16245.66
461.49	16318.22
461.67	16294.81
461.85	16812.07
462.04	16362.69
462.22	17167.83
462.40	17151.45
462.59	16826.11
462.77	16783.98
462.95	17071.87
463.13	16809.73
463.32	17228.68
463.50	17317.62
463.68	17474.44
463.86	17207.62
464.05	17118.68
464.23	16961.86
464.41	17497.84
464.59	17139.74
464.78	17717.86
464.96	17434.65
465.14	17247.41
465.32	17474.44
465.50	17820.84
465.69	17865.31
465.87	17912.12
466.05	17804.46
466.23	17891.06
466.41	17818.50
466.60	18508.96
466.78	18267.88
466.96	17769.35
467.14	18038.51
467.32	18204.69
467.51	18314.69
467.69	17989.36
467.87	18001.06
468.05	18494.91
468.23	18310.01
468.41	18424.70
468.60	18595.56
468.78	18438.74
468.96	18455.12
469.14	18663.43
469.32	18979.40
469.50	18635.35
469.69	18946.64
469.87	19248.57
470.05	18956.00
470.23	19070.68
470.41	19695.61
470.59	19583.26
470.77	19337.51
470.95	19461.55
471.14	19740.08
471.32	19381.98
471.50	19871.15
471.68	19992.86
471.86	20053.71
472.04	20240.95
472.22	20491.39
472.40	20081.80
472.58	20116.90
472.77	20638.84
472.95	20587.35
473.13	21399.52
473.31	20383.73
473.49	20769.91
473.67	20922.05
473.85	20987.58
474.03	21341.00
474.21	21191.21
474.39	21678.04
474.57	21898.05
474.75	21834.86
474.93	21954.22
475.12	21956.57
475.30	21858.26
475.48	22368.50
475.66	22270.20
475.84	22031.46
476.02	22642.34
476.20	22640.00
476.38	23002.78
476.56	23381.95
476.74	23716.65
476.92	23410.04
477.10	23559.83
477.28	23924.96
477.46	23571.54
477.64	24037.30
477.82	24549.88
478.00	24868.19
478.18	24364.98
478.36	24699.67
478.54	25230.98
478.72	24982.88
478.90	25399.49
479.08	25483.75
479.26	26075.91
479.44	26499.55
479.62	26375.50
479.80	26647.00
479.98	26529.97
480.16	27543.42
480.34	26764.03
480.52	27559.81
480.70	27040.21
480.88	27349.16
481.06	27339.80
481.24	27571.51
481.41	27803.22
481.59	28739.44
481.77	28533.47
481.95	29092.86
482.13	29270.74
482.31	28765.18
482.49	29883.96
482.67	29677.99
482.85	30298.23
483.03	30284.19
483.21	30890.39
483.39	30380.15
483.57	30822.51
483.74	31152.53
483.92	31426.37
484.10	31538.72
484.28	31964.70
484.46	32535.79
484.64	33326.89
484.82	32378.97
485.00	32875.16
485.18	33603.07
485.35	34188.21
485.53	33500.09
485.71	34235.02
485.89	34724.19
486.07	34071.18
486.25	33986.92
486.43	35255.49
486.61	35344.43
486.78	35264.85
486.96	35665.08
487.14	36418.74
487.32	36549.81
487.50	36730.03
487.68	37064.72
487.85	37280.05
488.03	37738.80
488.21	37743.48
488.39	38094.56
488.57	38382.45
488.75	38700.76
488.92	39201.63
489.10	39122.05
489.28	39330.36
489.46	40102.74
489.64	39580.80
489.81	40542.76
489.99	40954.69
490.17	40832.99
490.35	41448.55
490.53	41546.85
490.70	41883.89
490.88	41500.04
491.06	42267.73
491.24	42419.87
491.41	42525.19
491.59	43250.76
491.77	43227.35
491.95	43306.93
492.13	43285.87
492.30	44013.77
492.48	43966.96
492.66	43819.51
492.84	44236.12
493.01	45076.38
493.19	45052.97
493.37	45284.68
493.54	45595.98
493.72	45909.61
493.90	45382.99
494.08	46480.70
494.25	46836.46
494.43	46644.54
494.61	47000.30
494.79	46962.85
494.96	46873.91
495.14	47168.82
495.32	47910.77
495.49	47480.11
495.67	48339.08
495.85	48659.74
496.02	48598.88
496.20	48783.79
496.38	48814.21
496.55	49228.49
496.73	49886.18
496.91	49661.49
497.09	49902.56
497.26	50082.78
497.44	50206.83
497.62	50436.20
497.79	50632.81
497.97	50354.29
498.14	51234.33
498.32	51140.71
498.50	51320.93
498.67	51672.01
498.85	51826.48
499.03	51753.93
499.20	52320.34
499.38	52252.46
499.56	52357.78
499.73	52619.92
499.91	52549.71
500.08	52743.97
500.26	52694.82
500.44	52844.62
500.61	53118.46
500.79	52877.38
500.97	53345.49
501.14	53893.18
501.32	53652.10
501.49	53659.12
501.67	53783.17
501.84	53764.45
502.02	53961.05
502.20	54122.55
502.37	54312.13
502.55	54377.67
502.72	54560.23
502.90	54436.18
503.07	54560.23
503.25	54454.90
503.43	54637.47
503.60	54855.14
503.78	54869.18
503.95	55164.09
504.13	55442.61
504.30	55171.11
504.48	55290.48
504.65	55512.83
504.83	55793.69
505.01	56009.02
505.18	55739.86
505.36	56217.33
505.53	55906.04
505.71	56109.66
505.88	56133.07
506.06	56041.79
506.23	56189.24
506.41	56282.86
506.58	56418.61
506.76	56470.11
506.93	56804.80
507.11	56725.22
507.28	56947.57
507.46	57153.54
507.63	57003.75
507.81	57268.23
507.98	56900.76
508.16	57249.50
508.33	57476.54
508.50	57464.83
508.68	57544.41
508.85	57783.15
509.03	57712.93
509.20	57743.36
509.38	57982.09
509.55	57972.73
509.73	58316.79
509.90	58312.11
510.08	58260.62
510.25	58291.04
510.42	58347.21
510.60	58489.99
510.77	58616.38
510.95	58857.45
511.12	58578.93
511.30	58611.70
511.47	58955.75
511.64	58960.44
511.82	59131.29
511.99	58955.75
512.17	59260.02
512.34	59206.19
512.51	59318.54
512.69	59653.23
512.86	59550.25
513.04	59810.05
513.21	59597.06
513.38	59636.85
513.56	59634.51
513.73	59540.89
513.90	59896.65
514.08	60011.34
514.25	59985.59
514.43	60055.81
514.60	60163.47
514.77	59906.01
514.95	59955.16
515.12	60161.13
515.29	60069.85
515.47	60437.31
515.64	60629.24
515.81	60467.74
515.99	60463.06
516.16	60636.26
516.33	60542.64
516.51	60959.25
516.68	60552.00
516.85	60973.30
517.03	60882.02
517.20	61141.81
517.37	60832.86
517.54	61059.90
517.72	61034.15
517.89	61200.33
518.06	61415.66
518.24	61380.55
518.41	61396.93
518.58	61520.98
518.75	61394.59
518.93	61535.02
519.10	61476.51
519.27	61607.58
519.45	61797.16
519.62	61827.59
519.79	61984.41
519.96	61801.85
520.14	61806.53
520.31	61792.48
520.48	61977.39
520.65	62071.01
520.83	62181.01
521.00	62361.23
521.17	62312.08
521.34	62239.53
521.52	62335.49
521.69	62298.04
521.86	62522.73
522.03	62691.25
522.20	62796.57
522.38	62766.15
522.55	62815.30
522.72	62819.98
522.89	62698.27
523.07	62829.34
523.24	62803.59
523.41	62845.72
523.58	62941.69
523.75	63185.10
523.92	62976.79
524.10	63070.42
524.27	63210.85
524.44	63231.91
524.61	63550.23
524.78	63283.40
524.96	63419.16
525.13	63498.73
525.30	63606.40
525.47	63639.17
525.64	63480.01
525.81	63545.54
525.98	63723.43
526.16	63723.43
526.33	63582.99
526.50	63866.20
526.67	63697.68
526.84	64030.04
527.01	63999.61
527.18	64055.78
527.36	64083.87
527.53	63976.20
527.70	64191.53
527.87	64247.71
528.04	64299.20
528.21	64273.45
528.38	64374.09
528.55	64376.43
528.72	64355.37
528.89	64301.54
529.07	64357.71
529.24	64151.74
529.41	64439.63
529.58	64661.98
529.75	64671.34
529.92	64771.99
530.09	64779.01
530.26	64788.37
530.43	64659.64
530.60	64629.21
530.77	64713.47
530.94	65045.83
531.11	64755.60
531.28	64872.63
531.46	64914.76
531.63	64931.14
531.80	65183.92
531.97	65144.13
532.14	65144.13
532.31	65111.36
532.48	65455.42
532.65	65506.91
532.82	65289.24
532.99	65307.97
533.16	65144.13
533.33	65499.89
533.50	65535.00
533.67	65490.53
533.84	65317.33
534.01	65535.00
534.18	65525.64
534.35	65535.00
534.52	65535.00
534.69	65535.00
534.86	65535.00
535.03	65535.00
535.20	65535.00
535.37	65535.00
535.54	65535.00
535.71	65535.00
535.88	65535.00
536.05	65535.00
536.22	65535.00
536.38	65535.00
536.55	65535.00
536.72	65535.00
536.89	65535.00
537.06	65535.00
537.23	65535.00
537.40	65535.00
537.57	65535.00
537.74	65535.00
537.91	65535.00
538.08	65535.00
538.25	65535.00
538.42	65535.00
538.59	65535.00
538.75	65535.00
538.92	65535.00
539.09	65535.00
539.26	65535.00
539.43	65535.00
539.60	65535.00
539.77	65535.00
539.94	65535.00
540.11	65535.00
540.28	65535.00
540.44	65535.00
540.61	65535.00
540.78	65535.00
540.95	65535.00
541.12	65535.00
541.29	65535.00
541.46	65535.00
541.62	65535.00
541.79	65535.00
541.96	65535.00
542.13	65535.00
542.30	65535.00
542.47	65535.00
542.63	65535.00
542.80	65535.00
542.97	65535.00
543.14	65535.00
543.31	65535.00
543.48	65535.00
543.64	65535.00
543.81	65535.00
543.98	65535.00
544.15	65535.00
544.32	65535.00
544.48	65535.00
544.65	65535.00
544.82	65535.00
544.99	65535.00
545.16	65535.00
545.32	65535.00
545.49	65535.00
545.66	65535.00
545.83	65535.00
546.00	65535.00
546.16	65535.00
546.33	65535.00
546.50	65535.00
546.67	65535.00
546.83	65535.00
547.00	65535.00
547.17	65535.00
547.34	65535.00
547.50	65535.00
547.67	65535.00
547.84	65535.00
548.00	65535.00
548.17	65535.00
548.34	65535.00
548.51	65535.00
548.67	65535.00
548.84	65535.00
549.01	65535.00
549.18	65535.00
549.34	65535.00
549.51	65535.00
549.68	65535.00
549.84	65535.00
550.01	65535.00
550.18	65535.00
550.34	65535.00
550.51	65535.00
550.68	65535.00
550.84	65535.00
551.01	65535.00
551.18	65535.00
551.34	65535.00
551.51	65535.00
551.68	65535.00
551.84	65535.00
552.01	65535.00
552.18	65535.00
552.34	65535.00
552.51	65535.00
552.68	65535.00
552.84	65535.00
553.01	65535.00
553.18	65535.00
553.34	65535.00
553.51	65535.00
553.67	65535.00
553.84	65535.00
554.01	65535.00
554.17	65535.00
554.34	65535.00
554.51	65535.00
554.67	65535.00
554.84	65535.00
555.00	65535.00
555.17	65535.00
555.33	65535.00
555.50	65535.00
555.67	65535.00
555.83	65535.00
556.00	65535.00
556.16	65535.00
556.33	65535.00
556.50	65535.00
556.66	65535.00
556.83	65535.00
556.99	65535.00
557.16	65535.00
557.32	65535.00
557.49	65535.00
557.65	65535.00
557.82	65535.00
557.98	65535.00
558.15	65535.00
558.32	65535.00
558.48	65535.00
558.65	65535.00
558.81	65535.00
558.98	65535.00
559.14	65535.00
559.31	65535.00
559.47	65535.00
559.64	65535.00
559.80	65535.00
559.97	65535.00
560.13	65535.00
560.30	65535.00
560.46	65535.00
560.63	65535.00
560.79	65535.00
560.96	65535.00
561.12	65535.00
561.29	65535.00
561.45	65535.00
561.61	65535.00
561.78	65535.00
561.94	65535.00
562.11	65535.00
562.27	65535.00
562.44	65535.00
562.60	65535.00
562.77	65535.00
562.93	65535.00
563.10	65535.00
563.26	65535.00
563.42	65535.00
563.59	65535.00
563.75	65535.00
563.92	65535.00
564.08	65535.00
564.24	65535.00
564.41	65535.00
564.57	65535.00
564.74	65535.00
564.90	65535.00
565.07	65535.00
565.23	65535.00
565.39	65535.00
565.56	65535.00
565.72	65535.00
565.88	65535.00
566.05	65535.00
566.21	65535.00
566.38	65535.00
566.54	65535.00
566.70	65535.00
566.87	65535.00
567.03	65535.00
567.19	65535.00
567.36	65535.00
567.52	65535.00
567.68	65535.00
567.85	65535.00
568.01	65535.00
568.17	65535.00
568.34	65535.00
568.50	65535.00
568.66	65535.00
568.83	65535.00
568.99	65535.00
569.15	65535.00
569.32	65535.00
569.48	65535.00
569.64	65535.00
569.81	65535.00
569.97	65535.00
570.13	65535.00
570.30	65535.00
570.46	65535.00
570.62	65535.00
570.78	65535.00
570.95	65535.00
571.11	65535.00
571.27	65535.00
571.43	65535.00
571.60	65535.00
571.76	65535.00
571.92	65535.00
572.09	65535.00
572.25	65535.00
572.41	65535.00
572.57	65535.00
572.74	65535.00
572.90	65535.00
573.06	65535.00
573.22	65535.00
573.38	65535.00
573.55	65535.00
573.71	65535.00
573.87	65535.00
574.03	65535.00
574.20	65535.00
574.36	65535.00
574.52	65535.00
574.68	65535.00
574.84	65535.00
575.01	65535.00
575.17	65535.00
575.33	65535.00
575.49	65535.00
575.65	65535.00
575.82	65535.00
575.98	65535.00
576.14	65535.00
576.30	65535.00
576.46	65535.00
576.62	65535.00
576.79	65535.00
576.95	65535.00
577.11	65535.00
577.27	65535.00
577.43	65535.00
577.59	65535.00
577.75	65535.00
577.92	65535.00
578.08	65535.00
578.24	65535.00
578.40	65535.00
578.56	65535.00
578.72	65535.00
578.88	65535.00
579.04	65535.00
579.21	65535.00
579.37	65535.00
579.53	65535.00
579.69	65535.00
579.85	65535.00
580.01	65535.00
580.17	65535.00
580.33	65535.00
580.49	65535.00
580.65	65535.00
580.82	65535.00
580.98	65535.00
581.14	65535.00
581.30	65535.00
581.46	65535.00
581.62	65535.00
581.78	65535.00
581.94	65535.00
582.10	65535.00
582.26	65535.00
582.42	65535.00
582.58	65535.00
582.74	65535.00
582.90	65535.00
583.06	65535.00
583.22	65535.00
583.38	65535.00
583.54	65535.00
583.70	65535.00
583.86	65535.00
584.02	65535.00
584.18	65535.00
584.34	65535.00
584.50	65535.00
584.66	65535.00
584.82	65535.00
584.98	65535.00
585.14	65535.00
585.30	65535.00
585.46	65535.00
585.62	65535.00
585.78	65535.00
585.94	65535.00
586.10	65535.00
586.26	65535.00
586.42	65535.00
586.58	65535.00
586.74	65535.00
586.90	65535.00
587.06	65535.00
