SpectraSuite Data File
++++++++++++++++++++++++++++++++++++
Date: Thu Oct 24 13:21:26 EDT 2013
User: stostad
Dark Spectrum Present: No
Reference Spectrum Present: No
Number of Sampled Component Spectra: 1
Spectrometers: USB2+H05261
Integration Time (usec): 100000 (USB2+H05261)
Spectra Averaged: 1 (USB2+H05261)
Boxcar Smoothing: 0 (USB2+H05261)
Correct for Electrical Dark: No (USB2+H05261)
Strobe/Lamp Enabled: No (USB2+H05261)
Correct for Detector Non-linearity: No (USB2+H05261)
Correct for Stray Light: No (USB2+H05261)
Number of Pixels in Processed Spectrum: 2048
>>>>>Begin Processed Spectral Data<<<<<
365.73	538.32
365.92	538.32
366.12	538.32
366.32	484.49
366.52	437.68
366.72	451.72
366.91	491.51
367.11	503.22
367.31	468.11
367.51	449.38
367.70	447.04
367.90	454.06
368.10	496.19
368.30	479.81
368.49	414.27
368.69	505.56
368.89	451.72
369.09	442.36
369.28	440.02
369.48	425.98
369.68	500.87
369.87	528.96
370.07	512.58
370.27	564.07
370.47	622.58
370.66	903.45
370.86	968.98
371.06	966.64
371.25	1025.15
371.45	1034.52
371.65	1006.43
371.84	997.07
372.04	1006.43
372.24	1067.28
372.44	1013.45
372.63	1015.79
372.83	1146.86
373.03	1025.15
373.22	1142.18
373.42	1123.46
373.62	1060.26
373.81	1076.65
374.01	1153.88
374.21	1128.14
374.40	1188.99
374.60	1142.18
374.79	1137.50
374.99	1158.57
375.19	1064.94
375.38	1109.41
375.58	1156.22
375.78	1135.16
375.97	1158.57
376.17	1198.35
376.37	1100.05
376.56	1231.12
376.76	1172.61
376.95	1214.74
377.15	1165.59
377.35	1254.53
377.54	1172.61
377.74	1320.06
377.93	1219.42
378.13	1165.59
378.33	1263.89
378.52	1226.44
378.72	1231.12
378.91	1273.25
379.11	1313.04
379.31	1219.42
379.50	1179.63
379.70	1291.98
379.89	1256.87
380.09	1329.42
380.28	1373.89
380.48	1331.76
380.68	1310.70
380.87	1343.47
381.07	1343.47
381.26	1460.49
381.46	1299.00
381.65	1331.76
381.85	1357.51
382.04	1291.98
382.24	1376.24
382.43	1385.60
382.63	1423.05
382.83	1397.30
383.02	1425.39
383.22	1519.01
383.41	1355.17
383.61	1387.94
383.80	1474.54
384.00	1441.77
384.19	1427.73
384.39	1462.83
384.58	1481.56
384.78	1430.07
384.97	1437.09
385.17	1554.12
385.36	1547.09
385.56	1521.35
385.75	1474.54
385.95	1519.01
386.14	1474.54
386.34	1535.39
386.53	1474.54
386.72	1549.43
386.92	1619.65
387.11	1579.86
387.31	1528.37
387.50	1535.39
387.70	1643.06
387.89	1575.18
388.09	1717.95
388.28	1535.39
388.48	1598.59
388.67	1666.46
388.86	1617.31
389.06	1614.97
389.25	1668.80
389.45	1675.82
389.64	1638.38
389.84	1671.14
390.03	1671.14
390.22	1727.32
390.42	1689.87
390.61	1701.57
390.81	1645.40
391.00	1694.55
391.19	1767.10
391.39	1827.96
391.58	1748.38
391.78	1757.74
391.97	1834.98
392.16	1750.72
392.36	1839.66
392.55	1874.77
392.75	1774.13
392.94	1944.99
393.13	1907.54
393.33	1830.30
393.52	1898.17
393.71	2003.50
393.91	1914.56
394.10	1928.60
394.29	1884.13
394.49	1919.24
394.68	1884.13
394.88	2001.16
395.07	2038.61
395.26	1886.47
395.46	1851.36
395.65	2132.23
395.84	2092.44
396.04	2132.23
396.23	1949.67
396.42	2010.52
396.62	2078.40
396.81	2108.82
397.00	1975.41
397.19	2162.66
397.39	2181.38
397.58	2118.18
397.77	2165.00
397.97	2204.78
398.16	2176.70
398.35	2279.68
398.55	2214.15
398.74	2293.72
398.93	2275.00
399.12	2260.96
399.32	2190.74
399.51	2148.61
399.70	2286.70
399.90	2282.02
400.09	2319.47
400.28	2352.24
400.47	2363.94
400.67	2366.28
400.86	2347.56
401.05	2312.45
401.24	2417.77
401.44	2349.90
401.63	2443.52
401.82	2443.52
402.01	2471.61
402.21	2487.99
402.40	2469.27
402.59	2506.71
402.78	2499.69
402.97	2534.80
403.17	2581.61
403.36	2553.52
403.55	2567.57
403.74	2719.70
403.93	2693.96
404.13	2736.09
404.32	2789.92
404.51	2818.00
404.70	2698.64
404.89	2752.47
405.09	2810.98
405.28	2717.36
405.47	2808.64
405.66	2682.25
405.85	2825.03
406.05	2843.75
406.24	2827.37
406.43	2827.37
406.62	2942.05
406.81	2937.37
407.00	2895.24
407.20	2949.08
407.39	2843.75
407.58	3077.80
407.77	2946.73
407.96	2991.20
408.15	3087.17
408.34	3108.23
408.54	3101.21
408.73	3075.46
408.92	3070.78
409.11	3225.26
409.30	3070.78
409.49	3208.87
409.68	3208.87
409.87	3103.55
410.07	3300.16
410.26	3267.39
410.45	3349.31
410.64	3438.25
410.83	3339.94
411.02	3478.04
411.21	3410.16
411.40	3445.27
411.59	3494.42
411.78	3424.20
411.98	3515.48
412.17	3548.25
412.36	3548.25
412.55	3618.47
412.74	3616.13
412.93	3625.49
413.12	3595.06
413.31	3798.69
413.50	3777.62
413.69	3716.77
413.88	3833.80
414.07	3901.67
414.26	3770.60
414.45	3995.29
414.64	4042.11
414.83	4109.98
415.02	3974.23
415.22	4117.00
415.41	4067.85
415.60	4077.21
415.79	4180.20
415.98	4236.37
416.17	4208.28
416.36	4255.09
416.55	4269.14
416.74	4444.68
416.93	4236.37
417.12	4393.19
417.31	4334.67
417.50	4301.90
417.69	4641.28
417.88	4552.34
418.07	4498.51
418.26	4620.22
418.45	4627.24
418.64	4758.31
418.83	4688.09
419.02	4676.39
419.21	4851.93
419.39	4692.77
419.58	4645.96
419.77	4774.69
419.96	4884.70
420.15	4812.14
420.34	4660.01
420.53	4767.67
420.72	4854.27
420.91	4826.18
421.10	4802.78
421.29	4919.81
421.48	4774.69
421.67	4975.98
421.86	5093.01
422.05	5041.51
422.24	4891.72
422.43	5006.41
422.61	4968.96
422.80	5130.45
422.99	5167.90
423.18	5156.20
423.37	5249.82
423.56	5121.09
423.75	5191.31
423.94	4858.95
424.13	4830.87
424.32	4851.93
424.50	5085.98
424.69	5186.63
424.88	5317.70
425.07	5130.45
425.26	5170.24
425.45	5203.01
425.64	5177.26
425.83	5188.97
426.01	5165.56
426.20	5188.97
426.39	5245.14
426.58	5308.34
426.77	5217.05
426.96	5298.97
427.15	5203.01
427.33	5364.51
427.52	5277.91
427.71	5465.15
427.90	5366.85
428.09	5533.03
428.28	5603.24
428.46	5441.75
428.65	5465.15
428.84	5713.25
429.03	5589.20
429.22	5687.50
429.40	5741.33
429.59	5575.16
429.78	5336.42
429.97	5331.74
430.16	5614.95
430.34	5856.02
430.53	5720.27
430.72	5858.36
430.91	5795.17
431.10	5844.32
431.28	5778.78
431.47	5865.38
431.66	6026.88
431.85	5863.04
432.03	6090.07
432.22	6029.22
432.41	6111.14
432.60	6136.88
432.79	6108.80
432.97	6237.53
433.16	6167.31
433.35	6012.84
433.54	6354.55
433.72	6279.66
433.91	6209.44
434.10	6129.86
434.28	6450.52
434.47	6300.72
434.66	6246.89
434.85	6523.07
435.03	6649.46
435.22	6544.14
435.41	6874.15
435.59	6696.27
435.78	6846.07
435.97	6792.23
436.16	6530.09
436.34	6757.13
436.53	6782.87
436.72	6829.68
436.90	6562.86
437.09	6817.98
437.28	6733.72
437.46	6785.21
437.65	6707.98
437.84	6979.48
438.02	6923.30
438.21	6897.56
438.40	6878.83
438.58	7166.72
438.77	6981.82
438.96	7094.16
439.14	7232.26
439.33	7229.91
439.52	7445.24
439.70	7435.88
439.89	7569.29
440.08	7513.12
440.26	7405.46
440.45	7527.16
440.63	7562.27
440.82	7822.07
441.01	7552.91
441.19	7702.70
441.38	7936.76
441.57	7803.35
441.75	8009.31
441.94	8018.68
442.12	7974.21
442.31	8072.51
442.50	8028.04
442.68	8081.87
442.87	7992.93
443.05	8046.76
443.24	8332.31
443.43	8182.51
443.61	8159.11
443.80	8620.19
443.98	8184.85
444.17	7812.71
444.35	8194.22
444.54	8390.82
444.73	8613.17
444.91	8439.97
445.10	8444.65
445.28	8402.52
445.47	8196.56
445.65	8432.95
445.84	8650.62
446.02	8592.11
446.21	8561.68
446.39	8451.67
446.58	8449.33
446.77	8369.76
446.95	8222.30
447.14	8671.68
447.32	8514.87
447.51	8643.60
447.69	8547.64
447.88	8566.36
448.06	8617.85
448.25	8699.77
448.43	8608.49
448.62	8744.24
448.80	8659.98
448.99	8622.53
449.17	8943.19
449.36	8510.19
449.54	8940.85
449.73	8994.68
449.91	9018.08
450.10	8947.87
450.28	9013.40
450.46	9177.24
450.65	9015.74
450.83	9184.26
451.02	8943.19
451.20	9331.72
451.39	9118.73
451.57	9020.42
451.76	9210.01
451.94	9242.78
452.13	9191.28
452.31	9320.01
452.49	9263.84
452.68	9411.29
452.86	9387.89
453.05	9556.41
453.23	9516.62
453.42	9383.21
453.60	9301.29
453.78	9715.56
453.97	9476.83
454.15	9270.86
454.34	9479.17
454.52	9710.88
454.70	9884.08
454.89	9619.60
455.07	9881.74
455.26	9844.29
455.44	10200.05
455.62	9776.42
455.81	9767.06
455.99	9921.53
456.17	10162.61
456.36	10047.92
456.54	10228.14
456.73	10010.47
456.91	10562.84
457.09	10338.15
457.28	10462.19
457.46	10319.42
457.64	10436.45
457.83	10553.48
458.01	10352.19
458.19	10647.10
458.38	10506.66
458.56	10698.59
458.74	10766.46
458.93	10691.57
459.11	10623.69
459.29	10759.44
459.48	10684.55
459.66	10696.25
459.84	10806.25
460.03	11002.86
460.21	11063.71
460.39	10920.94
460.57	11000.52
460.76	11082.44
460.94	10981.79
461.12	11297.77
461.31	11162.01
461.49	11215.85
461.67	11098.82
461.85	11421.81
462.04	11194.78
462.22	11667.57
462.40	11679.27
462.59	11276.70
462.77	11316.49
462.95	11681.61
463.13	11508.41
463.32	11543.52
463.50	11749.49
463.68	11655.87
463.86	11777.58
464.05	11503.73
464.23	11527.14
464.41	11651.19
464.59	11559.91
464.78	12009.29
464.96	11852.47
465.14	11779.92
465.32	11955.46
465.50	11852.47
465.69	12063.12
465.87	12152.06
466.05	11927.37
466.23	11873.54
466.41	12278.45
466.60	12444.63
466.78	12217.60
466.96	12203.55
467.14	12343.99
467.32	12301.86
467.51	12479.74
467.69	12105.25
467.87	12266.75
468.05	12500.80
468.23	12297.17
468.41	12315.90
468.60	12376.75
468.78	12533.57
468.96	12428.24
469.14	12954.87
469.32	12896.35
469.50	12318.24
469.69	12760.60
469.87	13001.68
470.05	13137.43
470.23	13013.38
470.41	13121.04
470.59	13312.97
470.77	13036.78
470.95	13273.18
471.14	13263.82
471.32	13135.09
471.50	13364.46
471.68	13249.77
471.86	13493.19
472.04	13427.65
472.22	13750.65
472.40	13350.42
472.58	13593.83
472.77	13893.42
472.95	13886.40
473.13	14251.52
473.31	13867.67
473.49	14242.16
473.67	13802.14
473.85	14059.60
474.03	14410.68
474.21	14431.74
474.39	14389.61
474.57	14569.83
474.75	14745.38
474.93	14871.76
475.12	14789.85
475.30	14939.64
475.48	14906.87
475.66	14834.32
475.84	14733.67
476.02	15314.13
476.20	15295.40
476.38	15576.27
476.56	15538.82
476.74	15660.52
476.92	15744.78
477.10	15587.97
477.28	15737.76
477.46	16011.60
477.64	16058.42
477.82	16510.14
478.00	16774.62
478.18	16755.90
478.36	16622.48
478.54	16975.91
478.72	16758.24
478.90	17170.17
479.08	17249.75
479.26	17282.52
479.44	17561.04
479.62	17626.57
479.80	17970.63
479.98	17949.57
480.16	18352.14
480.34	18033.83
480.52	18387.25
480.70	18511.30
480.88	18389.59
481.06	18324.05
481.24	18464.49
481.41	18649.39
481.59	18771.10
481.77	19185.37
481.95	19211.12
482.13	19386.66
482.31	19293.04
482.49	19857.10
482.67	19765.82
482.85	20072.43
483.03	20201.16
483.21	20505.43
483.39	20882.26
483.57	20294.79
483.74	20900.98
483.92	20865.88
484.10	20886.94
484.28	21500.16
484.46	21668.68
484.64	22008.06
484.82	21551.65
485.00	21788.05
485.18	22307.65
485.35	22874.06
485.53	22705.54
485.71	22597.87
485.89	23140.88
486.07	23147.90
486.25	22874.06
486.43	23190.03
486.61	23321.10
486.78	23845.38
486.96	23908.57
487.14	24259.65
487.32	23931.98
487.50	24613.07
487.68	25156.08
487.85	24870.53
488.03	25156.08
488.21	25385.45
488.39	25488.43
488.57	25151.40
488.75	25743.55
488.92	25788.02
489.10	26359.11
489.28	26448.05
489.46	26834.24
489.64	26438.69
489.81	26817.86
489.99	26972.33
490.17	27044.89
490.35	27566.83
490.53	27864.08
490.70	28123.88
490.88	27840.67
491.06	28212.82
491.24	28060.68
491.41	28414.10
491.59	28760.50
491.77	28584.96
491.95	28938.38
492.13	29294.14
492.30	29518.84
492.48	29516.50
492.66	29633.52
492.84	30080.56
493.01	29926.09
493.19	30213.98
493.37	30426.96
493.54	30314.62
493.72	30625.91
493.90	30429.30
494.08	30707.83
494.25	31145.51
494.43	31276.58
494.61	31655.75
494.79	31456.80
494.96	31852.35
495.14	31978.74
495.32	32453.87
495.49	32615.37
495.67	32378.97
495.85	33165.39
496.02	33130.28
496.20	32828.35
496.38	33582.01
496.55	33303.48
496.73	34087.56
496.91	33687.33
497.09	34277.15
497.26	34127.35
497.44	34064.16
497.62	34192.89
497.79	34988.67
497.97	34742.91
498.14	35112.72
498.32	35522.31
498.50	35145.48
498.67	35819.56
498.85	35365.49
499.03	35606.57
499.20	35646.36
499.38	36135.53
499.56	36039.57
499.73	35934.24
499.91	36631.72
500.08	36425.76
500.26	36510.02
500.44	36840.03
500.61	36952.38
500.79	36865.78
500.97	37411.12
501.14	36982.80
501.32	37483.68
501.49	37095.15
501.67	37532.83
501.84	37965.83
502.02	37586.66
502.20	38190.52
502.37	38501.81
502.55	37804.33
502.72	38223.29
502.90	38459.68
503.07	38782.68
503.25	38890.34
503.43	39199.29
503.60	38953.54
503.78	39365.47
503.95	38639.90
504.13	39342.06
504.30	39246.10
504.48	39449.73
504.65	39948.26
504.83	40535.74
505.01	40044.23
505.18	39894.43
505.36	40875.12
505.53	40203.38
505.71	40315.73
505.88	40708.94
506.06	40315.73
506.23	40999.16
506.41	40720.64
506.58	41301.09
506.76	41057.68
506.93	41567.91
507.11	40994.48
507.28	42005.59
507.46	41635.79
507.63	41787.92
507.81	41748.14
507.98	41654.51
508.16	41586.64
508.33	42328.59
508.50	41806.65
508.68	42927.77
508.85	42726.48
509.03	42178.79
509.20	42916.06
509.38	42890.32
509.55	43023.73
509.73	43147.78
509.90	43386.51
510.08	43400.55
510.25	43849.94
510.42	43599.50
510.60	43557.37
510.77	44126.12
510.95	44044.20
511.12	43854.62
511.30	44425.71
511.47	44467.84
511.64	44484.22
511.82	44566.14
511.99	44161.23
512.17	44584.86
512.34	44694.87
512.51	45352.56
512.69	45148.93
512.86	45244.90
513.04	45450.86
513.21	45308.09
513.38	45261.28
513.56	45837.05
513.73	45191.06
513.90	45689.60
514.08	45638.11
514.25	46288.77
514.43	46256.01
514.60	46209.20
514.77	46335.59
514.95	46445.59
515.12	46094.51
515.29	46550.91
515.47	47145.41
515.64	46899.65
515.81	47145.41
515.99	46864.55
516.16	47173.50
516.33	46983.91
516.51	47342.02
516.68	47166.48
516.85	47372.44
517.03	47693.10
517.20	47908.43
517.37	47791.40
517.54	47653.31
517.72	47576.07
517.89	47852.25
518.06	47957.58
518.24	48027.79
518.41	48179.93
518.58	48341.42
518.75	48240.78
518.93	48294.61
519.10	48259.51
519.27	48591.86
519.45	48657.40
519.62	48814.21
519.79	48713.57
519.96	48767.40
520.14	49296.36
520.31	48629.31
520.48	49254.23
520.65	48842.30
520.83	49619.36
521.00	49736.38
521.17	49162.95
521.34	49766.81
521.52	49635.74
521.69	49647.44
521.86	49820.64
522.03	49757.45
522.20	49986.82
522.38	50417.48
522.55	50499.40
522.72	50178.75
522.89	50068.74
523.07	50897.29
523.24	50342.58
523.41	50691.32
523.58	50129.59
523.75	50562.59
523.92	50525.14
524.10	51248.37
524.27	50918.35
524.44	51147.73
524.61	51274.12
524.78	51129.00
524.96	50887.93
525.13	51489.45
525.30	51611.15
525.47	51910.74
525.64	51634.56
525.81	51966.91
525.98	51475.40
526.16	51601.79
526.33	51653.28
526.50	52095.64
526.67	51838.18
526.84	52013.73
527.01	51833.50
527.18	52093.30
527.36	52116.71
527.53	52456.09
527.70	52147.14
527.87	52285.23
528.04	52428.00
528.21	52577.79
528.38	52509.92
528.55	52758.02
528.72	52783.76
528.89	52767.38
529.07	52442.04
529.24	52357.78
529.41	53045.90
529.58	52741.63
529.75	52811.85
529.92	53130.16
530.09	53155.91
530.26	52605.88
530.43	53120.80
530.60	52774.40
530.77	52924.19
530.94	53425.07
531.11	53258.89
531.28	53394.64
531.46	53338.47
531.63	53478.90
531.80	53539.75
531.97	53462.52
532.14	53462.52
532.31	53401.66
532.48	53602.95
532.65	54162.34
532.82	53558.48
532.99	53787.85
533.16	53684.87
533.33	53937.65
533.50	54064.03
533.67	54141.27
533.84	53954.03
534.01	53939.99
534.18	54049.99
534.35	54504.06
534.52	54181.06
534.69	54351.92
534.86	54169.36
535.03	54075.74
535.20	54284.04
535.37	54543.84
535.54	54787.26
535.71	54328.52
535.88	54808.32
536.05	54436.18
536.22	54639.81
536.38	54660.87
536.55	54728.75
536.72	55000.25
536.89	54946.42
537.06	55007.27
537.23	55098.55
537.40	55014.29
537.57	55009.61
537.74	55194.51
537.91	55267.07
538.08	54857.48
538.25	54918.33
538.42	55367.71
538.59	55414.52
538.75	55220.26
538.92	55430.91
539.09	55625.17
539.26	55199.19
539.43	55306.86
539.60	55557.30
539.77	55714.11
539.94	56037.11
540.11	55707.09
540.28	55585.38
540.44	55758.58
540.61	55634.53
540.78	55702.41
540.95	55873.27
541.12	55866.25
541.29	55636.87
541.46	56163.50
541.62	56367.12
541.79	56067.53
541.96	55753.90
542.13	56088.60
542.30	55990.30
542.47	56058.17
542.63	56121.37
542.80	56332.01
542.97	56556.70
543.14	56687.78
543.31	56523.94
543.48	56509.89
543.64	56676.07
543.81	56947.57
543.98	56523.94
544.15	56779.06
544.32	56797.78
544.48	57034.17
544.65	56587.13
544.82	56907.79
544.99	56566.07
545.16	56839.91
545.32	57102.05
545.49	57371.21
545.66	57207.37
545.83	57385.25
546.00	57399.30
546.16	57399.30
546.33	57254.18
546.50	57050.56
546.67	57092.69
546.83	56734.59
547.00	57022.47
547.17	57045.88
547.34	57146.52
547.50	57315.04
547.67	57668.46
547.84	57331.42
548.00	57605.26
548.17	57736.34
548.34	57315.04
548.51	57448.45
548.67	57588.88
548.84	57544.41
549.01	57373.55
549.18	57382.91
549.34	57612.29
549.51	57642.71
549.68	57689.52
549.84	57511.64
550.01	57659.10
550.18	57633.35
550.34	57535.05
550.51	57724.63
550.68	57762.08
550.84	57539.73
551.01	57848.68
551.18	57640.37
551.34	57705.91
551.51	57902.51
551.68	57860.38
551.84	57659.10
552.01	57895.49
552.18	57787.83
552.34	57827.62
552.51	58527.44
552.68	57984.43
552.84	58183.38
553.01	58251.25
553.18	58234.87
553.34	58017.20
553.51	58014.86
553.67	58447.86
553.84	58372.96
554.01	58482.97
554.17	58499.35
554.34	58436.16
554.51	58480.63
554.67	58213.80
554.84	58295.72
555.00	58244.23
555.17	58302.74
555.33	58394.03
555.50	58457.22
555.67	58265.30
555.83	58433.81
556.00	58649.14
556.16	58660.85
556.33	58630.42
556.50	58628.08
556.66	58536.80
556.83	58546.16
556.99	58791.92
557.16	58974.48
557.32	58642.12
557.49	59182.79
557.65	58731.06
557.82	58609.35
557.98	58712.34
558.15	58452.54
558.32	58562.54
558.48	58724.04
558.65	58906.60
558.81	58766.17
558.98	58777.87
559.14	59054.06
559.31	58857.45
559.47	59025.97
559.64	59150.02
559.80	58857.45
559.97	59082.14
560.13	58812.98
560.30	58937.03
560.46	59353.65
560.63	59035.33
560.79	59339.60
560.96	59168.74
561.12	59199.17
561.29	59152.36
561.45	59152.36
561.61	59124.27
561.78	59058.74
561.94	59222.58
562.11	59341.94
562.27	59529.19
562.44	59208.53
562.60	59201.51
562.77	59395.77
562.93	59180.45
563.10	59278.75
563.26	59157.04
563.42	59416.84
563.59	59465.99
563.75	59423.86
563.92	59496.42
564.08	59257.68
564.24	59505.78
564.41	59451.95
564.57	59407.48
564.74	59112.57
564.90	59580.68
565.07	59379.39
565.23	59676.64
565.39	59702.38
565.56	59767.92
565.72	59634.51
565.88	59447.27
566.05	59512.80
566.21	59243.64
566.38	59386.41
566.54	59461.31
566.70	59744.51
566.87	59732.81
567.03	59608.76
567.19	60081.55
567.36	59903.67
567.52	59566.63
567.68	59674.30
567.85	59634.51
568.01	59629.83
568.17	59700.04
568.34	59770.26
568.50	59700.04
568.66	59646.21
568.83	59655.57
568.99	59480.03
569.15	59810.05
569.32	59578.34
569.48	59671.96
569.64	59709.41
569.81	59583.02
569.97	59522.16
570.13	59936.44
570.30	59870.90
570.46	59910.69
570.62	59791.33
570.78	59702.38
570.95	59643.87
571.11	59819.41
571.27	59840.48
571.43	59559.61
571.60	59660.26
571.76	59840.48
571.92	59936.44
572.09	60044.10
572.25	59896.65
572.41	59985.59
572.57	59936.44
572.74	60032.40
572.90	60081.55
573.06	59833.46
573.22	59781.96
573.38	60130.70
573.55	59863.88
573.71	60329.65
573.87	60048.78
574.03	60009.00
574.20	59894.31
574.36	59826.43
574.52	60126.02
574.68	59889.63
574.84	60079.21
575.01	60060.49
575.17	60170.49
575.33	59931.76
575.49	59966.87
575.65	60121.34
575.82	60189.22
575.98	59957.50
576.14	60231.35
576.30	60238.37
576.46	59955.16
576.62	60013.68
576.79	60126.02
576.95	59716.43
577.11	60083.89
577.27	60247.73
577.43	60018.36
577.59	60053.47
577.75	59950.48
577.92	59891.97
578.08	60156.45
578.24	59936.44
578.40	60086.23
578.56	60250.07
578.72	60147.09
578.88	60268.79
579.04	60271.14
579.21	60161.13
579.37	60308.58
579.53	60285.18
579.69	60023.04
579.85	60203.26
580.01	60212.62
580.17	60229.01
580.33	60219.64
580.49	60299.22
580.65	60254.75
580.82	60184.54
580.98	60243.05
581.14	60336.67
581.30	60303.90
581.46	60233.69
581.62	60128.36
581.78	60210.28
581.94	60317.95
582.10	60037.08
582.26	60397.52
582.42	60292.20
582.58	60229.01
582.74	60385.82
582.90	60327.31
583.06	60343.69
583.22	60207.94
583.38	60226.66
583.54	60444.33
583.70	60165.81
583.86	60388.16
584.02	60336.67
584.18	60402.21
584.34	60336.67
584.50	60580.09
584.66	60301.56
584.82	60156.45
584.98	60252.41
585.14	60303.90
585.30	60369.44
585.46	60505.19
585.62	60196.24
585.78	60434.97
585.94	60320.29
586.10	60446.68
586.26	60282.84
586.42	60587.11
586.58	60441.99
586.74	60273.48
586.90	60313.26
587.06	60498.17
587.22	60537.96
587.38	60481.78
587.54	60666.69
587.70	60811.80
587.86	60582.43
588.02	60472.42
