SpectraSuite Data File
++++++++++++++++++++++++++++++++++++
Date: Thu Oct 24 13:21:24 EDT 2013
User: stostad
Dark Spectrum Present: No
Reference Spectrum Present: No
Number of Sampled Component Spectra: 1
Spectrometers: USB2+H05261
Integration Time (usec): 100000 (USB2+H05261)
Spectra Averaged: 1 (USB2+H05261)
Boxcar Smoothing: 0 (USB2+H05261)
Correct for Electrical Dark: No (USB2+H05261)
Strobe/Lamp Enabled: No (USB2+H05261)
Correct for Detector Non-linearity: No (USB2+H05261)
Correct for Stray Light: No (USB2+H05261)
Number of Pixels in Processed Spectrum: 2048
>>>>>Begin Processed Spectral Data<<<<<
365.73	610.88
365.92	610.88
366.12	610.88
366.32	470.45
366.52	465.77
366.72	491.51
366.91	402.57
367.11	486.83
367.31	421.30
367.51	451.72
367.70	477.47
367.90	517.26
368.10	510.24
368.30	517.26
368.49	486.83
368.69	524.28
368.89	451.72
369.09	491.51
369.28	491.51
369.48	510.24
369.68	566.41
369.87	571.09
370.07	510.24
370.27	561.73
370.47	622.58
370.66	861.32
370.86	912.81
371.06	994.73
371.25	1036.86
371.45	987.71
371.65	1067.28
371.84	964.30
372.04	933.87
372.24	896.43
372.44	992.39
372.63	1025.15
372.83	997.07
373.03	1015.79
373.22	1057.92
373.42	1060.26
373.62	1046.22
373.81	1109.41
374.01	1121.12
374.21	1093.03
374.40	1135.16
374.60	1165.59
374.79	1123.46
374.99	1193.67
375.19	1128.14
375.38	1184.31
375.58	1210.06
375.78	1114.10
375.97	1123.46
376.17	1123.46
376.37	1144.52
376.56	1118.78
376.76	1160.91
376.95	1149.20
377.15	1217.08
377.35	1184.31
377.54	1121.12
377.74	1235.80
377.93	1191.33
378.13	1191.33
378.33	1214.74
378.52	1188.99
378.72	1184.31
378.91	1242.82
379.11	1224.10
379.31	1233.46
379.50	1259.21
379.70	1306.02
379.89	1296.66
380.09	1217.08
380.28	1263.89
380.48	1270.91
380.68	1299.00
380.87	1252.19
381.07	1324.74
381.26	1270.91
381.46	1287.29
381.65	1327.08
381.85	1355.17
382.04	1313.04
382.24	1301.34
382.43	1329.42
382.63	1310.70
382.83	1240.48
383.02	1273.25
383.22	1425.39
383.41	1324.74
383.61	1380.92
383.80	1439.43
384.00	1357.51
384.19	1401.98
384.39	1364.53
384.58	1404.32
384.78	1427.73
384.97	1420.71
385.17	1355.17
385.36	1411.34
385.56	1399.64
385.75	1385.60
385.95	1479.22
386.14	1458.15
386.34	1373.89
386.53	1434.75
386.72	1451.13
386.92	1460.49
387.11	1448.79
387.31	1558.80
387.50	1469.86
387.70	1519.01
387.89	1565.82
388.09	1455.81
388.28	1423.05
388.48	1427.73
388.67	1554.12
388.86	1516.67
389.06	1500.28
389.25	1511.99
389.45	1537.73
389.64	1596.25
389.84	1610.29
390.03	1682.85
390.22	1621.99
390.42	1582.20
390.61	1626.67
390.81	1568.16
391.00	1661.78
391.19	1621.99
391.39	1579.86
391.58	1750.72
391.78	1666.46
391.97	1689.87
392.16	1722.63
392.36	1680.50
392.55	1692.21
392.75	1783.49
392.94	1797.53
393.13	1797.53
393.33	1671.14
393.52	1842.00
393.71	1834.98
393.91	1813.92
394.10	1809.23
394.29	1762.42
394.49	1860.73
394.68	1870.09
394.88	1825.62
395.07	1900.52
395.26	1940.30
395.46	1874.77
395.65	1933.28
395.84	1879.45
396.04	1921.58
396.23	2019.88
396.42	2024.56
396.62	1944.99
396.81	2090.10
397.00	1905.20
397.19	1975.41
397.39	1980.09
397.58	1961.37
397.77	2022.22
397.97	2134.57
398.16	2059.67
398.35	2169.68
398.55	2069.03
398.74	1987.11
398.93	2157.97
399.12	2057.33
399.32	2099.46
399.51	2071.37
399.70	2064.35
399.90	2181.38
400.09	2211.81
400.28	2263.30
400.47	2169.68
400.67	2291.38
400.86	2305.43
401.05	2230.53
401.24	2230.53
401.44	2216.49
401.63	2324.15
401.82	2321.81
402.01	2310.11
402.21	2331.17
402.40	2338.20
402.59	2455.22
402.78	2324.15
402.97	2377.98
403.17	2471.61
403.36	2368.62
403.55	2415.43
403.74	2590.97
403.93	2565.23
404.13	2509.05
404.32	2497.35
404.51	2560.55
404.70	2612.04
404.89	2593.31
405.09	2654.17
405.28	2640.12
405.47	2633.10
405.66	2651.83
405.85	2621.40
406.05	2626.08
406.24	2677.57
406.43	2696.30
406.62	2857.79
406.81	2778.22
407.00	2766.51
407.20	2693.96
407.39	2792.26
407.58	2869.50
407.77	2712.68
407.96	2958.44
408.15	2920.99
408.34	2860.13
408.54	2897.58
408.73	2883.54
408.92	3047.38
409.11	2925.67
409.30	2993.55
409.49	3063.76
409.68	3047.38
409.87	2953.76
410.07	3094.19
410.26	3038.02
410.45	3070.78
410.64	3180.79
410.83	3173.77
411.02	3150.36
411.21	3304.84
411.40	3248.66
411.59	3262.71
411.78	3346.97
411.98	3269.73
412.17	3368.03
412.36	3330.58
412.55	3419.52
412.74	3255.69
412.93	3459.31
413.12	3487.40
413.31	3606.77
413.50	3466.33
413.69	3592.72
413.88	3660.60
414.07	3744.86
414.26	3641.87
414.45	3688.68
414.64	3669.96
414.83	3707.41
415.02	3936.78
415.22	3878.27
415.41	3911.04
415.60	3950.82
415.79	3861.88
415.98	3969.55
416.17	3906.35
416.36	4074.87
416.55	4035.08
416.74	3960.19
416.93	4009.34
417.12	4156.79
417.31	4128.70
417.50	4196.58
417.69	4170.83
417.88	4329.99
418.07	4341.69
418.26	4369.78
418.45	4245.73
418.64	4437.66
418.83	4458.72
419.02	4351.06
419.21	4346.37
419.39	4437.66
419.58	4535.96
419.77	4465.74
419.96	4688.09
420.15	4524.26
420.34	4510.21
420.53	4493.83
420.72	4589.79
420.91	4542.98
421.10	4585.11
421.29	4781.71
421.48	4585.11
421.67	4760.65
421.86	4699.80
422.05	4697.46
422.24	4753.63
422.43	4760.65
422.61	4889.38
422.80	4954.91
422.99	4814.48
423.18	4800.44
423.37	4901.08
423.56	4809.80
423.75	4964.28
423.94	4692.77
424.13	4610.86
424.32	4711.50
424.50	4856.61
424.69	5102.37
424.88	4898.74
425.07	4847.25
425.26	4922.15
425.45	4800.44
425.64	4912.78
425.83	4798.10
426.01	4823.84
426.20	4828.53
426.39	5039.17
426.58	4901.08
426.77	5015.77
426.96	5008.75
427.15	5013.43
427.33	5128.11
427.52	4889.38
427.71	5097.69
427.90	5081.30
428.09	5298.97
428.28	5172.58
428.46	5231.10
428.65	5313.02
428.84	5432.38
429.03	5413.66
429.22	5383.23
429.40	5296.63
429.59	5397.28
429.78	5144.50
429.97	5249.82
430.16	5226.42
430.34	5476.85
430.53	5507.28
430.72	5455.79
430.91	5514.30
431.10	5483.88
431.28	5607.92
431.47	5497.92
431.66	5729.63
431.85	5607.92
432.03	5802.19
432.22	5694.52
432.41	5600.90
432.60	5708.57
432.79	5809.21
432.97	5849.00
433.16	5750.70
433.35	5755.38
433.54	5832.62
433.72	6017.52
433.91	5909.85
434.10	5839.64
434.28	5809.21
434.47	6080.71
434.66	6040.92
434.85	6115.82
435.03	6169.65
435.22	6207.10
435.41	6413.07
435.59	6258.59
435.78	6401.37
435.97	6310.08
436.16	6179.01
436.34	6232.85
436.53	6384.98
436.72	6490.31
436.90	6179.01
437.09	6195.40
437.28	6176.67
437.46	6403.71
437.65	6410.73
437.84	6672.87
438.02	6518.39
438.21	6408.39
438.40	6370.94
438.58	6665.85
438.77	6773.51
438.96	6600.31
439.14	6888.20
439.33	6860.11
439.52	6979.48
439.70	6946.71
439.89	7239.28
440.08	6881.18
440.26	6965.43
440.45	6970.12
440.63	7115.23
440.82	7325.88
441.01	7033.31
441.19	7290.77
441.38	7281.41
441.57	7442.90
441.75	7311.83
441.94	7648.87
442.12	7513.12
442.31	7616.10
442.50	7485.03
442.68	7461.63
442.87	7824.41
443.05	7573.97
443.24	7847.82
443.43	7688.66
443.61	7868.88
443.80	7927.39
443.98	7618.44
444.17	7473.33
444.35	7609.08
444.54	7756.54
444.73	7819.73
444.91	7908.67
445.10	7796.32
445.28	7889.95
445.47	7721.43
445.65	7992.93
445.84	8170.81
446.02	8046.76
446.21	7843.14
446.39	7915.69
446.58	8154.43
446.77	7983.57
446.95	7751.85
447.14	8028.04
447.32	8131.02
447.51	7932.08
447.69	7927.39
447.88	8053.78
448.06	7985.91
448.25	8126.34
448.43	8217.62
448.62	8168.47
448.80	8124.00
448.99	8168.47
449.17	8231.66
449.36	8182.51
449.54	8369.76
449.73	8374.44
449.91	8400.18
450.10	8526.57
450.28	8702.11
450.46	8561.68
450.65	8299.54
450.83	8526.57
451.02	8414.23
451.20	8709.13
451.39	8744.24
451.57	8615.51
451.76	8521.89
451.94	8720.84
452.13	8767.65
452.31	8924.46
452.49	8688.07
452.68	8779.35
452.86	8854.25
453.05	8884.67
453.23	8952.55
453.42	8912.76
453.60	8842.54
453.78	8830.84
453.97	8943.19
454.15	9174.90
454.34	8755.94
454.52	9104.68
454.70	8915.10
454.89	9226.39
455.07	9184.26
455.26	9160.86
455.44	9233.41
455.62	9425.34
455.81	9212.35
455.99	9294.27
456.17	9474.49
456.36	9254.48
456.54	9488.53
456.73	9544.70
456.91	9928.55
457.09	9643.01
457.28	9973.02
457.46	9514.28
457.64	9930.89
457.83	9916.85
458.01	9767.06
458.19	9989.41
458.38	9877.06
458.56	10010.47
458.74	10040.90
458.93	10073.67
459.11	9921.53
459.29	10195.37
459.48	10178.99
459.66	10101.75
459.84	10125.16
460.03	10228.14
460.21	10279.63
460.39	10263.25
460.57	10324.10
460.76	10415.38
460.94	10499.64
461.12	10509.01
461.31	10389.64
461.49	10422.41
461.67	10497.30
461.85	10609.65
462.04	10717.31
462.22	11098.82
462.40	10867.11
462.59	10771.15
462.77	10633.05
462.95	10712.63
463.13	10970.09
463.32	10658.80
463.50	11005.20
463.68	10883.49
463.86	11012.22
464.05	11063.71
464.23	10813.28
464.41	11096.48
464.59	10939.66
464.78	11208.83
464.96	11307.13
465.14	10939.66
465.32	11335.21
465.50	11169.04
465.69	11323.51
465.87	11269.68
466.05	11105.84
466.23	11002.86
466.41	11269.68
466.60	11477.99
466.78	11363.30
466.96	11300.11
467.14	11587.99
467.32	11503.73
467.51	11639.48
467.69	11463.94
467.87	11683.95
468.05	11873.54
468.23	11398.41
468.41	11456.92
468.60	11763.53
468.78	11651.19
468.96	11866.52
469.14	11826.73
469.32	12121.63
469.50	11754.17
469.69	12182.49
469.87	11908.65
470.05	12191.85
470.23	12116.95
470.41	12100.57
470.59	12236.32
470.77	12386.12
470.95	12444.63
471.14	12355.69
471.32	12128.66
471.50	12603.78
471.68	12432.93
471.86	12657.62
472.04	12847.20
472.22	13123.38
472.40	12730.17
472.58	12919.76
472.77	13097.64
472.95	12994.65
473.13	13373.82
473.31	12779.32
473.49	12992.31
473.67	13123.38
473.85	13334.03
474.03	13635.96
474.21	13507.23
474.39	13692.13
474.57	13586.81
474.75	13855.97
474.93	13823.20
475.12	13752.99
475.30	13994.06
475.48	13703.84
475.66	14281.95
475.84	13965.98
476.02	14415.36
476.20	14207.05
476.38	14450.47
476.56	14609.62
476.74	14623.67
476.92	14642.39
477.10	14607.28
477.28	15049.64
477.46	15094.11
477.64	15115.18
477.82	15033.26
478.00	15566.90
478.18	15616.05
478.36	15744.78
478.54	15768.19
478.72	15770.53
478.90	16044.37
479.08	16196.51
479.26	16542.91
479.44	16079.48
479.62	16500.78
479.80	16664.61
479.98	16692.70
480.16	17008.67
480.34	16690.36
480.52	16716.11
480.70	17130.38
480.88	17006.33
481.06	17287.20
481.24	17378.48
481.41	17458.06
481.59	17853.61
481.77	18031.49
481.95	17874.67
482.13	18366.18
482.31	18094.68
482.49	18916.21
482.67	18593.22
482.85	18544.06
483.03	18871.74
483.21	19145.58
483.39	19309.42
483.57	19098.77
483.74	19161.97
483.92	19672.20
484.10	19744.76
484.28	19742.42
484.46	20521.82
484.64	20587.35
484.82	19878.17
485.00	20470.33
485.18	20994.61
485.35	21099.93
485.53	20826.09
485.71	21006.31
485.89	21305.90
486.07	21436.97
486.25	21649.96
486.43	22057.21
486.61	21605.49
486.78	22204.66
486.96	22148.49
487.14	22466.80
487.32	22668.09
487.50	22937.25
487.68	22955.97
487.85	23281.31
488.03	23442.81
488.21	23651.11
488.39	23875.80
488.57	23344.50
488.75	24023.26
488.92	24346.25
489.10	24650.52
489.28	24526.47
489.46	25017.99
489.64	24805.00
489.81	25310.55
489.99	25212.25
490.17	25235.66
490.35	25825.47
490.53	26108.68
490.70	25928.45
490.88	25860.58
491.06	25993.99
491.24	25886.32
491.41	26174.21
491.59	26855.31
491.77	26794.45
491.95	27058.93
492.13	27147.87
492.30	27225.11
492.48	27115.11
492.66	27505.98
492.84	27686.20
493.01	28011.53
493.19	28034.94
493.37	28339.21
493.54	28613.05
493.72	28596.67
493.90	28191.75
494.08	28814.34
494.25	29235.63
494.43	29619.48
494.61	29638.20
494.79	29474.37
494.96	29394.79
495.14	29942.47
495.32	29916.73
495.49	30167.16
495.67	30169.51
495.85	30520.59
496.02	30703.15
496.20	31112.74
496.38	30909.11
496.55	31178.28
496.73	31840.65
496.91	31218.07
497.09	31983.42
497.26	31594.89
497.44	31878.10
497.62	31913.20
497.79	32332.16
497.97	32154.28
498.14	32996.87
498.32	32823.67
498.50	33053.05
498.67	33305.82
498.85	32769.84
499.03	33432.21
499.20	33586.69
499.38	33270.72
499.56	33731.80
499.73	34242.04
499.91	33890.96
500.08	34235.02
500.26	34134.37
500.44	34426.94
500.61	34565.03
500.79	34487.79
500.97	34843.56
501.14	35185.27
501.32	34380.13
501.49	35239.11
501.67	35124.42
501.84	35702.53
502.02	35363.15
502.20	35779.77
502.37	35438.05
502.55	35651.04
502.72	35690.83
502.90	35864.03
503.07	36079.36
503.25	36367.24
503.43	36224.47
503.60	36715.98
503.78	36404.69
503.95	36561.51
504.13	36395.33
504.30	37102.17
504.48	36779.18
504.65	37301.12
504.83	37399.42
505.01	37460.27
505.18	37329.20
505.36	37748.16
505.53	37626.45
505.71	37933.06
505.88	38155.41
506.06	37556.24
506.23	38855.23
506.41	38192.86
506.58	38288.82
506.76	38436.28
506.93	38529.90
507.11	38583.73
507.28	38939.49
507.46	38934.81
507.63	39311.64
507.81	39519.95
507.98	38693.74
508.16	39126.74
508.33	39281.21
508.50	39821.87
508.68	40025.50
508.85	40093.38
509.03	39615.91
509.20	39695.49
509.38	40081.67
509.55	40252.53
509.73	40411.69
509.90	40404.67
510.08	40292.32
510.25	40835.33
510.42	40980.44
510.60	40832.99
510.77	40952.35
510.95	41474.29
511.12	41315.14
511.30	41532.81
511.47	41844.10
511.64	41446.21
511.82	41790.27
511.99	41656.85
512.17	41942.40
512.34	42096.88
512.51	42389.44
512.69	42361.36
512.86	42522.85
513.04	42562.64
513.21	42682.01
513.38	42487.74
513.56	42674.99
513.73	42436.25
513.90	42602.43
514.08	43000.32
514.25	43442.68
514.43	43412.26
514.60	43672.06
514.77	43103.31
514.95	43468.43
515.12	43189.91
515.29	43295.23
515.47	43751.63
515.64	44364.85
515.81	43779.72
515.99	44502.95
516.16	44257.19
516.33	44371.88
516.51	44512.31
516.68	44533.37
516.85	44505.29
517.03	44842.32
517.20	45081.06
517.37	44645.72
517.54	44463.16
517.72	44863.39
517.89	45228.51
518.06	45148.93
518.24	45003.82
518.41	44999.14
518.58	45581.93
518.75	44910.20
518.93	45612.36
519.10	45193.40
519.27	45338.52
519.45	45832.37
519.62	46045.36
519.79	46281.75
519.96	45949.40
520.14	46162.39
520.31	45586.61
520.48	46096.85
520.65	46085.15
520.83	46581.34
521.00	47007.32
521.17	46396.44
521.34	46726.46
521.52	46904.34
521.69	46752.20
521.86	47131.37
522.03	47122.01
522.20	47423.93
522.38	47531.60
522.55	47562.03
522.72	47391.17
522.89	47632.24
523.07	47737.57
523.24	47515.22
523.41	47980.98
523.58	47885.02
523.75	48406.96
523.92	47721.18
524.10	48044.18
524.27	48161.20
524.44	47995.03
524.61	48048.86
524.78	48563.78
524.96	48165.88
525.13	48505.26
525.30	48952.30
525.47	48774.42
525.64	49008.48
525.81	48893.79
525.98	48762.72
526.16	48875.07
526.33	49237.85
526.50	49343.17
526.67	49270.62
526.84	49397.01
527.01	49509.35
527.18	49315.09
527.36	49663.83
527.53	49317.43
527.70	49755.11
527.87	49825.32
528.04	49490.63
528.21	50129.59
528.38	50181.09
528.55	50167.04
528.72	50218.53
528.89	49830.01
529.07	50038.31
529.24	50028.95
529.41	50358.97
529.58	50522.80
529.75	50263.00
529.92	50541.53
530.09	50499.40
530.26	50529.83
530.43	50447.91
530.60	50211.51
530.77	50258.32
530.94	50333.22
531.11	50618.77
531.28	51068.15
531.46	50995.59
531.63	51030.70
531.80	50667.92
531.97	51051.76
532.14	50927.72
532.31	51030.70
532.48	51562.00
532.65	51538.60
532.82	51033.04
532.99	51650.94
533.16	51444.98
533.33	51346.67
533.50	51882.66
533.67	51571.36
533.84	51257.73
534.01	51559.66
534.18	51182.84
534.35	51831.16
534.52	52013.73
534.69	51852.23
534.86	51973.94
535.03	51337.31
535.20	51924.78
535.37	52236.08
535.54	52313.31
535.71	52004.36
535.88	52245.44
536.05	52048.83
536.22	52233.74
536.38	52430.34
536.55	52498.22
536.72	52535.66
536.89	52662.05
537.06	52750.99
537.23	53132.50
537.40	52659.71
537.57	52729.93
537.74	52451.41
537.91	53160.59
538.08	52947.60
538.25	52704.18
538.42	52861.00
538.59	52706.52
538.75	52664.39
538.92	53092.71
539.09	53102.07
539.26	53106.76
539.43	52907.81
539.60	53024.84
539.77	52898.45
539.94	53628.69
540.11	53584.22
540.28	53841.68
540.44	53326.77
540.61	53668.48
540.78	53514.01
540.95	53399.32
541.12	53474.22
541.29	53492.94
541.46	54049.99
541.62	53993.82
541.79	54019.56
541.96	53778.49
542.13	53609.97
542.30	53787.85
542.47	54277.02
542.63	53923.60
542.80	54424.48
542.97	54445.54
543.14	54595.34
543.31	54401.07
543.48	54443.20
543.64	54553.21
543.81	54415.11
543.98	54511.08
544.15	54607.04
544.32	54478.31
544.48	54864.50
544.65	54504.06
544.82	54735.77
544.99	54518.10
545.16	54691.30
545.32	54789.60
545.49	54906.63
545.66	55117.28
545.83	55208.56
546.00	55330.26
546.16	55267.07
546.33	55114.94
546.50	54969.82
546.67	54946.42
546.83	54890.24
547.00	54976.84
547.17	54871.52
547.34	55044.72
547.50	55227.28
547.67	55461.33
547.84	55611.13
548.00	55592.40
548.17	55620.49
548.34	55363.03
548.51	55337.29
548.67	55384.10
548.84	55384.10
549.01	55243.66
549.18	55229.62
549.34	55606.45
549.51	55346.65
549.68	55875.61
549.84	55533.89
550.01	55639.22
550.18	55341.97
550.34	55604.11
550.51	55744.54
550.68	55440.27
550.84	55501.12
551.01	55777.31
551.18	55945.83
551.34	55842.84
551.51	55674.32
551.68	55875.61
551.84	55739.86
552.01	55695.39
552.18	55866.25
552.34	55821.78
552.51	56032.42
552.68	56200.94
552.84	56140.09
553.01	56278.18
553.18	55915.40
553.34	56032.42
553.51	55653.26
553.67	56161.15
553.84	56425.64
554.01	56605.86
554.17	56545.00
554.34	56348.40
554.51	56472.45
554.67	56348.40
554.84	56112.00
555.00	56259.46
555.17	56170.52
555.33	56236.05
555.50	56456.06
555.67	56348.40
555.83	56322.65
556.00	56275.84
556.16	56750.97
556.33	56556.70
556.50	56416.27
556.66	56355.42
556.83	56189.24
556.99	56877.36
557.16	56774.37
557.32	56591.81
557.49	56746.29
557.65	56624.58
557.82	56662.03
557.98	56493.51
558.15	56692.46
558.32	56624.58
558.48	56795.44
558.65	56622.24
558.81	57106.73
558.98	56727.56
559.14	56865.66
559.31	56879.70
559.47	56832.89
559.64	57020.13
559.80	56825.87
559.97	57057.58
560.13	56629.26
560.30	57022.47
560.46	56912.47
560.63	56942.89
560.79	57080.98
560.96	57190.99
561.12	57139.50
561.29	57411.00
561.45	56994.39
561.61	57387.60
561.78	57181.63
561.94	57270.57
562.11	57689.52
562.27	57455.47
562.44	57528.03
562.60	57277.59
562.77	57350.15
562.93	56877.36
563.10	57565.48
563.26	57200.35
563.42	57399.30
563.59	57565.48
563.75	57298.65
563.92	57675.48
564.08	57401.64
564.24	57457.81
564.41	57319.72
564.57	57439.09
564.74	57169.93
564.90	57654.42
565.07	57701.23
565.23	57565.48
565.39	57570.16
565.56	57733.99
565.72	57616.97
565.88	57691.86
566.05	57609.95
566.21	57249.50
566.38	57474.20
566.54	57696.55
566.70	57633.35
566.87	57682.50
567.03	57567.82
567.19	57855.70
567.36	57567.82
567.52	57640.37
567.68	57591.22
567.85	57705.91
568.01	57710.59
568.17	57642.71
568.34	57654.42
568.50	57663.78
568.66	57694.21
568.83	57689.52
568.99	57567.82
569.15	57759.74
569.32	57937.62
569.48	57829.96
569.64	57668.46
569.81	57481.22
569.97	57450.79
570.13	57883.79
570.30	57673.14
570.46	57762.08
570.62	57848.68
570.78	57738.68
570.95	57614.63
571.11	57792.51
571.27	57579.52
571.43	57682.50
571.60	57783.15
571.76	57907.19
571.92	58092.10
572.09	57762.08
572.25	58108.48
572.41	58206.78
572.57	58141.25
572.74	58291.04
572.90	58061.67
573.06	58092.10
573.22	57886.13
573.38	57846.34
573.55	57958.69
573.71	58143.59
573.87	57930.60
574.03	57865.06
574.20	57813.57
574.36	58092.10
574.52	57722.29
574.68	58075.71
574.84	58087.42
575.01	58108.48
575.17	58106.14
575.33	57888.47
575.49	57872.09
575.65	58134.23
575.82	58321.47
575.98	58152.95
576.14	58284.02
576.30	58005.50
576.46	58089.76
576.62	57939.96
576.79	58169.33
576.95	57659.10
577.11	58038.26
577.27	58239.55
577.43	58108.48
577.59	58155.29
577.75	58246.57
577.92	58115.50
578.08	57748.04
578.24	57937.62
578.40	58131.89
578.56	58230.19
578.72	58162.31
578.88	58438.50
579.04	58342.53
579.21	58450.20
579.37	58145.93
579.53	58466.58
579.69	58061.67
579.85	58169.33
580.01	58450.20
580.17	58127.20
580.33	57954.00
580.49	58300.40
580.65	58478.28
580.82	58389.34
580.98	58497.01
581.14	58358.92
581.30	58529.78
581.46	58277.00
581.62	58335.51
581.78	58024.22
581.94	58204.44
582.10	58382.32
582.26	58340.19
582.42	58389.34
582.58	58429.13
582.74	58164.65
582.90	58501.69
583.06	58145.93
583.22	58389.34
583.38	58351.90
583.54	58078.05
583.70	58241.89
583.86	58347.21
584.02	58162.31
584.18	58590.63
584.34	58361.26
584.50	58482.97
584.66	58473.60
584.82	58159.97
584.98	58394.03
585.14	58365.94
585.30	58171.67
585.46	58623.40
585.62	58204.44
585.78	58534.46
585.94	58489.99
586.10	58628.08
586.26	58532.12
586.42	58667.87
586.58	58618.72
586.74	58534.46
586.90	58375.30
587.06	58277.00
587.22	58794.26
587.38	58536.80
587.54	58787.24
587.70	58782.55
587.86	58702.98
588.02	58677.23
588.18	58780.21
