SpectraSuite Data File
++++++++++++++++++++++++++++++++++++
Date: Thu Oct 24 13:21:07 EDT 2013
User: stostad
Dark Spectrum Present: No
Reference Spectrum Present: No
Number of Sampled Component Spectra: 1
Spectrometers: USB2+H05261
Integration Time (usec): 100000 (USB2+H05261)
Spectra Averaged: 1 (USB2+H05261)
Boxcar Smoothing: 0 (USB2+H05261)
Correct for Electrical Dark: No (USB2+H05261)
Strobe/Lamp Enabled: No (USB2+H05261)
Correct for Detector Non-linearity: No (USB2+H05261)
Correct for Stray Light: No (USB2+H05261)
Number of Pixels in Processed Spectrum: 2048
>>>>>Begin Processed Spectral Data<<<<<
365.73	571.09
365.92	571.09
366.12	571.09
366.32	451.72
366.52	393.21
366.72	430.66
366.91	489.17
367.11	456.40
367.31	479.81
367.51	414.27
367.70	468.11
367.90	416.62
368.10	465.77
368.30	395.55
368.49	447.04
368.69	505.56
368.89	463.43
369.09	444.70
369.28	505.56
369.48	507.90
369.68	493.85
369.87	477.47
370.07	472.79
370.27	514.92
370.47	629.60
370.66	706.84
370.86	662.37
371.06	781.74
371.25	688.12
371.45	695.14
371.65	812.17
371.84	720.88
372.04	734.93
372.24	734.93
372.44	765.36
372.63	816.85
372.83	793.44
373.03	692.80
373.22	772.38
373.42	791.10
373.62	741.95
373.81	814.51
374.01	835.57
374.21	828.55
374.40	856.64
374.60	788.76
374.79	737.27
374.99	840.25
375.19	812.17
375.38	800.46
375.58	866.00
375.78	791.10
375.97	856.64
376.17	947.92
376.37	802.80
376.56	802.80
376.76	809.83
376.95	777.06
377.15	800.46
377.35	774.72
377.54	784.08
377.74	788.76
377.93	866.00
378.13	781.74
378.33	854.30
378.52	901.11
378.72	905.79
378.91	847.27
379.11	863.66
379.31	837.91
379.50	777.06
379.70	851.96
379.89	791.10
380.09	809.83
380.28	791.10
380.48	805.14
380.68	807.48
380.87	851.96
381.07	887.06
381.26	929.19
381.46	931.53
381.65	889.40
381.85	966.64
382.04	847.27
382.24	880.04
382.43	858.98
382.63	875.36
382.83	891.74
383.02	898.77
383.22	884.72
383.41	861.32
383.61	945.58
383.80	840.25
384.00	840.25
384.19	915.15
384.39	903.45
384.58	826.21
384.78	866.00
384.97	849.61
385.17	898.77
385.36	922.17
385.56	917.49
385.75	861.32
385.95	896.43
386.14	983.02
386.34	922.17
386.53	880.04
386.72	854.30
386.92	931.53
387.11	884.72
387.31	971.32
387.50	936.21
387.70	959.62
387.89	898.77
388.09	952.60
388.28	917.49
388.48	931.53
388.67	938.55
388.86	1020.47
389.06	968.98
389.25	999.41
389.45	940.90
389.64	1001.75
389.84	1008.77
390.03	1022.81
390.22	1020.47
390.42	929.19
390.61	1018.13
390.81	961.96
391.00	983.02
391.19	1071.97
391.39	961.96
391.58	1004.09
391.78	1013.45
391.97	922.17
392.16	968.98
392.36	1048.56
392.55	1015.79
392.75	1022.81
392.94	990.05
393.13	1022.81
393.33	1067.28
393.52	1034.52
393.71	1097.71
393.91	1041.54
394.10	1093.03
394.29	1123.46
394.49	1060.26
394.68	1104.73
394.88	1071.97
395.07	1043.88
395.26	1107.07
395.46	1177.29
395.65	1107.07
395.84	1078.99
396.04	1090.69
396.23	1165.59
396.42	1095.37
396.62	1036.86
396.81	1111.75
397.00	1205.38
397.19	1193.67
397.39	1160.91
397.58	1139.84
397.77	1104.73
397.97	1083.67
398.16	1104.73
398.35	1156.22
398.55	1156.22
398.74	1132.82
398.93	1158.57
399.12	1064.94
399.32	1186.65
399.51	1151.54
399.70	1165.59
399.90	1165.59
400.09	1196.01
400.28	1247.51
400.47	1256.87
400.67	1139.84
400.86	1144.52
401.05	1245.16
401.24	1191.33
401.44	1233.46
401.63	1181.97
401.82	1228.78
402.01	1233.46
402.21	1299.00
402.40	1259.21
402.59	1299.00
402.78	1315.38
402.97	1376.24
403.17	1301.34
403.36	1247.51
403.55	1397.30
403.74	1383.26
403.93	1390.28
404.13	1385.60
404.32	1376.24
404.51	1462.83
404.70	1448.79
404.89	1329.42
405.09	1404.32
405.28	1448.79
405.47	1385.60
405.66	1376.24
405.85	1481.56
406.05	1373.89
406.24	1394.96
406.43	1465.18
406.62	1479.22
406.81	1451.13
407.00	1507.30
407.20	1409.00
407.39	1507.30
407.58	1352.83
407.77	1437.09
407.96	1444.11
408.15	1460.49
408.34	1535.39
408.54	1469.86
408.73	1575.18
408.92	1430.07
409.11	1500.28
409.30	1544.75
409.49	1474.54
409.68	1614.97
409.87	1586.88
410.07	1612.63
410.26	1650.08
410.45	1577.52
410.64	1598.59
410.83	1643.06
411.02	1600.93
411.21	1654.76
411.40	1638.38
411.59	1682.85
411.78	1675.82
411.98	1668.80
412.17	1673.48
412.36	1722.63
412.55	1748.38
412.74	1755.40
412.93	1724.97
413.12	1781.15
413.31	1729.66
413.50	1717.95
413.69	1849.02
413.88	1762.42
414.07	1825.62
414.26	1715.61
414.45	1879.45
414.64	1919.24
414.83	1891.15
415.02	1853.70
415.22	1961.37
415.41	1837.32
415.60	1886.47
415.79	1933.28
415.98	1956.69
416.17	1963.71
416.36	1947.33
416.55	1968.39
416.74	2139.25
416.93	1947.33
417.12	2045.63
417.31	1994.14
417.50	2005.84
417.69	2036.27
417.88	2050.31
418.07	2038.61
418.26	2059.67
418.45	2080.74
418.64	2165.00
418.83	2120.53
419.02	2169.68
419.21	2148.61
419.39	2223.51
419.58	2076.06
419.77	2127.55
419.96	2141.59
420.15	2181.38
420.34	2303.09
420.53	2157.97
420.72	2207.13
420.91	2242.23
421.10	2195.42
421.29	2174.36
421.48	2167.34
421.67	2253.94
421.86	2312.45
422.05	2277.34
422.24	2183.72
422.43	2324.15
422.61	2228.19
422.80	2321.81
422.99	2347.56
423.18	2284.36
423.37	2326.49
423.56	2373.30
423.75	2338.20
423.94	2183.72
424.13	2172.02
424.32	2340.54
424.50	2335.85
424.69	2422.45
424.88	2328.83
425.07	2317.13
425.26	2228.19
425.45	2312.45
425.64	2272.66
425.83	2235.21
426.01	2363.94
426.20	2417.77
426.39	2487.99
426.58	2317.13
426.77	2352.24
426.96	2417.77
427.15	2349.90
427.33	2406.07
427.52	2321.81
427.71	2356.92
427.90	2377.98
428.09	2445.86
428.28	2495.01
428.46	2417.77
428.65	2413.09
428.84	2518.42
429.03	2572.25
429.22	2406.07
429.40	2377.98
429.59	2436.50
429.78	2485.65
429.97	2457.56
430.16	2478.63
430.34	2546.50
430.53	2651.83
430.72	2525.44
430.91	2551.18
431.10	2612.04
431.28	2628.42
431.47	2637.78
431.66	2637.78
431.85	2551.18
432.03	2651.83
432.22	2616.72
432.41	2668.21
432.60	2696.30
432.79	2635.44
432.97	2668.21
433.16	2621.40
433.35	2607.36
433.54	2616.72
433.72	2747.79
433.91	2736.09
434.10	2736.09
434.28	2686.94
434.47	2803.96
434.66	2789.92
434.85	2853.11
435.03	2918.65
435.22	3052.06
435.41	3265.05
435.59	3208.87
435.78	3101.21
435.97	3103.55
436.16	3012.27
436.34	2850.77
436.53	2843.75
436.72	2932.69
436.90	2846.09
437.09	2920.99
437.28	2782.90
437.46	3049.72
437.65	2848.43
437.84	2925.67
438.02	2993.55
438.21	2930.35
438.40	2998.23
438.58	3030.99
438.77	2855.45
438.96	3131.64
439.14	3131.64
439.33	3091.85
439.52	3042.70
439.70	2988.86
439.89	3089.51
440.08	3117.59
440.26	3143.34
440.45	3211.22
440.63	3166.74
440.82	3314.20
441.01	3155.04
441.19	3211.22
441.38	3337.60
441.57	3265.05
441.75	3283.77
441.94	3332.92
442.12	3283.77
442.31	3314.20
442.50	3346.97
442.68	3321.22
442.87	3384.41
443.05	3318.88
443.24	3447.61
443.43	3449.95
443.61	3433.57
443.80	3468.67
443.98	3419.52
444.17	3253.34
444.35	3407.82
444.54	3496.76
444.73	3435.91
444.91	3531.87
445.10	3480.38
445.28	3391.44
445.47	3487.40
445.65	3428.88
445.84	3478.04
446.02	3592.72
446.21	3618.47
446.39	3445.27
446.58	3489.74
446.77	3485.06
446.95	3463.99
447.14	3541.23
447.32	3569.32
447.51	3438.25
447.69	3529.53
447.88	3538.89
448.06	3569.32
448.25	3463.99
448.43	3473.36
448.62	3517.83
448.80	3566.98
448.99	3646.55
449.17	3627.83
449.36	3492.08
449.54	3559.95
449.73	3576.34
449.91	3721.45
450.10	3679.32
450.28	3707.41
450.46	3744.86
450.65	3686.34
450.83	3812.73
451.02	3744.86
451.20	3824.44
451.39	3808.05
451.57	3763.58
451.76	3756.56
451.94	3674.64
452.13	3772.94
452.31	3733.15
452.49	3777.62
452.68	3810.39
452.86	3824.44
453.05	3852.52
453.23	3889.97
453.42	3684.00
453.60	3824.44
453.78	3847.84
453.97	3889.97
454.15	3904.01
454.34	3786.99
454.52	3988.27
454.70	4079.55
454.89	3978.91
455.07	3962.53
455.26	3988.27
455.44	3946.14
455.62	3932.10
455.81	4086.58
455.99	4241.05
456.17	4156.79
456.36	4070.19
456.54	4011.68
456.73	4147.43
456.91	4095.94
457.09	4128.70
457.28	4135.73
457.46	4180.20
457.64	4177.86
457.83	4269.14
458.01	4224.67
458.19	4322.97
458.38	4128.70
458.56	4287.86
458.74	4318.29
458.93	4447.02
459.11	4250.41
459.29	4278.50
459.48	4428.29
459.66	4461.06
459.84	4269.14
460.03	4390.84
460.21	4491.49
460.39	4447.02
460.57	4432.97
460.76	4470.42
460.94	4585.11
461.12	4519.57
461.31	4507.87
461.49	4468.08
461.67	4559.36
461.85	4468.08
462.04	4514.89
462.22	4779.37
462.40	4606.17
462.59	4533.62
462.77	4622.56
462.95	4734.90
463.13	4528.94
463.32	4542.98
463.50	4559.36
463.68	4627.24
463.86	4802.78
464.05	4685.75
464.23	4709.16
464.41	4585.11
464.59	4507.87
464.78	4704.48
464.96	4772.35
465.14	4652.98
465.32	4720.86
465.50	4739.58
465.69	4791.08
465.87	4718.52
466.05	4809.80
466.23	4828.53
466.41	4826.18
466.60	4788.74
466.78	4734.90
466.96	4786.40
467.14	4744.27
467.32	4753.63
467.51	4964.28
467.69	4772.35
467.87	4908.10
468.05	5097.69
468.23	4865.97
468.41	4950.23
468.60	4975.98
468.78	5013.43
468.96	4889.38
469.14	4961.94
469.32	5008.75
469.50	4816.82
469.69	4933.85
469.87	5018.11
470.05	5160.88
470.23	5064.92
470.41	5181.95
470.59	5245.14
470.77	5085.98
470.95	5200.67
471.14	5226.42
471.32	5083.64
471.50	5224.08
471.68	5128.11
471.86	5247.48
472.04	5214.71
472.22	5392.59
472.40	5376.21
472.58	5341.10
472.77	5444.09
472.95	5392.59
473.13	5563.45
473.31	5493.24
473.49	5327.06
473.67	5282.59
473.85	5563.45
474.03	5490.90
474.21	5563.45
474.39	5680.48
474.57	5743.67
474.75	5675.80
474.93	5692.18
475.12	5736.65
475.30	5631.33
475.48	5788.14
475.66	5884.11
475.84	5692.18
476.02	5849.00
476.20	5755.38
476.38	6040.92
476.56	6073.69
476.74	6106.46
476.92	5933.26
477.10	6033.90
477.28	6036.24
477.46	6263.27
477.64	6150.93
477.82	6204.76
478.00	6370.94
478.18	6483.28
478.36	6389.66
478.54	6359.24
478.72	6445.84
478.90	6462.22
479.08	6471.58
479.26	6656.48
479.44	6614.35
479.62	6558.18
479.80	6815.64
479.98	6633.08
480.16	6864.79
480.34	6747.76
480.52	6834.36
480.70	6988.84
480.88	6991.18
481.06	6892.88
481.24	6960.75
481.41	7241.62
481.59	7138.63
481.77	7267.36
481.95	7260.34
482.13	7253.32
482.31	7246.30
482.49	7356.30
482.67	7557.59
482.85	7686.32
483.03	7473.33
483.21	7581.00
483.39	7597.38
483.57	7730.79
483.74	7831.43
483.92	8011.65
484.10	7896.97
484.28	8070.17
484.46	7969.52
484.64	7976.55
484.82	8100.59
485.00	8124.00
485.18	8255.07
485.35	8360.39
485.53	8374.44
485.71	8308.90
485.89	8594.45
486.07	8697.43
486.25	8552.32
486.43	8557.00
486.61	8723.18
486.78	8564.02
486.96	9020.42
487.14	8800.41
487.32	8898.72
487.50	9025.11
487.68	9085.96
487.85	9121.07
488.03	9329.38
488.21	9420.66
488.39	9296.61
488.57	9406.61
488.75	9479.17
488.92	9502.58
489.10	9497.89
489.28	9568.11
489.46	9928.55
489.64	9802.16
489.81	9954.30
489.99	9930.89
490.17	9923.87
490.35	9982.38
490.53	10141.54
490.70	10174.31
490.88	10225.80
491.06	10099.41
491.24	10431.77
491.41	10473.90
491.59	10455.17
491.77	10476.24
491.95	10588.58
492.13	10649.44
492.30	10787.53
492.48	10904.56
492.66	10635.39
492.84	10743.06
493.01	10764.12
493.19	10892.85
493.37	10904.56
493.54	10995.84
493.72	11176.06
493.90	10871.79
494.08	11419.47
494.25	11279.04
494.43	11232.23
494.61	11255.64
494.79	11314.15
494.96	11440.54
495.14	11698.00
495.32	11730.76
495.49	11782.26
495.67	11595.01
495.85	11719.06
496.02	11882.90
496.20	11981.20
496.38	12135.68
496.55	12189.51
496.73	12138.02
496.91	12290.15
497.09	12205.89
497.26	12341.64
497.44	12393.14
497.62	12245.68
497.79	12500.80
497.97	12627.19
498.14	12657.62
498.32	12631.87
498.50	12341.64
498.67	12947.84
498.85	12613.15
499.03	12847.20
499.20	12556.97
499.38	12601.44
499.56	12842.52
499.73	13184.24
499.91	13050.83
500.08	13378.50
500.26	13186.58
500.44	13102.32
500.61	13376.16
500.79	13151.47
500.97	13341.05
501.14	13586.81
501.32	13401.91
501.49	13502.55
501.67	13476.80
501.84	13645.32
502.02	13387.86
502.20	13598.51
502.37	13444.04
502.55	13621.92
502.72	13624.26
502.90	13650.00
503.07	13748.31
503.25	13752.99
503.43	14026.83
503.60	14113.43
503.78	13832.57
503.95	13965.98
504.13	13994.06
504.30	14113.43
504.48	14085.34
504.65	14125.13
504.83	14476.21
505.01	14434.08
505.18	14382.59
505.36	14682.18
505.53	14387.27
505.71	14391.95
505.88	14583.88
506.06	14586.22
506.23	14504.30
506.41	14518.34
506.58	14707.93
506.76	14518.34
506.93	14867.08
507.11	14633.03
507.28	14822.61
507.46	15049.64
507.63	15115.18
507.81	14958.36
507.98	14726.65
508.16	14939.64
508.33	14951.34
508.50	15108.16
508.68	15660.52
508.85	15309.44
509.03	15449.88
509.20	15260.29
509.38	15360.94
509.55	15655.84
509.73	15438.17
509.90	15726.06
510.08	15583.29
510.25	15367.96
510.42	15742.44
510.60	15463.92
510.77	15407.75
510.95	15676.91
511.12	15969.48
511.30	15688.61
511.47	15969.48
511.64	15854.79
511.82	16105.23
511.99	15960.11
512.17	15899.26
512.34	16133.31
512.51	16098.20
512.69	16304.17
512.86	16549.93
513.04	16573.33
513.21	16187.14
513.38	16238.64
513.56	16418.86
513.73	16107.57
513.90	16404.81
514.08	16458.65
514.25	16823.77
514.43	16783.98
514.60	16793.34
514.77	16482.05
514.95	16641.21
515.12	16578.01
515.29	16554.61
515.47	16870.58
515.64	17050.80
515.81	17041.44
515.99	16627.17
516.16	17006.33
516.33	16732.49
516.51	17191.23
516.68	17167.83
516.85	17160.81
517.03	17324.65
517.20	17046.12
517.37	17156.13
517.54	17275.49
517.72	17247.41
517.89	17137.40
518.06	17345.71
518.24	17394.86
518.41	17472.10
518.58	17514.23
518.75	17202.94
518.93	17535.29
519.10	17411.25
519.27	17626.57
519.45	17502.53
519.62	17589.13
519.79	17874.67
519.96	17458.06
520.14	17451.03
520.31	17837.22
520.48	17816.16
520.65	17837.22
520.83	18094.68
521.00	18029.15
521.17	18167.24
521.34	17713.17
521.52	18097.02
521.69	17823.18
521.86	17872.33
522.03	18059.57
522.20	18040.85
522.38	18251.50
522.55	18412.99
522.72	18082.98
522.89	18153.20
523.07	18520.66
523.24	18092.34
523.41	18305.33
523.58	18235.11
523.75	18508.96
523.92	18293.63
524.10	18569.81
524.27	18471.51
524.44	18717.26
524.61	18497.25
524.78	18408.31
524.96	18874.08
525.13	18827.27
525.30	18934.93
525.47	18738.33
525.64	19147.92
525.81	19360.91
525.98	18963.02
526.16	19030.90
526.33	18740.67
526.50	19096.43
526.67	18764.07
526.84	18977.06
527.01	18909.19
527.18	19157.28
527.36	19007.49
527.53	19197.07
527.70	19262.61
527.87	19524.75
528.04	19410.06
528.21	19412.40
528.38	19452.19
528.55	19360.91
528.72	19323.46
528.89	19520.07
529.07	19351.55
529.24	19501.34
529.41	19726.04
529.58	19515.39
529.75	19651.14
529.92	19850.08
530.09	19594.96
530.26	19538.79
530.43	19744.76
530.60	19288.35
530.77	19971.79
530.94	19573.90
531.11	19913.28
531.28	19693.27
531.46	19777.53
531.63	20081.80
531.80	19665.18
531.97	19798.59
532.14	19702.63
532.31	19690.93
532.48	20123.93
532.65	20280.74
532.82	20372.02
532.99	19749.44
533.16	20294.79
533.33	20086.48
533.50	20187.12
533.67	20496.07
533.84	19964.77
534.01	20563.95
534.18	19990.52
534.35	20365.00
534.52	20311.17
534.69	20294.79
534.86	20318.19
535.03	20383.73
535.20	20240.95
535.37	20465.64
535.54	20648.21
535.71	20580.33
535.88	20854.17
536.05	20826.09
536.22	20606.08
536.38	20507.77
536.55	20437.56
536.72	20723.10
536.89	20695.02
537.06	20933.75
537.23	21003.97
537.40	20936.09
537.57	20767.57
537.74	20795.66
537.91	20798.00
538.08	20917.37
538.25	20840.13
538.42	20828.43
538.59	20973.54
538.75	21039.08
538.92	21139.72
539.09	21277.81
539.26	21104.61
539.43	21029.71
539.60	20936.09
539.77	21338.66
539.94	21472.07
540.11	21312.92
540.28	21261.43
540.44	21446.33
540.61	21553.99
540.78	21699.11
540.95	21453.35
541.12	21542.29
541.29	21666.34
541.46	21696.77
541.62	22036.14
541.79	21958.91
541.96	21785.71
542.13	22068.91
542.30	21869.97
542.47	21876.99
542.63	21944.86
542.80	22363.82
542.97	22532.34
543.14	22501.91
543.31	22113.38
543.48	22143.81
543.64	22317.01
543.81	22279.56
543.98	21989.33
544.15	22108.70
544.32	22487.87
544.48	22497.23
544.65	22597.87
544.82	22473.82
544.99	22174.24
545.16	22244.45
545.32	22480.85
545.49	22857.67
545.66	23234.50
545.83	23391.31
546.00	23428.76
546.16	22895.12
546.33	22803.84
546.50	22508.93
546.67	22396.59
546.83	22602.55
547.00	22263.18
547.17	22466.80
547.34	22218.71
547.50	22637.66
547.67	22637.66
547.84	22494.89
548.00	22911.50
548.17	22878.74
548.34	22609.58
548.51	22815.54
548.67	22656.39
548.84	22696.17
549.01	22492.55
549.18	22345.09
549.34	22808.52
549.51	22623.62
549.68	22757.03
549.84	22806.18
550.01	22677.45
550.18	22658.73
550.34	22752.35
550.51	22771.07
550.68	22984.06
550.84	22860.01
551.01	23065.98
551.18	22555.74
551.34	22487.87
551.51	22850.65
551.68	22794.48
551.84	22537.02
552.01	22810.86
552.18	23061.30
552.34	22981.72
552.51	23070.66
552.68	22899.80
552.84	22890.44
553.01	23035.55
553.18	23173.64
553.34	23101.09
553.51	22855.33
553.67	22553.40
553.84	23374.93
554.01	23311.74
554.17	23197.05
554.34	23157.26
554.51	23112.79
554.67	23515.36
554.84	23412.38
555.00	23227.48
555.17	22759.37
555.33	23377.27
555.50	23112.79
555.67	23044.91
555.83	23124.49
556.00	23419.40
556.16	23651.11
556.33	23108.11
556.50	22960.66
556.66	23365.57
556.83	22867.03
556.99	23484.94
557.16	23274.29
557.32	23786.86
557.49	23285.99
557.65	23365.57
557.82	23229.82
557.98	23295.35
558.15	23442.81
558.32	23517.70
558.48	23290.67
558.65	23489.62
558.81	23222.80
558.98	23510.68
559.14	23309.40
559.31	23370.25
559.47	23501.32
559.64	23260.24
559.80	23674.52
559.97	23440.47
560.13	23403.02
560.30	23281.31
560.46	23522.38
560.63	23583.24
560.79	23648.77
560.96	23828.99
561.12	23641.75
561.29	23648.77
561.45	23765.80
561.61	23814.95
561.78	23335.14
561.94	23608.98
562.11	23831.33
562.27	23943.68
562.44	24032.62
562.60	23506.00
562.77	23616.01
562.93	23871.12
563.10	23770.48
563.26	23608.98
563.42	23847.72
563.59	23714.31
563.75	24004.53
563.92	24044.32
564.08	24102.84
564.24	23943.68
564.41	23559.83
564.57	24006.87
564.74	23920.28
564.90	24002.19
565.07	23889.85
565.23	23826.65
565.39	23901.55
565.56	24301.78
565.72	23903.89
565.88	23821.97
566.05	23859.42
566.21	24027.94
566.38	23929.64
566.54	23716.65
566.70	24072.41
566.87	23805.59
567.03	24081.77
567.19	24350.93
567.36	24266.67
567.52	23985.81
567.68	23707.29
567.85	23700.26
568.01	23962.40
568.17	23889.85
568.34	24041.98
568.50	24198.80
568.66	23772.82
568.83	24166.03
568.99	24072.41
569.15	23913.25
569.32	23796.23
569.48	23871.12
569.64	24013.90
569.81	24245.61
569.97	23616.01
570.13	23847.72
570.30	23955.38
570.46	24224.54
570.62	23936.66
570.78	23864.10
570.95	24046.66
571.11	23702.61
571.27	24056.03
571.43	23957.72
571.60	23924.96
571.76	23847.72
571.92	24498.39
572.09	24025.60
572.25	24074.75
572.41	24320.51
572.57	24458.60
572.74	24329.87
572.90	23957.72
573.06	24121.56
573.22	24126.24
573.38	24159.01
573.55	24236.25
573.71	24456.26
573.87	24386.04
574.03	24151.99
574.20	23875.80
574.36	24276.04
574.52	24210.50
574.68	24264.33
574.84	24266.67
575.01	24121.56
575.17	24854.15
575.33	24095.82
575.49	24184.76
575.65	24095.82
575.82	24503.07
575.98	24144.97
576.14	24432.85
576.30	24161.35
576.46	24121.56
576.62	24519.45
576.79	24290.08
576.95	24182.42
577.11	24425.83
577.27	24568.60
577.43	24423.49
577.59	24250.29
577.75	24093.47
577.92	24243.27
578.08	24049.00
578.24	24486.68
578.40	24257.31
578.56	24765.21
578.72	24694.99
578.88	24879.89
579.04	24451.58
579.21	24343.91
579.37	24566.26
579.53	24212.84
579.69	24346.25
579.85	24685.63
580.01	24414.13
580.17	24418.81
580.33	24589.67
580.49	24271.36
580.65	24601.37
580.82	24341.57
580.98	24271.36
581.14	24421.15
581.30	24446.90
581.46	23941.34
581.62	24575.62
581.78	24013.90
581.94	24362.64
582.10	24189.44
582.26	24402.43
582.42	24184.76
582.58	24353.27
582.74	24346.25
582.90	24769.89
583.06	24521.79
583.22	24250.29
583.38	24451.58
583.54	24540.52
583.70	24563.92
583.86	24446.90
584.02	24304.12
584.18	24709.04
584.34	24732.44
584.50	24486.68
584.66	24276.04
584.82	24397.74
584.98	24439.87
585.14	24343.91
585.30	24594.35
585.46	24554.56
585.62	24320.51
585.78	24521.79
585.94	24161.35
586.10	24257.31
586.26	24563.92
586.42	24411.79
586.58	24393.06
586.74	24734.78
586.90	24500.73
587.06	24711.38
587.22	24760.53
587.38	24774.57
587.54	24652.86
587.70	24999.26
587.86	24957.13
588.02	24386.04
588.18	24498.39
588.34	24952.45
588.49	24783.93
588.65	24711.38
588.81	24692.65
588.97	24528.81
589.13	24278.38
589.29	24372.00
589.45	24889.26
589.61	24561.58
589.77	24723.08
589.93	24575.62
590.08	24793.29
590.24	24566.26
590.40	24313.48
590.56	24748.82
590.72	24643.50
590.88	24519.45
