SpectraSuite Data File
++++++++++++++++++++++++++++++++++++
Date: Thu Oct 24 13:21:09 EDT 2013
User: stostad
Dark Spectrum Present: No
Reference Spectrum Present: No
Number of Sampled Component Spectra: 1
Spectrometers: USB2+H05261
Integration Time (usec): 100000 (USB2+H05261)
Spectra Averaged: 1 (USB2+H05261)
Boxcar Smoothing: 0 (USB2+H05261)
Correct for Electrical Dark: No (USB2+H05261)
Strobe/Lamp Enabled: No (USB2+H05261)
Correct for Detector Non-linearity: No (USB2+H05261)
Correct for Stray Light: No (USB2+H05261)
Number of Pixels in Processed Spectrum: 2048
>>>>>Begin Processed Spectral Data<<<<<
365.73	587.47
365.92	587.47
366.12	587.47
366.32	514.92
366.52	468.11
366.72	437.68
366.91	379.17
367.11	421.30
367.31	428.32
367.51	430.66
367.70	470.45
367.90	430.66
368.10	454.06
368.30	440.02
368.49	547.69
368.69	489.17
368.89	571.09
369.09	507.90
369.28	486.83
369.48	496.19
369.68	507.90
369.87	489.17
370.07	500.87
370.27	517.26
370.47	540.66
370.66	676.41
370.86	690.46
371.06	720.88
371.25	699.82
371.45	624.92
371.65	716.20
371.84	748.97
372.04	758.33
372.24	730.25
372.44	695.14
372.63	720.88
372.83	727.91
373.03	800.46
373.22	816.85
373.42	781.74
373.62	791.10
373.81	755.99
374.01	798.12
374.21	777.06
374.40	779.40
374.60	772.38
374.79	821.53
374.99	793.44
375.19	791.10
375.38	931.53
375.58	807.48
375.78	833.23
375.97	807.48
376.17	866.00
376.37	858.98
376.56	814.51
376.76	884.72
376.95	828.55
377.15	854.30
377.35	814.51
377.54	833.23
377.74	748.97
377.93	894.08
378.13	849.61
378.33	779.40
378.52	840.25
378.72	791.10
378.91	798.12
379.11	809.83
379.31	858.98
379.50	858.98
379.70	842.59
379.89	903.45
380.09	856.64
380.28	809.83
380.48	922.17
380.68	837.91
380.87	835.57
381.07	840.25
381.26	908.13
381.46	901.11
381.65	873.02
381.85	901.11
382.04	826.21
382.24	863.66
382.43	802.80
382.63	898.77
382.83	924.51
383.02	917.49
383.22	945.58
383.41	924.51
383.61	887.06
383.80	894.08
384.00	901.11
384.19	957.28
384.39	922.17
384.58	868.34
384.78	905.79
384.97	968.98
385.17	917.49
385.36	964.30
385.56	961.96
385.75	847.27
385.95	945.58
386.14	964.30
386.34	947.92
386.53	997.07
386.72	971.32
386.92	954.94
387.11	968.98
387.31	936.21
387.50	912.81
387.70	983.02
387.89	976.00
388.09	976.00
388.28	1025.15
388.48	976.00
388.67	954.94
388.86	954.94
389.06	990.05
389.25	945.58
389.45	1062.60
389.64	1022.81
389.84	1090.69
390.03	1032.18
390.22	1029.84
390.42	997.07
390.61	973.66
390.81	971.32
391.00	976.00
391.19	980.68
391.39	976.00
391.58	1043.88
391.78	1074.31
391.97	992.39
392.16	1069.62
392.36	1032.18
392.55	1032.18
392.75	1050.90
392.94	1083.67
393.13	1097.71
393.33	1055.58
393.52	1055.58
393.71	1074.31
393.91	1039.20
394.10	1041.54
394.29	1048.56
394.49	1032.18
394.68	1153.88
394.88	1060.26
395.07	1104.73
395.26	1132.82
395.46	1118.78
395.65	1083.67
395.84	1139.84
396.04	1186.65
396.23	1158.57
396.42	1104.73
396.62	1071.97
396.81	1184.31
397.00	1088.35
397.19	1132.82
397.39	1151.54
397.58	1174.95
397.77	1196.01
397.97	1149.20
398.16	1217.08
398.35	1123.46
398.55	1172.61
398.74	1231.12
398.93	1294.32
399.12	1259.21
399.32	1203.04
399.51	1224.10
399.70	1317.72
399.90	1210.06
400.09	1315.38
400.28	1308.36
400.47	1273.25
400.67	1352.83
400.86	1196.01
401.05	1289.64
401.24	1327.08
401.44	1294.32
401.63	1266.23
401.82	1348.15
402.01	1310.70
402.21	1345.81
402.40	1263.89
402.59	1308.36
402.78	1301.34
402.97	1329.42
403.17	1352.83
403.36	1296.66
403.55	1390.28
403.74	1341.13
403.93	1409.00
404.13	1465.18
404.32	1455.81
404.51	1376.24
404.70	1460.49
404.89	1462.83
405.09	1427.73
405.28	1507.30
405.47	1483.90
405.66	1453.47
405.85	1411.34
406.05	1444.11
406.24	1355.17
406.43	1537.73
406.62	1472.20
406.81	1497.94
407.00	1479.22
407.20	1446.45
407.39	1554.12
407.58	1540.07
407.77	1474.54
407.96	1596.25
408.15	1621.99
408.34	1577.52
408.54	1563.48
408.73	1607.95
408.92	1535.39
409.11	1687.53
409.30	1748.38
409.49	1584.54
409.68	1638.38
409.87	1554.12
410.07	1661.78
410.26	1706.25
410.45	1603.27
410.64	1666.46
410.83	1710.93
411.02	1729.66
411.21	1692.21
411.40	1654.76
411.59	1755.40
411.78	1790.51
411.98	1762.42
412.17	1804.55
412.36	1706.25
412.55	1776.47
412.74	1769.44
412.93	1898.17
413.12	1825.62
413.31	1877.11
413.50	1830.30
413.69	1881.79
413.88	1928.60
414.07	1849.02
414.26	1837.32
414.45	1952.01
414.64	1940.30
414.83	1973.07
415.02	1872.43
415.22	2045.63
415.41	2022.22
415.60	1975.41
415.79	2029.24
415.98	1989.46
416.17	2143.93
416.36	2038.61
416.55	2120.53
416.74	2111.16
416.93	2094.78
417.12	2115.84
417.31	2143.93
417.50	2127.55
417.69	2111.16
417.88	2003.50
418.07	2101.80
418.26	2064.35
418.45	2097.12
418.64	2207.13
418.83	2197.76
419.02	2204.78
419.21	2232.87
419.39	2326.49
419.58	2232.87
419.77	2150.95
419.96	2256.28
420.15	2228.19
420.34	2282.02
420.53	2202.44
420.72	2314.79
420.91	2277.34
421.10	2368.62
421.29	2349.90
421.48	2279.68
421.67	2345.22
421.86	2314.79
422.05	2340.54
422.24	2382.67
422.43	2399.05
422.61	2424.80
422.80	2452.88
422.99	2354.58
423.18	2328.83
423.37	2436.50
423.56	2478.63
423.75	2410.75
423.94	2387.35
424.13	2214.15
424.32	2333.51
424.50	2445.86
424.69	2464.58
424.88	2473.95
425.07	2342.88
425.26	2415.43
425.45	2392.03
425.64	2326.49
425.83	2279.68
426.01	2326.49
426.20	2431.82
426.39	2385.01
426.58	2445.86
426.77	2375.64
426.96	2373.30
427.15	2471.61
427.33	2436.50
427.52	2382.67
427.71	2389.69
427.90	2480.97
428.09	2459.90
428.28	2513.74
428.46	2567.57
428.65	2473.95
428.84	2595.65
429.03	2558.21
429.22	2518.42
429.40	2605.02
429.59	2567.57
429.78	2576.93
429.97	2476.29
430.16	2605.02
430.34	2635.44
430.53	2619.06
430.72	2595.65
430.91	2764.17
431.10	2752.47
431.28	2703.32
431.47	2663.53
431.66	2729.06
431.85	2588.63
432.03	2768.85
432.22	2841.41
432.41	2717.36
432.60	2747.79
432.79	2696.30
432.97	2794.60
433.16	2722.04
433.35	2822.69
433.54	2808.64
433.72	2878.86
433.91	2895.24
434.10	2897.58
434.28	2869.50
434.47	2810.98
434.66	2864.82
434.85	2944.39
435.03	3033.33
435.22	3190.15
435.41	3353.99
435.59	3276.75
435.78	3089.51
435.97	3129.30
436.16	3080.14
436.34	3056.74
436.53	2925.67
436.72	2935.03
436.90	3002.91
437.09	3173.77
437.28	2935.03
437.46	2981.84
437.65	3133.98
437.84	3021.63
438.02	3124.62
438.21	3049.72
438.40	2984.18
438.58	3087.17
438.77	3150.36
438.96	3082.49
439.14	3068.44
439.33	3262.71
439.52	3283.77
439.70	3258.03
439.89	3384.41
440.08	3150.36
440.26	3220.58
440.45	3222.92
440.63	3471.01
440.82	3323.56
441.01	3363.35
441.19	3361.01
441.38	3349.31
441.57	3449.95
441.75	3449.95
441.94	3480.38
442.12	3564.64
442.31	3536.55
442.50	3468.67
442.68	3480.38
442.87	3543.57
443.05	3463.99
443.24	3625.49
443.43	3606.77
443.61	3583.36
443.80	3618.47
443.98	3311.86
444.17	3442.93
444.35	3625.49
444.54	3653.58
444.73	3653.58
444.91	3569.32
445.10	3857.20
445.28	3595.06
445.47	3501.44
445.65	3566.98
445.84	3768.26
446.02	3700.39
446.21	3583.36
446.39	3712.09
446.58	3761.24
446.77	3585.70
446.95	3651.24
447.14	3574.00
447.32	3648.90
447.51	3674.64
447.69	3620.81
447.88	3655.92
448.06	3674.64
448.25	3763.58
448.43	3723.79
448.62	3684.00
448.80	3810.39
448.99	3768.26
449.17	3864.22
449.36	3726.13
449.54	3637.19
449.73	3988.27
449.91	3847.84
450.10	3854.86
450.28	3866.56
450.46	3875.93
450.65	3885.29
450.83	3880.61
451.02	3744.86
451.20	3920.40
451.39	3955.51
451.57	3871.25
451.76	3929.76
451.94	3796.35
452.13	4077.21
452.31	4177.86
452.49	4051.47
452.68	3950.82
452.86	3985.93
453.05	4007.00
453.23	3957.85
453.42	3920.40
453.60	4077.21
453.78	4107.64
453.97	4018.70
454.15	4042.11
454.34	3969.55
454.52	4131.05
454.70	4067.85
454.89	4112.32
455.07	4056.15
455.26	4081.89
455.44	4215.30
455.62	4241.05
455.81	4187.22
455.99	4142.75
456.17	4358.08
456.36	4308.93
456.54	4290.20
456.73	4341.69
456.91	4486.81
457.09	4379.14
457.28	4615.54
457.46	4386.16
457.64	4440.00
457.83	4447.02
458.01	4390.84
458.19	4643.62
458.38	4388.50
458.56	4440.00
458.74	4468.08
458.93	4430.63
459.11	4449.36
459.29	4440.00
459.48	4437.66
459.66	4414.25
459.84	4596.81
460.03	4594.47
460.21	4535.96
460.39	4552.34
460.57	4594.47
460.76	4638.94
460.94	4685.75
461.12	4706.82
461.31	4774.69
461.49	4634.26
461.67	4613.20
461.85	4603.83
462.04	4655.33
462.22	5036.83
462.40	4802.78
462.59	4744.27
462.77	4823.84
462.95	4718.52
463.13	4802.78
463.32	4849.59
463.50	4882.36
463.68	4891.72
463.86	5027.47
464.05	4844.91
464.23	4734.90
464.41	4823.84
464.59	4739.58
464.78	4868.31
464.96	4826.18
465.14	4748.95
465.32	4961.94
465.50	4947.89
465.69	4931.51
465.87	5046.20
466.05	5008.75
466.23	5074.28
466.41	4957.25
466.60	5055.56
466.78	4980.66
466.96	5060.24
467.14	5006.41
467.32	5111.73
467.51	5193.65
467.69	5022.79
467.87	5064.92
468.05	5186.63
468.23	5167.90
468.41	5167.90
468.60	5109.39
468.78	5200.67
468.96	5242.80
469.14	5268.55
469.32	5156.20
469.50	5130.45
469.69	5254.50
469.87	5273.23
470.05	5327.06
470.23	5423.02
470.41	5334.08
470.59	5467.49
470.77	5383.23
470.95	5317.70
471.14	5626.65
471.32	5277.91
471.50	5369.19
471.68	5479.19
471.86	5530.69
472.04	5631.33
472.22	5654.73
472.40	5530.69
472.58	5542.39
472.77	5612.60
472.95	5682.82
473.13	5748.36
473.31	5666.44
473.49	5486.22
473.67	5526.00
473.85	5764.74
474.03	5849.00
474.21	5977.73
474.39	6064.33
474.57	5837.30
474.75	5977.73
474.93	6040.92
475.12	6066.67
475.30	6071.35
475.48	5987.09
475.66	5970.71
475.84	5914.53
476.02	6193.06
476.20	6080.71
476.38	6279.66
476.56	6321.79
476.74	6321.79
476.92	6286.68
477.10	6197.74
477.28	6478.60
477.46	6420.09
477.64	6483.28
477.82	6494.99
478.00	6740.74
478.18	6593.29
478.36	6792.23
478.54	6729.04
478.72	6750.10
478.90	6839.05
479.08	6761.81
479.26	7040.33
479.44	7063.74
479.62	6965.43
479.80	7080.12
479.98	7073.10
480.16	7211.19
480.34	7030.97
480.52	7204.17
480.70	7297.79
480.88	7382.05
481.06	7260.34
481.24	7428.86
481.41	7283.75
481.59	7585.68
481.77	7597.38
481.95	7719.09
482.13	7735.47
482.31	7681.64
482.49	7831.43
482.67	7747.17
482.85	8025.70
483.03	7918.03
483.21	7995.27
483.39	8152.09
483.57	8229.32
483.74	8187.19
483.92	8315.92
484.10	8159.11
484.28	8358.05
484.46	8320.60
484.64	8528.91
484.82	8416.57
485.00	8388.48
485.18	8854.25
485.35	8784.03
485.53	8744.24
485.71	8840.20
485.89	9137.45
486.07	8924.46
486.25	8982.98
486.43	9184.26
486.61	9015.74
486.78	9151.49
486.96	9221.71
487.14	9488.53
487.32	9177.24
487.50	9493.21
487.68	9500.23
487.85	9685.14
488.03	9713.22
488.21	9858.34
488.39	9628.96
488.57	9764.72
488.75	9834.93
488.92	9870.04
489.10	10099.41
489.28	10057.28
489.46	10087.71
489.64	10256.23
489.81	10347.51
489.99	10417.72
490.17	10523.05
490.35	10686.89
490.53	10710.29
490.70	10611.99
490.88	10759.44
491.06	10829.66
491.24	10878.81
491.41	10876.47
491.59	10925.62
491.77	10956.05
491.95	11105.84
492.13	11171.38
492.30	11405.43
492.48	11208.83
492.66	11501.39
492.84	11213.51
493.01	11595.01
493.19	11377.34
493.37	11470.97
493.54	11485.01
493.72	11868.86
493.90	11798.64
494.08	11829.07
494.25	11786.94
494.43	12058.44
494.61	11875.88
494.79	11997.59
494.96	11920.35
495.14	12236.32
495.32	12231.64
495.49	12372.07
495.67	12306.54
495.85	12505.48
496.02	12458.67
496.20	12683.36
496.38	12507.82
496.55	12674.00
496.73	12912.74
496.91	12575.70
497.09	12915.08
497.26	12800.39
497.44	12950.18
497.62	13036.78
497.79	13277.86
497.97	13184.24
498.14	13242.75
498.32	13514.25
498.50	13158.49
498.67	13263.82
498.85	13446.38
499.03	13570.43
499.20	13486.17
499.38	13600.85
499.56	13568.09
499.73	13626.60
499.91	13858.31
500.08	13678.09
500.26	13650.00
500.44	13935.55
500.61	13844.27
500.79	13909.80
500.97	13935.55
501.14	14167.26
501.32	14347.48
501.49	14209.39
501.67	14307.69
501.84	14326.42
502.02	14272.59
502.20	14396.64
502.37	14476.21
502.55	14483.24
502.72	14281.95
502.90	14473.87
503.07	14544.09
503.25	14651.75
503.43	14490.26
503.60	14754.74
503.78	14747.72
503.95	14562.81
504.13	14824.95
504.30	14759.42
504.48	14941.98
504.65	15110.50
504.83	15442.85
505.01	15363.28
505.18	15379.66
505.36	15391.36
505.53	15157.31
505.71	15126.88
505.88	15332.85
506.06	15314.13
506.23	15379.66
506.41	15433.49
506.58	15648.82
506.76	15173.69
506.93	15599.67
507.11	15515.41
507.28	15592.65
507.46	15824.36
507.63	15777.55
507.81	16065.44
507.98	15660.52
508.16	15822.02
508.33	15697.97
508.50	16107.57
508.68	15999.90
508.85	16276.09
509.03	16325.24
509.20	15962.45
509.38	16159.06
509.55	16248.00
509.73	16458.65
509.90	16409.50
510.08	16444.60
510.25	16498.44
510.42	16596.74
510.60	16374.39
510.77	16575.67
510.95	16744.19
511.12	16570.99
511.30	16517.16
511.47	16744.19
511.64	16975.91
511.82	16919.73
511.99	16570.99
512.17	17050.80
512.34	17191.23
512.51	17160.81
512.69	17224.00
512.86	17083.57
513.04	17076.55
513.21	17163.15
513.38	17373.80
513.56	17011.01
513.73	17074.21
513.90	17397.20
514.08	17521.25
514.25	17427.63
514.43	17352.73
514.60	17348.05
514.77	17481.46
514.95	17558.70
515.12	17586.79
515.29	17642.96
515.47	17792.75
515.64	18045.53
515.81	17713.17
515.99	17965.95
516.16	18115.75
516.33	17778.71
516.51	18061.91
516.68	17996.38
516.85	18178.94
517.03	17940.21
517.20	18302.99
517.37	18090.00
517.54	18104.04
517.72	18143.83
517.89	18211.71
518.06	18480.87
518.24	18520.66
518.41	18202.35
518.58	18375.55
518.75	18284.26
518.93	18352.14
519.10	18310.01
519.27	18492.57
519.45	18434.06
519.62	18565.13
519.79	18899.83
519.96	18855.36
520.14	18590.88
520.31	18625.98
520.48	18548.75
520.65	18712.58
520.83	19173.67
521.00	19166.65
521.17	19035.58
521.34	18913.87
521.52	19307.08
521.69	19164.31
521.86	18984.09
522.03	19084.73
522.20	19283.67
522.38	19234.52
522.55	19293.04
522.72	19316.44
522.89	19346.87
523.07	19386.66
523.24	19257.93
523.41	19690.93
523.58	19594.96
523.75	19592.62
523.92	19704.97
524.10	19414.74
524.27	19880.51
524.44	19819.66
524.61	19578.58
524.78	19555.18
524.96	19571.56
525.13	19983.49
525.30	19932.00
525.47	20184.78
525.64	19917.96
525.81	19819.66
525.98	19887.53
526.16	20011.58
526.33	19847.74
526.50	20407.13
526.67	19873.49
526.84	20252.66
527.01	20046.69
527.18	20334.57
527.36	20453.94
527.53	20240.95
527.70	20144.99
527.87	20673.95
528.04	20311.17
528.21	20304.15
528.38	20343.94
528.55	20514.80
528.72	20470.33
528.89	20624.80
529.07	20475.01
529.24	20444.58
529.41	20702.04
529.58	20601.40
529.75	20641.18
529.92	20975.88
530.09	20858.85
530.26	20493.73
530.43	20666.93
530.60	20744.17
530.77	20802.68
530.94	20994.61
531.11	20814.38
531.28	21130.36
531.46	21010.99
531.63	20826.09
531.80	20922.05
531.97	21319.94
532.14	21214.62
532.31	21345.69
532.48	21322.28
532.65	21589.10
532.82	21479.10
532.99	21525.91
533.16	21200.57
533.33	21198.23
533.50	21345.69
533.67	21345.69
533.84	21268.45
534.01	21341.00
534.18	21692.08
534.35	21521.23
534.52	21303.56
534.69	21766.98
534.86	21455.69
535.03	21504.84
535.20	21621.87
535.37	21755.28
535.54	22118.06
535.71	21640.59
535.88	21748.26
536.05	21654.64
536.22	21888.69
536.38	21664.00
536.55	22097.00
536.72	22115.72
536.89	21628.89
537.06	21757.62
537.23	22010.40
537.40	21914.44
537.57	21811.45
537.74	21755.28
537.91	21982.31
538.08	22085.30
538.25	21891.03
538.42	21876.99
538.59	22593.19
538.75	21795.07
538.92	22342.75
539.09	22504.25
539.26	22218.71
539.43	22230.41
539.60	22567.45
539.77	22396.59
539.94	22623.62
540.11	22487.87
540.28	22787.46
540.44	22733.62
540.61	22635.32
540.78	22391.91
540.95	22520.63
541.12	23129.17
541.29	22836.61
541.46	23042.57
541.62	23213.43
541.79	23583.24
541.96	23023.85
542.13	23112.79
542.30	23351.52
542.47	22934.91
542.63	23356.21
542.80	23337.48
542.97	23419.40
543.14	23222.80
543.31	23424.08
543.48	23578.56
543.64	23639.41
543.81	23508.34
543.98	23669.84
544.15	23391.31
544.32	23356.21
544.48	23723.67
544.65	23288.33
544.82	23555.15
544.99	23435.78
545.16	23824.31
545.32	23735.37
545.49	24163.69
545.66	24538.18
545.83	24629.46
546.00	24601.37
546.16	24203.48
546.33	24264.33
546.50	23761.12
546.67	24144.97
546.83	23421.74
547.00	23786.86
547.17	23971.77
547.34	23641.75
547.50	23718.99
547.67	23910.91
547.84	24025.60
548.00	24102.84
548.17	24151.99
548.34	23843.04
548.51	24121.56
548.67	24135.60
548.84	24056.03
549.01	23819.63
549.18	24037.30
549.34	24159.01
549.51	24009.22
549.68	24100.50
549.84	23978.79
550.01	23803.25
550.18	23634.73
550.34	23880.49
550.51	23662.82
550.68	24198.80
550.84	23852.40
551.01	24159.01
551.18	23810.27
551.34	23744.73
551.51	23908.57
551.68	23819.63
551.84	24086.45
552.01	23990.49
552.18	23976.45
552.34	23899.21
552.51	24219.86
552.68	24240.93
552.84	24301.78
553.01	24287.74
553.18	24306.46
553.34	24355.61
553.51	23920.28
553.67	24350.93
553.84	24559.24
554.01	24397.74
554.17	24159.01
554.34	24320.51
554.51	24533.50
554.67	24652.86
554.84	24477.32
555.00	24240.93
555.17	23861.76
555.33	24627.12
555.50	24498.39
555.67	24287.74
555.83	24283.06
556.00	24397.74
556.16	24851.81
556.33	24451.58
556.50	24648.18
556.66	24685.63
556.83	24477.32
556.99	24561.58
557.16	24685.63
557.32	24830.74
557.49	24842.45
557.65	24641.16
557.82	24360.30
557.98	24526.47
558.15	24521.79
558.32	24851.81
558.48	24596.69
558.65	24987.56
558.81	25025.01
558.98	25015.65
559.14	24833.08
559.31	24936.07
559.47	24797.98
559.64	24648.18
559.80	24739.46
559.97	24875.21
560.13	24638.82
560.30	24765.21
560.46	24936.07
560.63	25135.01
560.79	24851.81
560.96	25170.12
561.12	25106.93
561.29	24968.84
561.45	24812.02
561.61	24980.54
561.78	24945.43
561.94	24882.24
562.11	25160.76
562.27	25050.75
562.44	25425.24
562.60	25132.67
562.77	24847.13
562.93	24772.23
563.10	25158.42
563.26	24835.42
563.42	25158.42
563.59	25238.00
563.75	24692.65
563.92	25238.00
564.08	24980.54
564.24	25345.66
564.41	25020.33
564.57	25034.37
564.74	25032.03
564.90	25163.10
565.07	25078.84
565.23	25165.44
565.39	25041.39
565.56	25626.53
565.72	25179.48
565.88	25521.20
566.05	25139.69
566.21	24978.20
566.38	25078.84
566.54	24959.47
566.70	25596.10
566.87	25446.30
567.03	25319.92
567.19	25186.50
567.36	25404.17
567.52	25415.88
567.68	25394.81
567.85	25589.08
568.01	25500.14
568.17	25146.72
568.34	25207.57
568.50	25186.50
568.66	25228.63
568.83	25663.97
568.99	25172.46
569.15	25486.09
569.32	25303.53
569.48	25256.72
569.64	25275.45
569.81	25233.32
569.97	25200.55
570.13	25291.83
570.30	25216.93
570.46	25472.05
570.62	25165.44
570.78	25235.66
570.95	25198.21
571.11	25532.90
571.27	25553.97
571.43	25549.29
571.60	25205.23
571.76	25427.58
571.92	25359.70
572.09	25502.48
572.25	25542.27
572.41	25626.53
572.57	25678.02
572.74	25722.49
572.90	25582.06
573.06	25366.73
573.22	25628.87
573.38	25717.81
573.55	25486.09
573.71	25675.68
573.87	25825.47
574.03	25472.05
574.20	25696.74
574.36	25429.92
574.52	25312.89
574.68	25598.44
574.84	25872.28
575.01	25759.94
575.17	25518.86
575.33	25727.17
575.49	25685.04
575.65	25549.29
575.82	25570.35
575.98	25507.16
576.14	26115.70
576.30	25694.40
576.46	25771.64
576.62	25619.50
576.79	25621.84
576.95	25511.84
577.11	25577.37
577.27	25891.01
577.43	25837.17
577.59	25867.60
577.75	25502.48
577.92	25593.76
578.08	25614.82
578.24	25593.76
578.40	25834.83
578.56	25862.92
578.72	26197.62
578.88	26202.30
579.04	26015.05
579.21	25879.30
579.37	25956.54
579.53	26003.35
579.69	25853.56
579.85	25837.17
580.01	25811.43
580.17	25855.90
580.33	25579.71
580.49	25935.48
580.65	25912.07
580.82	25919.09
580.98	25553.97
581.14	25727.17
581.30	26068.89
581.46	25692.06
581.62	25560.99
581.78	25645.25
581.94	25764.62
582.10	25584.40
582.26	25792.70
582.42	25886.32
582.58	25689.72
582.74	25788.02
582.90	26059.52
583.06	26001.01
583.22	25577.37
583.38	25783.34
583.54	26038.46
583.70	25525.88
583.86	25500.14
584.02	26054.84
584.18	25792.70
584.34	25685.04
584.50	25935.48
584.66	25647.59
584.82	26019.74
584.98	25582.06
585.14	26031.44
585.30	25720.15
585.46	25759.94
585.62	25593.76
585.78	26111.02
585.94	26066.55
586.10	26155.49
586.26	25972.92
586.42	25937.82
586.58	26078.25
586.74	25663.97
586.90	25736.53
587.06	25486.09
587.22	25970.58
587.38	26167.19
587.54	26118.04
587.70	26335.71
587.86	26099.31
588.02	26331.03
588.18	26457.42
588.34	25766.96
588.49	26071.23
588.65	25923.77
588.81	26001.01
588.97	26003.35
589.13	26057.18
589.29	25909.73
589.45	25933.14
589.61	25989.31
589.77	26174.21
589.93	25748.23
590.08	26363.79
590.24	26103.99
590.40	25865.26
590.56	26052.50
590.72	26136.76
