SpectraSuite Data File
++++++++++++++++++++++++++++++++++++
Date: Thu Oct 24 13:21:26 EDT 2013
User: stostad
Dark Spectrum Present: No
Reference Spectrum Present: No
Number of Sampled Component Spectra: 1
Spectrometers: USB2+H05261
Integration Time (usec): 100000 (USB2+H05261)
Spectra Averaged: 1 (USB2+H05261)
Boxcar Smoothing: 0 (USB2+H05261)
Correct for Electrical Dark: No (USB2+H05261)
Strobe/Lamp Enabled: No (USB2+H05261)
Correct for Detector Non-linearity: No (USB2+H05261)
Correct for Stray Light: No (USB2+H05261)
Number of Pixels in Processed Spectrum: 2048
>>>>>Begin Processed Spectral Data<<<<<
365.73	538.32
365.92	538.32
366.12	538.32
366.32	510.24
366.52	463.43
366.72	505.56
366.91	393.21
367.11	435.34
367.31	454.06
367.51	447.04
367.70	512.58
367.90	491.51
368.10	444.70
368.30	454.06
368.49	449.38
368.69	437.68
368.89	482.15
369.09	470.45
369.28	479.81
369.48	540.66
369.68	437.68
369.87	543.00
370.07	440.02
370.27	517.26
370.47	676.41
370.66	985.37
370.86	978.34
371.06	1013.45
371.25	1050.90
371.45	971.32
371.65	1018.13
371.84	971.32
372.04	1032.18
372.24	1032.18
372.44	1093.03
372.63	1069.62
372.83	1015.79
373.03	1071.97
373.22	1060.26
373.42	1149.20
373.62	1142.18
373.81	1104.73
374.01	1100.05
374.21	1128.14
374.40	1142.18
374.60	1219.42
374.79	1151.54
374.99	1188.99
375.19	1186.65
375.38	1184.31
375.58	1156.22
375.78	1198.35
375.97	1228.78
376.17	1235.80
376.37	1240.48
376.56	1203.04
376.76	1219.42
376.95	1156.22
377.15	1205.38
377.35	1252.19
377.54	1254.53
377.74	1221.76
377.93	1268.57
378.13	1261.55
378.33	1299.00
378.52	1345.81
378.72	1282.61
378.91	1352.83
379.11	1247.51
379.31	1270.91
379.50	1336.45
379.70	1306.02
379.89	1294.32
380.09	1289.64
380.28	1310.70
380.48	1373.89
380.68	1387.94
380.87	1289.64
381.07	1413.68
381.26	1317.72
381.46	1399.64
381.65	1263.89
381.85	1448.79
382.04	1416.02
382.24	1411.34
382.43	1465.18
382.63	1390.28
382.83	1455.81
383.02	1446.45
383.22	1425.39
383.41	1411.34
383.61	1483.90
383.80	1451.13
384.00	1469.86
384.19	1390.28
384.39	1549.43
384.58	1441.77
384.78	1481.56
384.97	1490.92
385.17	1453.47
385.36	1561.14
385.56	1488.58
385.75	1563.48
385.95	1551.78
386.14	1549.43
386.34	1568.16
386.53	1458.15
386.72	1540.07
386.92	1561.14
387.11	1643.06
387.31	1713.27
387.50	1523.69
387.70	1694.55
387.89	1629.01
388.09	1652.42
388.28	1643.06
388.48	1661.78
388.67	1671.14
388.86	1757.74
389.06	1633.69
389.25	1694.55
389.45	1797.53
389.64	1624.33
389.84	1778.81
390.03	1795.19
390.22	1753.06
390.42	1708.59
390.61	1727.32
390.81	1771.79
391.00	1792.85
391.19	1834.98
391.39	1788.17
391.58	1895.83
391.78	1788.17
391.97	1916.90
392.16	1809.23
392.36	1968.39
392.55	1921.58
392.75	1849.02
392.94	1996.48
393.13	1944.99
393.33	1926.26
393.52	1870.09
393.71	1937.96
393.91	1977.75
394.10	1963.71
394.29	2064.35
394.49	1966.05
394.68	1907.54
394.88	1898.17
395.07	1996.48
395.26	1984.77
395.46	1952.01
395.65	2157.97
395.84	2064.35
396.04	2087.76
396.23	2136.91
396.42	2094.78
396.62	2181.38
396.81	2080.74
397.00	2167.34
397.19	2104.14
397.39	2157.97
397.58	2108.82
397.77	2146.27
397.97	2223.51
398.16	2239.89
398.35	2314.79
398.55	2300.75
398.74	2333.51
398.93	2296.07
399.12	2307.77
399.32	2286.70
399.51	2333.51
399.70	2380.32
399.90	2221.17
400.09	2338.20
400.28	2438.84
400.47	2525.44
400.67	2420.11
400.86	2466.92
401.05	2431.82
401.24	2417.77
401.44	2431.82
401.63	2548.84
401.82	2504.37
402.01	2480.97
402.21	2490.33
402.40	2612.04
402.59	2490.33
402.78	2590.97
402.97	2637.78
403.17	2649.49
403.36	2576.93
403.55	2698.64
403.74	2722.04
403.93	2806.30
404.13	2792.26
404.32	2691.62
404.51	2787.58
404.70	2855.45
404.89	2747.79
405.09	2864.82
405.28	2768.85
405.47	2712.68
405.66	2778.22
405.85	2956.10
406.05	2977.16
406.24	3016.95
406.43	2949.08
406.62	3087.17
406.81	3019.29
407.00	2993.55
407.20	3042.70
407.39	3087.17
407.58	3096.53
407.77	3183.13
407.96	3094.19
408.15	3288.45
408.34	3094.19
408.54	3199.51
408.73	3150.36
408.92	3117.59
409.11	3129.30
409.30	3236.96
409.49	3222.92
409.68	3377.39
409.87	3372.71
410.07	3337.60
410.26	3398.46
410.45	3346.97
410.64	3435.91
410.83	3414.84
411.02	3433.57
411.21	3616.13
411.40	3463.99
411.59	3634.85
411.78	3562.30
411.98	3520.17
412.17	3651.24
412.36	3679.32
412.55	3688.68
412.74	3737.84
412.93	3777.62
413.12	3737.84
413.31	3960.19
413.50	3772.94
413.69	3789.33
413.88	3971.89
414.07	3997.64
414.26	3985.93
414.45	3948.48
414.64	4009.34
414.83	4016.36
415.02	4145.09
415.22	4154.45
415.41	4112.32
415.60	4252.75
415.79	4318.29
415.98	4257.43
416.17	4344.03
416.36	4369.78
416.55	4337.01
416.74	4362.76
416.93	4454.04
417.12	4337.01
417.31	4587.45
417.50	4538.30
417.69	4779.37
417.88	4662.35
418.07	4617.88
418.26	4606.17
418.45	4695.11
418.64	4854.27
418.83	4781.71
419.02	4828.53
419.21	4835.55
419.39	4854.27
419.58	4971.30
419.77	4709.16
419.96	4994.70
420.15	4961.94
420.34	4947.89
420.53	4877.68
420.72	5048.54
420.91	5245.14
421.10	5046.20
421.29	5158.54
421.48	4968.96
421.67	5151.52
421.86	5270.89
422.05	5109.39
422.24	5207.69
422.43	5174.92
422.61	5200.67
422.80	5231.10
422.99	5287.27
423.18	5270.89
423.37	5394.93
423.56	5387.91
423.75	5245.14
423.94	5294.29
424.13	4990.02
424.32	5039.17
424.50	5275.57
424.69	5406.64
424.88	5287.27
425.07	5390.25
425.26	5303.65
425.45	5371.53
425.64	5334.08
425.83	5240.46
426.01	5296.63
426.20	5371.53
426.39	5537.71
426.58	5380.89
426.77	5320.04
426.96	5432.38
427.15	5547.07
427.33	5619.63
427.52	5596.22
427.71	5720.27
427.90	5603.24
428.09	5607.92
428.28	5624.31
428.46	5724.95
428.65	5673.46
428.84	5856.02
429.03	5806.87
429.22	5710.91
429.40	5717.93
429.59	5921.56
429.78	5584.52
429.97	5577.50
430.16	5729.63
430.34	5877.09
430.53	6052.63
430.72	5930.92
430.91	5959.00
431.10	6012.84
431.28	6108.80
431.47	6141.57
431.66	6221.14
431.85	5989.43
432.03	6307.74
432.22	6331.15
432.41	6321.79
432.60	6249.23
432.79	6267.95
432.97	6291.36
433.16	6324.13
433.35	6263.27
433.54	6410.73
433.72	6504.35
433.91	6396.68
434.10	6471.58
434.28	6548.82
434.47	6422.43
434.66	6633.08
434.85	6736.06
435.03	6715.00
435.22	6705.63
435.41	7037.99
435.59	6890.54
435.78	6862.45
435.97	6832.02
436.16	6785.21
436.34	6916.28
436.53	6951.39
436.72	6817.98
436.90	6775.85
437.09	7068.42
437.28	6825.00
437.46	7016.93
437.65	6904.58
437.84	7054.37
438.02	7016.93
438.21	7119.91
438.40	6967.77
438.58	7232.26
438.77	7157.36
438.96	7250.98
439.14	7499.08
439.33	7522.48
439.52	7581.00
439.70	7571.63
439.89	7721.43
440.08	7566.95
440.26	7627.81
440.45	7775.26
440.63	7761.22
440.82	8070.17
441.01	7857.18
441.19	7882.92
441.38	8006.97
441.57	7920.37
441.75	8119.32
441.94	8264.43
442.12	8308.90
442.31	8313.58
442.50	8376.78
442.68	8313.58
442.87	8336.99
443.05	8259.75
443.24	8528.91
443.43	8580.40
443.61	8425.93
443.80	8727.86
443.98	8367.42
444.17	8215.28
444.35	8538.27
444.54	8599.13
444.73	8454.02
444.91	8531.25
445.10	8755.94
445.28	8734.88
445.47	8652.96
445.65	8571.04
445.84	8741.90
446.02	8823.82
446.21	8709.13
446.39	8891.70
446.58	8753.60
446.77	8744.24
446.95	8535.93
447.14	8669.34
447.32	8718.50
447.51	8760.63
447.69	8741.90
447.88	8854.25
448.06	8985.32
448.25	8791.05
448.43	8854.25
448.62	8910.42
448.80	8772.33
448.99	9062.55
449.17	9188.94
449.36	8807.44
449.54	9025.11
449.73	9156.18
449.91	9338.74
450.10	9315.33
450.28	9455.76
450.46	9427.68
450.65	9432.36
450.83	9439.38
451.02	9263.84
451.20	9432.36
451.39	9434.70
451.57	9467.47
451.76	9205.33
451.94	9390.23
452.13	9671.09
452.31	9479.17
452.49	9338.74
452.68	9542.36
452.86	9650.03
453.05	9547.05
453.23	9935.57
453.42	9753.01
453.60	9668.75
453.78	9748.33
453.97	9846.63
454.15	9582.15
454.34	9743.65
454.52	9865.36
454.70	10033.88
454.89	10040.90
455.07	10193.03
455.26	10094.73
455.44	10223.46
455.62	10094.73
455.81	10134.52
455.99	10052.60
456.17	10312.40
456.36	10263.25
456.54	10539.43
456.73	10785.19
456.91	10635.39
457.09	10698.59
457.28	10808.59
457.46	10562.84
457.64	10546.45
457.83	10780.51
458.01	10820.30
458.19	11190.10
458.38	10721.99
458.56	10991.16
458.74	10930.30
458.93	10974.77
459.11	11082.44
459.29	11037.97
459.48	10972.43
459.66	10918.60
459.84	11052.01
460.03	11447.56
460.21	11166.70
460.39	11250.96
460.57	11162.01
460.76	11531.82
460.94	11426.50
461.12	11480.33
461.31	11632.46
461.49	11337.56
461.67	11475.65
461.85	11630.12
462.04	11698.00
462.22	12201.21
462.40	12042.06
462.59	11859.49
462.77	11805.66
462.95	12163.76
463.13	11740.13
463.32	11861.84
463.50	12056.10
463.68	11995.25
463.86	12161.42
464.05	11847.79
464.23	11960.14
464.41	12320.58
464.59	12058.44
464.78	12748.90
464.96	12156.74
465.14	11983.54
465.32	12329.94
465.50	12320.58
465.69	12507.82
465.87	12369.73
466.05	12243.34
466.23	12615.49
466.41	12306.54
466.60	12678.68
466.78	12374.41
466.96	12564.00
467.14	12676.34
467.32	12489.10
467.51	12765.28
467.69	12388.46
467.87	12681.02
468.05	12655.28
468.23	12510.16
468.41	12872.95
468.60	12568.68
468.78	12940.82
468.96	12809.75
469.14	13170.19
469.32	13355.10
469.50	12926.78
469.69	13076.57
469.87	13191.26
470.05	13369.14
470.23	13614.90
470.41	13373.82
470.59	13570.43
470.77	13439.36
470.95	13364.46
471.14	13785.76
471.32	13617.24
471.50	13781.07
471.68	13954.27
471.86	14024.49
472.04	13900.44
472.22	14370.89
472.40	13853.63
472.58	13781.07
472.77	14047.90
472.95	14143.86
473.13	14846.02
473.31	14094.71
473.49	14490.26
473.67	14464.51
473.85	14438.76
474.03	15110.50
474.21	14963.04
474.39	14932.62
474.57	14710.27
474.75	15234.55
474.93	15246.25
475.12	15131.56
475.30	15424.13
475.48	15281.36
475.66	15286.04
475.84	15274.34
476.02	15613.71
476.20	15644.14
476.38	15995.22
476.56	16381.41
476.74	16203.53
476.92	16215.23
477.10	16203.53
477.28	16493.76
477.46	16498.44
477.64	16599.08
477.82	16760.58
478.00	17191.23
478.18	16851.86
478.36	16922.07
478.54	17266.13
478.72	17444.01
478.90	17572.74
479.08	17603.17
479.26	17781.05
479.44	17891.06
479.62	17909.78
479.80	18216.39
479.98	18333.42
480.16	18743.01
480.34	18518.32
480.52	18956.00
480.70	18991.11
480.88	18628.32
481.06	19147.92
481.24	19115.16
481.41	19545.81
481.59	19590.28
481.77	19831.36
481.95	19822.00
482.13	20285.42
482.31	20189.46
482.49	20449.26
482.67	20526.50
482.85	20549.90
483.03	21118.65
483.21	21209.93
483.39	21165.46
483.57	20985.24
483.74	21158.44
483.92	21429.94
484.10	21694.43
484.28	21874.65
484.46	22192.96
484.64	22314.67
484.82	22192.96
485.00	22780.43
485.18	23087.04
485.35	23077.68
485.53	22930.23
485.71	23119.81
485.89	23894.53
486.07	23538.77
486.25	23550.47
486.43	23859.42
486.61	23983.47
486.78	24215.18
486.96	24521.79
487.14	24954.79
487.32	24762.87
487.50	24755.85
487.68	25113.95
487.85	25720.15
488.03	25942.50
488.21	26008.03
488.39	25748.23
488.57	25933.14
488.75	26345.07
488.92	26412.95
489.10	26881.05
489.28	26890.41
489.46	27669.81
489.64	27227.45
489.81	27215.75
489.99	27835.99
490.17	27878.12
490.35	28294.74
490.53	28634.11
490.70	28776.89
490.88	28390.70
491.06	29212.23
491.24	28683.27
491.41	29301.17
491.59	29392.45
491.77	29427.56
491.95	29895.66
492.13	29839.49
492.30	30085.25
492.48	29979.92
492.66	30277.17
492.84	30705.49
493.01	30705.49
493.19	30724.21
493.37	31295.30
493.54	31550.42
493.72	31386.58
493.90	31613.62
494.08	31625.32
494.25	32133.21
494.43	32121.51
494.61	32411.74
494.79	33015.60
494.96	32512.38
495.14	33153.69
495.32	33479.02
495.49	33170.07
495.67	33399.44
495.85	33715.42
496.02	33605.41
496.20	34209.27
496.38	34103.95
496.55	34239.70
496.73	34899.73
496.91	34745.25
497.09	35185.27
497.26	35325.71
497.44	34810.79
497.62	35257.83
497.79	35906.16
497.97	35660.40
498.14	36201.07
498.32	36329.80
498.50	36051.27
498.67	36194.04
498.85	36098.08
499.03	36926.63
499.20	36957.06
499.38	37254.31
499.56	37404.10
499.73	37305.80
499.91	37376.01
500.08	37607.73
500.26	37603.05
500.44	37951.79
500.61	38024.34
500.79	37724.75
500.97	38478.41
501.14	38349.68
501.32	38686.71
501.49	38478.41
501.67	39168.87
501.84	38689.06
502.02	39115.03
502.20	39466.11
502.37	39435.69
502.55	38895.02
502.72	39175.89
502.90	39566.76
503.07	39257.81
503.25	39856.98
503.43	39606.55
503.60	40027.84
503.78	40233.81
503.95	40189.34
504.13	40533.40
504.30	40507.65
504.48	40451.48
504.65	41001.50
504.83	41284.71
505.01	41282.37
505.18	41116.19
505.36	41172.36
505.53	41352.58
505.71	41619.41
505.88	41675.58
506.06	41918.99
506.23	41584.30
506.41	42043.04
506.58	41904.95
506.76	42277.10
506.93	42426.89
507.11	42192.84
507.28	42796.70
507.46	42497.11
507.63	43466.09
507.81	43096.28
507.98	43147.78
508.16	42782.65
508.33	43030.75
508.50	43215.65
508.68	43845.26
508.85	43779.72
509.03	43934.20
509.20	43859.30
509.38	44355.49
509.55	44116.76
509.73	44320.38
509.90	44460.82
510.08	44559.12
510.25	44765.09
510.42	44678.49
510.60	44734.66
510.77	45450.86
510.95	44961.69
511.12	45462.57
511.30	45184.04
511.47	45815.99
511.64	45170.00
511.82	45813.65
511.99	45502.35
512.17	45815.99
512.34	46110.89
512.51	46134.30
512.69	46464.32
512.86	46450.27
513.04	46878.59
513.21	46567.30
513.38	46209.20
513.56	46988.60
513.73	46562.62
513.90	47079.88
514.08	47126.69
514.25	47124.35
514.43	47395.85
514.60	47564.37
514.77	47770.33
514.95	47222.65
515.12	47447.34
515.29	47870.98
515.47	47688.42
515.64	48179.93
515.81	48016.09
515.99	48320.36
516.16	48353.13
516.33	48325.04
516.51	48823.58
516.68	48531.01
516.85	48512.28
517.03	48575.48
517.20	48868.05
517.37	48697.19
517.54	48559.09
517.72	48844.64
517.89	49083.37
518.06	49139.55
518.24	49090.40
518.41	49439.14
518.58	49141.89
518.75	48987.41
518.93	49626.38
519.10	49411.05
519.27	49607.65
519.45	49521.05
519.62	50211.51
519.79	49916.61
519.96	50113.21
520.14	50010.23
520.31	49577.23
520.48	50012.57
520.65	50199.81
520.83	50286.41
521.00	50721.75
521.17	50813.03
521.34	50483.01
521.52	50976.87
521.69	50525.14
521.86	50876.22
522.03	51004.95
522.20	51192.20
522.38	51271.78
522.55	51597.11
522.72	51416.89
522.89	51072.83
523.07	51664.99
523.24	51459.02
523.41	51751.59
523.58	51430.93
523.75	52044.15
523.92	51798.40
524.10	51950.53
524.27	51833.50
524.44	51751.59
524.61	51833.50
524.78	52142.45
524.96	52079.26
525.13	52474.81
525.30	52711.20
525.47	52720.57
525.64	52575.45
525.81	52463.11
525.98	52776.74
526.16	52257.14
526.33	52790.78
526.50	52720.57
526.67	52467.79
526.84	53109.10
527.01	53104.41
527.18	52846.96
527.36	53158.25
527.53	53350.17
527.70	53123.14
527.87	53476.56
528.04	53233.14
528.21	53563.16
528.38	53748.06
528.55	53677.85
528.72	53483.58
528.89	53506.99
529.07	53366.55
529.24	53483.58
529.41	53794.87
529.58	54019.56
529.75	53670.82
529.92	53631.04
530.09	53829.98
530.26	53773.81
530.43	54061.69
530.60	53792.53
530.77	53743.38
530.94	54260.64
531.11	54073.40
531.28	54382.35
531.46	54344.90
531.63	54094.46
531.80	54398.73
531.97	54342.56
532.14	54466.61
532.31	54375.33
532.48	54597.68
532.65	54770.88
532.82	54518.10
532.99	54813.01
533.16	54595.34
533.33	54562.57
533.50	54911.31
533.67	55274.09
533.84	54759.17
534.01	54890.24
534.18	54988.55
534.35	55351.33
534.52	54873.86
534.69	55084.51
534.86	55370.05
535.03	54995.57
535.20	55238.98
535.37	55370.05
535.54	55561.98
535.71	55288.13
535.88	55489.42
536.05	55435.59
536.22	55538.57
536.38	55674.32
536.55	55559.64
536.72	55697.73
536.89	55592.40
537.06	55952.85
537.23	55906.04
537.40	55503.46
537.57	55667.30
537.74	55863.91
537.91	55828.80
538.08	55751.56
538.25	55826.46
538.42	56051.15
538.59	56271.16
538.75	55969.23
538.92	56065.19
539.09	56236.05
539.26	55964.55
539.43	56104.98
539.60	56308.61
539.77	56435.00
539.94	56645.65
540.11	56615.22
540.28	56460.74
540.44	56608.20
540.61	56254.78
540.78	56481.81
540.95	56666.71
541.12	56179.88
541.29	56453.72
541.46	56802.46
541.62	57064.60
541.79	56757.99
541.96	56757.99
542.13	56694.80
542.30	56800.12
542.47	56970.98
542.63	56891.40
542.80	56856.29
542.97	57190.99
543.14	57373.55
543.31	57345.47
543.48	57588.88
543.64	57656.76
543.81	57488.24
543.98	57226.10
544.15	57436.75
544.32	57476.54
544.48	57944.64
544.65	57464.83
544.82	57797.19
544.99	57237.80
545.16	57443.77
545.32	57907.19
545.49	58000.82
545.66	57895.49
545.83	58073.37
546.00	58080.39
546.16	57904.85
546.33	57977.41
546.50	57724.63
546.67	57825.28
546.83	57586.54
547.00	58085.07
547.17	57415.68
547.34	57928.26
547.50	58164.65
547.67	58059.33
547.84	58396.37
548.00	58351.90
548.17	58241.89
548.34	58209.12
548.51	58272.32
548.67	58309.77
548.84	58092.10
549.01	58286.36
549.18	58220.83
549.34	58216.14
549.51	58450.20
549.68	58543.82
549.84	58262.96
550.01	58422.11
550.18	58403.39
550.34	58459.56
550.51	58351.90
550.68	58518.07
550.84	58372.96
551.01	58646.80
551.18	58511.05
551.34	58335.51
551.51	58372.96
551.68	58794.26
551.84	58766.17
552.01	58590.63
552.18	58801.28
552.34	58782.55
552.51	58866.81
552.68	58941.71
552.84	59058.74
553.01	58925.33
553.18	58752.13
553.34	58873.84
553.51	58628.08
553.67	58698.30
553.84	59133.63
554.01	59299.81
554.17	59002.56
554.34	59138.32
554.51	59082.14
554.67	59320.88
554.84	59150.02
555.00	58920.65
555.17	58920.65
555.33	59199.17
555.50	58995.54
555.67	58908.94
555.83	59119.59
556.00	59337.26
556.16	59311.52
556.33	59215.55
556.50	59166.40
556.66	59238.96
556.83	59063.42
556.99	59386.41
557.16	59423.86
557.32	59737.49
557.49	59643.87
557.65	59341.94
557.82	59639.19
557.98	59451.95
558.15	59295.13
558.32	59398.12
558.48	59433.22
558.65	59604.08
558.81	59753.88
558.98	59505.78
559.14	59627.49
559.31	59613.44
559.47	59519.82
559.64	59753.88
559.80	59648.55
559.97	59877.93
560.13	59437.90
560.30	59845.16
560.46	59924.74
560.63	59770.26
560.79	60058.15
560.96	60013.68
561.12	59870.90
561.29	59941.12
561.45	59891.97
561.61	59817.07
561.78	59767.92
561.94	60016.02
562.11	60121.34
562.27	60196.24
562.44	60205.60
562.60	60121.34
562.77	60011.34
562.93	59870.90
563.10	60364.76
563.26	59831.11
563.42	60126.02
563.59	60069.85
563.75	59903.67
563.92	60294.54
564.08	60163.47
564.24	59943.46
564.41	60111.98
564.57	59838.14
564.74	60006.65
564.90	60168.15
565.07	60271.14
565.23	60266.45
565.39	60278.16
565.56	60292.20
565.72	60238.37
565.88	60549.66
566.05	60121.34
566.21	60221.98
566.38	60177.51
566.54	59955.16
566.70	60343.69
566.87	60544.98
567.03	60502.85
567.19	60832.86
567.36	60584.77
567.52	60390.50
567.68	60437.31
567.85	60296.88
568.01	60315.61
568.17	60514.55
568.34	60381.14
568.50	60460.72
568.66	60362.42
568.83	60320.29
568.99	60247.73
569.15	60395.18
569.32	60343.69
569.48	60355.39
569.64	60439.65
569.81	60339.01
569.97	60275.82
570.13	60519.23
570.30	60549.66
570.46	60657.32
570.62	60554.34
570.78	60493.49
570.95	60404.55
571.11	60612.85
571.27	60463.06
571.43	60399.86
571.60	60449.02
571.76	60486.46
571.92	60561.36
572.09	60676.05
572.25	60893.72
572.41	60715.84
572.57	60687.75
572.74	60757.97
572.90	60587.11
573.06	60439.65
573.22	60556.68
573.38	60523.91
573.55	60821.16
573.71	60989.68
573.87	60732.22
574.03	60563.70
574.20	61020.11
574.36	60750.94
574.52	60608.17
574.68	60650.30
574.84	61090.32
575.01	60949.89
575.17	60753.29
575.33	60589.45
575.49	60732.22
575.65	60896.06
575.82	60804.78
575.98	60453.70
576.14	60989.68
576.30	60952.23
576.46	60713.50
576.62	60687.75
576.79	60889.04
576.95	60556.68
577.11	60816.48
577.27	61174.58
577.43	60889.04
577.59	60619.88
577.75	60980.32
577.92	60594.13
578.08	60842.23
578.24	60924.14
578.40	60956.91
578.56	60856.27
578.72	61003.72
578.88	61073.94
579.04	61134.79
579.21	61017.77
579.37	61212.03
579.53	61010.74
579.69	60736.90
579.85	61048.19
580.01	61097.34
580.17	60889.04
580.33	60882.02
580.49	60973.30
580.65	61193.31
580.82	61092.66
580.98	61230.75
581.14	61041.17
581.30	61291.61
581.46	61247.14
581.62	60725.20
581.78	60874.99
581.94	60921.80
582.10	61029.47
582.26	60989.68
582.42	61179.26
582.58	60865.63
582.74	60949.89
582.90	61020.11
583.06	60968.61
583.22	60889.04
583.38	60912.44
583.54	60863.29
583.70	60837.54
583.86	60996.70
584.02	61183.94
584.18	61286.93
584.34	61027.13
584.50	61111.39
584.66	61221.39
584.82	60774.35
584.98	61193.31
585.14	60973.30
585.30	60755.63
585.46	61092.66
585.62	60912.44
585.78	61228.41
585.94	61169.90
586.10	61165.22
586.26	61073.94
586.42	61214.37
586.58	61261.18
586.74	61038.83
586.90	60992.02
587.06	61010.74
587.22	61242.46
587.38	61153.52
587.54	61146.50
587.70	61394.59
587.86	61331.40
