SpectraSuite Data File
++++++++++++++++++++++++++++++++++++
Date: Thu Oct 24 13:21:21 EDT 2013
User: stostad
Dark Spectrum Present: No
Reference Spectrum Present: No
Number of Sampled Component Spectra: 1
Spectrometers: USB2+H05261
Integration Time (usec): 100000 (USB2+H05261)
Spectra Averaged: 1 (USB2+H05261)
Boxcar Smoothing: 0 (USB2+H05261)
Correct for Electrical Dark: No (USB2+H05261)
Strobe/Lamp Enabled: No (USB2+H05261)
Correct for Detector Non-linearity: No (USB2+H05261)
Correct for Stray Light: No (USB2+H05261)
Number of Pixels in Processed Spectrum: 2048
>>>>>Begin Processed Spectral Data<<<<<
365.73	582.79
365.92	582.79
366.12	582.79
366.32	507.90
366.52	484.49
366.72	458.74
366.91	402.57
367.11	531.30
367.31	411.93
367.51	409.59
367.70	472.79
367.90	409.59
368.10	449.38
368.30	510.24
368.49	442.36
368.69	528.96
368.89	486.83
369.09	575.77
369.28	564.07
369.48	477.47
369.68	528.96
369.87	440.02
370.07	547.69
370.27	543.00
370.47	655.35
370.66	894.08
370.86	964.30
371.06	903.45
371.25	945.58
371.45	973.66
371.65	903.45
371.84	990.05
372.04	908.13
372.24	966.64
372.44	971.32
372.63	1100.05
372.83	976.00
373.03	889.40
373.22	933.87
373.42	1029.84
373.62	994.73
373.81	1050.90
374.01	987.71
374.21	1011.11
374.40	1053.24
374.60	1123.46
374.79	1104.73
374.99	1034.52
375.19	1074.31
375.38	1008.77
375.58	1081.33
375.78	1158.57
375.97	1050.90
376.17	1114.10
376.37	1069.62
376.56	1125.80
376.76	1071.97
376.95	1050.90
377.15	1097.71
377.35	1008.77
377.54	1069.62
377.74	1130.48
377.93	1076.65
378.13	1114.10
378.33	1071.97
378.52	1067.28
378.72	1093.03
378.91	1261.55
379.11	1165.59
379.31	1149.20
379.50	1203.04
379.70	1041.54
379.89	1207.72
380.09	1109.41
380.28	1144.52
380.48	1184.31
380.68	1121.12
380.87	1196.01
381.07	1156.22
381.26	1235.80
381.46	1193.67
381.65	1163.25
381.85	1205.38
382.04	1252.19
382.24	1261.55
382.43	1219.42
382.63	1205.38
382.83	1268.57
383.02	1196.01
383.22	1238.14
383.41	1252.19
383.61	1259.21
383.80	1387.94
384.00	1369.21
384.19	1256.87
384.39	1291.98
384.58	1296.66
384.78	1303.68
384.97	1296.66
385.17	1294.32
385.36	1336.45
385.56	1331.76
385.75	1355.17
385.95	1310.70
386.14	1338.79
386.34	1287.29
386.53	1299.00
386.72	1406.66
386.92	1434.75
387.11	1390.28
387.31	1350.49
387.50	1385.60
387.70	1324.74
387.89	1446.45
388.09	1451.13
388.28	1486.24
388.48	1467.52
388.67	1521.35
388.86	1444.11
389.06	1444.11
389.25	1563.48
389.45	1500.28
389.64	1514.33
389.84	1514.33
390.03	1497.94
390.22	1495.60
390.42	1495.60
390.61	1462.83
390.81	1490.92
391.00	1446.45
391.19	1584.54
391.39	1516.67
391.58	1551.78
391.78	1565.82
391.97	1600.93
392.16	1621.99
392.36	1631.35
392.55	1612.63
392.75	1678.16
392.94	1558.80
393.13	1638.38
393.33	1624.33
393.52	1685.19
393.71	1720.29
393.91	1685.19
394.10	1703.91
394.29	1666.46
394.49	1682.85
394.68	1739.02
394.88	1600.93
395.07	1687.53
395.26	1694.55
395.46	1760.08
395.65	1739.02
395.84	1842.00
396.04	1844.34
396.23	1799.87
396.42	1928.60
396.62	1820.94
396.81	1832.64
397.00	1893.49
397.19	1767.10
397.39	1834.98
397.58	1902.86
397.77	1846.68
397.97	1865.41
398.16	1804.55
398.35	1853.70
398.55	1919.24
398.74	1912.22
398.93	2024.56
399.12	1944.99
399.32	1919.24
399.51	1968.39
399.70	1952.01
399.90	1858.39
400.09	1966.05
400.28	2120.53
400.47	2015.20
400.67	2122.87
400.86	2040.95
401.05	2076.06
401.24	2073.71
401.44	2062.01
401.63	2120.53
401.82	2148.61
402.01	2143.93
402.21	2174.36
402.40	2223.51
402.59	2150.95
402.78	2141.59
402.97	2239.89
403.17	2249.25
403.36	2225.85
403.55	2228.19
403.74	2307.77
403.93	2366.28
404.13	2260.96
404.32	2305.43
404.51	2307.77
404.70	2438.84
404.89	2429.48
405.09	2387.35
405.28	2434.16
405.47	2534.80
405.66	2476.29
405.85	2459.90
406.05	2394.37
406.24	2623.74
406.43	2478.63
406.62	2588.63
406.81	2623.74
407.00	2555.86
407.20	2485.65
407.39	2457.56
407.58	2509.05
407.77	2661.19
407.96	2684.59
408.15	2729.06
408.34	2700.98
408.54	2733.75
408.73	2750.13
408.92	2719.70
409.11	2752.47
409.30	2668.21
409.49	2874.18
409.68	2806.30
409.87	2909.29
410.07	2876.52
410.26	2834.39
410.45	2920.99
410.64	2808.64
410.83	2981.84
411.02	2892.90
411.21	2951.42
411.40	3089.51
411.59	3131.64
411.78	3047.38
411.98	3019.29
412.17	3091.85
412.36	3218.24
412.55	3215.90
412.74	3201.85
412.93	3162.06
413.12	3192.49
413.31	3339.94
413.50	3220.58
413.69	3323.56
413.88	3295.47
414.07	3302.50
414.26	3365.69
414.45	3248.66
414.64	3335.26
414.83	3393.78
415.02	3527.19
415.22	3555.27
415.41	3552.93
415.60	3557.61
415.79	3611.45
415.98	3726.13
416.17	3817.41
416.36	3674.64
416.55	3632.51
416.74	3775.28
416.93	3801.03
417.12	3740.18
417.31	3896.99
417.50	3875.93
417.69	3831.46
417.88	3864.22
418.07	3988.27
418.26	3880.61
418.45	3974.23
418.64	4081.89
418.83	4063.17
419.02	4007.00
419.21	4098.28
419.39	4131.05
419.58	3929.76
419.77	4086.58
419.96	4037.42
420.15	4156.79
420.34	4142.75
420.53	4224.67
420.72	4344.03
420.91	4308.93
421.10	4262.12
421.29	4325.31
421.48	4308.93
421.67	4374.46
421.86	4367.44
422.05	4468.08
422.24	4358.08
422.43	4402.55
422.61	4444.68
422.80	4512.55
422.99	4498.51
423.18	4484.47
423.37	4575.75
423.56	4496.17
423.75	4348.72
423.94	4421.27
424.13	4271.48
424.32	4344.03
424.50	4505.53
424.69	4676.39
424.88	4596.81
425.07	4498.51
425.26	4315.95
425.45	4475.10
425.64	4470.42
425.83	4421.27
426.01	4503.19
426.20	4613.20
426.39	4667.03
426.58	4706.82
426.77	4615.54
426.96	4542.98
427.15	4514.89
427.33	4674.05
427.52	4582.77
427.71	4657.67
427.90	4704.48
428.09	4772.35
428.28	4898.74
428.46	4814.48
428.65	4870.65
428.84	5093.01
429.03	4926.83
429.22	4816.82
429.40	4926.83
429.59	4856.61
429.78	4734.90
429.97	4786.40
430.16	5046.20
430.34	4994.70
430.53	5001.72
430.72	5083.64
430.91	5004.07
431.10	5015.77
431.28	5142.16
431.47	5256.84
431.66	5163.22
431.85	5100.03
432.03	5228.76
432.22	5359.83
432.41	5090.67
432.60	5434.72
432.79	5355.15
432.97	5320.04
433.16	5294.29
433.35	5224.08
433.54	5329.40
433.72	5537.71
433.91	5348.12
434.10	5460.47
434.28	5495.58
434.47	5467.49
434.66	5488.56
434.85	5596.22
435.03	5584.52
435.22	5631.33
435.41	6003.47
435.59	6045.60
435.78	5898.15
435.97	5792.83
436.16	5811.55
436.34	5802.19
436.53	5846.66
436.72	5956.66
436.90	5858.36
437.09	5675.80
437.28	5666.44
437.46	5715.59
437.65	5923.90
437.84	5975.39
438.02	6085.39
438.21	6019.86
438.40	5998.79
438.58	6249.23
438.77	6242.21
438.96	6015.18
439.14	6291.36
439.33	6289.02
439.52	6331.15
439.70	6342.85
439.89	6511.37
440.08	6541.80
440.26	6413.07
440.45	6384.98
440.63	6534.78
440.82	6607.33
441.01	6693.93
441.19	6817.98
441.38	6679.89
441.57	6750.10
441.75	6979.48
441.94	6902.24
442.12	6984.16
442.31	7105.87
442.50	6956.07
442.68	6951.39
442.87	7087.14
443.05	7136.29
443.24	7220.55
443.43	7197.15
443.61	7166.72
443.80	7424.18
443.98	6991.18
444.17	6855.43
444.35	7108.21
444.54	7482.69
444.73	7190.13
444.91	7204.17
445.10	7316.51
445.28	7140.97
445.47	7080.12
445.65	7220.55
445.84	7293.11
446.02	7410.14
446.21	7199.49
446.39	7206.51
446.58	7492.05
446.77	7428.86
446.95	7152.68
447.14	7398.43
447.32	7400.77
447.51	7349.28
447.69	7372.69
447.88	7461.63
448.06	7232.26
448.25	7527.16
448.43	7765.90
448.62	7459.29
448.80	7318.86
448.99	7632.49
449.17	7414.82
449.36	7599.72
449.54	7714.41
449.73	7854.84
449.91	7817.39
450.10	7623.12
450.28	7939.10
450.46	7922.71
450.65	7829.09
450.83	7747.17
451.02	7880.58
451.20	7943.78
451.39	7960.16
451.57	7815.05
451.76	7868.88
451.94	8114.64
452.13	8004.63
452.31	8156.77
452.49	7908.67
452.68	8182.51
452.86	8072.51
453.05	8138.04
453.23	8219.96
453.42	8212.94
453.60	8112.30
453.78	8400.18
453.97	8208.26
454.15	8177.83
454.34	8135.70
454.52	8428.27
454.70	8514.87
454.89	8283.16
455.07	8374.44
455.26	8503.17
455.44	8561.68
455.62	8320.60
455.81	8695.09
455.99	8608.49
456.17	8727.86
456.36	8526.57
456.54	8837.86
456.73	8746.58
456.91	8950.21
457.09	9025.11
457.28	9025.11
457.46	8847.22
457.64	8959.57
457.83	9020.42
458.01	9043.83
458.19	9217.03
458.38	9125.75
458.56	9387.89
458.74	9090.64
458.93	9177.24
459.11	9327.03
459.29	9142.13
459.48	9256.82
459.66	9434.70
459.84	9275.54
460.03	9289.59
460.21	9537.68
460.39	9507.26
460.57	9273.20
460.76	9432.36
460.94	9575.13
461.12	9549.39
461.31	9635.99
461.49	9586.83
461.67	9500.23
461.85	9736.63
462.04	9745.99
462.22	9865.36
462.40	9968.34
462.59	9968.34
462.77	9832.59
462.95	10012.81
463.13	9921.53
463.32	9998.77
463.50	9926.21
463.68	10136.86
463.86	10270.27
464.05	10019.83
464.23	9994.09
464.41	9877.06
464.59	9914.51
464.78	10310.06
464.96	10080.69
465.14	10064.30
465.32	10113.45
465.50	10108.77
465.69	10361.55
465.87	10452.83
466.05	10246.87
466.23	10478.58
466.41	10335.81
466.60	10689.23
466.78	10497.30
466.96	10452.83
467.14	10480.92
467.32	10501.98
467.51	10490.28
467.69	10399.00
467.87	10576.88
468.05	10651.78
468.23	10476.24
468.41	10551.14
468.60	10560.50
468.78	10920.94
468.96	10651.78
469.14	10881.15
469.32	10895.19
469.50	10799.23
469.69	10892.85
469.87	10904.56
470.05	11026.26
470.23	11204.14
470.41	11047.33
470.59	11435.86
470.77	11365.64
470.95	11262.66
471.14	11492.03
471.32	11353.94
471.50	11501.39
471.68	11531.82
471.86	11597.35
472.04	11826.73
472.22	12020.99
472.40	11534.16
472.58	11662.89
472.77	11833.75
472.95	11899.28
473.13	12116.95
473.31	11843.11
473.49	12060.78
473.67	11887.58
473.85	12252.70
474.03	12320.58
474.21	12664.64
474.39	12351.01
474.57	12318.24
474.75	12573.36
474.93	12512.50
475.12	12704.43
475.30	12905.71
475.48	12681.02
475.66	12882.31
475.84	12781.67
476.02	13004.02
476.20	12779.32
476.38	13188.92
476.56	13376.16
476.74	13472.12
476.92	13231.05
477.10	13338.71
477.28	13507.23
477.46	13642.98
477.64	13741.29
477.82	13839.59
478.00	14162.58
478.18	14132.15
478.36	14230.46
478.54	14492.60
478.72	14396.64
478.90	14745.38
479.08	14792.19
479.26	14782.82
479.44	15005.17
479.62	15044.96
479.80	14874.10
479.98	15466.26
480.16	15723.72
480.34	15358.60
480.52	15793.94
480.70	15786.91
480.88	15674.57
481.06	15733.08
481.24	15634.78
481.41	15887.56
481.59	16526.52
481.77	16308.85
481.95	16681.00
482.13	16390.77
482.31	16580.36
482.49	16980.59
482.67	16985.27
482.85	17135.06
483.03	17195.92
483.21	17525.93
483.39	17547.00
483.57	17692.11
483.74	17680.41
483.92	17715.51
484.10	17734.24
484.28	18118.09
484.46	18513.64
484.64	18621.30
484.82	18499.59
485.00	18679.82
485.18	19037.92
485.35	19314.10
485.53	19384.32
485.71	19309.42
485.89	19711.99
486.07	19262.61
486.25	19707.31
486.43	19854.76
486.61	19971.79
486.78	20264.36
486.96	20175.42
487.14	20699.70
487.32	20737.15
487.50	20933.75
487.68	20767.57
487.85	21198.23
488.03	21479.10
488.21	21586.76
488.39	21514.20
488.57	21696.77
488.75	21961.25
488.92	22043.17
489.10	22176.58
489.28	22852.99
489.46	22735.96
489.64	22485.53
489.81	23400.68
489.99	22944.27
490.17	23030.87
490.35	23583.24
490.53	23641.75
490.70	24002.19
490.88	23594.94
491.06	23974.11
491.24	23917.93
491.41	24137.94
491.59	24470.30
491.77	24327.53
491.95	24460.94
492.13	24634.14
492.30	24636.48
492.48	25324.60
492.66	25212.25
492.84	25167.78
493.01	25575.03
493.19	25745.89
493.37	25762.28
493.54	26001.01
493.72	26061.87
493.90	25965.90
494.08	26003.35
494.25	26490.18
494.43	26710.19
494.61	26672.74
494.79	26782.75
494.96	27166.60
495.14	27070.64
495.32	27311.71
495.49	27379.59
495.67	27489.59
495.85	27978.76
496.02	28093.45
496.20	28013.87
496.38	28226.86
496.55	28364.95
496.73	28947.75
496.91	29036.69
497.09	28877.53
497.26	29024.98
497.44	28512.41
497.62	28655.18
497.79	29469.69
497.97	29509.47
498.14	29692.04
498.32	30031.41
498.50	30249.08
498.67	30043.12
498.85	30057.16
499.03	30529.95
499.20	30417.60
499.38	30855.28
499.56	30569.74
499.73	30852.94
499.91	30806.13
500.08	31044.87
500.26	31026.14
500.44	31353.82
500.61	31442.76
500.79	31700.22
500.97	31798.52
501.14	31740.00
501.32	31505.95
501.49	32088.74
501.67	32301.73
501.84	32046.62
502.02	31964.70
502.20	32512.38
502.37	32470.25
502.55	32573.24
502.72	32390.67
502.90	32779.20
503.07	32652.81
503.25	33228.59
503.43	32982.83
503.60	33249.65
503.78	33652.22
503.95	33167.73
504.13	33427.53
504.30	33357.32
504.48	33724.78
504.65	33998.62
504.83	33930.75
505.01	34396.51
505.18	34242.04
505.36	34455.03
505.53	34338.00
505.71	34288.85
505.88	34878.66
506.06	34466.73
506.23	34976.97
506.41	34291.19
506.58	34747.59
506.76	34888.03
506.93	35246.13
507.11	35211.02
507.28	35959.99
507.46	35768.07
507.63	35454.44
507.81	35901.48
507.98	35159.53
508.16	36163.62
508.33	35978.72
508.50	36484.27
508.68	36058.29
508.85	36488.95
509.03	36353.20
509.20	36105.10
509.38	36788.54
509.55	36884.50
509.73	36910.25
509.90	37104.51
510.08	37060.04
510.25	37303.46
510.42	37324.52
510.60	37394.74
510.77	37560.92
510.95	37460.27
511.12	37818.38
511.30	37888.59
511.47	37893.27
511.64	37858.17
511.82	38450.32
511.99	37860.51
512.17	38459.68
512.34	38279.46
512.51	38770.97
512.69	38499.47
512.86	38555.64
513.04	39459.09
513.21	38843.53
513.38	39189.93
513.56	39304.62
513.73	39302.28
513.90	39416.96
514.08	39597.18
514.25	39707.19
514.43	40060.61
514.60	39636.97
514.77	39487.18
514.95	39812.51
515.12	39119.71
515.29	39739.96
515.47	40652.76
515.64	40617.66
515.81	40009.12
515.99	40123.80
516.16	40666.81
516.33	40388.28
516.51	40718.30
516.68	40587.23
516.85	40547.44
517.03	40802.56
517.20	41523.44
517.37	40727.66
517.54	41198.11
517.72	41029.59
517.89	40886.82
518.06	41181.73
518.24	41354.93
518.41	41345.56
518.58	41432.16
518.75	41111.51
518.93	41750.48
519.10	41848.78
519.27	41916.65
519.45	41642.81
519.62	42157.73
519.79	42822.44
519.96	42234.97
520.14	42373.06
520.31	41926.02
520.48	42347.31
520.65	42363.70
520.83	42777.97
521.00	42693.71
521.17	42569.66
521.34	43248.42
521.52	42993.30
521.69	43306.93
521.86	43222.67
522.03	43454.39
522.20	43536.30
522.38	43611.20
522.55	43555.03
522.72	43510.56
522.89	43358.42
523.07	44093.35
523.24	43590.14
523.41	43775.04
523.58	43599.50
523.75	44266.55
523.92	43952.92
524.10	44594.23
524.27	44526.35
524.44	44322.72
524.61	44512.31
524.78	44329.75
524.96	45233.19
525.13	45083.40
525.30	45010.84
525.47	45401.71
525.64	45188.72
525.81	45329.16
525.98	45050.63
526.16	44945.31
526.33	45064.67
526.50	45734.07
526.67	45352.56
526.84	45333.84
527.01	45558.53
527.18	45872.16
527.36	45488.31
527.53	45954.08
527.70	45961.10
527.87	45525.76
528.04	46103.87
528.21	46492.40
528.38	45975.14
528.55	46302.82
528.72	46003.23
528.89	46136.64
529.07	45860.46
529.24	46328.56
529.41	46363.67
529.58	46522.83
529.75	46382.40
529.92	46836.46
530.09	46380.06
530.26	46679.64
530.43	46571.98
530.60	46305.16
530.77	46560.28
530.94	47199.24
531.11	47320.95
531.28	47344.36
531.46	47365.42
531.63	47194.56
531.80	47255.42
531.97	47346.70
532.14	47234.35
532.31	47332.65
532.48	47693.10
532.65	47533.94
532.82	47246.05
532.99	47496.49
533.16	47697.78
533.33	47620.54
533.50	48058.22
533.67	47821.83
533.84	47838.21
534.01	47913.11
534.18	47803.10
534.35	48215.04
534.52	48184.61
534.69	48577.82
534.86	48282.91
535.03	47950.56
535.20	48243.12
535.37	48287.59
535.54	48854.00
535.71	48671.44
535.88	48715.91
536.05	48554.41
536.22	48891.45
536.38	48999.12
536.55	49045.93
536.72	49338.49
536.89	49020.18
537.06	48980.39
537.23	49483.61
537.40	49242.53
537.57	49315.09
537.74	49361.90
537.91	49523.40
538.08	49207.42
538.25	49106.78
538.42	49303.38
538.59	49598.29
538.75	49172.31
538.92	49333.81
539.09	49963.42
539.26	49940.01
539.43	49780.85
539.60	49607.65
539.77	49932.99
539.94	50087.46
540.11	49743.41
540.28	50401.10
540.44	50220.87
540.61	49698.94
540.78	49724.68
540.95	50241.94
541.12	50272.37
541.29	50230.24
541.46	50447.91
541.62	50871.54
541.79	50677.28
541.96	50466.63
542.13	50284.07
542.30	50754.52
542.47	50504.08
542.63	50291.09
542.80	50904.31
542.97	51487.10
543.14	51395.82
543.31	51021.34
543.48	51182.84
543.64	51613.49
543.81	50639.83
543.98	51391.14
544.15	51026.02
544.32	51576.04
544.48	51730.52
544.65	51353.69
544.82	51639.24
544.99	51468.38
545.16	51447.32
545.32	51545.62
545.49	51887.34
545.66	52175.22
545.83	52081.60
546.00	52383.53
546.16	52006.70
546.33	51707.12
546.50	51779.67
546.67	51875.63
546.83	51119.64
547.00	51784.35
547.17	51669.67
547.34	51707.12
547.50	52058.20
547.67	52313.31
547.84	52378.85
548.00	52580.13
548.17	52322.68
548.34	52336.72
548.51	52172.88
548.67	52617.58
548.84	52275.87
549.01	52212.67
549.18	52310.97
549.34	52224.37
549.51	52722.91
549.68	52505.24
549.84	52605.88
550.01	52566.09
550.18	52172.88
550.34	52268.84
550.51	52552.05
550.68	52617.58
550.84	52821.21
551.01	52715.89
551.18	52357.78
551.34	52608.22
551.51	52753.33
551.68	52676.10
551.84	52514.60
552.01	52449.06
552.18	52905.47
552.34	52755.68
552.51	53265.91
552.68	52889.09
552.84	53132.50
553.01	53073.99
553.18	52940.58
553.34	52985.05
553.51	52776.74
553.67	53153.57
553.84	53492.94
554.01	53593.59
554.17	53499.97
554.34	53209.74
554.51	53347.83
554.67	53308.04
554.84	53195.70
555.00	53179.31
555.17	52926.53
555.33	53282.30
555.50	53420.39
555.67	53588.91
555.83	53506.99
556.00	53743.38
556.16	53642.74
556.33	53446.13
556.50	53645.08
556.66	53518.69
556.83	53588.91
556.99	53925.94
557.16	53764.45
557.32	53858.07
557.49	53680.19
557.65	53869.77
557.82	54181.06
557.98	53806.58
558.15	53750.40
558.32	53855.73
558.48	53258.89
558.65	53818.28
558.81	54068.72
558.98	53799.55
559.14	54143.61
559.31	53937.65
559.47	53925.94
559.64	54253.62
559.80	54047.65
559.97	54234.89
560.13	53902.54
560.30	53972.75
560.46	54012.54
560.63	54225.53
560.79	54370.64
560.96	54384.69
561.12	54405.75
561.29	54443.20
561.45	54129.57
561.61	54277.02
561.78	54204.47
561.94	54518.10
562.11	54590.66
562.27	54733.43
562.44	54277.02
562.60	54602.36
562.77	54644.49
562.93	54092.12
563.10	54309.79
563.26	54052.33
563.42	54464.27
563.59	54471.29
563.75	54298.09
563.92	54780.24
564.08	54286.39
564.24	54576.61
564.41	54499.37
564.57	54370.64
564.74	54468.95
564.90	54532.14
565.07	54834.07
565.23	54593.00
565.39	54712.36
565.56	54658.53
565.72	54705.34
565.88	54724.07
566.05	54628.10
566.21	54766.20
566.38	54602.36
566.54	54653.85
566.70	54698.32
566.87	55110.25
567.03	54703.00
567.19	55192.17
567.36	55002.59
567.52	54948.76
567.68	54782.58
567.85	54911.31
568.01	54937.05
568.17	54782.58
568.34	54684.28
568.50	54838.75
568.66	54869.18
568.83	55159.41
568.99	54791.94
569.15	54892.58
569.32	55009.61
569.48	54499.37
569.64	54801.30
569.81	54962.80
569.97	54766.20
570.13	54782.58
570.30	54710.02
570.46	54805.98
570.62	55011.95
570.78	54616.40
570.95	54705.34
571.11	55257.71
571.27	54773.22
571.43	54908.97
571.60	54920.67
571.76	54941.74
571.92	55117.28
572.09	55206.22
572.25	55458.99
572.41	55222.60
572.57	55173.45
572.74	55430.91
572.90	55346.65
573.06	55374.73
573.22	55040.04
573.38	55021.31
573.55	55150.04
573.71	55423.89
573.87	55454.31
574.03	55119.62
574.20	55063.44
574.36	55217.92
574.52	55140.68
574.68	55063.44
574.84	55435.59
575.01	55412.18
575.17	55185.15
575.33	55089.19
575.49	55070.46
575.65	55423.89
575.82	55379.42
575.98	55086.85
576.14	55416.86
576.30	55356.01
576.46	55372.39
576.62	55063.44
576.79	55136.00
576.95	55203.88
577.11	55068.12
577.27	55309.20
577.43	55290.48
577.59	55473.04
577.75	55306.86
577.92	55058.76
578.08	55159.41
578.24	55079.83
578.40	55402.82
578.56	55430.91
578.72	55395.80
578.88	55529.21
579.04	55721.13
579.21	55505.80
579.37	55632.19
579.53	55592.40
579.69	55426.23
579.85	55480.06
580.01	55426.23
580.17	55456.65
580.33	55594.74
580.49	55341.97
580.65	55510.49
580.82	55561.98
580.98	55807.73
581.14	55229.62
581.30	55704.75
581.46	55238.98
581.62	55489.42
581.78	55253.03
581.94	55456.65
582.10	55292.82
582.26	55585.38
582.42	55393.46
582.58	55426.23
582.74	55559.64
582.90	55679.00
583.06	55430.91
583.22	55496.44
583.38	55613.47
583.54	55456.65
583.70	55334.95
583.86	55496.44
584.02	55454.31
584.18	55587.72
584.34	55505.80
584.50	55618.15
584.66	55641.56
584.82	55388.78
584.98	55491.76
585.14	55732.84
585.30	55557.30
585.46	55833.48
585.62	55526.87
585.78	55859.23
585.94	55580.70
586.10	55604.11
586.26	55674.32
586.42	55730.50
586.58	55817.10
586.74	55627.51
586.90	55627.51
587.06	55737.52
587.22	55964.55
587.38	55643.90
587.54	56121.37
587.70	56009.02
587.86	55856.88
588.02	56023.06
588.18	55842.84
588.34	55744.54
588.49	55732.84
