SpectraSuite Data File
++++++++++++++++++++++++++++++++++++
Date: Thu Oct 24 13:21:25 EDT 2013
User: stostad
Dark Spectrum Present: No
Reference Spectrum Present: No
Number of Sampled Component Spectra: 1
Spectrometers: USB2+H05261
Integration Time (usec): 100000 (USB2+H05261)
Spectra Averaged: 1 (USB2+H05261)
Boxcar Smoothing: 0 (USB2+H05261)
Correct for Electrical Dark: No (USB2+H05261)
Strobe/Lamp Enabled: No (USB2+H05261)
Correct for Detector Non-linearity: No (USB2+H05261)
Correct for Stray Light: No (USB2+H05261)
Number of Pixels in Processed Spectrum: 2048
>>>>>Begin Processed Spectral Data<<<<<
365.73	533.64
365.92	533.64
366.12	533.64
366.32	510.24
366.52	479.81
366.72	535.98
366.91	470.45
367.11	454.06
367.31	479.81
367.51	479.81
367.70	430.66
367.90	496.19
368.10	444.70
368.30	451.72
368.49	451.72
368.69	463.43
368.89	517.26
369.09	486.83
369.28	535.98
369.48	540.66
369.68	498.53
369.87	566.41
370.07	491.51
370.27	603.86
370.47	657.69
370.66	905.79
370.86	926.85
371.06	987.71
371.25	1008.77
371.45	978.34
371.65	947.92
371.84	1069.62
372.04	1013.45
372.24	1043.88
372.44	1048.56
372.63	1011.11
372.83	1102.39
373.03	1093.03
373.22	1032.18
373.42	1078.99
373.62	1156.22
373.81	1118.78
374.01	1139.84
374.21	1210.06
374.40	1111.75
374.60	1172.61
374.79	1118.78
374.99	1107.07
375.19	1121.12
375.38	1132.82
375.58	1067.28
375.78	1156.22
375.97	1221.76
376.17	1165.59
376.37	1196.01
376.56	1207.72
376.76	1235.80
376.95	1177.29
377.15	1186.65
377.35	1214.74
377.54	1165.59
377.74	1231.12
377.93	1247.51
378.13	1132.82
378.33	1221.76
378.52	1259.21
378.72	1282.61
378.91	1310.70
379.11	1193.67
379.31	1261.55
379.50	1306.02
379.70	1259.21
379.89	1287.29
380.09	1336.45
380.28	1291.98
380.48	1313.04
380.68	1252.19
380.87	1406.66
381.07	1308.36
381.26	1291.98
381.46	1357.51
381.65	1359.85
381.85	1352.83
382.04	1373.89
382.24	1364.53
382.43	1406.66
382.63	1341.13
382.83	1357.51
383.02	1413.68
383.22	1348.15
383.41	1380.92
383.61	1416.02
383.80	1446.45
384.00	1434.75
384.19	1458.15
384.39	1399.64
384.58	1406.66
384.78	1362.19
384.97	1423.05
385.17	1413.68
385.36	1397.30
385.56	1474.54
385.75	1511.99
385.95	1481.56
386.14	1472.20
386.34	1453.47
386.53	1432.41
386.72	1458.15
386.92	1469.86
387.11	1584.54
387.31	1544.75
387.50	1563.48
387.70	1483.90
387.89	1582.20
388.09	1563.48
388.28	1523.69
388.48	1533.05
388.67	1593.90
388.86	1633.69
389.06	1727.32
389.25	1748.38
389.45	1636.03
389.64	1657.10
389.84	1671.14
390.03	1671.14
390.22	1673.48
390.42	1657.10
390.61	1610.29
390.81	1650.08
391.00	1720.29
391.19	1703.91
391.39	1724.97
391.58	1781.15
391.78	1713.27
391.97	1750.72
392.16	1671.14
392.36	1809.23
392.55	1790.51
392.75	1837.32
392.94	1755.40
393.13	1827.96
393.33	1802.21
393.52	1797.53
393.71	1804.55
393.91	1832.64
394.10	1842.00
394.29	1949.67
394.49	1837.32
394.68	1863.07
394.88	1785.83
395.07	1942.64
395.26	1947.33
395.46	1849.02
395.65	2010.52
395.84	2003.50
396.04	2031.58
396.23	2047.97
396.42	2001.16
396.62	2087.76
396.81	2076.06
397.00	1884.13
397.19	2038.61
397.39	2036.27
397.58	2118.18
397.77	2090.10
397.97	2162.66
398.16	2136.91
398.35	2071.37
398.55	2073.71
398.74	2160.31
398.93	2157.97
399.12	2106.48
399.32	2069.03
399.51	2160.31
399.70	2218.83
399.90	2200.10
400.09	2256.28
400.28	2345.22
400.47	2310.11
400.67	2326.49
400.86	2251.60
401.05	2420.11
401.24	2310.11
401.44	2314.79
401.63	2359.26
401.82	2427.14
402.01	2427.14
402.21	2443.52
402.40	2420.11
402.59	2366.28
402.78	2417.77
402.97	2471.61
403.17	2431.82
403.36	2523.10
403.55	2605.02
403.74	2619.06
403.93	2525.44
404.13	2670.55
404.32	2736.09
404.51	2583.95
404.70	2682.25
404.89	2665.87
405.09	2712.68
405.28	2787.58
405.47	2796.94
405.66	2766.51
405.85	2750.13
406.05	2839.07
406.24	2836.73
406.43	2810.98
406.62	2906.95
406.81	2925.67
407.00	2825.03
407.20	2693.96
407.39	2874.18
407.58	2904.60
407.77	2923.33
407.96	2963.12
408.15	2925.67
408.34	2918.65
408.54	2942.05
408.73	3016.95
408.92	3077.80
409.11	3082.49
409.30	3108.23
409.49	3098.87
409.68	3115.25
409.87	3096.53
410.07	3346.97
410.26	3206.53
410.45	3236.96
410.64	3232.28
410.83	3241.64
411.02	3337.60
411.21	3288.45
411.40	3304.84
411.59	3370.37
411.78	3400.80
411.98	3482.72
412.17	3482.72
412.36	3496.76
412.55	3501.44
412.74	3524.85
412.93	3655.92
413.12	3510.80
413.31	3705.07
413.50	3772.94
413.69	3599.74
413.88	3798.69
414.07	3730.81
414.26	3786.99
414.45	3864.22
414.64	3925.08
414.83	3948.48
415.02	3925.08
415.22	3887.63
415.41	3922.74
415.60	3967.21
415.79	4004.66
415.98	4189.56
416.17	4035.08
416.36	4140.41
416.55	4098.28
416.74	4196.58
416.93	4107.64
417.12	4194.24
417.31	4276.16
417.50	4327.65
417.69	4362.76
417.88	4482.13
418.07	4369.78
418.26	4519.57
418.45	4435.32
418.64	4524.26
418.83	4468.08
419.02	4470.42
419.21	4535.96
419.39	4587.45
419.58	4660.01
419.77	4629.58
419.96	4697.46
420.15	4674.05
420.34	4638.94
420.53	4683.41
420.72	4800.44
420.91	4854.27
421.10	4748.95
421.29	4802.78
421.48	4786.40
421.67	4863.63
421.86	4889.38
422.05	4812.14
422.24	4894.06
422.43	4945.55
422.61	4887.04
422.80	5034.49
422.99	5076.62
423.18	4884.70
423.37	5076.62
423.56	4971.30
423.75	5071.94
423.94	4849.59
424.13	4720.86
424.32	4912.78
424.50	5139.82
424.69	5172.58
424.88	5184.29
425.07	5090.67
425.26	4922.15
425.45	5074.28
425.64	5018.11
425.83	4980.66
426.01	5032.15
426.20	5228.76
426.39	5179.61
426.58	5221.74
426.77	4975.98
426.96	5228.76
427.15	5289.61
427.33	5270.89
427.52	5195.99
427.71	5184.29
427.90	5448.77
428.09	5284.93
428.28	5406.64
428.46	5298.97
428.65	5413.66
428.84	5624.31
429.03	5523.66
429.22	5359.83
429.40	5502.60
429.59	5413.66
429.78	5394.93
429.97	5100.03
430.16	5437.06
430.34	5650.05
430.53	5664.10
430.72	5771.76
430.91	5708.57
431.10	5671.12
431.28	5874.74
431.47	5710.91
431.66	5837.30
431.85	5856.02
432.03	5895.81
432.22	5961.34
432.41	6038.58
432.60	5935.60
432.79	5888.79
432.97	6022.20
433.16	6080.71
433.35	5961.34
433.54	6064.33
433.72	6118.16
433.91	6106.46
434.10	6253.91
434.28	6029.22
434.47	6207.10
434.66	6139.23
434.85	6272.64
435.03	6368.60
435.22	6698.61
435.41	6747.76
435.59	6560.52
435.78	6628.40
435.97	6520.73
436.16	6300.72
436.34	6436.47
436.53	6462.22
436.72	6541.80
436.90	6260.93
437.09	6600.31
437.28	6525.41
437.46	6597.97
437.65	6649.46
437.84	6752.45
438.02	6677.55
438.21	6752.45
438.40	6537.12
438.58	6991.18
438.77	7026.29
438.96	7023.95
439.14	6970.12
439.33	7084.80
439.52	7068.42
439.70	7133.95
439.89	7241.62
440.08	7236.94
440.26	7253.32
440.45	7295.45
440.63	7487.37
440.82	7536.52
441.01	7489.71
441.19	7496.74
441.38	7468.65
441.57	7576.31
441.75	7847.82
441.94	7859.52
442.12	7899.31
442.31	7831.43
442.50	7852.50
442.68	7995.27
442.87	8088.89
443.05	8013.99
443.24	8173.15
443.43	8119.32
443.61	8037.40
443.80	8271.45
443.98	7852.50
444.17	7761.22
444.35	8105.28
444.54	8217.62
444.73	7985.91
444.91	7992.93
445.10	8093.57
445.28	8205.92
445.47	8175.49
445.65	8093.57
445.84	8308.90
446.02	8283.16
446.21	8355.71
446.39	8156.77
446.58	8290.18
446.77	8238.69
446.95	8142.72
447.14	8283.16
447.32	8318.26
447.51	8266.77
447.69	8229.32
447.88	8278.47
448.06	8409.54
448.25	8428.27
448.43	8451.67
448.62	8493.80
448.80	8259.75
448.99	8435.29
449.17	8685.73
449.36	8369.76
449.54	8486.78
449.73	8681.05
449.91	8858.93
450.10	8774.67
450.28	8676.37
450.46	8973.61
450.65	8954.89
450.83	8915.10
451.02	8919.78
451.20	8997.02
451.39	8964.25
451.57	9139.79
451.76	8847.22
451.94	8961.91
452.13	9193.62
452.31	9062.55
452.49	8952.55
452.68	9179.58
452.86	8910.42
453.05	9245.12
453.23	9179.58
453.42	8978.30
453.60	9210.01
453.78	9497.89
453.97	9329.38
454.15	9310.65
454.34	9348.10
454.52	9600.88
454.70	9518.96
454.89	9598.54
455.07	9390.23
455.26	9481.51
455.44	9490.87
455.62	9720.24
455.81	9666.41
455.99	9841.95
456.17	9912.17
456.36	9673.43
456.54	9753.01
456.73	9937.91
456.91	10113.45
457.09	9907.49
457.28	9996.43
457.46	10064.30
457.64	10087.71
457.83	10019.83
458.01	10251.55
458.19	10420.06
458.38	10249.21
458.56	10230.48
458.74	10305.38
458.93	10296.02
459.11	10516.03
459.29	10553.48
459.48	10363.89
459.66	10403.68
459.84	10476.24
460.03	10518.37
460.21	10656.46
460.39	10406.02
460.57	10757.10
460.76	10960.73
460.94	10864.77
461.12	10747.74
461.31	10794.55
461.49	10780.51
461.67	10998.18
461.85	11016.90
462.04	10939.66
462.22	11356.28
462.40	11222.87
462.59	10993.50
462.77	11037.97
462.95	11232.23
463.13	11386.71
463.32	11140.95
463.50	11307.13
463.68	11527.14
463.86	11456.92
464.05	11272.02
464.23	11454.58
464.41	11485.01
464.59	11274.36
464.78	11761.19
464.96	11777.58
465.14	11201.80
465.32	11442.88
465.50	11770.55
465.69	11749.49
465.87	11712.04
466.05	11667.57
466.23	11571.61
466.41	11775.24
466.60	12140.36
466.78	11566.93
466.96	11800.98
467.14	11838.43
467.32	12051.42
467.51	12086.53
467.69	11716.72
467.87	11978.86
468.05	12311.22
468.23	11925.03
468.41	11936.73
468.60	12037.38
468.78	12327.60
468.96	12102.91
469.14	12325.26
469.32	12442.29
469.50	12269.09
469.69	12564.00
469.87	12723.15
470.05	12652.94
470.23	12681.02
470.41	12844.86
470.59	12940.82
470.77	12674.00
470.95	12760.60
471.14	13137.43
471.32	12809.75
471.50	13036.78
471.68	12793.37
471.86	13092.96
472.04	13177.22
472.22	13458.08
472.40	13195.94
472.58	12854.22
472.77	13561.06
472.95	13776.39
473.13	13877.04
473.31	13497.87
473.49	13619.58
473.67	13617.24
473.85	13668.73
474.03	14017.47
474.21	14104.07
474.39	14001.08
474.57	14111.09
474.75	14368.55
474.93	14295.99
475.12	14342.80
475.30	14675.16
475.48	14403.66
475.66	14719.63
475.84	14197.69
476.02	14808.57
476.20	14682.18
476.38	15126.88
476.56	15302.42
476.74	15012.20
476.92	15339.87
477.10	15522.43
477.28	15534.14
477.46	15552.86
477.64	15414.77
477.82	15885.22
478.00	16367.37
478.18	15999.90
478.36	16208.21
478.54	16435.24
478.72	16453.97
478.90	16755.90
479.08	16940.80
479.26	16833.13
479.44	16805.05
479.62	17018.04
479.80	17069.53
479.98	16945.48
480.16	17809.14
480.34	17301.24
480.52	17980.00
480.70	17790.41
480.88	17905.10
481.06	18108.72
481.24	17785.73
481.41	18078.30
481.59	18471.51
481.77	18630.66
481.95	18637.69
482.13	18803.86
482.31	18822.59
482.49	19353.89
482.67	19094.09
482.85	19637.09
483.03	19784.55
483.21	20006.90
483.39	19939.02
483.57	19793.91
483.74	20166.06
483.92	20512.46
484.10	20444.58
484.28	20606.08
484.46	20992.26
484.64	21441.65
484.82	21046.10
485.00	21184.19
485.18	21745.92
485.35	21968.27
485.53	22246.79
485.71	21982.31
485.89	22258.49
486.07	22403.61
486.25	22471.48
486.43	22958.31
486.61	22602.55
486.78	22733.62
486.96	22916.19
487.14	23374.93
487.32	23868.78
487.50	23637.07
487.68	23831.33
487.85	24285.40
488.03	24404.77
488.21	24613.07
488.39	24517.11
488.57	24926.71
488.75	24807.34
488.92	24898.62
489.10	25589.08
489.28	25525.88
489.46	25855.90
489.64	25635.89
489.81	26396.56
489.99	26363.79
490.17	26300.60
490.35	26848.29
490.53	26794.45
490.70	26855.31
490.88	26565.08
491.06	27618.32
491.24	27625.34
491.41	27344.48
491.59	27725.99
491.77	27985.79
491.95	28348.57
492.13	28140.26
492.30	28664.54
492.48	28528.79
492.66	28678.58
492.84	28828.38
493.01	29067.11
493.19	28931.36
493.37	29654.59
493.54	29273.08
493.72	29493.09
493.90	29745.87
494.08	30253.76
494.25	30532.29
494.43	30567.40
494.61	30864.64
494.79	30614.21
494.96	30969.97
495.14	31063.59
495.32	31578.51
495.49	31307.01
495.67	31508.29
495.85	31749.37
496.02	31763.41
496.20	31740.00
496.38	32339.18
496.55	32357.91
496.73	33057.73
496.91	33046.02
497.09	33116.24
497.26	32884.53
497.44	33085.81
497.62	33006.23
497.79	33528.17
497.97	33273.06
498.14	33881.60
498.32	34132.03
498.50	34286.51
498.67	34560.35
498.85	34508.86
499.03	34539.29
499.20	34911.43
499.38	35049.52
499.56	34932.50
499.73	34962.92
499.91	35744.66
500.08	35281.24
500.26	35381.88
500.44	35466.14
500.61	36107.44
500.79	35840.62
500.97	36367.24
501.14	36526.40
501.32	36259.58
501.49	36439.80
501.67	36615.34
501.84	36603.64
502.02	36889.18
502.20	37408.78
502.37	36828.33
502.55	37172.39
502.72	37251.97
502.90	37256.65
503.07	37041.32
503.25	37691.99
503.43	37495.38
503.60	38017.32
503.78	37890.93
503.95	38082.86
504.13	38024.34
504.30	38066.47
504.48	38288.82
504.65	38462.02
504.83	39384.19
505.01	39234.40
505.18	38733.53
505.36	39370.15
505.53	38810.76
505.71	39171.21
505.88	39285.89
506.06	39438.03
506.23	40264.24
506.41	39697.83
506.58	39742.30
506.76	39667.40
506.93	40219.77
507.11	39864.00
507.28	40243.17
507.46	40566.16
507.63	40491.27
507.81	40591.91
507.98	40411.69
508.16	40390.62
508.33	40697.24
508.50	41017.89
508.68	41322.16
508.85	41827.71
509.03	41263.64
509.20	41649.83
509.38	42251.35
509.55	41832.39
509.73	41958.78
509.90	41806.65
510.08	42504.13
510.25	42450.30
510.42	42384.76
510.60	42663.28
510.77	42756.91
510.95	42932.45
511.12	42787.33
511.30	43040.11
511.47	43438.00
511.64	42918.40
511.82	43086.92
511.99	43213.31
512.17	43461.41
512.34	43693.12
512.51	43819.51
512.69	44065.27
512.86	43969.30
513.04	44481.88
513.21	44275.91
513.38	44383.58
513.56	44158.89
513.73	44039.52
513.90	44601.25
514.08	44465.50
514.25	45120.85
514.43	45139.57
514.60	45043.61
514.77	44849.35
514.95	45312.77
515.12	45041.27
515.29	44800.19
515.47	45549.17
515.64	45717.68
515.81	45703.64
515.99	45198.09
516.16	46043.02
516.33	45633.42
516.51	46429.21
516.68	46178.77
516.85	46075.79
517.03	46321.54
517.20	46272.39
517.37	46309.84
517.54	46405.80
517.72	46515.81
517.89	46457.29
518.06	46567.30
518.24	47014.34
518.41	46923.06
518.58	46979.23
518.75	46834.12
518.93	47224.99
519.10	47016.68
519.27	47643.94
519.45	47098.60
519.62	47636.92
519.79	47695.44
519.96	47796.08
520.14	47601.82
520.31	47604.16
520.48	47681.39
520.65	48002.05
520.83	48608.25
521.00	48418.66
521.17	48266.53
521.34	48245.46
521.52	48521.65
521.69	48409.30
521.86	48488.88
522.03	48547.39
522.20	49055.29
522.38	48889.11
522.55	48893.79
522.72	49237.85
522.89	49221.47
523.07	49223.81
523.24	48945.28
523.41	49581.91
523.58	49317.43
523.75	49914.26
523.92	49371.26
524.10	49720.00
524.27	49902.56
524.44	50042.99
524.61	50246.62
524.78	50099.17
524.96	49890.86
525.13	50218.53
525.30	50316.84
525.47	50508.76
525.64	50305.13
525.81	50712.39
525.98	50220.87
526.16	50548.55
526.33	50459.61
526.50	50953.46
526.67	50536.85
526.84	50794.31
527.01	50616.43
527.18	50843.46
527.36	51161.77
527.53	50827.07
527.70	51416.89
527.87	51519.87
528.04	51693.07
528.21	51358.38
528.38	51281.14
528.55	51686.05
528.72	51344.33
528.89	50976.87
529.07	51800.74
529.24	51365.40
529.41	51950.53
529.58	52292.25
529.75	51505.83
529.92	52219.69
530.09	51976.28
530.26	51854.57
530.43	52126.07
530.60	51751.59
530.77	51950.53
530.94	52217.35
531.11	52320.34
531.28	52261.82
531.46	52203.31
531.63	52280.55
531.80	52549.71
531.97	52573.11
532.14	52811.85
532.31	52484.17
532.48	52676.10
532.65	53006.11
532.82	52502.90
532.99	52823.55
533.16	52650.35
533.33	52823.55
533.50	53050.58
533.67	52961.64
533.84	52673.76
534.01	52940.58
534.18	53050.58
534.35	53418.05
534.52	53516.35
534.69	53528.05
534.86	53556.14
535.03	53111.44
535.20	52980.37
535.37	53453.15
535.54	53986.80
535.71	53268.25
535.88	53305.70
536.05	53352.51
536.22	53766.79
536.38	53776.15
536.55	53769.13
536.72	53675.51
536.89	53869.77
537.06	54019.56
537.23	54115.53
537.40	54019.56
537.57	54117.87
537.74	54129.57
537.91	54319.15
538.08	53869.77
538.25	53888.49
538.42	54171.70
538.59	54295.75
538.75	54209.15
538.92	54197.44
539.09	54485.33
539.26	54356.60
539.43	54340.22
539.60	54377.67
539.77	54635.13
539.94	54859.82
540.11	55084.51
540.28	54796.62
540.44	54681.94
540.61	54801.30
540.78	54686.62
540.95	54878.54
541.12	54885.56
541.29	55058.76
541.46	54981.52
541.62	55196.85
541.79	55182.81
541.96	54555.55
542.13	55018.97
542.30	55105.57
542.47	55356.01
542.63	55281.11
542.80	55409.84
542.97	55632.19
543.14	55763.26
543.31	55845.18
543.48	55751.56
543.64	56083.92
543.81	55627.51
543.98	55721.13
544.15	55934.12
544.32	55810.07
544.48	56327.33
544.65	55938.80
544.82	55985.61
544.99	55735.18
545.16	55978.59
545.32	55936.46
545.49	56067.53
545.66	56353.08
545.83	56346.06
546.00	56395.21
546.16	56559.05
546.33	56336.69
546.50	56207.97
546.67	56264.14
546.83	55896.67
547.00	56278.18
547.17	56385.85
547.34	56460.74
547.50	56376.48
547.67	56640.96
547.84	56718.20
548.00	56633.94
548.17	56748.63
548.34	56324.99
548.51	56790.76
548.67	56818.84
548.84	56601.18
549.01	56846.93
549.18	56748.63
549.34	56760.33
549.51	56823.53
549.68	56807.14
549.84	56821.19
550.01	56706.50
550.18	56718.20
550.34	56371.80
550.51	56905.44
550.68	56893.74
550.84	56755.65
551.01	57174.61
551.18	57003.75
551.34	56963.96
551.51	57048.22
551.68	57130.14
551.84	56975.66
552.01	57064.60
552.18	57052.90
552.34	56919.49
552.51	57305.68
552.68	57020.13
552.84	57387.60
553.01	57523.35
553.18	57071.62
553.34	57153.54
553.51	57029.49
553.67	57308.02
553.84	57567.82
554.01	57490.58
554.17	57626.33
554.34	57521.01
554.51	57567.82
554.67	57495.26
554.84	57158.22
555.00	57394.62
555.17	57123.11
555.33	57513.98
555.50	57427.38
555.67	57584.20
555.83	57497.60
556.00	57738.68
556.16	57752.72
556.33	57825.28
556.50	57663.78
556.66	57900.17
556.83	57729.31
556.99	57855.70
557.16	58096.78
557.32	57970.39
557.49	57946.98
557.65	57612.29
557.82	57900.17
557.98	57801.87
558.15	57851.02
558.32	57752.72
558.48	57853.36
558.65	57881.45
558.81	57923.58
558.98	57914.22
559.14	58225.51
559.31	58117.84
559.47	57961.03
559.64	58082.73
559.80	58038.26
559.97	58071.03
560.13	57846.34
560.30	58010.18
560.46	58408.07
560.63	58085.07
560.79	58071.03
560.96	58658.51
561.12	58410.41
561.29	58035.92
561.45	58260.62
561.61	58333.17
561.78	58419.77
561.94	58408.07
562.11	58508.71
562.27	58532.12
562.44	58403.39
562.60	58485.31
562.77	58401.05
562.93	58415.09
563.10	58482.97
563.26	58248.91
563.42	58609.35
563.59	58590.63
563.75	58628.08
563.92	58506.37
564.08	58597.65
564.24	58536.80
564.41	58520.41
564.57	58433.81
564.74	58379.98
564.90	58677.23
565.07	58681.91
565.23	58740.42
565.39	58787.24
565.56	58946.39
565.72	58667.87
565.88	58827.02
566.05	58674.89
566.21	58651.48
566.38	58555.52
566.54	58485.31
566.70	58817.66
566.87	58958.09
567.03	58777.87
567.19	59400.46
567.36	58944.05
567.52	58735.74
567.68	58693.61
567.85	58628.08
568.01	59070.44
568.17	58604.67
568.34	58855.11
568.50	58763.83
568.66	58967.46
568.83	58955.75
568.99	58791.92
569.15	58897.24
569.32	58915.96
569.48	58656.17
569.64	58724.04
569.81	58789.58
569.97	58719.36
570.13	59042.35
570.30	58791.92
570.46	58794.26
570.62	59000.22
570.78	58979.16
570.95	58908.94
571.11	59028.31
571.27	58990.86
571.43	58749.79
571.60	58937.03
571.76	58899.58
571.92	58791.92
572.09	59110.23
572.25	59084.48
572.41	59173.42
572.57	59131.29
572.74	59278.75
572.90	59147.68
573.06	59103.21
573.22	59189.81
573.38	59082.14
573.55	59304.49
573.71	59442.59
573.87	59374.71
574.03	59025.97
574.20	59016.61
574.36	59267.05
574.52	59110.23
574.68	59096.19
574.84	58969.80
575.01	59393.43
575.17	59269.39
575.33	59199.17
575.49	59110.23
575.65	59269.39
575.82	59374.71
575.98	58887.88
576.14	59480.03
576.30	59447.27
576.46	59283.43
576.62	59086.82
576.79	59412.16
576.95	59143.00
577.11	59077.46
577.27	59355.99
577.43	59269.39
577.59	59341.94
577.75	59164.06
577.92	59185.13
578.08	59365.35
578.24	59353.65
578.40	59470.67
578.56	59222.58
578.72	59482.37
578.88	59550.25
579.04	59515.14
579.21	59351.30
579.37	59578.34
579.53	59529.19
579.69	59110.23
579.85	59337.26
580.01	59587.70
580.17	59491.74
580.33	59480.03
580.49	59433.22
580.65	59552.59
580.82	59381.73
580.98	59845.16
581.14	59442.59
581.30	59559.61
581.46	59178.10
581.62	59285.77
581.78	59236.62
581.94	59323.22
582.10	59337.26
582.26	59559.61
582.42	59407.48
582.58	59419.18
582.74	59454.29
582.90	59648.55
583.06	59503.44
583.22	59398.12
583.38	59346.62
583.54	59042.35
583.70	59374.71
583.86	59604.08
584.02	59435.56
584.18	59573.66
584.34	59632.17
584.50	59777.28
584.66	59250.66
584.82	59449.61
584.98	59564.29
585.14	59428.54
585.30	59414.50
585.46	59608.76
585.62	59393.43
585.78	59793.67
585.94	59468.33
586.10	59657.91
586.26	59552.59
586.42	59554.93
586.58	59594.72
586.74	59583.02
586.90	59487.06
587.06	59564.29
587.22	59711.75
587.38	59746.86
587.54	59730.47
587.70	60039.42
587.86	59887.29
588.02	59854.52
