SpectraSuite Data File
++++++++++++++++++++++++++++++++++++
Date: Thu Oct 24 13:21:09 EDT 2013
User: stostad
Dark Spectrum Present: No
Reference Spectrum Present: No
Number of Sampled Component Spectra: 1
Spectrometers: USB2+H05261
Integration Time (usec): 100000 (USB2+H05261)
Spectra Averaged: 1 (USB2+H05261)
Boxcar Smoothing: 0 (USB2+H05261)
Correct for Electrical Dark: No (USB2+H05261)
Strobe/Lamp Enabled: No (USB2+H05261)
Correct for Detector Non-linearity: No (USB2+H05261)
Correct for Stray Light: No (USB2+H05261)
Number of Pixels in Processed Spectrum: 2048
>>>>>Begin Processed Spectral Data<<<<<
365.73	484.49
365.92	484.49
366.12	484.49
366.32	489.17
366.52	454.06
366.72	470.45
366.91	493.85
367.11	435.34
367.31	435.34
367.51	557.05
367.70	475.13
367.90	435.34
368.10	510.24
368.30	482.15
368.49	440.02
368.69	486.83
368.89	496.19
369.09	397.89
369.28	444.70
369.48	528.96
369.68	514.92
369.87	550.03
370.07	491.51
370.27	564.07
370.47	582.79
370.66	678.76
370.86	645.99
371.06	748.97
371.25	704.50
371.45	678.76
371.65	711.52
371.84	795.78
372.04	798.12
372.24	690.46
372.44	709.18
372.63	877.70
372.83	751.31
373.03	767.70
373.22	816.85
373.42	763.01
373.62	842.59
373.81	777.06
374.01	777.06
374.21	765.36
374.40	765.36
374.60	786.42
374.79	793.44
374.99	720.88
375.19	786.42
375.38	828.55
375.58	734.93
375.78	835.57
375.97	835.57
376.17	849.61
376.37	774.72
376.56	779.40
376.76	823.87
376.95	770.04
377.15	800.46
377.35	833.23
377.54	844.93
377.74	856.64
377.93	858.98
378.13	884.72
378.33	835.57
378.52	847.27
378.72	877.70
378.91	882.38
379.11	880.04
379.31	800.46
379.50	870.68
379.70	870.68
379.89	863.66
380.09	861.32
380.28	870.68
380.48	891.74
380.68	809.83
380.87	849.61
381.07	877.70
381.26	901.11
381.46	861.32
381.65	877.70
381.85	875.36
382.04	826.21
382.24	938.55
382.43	849.61
382.63	849.61
382.83	903.45
383.02	856.64
383.22	880.04
383.41	912.81
383.61	809.83
383.80	894.08
384.00	959.62
384.19	919.83
384.39	812.17
384.58	882.38
384.78	891.74
384.97	901.11
385.17	898.77
385.36	901.11
385.56	983.02
385.75	931.53
385.95	997.07
386.14	938.55
386.34	950.26
386.53	966.64
386.72	945.58
386.92	985.37
387.11	891.74
387.31	889.40
387.50	887.06
387.70	1053.24
387.89	973.66
388.09	971.32
388.28	978.34
388.48	980.68
388.67	961.96
388.86	926.85
389.06	1001.75
389.25	1043.88
389.45	926.85
389.64	1041.54
389.84	997.07
390.03	990.05
390.22	957.28
390.42	1011.11
390.61	957.28
390.81	936.21
391.00	997.07
391.19	964.30
391.39	1064.94
391.58	1013.45
391.78	961.96
391.97	1050.90
392.16	994.73
392.36	1074.31
392.55	1107.07
392.75	1104.73
392.94	1018.13
393.13	1050.90
393.33	1025.15
393.52	1025.15
393.71	1137.50
393.91	1071.97
394.10	1093.03
394.29	1001.75
394.49	1060.26
394.68	1107.07
394.88	1104.73
395.07	1086.01
395.26	1055.58
395.46	1100.05
395.65	1076.65
395.84	1149.20
396.04	1130.48
396.23	1167.93
396.42	1163.25
396.62	1064.94
396.81	1163.25
397.00	1097.71
397.19	1139.84
397.39	1174.95
397.58	1109.41
397.77	1217.08
397.97	1139.84
398.16	1163.25
398.35	1158.57
398.55	1261.55
398.74	1179.63
398.93	1207.72
399.12	1158.57
399.32	1170.27
399.51	1196.01
399.70	1238.14
399.90	1210.06
400.09	1322.40
400.28	1233.46
400.47	1198.35
400.67	1270.91
400.86	1235.80
401.05	1231.12
401.24	1235.80
401.44	1259.21
401.63	1355.17
401.82	1313.04
402.01	1273.25
402.21	1320.06
402.40	1308.36
402.59	1383.26
402.78	1306.02
402.97	1247.51
403.17	1397.30
403.36	1294.32
403.55	1376.24
403.74	1383.26
403.93	1345.81
404.13	1387.94
404.32	1411.34
404.51	1334.11
404.70	1425.39
404.89	1465.18
405.09	1516.67
405.28	1359.85
405.47	1385.60
405.66	1458.15
405.85	1441.77
406.05	1399.64
406.24	1425.39
406.43	1390.28
406.62	1406.66
406.81	1458.15
407.00	1401.98
407.20	1462.83
407.39	1528.37
407.58	1511.99
407.77	1596.25
407.96	1533.05
408.15	1565.82
408.34	1544.75
408.54	1556.46
408.73	1586.88
408.92	1479.22
409.11	1638.38
409.30	1605.61
409.49	1579.86
409.68	1537.73
409.87	1605.61
410.07	1633.69
410.26	1673.48
410.45	1724.97
410.64	1678.16
410.83	1680.50
411.02	1708.59
411.21	1692.21
411.40	1654.76
411.59	1701.57
411.78	1708.59
411.98	1699.23
412.17	1734.34
412.36	1746.04
412.55	1760.08
412.74	1687.53
412.93	1825.62
413.12	1806.89
413.31	1813.92
413.50	1839.66
413.69	1839.66
413.88	1860.73
414.07	1820.94
414.26	1846.68
414.45	1813.92
414.64	1909.88
414.83	1879.45
415.02	1961.37
415.22	1994.14
415.41	1954.35
415.60	1921.58
415.79	1844.34
415.98	1961.37
416.17	2001.16
416.36	1961.37
416.55	1940.30
416.74	2033.93
416.93	2066.69
417.12	2069.03
417.31	2066.69
417.50	2106.48
417.69	2176.70
417.88	2094.78
418.07	2136.91
418.26	2125.21
418.45	2197.76
418.64	2188.40
418.83	2167.34
419.02	2181.38
419.21	2228.19
419.39	2148.61
419.58	2153.29
419.77	2209.47
419.96	2249.25
420.15	2209.47
420.34	2363.94
420.53	2193.08
420.72	2272.66
420.91	2333.51
421.10	2305.43
421.29	2349.90
421.48	2216.49
421.67	2239.89
421.86	2394.37
422.05	2258.62
422.24	2310.11
422.43	2356.92
422.61	2335.85
422.80	2333.51
422.99	2380.32
423.18	2380.32
423.37	2303.09
423.56	2394.37
423.75	2377.98
423.94	2298.41
424.13	2331.17
424.32	2296.07
424.50	2401.39
424.69	2368.62
424.88	2401.39
425.07	2375.64
425.26	2406.07
425.45	2188.40
425.64	2331.17
425.83	2333.51
426.01	2466.92
426.20	2471.61
426.39	2413.09
426.58	2394.37
426.77	2286.70
426.96	2427.14
427.15	2370.96
427.33	2441.18
427.52	2445.86
427.71	2413.09
427.90	2417.77
428.09	2471.61
428.28	2548.84
428.46	2555.86
428.65	2509.05
428.84	2471.61
429.03	2480.97
429.22	2441.18
429.40	2495.01
429.59	2579.27
429.78	2523.10
429.97	2527.78
430.16	2525.44
430.34	2642.46
430.53	2527.78
430.72	2621.40
430.91	2661.19
431.10	2548.84
431.28	2605.02
431.47	2698.64
431.66	2710.34
431.85	2630.76
432.03	2630.76
432.22	2644.81
432.41	2686.94
432.60	2768.85
432.79	2628.42
432.97	2740.77
433.16	2759.49
433.35	2766.51
433.54	2712.68
433.72	2738.43
433.91	2729.06
434.10	2803.96
434.28	2888.22
434.47	2864.82
434.66	2827.37
434.85	2916.31
435.03	3000.57
435.22	3171.43
435.41	3316.54
435.59	3155.04
435.78	3143.34
435.97	3213.56
436.16	2984.18
436.34	2881.20
436.53	2913.97
436.72	2974.82
436.90	2825.03
437.09	3056.74
437.28	3023.97
437.46	3028.65
437.65	2827.37
437.84	3089.51
438.02	3033.33
438.21	2944.39
438.40	2974.82
438.58	3124.62
438.77	3052.06
438.96	3082.49
439.14	3087.17
439.33	3101.21
439.52	3136.32
439.70	3103.55
439.89	3236.96
440.08	3178.45
440.26	3190.15
440.45	3218.24
440.63	3307.18
440.82	3391.44
441.01	3452.29
441.19	3150.36
441.38	3410.16
441.57	3386.76
441.75	3314.20
441.94	3581.02
442.12	3424.20
442.31	3391.44
442.50	3468.67
442.68	3407.82
442.87	3396.12
443.05	3492.08
443.24	3595.06
443.43	3599.74
443.61	3447.61
443.80	3595.06
443.98	3459.31
444.17	3335.26
444.35	3508.46
444.54	3510.80
444.73	3559.95
444.91	3667.62
445.10	3557.61
445.28	3445.27
445.47	3424.20
445.65	3536.55
445.84	3714.43
446.02	3595.06
446.21	3597.40
446.39	3475.70
446.58	3588.04
446.77	3566.98
446.95	3473.36
447.14	3508.46
447.32	3667.62
447.51	3590.38
447.69	3684.00
447.88	3618.47
448.06	3709.75
448.25	3632.51
448.43	3644.21
448.62	3672.30
448.80	3571.66
448.99	3721.45
449.17	3742.52
449.36	3751.88
449.54	3768.26
449.73	3810.39
449.91	3742.52
450.10	3681.66
450.28	3789.33
450.46	3805.71
450.65	3861.88
450.83	3831.46
451.02	3765.92
451.20	3946.14
451.39	3838.48
451.57	3885.29
451.76	3705.07
451.94	3826.78
452.13	3901.67
452.31	3824.44
452.49	3932.10
452.68	3932.10
452.86	3950.82
453.05	3962.53
453.23	3852.52
453.42	3913.38
453.60	3971.89
453.78	4032.74
453.97	3878.27
454.15	3922.74
454.34	3946.14
454.52	4030.40
454.70	3981.25
454.89	3978.91
455.07	4030.40
455.26	4042.11
455.44	4093.60
455.62	4039.76
455.81	4119.34
455.99	3990.61
456.17	4131.05
456.36	4088.92
456.54	4114.66
456.73	4217.65
456.91	4224.67
457.09	4287.86
457.28	4320.63
457.46	4294.88
457.64	4325.31
457.83	4266.80
458.01	4290.20
458.19	4407.23
458.38	4421.27
458.56	4372.12
458.74	4280.84
458.93	4411.91
459.11	4468.08
459.29	4411.91
459.48	4535.96
459.66	4538.30
459.84	4402.55
460.03	4425.95
460.21	4535.96
460.39	4372.12
460.57	4486.81
460.76	4404.89
460.94	4526.60
461.12	4367.44
461.31	4528.94
461.49	4564.04
461.67	4535.96
461.85	4538.30
462.04	4610.86
462.22	4964.28
462.40	4561.70
462.59	4571.07
462.77	4554.68
462.95	4837.89
463.13	4622.56
463.32	4592.13
463.50	4695.11
463.68	4643.62
463.86	4765.33
464.05	4636.60
464.23	4662.35
464.41	4720.86
464.59	4762.99
464.78	4809.80
464.96	4779.37
465.14	4594.47
465.32	4791.08
465.50	4774.69
465.69	4868.31
465.87	4929.17
466.05	4882.36
466.23	4980.66
466.41	4924.49
466.60	5053.22
466.78	4861.29
466.96	4842.57
467.14	5055.56
467.32	4952.57
467.51	5018.11
467.69	4919.81
467.87	4936.19
468.05	4997.04
468.23	4847.25
468.41	4968.96
468.60	5004.07
468.78	5022.79
468.96	4999.38
469.14	5219.39
469.32	5181.95
469.50	4912.78
469.69	5128.11
469.87	5240.46
470.05	5177.26
470.23	5336.42
470.41	5282.59
470.59	5338.76
470.77	5174.92
470.95	5336.42
471.14	5427.70
471.32	5114.07
471.50	5233.44
471.68	5355.15
471.86	5338.76
472.04	5383.23
472.22	5544.73
472.40	5331.74
472.58	5434.72
472.77	5502.60
472.95	5586.86
473.13	5638.35
473.31	5547.07
473.49	5497.92
473.67	5657.07
473.85	5523.66
474.03	5603.24
474.21	5668.78
474.39	5832.62
474.57	5757.72
474.75	5785.80
474.93	5944.96
475.12	5722.61
475.30	5935.60
475.48	5764.74
475.66	5867.72
475.84	5877.09
476.02	5832.62
476.20	6052.63
476.38	6132.20
476.56	6186.04
476.74	6033.90
476.92	6019.86
477.10	6026.88
477.28	6235.19
477.46	6148.59
477.64	6417.75
477.82	6263.27
478.00	6452.86
478.18	6345.19
478.36	6466.90
478.54	6574.56
478.72	6459.88
478.90	6717.34
479.08	6759.47
479.26	6665.85
479.44	6750.10
479.62	6827.34
479.80	6897.56
479.98	6757.13
480.16	7150.34
480.34	7012.24
480.52	7131.61
480.70	7012.24
480.88	6888.20
481.06	7241.62
481.24	6944.37
481.41	7316.51
481.59	7321.20
481.77	7529.50
481.95	7433.54
482.13	7595.04
482.31	7311.83
482.49	7604.40
482.67	7573.97
482.85	7749.51
483.03	7805.69
483.21	7882.92
483.39	7868.88
483.57	7887.61
483.74	7871.22
483.92	7903.99
484.10	7906.33
484.28	7983.57
484.46	8351.03
484.64	8294.86
484.82	8379.12
485.00	8346.35
485.18	8540.61
485.35	8557.00
485.53	8734.88
485.71	8596.79
485.89	8751.26
486.07	8856.59
486.25	8908.08
486.43	8875.31
486.61	9022.77
486.78	8863.61
486.96	9135.11
487.14	9109.36
487.32	9202.99
487.50	9025.11
487.68	9224.05
487.85	9282.56
488.03	9502.58
488.21	9493.21
488.39	9600.88
488.57	9748.33
488.75	9577.47
488.92	9834.93
489.10	9645.35
489.28	9884.08
489.46	10031.54
489.64	10008.13
489.81	10239.84
489.99	10092.39
490.17	10314.74
490.35	10342.83
490.53	10225.80
490.70	10387.30
490.88	10583.90
491.06	10200.05
491.24	10574.54
491.41	10668.16
491.59	10773.49
491.77	10616.67
491.95	10579.22
492.13	10883.49
492.30	10853.06
492.48	10988.82
492.66	10911.58
492.84	10939.66
493.01	11213.51
493.19	11211.17
493.37	11440.54
493.54	11370.32
493.72	11489.69
493.90	11180.74
494.08	11431.18
494.25	11573.95
494.43	11899.28
494.61	11730.76
494.79	11604.38
494.96	11737.79
495.14	11922.69
495.32	11714.38
495.49	11985.88
495.67	11974.18
495.85	12042.06
496.02	11852.47
496.20	12070.14
496.38	12147.38
496.55	12212.92
496.73	12463.35
496.91	12444.63
497.09	12580.38
497.26	12491.44
497.44	12622.51
497.62	12585.06
497.79	12999.34
497.97	12622.51
498.14	13121.04
498.32	12898.69
498.50	13221.69
498.67	13226.37
498.85	12980.61
499.03	13207.64
499.20	13298.92
499.38	13212.32
499.56	13160.83
499.73	13401.91
499.91	13228.71
500.08	13549.36
500.26	13462.76
500.44	13469.78
500.61	13823.20
500.79	13427.65
500.97	13427.65
501.14	13846.61
501.32	13776.39
501.49	13762.35
501.67	13902.78
501.84	13830.23
502.02	13862.99
502.20	14010.45
502.37	14118.11
502.55	14022.15
502.72	14094.71
502.90	14078.32
503.07	14094.71
503.25	14244.50
503.43	13996.40
503.60	14401.32
503.78	14267.91
503.95	14356.85
504.13	14497.28
504.30	14604.94
504.48	14459.83
504.65	14464.51
504.83	14403.66
505.01	14780.48
505.18	14633.03
505.36	14759.42
505.53	14644.73
505.71	14885.81
505.88	14974.75
506.06	14836.66
506.23	14963.04
506.41	14937.30
506.58	14923.26
506.76	14787.50
506.93	15260.29
507.11	15152.63
507.28	15098.80
507.46	15222.84
507.63	15370.30
507.81	15714.36
507.98	15159.65
508.16	15138.58
508.33	15449.88
508.50	15438.17
508.68	15550.52
508.85	15810.32
509.03	15756.49
509.20	15578.61
509.38	15995.22
509.55	15922.66
509.73	15789.25
509.90	16037.35
510.08	15917.98
510.25	16051.39
510.42	16030.33
510.60	16039.69
510.77	15957.77
510.95	16177.78
511.12	16229.27
511.30	16095.86
511.47	16208.21
511.64	16292.47
511.82	16339.28
511.99	16243.32
512.17	16269.06
512.34	16486.73
512.51	16542.91
512.69	16727.81
512.86	16519.50
513.04	16482.05
513.21	16489.07
513.38	16732.49
513.56	17003.99
513.73	16676.32
513.90	16910.37
514.08	16636.53
514.25	17076.55
514.43	17041.44
514.60	16992.29
514.77	16975.91
514.95	16973.56
515.12	17027.40
515.29	17181.87
515.47	17233.36
515.64	17397.20
515.81	17263.79
515.99	17207.62
516.16	17254.43
516.33	17394.86
516.51	17525.93
516.68	17764.67
516.85	17411.25
517.03	17682.75
517.20	17308.26
517.37	17476.78
517.54	17673.39
517.72	17694.45
517.89	17514.23
518.06	17689.77
518.24	17589.13
518.41	17841.90
518.58	17942.55
518.75	17561.04
518.93	17963.61
519.10	17813.82
519.27	17902.76
519.45	17806.80
519.62	18211.71
519.79	18317.03
519.96	18202.35
520.14	18106.38
520.31	18050.21
520.48	18307.67
520.65	18272.56
520.83	18312.35
521.00	18597.90
521.17	18181.28
521.34	18609.60
521.52	18094.68
521.69	18738.33
521.86	18853.02
522.03	18490.23
522.20	18630.66
522.38	18574.49
522.55	18897.49
522.72	18511.30
522.89	18853.02
523.07	18799.18
523.24	18881.10
523.41	18995.79
523.58	18726.63
523.75	18808.54
523.92	19040.26
524.10	19262.61
524.27	18869.40
524.44	19227.50
524.61	19166.65
524.78	19009.83
524.96	19101.11
525.13	19150.26
525.30	19236.86
525.47	19468.58
525.64	19344.53
525.81	19068.34
525.98	19496.66
526.16	19454.53
526.33	19213.46
526.50	19906.26
526.67	19623.05
526.84	19838.38
527.01	19620.71
527.18	19709.65
527.36	19810.29
527.53	19538.79
527.70	19695.61
527.87	19875.83
528.04	19583.26
528.21	19707.31
528.38	19861.79
528.55	19992.86
528.72	19810.29
528.89	19756.46
529.07	19658.16
529.24	19896.89
529.41	20147.33
529.58	20318.19
529.75	19894.55
529.92	19985.83
530.09	20219.89
530.26	19976.47
530.43	20180.10
530.60	20168.40
530.77	20322.87
530.94	20301.81
531.11	20388.41
531.28	20655.23
531.46	20449.26
531.63	20133.29
531.80	20549.90
531.97	20308.83
532.14	20255.00
532.31	20837.79
532.48	20807.36
532.65	20903.32
532.82	20697.36
532.99	20297.13
533.16	20648.21
533.33	20540.54
533.50	20620.12
533.67	20559.27
533.84	20603.74
534.01	20950.14
534.18	20746.51
534.35	20809.70
534.52	20720.76
534.69	20723.10
534.86	20779.28
535.03	20847.15
535.20	20570.97
535.37	21027.37
535.54	21184.19
535.71	20891.62
535.88	21219.30
536.05	21160.78
536.22	21064.82
536.38	21062.48
536.55	21287.17
536.72	21158.44
536.89	21050.78
537.06	21642.93
537.23	21848.90
537.40	21296.53
537.57	21167.80
537.74	21158.44
537.91	21628.89
538.08	21490.80
538.25	21195.89
538.42	21249.72
538.59	21811.45
538.75	21317.60
538.92	21806.77
539.09	21317.60
539.26	21619.53
539.43	21745.92
539.60	21664.00
539.77	21664.00
539.94	21996.35
540.11	22017.42
540.28	21982.31
540.44	21785.71
540.61	21979.97
540.78	21937.84
540.95	21785.71
541.12	22148.49
541.29	22349.78
541.46	22452.76
541.62	22312.33
541.79	22623.62
541.96	22225.73
542.13	22202.32
542.30	22382.54
542.47	22508.93
542.63	22604.89
542.80	22326.37
542.97	22705.54
543.14	22742.99
543.31	22878.74
543.48	22792.14
543.64	22726.60
543.81	22799.16
543.98	22759.37
544.15	22345.09
544.32	22995.76
544.48	22958.31
544.65	22885.76
544.82	23075.34
544.99	22689.15
545.16	22546.38
545.32	22995.76
545.49	23267.27
545.66	23967.09
545.83	23999.85
546.00	24081.77
546.16	23468.55
546.33	23616.01
546.50	23426.42
546.67	23417.06
546.83	22895.12
547.00	22801.50
547.17	22885.76
547.34	22991.08
547.50	23199.39
547.67	22904.48
547.84	23161.94
548.00	23117.47
548.17	23255.56
548.34	23119.81
548.51	23557.49
548.67	23236.84
548.84	23269.61
549.01	22967.68
549.18	23204.07
549.34	23386.63
549.51	23452.17
549.68	23260.24
549.84	23091.73
550.01	23227.48
550.18	23314.08
550.34	23007.47
550.51	23103.43
550.68	23028.53
550.84	22939.59
551.01	23407.70
551.18	23211.09
551.34	23021.51
551.51	23349.18
551.68	23133.86
551.84	23194.71
552.01	23250.88
552.18	23222.80
552.34	23440.47
552.51	23651.11
552.68	23754.10
552.84	23749.42
553.01	23821.97
553.18	23700.26
553.34	23608.98
553.51	23578.56
553.67	23229.82
553.84	23634.73
554.01	23770.48
554.17	23756.44
554.34	23889.85
554.51	23449.83
554.67	23857.08
554.84	23730.69
555.00	23548.13
555.17	23370.25
555.33	23686.22
555.50	23449.83
555.67	23723.67
555.83	23473.23
556.00	23489.62
556.16	23896.87
556.33	23779.84
556.50	23763.46
556.66	23824.31
556.83	23403.02
556.99	23775.16
557.16	23868.78
557.32	23807.93
557.49	24130.92
557.65	23969.43
557.82	23969.43
557.98	23566.85
558.15	23812.61
558.32	23915.59
558.48	23791.55
558.65	23892.19
558.81	24189.44
558.98	23814.95
559.14	23981.13
559.31	23859.42
559.47	23913.25
559.64	24254.97
559.80	24041.98
559.97	24212.84
560.13	24102.84
560.30	24100.50
560.46	23927.30
560.63	24074.75
560.79	24119.22
560.96	24329.87
561.12	23971.77
561.29	24088.79
561.45	24184.76
561.61	24194.12
561.78	23824.31
561.94	24554.56
562.11	24542.86
562.27	24547.54
562.44	24463.28
562.60	24411.79
562.77	23800.91
562.93	24577.97
563.10	24400.08
563.26	24240.93
563.42	24346.25
563.59	24528.81
563.75	24739.46
563.92	24514.77
564.08	24456.26
564.24	24547.54
564.41	24369.66
564.57	24159.01
564.74	24130.92
564.90	24423.49
565.07	24589.67
565.23	24505.41
565.39	24498.39
565.56	24386.04
565.72	24554.56
565.88	24554.56
566.05	24065.39
566.21	24437.53
566.38	24372.00
566.54	24264.33
566.70	24465.62
566.87	24261.99
567.03	24725.42
567.19	24748.82
567.36	24510.09
567.52	24423.49
567.68	24470.30
567.85	24390.72
568.01	24634.14
568.17	24877.55
568.34	24631.80
568.50	24608.39
568.66	24702.01
568.83	24617.75
568.99	24783.93
569.15	24421.15
569.32	24734.78
569.48	24514.77
569.64	24311.14
569.81	24210.50
569.97	24430.51
570.13	24690.31
570.30	24390.72
570.46	24814.36
570.62	24716.06
570.78	24755.85
570.95	24357.96
571.11	24573.28
571.27	24629.46
571.43	24397.74
571.60	24692.65
571.76	24680.95
571.92	24692.65
572.09	24463.28
572.25	24898.62
572.41	24769.89
572.57	25055.43
572.74	24786.27
572.90	24709.04
573.06	24636.48
573.22	24741.80
573.38	24479.66
573.55	24608.39
573.71	25181.82
573.87	24643.50
574.03	24453.92
574.20	24725.42
574.36	24592.01
574.52	24559.24
574.68	24734.78
574.84	24683.29
575.01	24678.61
575.17	24538.18
575.33	24793.29
575.49	24889.26
575.65	25174.80
575.82	24816.70
575.98	24814.36
576.14	24966.49
576.30	24868.19
576.46	24793.29
576.62	24753.51
576.79	24643.50
576.95	24767.55
577.11	25104.59
577.27	24837.76
577.43	24959.47
577.59	25043.73
577.75	24933.73
577.92	24699.67
578.08	24851.81
578.24	24699.67
578.40	24727.76
578.56	25088.20
578.72	25266.08
578.88	25390.13
579.04	25322.26
579.21	25179.48
579.37	25123.31
579.53	24924.36
579.69	24931.39
579.85	25149.06
580.01	25008.62
580.17	24613.07
580.33	24697.33
580.49	24615.41
580.65	25069.48
580.82	24945.43
580.98	24762.87
581.14	24596.69
581.30	25088.20
581.46	24863.51
581.62	24711.38
581.78	24924.36
581.94	24781.59
582.10	24589.67
582.26	25106.93
582.42	24999.26
582.58	24755.85
582.74	25062.46
582.90	25144.38
583.06	25074.16
583.22	24830.74
583.38	25156.08
583.54	24622.44
583.70	24844.79
583.86	25296.51
584.02	24943.09
584.18	25329.28
584.34	25130.33
584.50	24910.32
584.66	24727.76
584.82	24842.45
584.98	24753.51
585.14	24720.74
585.30	25120.97
585.46	24877.55
585.62	24968.84
585.78	25249.70
585.94	25085.86
586.10	25301.19
586.26	25191.19
586.42	25020.33
586.58	25238.00
586.74	25277.79
586.90	24865.85
587.06	25170.12
587.22	25680.36
587.38	25095.22
587.54	25263.74
587.70	25441.62
587.86	25078.84
588.02	25137.35
588.18	25493.12
588.34	25109.27
588.49	25266.08
588.65	25003.94
588.81	24926.71
588.97	25376.09
589.13	24751.17
589.29	25041.39
589.45	25158.42
589.61	25144.38
589.77	25500.14
589.93	24886.92
590.08	25146.72
590.24	25287.15
590.40	25280.13
590.56	24900.96
590.72	25453.33
590.88	24999.26
