SpectraSuite Data File
++++++++++++++++++++++++++++++++++++
Date: Thu Oct 24 13:20:58 EDT 2013
User: stostad
Dark Spectrum Present: No
Reference Spectrum Present: No
Number of Sampled Component Spectra: 1
Spectrometers: USB2+H05261
Integration Time (usec): 100000 (USB2+H05261)
Spectra Averaged: 1 (USB2+H05261)
Boxcar Smoothing: 0 (USB2+H05261)
Correct for Electrical Dark: No (USB2+H05261)
Strobe/Lamp Enabled: No (USB2+H05261)
Correct for Detector Non-linearity: No (USB2+H05261)
Correct for Stray Light: No (USB2+H05261)
Number of Pixels in Processed Spectrum: 2048
>>>>>Begin Processed Spectral Data<<<<<
365.73	505.56
365.92	505.56
366.12	505.56
366.32	505.56
366.52	409.59
366.72	458.74
366.91	407.25
367.11	440.02
367.31	437.68
367.51	456.40
367.70	444.70
367.90	475.13
368.10	367.46
368.30	465.77
368.49	442.36
368.69	451.72
368.89	526.62
369.09	472.79
369.28	498.53
369.48	528.96
369.68	486.83
369.87	477.47
370.07	524.28
370.27	594.50
370.47	543.00
370.66	519.60
370.86	610.88
371.06	545.34
371.25	631.94
371.45	510.24
371.65	531.30
371.84	580.45
372.04	582.79
372.24	667.05
372.44	638.97
372.63	650.67
372.83	620.24
373.03	613.22
373.22	638.97
373.42	664.71
373.62	636.63
373.81	601.52
374.01	650.67
374.21	610.88
374.40	671.73
374.60	690.46
374.79	627.26
374.99	662.37
375.19	559.39
375.38	638.97
375.58	636.63
375.78	667.05
375.97	608.54
376.17	692.80
376.37	678.76
376.56	596.84
376.76	592.16
376.95	636.63
377.15	575.77
377.35	615.56
377.54	578.11
377.74	596.84
377.93	631.94
378.13	667.05
378.33	655.35
378.52	669.39
378.72	622.58
378.91	606.20
379.11	617.90
379.31	603.86
379.50	624.92
379.70	636.63
379.89	603.86
380.09	596.84
380.28	533.64
380.48	589.82
380.68	636.63
380.87	561.73
381.07	582.79
381.26	636.63
381.46	634.29
381.65	638.97
381.85	594.50
382.04	585.13
382.24	599.18
382.43	573.43
382.63	624.92
382.83	582.79
383.02	645.99
383.22	631.94
383.41	641.31
383.61	648.33
383.80	589.82
384.00	653.01
384.19	596.84
384.39	601.52
384.58	648.33
384.78	587.47
384.97	685.78
385.17	573.43
385.36	578.11
385.56	620.24
385.75	645.99
385.95	606.20
386.14	662.37
386.34	634.29
386.53	580.45
386.72	620.24
386.92	594.50
387.11	594.50
387.31	636.63
387.50	613.22
387.70	568.75
387.89	660.03
388.09	559.39
388.28	643.65
388.48	671.73
388.67	620.24
388.86	671.73
389.06	596.84
389.25	587.47
389.45	690.46
389.64	624.92
389.84	582.79
390.03	662.37
390.22	643.65
390.42	615.56
390.61	634.29
390.81	664.71
391.00	594.50
391.19	638.97
391.39	620.24
391.58	653.01
391.78	613.22
391.97	634.29
392.16	601.52
392.36	589.82
392.55	606.20
392.75	645.99
392.94	594.50
393.13	643.65
393.33	641.31
393.52	615.56
393.71	606.20
393.91	606.20
394.10	566.41
394.29	624.92
394.49	582.79
394.68	690.46
394.88	622.58
395.07	650.67
395.26	671.73
395.46	603.86
395.65	653.01
395.84	648.33
396.04	660.03
396.23	645.99
396.42	638.97
396.62	615.56
396.81	643.65
397.00	645.99
397.19	674.07
397.39	638.97
397.58	699.82
397.77	678.76
397.97	606.20
398.16	631.94
398.35	629.60
398.55	667.05
398.74	620.24
398.93	627.26
399.12	655.35
399.32	571.09
399.51	629.60
399.70	587.47
399.90	660.03
400.09	617.90
400.28	573.43
400.47	615.56
400.67	617.90
400.86	608.54
401.05	622.58
401.24	695.14
401.44	653.01
401.63	634.29
401.82	624.92
402.01	629.60
402.21	545.34
402.40	571.09
402.59	657.69
402.78	690.46
402.97	613.22
403.17	629.60
403.36	645.99
403.55	587.47
403.74	636.63
403.93	681.10
404.13	702.16
404.32	690.46
404.51	603.86
404.70	634.29
404.89	732.59
405.09	606.20
405.28	601.52
405.47	655.35
405.66	601.52
405.85	636.63
406.05	645.99
406.24	624.92
406.43	669.39
406.62	692.80
406.81	692.80
407.00	678.76
407.20	674.07
407.39	610.88
407.58	580.45
407.77	610.88
407.96	706.84
408.15	704.50
408.34	641.31
408.54	596.84
408.73	582.79
408.92	608.54
409.11	638.97
409.30	587.47
409.49	606.20
409.68	645.99
409.87	547.69
410.07	599.18
410.26	697.48
410.45	690.46
410.64	650.67
410.83	594.50
411.02	631.94
411.21	636.63
411.40	678.76
411.59	599.18
411.78	641.31
411.98	622.58
412.17	648.33
412.36	582.79
412.55	610.88
412.74	674.07
412.93	674.07
413.12	582.79
413.31	648.33
413.50	617.90
413.69	613.22
413.88	578.11
414.07	650.67
414.26	610.88
414.45	617.90
414.64	613.22
414.83	622.58
415.02	655.35
415.22	641.31
415.41	589.82
415.60	620.24
415.79	615.56
415.98	695.14
416.17	622.58
416.36	624.92
416.55	617.90
416.74	629.60
416.93	695.14
417.12	641.31
417.31	594.50
417.50	568.75
417.69	624.92
417.88	589.82
418.07	550.03
418.26	636.63
418.45	592.16
418.64	620.24
418.83	631.94
419.02	613.22
419.21	601.52
419.39	627.26
419.58	657.69
419.77	552.37
419.96	622.58
420.15	606.20
420.34	650.67
420.53	648.33
420.72	655.35
420.91	655.35
421.10	599.18
421.29	674.07
421.48	685.78
421.67	653.01
421.86	650.67
422.05	620.24
422.24	660.03
422.43	648.33
422.61	557.05
422.80	615.56
422.99	662.37
423.18	678.76
423.37	676.41
423.56	622.58
423.75	613.22
423.94	601.52
424.13	624.92
424.32	557.05
424.50	559.39
424.69	617.90
424.88	657.69
425.07	645.99
425.26	613.22
425.45	624.92
425.64	603.86
425.83	695.14
426.01	669.39
426.20	634.29
426.39	566.41
426.58	636.63
426.77	592.16
426.96	638.97
427.15	613.22
427.33	685.78
427.52	585.13
427.71	606.20
427.90	648.33
428.09	681.10
428.28	641.31
428.46	608.54
428.65	585.13
428.84	589.82
429.03	627.26
429.22	620.24
429.40	664.71
429.59	645.99
429.78	638.97
429.97	622.58
430.16	641.31
430.34	615.56
430.53	599.18
430.72	561.73
430.91	671.73
431.10	648.33
431.28	683.44
431.47	681.10
431.66	627.26
431.85	594.50
432.03	690.46
432.22	648.33
432.41	634.29
432.60	655.35
432.79	634.29
432.97	615.56
433.16	603.86
433.35	748.97
433.54	634.29
433.72	622.58
433.91	678.76
434.10	667.05
434.28	699.82
434.47	578.11
434.66	667.05
434.85	685.78
435.03	781.74
435.22	1020.47
435.41	1181.97
435.59	1097.71
435.78	952.60
435.97	889.40
436.16	777.06
436.34	669.39
436.53	645.99
436.72	674.07
436.90	643.65
437.09	655.35
437.28	657.69
437.46	622.58
437.65	631.94
437.84	664.71
438.02	634.29
438.21	617.90
438.40	648.33
438.58	662.37
438.77	685.78
438.96	662.37
439.14	678.76
439.33	608.54
439.52	706.84
439.70	634.29
439.89	645.99
440.08	610.88
440.26	596.84
440.45	643.65
440.63	664.71
440.82	608.54
441.01	624.92
441.19	587.47
441.38	608.54
441.57	634.29
441.75	648.33
441.94	660.03
442.12	720.88
442.31	643.65
442.50	645.99
442.68	578.11
442.87	725.57
443.05	601.52
443.24	566.41
443.43	631.94
443.61	671.73
443.80	662.37
443.98	676.41
444.17	641.31
444.35	709.18
444.54	566.41
444.73	629.60
444.91	643.65
445.10	671.73
445.28	641.31
445.47	638.97
445.65	599.18
445.84	582.79
446.02	636.63
446.21	615.56
446.39	594.50
446.58	589.82
446.77	620.24
446.95	582.79
447.14	634.29
447.32	674.07
447.51	585.13
447.69	613.22
447.88	655.35
448.06	636.63
448.25	653.01
448.43	622.58
448.62	603.86
448.80	575.77
448.99	634.29
449.17	655.35
449.36	648.33
449.54	727.91
449.73	631.94
449.91	655.35
450.10	676.41
450.28	676.41
450.46	716.20
450.65	629.60
450.83	650.67
451.02	620.24
451.20	599.18
451.39	664.71
451.57	667.05
451.76	662.37
451.94	662.37
452.13	725.57
452.31	667.05
452.49	669.39
452.68	603.86
452.86	662.37
453.05	643.65
453.23	643.65
453.42	674.07
453.60	674.07
453.78	655.35
453.97	592.16
454.15	566.41
454.34	571.09
454.52	620.24
454.70	683.44
454.89	676.41
455.07	695.14
455.26	734.93
455.44	596.84
455.62	634.29
455.81	606.20
455.99	709.18
456.17	629.60
456.36	603.86
456.54	641.31
456.73	627.26
456.91	634.29
457.09	615.56
457.28	596.84
457.46	613.22
457.64	613.22
457.83	674.07
458.01	683.44
458.19	667.05
458.38	676.41
458.56	582.79
458.74	641.31
458.93	575.77
459.11	650.67
459.29	664.71
459.48	613.22
459.66	676.41
459.84	671.73
460.03	709.18
460.21	629.60
460.39	636.63
460.57	573.43
460.76	585.13
460.94	608.54
461.12	657.69
461.31	695.14
461.49	580.45
461.67	704.50
461.85	662.37
462.04	657.69
462.22	954.94
462.40	641.31
462.59	716.20
462.77	688.12
462.95	685.78
463.13	624.92
463.32	702.16
463.50	671.73
463.68	695.14
463.86	706.84
464.05	674.07
464.23	634.29
464.41	634.29
464.59	648.33
464.78	636.63
464.96	660.03
465.14	641.31
465.32	636.63
465.50	662.37
465.69	573.43
465.87	690.46
466.05	692.80
466.23	643.65
466.41	554.71
466.60	655.35
466.78	671.73
466.96	683.44
467.14	681.10
467.32	674.07
467.51	730.25
467.69	627.26
467.87	662.37
468.05	638.97
468.23	688.12
468.41	620.24
468.60	669.39
468.78	662.37
468.96	669.39
469.14	683.44
469.32	657.69
469.50	645.99
469.69	688.12
469.87	615.56
470.05	610.88
470.23	578.11
470.41	603.86
470.59	601.52
470.77	699.82
470.95	662.37
471.14	709.18
471.32	685.78
471.50	610.88
471.68	671.73
471.86	660.03
472.04	723.23
472.22	554.71
472.40	573.43
472.58	631.94
472.77	615.56
472.95	648.33
473.13	617.90
473.31	671.73
473.49	669.39
473.67	676.41
473.85	695.14
474.03	636.63
474.21	638.97
474.39	653.01
474.57	653.01
474.75	629.60
474.93	709.18
475.12	636.63
475.30	648.33
475.48	641.31
475.66	645.99
475.84	648.33
476.02	664.71
476.20	737.27
476.38	674.07
476.56	727.91
476.74	561.73
476.92	662.37
477.10	627.26
477.28	634.29
477.46	678.76
477.64	643.65
477.82	620.24
478.00	629.60
478.18	678.76
478.36	650.67
478.54	653.01
478.72	657.69
478.90	615.56
479.08	641.31
479.26	645.99
479.44	638.97
479.62	662.37
479.80	589.82
479.98	683.44
480.16	702.16
480.34	657.69
480.52	638.97
480.70	704.50
480.88	608.54
481.06	613.22
481.24	660.03
481.41	641.31
481.59	634.29
481.77	636.63
481.95	641.31
482.13	699.82
482.31	685.78
482.49	596.84
482.67	683.44
482.85	620.24
483.03	678.76
483.21	765.36
483.39	713.86
483.57	674.07
483.74	678.76
483.92	692.80
484.10	688.12
484.28	624.92
484.46	753.65
484.64	627.26
484.82	634.29
485.00	727.91
485.18	638.97
485.35	692.80
485.53	720.88
485.71	730.25
485.89	674.07
486.07	662.37
486.25	741.95
486.43	681.10
486.61	713.86
486.78	741.95
486.96	734.93
487.14	699.82
487.32	746.63
487.50	732.59
487.68	734.93
487.85	667.05
488.03	734.93
488.21	755.99
488.39	674.07
488.57	786.42
488.75	723.23
488.92	809.83
489.10	695.14
489.28	727.91
489.46	648.33
489.64	781.74
489.81	660.03
489.99	669.39
490.17	692.80
490.35	732.59
490.53	711.52
490.70	638.97
490.88	643.65
491.06	702.16
491.24	737.27
491.41	737.27
491.59	667.05
491.77	720.88
491.95	669.39
492.13	725.57
492.30	744.29
492.48	720.88
492.66	653.01
492.84	737.27
493.01	645.99
493.19	699.82
493.37	784.08
493.54	706.84
493.72	723.23
493.90	678.76
494.08	657.69
494.25	786.42
494.43	711.52
494.61	662.37
494.79	622.58
494.96	695.14
495.14	711.52
495.32	676.41
495.49	739.61
495.67	669.39
495.85	667.05
496.02	690.46
496.20	695.14
496.38	634.29
496.55	678.76
496.73	744.29
496.91	678.76
497.09	795.78
497.26	667.05
497.44	641.31
497.62	709.18
497.79	667.05
497.97	615.56
498.14	674.07
498.32	634.29
498.50	674.07
498.67	699.82
498.85	629.60
499.03	683.44
499.20	688.12
499.38	669.39
499.56	655.35
499.73	748.97
499.91	688.12
500.08	732.59
500.26	622.58
500.44	645.99
500.61	653.01
500.79	653.01
500.97	690.46
501.14	706.84
501.32	582.79
501.49	653.01
501.67	688.12
501.84	641.31
502.02	660.03
502.20	807.48
502.37	704.50
502.55	699.82
502.72	657.69
502.90	704.50
503.07	660.03
503.25	702.16
503.43	648.33
503.60	734.93
503.78	669.39
503.95	627.26
504.13	636.63
504.30	655.35
504.48	664.71
504.65	660.03
504.83	760.67
505.01	624.92
505.18	699.82
505.36	650.67
505.53	634.29
505.71	587.47
505.88	636.63
506.06	709.18
506.23	615.56
506.41	648.33
506.58	671.73
506.76	713.86
506.93	627.26
507.11	620.24
507.28	653.01
507.46	545.34
507.63	617.90
507.81	683.44
507.98	601.52
508.16	713.86
508.33	669.39
508.50	676.41
508.68	641.31
508.85	678.76
509.03	620.24
509.20	629.60
509.38	620.24
509.55	638.97
509.73	669.39
509.90	695.14
510.08	636.63
510.25	660.03
510.42	702.16
510.60	610.88
510.77	638.97
510.95	648.33
511.12	636.63
511.30	648.33
511.47	653.01
511.64	744.29
511.82	650.67
511.99	650.67
512.17	620.24
512.34	674.07
512.51	627.26
512.69	636.63
512.86	589.82
513.04	606.20
513.21	627.26
513.38	650.67
513.56	664.71
513.73	603.86
513.90	641.31
514.08	664.71
514.25	697.48
514.43	657.69
514.60	617.90
514.77	648.33
514.95	695.14
515.12	573.43
515.29	596.84
515.47	627.26
515.64	596.84
515.81	688.12
515.99	692.80
516.16	685.78
516.33	650.67
516.51	622.58
516.68	624.92
516.85	629.60
517.03	678.76
517.20	575.77
517.37	657.69
517.54	664.71
517.72	641.31
517.89	650.67
518.06	704.50
518.24	697.48
518.41	737.27
518.58	676.41
518.75	554.71
518.93	589.82
519.10	653.01
519.27	634.29
519.45	690.46
519.62	716.20
519.79	620.24
519.96	653.01
520.14	645.99
520.31	674.07
520.48	690.46
520.65	741.95
520.83	653.01
521.00	653.01
521.17	613.22
521.34	643.65
521.52	678.76
521.69	692.80
521.86	636.63
522.03	660.03
522.20	667.05
522.38	643.65
522.55	655.35
522.72	622.58
522.89	671.73
523.07	688.12
523.24	594.50
523.41	634.29
523.58	636.63
523.75	629.60
523.92	674.07
524.10	657.69
524.27	711.52
524.44	620.24
524.61	725.57
524.78	723.23
524.96	667.05
525.13	573.43
525.30	657.69
525.47	667.05
525.64	629.60
525.81	624.92
525.98	645.99
526.16	650.67
526.33	674.07
526.50	566.41
526.67	617.90
526.84	699.82
527.01	664.71
527.18	667.05
527.36	720.88
527.53	615.56
527.70	636.63
527.87	601.52
528.04	660.03
528.21	685.78
528.38	713.86
528.55	620.24
528.72	615.56
528.89	695.14
529.07	718.54
529.24	655.35
529.41	695.14
529.58	702.16
529.75	653.01
529.92	692.80
530.09	662.37
530.26	664.71
530.43	692.80
530.60	681.10
530.77	695.14
530.94	716.20
531.11	734.93
531.28	636.63
531.46	631.94
531.63	709.18
531.80	634.29
531.97	638.97
532.14	730.25
532.31	627.26
532.48	739.61
532.65	674.07
532.82	725.57
532.99	765.36
533.16	624.92
533.33	716.20
533.50	655.35
533.67	624.92
533.84	629.60
534.01	664.71
534.18	716.20
534.35	641.31
534.52	683.44
534.69	716.20
534.86	737.27
535.03	660.03
535.20	699.82
535.37	669.39
535.54	702.16
535.71	655.35
535.88	702.16
536.05	643.65
536.22	641.31
536.38	648.33
536.55	716.20
536.72	800.46
536.89	744.29
537.06	716.20
537.23	716.20
537.40	716.20
537.57	746.63
537.74	744.29
537.91	748.97
538.08	814.51
538.25	767.70
538.42	758.33
538.59	882.38
538.75	765.36
538.92	800.46
539.09	706.84
539.26	835.57
539.43	847.27
539.60	856.64
539.77	821.53
539.94	812.17
540.11	875.36
540.28	985.37
540.44	1018.13
540.61	1027.50
540.78	1060.26
540.95	1076.65
541.12	1111.75
541.29	1151.54
541.46	1228.78
541.62	1254.53
541.79	1256.87
541.96	1296.66
542.13	1277.93
542.30	1252.19
542.47	1210.06
542.63	1196.01
542.80	1165.59
542.97	1299.00
543.14	1238.14
543.31	1186.65
543.48	1196.01
543.64	1242.82
543.81	1263.89
543.98	1139.84
544.15	1186.65
544.32	1177.29
544.48	1172.61
544.65	1177.29
544.82	1188.99
544.99	1221.76
545.16	1198.35
545.32	1231.12
545.49	1652.42
545.66	1989.46
545.83	2209.47
546.00	2040.95
546.16	1659.44
546.33	1507.30
546.50	1327.08
546.67	1205.38
546.83	1090.69
547.00	1006.43
547.17	985.37
547.34	1001.75
547.50	1022.81
547.67	964.30
547.84	950.26
548.00	924.51
548.17	891.74
548.34	863.66
548.51	999.41
548.67	968.98
548.84	873.02
549.01	964.30
549.18	877.70
549.34	884.72
549.51	887.06
549.68	866.00
549.84	861.32
550.01	770.04
550.18	847.27
550.34	858.98
550.51	816.85
550.68	805.14
550.84	739.61
551.01	807.48
551.18	723.23
551.34	753.65
551.51	744.29
551.68	767.70
551.84	734.93
552.01	758.33
552.18	709.18
552.34	777.06
552.51	800.46
552.68	723.23
552.84	678.76
553.01	692.80
553.18	699.82
553.34	676.41
553.51	690.46
553.67	723.23
553.84	723.23
554.01	770.04
554.17	720.88
554.34	718.54
554.51	744.29
554.67	706.84
554.84	671.73
555.00	692.80
555.17	730.25
555.33	753.65
555.50	664.71
555.67	688.12
555.83	660.03
556.00	709.18
556.16	760.67
556.33	706.84
556.50	697.48
556.66	702.16
556.83	634.29
556.99	699.82
557.16	655.35
557.32	606.20
557.49	645.99
557.65	662.37
557.82	667.05
557.98	669.39
558.15	620.24
558.32	711.52
558.48	664.71
558.65	631.94
558.81	645.99
558.98	624.92
559.14	711.52
559.31	594.50
559.47	730.25
559.64	755.99
559.80	669.39
559.97	702.16
560.13	599.18
560.30	692.80
560.46	681.10
560.63	660.03
560.79	664.71
560.96	629.60
561.12	608.54
561.29	585.13
561.45	676.41
561.61	706.84
561.78	767.70
561.94	692.80
562.11	620.24
562.27	660.03
562.44	683.44
562.60	645.99
562.77	653.01
562.93	690.46
563.10	662.37
563.26	662.37
563.42	674.07
563.59	678.76
563.75	660.03
563.92	641.31
564.08	716.20
564.24	634.29
564.41	734.93
564.57	657.69
564.74	662.37
564.90	587.47
565.07	648.33
565.23	683.44
565.39	678.76
565.56	674.07
565.72	636.63
565.88	641.31
566.05	692.80
566.21	706.84
566.38	671.73
566.54	643.65
566.70	695.14
566.87	734.93
567.03	629.60
567.19	671.73
567.36	716.20
567.52	655.35
567.68	692.80
567.85	758.33
568.01	685.78
568.17	568.75
568.34	718.54
568.50	641.31
568.66	627.26
568.83	739.61
568.99	638.97
569.15	739.61
569.32	608.54
569.48	645.99
569.64	716.20
569.81	699.82
569.97	718.54
570.13	713.86
570.30	653.01
570.46	645.99
570.62	660.03
570.78	716.20
570.95	643.65
571.11	629.60
571.27	692.80
571.43	641.31
571.60	660.03
571.76	622.58
571.92	713.86
572.09	594.50
572.25	603.86
572.41	592.16
572.57	674.07
572.74	739.61
572.90	720.88
573.06	645.99
573.22	671.73
573.38	631.94
573.55	608.54
573.71	566.41
573.87	711.52
574.03	713.86
574.20	620.24
574.36	662.37
574.52	676.41
574.68	627.26
574.84	613.22
575.01	690.46
575.17	641.31
575.33	629.60
575.49	727.91
575.65	716.20
575.82	596.84
575.98	671.73
576.14	645.99
576.30	765.36
576.46	830.89
576.62	957.28
576.79	957.28
576.95	842.59
577.11	791.10
577.27	737.27
577.43	823.87
577.59	758.33
577.75	699.82
577.92	737.27
578.08	683.44
578.24	678.76
578.40	748.97
578.56	809.83
578.72	835.57
578.88	931.53
579.04	854.30
579.21	805.14
579.37	793.44
579.53	753.65
579.69	751.31
579.85	835.57
580.01	753.65
580.17	770.04
580.33	732.59
580.49	725.57
580.65	833.23
580.82	755.99
580.98	716.20
581.14	727.91
581.30	683.44
581.46	739.61
581.62	727.91
581.78	758.33
581.94	786.42
582.10	732.59
582.26	709.18
582.42	781.74
582.58	786.42
582.74	779.40
582.90	770.04
583.06	777.06
583.22	798.12
583.38	807.48
583.54	816.85
583.70	741.95
583.86	802.80
584.02	802.80
584.18	833.23
584.34	814.51
584.50	758.33
584.66	786.42
584.82	786.42
584.98	781.74
585.14	802.80
585.30	791.10
585.46	770.04
585.62	798.12
585.78	765.36
585.94	779.40
586.10	760.67
586.26	718.54
586.42	802.80
586.58	744.29
586.74	877.70
586.90	908.13
587.06	882.38
587.22	926.85
587.38	814.51
587.54	802.80
587.70	844.93
587.86	844.93
588.02	748.97
588.18	772.38
588.34	805.14
588.49	676.41
588.65	746.63
588.81	720.88
588.97	702.16
589.13	755.99
589.29	713.86
589.45	723.23
589.61	763.01
589.77	765.36
589.93	781.74
590.08	767.70
590.24	636.63
590.40	723.23
590.56	751.31
590.72	671.73
590.88	753.65
591.04	788.76
591.20	727.91
591.35	765.36
591.51	791.10
591.67	748.97
591.83	781.74
591.99	755.99
592.15	763.01
592.31	774.72
592.46	720.88
592.62	823.87
592.78	795.78
592.94	755.99
593.10	791.10
593.26	786.42
593.41	795.78
593.57	744.29
593.73	786.42
593.89	727.91
594.05	814.51
594.20	821.53
594.36	760.67
594.52	755.99
594.68	699.82
594.84	727.91
594.99	748.97
595.15	681.10
595.31	716.20
595.47	643.65
595.62	690.46
595.78	704.50
595.94	725.57
596.10	711.52
596.25	685.78
596.41	718.54
596.57	709.18
596.73	690.46
596.88	683.44
597.04	692.80
597.20	699.82
597.36	683.44
597.51	683.44
597.67	716.20
597.83	734.93
597.99	774.72
598.14	697.48
598.30	744.29
598.46	795.78
598.61	807.48
598.77	772.38
598.93	716.20
599.09	786.42
599.24	748.97
599.40	763.01
599.56	709.18
599.71	800.46
599.87	692.80
600.03	765.36
600.18	709.18
600.34	734.93
600.50	765.36
600.65	671.73
600.81	770.04
600.97	690.46
601.12	702.16
601.28	720.88
601.44	667.05
601.59	688.12
601.75	702.16
601.91	683.44
602.06	678.76
602.22	791.10
602.37	650.67
602.53	655.35
602.69	725.57
602.84	643.65
603.00	617.90
603.16	699.82
603.31	688.12
603.47	638.97
603.62	662.37
603.78	699.82
603.94	713.86
604.09	667.05
604.25	685.78
604.40	739.61
604.56	713.86
604.71	688.12
604.87	645.99
605.03	704.50
605.18	706.84
605.34	709.18
605.49	720.88
605.65	716.20
605.80	664.71
605.96	683.44
606.12	678.76
606.27	711.52
606.43	718.54
606.58	704.50
606.74	723.23
606.89	695.14
607.05	755.99
607.20	765.36
607.36	683.44
607.51	667.05
607.67	777.06
607.82	697.48
607.98	702.16
608.13	732.59
608.29	664.71
608.44	774.72
608.60	763.01
608.75	786.42
608.91	830.89
609.06	765.36
609.22	837.91
609.37	847.27
609.53	858.98
609.68	917.49
