SpectraSuite Data File
++++++++++++++++++++++++++++++++++++
Date: Thu Oct 24 13:21:05 EDT 2013
User: stostad
Dark Spectrum Present: No
Reference Spectrum Present: No
Number of Sampled Component Spectra: 1
Spectrometers: USB2+H05261
Integration Time (usec): 100000 (USB2+H05261)
Spectra Averaged: 1 (USB2+H05261)
Boxcar Smoothing: 0 (USB2+H05261)
Correct for Electrical Dark: No (USB2+H05261)
Strobe/Lamp Enabled: No (USB2+H05261)
Correct for Detector Non-linearity: No (USB2+H05261)
Correct for Stray Light: No (USB2+H05261)
Number of Pixels in Processed Spectrum: 2048
>>>>>Begin Processed Spectral Data<<<<<
365.73	512.58
365.92	512.58
366.12	512.58
366.32	447.04
366.52	418.96
366.72	411.93
366.91	472.79
367.11	458.74
367.31	456.40
367.51	425.98
367.70	416.62
367.90	435.34
368.10	512.58
368.30	505.56
368.49	486.83
368.69	484.49
368.89	449.38
369.09	528.96
369.28	463.43
369.48	552.37
369.68	557.05
369.87	559.39
370.07	538.32
370.27	528.96
370.47	582.79
370.66	697.48
370.86	702.16
371.06	711.52
371.25	734.93
371.45	739.61
371.65	748.97
371.84	851.96
372.04	748.97
372.24	758.33
372.44	753.65
372.63	835.57
372.83	755.99
373.03	741.95
373.22	767.70
373.42	753.65
373.62	760.67
373.81	823.87
374.01	741.95
374.21	751.31
374.40	767.70
374.60	816.85
374.79	774.72
374.99	737.27
375.19	791.10
375.38	746.63
375.58	779.40
375.78	690.46
375.97	795.78
376.17	798.12
376.37	819.19
376.56	798.12
376.76	746.63
376.95	732.59
377.15	795.78
377.35	802.80
377.54	854.30
377.74	814.51
377.93	800.46
378.13	786.42
378.33	777.06
378.52	814.51
378.72	753.65
378.91	812.17
379.11	763.01
379.31	812.17
379.50	720.88
379.70	770.04
379.89	788.76
380.09	760.67
380.28	840.25
380.48	753.65
380.68	739.61
380.87	760.67
381.07	791.10
381.26	816.85
381.46	849.61
381.65	856.64
381.85	779.40
382.04	793.44
382.24	910.47
382.43	866.00
382.63	840.25
382.83	816.85
383.02	877.70
383.22	858.98
383.41	875.36
383.61	891.74
383.80	863.66
384.00	873.02
384.19	826.21
384.39	877.70
384.58	793.44
384.78	863.66
384.97	849.61
385.17	772.38
385.36	823.87
385.56	819.19
385.75	868.34
385.95	819.19
386.14	816.85
386.34	870.68
386.53	870.68
386.72	840.25
386.92	926.85
387.11	840.25
387.31	847.27
387.50	840.25
387.70	891.74
387.89	772.38
388.09	882.38
388.28	866.00
388.48	844.93
388.67	889.40
388.86	922.17
389.06	922.17
389.25	908.13
389.45	912.81
389.64	912.81
389.84	868.34
390.03	915.15
390.22	945.58
390.42	940.90
390.61	901.11
390.81	866.00
391.00	952.60
391.19	990.05
391.39	884.72
391.58	964.30
391.78	980.68
391.97	952.60
392.16	903.45
392.36	959.62
392.55	957.28
392.75	940.90
392.94	964.30
393.13	924.51
393.33	922.17
393.52	896.43
393.71	1039.20
393.91	992.39
394.10	901.11
394.29	938.55
394.49	950.26
394.68	994.73
394.88	957.28
395.07	987.71
395.26	990.05
395.46	990.05
395.65	1027.50
395.84	980.68
396.04	976.00
396.23	1062.60
396.42	1011.11
396.62	1018.13
396.81	1015.79
397.00	1076.65
397.19	994.73
397.39	1090.69
397.58	1071.97
397.77	1067.28
397.97	973.66
398.16	983.02
398.35	1050.90
398.55	1071.97
398.74	999.41
398.93	1116.44
399.12	1064.94
399.32	1048.56
399.51	1121.12
399.70	1041.54
399.90	1046.22
400.09	1048.56
400.28	1137.50
400.47	1121.12
400.67	1128.14
400.86	1142.18
401.05	1043.88
401.24	1067.28
401.44	1074.31
401.63	1083.67
401.82	1160.91
402.01	1196.01
402.21	1144.52
402.40	1193.67
402.59	1198.35
402.78	1165.59
402.97	1116.44
403.17	1128.14
403.36	1233.46
403.55	1095.37
403.74	1235.80
403.93	1217.08
404.13	1289.64
404.32	1289.64
404.51	1301.34
404.70	1156.22
404.89	1170.27
405.09	1268.57
405.28	1231.12
405.47	1146.86
405.66	1336.45
405.85	1214.74
406.05	1224.10
406.24	1254.53
406.43	1217.08
406.62	1289.64
406.81	1352.83
407.00	1352.83
407.20	1310.70
407.39	1158.57
407.58	1289.64
407.77	1313.04
407.96	1277.93
408.15	1280.27
408.34	1254.53
408.54	1359.85
408.73	1348.15
408.92	1357.51
409.11	1315.38
409.30	1371.55
409.49	1423.05
409.68	1369.21
409.87	1287.29
410.07	1338.79
410.26	1462.83
410.45	1404.32
410.64	1366.87
410.83	1371.55
411.02	1425.39
411.21	1453.47
411.40	1540.07
411.59	1453.47
411.78	1458.15
411.98	1387.94
412.17	1554.12
412.36	1469.86
412.55	1533.05
412.74	1425.39
412.93	1535.39
413.12	1490.92
413.31	1614.97
413.50	1465.18
413.69	1528.37
413.88	1568.16
414.07	1586.88
414.26	1633.69
414.45	1563.48
414.64	1610.29
414.83	1514.33
415.02	1502.62
415.22	1596.25
415.41	1577.52
415.60	1671.14
415.79	1640.72
415.98	1788.17
416.17	1589.22
416.36	1626.67
416.55	1617.31
416.74	1680.50
416.93	1645.40
417.12	1631.35
417.31	1717.95
417.50	1755.40
417.69	1760.08
417.88	1764.76
418.07	1797.53
418.26	1762.42
418.45	1750.72
418.64	1893.49
418.83	1743.70
419.02	1783.49
419.21	1839.66
419.39	1764.76
419.58	1870.09
419.77	1764.76
419.96	1863.07
420.15	1921.58
420.34	1802.21
420.53	1898.17
420.72	1881.79
420.91	1797.53
421.10	1898.17
421.29	1893.49
421.48	1820.94
421.67	1888.81
421.86	1809.23
422.05	1877.11
422.24	1853.70
422.43	1874.77
422.61	1874.77
422.80	1923.92
422.99	1867.75
423.18	1975.41
423.37	1923.92
423.56	1909.88
423.75	1874.77
423.94	1858.39
424.13	1870.09
424.32	1874.77
424.50	1898.17
424.69	1980.09
424.88	1975.41
425.07	1849.02
425.26	1891.15
425.45	1940.30
425.64	1853.70
425.83	1921.58
426.01	1926.26
426.20	2001.16
426.39	1975.41
426.58	1961.37
426.77	1891.15
426.96	1839.66
427.15	1961.37
427.33	1947.33
427.52	1926.26
427.71	1952.01
427.90	1987.11
428.09	1970.73
428.28	2017.54
428.46	1991.80
428.65	2087.76
428.84	2057.33
429.03	2083.08
429.22	1923.92
429.40	1968.39
429.59	2038.61
429.78	2036.27
429.97	2101.80
430.16	2069.03
430.34	2052.65
430.53	1989.46
430.72	2129.89
430.91	2097.12
431.10	2099.46
431.28	2113.50
431.47	2162.66
431.66	2111.16
431.85	2179.04
432.03	2260.96
432.22	2258.62
432.41	2162.66
432.60	2174.36
432.79	2071.37
432.97	2239.89
433.16	2174.36
433.35	2275.00
433.54	2305.43
433.72	2260.96
433.91	2232.87
434.10	2223.51
434.28	2284.36
434.47	2235.21
434.66	2188.40
434.85	2256.28
435.03	2518.42
435.22	2649.49
435.41	2628.42
435.59	2677.57
435.78	2644.81
435.97	2537.14
436.16	2473.95
436.34	2345.22
436.53	2242.23
436.72	2370.96
436.90	2333.51
437.09	2321.81
437.28	2363.94
437.46	2445.86
437.65	2352.24
437.84	2436.50
438.02	2431.82
438.21	2401.39
438.40	2335.85
438.58	2406.07
438.77	2385.01
438.96	2434.16
439.14	2511.39
439.33	2621.40
439.52	2464.58
439.70	2511.39
439.89	2586.29
440.08	2576.93
440.26	2565.23
440.45	2609.70
440.63	2586.29
440.82	2651.83
441.01	2567.57
441.19	2691.62
441.38	2614.38
441.57	2635.44
441.75	2565.23
441.94	2679.91
442.12	2675.23
442.31	2782.90
442.50	2689.28
442.68	2757.15
442.87	2768.85
443.05	2778.22
443.24	2717.36
443.43	2843.75
443.61	2818.00
443.80	2773.53
443.98	2818.00
444.17	2736.09
444.35	2747.79
444.54	2853.11
444.73	2757.15
444.91	2787.58
445.10	2867.16
445.28	2829.71
445.47	2832.05
445.65	2909.29
445.84	2963.12
446.02	2801.62
446.21	2883.54
446.39	2789.92
446.58	2815.66
446.77	2871.84
446.95	2820.35
447.14	2752.47
447.32	2972.48
447.51	2853.11
447.69	2843.75
447.88	2874.18
448.06	2883.54
448.25	2855.45
448.43	2972.48
448.62	2881.20
448.80	2768.85
448.99	2885.88
449.17	2993.55
449.36	2916.31
449.54	2958.44
449.73	3002.91
449.91	3016.95
450.10	2937.37
450.28	2958.44
450.46	2993.55
450.65	3096.53
450.83	3007.59
451.02	2998.23
451.20	3016.95
451.39	2993.55
451.57	3084.83
451.76	3040.36
451.94	2937.37
452.13	3026.31
452.31	3049.72
452.49	3091.85
452.68	3066.10
452.86	3117.59
453.05	3141.00
453.23	3283.77
453.42	3129.30
453.60	3119.93
453.78	3162.06
453.97	3054.40
454.15	3042.70
454.34	3033.33
454.52	3108.23
454.70	3206.53
454.89	3180.79
455.07	3187.81
455.26	3136.32
455.44	3178.45
455.62	3166.74
455.81	3194.83
455.99	3258.03
456.17	3307.18
456.36	3300.16
456.54	3232.28
456.73	3405.48
456.91	3471.01
457.09	3302.50
457.28	3290.79
457.46	3342.28
457.64	3463.99
457.83	3447.61
458.01	3384.41
458.19	3368.03
458.38	3452.29
458.56	3499.10
458.74	3405.48
458.93	3515.48
459.11	3346.97
459.29	3398.46
459.48	3447.61
459.66	3541.23
459.84	3487.40
460.03	3571.66
460.21	3536.55
460.39	3442.93
460.57	3501.44
460.76	3494.42
460.94	3651.24
461.12	3508.46
461.31	3522.51
461.49	3473.36
461.67	3494.42
461.85	3616.13
462.04	3679.32
462.22	3815.07
462.40	3658.26
462.59	3606.77
462.77	3510.80
462.95	3543.57
463.13	3592.72
463.32	3625.49
463.50	3742.52
463.68	3768.26
463.86	3712.09
464.05	3646.55
464.23	3796.35
464.41	3733.15
464.59	3646.55
464.78	3742.52
464.96	3712.09
465.14	3653.58
465.32	3735.50
465.50	3875.93
465.69	3861.88
465.87	3840.82
466.05	3686.34
466.23	3702.73
466.41	3791.67
466.60	3889.97
466.78	3847.84
466.96	3927.42
467.14	3801.03
467.32	3871.25
467.51	3943.80
467.69	3845.50
467.87	3726.13
468.05	3873.59
468.23	3632.51
468.41	3850.18
468.60	3936.78
468.78	3976.57
468.96	3761.24
469.14	3929.76
469.32	3925.08
469.50	3833.80
469.69	3997.64
469.87	4021.04
470.05	3943.80
470.23	3992.95
470.41	4016.36
470.59	4028.06
470.77	4016.36
470.95	4093.60
471.14	4014.02
471.32	4009.34
471.50	4159.13
471.68	4009.34
471.86	4086.58
472.04	4060.83
472.22	4142.75
472.40	4093.60
472.58	4147.43
472.77	4222.33
472.95	4205.94
473.13	4425.95
473.31	4294.88
473.49	4346.37
473.67	4222.33
473.85	4348.72
474.03	4404.89
474.21	4276.16
474.39	4437.66
474.57	4416.59
474.75	4638.94
474.93	4418.93
475.12	4472.76
475.30	4386.16
475.48	4491.49
475.66	4489.15
475.84	4540.64
476.02	4627.24
476.20	4613.20
476.38	4631.92
476.56	4650.64
476.74	4741.93
476.92	4737.24
477.10	4781.71
477.28	4805.12
477.46	4751.29
477.64	4767.67
477.82	4943.21
478.00	4954.91
478.18	4952.57
478.36	4917.47
478.54	5018.11
478.72	5053.22
478.90	5085.98
479.08	5252.16
479.26	5050.88
479.44	5188.97
479.62	5174.92
479.80	5242.80
479.98	5233.44
480.16	5301.31
480.34	5387.91
480.52	5413.66
480.70	5338.76
480.88	5397.28
481.06	5298.97
481.24	5544.73
481.41	5366.85
481.59	5600.90
481.77	5554.09
481.95	5783.46
482.13	5727.29
482.31	5703.89
482.49	5809.21
482.67	5858.36
482.85	5668.78
483.03	5928.58
483.21	5919.21
483.39	6019.86
483.57	5949.64
483.74	6209.44
483.92	6108.80
484.10	6190.72
484.28	6256.25
484.46	6207.10
484.64	6272.64
484.82	6218.80
485.00	6298.38
485.18	6534.78
485.35	6663.51
485.53	6473.92
485.71	6520.73
485.89	6644.78
486.07	6689.25
486.25	6738.40
486.43	6513.71
486.61	6778.19
486.78	6729.04
486.96	6860.11
487.14	6967.77
487.32	6923.30
487.50	6895.22
487.68	7157.36
487.85	7162.04
488.03	7059.06
488.21	7178.42
488.39	7115.23
488.57	7176.08
488.75	7330.56
488.92	7417.16
489.10	7489.71
489.28	7550.57
489.46	7646.53
489.64	7489.71
489.81	7721.43
489.99	7550.57
490.17	7520.14
490.35	7829.09
490.53	7864.20
490.70	7819.73
490.88	7798.66
491.06	7882.92
491.24	7810.37
491.41	7920.37
491.59	8030.38
491.77	8173.15
491.95	8166.13
492.13	8175.49
492.30	7960.16
492.48	8025.70
492.66	8177.83
492.84	8320.60
493.01	8353.37
493.19	8383.80
493.37	8533.59
493.54	8339.33
493.72	8589.77
493.90	8381.46
494.08	8531.25
494.25	8659.98
494.43	8894.04
494.61	8795.73
494.79	8863.61
494.96	8725.52
495.14	8847.22
495.32	8896.38
495.49	9109.36
495.67	9034.47
495.85	9062.55
496.02	9074.26
496.20	9212.35
496.38	9359.80
496.55	9298.95
496.73	9352.78
496.91	9415.98
497.09	9518.96
497.26	9378.53
497.44	9479.17
497.62	9561.09
497.79	9617.26
497.97	9582.15
498.14	9507.26
498.32	9554.07
498.50	9680.46
498.67	9619.60
498.85	9748.33
499.03	9848.97
499.20	9755.35
499.38	9872.38
499.56	9774.08
499.73	9891.10
499.91	9905.15
500.08	10052.60
500.26	9888.76
500.44	10031.54
500.61	10272.61
500.79	9968.34
500.97	10216.44
501.14	10293.68
501.32	10183.67
501.49	10263.25
501.67	10204.74
501.84	10338.15
502.02	10296.02
502.20	10314.74
502.37	10532.41
502.55	10279.63
502.72	10326.44
502.90	10518.37
503.07	10291.34
503.25	10581.56
503.43	10462.19
503.60	10611.99
503.78	10750.08
503.95	10689.23
504.13	10616.67
504.30	10670.50
504.48	10853.06
504.65	10703.27
504.83	10778.17
505.01	10923.28
505.18	10904.56
505.36	11082.44
505.53	10906.90
505.71	11037.97
505.88	11220.53
506.06	11061.37
506.23	11063.71
506.41	11012.22
506.58	10984.13
506.76	11126.91
506.93	11283.72
507.11	11007.54
507.28	11234.57
507.46	11248.61
507.63	11302.45
507.81	11566.93
507.98	11075.42
508.16	11382.03
508.33	11496.71
508.50	11552.88
508.68	11545.86
508.85	11648.85
509.03	11733.11
509.20	11606.72
509.38	11763.53
509.55	11616.08
509.73	11742.47
509.90	11892.26
510.08	11522.46
510.25	11627.78
510.42	11754.17
510.60	12042.06
510.77	11857.15
510.95	11918.01
511.12	11899.28
511.30	11880.56
511.47	12205.89
511.64	11892.26
511.82	12262.07
511.99	12051.42
512.17	11887.58
512.34	12177.81
512.51	12376.75
512.69	12105.25
512.86	12210.57
513.04	12341.64
513.21	12369.73
513.38	12205.89
513.56	12545.27
513.73	12170.79
513.90	12526.55
514.08	12578.04
514.25	12542.93
514.43	12451.65
514.60	12776.98
514.77	12388.46
514.95	12556.97
515.12	12542.93
515.29	12444.63
515.47	12751.24
515.64	12875.29
515.81	12741.88
515.99	12917.42
516.16	12765.28
516.33	12961.89
516.51	12758.26
516.68	12863.58
516.85	12847.20
517.03	12924.44
517.20	12882.31
517.37	12800.39
517.54	12638.89
517.72	12959.55
517.89	12989.97
518.06	13074.23
518.24	13095.30
518.41	12943.16
518.58	12966.57
518.75	13224.03
518.93	13099.98
519.10	13263.82
519.27	13404.25
519.45	13338.71
519.62	13240.41
519.79	13142.11
519.96	13085.94
520.14	13238.07
520.31	13287.22
520.48	13256.79
520.65	13404.25
520.83	13420.63
521.00	13301.26
521.17	13458.08
521.34	13261.48
521.52	13584.47
521.69	13495.53
521.86	13657.03
522.03	13701.50
522.20	13673.41
522.38	13584.47
522.55	13654.69
522.72	13715.54
522.89	13713.20
523.07	13703.84
523.24	13837.25
523.41	13877.04
523.58	13678.09
523.75	13771.71
523.92	13467.44
524.10	14010.45
524.27	14017.47
524.44	14087.68
524.61	13804.48
524.78	14005.77
524.96	13970.66
525.13	14038.53
525.30	14384.93
525.47	14209.39
525.64	13961.30
525.81	14235.14
525.98	14171.94
526.16	13958.96
526.33	14230.46
526.50	14375.57
526.67	14391.95
526.84	14295.99
527.01	14312.38
527.18	14279.61
527.36	14452.81
527.53	14153.22
527.70	14413.02
527.87	14277.27
528.04	14745.38
528.21	14324.08
528.38	14483.24
528.55	14719.63
528.72	14586.22
528.89	14480.89
529.07	14565.15
529.24	14429.40
529.41	14516.00
529.58	14534.73
529.75	14555.79
529.92	14565.15
530.09	14623.67
530.26	14675.16
530.43	14689.20
530.60	14675.16
530.77	14398.98
530.94	15073.05
531.11	14579.20
531.28	14909.21
531.46	14836.66
531.63	14803.89
531.80	14787.50
531.97	15002.83
532.14	14958.36
532.31	14918.57
532.48	14972.41
532.65	15274.34
532.82	14946.66
532.99	15030.92
533.16	14843.68
533.33	14946.66
533.50	15255.61
533.67	14995.81
533.84	14939.64
534.01	15108.16
534.18	15262.63
534.35	15468.60
534.52	15075.39
534.69	15164.33
534.86	15204.12
535.03	15087.09
535.20	15257.95
535.37	15370.30
535.54	15246.25
535.71	15374.98
535.88	15669.89
536.05	15445.20
536.22	15620.74
536.38	15243.91
536.55	15484.98
536.72	15288.38
536.89	15578.61
537.06	15866.49
537.23	15510.73
537.40	15503.71
537.57	15646.48
537.74	15915.64
537.91	15768.19
538.08	15868.83
538.25	15445.20
538.42	15384.34
538.59	15803.30
538.75	15697.97
538.92	15831.38
539.09	15517.75
539.26	15836.06
539.43	15765.85
539.60	15744.78
539.77	15889.90
539.94	15908.62
540.11	15950.75
540.28	15868.83
540.44	15932.03
540.61	16257.36
540.78	15716.70
540.95	15964.79
541.12	16182.46
541.29	16210.55
541.46	16184.80
541.62	16287.79
541.79	16428.22
541.96	16355.66
542.13	16561.63
542.30	16332.26
542.47	16409.50
542.63	16496.10
542.80	16631.85
542.97	16851.86
543.14	16657.59
543.31	16744.19
543.48	16589.72
543.64	16950.16
543.81	16760.58
543.98	16931.44
544.15	16697.38
544.32	16786.32
544.48	16931.44
544.65	16528.86
544.82	16615.46
544.99	16620.14
545.16	17137.40
545.32	16987.61
545.49	17095.27
545.66	17399.54
545.83	17935.53
546.00	17507.21
546.16	17441.67
546.33	17312.94
546.50	17200.60
546.67	16952.50
546.83	16936.12
547.00	16709.08
547.17	16664.61
547.34	16798.02
547.50	16868.24
547.67	16905.69
547.84	16650.57
548.00	16943.14
548.17	17158.47
548.34	16809.73
548.51	16879.94
548.67	16980.59
548.84	17165.49
549.01	16805.05
549.18	17289.54
549.34	17043.78
549.51	17083.57
549.68	17158.47
549.84	16617.80
550.01	16973.56
550.18	16872.92
550.34	16776.96
550.51	16978.25
550.68	17160.81
550.84	17006.33
551.01	16917.39
551.18	17308.26
551.34	16833.13
551.51	17263.79
551.68	16985.27
551.84	16695.04
552.01	16851.86
552.18	17095.27
552.34	17099.95
552.51	16964.20
552.68	17003.99
552.84	16791.00
553.01	17001.65
553.18	17114.00
553.34	17118.68
553.51	16826.11
553.67	16910.37
553.84	17301.24
554.01	17296.56
554.17	16865.90
554.34	17041.44
554.51	17259.11
554.67	17331.67
554.84	17146.76
555.00	16812.07
555.17	17275.49
555.33	17053.14
555.50	16800.37
555.67	17149.11
555.83	17160.81
556.00	17153.79
556.16	17029.74
556.33	17315.28
556.50	17205.28
556.66	17085.91
556.83	17341.03
556.99	17570.40
557.16	17460.40
557.32	17254.43
557.49	17326.99
557.65	16978.25
557.82	17331.67
557.98	17261.45
558.15	17303.58
558.32	17481.46
558.48	17202.94
558.65	17214.64
558.81	17404.22
558.98	17235.70
559.14	17385.50
559.31	17397.20
559.47	17444.01
559.64	17638.28
559.80	17675.73
559.97	17303.58
560.13	17209.96
560.30	17121.02
560.46	17561.04
560.63	16982.93
560.79	17444.01
560.96	17607.85
561.12	17322.30
561.29	17446.35
561.45	17249.75
561.61	17462.74
561.78	17591.47
561.94	17561.04
562.11	17657.00
562.27	17720.20
562.44	17322.30
562.60	17413.59
562.77	17619.55
562.93	17642.96
563.10	17699.13
563.26	17355.07
563.42	17612.53
563.59	17907.44
563.75	17521.25
563.92	17823.18
564.08	17781.05
564.24	17673.39
564.41	17479.12
564.57	17795.09
564.74	17589.13
564.90	17589.13
565.07	17465.08
565.23	17717.86
565.39	17680.41
565.56	17818.50
565.72	17769.35
565.88	17898.08
566.05	17687.43
566.21	17858.29
566.38	17645.30
566.54	17710.83
566.70	17956.59
566.87	17568.06
567.03	17743.60
567.19	17844.24
567.36	17895.74
567.52	17511.89
567.68	17692.11
567.85	17582.10
568.01	17490.82
568.17	17680.41
568.34	17736.58
568.50	17600.83
568.66	17902.76
568.83	17923.82
568.99	17776.37
569.15	17577.42
569.32	17568.06
569.48	17727.22
569.64	17895.74
569.81	17572.74
569.97	17741.26
570.13	17692.11
570.30	17561.04
570.46	17652.32
570.62	17326.99
570.78	17727.22
570.95	17853.61
571.11	18012.76
571.27	17554.02
571.43	17696.79
571.60	17977.65
571.76	17921.48
571.92	17635.94
572.09	17514.23
572.25	17933.18
572.41	17949.57
572.57	17884.03
572.74	18087.66
572.90	17757.64
573.06	17984.68
573.22	17692.11
573.38	17776.37
573.55	17528.27
573.71	17977.65
573.87	17884.03
574.03	17902.76
574.20	17902.76
574.36	17731.90
574.52	17989.36
574.68	17895.74
574.84	17612.53
575.01	17881.69
575.17	18080.64
575.33	17699.13
575.49	17673.39
575.65	17799.77
575.82	17884.03
575.98	17869.99
576.14	17661.68
576.30	17975.31
576.46	18148.51
576.62	18221.07
576.79	18370.86
576.95	18101.70
577.11	18075.96
577.27	18363.84
577.43	17886.37
577.59	17947.23
577.75	17830.20
577.92	18012.76
578.08	17743.60
578.24	17673.39
578.40	18101.70
578.56	18022.12
578.72	18286.61
578.88	18258.52
579.04	18097.02
579.21	18129.79
579.37	18228.09
579.53	18270.22
579.69	18061.91
579.85	18185.96
580.01	18267.88
580.17	17916.80
580.33	18003.40
580.49	17855.95
580.65	17722.54
580.82	17888.71
580.98	17844.24
581.14	17811.48
581.30	18195.32
581.46	17930.84
581.62	17879.35
581.78	18015.10
581.94	18036.17
582.10	17905.10
582.26	17837.22
582.42	17994.04
582.58	18061.91
582.74	18024.47
582.90	18251.50
583.06	18015.10
583.22	18033.83
583.38	17956.59
583.54	17975.31
583.70	17785.73
583.86	18160.22
584.02	18090.00
584.18	18347.46
584.34	18150.85
584.50	18221.07
584.66	17900.42
584.82	17996.38
584.98	18036.17
585.14	18071.28
585.30	18424.70
585.46	18197.67
585.62	17778.71
585.78	18113.41
585.94	18111.07
586.10	18293.63
586.26	18139.15
586.42	18073.62
586.58	18305.33
586.74	18492.57
586.90	18139.15
587.06	18031.49
587.22	18370.86
587.38	18108.72
587.54	18354.48
587.70	18141.49
587.86	18342.78
588.02	18078.30
588.18	18260.86
588.34	18146.17
588.49	18326.39
588.65	18230.43
588.81	18024.47
588.97	18185.96
589.13	18183.62
589.29	18059.57
589.45	18167.24
589.61	18298.31
589.77	18244.48
589.93	18328.74
590.08	18317.03
590.24	18101.70
590.40	18209.37
590.56	18207.03
590.72	18216.39
590.88	17764.67
591.04	17991.70
591.20	18185.96
591.35	18218.73
591.51	18188.30
591.67	18019.78
