SpectraSuite Data File
++++++++++++++++++++++++++++++++++++
Date: Thu Oct 24 13:21:27 EDT 2013
User: stostad
Dark Spectrum Present: No
Reference Spectrum Present: No
Number of Sampled Component Spectra: 1
Spectrometers: USB2+H05261
Integration Time (usec): 100000 (USB2+H05261)
Spectra Averaged: 1 (USB2+H05261)
Boxcar Smoothing: 0 (USB2+H05261)
Correct for Electrical Dark: No (USB2+H05261)
Strobe/Lamp Enabled: No (USB2+H05261)
Correct for Detector Non-linearity: No (USB2+H05261)
Correct for Stray Light: No (USB2+H05261)
Number of Pixels in Processed Spectrum: 2048
>>>>>Begin Processed Spectral Data<<<<<
365.73	564.07
365.92	564.07
366.12	564.07
366.32	458.74
366.52	521.94
366.72	517.26
366.91	475.13
367.11	409.59
367.31	444.70
367.51	423.64
367.70	435.34
367.90	463.43
368.10	465.77
368.30	475.13
368.49	430.66
368.69	447.04
368.89	468.11
369.09	521.94
369.28	451.72
369.48	472.79
369.68	486.83
369.87	533.64
370.07	512.58
370.27	585.13
370.47	655.35
370.66	952.60
370.86	964.30
371.06	1008.77
371.25	973.66
371.45	1097.71
371.65	1015.79
371.84	1013.45
372.04	1039.20
372.24	1074.31
372.44	1060.26
372.63	1041.54
372.83	1062.60
373.03	1104.73
373.22	1104.73
373.42	1043.88
373.62	1121.12
373.81	1146.86
374.01	1146.86
374.21	1167.93
374.40	1114.10
374.60	1158.57
374.79	1149.20
374.99	1179.63
375.19	1196.01
375.38	1186.65
375.58	1114.10
375.78	1196.01
375.97	1193.67
376.17	1263.89
376.37	1221.76
376.56	1217.08
376.76	1205.38
376.95	1217.08
377.15	1287.29
377.35	1263.89
377.54	1296.66
377.74	1228.78
377.93	1233.46
378.13	1233.46
378.33	1191.33
378.52	1242.82
378.72	1345.81
378.91	1212.40
379.11	1277.93
379.31	1277.93
379.50	1266.23
379.70	1273.25
379.89	1409.00
380.09	1282.61
380.28	1301.34
380.48	1390.28
380.68	1369.21
380.87	1327.08
381.07	1385.60
381.26	1411.34
381.46	1404.32
381.65	1404.32
381.85	1420.71
382.04	1413.68
382.24	1345.81
382.43	1383.26
382.63	1397.30
382.83	1406.66
383.02	1488.58
383.22	1425.39
383.41	1432.41
383.61	1469.86
383.80	1479.22
384.00	1462.83
384.19	1441.77
384.39	1411.34
384.58	1425.39
384.78	1535.39
384.97	1460.49
385.17	1409.00
385.36	1582.20
385.56	1570.50
385.75	1540.07
385.95	1437.09
386.14	1540.07
386.34	1540.07
386.53	1523.69
386.72	1549.43
386.92	1575.18
387.11	1563.48
387.31	1659.44
387.50	1657.10
387.70	1584.54
387.89	1600.93
388.09	1535.39
388.28	1654.76
388.48	1680.50
388.67	1671.14
388.86	1593.90
389.06	1750.72
389.25	1617.31
389.45	1689.87
389.64	1633.69
389.84	1703.91
390.03	1715.61
390.22	1825.62
390.42	1631.35
390.61	1680.50
390.81	1732.00
391.00	1802.21
391.19	1797.53
391.39	1788.17
391.58	1783.49
391.78	1834.98
391.97	1837.32
392.16	1870.09
392.36	1923.92
392.55	1764.76
392.75	1907.54
392.94	1886.47
393.13	1888.81
393.33	1886.47
393.52	1865.41
393.71	1947.33
393.91	1954.35
394.10	1895.83
394.29	1900.52
394.49	1944.99
394.68	2050.31
394.88	1916.90
395.07	1984.77
395.26	1987.11
395.46	2019.88
395.65	2111.16
395.84	1961.37
396.04	2083.08
396.23	2132.23
396.42	2052.65
396.62	2132.23
396.81	2155.63
397.00	2104.14
397.19	2141.59
397.39	2169.68
397.58	2181.38
397.77	2165.00
397.97	2275.00
398.16	2197.76
398.35	2368.62
398.55	2101.80
398.74	2298.41
398.93	2235.21
399.12	2284.36
399.32	2209.47
399.51	2300.75
399.70	2347.56
399.90	2258.62
400.09	2363.94
400.28	2495.01
400.47	2450.54
400.67	2387.35
400.86	2406.07
401.05	2443.52
401.24	2495.01
401.44	2429.48
401.63	2539.48
401.82	2513.74
402.01	2452.88
402.21	2441.18
402.40	2581.61
402.59	2499.69
402.78	2565.23
402.97	2616.72
403.17	2612.04
403.36	2635.44
403.55	2551.18
403.74	2761.83
403.93	2715.02
404.13	2712.68
404.32	2747.79
404.51	2693.96
404.70	2843.75
404.89	2832.05
405.09	2822.69
405.28	2827.37
405.47	2883.54
405.66	2874.18
405.85	2963.12
406.05	2913.97
406.24	2862.48
406.43	2944.39
406.62	3035.67
406.81	3035.67
407.00	2918.65
407.20	2904.60
407.39	2930.35
407.58	3073.12
407.77	3077.80
407.96	3002.91
408.15	3124.62
408.34	3108.23
408.54	3159.72
408.73	3136.32
408.92	3234.62
409.11	3234.62
409.30	3281.43
409.49	3236.96
409.68	3288.45
409.87	3255.69
410.07	3213.56
410.26	3311.86
410.45	3356.33
410.64	3454.63
410.83	3480.38
411.02	3557.61
411.21	3581.02
411.40	3534.21
411.59	3646.55
411.78	3482.72
411.98	3529.53
412.17	3613.79
412.36	3662.94
412.55	3684.00
412.74	3695.71
412.93	3686.34
413.12	3756.56
413.31	3887.63
413.50	3981.25
413.69	3838.48
413.88	3964.87
414.07	3817.41
414.26	3962.53
414.45	4117.00
414.64	4063.17
414.83	4037.42
415.02	4140.41
415.22	4198.92
415.41	4308.93
415.60	4133.39
415.79	4229.35
415.98	4231.69
416.17	4201.26
416.36	4285.52
416.55	4418.93
416.74	4472.76
416.93	4203.60
417.12	4479.79
417.31	4594.47
417.50	4538.30
417.69	4613.20
417.88	4585.11
418.07	4669.37
418.26	4554.68
418.45	4517.23
418.64	4844.91
418.83	4812.14
419.02	4688.09
419.21	4835.55
419.39	4795.76
419.58	4807.46
419.77	4795.76
419.96	5018.11
420.15	5041.51
420.34	4931.51
420.53	4823.84
420.72	4870.65
420.91	5013.43
421.10	4945.55
421.29	5095.35
421.48	4936.19
421.67	5013.43
421.86	5039.17
422.05	5118.75
422.24	5170.24
422.43	5203.01
422.61	5373.87
422.80	5256.84
422.99	5348.12
423.18	5205.35
423.37	5336.42
423.56	5195.99
423.75	5114.07
423.94	5118.75
424.13	4924.49
424.32	5100.03
424.50	5341.10
424.69	5465.15
424.88	5394.93
425.07	5158.54
425.26	5137.48
425.45	5247.48
425.64	5359.83
425.83	5303.65
426.01	5441.75
426.20	5427.70
426.39	5420.68
426.58	5401.96
426.77	5486.22
426.96	5378.55
427.15	5533.03
427.33	5533.03
427.52	5408.98
427.71	5706.23
427.90	5631.33
428.09	5509.62
428.28	5696.86
428.46	5774.10
428.65	5645.37
428.84	5790.49
429.03	5785.80
429.22	5652.39
429.40	5769.42
429.59	5771.76
429.78	5743.67
429.97	5741.33
430.16	5799.85
430.34	5926.24
430.53	5902.83
430.72	6087.73
430.91	5977.73
431.10	5893.47
431.28	6008.16
431.47	6263.27
431.66	6146.25
431.85	5980.07
432.03	6232.85
432.22	6277.32
432.41	6375.62
432.60	6352.21
432.79	6239.87
432.97	6265.61
433.16	6272.64
433.35	6260.93
433.54	6291.36
433.72	6384.98
433.91	6244.55
434.10	6483.28
434.28	6408.39
434.47	6476.26
434.66	6534.78
434.85	6593.29
435.03	6494.99
435.22	6787.55
435.41	7000.54
435.59	6817.98
435.78	6888.20
435.97	6834.36
436.16	6878.83
436.34	6853.09
436.53	6925.65
436.72	7012.24
436.90	6633.08
437.09	6883.52
437.28	6745.42
437.46	6979.48
437.65	6988.84
437.84	7117.57
438.02	6942.03
438.21	7049.69
438.40	6803.94
438.58	7112.89
438.77	7309.49
438.96	7290.77
439.14	7335.24
439.33	7419.50
439.52	7550.57
439.70	7356.30
439.89	7485.03
440.08	7623.12
440.26	7698.02
440.45	7775.26
440.63	7695.68
440.82	8011.65
441.01	7880.58
441.19	7737.81
441.38	7953.14
441.57	8222.30
441.75	7957.82
441.94	8280.82
442.12	8049.10
442.31	8276.13
442.50	8276.13
442.68	8032.72
442.87	8451.67
443.05	8348.69
443.24	8446.99
443.43	8545.30
443.61	8451.67
443.80	8814.46
443.98	8184.85
444.17	8201.24
444.35	8219.96
444.54	8538.27
444.73	8711.47
444.91	8475.08
445.10	8564.02
445.28	8676.37
445.47	8606.15
445.65	8631.90
445.84	8788.71
446.02	8875.31
446.21	8788.71
446.39	8528.91
446.58	8795.73
446.77	8744.24
446.95	8484.44
447.14	8697.43
447.32	8615.51
447.51	8540.61
447.69	8669.34
447.88	8769.99
448.06	8861.27
448.25	8802.75
448.43	8901.06
448.62	8681.05
448.80	8840.20
448.99	8889.35
449.17	9048.51
449.36	9090.64
449.54	9057.87
449.73	9294.27
449.91	9334.06
450.10	9050.85
450.28	9453.42
450.46	9268.52
450.65	9441.72
450.83	9441.72
451.02	9345.76
451.20	9451.08
451.39	9362.14
451.57	9465.13
451.76	9385.55
451.94	9324.69
452.13	9451.08
452.31	9631.30
452.49	9500.23
452.68	9617.26
452.86	9607.90
453.05	9799.82
453.23	9673.43
453.42	9652.37
453.60	9504.92
453.78	9734.29
453.97	9582.15
454.15	9628.96
454.34	9657.05
454.52	10029.20
454.70	9886.42
454.89	9902.81
455.07	10031.54
455.26	9912.17
455.44	10260.91
455.62	10071.33
455.81	10310.06
455.99	10132.18
456.17	10242.18
456.36	10389.64
456.54	10448.15
456.73	10516.03
456.91	10693.91
457.09	10824.98
457.28	10860.09
457.46	10616.67
457.64	10778.17
457.83	10752.42
458.01	10609.65
458.19	10820.30
458.38	10773.49
458.56	10810.93
458.74	10925.62
458.93	10967.75
459.11	10850.72
459.29	10754.76
459.48	10993.50
459.66	11007.54
459.84	11140.95
460.03	11335.21
460.21	11047.33
460.39	11012.22
460.57	11194.78
460.76	11372.66
460.94	11426.50
461.12	11386.71
461.31	11468.62
461.49	11410.11
461.67	11225.21
461.85	11660.55
462.04	11375.00
462.22	12149.72
462.40	11939.07
462.59	11925.03
462.77	11808.00
462.95	12077.16
463.13	11896.94
463.32	11789.28
463.50	12147.38
463.68	11929.71
463.86	12046.74
464.05	11824.39
464.23	11847.79
464.41	11995.25
464.59	11939.07
464.78	12552.29
464.96	12233.98
465.14	11948.43
465.32	12386.12
465.50	12446.97
465.69	12505.48
465.87	12257.39
466.05	12489.10
466.23	12163.76
466.41	12308.88
466.60	12603.78
466.78	12430.59
466.96	12353.35
467.14	12486.76
467.32	12498.46
467.51	12798.05
467.69	12486.76
467.87	12533.57
468.05	12802.73
468.23	12699.75
468.41	12603.78
468.60	12798.05
468.78	12891.67
468.96	12821.45
469.14	13167.85
469.32	13053.17
469.50	13165.51
469.69	13057.85
469.87	13308.29
470.05	13221.69
470.23	13263.82
470.41	13612.56
470.59	13371.48
470.77	13540.00
470.95	13387.86
471.14	13572.77
471.32	13572.77
471.50	13788.10
471.68	13565.74
471.86	13593.83
472.04	13781.07
472.22	14244.50
472.40	13645.32
472.58	14050.24
472.77	14139.18
472.95	14401.32
473.13	14501.96
473.31	14038.53
473.49	14469.19
473.67	14295.99
473.85	14618.99
474.03	14750.06
474.21	14778.14
474.39	15014.54
474.57	14885.81
474.75	15042.62
474.93	15267.31
475.12	15185.40
475.30	15117.52
475.48	15201.78
475.66	15250.93
475.84	15501.37
476.02	15606.69
476.20	15707.34
476.38	15679.25
476.56	15978.84
476.74	15910.96
476.92	16051.39
477.10	16102.89
477.28	16341.62
477.46	16594.40
477.64	16524.18
477.82	16540.57
478.00	17294.22
478.18	16802.71
478.36	17322.30
478.54	17589.13
478.72	17394.86
478.90	17621.89
479.08	17486.14
479.26	17809.14
479.44	17692.11
479.62	18050.21
479.80	18038.51
479.98	18298.31
480.16	18820.25
480.34	18544.06
480.52	18764.07
480.70	18920.89
480.88	18754.71
481.06	18808.54
481.24	18857.70
481.41	19070.68
481.59	19501.34
481.77	19545.81
481.95	19599.65
482.13	19946.05
482.31	19840.72
482.49	20547.56
482.67	20311.17
482.85	20547.56
483.03	21109.29
483.21	20840.13
483.39	21221.64
483.57	20943.11
483.74	21256.75
483.92	21247.38
484.10	21446.33
484.28	21907.41
484.46	22216.36
484.64	22380.20
484.82	22120.40
485.00	22651.70
485.18	22635.32
485.35	23213.43
485.53	22768.73
485.71	23297.69
485.89	23625.37
486.07	23351.52
486.25	23733.03
486.43	23920.28
486.61	23978.79
486.78	24285.40
486.96	24584.99
487.14	24662.22
487.32	24659.88
487.50	25032.03
487.68	25048.41
487.85	25500.14
488.03	25825.47
488.21	25933.14
488.39	25893.35
488.57	26127.40
488.75	26127.40
488.92	26600.19
489.10	26686.79
489.28	26993.40
489.46	27229.79
489.64	27042.55
489.81	27510.66
489.99	27590.24
490.17	27831.31
490.35	27922.59
490.53	28496.02
490.70	28350.91
490.88	28407.08
491.06	28779.23
491.24	28875.19
491.41	29130.31
491.59	29345.64
491.77	29415.85
491.95	29909.71
492.13	29865.24
492.30	30061.84
492.48	30047.80
492.66	30595.48
492.84	30211.64
493.01	30937.20
493.19	30494.84
493.37	30995.71
493.54	31302.32
493.72	31330.41
493.90	31405.31
494.08	31828.95
494.25	31887.46
494.43	32023.21
494.61	32388.33
494.79	32467.91
494.96	32271.31
495.14	32400.04
495.32	33354.97
495.49	33413.49
495.67	33322.21
495.85	33259.01
496.02	33493.07
496.20	33663.93
496.38	33839.47
496.55	34230.33
496.73	34953.56
496.91	34450.35
497.09	34670.36
497.26	34850.58
497.44	35021.44
497.62	35189.95
497.79	35213.36
497.97	34911.43
498.14	36060.63
498.32	36016.16
498.50	36266.60
498.67	36568.53
498.85	36077.02
499.03	36467.89
499.20	36634.06
499.38	36996.85
499.56	37347.93
499.73	37038.98
499.91	37635.81
500.08	37118.56
500.26	36863.44
500.44	37626.45
500.61	37965.83
500.79	38160.09
500.97	37902.64
501.14	38497.13
501.32	38363.72
501.49	38520.54
501.67	38384.79
501.84	38986.30
502.02	38616.50
502.20	39122.05
502.37	39143.12
502.55	38754.59
502.72	39653.36
502.90	39419.30
503.07	39185.25
503.25	39854.64
503.43	40135.51
503.60	40444.46
503.78	40006.78
503.95	40278.28
504.13	39849.96
504.30	40783.83
504.48	40495.95
504.65	40795.54
504.83	40947.67
505.01	41361.95
505.18	41064.70
505.36	41666.22
505.53	40933.63
505.71	41064.70
505.88	41333.86
506.06	41565.57
506.23	42298.16
506.41	41806.65
506.58	41584.30
506.76	42340.29
506.93	42747.54
507.11	42190.50
507.28	42646.90
507.46	42440.93
507.63	42705.41
507.81	42794.36
507.98	42323.91
508.16	42969.90
508.33	43040.11
508.50	43288.21
508.68	43538.65
508.85	43728.23
509.03	43540.99
509.20	43681.42
509.38	44062.93
509.55	44294.64
509.73	44215.06
509.90	44289.96
510.08	44776.79
510.25	44219.74
510.42	44650.40
510.60	44928.92
510.77	45024.89
510.95	44622.31
511.12	44987.44
511.30	45062.33
511.47	45734.07
511.64	45317.45
511.82	45813.65
511.99	45640.45
512.17	45797.26
512.34	45476.61
512.51	46312.18
512.69	46396.44
512.86	46115.58
513.04	46611.77
513.21	46396.44
513.38	46403.46
513.56	46525.17
513.73	46621.13
513.90	46909.02
514.08	47040.09
514.25	47157.11
514.43	47400.53
514.60	47393.51
514.77	47412.23
514.95	47262.44
515.12	47299.89
515.29	47515.22
515.47	47875.66
515.64	48203.33
515.81	47866.30
515.99	47985.66
516.16	48463.13
516.33	47910.77
516.51	48760.38
516.68	48552.07
516.85	48472.49
517.03	48505.26
517.20	48329.72
517.37	48722.93
517.54	48818.89
517.72	48858.68
517.89	48699.53
518.06	49015.50
518.24	49443.82
518.41	49301.04
518.58	49373.60
518.75	48994.43
518.93	49109.12
519.10	48861.02
519.27	49663.83
519.45	49514.03
519.62	49640.42
519.79	50230.24
519.96	49579.57
520.14	49968.10
520.31	49443.82
520.48	49883.84
520.65	49727.02
520.83	50578.98
521.00	50649.19
521.17	50337.90
521.34	50405.78
521.52	50309.82
521.69	50731.11
521.86	50564.93
522.03	50574.30
522.20	50726.43
522.38	50890.27
522.55	51250.71
522.72	51068.15
522.89	51569.02
523.07	51332.63
523.24	51089.21
523.41	51690.73
523.58	51428.59
523.75	51370.08
523.92	51845.21
524.10	51997.34
524.27	52009.04
524.44	52147.14
524.61	51849.89
524.78	51842.87
524.96	52088.62
525.13	52322.68
525.30	52479.49
525.47	52472.47
525.64	52442.04
525.81	52439.70
525.98	52465.45
526.16	52357.78
526.33	52341.40
526.50	52563.75
526.67	52701.84
526.84	52884.40
527.01	52861.00
527.18	52924.19
527.36	52765.04
527.53	52823.55
527.70	52928.87
527.87	53275.27
528.04	53059.94
528.21	53275.27
528.38	53567.84
528.55	53408.68
528.72	53310.38
528.89	53268.25
529.07	53380.60
529.24	53404.00
529.41	53928.28
529.58	53897.86
529.75	53687.21
529.92	53773.81
530.09	53710.61
530.26	53738.70
530.43	53455.50
530.60	53675.51
530.77	53787.85
530.94	54335.54
531.11	54188.08
531.28	54085.10
531.46	54176.38
531.63	54398.73
531.80	54429.16
531.97	54188.08
532.14	54574.27
532.31	54363.62
532.48	54288.73
532.65	54562.57
532.82	54319.15
532.99	54546.18
533.16	54649.17
533.33	54597.68
533.50	54777.90
533.67	54646.83
533.84	54775.56
534.01	54838.75
534.18	55016.63
534.35	55049.40
534.52	54866.84
534.69	55072.81
534.86	54883.22
535.03	54855.14
535.20	55035.36
535.37	55374.73
535.54	55363.03
535.71	54990.89
535.88	55332.60
536.05	55304.52
536.22	55409.84
536.38	55285.79
536.55	55363.03
536.72	55760.92
536.89	55491.76
537.06	55613.47
537.23	55957.53
537.40	55538.57
537.57	55817.10
537.74	55676.66
537.91	55999.66
538.08	55564.32
538.25	55655.60
538.42	55997.32
538.59	56332.01
538.75	56058.17
538.92	56041.79
539.09	56151.79
539.26	56189.24
539.43	56175.20
539.60	56294.56
539.77	56037.11
539.94	56486.49
540.11	56245.41
540.28	56313.29
540.44	56577.77
540.61	56388.19
540.78	56168.18
540.95	56332.01
541.12	56409.25
541.29	56278.18
541.46	56832.89
541.62	56687.78
541.79	56767.35
541.96	56535.64
542.13	56554.36
542.30	56804.80
542.47	56657.35
542.63	56741.61
542.80	57069.28
542.97	57263.55
543.14	57202.69
543.31	57174.61
543.48	57088.01
543.64	57441.43
543.81	57403.98
543.98	57256.53
544.15	57272.91
544.32	57497.60
544.48	57705.91
544.65	57357.17
544.82	57418.02
544.99	57429.72
545.16	57429.72
545.32	57577.18
545.49	57708.25
545.66	58045.29
545.83	57907.19
546.00	57897.83
546.16	58113.16
546.33	57918.90
546.50	57724.63
546.67	57780.81
546.83	57577.18
547.00	57616.97
547.17	57804.21
547.34	57780.81
547.50	57954.00
547.67	58166.99
547.84	58031.24
548.00	58438.50
548.17	58412.75
548.34	57935.28
548.51	58150.61
548.67	58164.65
548.84	58099.12
549.01	58113.16
549.18	58073.37
549.34	58482.97
549.51	58284.02
549.68	58279.34
549.84	58274.66
550.01	58398.71
550.18	58129.54
550.34	58141.25
550.51	58412.75
550.68	58295.72
550.84	58487.65
551.01	58429.13
551.18	58702.98
551.34	58166.99
551.51	58646.80
551.68	58539.14
551.84	58457.22
552.01	58405.73
552.18	58693.61
552.34	58529.78
552.51	58733.40
552.68	58871.49
552.84	58777.87
553.01	58864.47
553.18	58731.06
553.34	58602.33
553.51	58843.41
553.67	58705.32
553.84	59147.68
554.01	59082.14
554.17	58855.11
554.34	59168.74
554.51	59056.40
554.67	59040.01
554.84	59061.08
555.00	59110.23
555.17	58660.85
555.33	59189.81
555.50	58782.55
555.67	58946.39
555.83	59236.62
556.00	59334.92
556.16	59346.62
556.33	59131.29
556.50	59098.53
556.66	59168.74
556.83	59201.51
556.99	59295.13
557.16	59281.09
557.32	59346.62
557.49	59737.49
557.65	59334.92
557.82	59512.80
557.98	59358.33
558.15	59292.79
558.32	59306.83
558.48	59126.61
558.65	59283.43
558.81	59489.40
558.98	59625.15
559.14	59416.84
559.31	59505.78
559.47	59533.87
559.64	59526.84
559.80	59702.38
559.97	59592.38
560.13	59440.24
560.30	59580.68
560.46	59707.07
560.63	59887.29
560.79	59999.63
560.96	59927.08
561.12	59643.87
561.29	59824.09
561.45	59814.73
561.61	59674.30
561.78	59861.54
561.94	59884.95
562.11	60130.70
562.27	59896.65
562.44	59870.90
562.60	59908.35
562.77	59688.34
562.93	59817.07
563.10	60027.72
563.26	59669.62
563.42	59999.63
563.59	59882.61
563.75	59812.39
563.92	59992.61
564.08	60006.65
564.24	59884.95
564.41	60093.25
564.57	59969.21
564.74	59985.59
564.90	60362.42
565.07	60210.28
565.23	60261.77
565.39	59971.55
565.56	60329.65
565.72	60271.14
565.88	60172.83
566.05	59985.59
566.21	60086.23
566.38	60074.53
566.54	59985.59
566.70	60392.84
566.87	60402.21
567.03	60247.73
567.19	60603.49
567.36	60409.23
567.52	60189.22
567.68	60491.15
567.85	60243.05
568.01	60416.25
568.17	60229.01
568.34	60257.09
568.50	60320.29
568.66	60287.52
568.83	60463.06
568.99	60308.58
569.15	60521.57
569.32	60449.02
569.48	60046.44
569.64	60477.10
569.81	60229.01
569.97	60090.91
570.13	60397.52
570.30	60544.98
570.46	60587.11
570.62	60484.12
570.78	60231.35
570.95	60336.67
571.11	60357.74
571.27	60322.63
571.43	60165.81
571.60	60413.91
571.76	60233.69
571.92	60601.15
572.09	60577.75
572.25	60537.96
572.41	60720.52
572.57	60699.45
572.74	60472.42
572.90	60385.82
573.06	60544.98
573.22	60706.47
573.38	60544.98
573.55	60561.36
573.71	60783.71
573.87	60739.24
574.03	60556.68
574.20	60526.25
574.36	60687.75
574.52	60786.05
574.68	60690.09
574.84	60687.75
575.01	60788.39
575.17	60694.77
575.33	60715.84
575.49	60832.86
575.65	60807.12
575.82	60650.30
575.98	60762.65
576.14	60907.76
576.30	60900.74
576.46	60654.98
576.62	60420.93
576.79	60467.74
576.95	60425.61
577.11	60774.35
577.27	60858.61
577.43	60732.22
577.59	60846.91
577.75	60708.82
577.92	60521.57
578.08	60734.56
578.24	60823.50
578.40	60685.41
578.56	60816.48
578.72	60743.92
578.88	60975.64
579.04	60975.64
579.21	60757.97
579.37	60945.21
579.53	60945.21
579.69	60713.50
579.85	60720.52
580.01	60839.89
580.17	61003.72
580.33	60762.65
580.49	60757.97
580.65	60977.98
580.82	60779.03
580.98	61083.30
581.14	61015.43
581.30	61052.87
581.46	60802.44
581.62	60856.27
581.78	60889.04
581.94	60959.25
582.10	60926.49
582.26	60926.49
582.42	60905.42
582.58	60783.71
582.74	61113.73
582.90	61200.33
583.06	60825.84
583.22	60959.25
583.38	60727.54
583.54	60739.24
583.70	60818.82
583.86	61226.07
584.02	60830.52
584.18	61010.74
584.34	61064.58
584.50	60987.34
584.66	60963.93
584.82	60926.49
584.98	61015.43
585.14	60896.06
585.30	60734.56
585.46	60898.40
585.62	60797.76
585.78	61202.67
585.94	60807.12
586.10	61017.77
586.26	61158.20
586.42	61118.41
586.58	61022.45
586.74	60973.30
586.90	60914.78
587.06	60942.87
587.22	61310.33
587.38	61202.67
587.54	61261.18
587.70	61415.66
587.86	61307.99
