SpectraSuite Data File
++++++++++++++++++++++++++++++++++++
Date: Thu Oct 24 13:21:04 EDT 2013
User: stostad
Dark Spectrum Present: No
Reference Spectrum Present: No
Number of Sampled Component Spectra: 1
Spectrometers: USB2+H05261
Integration Time (usec): 100000 (USB2+H05261)
Spectra Averaged: 1 (USB2+H05261)
Boxcar Smoothing: 0 (USB2+H05261)
Correct for Electrical Dark: No (USB2+H05261)
Strobe/Lamp Enabled: No (USB2+H05261)
Correct for Detector Non-linearity: No (USB2+H05261)
Correct for Stray Light: No (USB2+H05261)
Number of Pixels in Processed Spectrum: 2048
>>>>>Begin Processed Spectral Data<<<<<
365.73	575.77
365.92	575.77
366.12	575.77
366.32	472.79
366.52	435.34
366.72	489.17
366.91	496.19
367.11	416.62
367.31	433.00
367.51	449.38
367.70	458.74
367.90	465.77
368.10	524.28
368.30	489.17
368.49	416.62
368.69	463.43
368.89	528.96
369.09	442.36
369.28	505.56
369.48	468.11
369.68	496.19
369.87	475.13
370.07	475.13
370.27	606.20
370.47	566.41
370.66	540.66
370.86	507.90
371.06	599.18
371.25	667.05
371.45	557.05
371.65	641.31
371.84	599.18
372.04	571.09
372.24	601.52
372.44	599.18
372.63	592.16
372.83	683.44
373.03	624.92
373.22	657.69
373.42	645.99
373.62	608.54
373.81	667.05
374.01	699.82
374.21	741.95
374.40	664.71
374.60	582.79
374.79	589.82
374.99	751.31
375.19	599.18
375.38	613.22
375.58	629.60
375.78	627.26
375.97	683.44
376.17	636.63
376.37	727.91
376.56	669.39
376.76	573.43
376.95	559.39
377.15	631.94
377.35	627.26
377.54	678.76
377.74	631.94
377.93	627.26
378.13	613.22
378.33	636.63
378.52	589.82
378.72	568.75
378.91	692.80
379.11	608.54
379.31	664.71
379.50	596.84
379.70	660.03
379.89	638.97
380.09	622.58
380.28	587.47
380.48	631.94
380.68	592.16
380.87	723.23
381.07	606.20
381.26	603.86
381.46	585.13
381.65	599.18
381.85	578.11
382.04	634.29
382.24	561.73
382.43	641.31
382.63	634.29
382.83	596.84
383.02	655.35
383.22	606.20
383.41	596.84
383.61	580.45
383.80	526.62
384.00	603.86
384.19	594.50
384.39	533.64
384.58	559.39
384.78	671.73
384.97	589.82
385.17	636.63
385.36	578.11
385.56	678.76
385.75	631.94
385.95	601.52
386.14	688.12
386.34	638.97
386.53	641.31
386.72	650.67
386.92	641.31
387.11	603.86
387.31	575.77
387.50	676.41
387.70	643.65
387.89	599.18
388.09	608.54
388.28	655.35
388.48	676.41
388.67	610.88
388.86	617.90
389.06	592.16
389.25	631.94
389.45	643.65
389.64	638.97
389.84	657.69
390.03	624.92
390.22	692.80
390.42	615.56
390.61	613.22
390.81	599.18
391.00	580.45
391.19	578.11
391.39	627.26
391.58	573.43
391.78	610.88
391.97	524.28
392.16	617.90
392.36	664.71
392.55	653.01
392.75	629.60
392.94	566.41
393.13	664.71
393.33	603.86
393.52	615.56
393.71	669.39
393.91	648.33
394.10	578.11
394.29	624.92
394.49	622.58
394.68	653.01
394.88	655.35
395.07	608.54
395.26	603.86
395.46	669.39
395.65	636.63
395.84	587.47
396.04	629.60
396.23	631.94
396.42	636.63
396.62	620.24
396.81	617.90
397.00	676.41
397.19	629.60
397.39	622.58
397.58	660.03
397.77	641.31
397.97	638.97
398.16	594.50
398.35	599.18
398.55	573.43
398.74	695.14
398.93	671.73
399.12	554.71
399.32	606.20
399.51	667.05
399.70	610.88
399.90	669.39
400.09	664.71
400.28	648.33
400.47	610.88
400.67	655.35
400.86	585.13
401.05	657.69
401.24	573.43
401.44	627.26
401.63	713.86
401.82	648.33
402.01	573.43
402.21	660.03
402.40	634.29
402.59	685.78
402.78	634.29
402.97	667.05
403.17	650.67
403.36	669.39
403.55	620.24
403.74	638.97
403.93	676.41
404.13	720.88
404.32	669.39
404.51	690.46
404.70	662.37
404.89	641.31
405.09	683.44
405.28	662.37
405.47	671.73
405.66	685.78
405.85	617.90
406.05	587.47
406.24	634.29
406.43	610.88
406.62	580.45
406.81	645.99
407.00	606.20
407.20	648.33
407.39	704.50
407.58	601.52
407.77	608.54
407.96	669.39
408.15	615.56
408.34	645.99
408.54	585.13
408.73	622.58
408.92	636.63
409.11	669.39
409.30	653.01
409.49	589.82
409.68	599.18
409.87	667.05
410.07	580.45
410.26	690.46
410.45	692.80
410.64	631.94
410.83	601.52
411.02	667.05
411.21	631.94
411.40	660.03
411.59	638.97
411.78	615.56
411.98	671.73
412.17	580.45
412.36	589.82
412.55	664.71
412.74	603.86
412.93	622.58
413.12	622.58
413.31	634.29
413.50	610.88
413.69	690.46
413.88	617.90
414.07	585.13
414.26	578.11
414.45	606.20
414.64	634.29
414.83	601.52
415.02	660.03
415.22	692.80
415.41	603.86
415.60	538.32
415.79	587.47
415.98	713.86
416.17	620.24
416.36	641.31
416.55	641.31
416.74	711.52
416.93	594.50
417.12	631.94
417.31	603.86
417.50	704.50
417.69	732.59
417.88	580.45
418.07	603.86
418.26	657.69
418.45	580.45
418.64	674.07
418.83	676.41
419.02	655.35
419.21	489.17
419.39	594.50
419.58	617.90
419.77	713.86
419.96	678.76
420.15	664.71
420.34	587.47
420.53	653.01
420.72	603.86
420.91	573.43
421.10	587.47
421.29	603.86
421.48	664.71
421.67	592.16
421.86	655.35
422.05	617.90
422.24	580.45
422.43	645.99
422.61	643.65
422.80	582.79
422.99	594.50
423.18	601.52
423.37	613.22
423.56	631.94
423.75	589.82
423.94	599.18
424.13	580.45
424.32	655.35
424.50	676.41
424.69	653.01
424.88	606.20
425.07	599.18
425.26	638.97
425.45	648.33
425.64	601.52
425.83	594.50
426.01	655.35
426.20	713.86
426.39	624.92
426.58	650.67
426.77	660.03
426.96	674.07
427.15	617.90
427.33	580.45
427.52	643.65
427.71	613.22
427.90	610.88
428.09	655.35
428.28	627.26
428.46	603.86
428.65	657.69
428.84	596.84
429.03	669.39
429.22	685.78
429.40	645.99
429.59	718.54
429.78	629.60
429.97	638.97
430.16	667.05
430.34	653.01
430.53	631.94
430.72	601.52
430.91	573.43
431.10	627.26
431.28	638.97
431.47	629.60
431.66	704.50
431.85	603.86
432.03	697.48
432.22	725.57
432.41	603.86
432.60	692.80
432.79	653.01
432.97	580.45
433.16	641.31
433.35	650.67
433.54	573.43
433.72	678.76
433.91	601.52
434.10	641.31
434.28	685.78
434.47	617.90
434.66	592.16
434.85	695.14
435.03	763.01
435.22	873.02
435.41	959.62
435.59	1046.22
435.78	875.36
435.97	910.47
436.16	727.91
436.34	622.58
436.53	671.73
436.72	713.86
436.90	641.31
437.09	751.31
437.28	671.73
437.46	685.78
437.65	704.50
437.84	650.67
438.02	645.99
438.21	627.26
438.40	678.76
438.58	702.16
438.77	650.67
438.96	620.24
439.14	608.54
439.33	596.84
439.52	615.56
439.70	676.41
439.89	657.69
440.08	617.90
440.26	648.33
440.45	725.57
440.63	622.58
440.82	650.67
441.01	631.94
441.19	674.07
441.38	688.12
441.57	645.99
441.75	603.86
441.94	599.18
442.12	655.35
442.31	631.94
442.50	589.82
442.68	603.86
442.87	683.44
443.05	674.07
443.24	716.20
443.43	629.60
443.61	688.12
443.80	587.47
443.98	638.97
444.17	617.90
444.35	678.76
444.54	655.35
444.73	578.11
444.91	748.97
445.10	585.13
445.28	613.22
445.47	634.29
445.65	676.41
445.84	606.20
446.02	641.31
446.21	688.12
446.39	587.47
446.58	589.82
446.77	634.29
446.95	634.29
447.14	662.37
447.32	690.46
447.51	648.33
447.69	655.35
447.88	582.79
448.06	657.69
448.25	674.07
448.43	624.92
448.62	613.22
448.80	657.69
448.99	706.84
449.17	671.73
449.36	610.88
449.54	692.80
449.73	631.94
449.91	648.33
450.10	610.88
450.28	702.16
450.46	636.63
450.65	660.03
450.83	667.05
451.02	629.60
451.20	634.29
451.39	636.63
451.57	643.65
451.76	695.14
451.94	683.44
452.13	683.44
452.31	678.76
452.49	627.26
452.68	664.71
452.86	660.03
453.05	697.48
453.23	718.54
453.42	606.20
453.60	662.37
453.78	690.46
453.97	676.41
454.15	631.94
454.34	648.33
454.52	648.33
454.70	660.03
454.89	711.52
455.07	629.60
455.26	617.90
455.44	648.33
455.62	681.10
455.81	587.47
455.99	667.05
456.17	655.35
456.36	627.26
456.54	622.58
456.73	594.50
456.91	578.11
457.09	662.37
457.28	713.86
457.46	617.90
457.64	683.44
457.83	650.67
458.01	613.22
458.19	636.63
458.38	650.67
458.56	664.71
458.74	725.57
458.93	667.05
459.11	676.41
459.29	601.52
459.48	653.01
459.66	643.65
459.84	636.63
460.03	791.10
460.21	669.39
460.39	638.97
460.57	587.47
460.76	627.26
460.94	535.98
461.12	653.01
461.31	678.76
461.49	645.99
461.67	690.46
461.85	699.82
462.04	655.35
462.22	903.45
462.40	664.71
462.59	660.03
462.77	655.35
462.95	674.07
463.13	681.10
463.32	683.44
463.50	711.52
463.68	599.18
463.86	634.29
464.05	624.92
464.23	725.57
464.41	683.44
464.59	676.41
464.78	629.60
464.96	657.69
465.14	606.20
465.32	615.56
465.50	657.69
465.69	629.60
465.87	634.29
466.05	561.73
466.23	620.24
466.41	660.03
466.60	681.10
466.78	664.71
466.96	662.37
467.14	629.60
467.32	655.35
467.51	681.10
467.69	638.97
467.87	660.03
468.05	566.41
468.23	678.76
468.41	648.33
468.60	622.58
468.78	636.63
468.96	683.44
469.14	657.69
469.32	627.26
469.50	648.33
469.69	645.99
469.87	730.25
470.05	636.63
470.23	662.37
470.41	653.01
470.59	601.52
470.77	688.12
470.95	622.58
471.14	697.48
471.32	589.82
471.50	744.29
471.68	653.01
471.86	592.16
472.04	662.37
472.22	629.60
472.40	603.86
472.58	589.82
472.77	559.39
472.95	655.35
473.13	674.07
473.31	725.57
473.49	634.29
473.67	627.26
473.85	601.52
474.03	650.67
474.21	720.88
474.39	681.10
474.57	599.18
474.75	638.97
474.93	697.48
475.12	662.37
475.30	629.60
475.48	655.35
475.66	653.01
475.84	617.90
476.02	660.03
476.20	592.16
476.38	645.99
476.56	746.63
476.74	683.44
476.92	627.26
477.10	660.03
477.28	622.58
477.46	699.82
477.64	575.77
477.82	648.33
478.00	631.94
478.18	676.41
478.36	732.59
478.54	662.37
478.72	641.31
478.90	636.63
479.08	713.86
479.26	655.35
479.44	662.37
479.62	636.63
479.80	606.20
479.98	587.47
480.16	688.12
480.34	599.18
480.52	606.20
480.70	702.16
480.88	638.97
481.06	650.67
481.24	685.78
481.41	594.50
481.59	695.14
481.77	681.10
481.95	678.76
482.13	671.73
482.31	629.60
482.49	648.33
482.67	692.80
482.85	739.61
483.03	720.88
483.21	676.41
483.39	674.07
483.57	657.69
483.74	645.99
483.92	706.84
484.10	748.97
484.28	716.20
484.46	634.29
484.64	648.33
484.82	699.82
485.00	716.20
485.18	683.44
485.35	711.52
485.53	709.18
485.71	741.95
485.89	674.07
486.07	709.18
486.25	779.40
486.43	699.82
486.61	716.20
486.78	758.33
486.96	690.46
487.14	690.46
487.32	702.16
487.50	688.12
487.68	713.86
487.85	634.29
488.03	744.29
488.21	704.50
488.39	713.86
488.57	755.99
488.75	751.31
488.92	737.27
489.10	685.78
489.28	643.65
489.46	706.84
489.64	709.18
489.81	767.70
489.99	751.31
490.17	716.20
490.35	648.33
490.53	706.84
490.70	692.80
490.88	741.95
491.06	777.06
491.24	713.86
491.41	718.54
491.59	706.84
491.77	702.16
491.95	699.82
492.13	709.18
492.30	681.10
492.48	702.16
492.66	660.03
492.84	763.01
493.01	737.27
493.19	702.16
493.37	699.82
493.54	662.37
493.72	695.14
493.90	667.05
494.08	641.31
494.25	779.40
494.43	709.18
494.61	685.78
494.79	671.73
494.96	657.69
495.14	681.10
495.32	727.91
495.49	641.31
495.67	718.54
495.85	737.27
496.02	657.69
496.20	695.14
496.38	653.01
496.55	683.44
496.73	688.12
496.91	746.63
497.09	737.27
497.26	753.65
497.44	681.10
497.62	671.73
497.79	641.31
497.97	688.12
498.14	690.46
498.32	641.31
498.50	737.27
498.67	720.88
498.85	674.07
499.03	641.31
499.20	624.92
499.38	730.25
499.56	676.41
499.73	725.57
499.91	718.54
500.08	720.88
500.26	683.44
500.44	641.31
500.61	716.20
500.79	704.50
500.97	690.46
501.14	725.57
501.32	653.01
501.49	716.20
501.67	608.54
501.84	667.05
502.02	732.59
502.20	720.88
502.37	699.82
502.55	631.94
502.72	638.97
502.90	683.44
503.07	655.35
503.25	688.12
503.43	657.69
503.60	681.10
503.78	648.33
503.95	709.18
504.13	692.80
504.30	699.82
504.48	641.31
504.65	711.52
504.83	683.44
505.01	636.63
505.18	641.31
505.36	695.14
505.53	674.07
505.71	720.88
505.88	739.61
506.06	683.44
506.23	711.52
506.41	720.88
506.58	629.60
506.76	704.50
506.93	727.91
507.11	723.23
507.28	720.88
507.46	667.05
507.63	650.67
507.81	662.37
507.98	650.67
508.16	657.69
508.33	671.73
508.50	645.99
508.68	669.39
508.85	613.22
509.03	699.82
509.20	791.10
509.38	692.80
509.55	648.33
509.73	713.86
509.90	734.93
510.08	690.46
510.25	702.16
510.42	667.05
510.60	727.91
510.77	704.50
510.95	667.05
511.12	634.29
511.30	725.57
511.47	692.80
511.64	664.71
511.82	704.50
511.99	671.73
512.17	716.20
512.34	683.44
512.51	674.07
512.69	744.29
512.86	711.52
513.04	681.10
513.21	744.29
513.38	704.50
513.56	664.71
513.73	631.94
513.90	744.29
514.08	643.65
514.25	676.41
514.43	716.20
514.60	674.07
514.77	683.44
514.95	627.26
515.12	774.72
515.29	706.84
515.47	720.88
515.64	678.76
515.81	622.58
515.99	730.25
516.16	688.12
516.33	702.16
516.51	692.80
516.68	648.33
516.85	706.84
517.03	748.97
517.20	748.97
517.37	730.25
517.54	734.93
517.72	725.57
517.89	676.41
518.06	674.07
518.24	709.18
518.41	727.91
518.58	660.03
518.75	678.76
518.93	777.06
519.10	683.44
519.27	730.25
519.45	730.25
519.62	716.20
519.79	730.25
519.96	660.03
520.14	671.73
520.31	760.67
520.48	676.41
520.65	723.23
520.83	674.07
521.00	685.78
521.17	704.50
521.34	702.16
521.52	697.48
521.69	688.12
521.86	755.99
522.03	716.20
522.20	725.57
522.38	760.67
522.55	711.52
522.72	690.46
522.89	685.78
523.07	657.69
523.24	823.87
523.41	739.61
523.58	671.73
523.75	683.44
523.92	772.38
524.10	671.73
524.27	664.71
524.44	692.80
524.61	734.93
524.78	748.97
524.96	711.52
525.13	739.61
525.30	720.88
525.47	664.71
525.64	615.56
525.81	631.94
525.98	692.80
526.16	711.52
526.33	678.76
526.50	770.04
526.67	683.44
526.84	671.73
527.01	716.20
527.18	734.93
527.36	711.52
527.53	711.52
527.70	690.46
527.87	732.59
528.04	788.76
528.21	739.61
528.38	702.16
528.55	758.33
528.72	732.59
528.89	725.57
529.07	622.58
529.24	699.82
529.41	741.95
529.58	697.48
529.75	723.23
529.92	681.10
530.09	660.03
530.26	685.78
530.43	709.18
530.60	702.16
530.77	770.04
530.94	655.35
531.11	671.73
531.28	713.86
531.46	620.24
531.63	755.99
531.80	685.78
531.97	784.08
532.14	683.44
532.31	711.52
532.48	739.61
532.65	671.73
532.82	645.99
532.99	732.59
533.16	734.93
533.33	730.25
533.50	760.67
533.67	645.99
533.84	758.33
534.01	720.88
534.18	685.78
534.35	711.52
534.52	727.91
534.69	821.53
534.86	713.86
535.03	734.93
535.20	746.63
535.37	758.33
535.54	697.48
535.71	774.72
535.88	748.97
536.05	727.91
536.22	755.99
536.38	788.76
536.55	683.44
536.72	753.65
536.89	748.97
537.06	779.40
537.23	760.67
537.40	748.97
537.57	725.57
537.74	784.08
537.91	814.51
538.08	814.51
538.25	812.17
538.42	748.97
538.59	805.14
538.75	851.96
538.92	807.48
539.09	877.70
539.26	814.51
539.43	830.89
539.60	877.70
539.77	926.85
539.94	873.02
540.11	952.60
540.28	971.32
540.44	952.60
540.61	961.96
540.78	966.64
540.95	1001.75
541.12	1135.16
541.29	1219.42
541.46	1317.72
541.62	1238.14
541.79	1210.06
541.96	1362.19
542.13	1196.01
542.30	1123.46
542.47	1261.55
542.63	1156.22
542.80	1186.65
542.97	1128.14
543.14	1186.65
543.31	1142.18
543.48	1245.16
543.64	1151.54
543.81	1100.05
543.98	1097.71
544.15	1095.37
544.32	1181.97
544.48	1165.59
544.65	1100.05
544.82	1144.52
544.99	1093.03
545.16	1142.18
545.32	1111.75
545.49	1462.83
545.66	1785.83
545.83	1870.09
546.00	1668.80
546.16	1446.45
546.33	1362.19
546.50	1210.06
546.67	1104.73
546.83	1064.94
547.00	1041.54
547.17	985.37
547.34	950.26
547.50	1001.75
547.67	957.28
547.84	968.98
548.00	959.62
548.17	917.49
548.34	877.70
548.51	870.68
548.67	842.59
548.84	861.32
549.01	950.26
549.18	847.27
549.34	856.64
549.51	889.40
549.68	880.04
549.84	814.51
550.01	833.23
550.18	854.30
550.34	847.27
550.51	929.19
550.68	926.85
550.84	863.66
551.01	805.14
551.18	821.53
551.34	805.14
551.51	873.02
551.68	807.48
551.84	798.12
552.01	821.53
552.18	849.61
552.34	880.04
552.51	777.06
552.68	814.51
552.84	795.78
553.01	807.48
553.18	734.93
553.34	791.10
553.51	786.42
553.67	795.78
553.84	896.43
554.01	739.61
554.17	784.08
554.34	723.23
554.51	713.86
554.67	784.08
554.84	800.46
555.00	718.54
555.17	805.14
555.33	835.57
555.50	777.06
555.67	723.23
555.83	671.73
556.00	711.52
556.16	760.67
556.33	711.52
556.50	798.12
556.66	786.42
556.83	723.23
556.99	720.88
557.16	784.08
557.32	798.12
557.49	760.67
557.65	709.18
557.82	709.18
557.98	821.53
558.15	732.59
558.32	723.23
558.48	648.33
558.65	734.93
558.81	788.76
558.98	807.48
559.14	786.42
559.31	727.91
559.47	774.72
559.64	706.84
559.80	737.27
559.97	758.33
560.13	692.80
560.30	788.76
560.46	737.27
560.63	711.52
560.79	739.61
560.96	744.29
561.12	720.88
561.29	674.07
561.45	678.76
561.61	725.57
561.78	837.91
561.94	699.82
562.11	755.99
562.27	751.31
562.44	730.25
562.60	758.33
562.77	725.57
562.93	781.74
563.10	755.99
563.26	739.61
563.42	819.19
563.59	760.67
563.75	748.97
563.92	734.93
564.08	727.91
564.24	770.04
564.41	777.06
564.57	727.91
564.74	746.63
564.90	678.76
565.07	760.67
565.23	674.07
565.39	720.88
565.56	718.54
565.72	662.37
565.88	730.25
566.05	746.63
566.21	653.01
566.38	744.29
566.54	765.36
566.70	777.06
566.87	704.50
567.03	748.97
567.19	702.16
567.36	734.93
567.52	748.97
567.68	699.82
567.85	758.33
568.01	730.25
568.17	704.50
568.34	737.27
568.50	809.83
568.66	685.78
568.83	802.80
568.99	758.33
569.15	786.42
569.32	760.67
569.48	791.10
569.64	734.93
569.81	779.40
569.97	734.93
570.13	821.53
570.30	734.93
570.46	704.50
570.62	770.04
570.78	695.14
570.95	699.82
571.11	779.40
571.27	851.96
571.43	751.31
571.60	758.33
571.76	753.65
571.92	650.67
572.09	763.01
572.25	791.10
572.41	751.31
572.57	723.23
572.74	744.29
572.90	709.18
573.06	678.76
573.22	755.99
573.38	847.27
573.55	763.01
573.71	798.12
573.87	802.80
574.03	798.12
574.20	711.52
574.36	767.70
574.52	683.44
574.68	709.18
574.84	720.88
575.01	709.18
575.17	688.12
575.33	751.31
575.49	734.93
575.65	784.08
575.82	791.10
575.98	748.97
576.14	814.51
576.30	823.87
576.46	873.02
576.62	854.30
576.79	990.05
576.95	866.00
577.11	842.59
577.27	889.40
577.43	877.70
577.59	868.34
577.75	779.40
577.92	828.55
578.08	763.01
578.24	767.70
578.40	763.01
578.56	861.32
578.72	912.81
578.88	983.02
579.04	866.00
579.21	868.34
579.37	844.93
579.53	854.30
579.69	816.85
579.85	837.91
580.01	861.32
580.17	812.17
580.33	891.74
580.49	887.06
580.65	842.59
580.82	819.19
580.98	847.27
581.14	793.44
581.30	777.06
581.46	720.88
581.62	739.61
581.78	854.30
581.94	819.19
582.10	837.91
582.26	786.42
582.42	788.76
582.58	814.51
582.74	875.36
582.90	777.06
583.06	875.36
583.22	823.87
583.38	833.23
583.54	908.13
583.70	826.21
583.86	861.32
584.02	856.64
584.18	828.55
584.34	812.17
584.50	772.38
584.66	812.17
584.82	828.55
584.98	837.91
585.14	791.10
585.30	851.96
585.46	748.97
585.62	880.04
585.78	826.21
585.94	844.93
586.10	777.06
586.26	802.80
586.42	933.87
586.58	842.59
586.74	868.34
586.90	889.40
587.06	901.11
587.22	947.92
587.38	961.96
587.54	894.08
587.70	912.81
587.86	851.96
588.02	828.55
588.18	851.96
588.34	777.06
588.49	807.48
588.65	777.06
588.81	816.85
588.97	802.80
589.13	788.76
589.29	793.44
589.45	880.04
589.61	826.21
589.77	809.83
589.93	875.36
590.08	887.06
590.24	795.78
590.40	866.00
590.56	793.44
590.72	849.61
590.88	812.17
591.04	795.78
591.20	807.48
591.35	823.87
591.51	844.93
591.67	849.61
591.83	837.91
591.99	835.57
592.15	894.08
592.31	875.36
592.46	748.97
592.62	856.64
592.78	786.42
592.94	866.00
593.10	903.45
593.26	851.96
593.41	805.14
593.57	807.48
593.73	814.51
593.89	889.40
594.05	765.36
594.20	816.85
594.36	812.17
594.52	901.11
594.68	870.68
594.84	746.63
594.99	823.87
595.15	795.78
595.31	814.51
595.47	816.85
595.62	849.61
595.78	809.83
595.94	798.12
596.10	870.68
596.25	805.14
596.41	767.70
596.57	671.73
596.73	720.88
596.88	751.31
597.04	795.78
597.20	807.48
597.36	723.23
597.51	730.25
597.67	760.67
597.83	844.93
597.99	784.08
598.14	781.74
598.30	763.01
598.46	875.36
598.61	950.26
598.77	856.64
598.93	798.12
599.09	866.00
599.24	814.51
599.40	828.55
599.56	791.10
599.71	854.30
599.87	866.00
600.03	798.12
600.18	795.78
600.34	903.45
600.50	791.10
600.65	774.72
600.81	823.87
600.97	814.51
601.12	823.87
601.28	774.72
601.44	807.48
601.59	800.46
601.75	786.42
601.91	734.93
602.06	800.46
602.22	805.14
602.37	753.65
602.53	748.97
602.69	786.42
602.84	767.70
603.00	704.50
603.16	774.72
603.31	760.67
603.47	744.29
603.62	856.64
603.78	828.55
603.94	788.76
604.09	767.70
604.25	716.20
604.40	896.43
604.56	784.08
604.71	805.14
604.87	800.46
605.03	777.06
605.18	791.10
605.34	833.23
605.49	758.33
605.65	805.14
605.80	781.74
605.96	777.06
606.12	842.59
606.27	837.91
606.43	770.04
606.58	835.57
606.74	751.31
606.89	777.06
607.05	873.02
607.20	851.96
607.36	795.78
607.51	816.85
607.67	793.44
607.82	816.85
607.98	863.66
608.13	830.89
608.29	835.57
608.44	863.66
608.60	851.96
608.75	863.66
608.91	887.06
609.06	898.77
609.22	795.78
609.37	910.47
609.53	915.15
609.68	999.41
609.84	940.90
