SpectraSuite Data File
++++++++++++++++++++++++++++++++++++
Date: Thu Oct 24 13:21:03 EDT 2013
User: stostad
Dark Spectrum Present: No
Reference Spectrum Present: No
Number of Sampled Component Spectra: 1
Spectrometers: USB2+H05261
Integration Time (usec): 100000 (USB2+H05261)
Spectra Averaged: 1 (USB2+H05261)
Boxcar Smoothing: 0 (USB2+H05261)
Correct for Electrical Dark: No (USB2+H05261)
Strobe/Lamp Enabled: No (USB2+H05261)
Correct for Detector Non-linearity: No (USB2+H05261)
Correct for Stray Light: No (USB2+H05261)
Number of Pixels in Processed Spectrum: 2048
>>>>>Begin Processed Spectral Data<<<<<
365.73	519.60
365.92	519.60
366.12	519.60
366.32	472.79
366.52	407.25
366.72	472.79
366.91	482.15
367.11	454.06
367.31	498.53
367.51	458.74
367.70	435.34
367.90	493.85
368.10	470.45
368.30	477.47
368.49	489.17
368.69	449.38
368.89	496.19
369.09	353.42
369.28	456.40
369.48	470.45
369.68	463.43
369.87	517.26
370.07	512.58
370.27	514.92
370.47	514.92
370.66	587.47
370.86	566.41
371.06	505.56
371.25	641.31
371.45	564.07
371.65	585.13
371.84	594.50
372.04	575.77
372.24	571.09
372.44	552.37
372.63	514.92
372.83	674.07
373.03	641.31
373.22	613.22
373.42	681.10
373.62	610.88
373.81	629.60
374.01	650.67
374.21	620.24
374.40	615.56
374.60	664.71
374.79	594.50
374.99	631.94
375.19	692.80
375.38	617.90
375.58	648.33
375.78	650.67
375.97	660.03
376.17	674.07
376.37	599.18
376.56	617.90
376.76	580.45
376.95	599.18
377.15	582.79
377.35	564.07
377.54	662.37
377.74	587.47
377.93	664.71
378.13	613.22
378.33	638.97
378.52	580.45
378.72	622.58
378.91	636.63
379.11	655.35
379.31	578.11
379.50	606.20
379.70	650.67
379.89	596.84
380.09	589.82
380.28	589.82
380.48	617.90
380.68	533.64
380.87	636.63
381.07	585.13
381.26	653.01
381.46	648.33
381.65	624.92
381.85	624.92
382.04	676.41
382.24	638.97
382.43	615.56
382.63	624.92
382.83	704.50
383.02	596.84
383.22	617.90
383.41	615.56
383.61	613.22
383.80	664.71
384.00	599.18
384.19	531.30
384.39	587.47
384.58	543.00
384.78	645.99
384.97	599.18
385.17	660.03
385.36	711.52
385.56	599.18
385.75	571.09
385.95	578.11
386.14	629.60
386.34	615.56
386.53	617.90
386.72	622.58
386.92	667.05
387.11	543.00
387.31	648.33
387.50	606.20
387.70	622.58
387.89	547.69
388.09	531.30
388.28	645.99
388.48	608.54
388.67	578.11
388.86	582.79
389.06	615.56
389.25	573.43
389.45	566.41
389.64	629.60
389.84	610.88
390.03	690.46
390.22	624.92
390.42	559.39
390.61	676.41
390.81	571.09
391.00	608.54
391.19	650.67
391.39	596.84
391.58	657.69
391.78	624.92
391.97	634.29
392.16	636.63
392.36	641.31
392.55	566.41
392.75	662.37
392.94	662.37
393.13	650.67
393.33	671.73
393.52	645.99
393.71	674.07
393.91	608.54
394.10	641.31
394.29	655.35
394.49	589.82
394.68	634.29
394.88	655.35
395.07	627.26
395.26	610.88
395.46	613.22
395.65	610.88
395.84	624.92
396.04	685.78
396.23	676.41
396.42	545.34
396.62	627.26
396.81	613.22
397.00	615.56
397.19	681.10
397.39	603.86
397.58	603.86
397.77	620.24
397.97	629.60
398.16	662.37
398.35	622.58
398.55	664.71
398.74	603.86
398.93	629.60
399.12	557.05
399.32	582.79
399.51	638.97
399.70	669.39
399.90	636.63
400.09	627.26
400.28	678.76
400.47	606.20
400.67	664.71
400.86	660.03
401.05	685.78
401.24	704.50
401.44	653.01
401.63	575.77
401.82	641.31
402.01	615.56
402.21	657.69
402.40	603.86
402.59	585.13
402.78	566.41
402.97	676.41
403.17	613.22
403.36	676.41
403.55	671.73
403.74	608.54
403.93	568.75
404.13	734.93
404.32	599.18
404.51	667.05
404.70	688.12
404.89	650.67
405.09	702.16
405.28	660.03
405.47	568.75
405.66	613.22
405.85	636.63
406.05	657.69
406.24	648.33
406.43	671.73
406.62	627.26
406.81	601.52
407.00	631.94
407.20	641.31
407.39	674.07
407.58	674.07
407.77	648.33
407.96	669.39
408.15	655.35
408.34	643.65
408.54	575.77
408.73	585.13
408.92	603.86
409.11	667.05
409.30	594.50
409.49	648.33
409.68	681.10
409.87	596.84
410.07	552.37
410.26	681.10
410.45	676.41
410.64	592.16
410.83	653.01
411.02	636.63
411.21	610.88
411.40	608.54
411.59	631.94
411.78	615.56
411.98	613.22
412.17	645.99
412.36	587.47
412.55	660.03
412.74	620.24
412.93	678.76
413.12	653.01
413.31	624.92
413.50	610.88
413.69	601.52
413.88	641.31
414.07	606.20
414.26	660.03
414.45	716.20
414.64	641.31
414.83	638.97
415.02	676.41
415.22	711.52
415.41	599.18
415.60	594.50
415.79	664.71
415.98	585.13
416.17	622.58
416.36	688.12
416.55	657.69
416.74	641.31
416.93	589.82
417.12	641.31
417.31	690.46
417.50	667.05
417.69	636.63
417.88	653.01
418.07	580.45
418.26	601.52
418.45	667.05
418.64	730.25
418.83	585.13
419.02	641.31
419.21	547.69
419.39	622.58
419.58	620.24
419.77	629.60
419.96	657.69
420.15	709.18
420.34	643.65
420.53	613.22
420.72	671.73
420.91	657.69
421.10	641.31
421.29	566.41
421.48	685.78
421.67	667.05
421.86	669.39
422.05	559.39
422.24	557.05
422.43	643.65
422.61	580.45
422.80	634.29
422.99	617.90
423.18	678.76
423.37	655.35
423.56	613.22
423.75	634.29
423.94	648.33
424.13	589.82
424.32	636.63
424.50	638.97
424.69	638.97
424.88	592.16
425.07	606.20
425.26	636.63
425.45	617.90
425.64	585.13
425.83	674.07
426.01	643.65
426.20	641.31
426.39	631.94
426.58	573.43
426.77	582.79
426.96	662.37
427.15	638.97
427.33	636.63
427.52	599.18
427.71	585.13
427.90	617.90
428.09	627.26
428.28	650.67
428.46	615.56
428.65	601.52
428.84	594.50
429.03	692.80
429.22	622.58
429.40	552.37
429.59	629.60
429.78	648.33
429.97	601.52
430.16	669.39
430.34	706.84
430.53	599.18
430.72	627.26
430.91	629.60
431.10	603.86
431.28	610.88
431.47	678.76
431.66	678.76
431.85	578.11
432.03	615.56
432.22	648.33
432.41	641.31
432.60	725.57
432.79	596.84
432.97	540.66
433.16	599.18
433.35	573.43
433.54	617.90
433.72	671.73
433.91	601.52
434.10	622.58
434.28	629.60
434.47	585.13
434.66	732.59
434.85	727.91
435.03	807.48
435.22	919.83
435.41	994.73
435.59	985.37
435.78	954.94
435.97	823.87
436.16	770.04
436.34	723.23
436.53	608.54
436.72	624.92
436.90	711.52
437.09	629.60
437.28	683.44
437.46	620.24
437.65	580.45
437.84	629.60
438.02	631.94
438.21	660.03
438.40	678.76
438.58	603.86
438.77	671.73
438.96	585.13
439.14	645.99
439.33	589.82
439.52	578.11
439.70	638.97
439.89	660.03
440.08	615.56
440.26	636.63
440.45	643.65
440.63	608.54
440.82	631.94
441.01	599.18
441.19	624.92
441.38	631.94
441.57	636.63
441.75	692.80
441.94	664.71
442.12	550.03
442.31	613.22
442.50	566.41
442.68	594.50
442.87	671.73
443.05	587.47
443.24	559.39
443.43	660.03
443.61	601.52
443.80	636.63
443.98	636.63
444.17	543.00
444.35	655.35
444.54	585.13
444.73	627.26
444.91	566.41
445.10	613.22
445.28	636.63
445.47	674.07
445.65	690.46
445.84	610.88
446.02	617.90
446.21	704.50
446.39	620.24
446.58	631.94
446.77	676.41
446.95	629.60
447.14	638.97
447.32	648.33
447.51	603.86
447.69	582.79
447.88	627.26
448.06	622.58
448.25	650.67
448.43	655.35
448.62	638.97
448.80	627.26
448.99	636.63
449.17	662.37
449.36	624.92
449.54	620.24
449.73	606.20
449.91	653.01
450.10	641.31
450.28	690.46
450.46	683.44
450.65	627.26
450.83	645.99
451.02	599.18
451.20	631.94
451.39	655.35
451.57	610.88
451.76	622.58
451.94	655.35
452.13	627.26
452.31	648.33
452.49	702.16
452.68	660.03
452.86	617.90
453.05	662.37
453.23	613.22
453.42	669.39
453.60	624.92
453.78	582.79
453.97	662.37
454.15	535.98
454.34	662.37
454.52	578.11
454.70	634.29
454.89	603.86
455.07	662.37
455.26	650.67
455.44	669.39
455.62	613.22
455.81	676.41
455.99	650.67
456.17	648.33
456.36	657.69
456.54	608.54
456.73	662.37
456.91	641.31
457.09	594.50
457.28	601.52
457.46	615.56
457.64	697.48
457.83	671.73
458.01	624.92
458.19	594.50
458.38	615.56
458.56	748.97
458.74	662.37
458.93	674.07
459.11	706.84
459.29	596.84
459.48	638.97
459.66	573.43
459.84	627.26
460.03	688.12
460.21	720.88
460.39	603.86
460.57	674.07
460.76	580.45
460.94	599.18
461.12	645.99
461.31	629.60
461.49	653.01
461.67	676.41
461.85	688.12
462.04	603.86
462.22	1013.45
462.40	723.23
462.59	655.35
462.77	627.26
462.95	606.20
463.13	667.05
463.32	655.35
463.50	688.12
463.68	671.73
463.86	671.73
464.05	671.73
464.23	678.76
464.41	624.92
464.59	627.26
464.78	645.99
464.96	704.50
465.14	676.41
465.32	617.90
465.50	566.41
465.69	608.54
465.87	629.60
466.05	643.65
466.23	629.60
466.41	678.76
466.60	683.44
466.78	571.09
466.96	638.97
467.14	627.26
467.32	624.92
467.51	645.99
467.69	704.50
467.87	706.84
468.05	667.05
468.23	648.33
468.41	650.67
468.60	585.13
468.78	622.58
468.96	683.44
469.14	695.14
469.32	634.29
469.50	624.92
469.69	641.31
469.87	615.56
470.05	620.24
470.23	655.35
470.41	596.84
470.59	580.45
470.77	660.03
470.95	599.18
471.14	629.60
471.32	697.48
471.50	669.39
471.68	709.18
471.86	678.76
472.04	641.31
472.22	636.63
472.40	653.01
472.58	629.60
472.77	713.86
472.95	627.26
473.13	720.88
473.31	650.67
473.49	575.77
473.67	592.16
473.85	660.03
474.03	638.97
474.21	617.90
474.39	662.37
474.57	603.86
474.75	596.84
474.93	578.11
475.12	641.31
475.30	650.67
475.48	648.33
475.66	631.94
475.84	638.97
476.02	629.60
476.20	671.73
476.38	643.65
476.56	685.78
476.74	606.20
476.92	594.50
477.10	624.92
477.28	641.31
477.46	653.01
477.64	664.71
477.82	653.01
478.00	648.33
478.18	620.24
478.36	634.29
478.54	601.52
478.72	596.84
478.90	573.43
479.08	664.71
479.26	676.41
479.44	671.73
479.62	615.56
479.80	648.33
479.98	587.47
480.16	631.94
480.34	634.29
480.52	634.29
480.70	664.71
480.88	636.63
481.06	648.33
481.24	664.71
481.41	627.26
481.59	615.56
481.77	699.82
481.95	645.99
482.13	678.76
482.31	608.54
482.49	695.14
482.67	667.05
482.85	727.91
483.03	653.01
483.21	702.16
483.39	676.41
483.57	692.80
483.74	737.27
483.92	676.41
484.10	690.46
484.28	690.46
484.46	702.16
484.64	681.10
484.82	739.61
485.00	718.54
485.18	638.97
485.35	671.73
485.53	678.76
485.71	711.52
485.89	669.39
486.07	723.23
486.25	788.76
486.43	734.93
486.61	730.25
486.78	720.88
486.96	699.82
487.14	638.97
487.32	683.44
487.50	650.67
487.68	667.05
487.85	741.95
488.03	655.35
488.21	739.61
488.39	690.46
488.57	662.37
488.75	662.37
488.92	800.46
489.10	655.35
489.28	727.91
489.46	664.71
489.64	669.39
489.81	720.88
489.99	655.35
490.17	664.71
490.35	753.65
490.53	674.07
490.70	727.91
490.88	636.63
491.06	648.33
491.24	711.52
491.41	636.63
491.59	683.44
491.77	613.22
491.95	716.20
492.13	653.01
492.30	695.14
492.48	662.37
492.66	720.88
492.84	669.39
493.01	664.71
493.19	711.52
493.37	676.41
493.54	725.57
493.72	713.86
493.90	657.69
494.08	734.93
494.25	699.82
494.43	716.20
494.61	739.61
494.79	692.80
494.96	676.41
495.14	662.37
495.32	622.58
495.49	676.41
495.67	622.58
495.85	704.50
496.02	695.14
496.20	748.97
496.38	599.18
496.55	695.14
496.73	650.67
496.91	638.97
497.09	608.54
497.26	660.03
497.44	688.12
497.62	660.03
497.79	681.10
497.97	655.35
498.14	653.01
498.32	624.92
498.50	653.01
498.67	641.31
498.85	589.82
499.03	624.92
499.20	620.24
499.38	692.80
499.56	681.10
499.73	671.73
499.91	678.76
500.08	660.03
500.26	660.03
500.44	695.14
500.61	636.63
500.79	610.88
500.97	601.52
501.14	634.29
501.32	713.86
501.49	676.41
501.67	648.33
501.84	678.76
502.02	688.12
502.20	627.26
502.37	582.79
502.55	678.76
502.72	643.65
502.90	657.69
503.07	601.52
503.25	573.43
503.43	671.73
503.60	655.35
503.78	645.99
503.95	638.97
504.13	592.16
504.30	727.91
504.48	655.35
504.65	669.39
504.83	606.20
505.01	615.56
505.18	678.76
505.36	653.01
505.53	655.35
505.71	660.03
505.88	674.07
506.06	629.60
506.23	596.84
506.41	641.31
506.58	706.84
506.76	692.80
506.93	704.50
507.11	667.05
507.28	692.80
507.46	638.97
507.63	650.67
507.81	557.05
507.98	653.01
508.16	648.33
508.33	662.37
508.50	650.67
508.68	638.97
508.85	613.22
509.03	582.79
509.20	678.76
509.38	678.76
509.55	643.65
509.73	690.46
509.90	688.12
510.08	641.31
510.25	720.88
510.42	638.97
510.60	643.65
510.77	685.78
510.95	629.60
511.12	648.33
511.30	690.46
511.47	657.69
511.64	678.76
511.82	664.71
511.99	631.94
512.17	641.31
512.34	617.90
512.51	685.78
512.69	671.73
512.86	638.97
513.04	667.05
513.21	676.41
513.38	627.26
513.56	613.22
513.73	578.11
513.90	638.97
514.08	660.03
514.25	678.76
514.43	634.29
514.60	617.90
514.77	636.63
514.95	678.76
515.12	578.11
515.29	685.78
515.47	641.31
515.64	655.35
515.81	688.12
515.99	629.60
516.16	641.31
516.33	685.78
516.51	603.86
516.68	631.94
516.85	571.09
517.03	643.65
517.20	711.52
517.37	674.07
517.54	676.41
517.72	634.29
517.89	634.29
518.06	641.31
518.24	650.67
518.41	601.52
518.58	660.03
518.75	629.60
518.93	634.29
519.10	650.67
519.27	650.67
519.45	688.12
519.62	613.22
519.79	683.44
519.96	702.16
520.14	641.31
520.31	692.80
520.48	645.99
520.65	664.71
520.83	695.14
521.00	685.78
521.17	606.20
521.34	624.92
521.52	692.80
521.69	702.16
521.86	645.99
522.03	622.58
522.20	636.63
522.38	660.03
522.55	613.22
522.72	671.73
522.89	681.10
523.07	650.67
523.24	620.24
523.41	662.37
523.58	624.92
523.75	629.60
523.92	610.88
524.10	599.18
524.27	629.60
524.44	657.69
524.61	671.73
524.78	648.33
524.96	685.78
525.13	671.73
525.30	688.12
525.47	671.73
525.64	631.94
525.81	655.35
525.98	697.48
526.16	638.97
526.33	622.58
526.50	645.99
526.67	657.69
526.84	664.71
527.01	601.52
527.18	648.33
527.36	601.52
527.53	608.54
527.70	674.07
527.87	697.48
528.04	706.84
528.21	582.79
528.38	664.71
528.55	629.60
528.72	662.37
528.89	671.73
529.07	631.94
529.24	650.67
529.41	664.71
529.58	568.75
529.75	653.01
529.92	636.63
530.09	617.90
530.26	589.82
530.43	599.18
530.60	676.41
530.77	725.57
530.94	664.71
531.11	589.82
531.28	641.31
531.46	653.01
531.63	601.52
531.80	566.41
531.97	596.84
532.14	674.07
532.31	676.41
532.48	692.80
532.65	674.07
532.82	629.60
532.99	718.54
533.16	699.82
533.33	655.35
533.50	638.97
533.67	751.31
533.84	653.01
534.01	660.03
534.18	653.01
534.35	655.35
534.52	657.69
534.69	699.82
534.86	575.77
535.03	697.48
535.20	622.58
535.37	692.80
535.54	713.86
535.71	648.33
535.88	690.46
536.05	634.29
536.22	723.23
536.38	653.01
536.55	664.71
536.72	713.86
536.89	657.69
537.06	690.46
537.23	702.16
537.40	678.76
537.57	643.65
537.74	713.86
537.91	720.88
538.08	763.01
538.25	758.33
538.42	770.04
538.59	767.70
538.75	777.06
538.92	699.82
539.09	690.46
539.26	744.29
539.43	734.93
539.60	854.30
539.77	781.74
539.94	793.44
540.11	847.27
540.28	919.83
540.44	976.00
540.61	936.21
540.78	847.27
540.95	994.73
541.12	1116.44
541.29	1090.69
541.46	1188.99
541.62	1205.38
541.79	1181.97
541.96	1219.42
542.13	1107.07
542.30	1053.24
542.47	1142.18
542.63	1041.54
542.80	1111.75
542.97	1107.07
543.14	1181.97
543.31	1104.73
543.48	1184.31
543.64	1114.10
543.81	1050.90
543.98	1088.35
544.15	1107.07
544.32	1074.31
544.48	1151.54
544.65	1041.54
544.82	1086.01
544.99	1013.45
545.16	1191.33
545.32	1078.99
545.49	1432.41
545.66	1720.29
545.83	2003.50
546.00	1675.82
546.16	1444.11
546.33	1301.34
546.50	1284.95
546.67	1034.52
546.83	1027.50
547.00	894.08
547.17	926.85
547.34	905.79
547.50	863.66
547.67	894.08
547.84	891.74
548.00	926.85
548.17	840.25
548.34	837.91
548.51	809.83
548.67	910.47
548.84	898.77
549.01	858.98
549.18	875.36
549.34	877.70
549.51	870.68
549.68	849.61
549.84	823.87
550.01	828.55
550.18	884.72
550.34	812.17
550.51	732.59
550.68	826.21
550.84	755.99
551.01	758.33
551.18	753.65
551.34	744.29
551.51	828.55
551.68	720.88
551.84	655.35
552.01	746.63
552.18	763.01
552.34	734.93
552.51	805.14
552.68	711.52
552.84	753.65
553.01	706.84
553.18	816.85
553.34	716.20
553.51	674.07
553.67	702.16
553.84	725.57
554.01	734.93
554.17	753.65
554.34	624.92
554.51	662.37
554.67	662.37
554.84	720.88
555.00	709.18
555.17	643.65
555.33	709.18
555.50	709.18
555.67	585.13
555.83	678.76
556.00	674.07
556.16	802.80
556.33	678.76
556.50	655.35
556.66	657.69
556.83	678.76
556.99	622.58
557.16	648.33
557.32	627.26
557.49	617.90
557.65	603.86
557.82	690.46
557.98	676.41
558.15	568.75
558.32	669.39
558.48	624.92
558.65	669.39
558.81	648.33
558.98	660.03
559.14	702.16
559.31	657.69
559.47	615.56
559.64	681.10
559.80	727.91
559.97	702.16
560.13	653.01
560.30	662.37
560.46	592.16
560.63	627.26
560.79	669.39
560.96	641.31
561.12	606.20
561.29	718.54
561.45	601.52
561.61	664.71
561.78	690.46
561.94	615.56
562.11	631.94
562.27	678.76
562.44	655.35
562.60	683.44
562.77	716.20
562.93	704.50
563.10	685.78
563.26	653.01
563.42	709.18
563.59	674.07
563.75	592.16
563.92	655.35
564.08	634.29
564.24	648.33
564.41	638.97
564.57	660.03
564.74	634.29
564.90	608.54
565.07	638.97
565.23	620.24
565.39	608.54
565.56	655.35
565.72	610.88
565.88	645.99
566.05	608.54
566.21	697.48
566.38	629.60
566.54	648.33
566.70	636.63
566.87	613.22
567.03	608.54
567.19	610.88
567.36	627.26
567.52	674.07
567.68	620.24
567.85	559.39
568.01	631.94
568.17	669.39
568.34	713.86
568.50	739.61
568.66	669.39
568.83	744.29
568.99	578.11
569.15	657.69
569.32	690.46
569.48	622.58
569.64	629.60
569.81	671.73
569.97	617.90
570.13	636.63
570.30	678.76
570.46	608.54
570.62	648.33
570.78	601.52
570.95	627.26
571.11	683.44
571.27	650.67
571.43	601.52
571.60	678.76
571.76	669.39
571.92	622.58
572.09	599.18
572.25	620.24
572.41	667.05
572.57	648.33
572.74	725.57
572.90	601.52
573.06	620.24
573.22	718.54
573.38	671.73
573.55	624.92
573.71	657.69
573.87	709.18
574.03	636.63
574.20	636.63
574.36	674.07
574.52	634.29
574.68	662.37
574.84	662.37
575.01	664.71
575.17	664.71
575.33	636.63
575.49	634.29
575.65	606.20
575.82	624.92
575.98	573.43
576.14	720.88
576.30	631.94
576.46	784.08
576.62	840.25
576.79	847.27
576.95	856.64
577.11	786.42
577.27	755.99
577.43	786.42
577.59	727.91
577.75	660.03
577.92	645.99
578.08	688.12
578.24	669.39
578.40	711.52
578.56	730.25
578.72	924.51
578.88	910.47
579.04	819.19
579.21	716.20
579.37	779.40
579.53	713.86
579.69	837.91
579.85	723.23
580.01	758.33
580.17	770.04
580.33	716.20
580.49	734.93
580.65	748.97
580.82	699.82
580.98	676.41
581.14	692.80
581.30	706.84
581.46	741.95
581.62	767.70
581.78	716.20
581.94	734.93
582.10	767.70
582.26	702.16
582.42	704.50
582.58	772.38
582.74	765.36
582.90	821.53
583.06	734.93
583.22	800.46
583.38	753.65
583.54	777.06
583.70	812.17
583.86	760.67
584.02	753.65
584.18	809.83
584.34	732.59
584.50	791.10
584.66	765.36
584.82	725.57
584.98	770.04
585.14	664.71
585.30	723.23
585.46	767.70
585.62	704.50
585.78	755.99
585.94	730.25
586.10	758.33
586.26	779.40
586.42	814.51
586.58	798.12
586.74	781.74
586.90	798.12
587.06	786.42
587.22	800.46
587.38	763.01
587.54	795.78
587.70	809.83
587.86	786.42
588.02	725.57
588.18	753.65
588.34	763.01
588.49	734.93
588.65	636.63
588.81	741.95
588.97	706.84
589.13	734.93
589.29	603.86
589.45	730.25
589.61	741.95
589.77	788.76
589.93	713.86
590.08	732.59
590.24	765.36
590.40	772.38
590.56	730.25
590.72	767.70
590.88	725.57
591.04	676.41
591.20	688.12
591.35	772.38
591.51	744.29
591.67	723.23
591.83	725.57
591.99	727.91
592.15	800.46
592.31	730.25
592.46	744.29
592.62	734.93
592.78	842.59
592.94	755.99
593.10	709.18
593.26	770.04
593.41	760.67
593.57	767.70
593.73	777.06
593.89	763.01
594.05	627.26
594.20	777.06
594.36	725.57
594.52	697.48
594.68	713.86
594.84	739.61
594.99	725.57
595.15	645.99
595.31	713.86
595.47	704.50
595.62	711.52
595.78	664.71
595.94	681.10
596.10	667.05
596.25	622.58
596.41	695.14
596.57	688.12
596.73	706.84
596.88	655.35
597.04	655.35
597.20	716.20
597.36	655.35
597.51	676.41
597.67	695.14
597.83	620.24
597.99	676.41
598.14	669.39
598.30	685.78
598.46	681.10
598.61	624.92
598.77	695.14
598.93	727.91
599.09	741.95
599.24	674.07
599.40	709.18
599.56	660.03
599.71	720.88
599.87	706.84
600.03	833.23
600.18	681.10
600.34	751.31
600.50	671.73
600.65	725.57
600.81	617.90
600.97	664.71
601.12	648.33
601.28	662.37
601.44	685.78
601.59	631.94
601.75	660.03
601.91	657.69
602.06	709.18
602.22	702.16
602.37	657.69
602.53	655.35
602.69	765.36
602.84	667.05
603.00	692.80
603.16	711.52
603.31	706.84
603.47	671.73
603.62	634.29
603.78	709.18
603.94	674.07
604.09	674.07
604.25	709.18
604.40	655.35
604.56	645.99
604.71	676.41
604.87	620.24
605.03	678.76
605.18	580.45
605.34	730.25
605.49	692.80
605.65	617.90
605.80	688.12
605.96	734.93
606.12	800.46
606.27	683.44
606.43	732.59
606.58	704.50
606.74	655.35
606.89	594.50
607.05	723.23
607.20	695.14
607.36	706.84
607.51	624.92
607.67	669.39
607.82	744.29
607.98	751.31
608.13	664.71
608.29	814.51
608.44	770.04
608.60	737.27
608.75	732.59
608.91	779.40
609.06	856.64
609.22	777.06
609.37	798.12
609.53	819.19
609.68	840.25
609.84	809.83
