SpectraSuite Data File
++++++++++++++++++++++++++++++++++++
Date: Thu Oct 24 13:21:07 EDT 2013
User: stostad
Dark Spectrum Present: No
Reference Spectrum Present: No
Number of Sampled Component Spectra: 1
Spectrometers: USB2+H05261
Integration Time (usec): 100000 (USB2+H05261)
Spectra Averaged: 1 (USB2+H05261)
Boxcar Smoothing: 0 (USB2+H05261)
Correct for Electrical Dark: No (USB2+H05261)
Strobe/Lamp Enabled: No (USB2+H05261)
Correct for Detector Non-linearity: No (USB2+H05261)
Correct for Stray Light: No (USB2+H05261)
Number of Pixels in Processed Spectrum: 2048
>>>>>Begin Processed Spectral Data<<<<<
365.73	559.39
365.92	559.39
366.12	559.39
366.32	528.96
366.52	456.40
366.72	491.51
366.91	477.47
367.11	486.83
367.31	437.68
367.51	423.64
367.70	444.70
367.90	482.15
368.10	477.47
368.30	470.45
368.49	472.79
368.69	521.94
368.89	566.41
369.09	472.79
369.28	528.96
369.48	507.90
369.68	456.40
369.87	535.98
370.07	531.30
370.27	552.37
370.47	629.60
370.66	669.39
370.86	681.10
371.06	697.48
371.25	702.16
371.45	685.78
371.65	755.99
371.84	753.65
372.04	753.65
372.24	779.40
372.44	723.23
372.63	793.44
372.83	903.45
373.03	791.10
373.22	763.01
373.42	830.89
373.62	828.55
373.81	758.33
374.01	819.19
374.21	746.63
374.40	791.10
374.60	807.48
374.79	819.19
374.99	856.64
375.19	812.17
375.38	828.55
375.58	812.17
375.78	835.57
375.97	819.19
376.17	929.19
376.37	833.23
376.56	870.68
376.76	826.21
376.95	788.76
377.15	858.98
377.35	926.85
377.54	835.57
377.74	802.80
377.93	844.93
378.13	844.93
378.33	898.77
378.52	847.27
378.72	861.32
378.91	786.42
379.11	837.91
379.31	917.49
379.50	823.87
379.70	887.06
379.89	837.91
380.09	898.77
380.28	779.40
380.48	894.08
380.68	854.30
380.87	861.32
381.07	873.02
381.26	842.59
381.46	856.64
381.65	884.72
381.85	849.61
382.04	854.30
382.24	798.12
382.43	861.32
382.63	880.04
382.83	901.11
383.02	903.45
383.22	866.00
383.41	884.72
383.61	851.96
383.80	884.72
384.00	889.40
384.19	933.87
384.39	842.59
384.58	891.74
384.78	877.70
384.97	884.72
385.17	884.72
385.36	894.08
385.56	910.47
385.75	894.08
385.95	866.00
386.14	952.60
386.34	915.15
386.53	917.49
386.72	912.81
386.92	943.24
387.11	943.24
387.31	968.98
387.50	954.94
387.70	931.53
387.89	898.77
388.09	952.60
388.28	884.72
388.48	936.21
388.67	968.98
388.86	947.92
389.06	994.73
389.25	966.64
389.45	952.60
389.64	968.98
389.84	1032.18
390.03	954.94
390.22	1034.52
390.42	1011.11
390.61	1013.45
390.81	1018.13
391.00	947.92
391.19	1064.94
391.39	952.60
391.58	959.62
391.78	1018.13
391.97	1053.24
392.16	971.32
392.36	1111.75
392.55	1088.35
392.75	1050.90
392.94	1074.31
393.13	1083.67
393.33	1027.50
393.52	1020.47
393.71	1027.50
393.91	1090.69
394.10	1046.22
394.29	1057.92
394.49	1123.46
394.68	1118.78
394.88	992.39
395.07	1069.62
395.26	1116.44
395.46	1041.54
395.65	1132.82
395.84	1128.14
396.04	1104.73
396.23	1055.58
396.42	1032.18
396.62	1163.25
396.81	1149.20
397.00	1069.62
397.19	1125.80
397.39	1172.61
397.58	1104.73
397.77	1081.33
397.97	1149.20
398.16	1086.01
398.35	1207.72
398.55	1191.33
398.74	1125.80
398.93	1245.16
399.12	1172.61
399.32	1137.50
399.51	1224.10
399.70	1196.01
399.90	1170.27
400.09	1144.52
400.28	1221.76
400.47	1226.44
400.67	1282.61
400.86	1177.29
401.05	1280.27
401.24	1242.82
401.44	1261.55
401.63	1273.25
401.82	1287.29
402.01	1196.01
402.21	1263.89
402.40	1282.61
402.59	1282.61
402.78	1324.74
402.97	1327.08
403.17	1299.00
403.36	1376.24
403.55	1327.08
403.74	1245.16
403.93	1296.66
404.13	1376.24
404.32	1299.00
404.51	1448.79
404.70	1383.26
404.89	1437.09
405.09	1474.54
405.28	1446.45
405.47	1493.26
405.66	1465.18
405.85	1413.68
406.05	1439.43
406.24	1451.13
406.43	1434.75
406.62	1432.41
406.81	1481.56
407.00	1444.11
407.20	1343.47
407.39	1465.18
407.58	1469.86
407.77	1544.75
407.96	1490.92
408.15	1540.07
408.34	1542.41
408.54	1504.96
408.73	1509.65
408.92	1533.05
409.11	1551.78
409.30	1570.50
409.49	1598.59
409.68	1554.12
409.87	1427.73
410.07	1650.08
410.26	1593.90
410.45	1556.46
410.64	1638.38
410.83	1701.57
411.02	1614.97
411.21	1720.29
411.40	1591.56
411.59	1593.90
411.78	1645.40
411.98	1631.35
412.17	1694.55
412.36	1802.21
412.55	1776.47
412.74	1769.44
412.93	1827.96
413.12	1797.53
413.31	1827.96
413.50	1710.93
413.69	1795.19
413.88	1797.53
414.07	1816.26
414.26	1830.30
414.45	1776.47
414.64	1813.92
414.83	1949.67
415.02	1877.11
415.22	1907.54
415.41	1923.92
415.60	1923.92
415.79	1909.88
415.98	1998.82
416.17	2010.52
416.36	1853.70
416.55	1966.05
416.74	2054.99
416.93	1987.11
417.12	2026.90
417.31	1970.73
417.50	2005.84
417.69	2113.50
417.88	2080.74
418.07	1984.77
418.26	1977.75
418.45	2064.35
418.64	2129.89
418.83	2094.78
419.02	2127.55
419.21	2129.89
419.39	2197.76
419.58	2176.70
419.77	2132.23
419.96	2195.42
420.15	2165.00
420.34	2193.08
420.53	2251.60
420.72	2179.04
420.91	2186.06
421.10	2314.79
421.29	2174.36
421.48	2157.97
421.67	2190.74
421.86	2218.83
422.05	2195.42
422.24	2272.66
422.43	2202.44
422.61	2186.06
422.80	2277.34
422.99	2319.47
423.18	2298.41
423.37	2340.54
423.56	2310.11
423.75	2408.41
423.94	2197.76
424.13	2174.36
424.32	2225.85
424.50	2321.81
424.69	2354.58
424.88	2361.60
425.07	2270.32
425.26	2335.85
425.45	2289.04
425.64	2342.88
425.83	2260.96
426.01	2272.66
426.20	2349.90
426.39	2373.30
426.58	2246.91
426.77	2310.11
426.96	2328.83
427.15	2326.49
427.33	2310.11
427.52	2368.62
427.71	2427.14
427.90	2478.63
428.09	2389.69
428.28	2410.75
428.46	2492.67
428.65	2389.69
428.84	2572.25
429.03	2469.27
429.22	2406.07
429.40	2420.11
429.59	2558.21
429.78	2389.69
429.97	2403.73
430.16	2523.10
430.34	2511.39
430.53	2455.22
430.72	2436.50
430.91	2637.78
431.10	2513.74
431.28	2651.83
431.47	2640.12
431.66	2614.38
431.85	2649.49
432.03	2642.46
432.22	2612.04
432.41	2602.68
432.60	2572.25
432.79	2656.51
432.97	2602.68
433.16	2731.41
433.35	2520.76
433.54	2696.30
433.72	2658.85
433.91	2635.44
434.10	2703.32
434.28	2623.74
434.47	2686.94
434.66	2836.73
434.85	2808.64
435.03	2911.63
435.22	3023.97
435.41	3112.91
435.59	3133.98
435.78	3126.96
435.97	3040.36
436.16	3019.29
436.34	2951.42
436.53	2878.86
436.72	2951.42
436.90	2789.92
437.09	2792.26
437.28	2780.56
437.46	2881.20
437.65	2855.45
437.84	2937.37
438.02	2806.30
438.21	2904.60
438.40	2855.45
438.58	3021.63
438.77	3061.42
438.96	3178.45
439.14	3066.10
439.33	3068.44
439.52	3030.99
439.70	3026.31
439.89	3131.64
440.08	3183.13
440.26	3141.00
440.45	3157.38
440.63	3059.08
440.82	3215.90
441.01	3138.66
441.19	3218.24
441.38	3236.96
441.57	3204.19
441.75	3194.83
441.94	3346.97
442.12	3279.09
442.31	3363.35
442.50	3419.52
442.68	3375.05
442.87	3365.69
443.05	3239.30
443.24	3358.67
443.43	3342.28
443.61	3412.50
443.80	3426.54
443.98	3265.05
444.17	3272.07
444.35	3419.52
444.54	3468.67
444.73	3421.86
444.91	3475.70
445.10	3510.80
445.28	3555.27
445.47	3428.88
445.65	3496.76
445.84	3585.70
446.02	3421.86
446.21	3471.01
446.39	3304.84
446.58	3506.12
446.77	3531.87
446.95	3407.82
447.14	3445.27
447.32	3459.31
447.51	3325.90
447.69	3487.40
447.88	3559.95
448.06	3592.72
448.25	3524.85
448.43	3700.39
448.62	3613.79
448.80	3536.55
448.99	3536.55
449.17	3599.74
449.36	3489.74
449.54	3562.30
449.73	3627.83
449.91	3740.18
450.10	3700.39
450.28	3737.84
450.46	3693.37
450.65	3662.94
450.83	3641.87
451.02	3726.13
451.20	3688.68
451.39	3744.86
451.57	3604.42
451.76	3674.64
451.94	3712.09
452.13	3716.77
452.31	3850.18
452.49	3637.19
452.68	3880.61
452.86	3768.26
453.05	3702.73
453.23	3840.82
453.42	3864.22
453.60	3716.77
453.78	3812.73
453.97	3836.14
454.15	3932.10
454.34	3735.50
454.52	3932.10
454.70	3833.80
454.89	3854.86
455.07	3906.35
455.26	3988.27
455.44	4051.47
455.62	4016.36
455.81	3892.31
455.99	4016.36
456.17	4060.83
456.36	3941.46
456.54	3948.48
456.73	4098.28
456.91	4131.05
457.09	4201.26
457.28	4229.35
457.46	4191.90
457.64	4196.58
457.83	4189.56
458.01	4124.02
458.19	4308.93
458.38	4271.48
458.56	4238.71
458.74	4266.80
458.93	4280.84
459.11	4149.77
459.29	4105.30
459.48	4245.73
459.66	4388.50
459.84	4362.76
460.03	4458.72
460.21	4318.29
460.39	4306.59
460.57	4332.33
460.76	4332.33
460.94	4348.72
461.12	4526.60
461.31	4432.97
461.49	4212.96
461.67	4393.19
461.85	4538.30
462.04	4493.83
462.22	4807.46
462.40	4580.43
462.59	4379.14
462.77	4468.08
462.95	4507.87
463.13	4582.77
463.32	4557.02
463.50	4697.46
463.68	4512.55
463.86	4678.73
464.05	4573.41
464.23	4610.86
464.41	4634.26
464.59	4585.11
464.78	4655.33
464.96	4697.46
465.14	4519.57
465.32	4702.14
465.50	4777.03
465.69	4650.64
465.87	4704.48
466.05	4580.43
466.23	4788.74
466.41	4889.38
466.60	4791.08
466.78	4706.82
466.96	4739.58
467.14	4805.12
467.32	4854.27
467.51	4737.24
467.69	4861.29
467.87	4849.59
468.05	4924.49
468.23	4854.27
468.41	4814.48
468.60	4835.55
468.78	5029.81
468.96	4887.04
469.14	4936.19
469.32	4985.34
469.50	4975.98
469.69	5050.88
469.87	4999.38
470.05	5050.88
470.23	5057.90
470.41	4950.23
470.59	5186.63
470.77	5071.94
470.95	4999.38
471.14	5151.52
471.32	5081.30
471.50	5177.26
471.68	5069.60
471.86	5256.84
472.04	5165.56
472.22	5317.70
472.40	5294.29
472.58	5352.81
472.77	5284.93
472.95	5345.78
473.13	5554.09
473.31	5205.35
473.49	5458.13
473.67	5413.66
473.85	5434.72
474.03	5397.28
474.21	5565.79
474.39	5528.35
474.57	5577.50
474.75	5717.93
474.93	5753.04
475.12	5528.35
475.30	5767.08
475.48	5743.67
475.66	5640.69
475.84	5664.10
476.02	5591.54
476.20	5687.50
476.38	5900.49
476.56	6010.50
476.74	5966.03
476.92	5849.00
477.10	5755.38
477.28	6085.39
477.46	5853.68
477.64	5900.49
477.82	6069.01
478.00	6310.08
478.18	6284.34
478.36	6270.30
478.54	6438.81
478.72	6335.83
478.90	6403.71
479.08	6476.26
479.26	6363.92
479.44	6490.31
479.62	6647.12
479.80	6656.48
479.98	6853.09
480.16	6766.49
480.34	6679.89
480.52	6729.04
480.70	6813.30
480.88	6843.73
481.06	6764.15
481.24	6839.05
481.41	6885.86
481.59	7087.14
481.77	7014.59
481.95	6988.84
482.13	7332.90
482.31	7363.33
482.49	7304.81
482.67	7375.03
482.85	7492.05
483.03	7428.86
483.21	7602.06
483.39	7761.22
483.57	7489.71
483.74	7705.04
483.92	7658.23
484.10	7709.72
484.28	7836.11
484.46	7887.61
484.64	8142.72
484.82	8004.63
485.00	8021.02
485.18	8219.96
485.35	8437.63
485.53	8425.93
485.71	8238.69
485.89	8390.82
486.07	8374.44
486.25	8615.51
486.43	8334.65
486.61	8599.13
486.78	8615.51
486.96	8774.67
487.14	8973.61
487.32	8992.34
487.50	8947.87
487.68	8903.40
487.85	9249.80
488.03	9238.09
488.21	9277.88
488.39	9212.35
488.57	9167.88
488.75	9275.54
488.92	9525.98
489.10	9399.59
489.28	9680.46
489.46	9467.47
489.64	9715.56
489.81	10015.15
489.99	9685.14
490.17	9813.87
490.35	10101.75
490.53	9921.53
490.70	10204.74
490.88	9898.13
491.06	10225.80
491.24	10321.76
491.41	10370.91
491.59	10310.06
491.77	10361.55
491.95	10497.30
492.13	10214.10
492.30	10686.89
492.48	10396.66
492.66	10546.45
492.84	10787.53
493.01	11098.82
493.19	10850.72
493.37	10836.68
493.54	10920.94
493.72	10911.58
493.90	10822.64
494.08	11110.52
494.25	11239.25
494.43	11070.73
494.61	11234.57
494.79	11367.98
494.96	11309.47
495.14	11215.85
495.32	11590.33
495.49	11475.65
495.67	11826.73
495.85	11796.30
496.02	11782.26
496.20	11894.60
496.38	11967.16
496.55	11969.50
496.73	12212.92
496.91	12100.57
497.09	12184.83
497.26	11981.20
497.44	12123.98
497.62	12271.43
497.79	12435.27
497.97	12336.96
498.14	12535.91
498.32	12564.00
498.50	12489.10
498.67	12851.88
498.85	12294.83
499.03	12718.47
499.20	12683.36
499.38	12856.56
499.56	12865.92
499.73	12720.81
499.91	12793.37
500.08	12989.97
500.26	12905.71
500.44	13076.57
500.61	13226.37
500.79	13217.01
500.97	13392.55
501.14	13357.44
501.32	13132.75
501.49	13469.78
501.67	13507.23
501.84	13369.14
502.02	13532.98
502.20	13710.86
502.37	13638.30
502.55	13549.36
502.72	13570.43
502.90	13364.46
503.07	13659.37
503.25	13736.60
503.43	13572.77
503.60	13949.59
503.78	13968.32
503.95	13916.83
504.13	13841.93
504.30	14108.75
504.48	13958.96
504.65	14181.31
504.83	14183.65
505.01	14270.25
505.18	14080.66
505.36	14162.58
505.53	14132.15
505.71	14232.80
505.88	14441.11
506.06	14413.02
506.23	14525.36
506.41	14356.85
506.58	14356.85
506.76	14380.25
506.93	14429.40
507.11	14518.34
507.28	14721.97
507.46	14759.42
507.63	14860.06
507.81	14644.73
507.98	14747.72
508.16	14621.33
508.33	14766.44
508.50	14771.12
508.68	15105.82
508.85	14923.26
509.03	15126.88
509.20	15033.26
509.38	15321.15
509.55	15204.12
509.73	15330.51
509.90	15517.75
510.08	15543.50
510.25	15447.54
510.42	15382.00
510.60	15365.62
510.77	15482.64
510.95	15566.90
511.12	15346.89
511.30	15426.47
511.47	15683.93
511.64	15782.23
511.82	15784.57
511.99	15742.44
512.17	15754.15
512.34	16025.65
512.51	15974.16
512.69	16065.44
512.86	16002.24
513.04	16109.91
513.21	15967.13
513.38	16102.89
513.56	16189.49
513.73	16343.96
513.90	16372.05
514.08	16264.38
514.25	16535.88
514.43	16390.77
514.60	16259.70
514.77	16362.69
514.95	16362.69
515.12	16287.79
515.29	16489.07
515.47	16695.04
515.64	16723.13
515.81	16585.04
515.99	16643.55
516.16	16444.60
516.33	16737.17
516.51	16830.79
516.68	16688.02
516.85	16783.98
517.03	16791.00
517.20	17165.49
517.37	17029.74
517.54	17308.26
517.72	16861.22
517.89	17027.40
518.06	16996.97
518.24	17214.64
518.41	17228.68
518.58	17160.81
518.75	16905.69
518.93	17303.58
519.10	17294.22
519.27	17280.18
519.45	17373.80
519.62	17429.97
519.79	17404.22
519.96	17163.15
520.14	17469.76
520.31	17434.65
520.48	17633.60
520.65	17462.74
520.83	17750.62
521.00	18237.45
521.17	17769.35
521.34	17790.41
521.52	17692.11
521.69	17661.68
521.86	17909.78
522.03	17994.04
522.20	17898.08
522.38	18153.20
522.55	18143.83
522.72	18317.03
522.89	18045.53
523.07	18200.01
523.24	17958.93
523.41	18253.84
523.58	18221.07
523.75	18382.57
523.92	18389.59
524.10	18480.87
524.27	18361.50
524.44	18401.29
524.61	18324.05
524.78	18267.88
524.96	18331.08
525.13	18415.34
525.30	18551.09
525.47	18813.23
525.64	18581.51
525.81	18614.28
525.98	18991.11
526.16	18820.25
526.33	18618.96
526.50	19023.87
526.67	18712.58
526.84	18672.79
527.01	18747.69
527.18	18609.60
527.36	18930.25
527.53	18864.72
527.70	19063.66
527.87	18956.00
528.04	19199.41
528.21	18974.72
528.38	19166.65
528.55	19286.01
528.72	18988.77
528.89	19168.99
529.07	19068.34
529.24	19213.46
529.41	18977.06
529.58	19192.39
529.75	19513.05
529.92	19360.91
530.09	19506.02
530.26	19529.43
530.43	19168.99
530.60	19211.12
530.77	19468.58
530.94	19583.26
531.11	19611.35
531.28	19611.35
531.46	19798.59
531.63	19824.34
531.80	19302.40
531.97	19552.84
532.14	19569.22
532.31	19466.24
532.48	19864.13
532.65	20030.30
532.82	19770.51
532.99	19751.78
533.16	20290.10
533.33	20065.41
533.50	20191.80
533.67	20049.03
533.84	19899.23
534.01	19882.85
534.18	20159.03
534.35	20187.12
534.52	19999.88
534.69	20264.36
534.86	20348.62
535.03	20126.27
535.20	20095.84
535.37	20327.55
535.54	20482.03
535.71	20243.29
535.88	20437.56
536.05	20521.82
536.22	20559.27
536.38	20573.31
536.55	20449.26
536.72	20493.73
536.89	20585.01
537.06	20561.61
537.23	20858.85
537.40	20971.20
537.57	20732.47
537.74	20767.57
537.91	20680.97
538.08	20847.15
538.25	20585.01
538.42	20688.00
538.59	20507.77
538.75	20718.42
538.92	20879.92
539.09	20959.50
539.26	20980.56
539.43	20732.47
539.60	21032.05
539.77	20816.72
539.94	21090.57
540.11	21193.55
540.28	21446.33
540.44	21277.81
540.61	21205.25
540.78	21298.88
540.95	21074.18
541.12	21170.15
541.29	21296.53
541.46	21570.38
541.62	21832.52
541.79	21617.19
541.96	21369.09
542.13	21656.98
542.30	21837.20
542.47	21584.42
542.63	21619.53
542.80	21631.23
542.97	21954.22
543.14	22265.52
543.31	22092.32
543.48	21972.95
543.64	22298.28
543.81	21706.13
543.98	22148.49
544.15	22015.08
544.32	21958.91
544.48	22064.23
544.65	22111.04
544.82	22302.96
544.99	22122.74
545.16	22225.73
545.32	22403.61
545.49	22838.95
545.66	22895.12
545.83	23183.01
546.00	22883.42
546.16	22993.42
546.33	22810.86
546.50	22492.55
546.67	22537.02
546.83	21956.57
547.00	22108.70
547.17	22073.59
547.34	22001.04
547.50	22469.14
547.67	22520.63
547.84	22405.95
548.00	22148.49
548.17	22298.28
548.34	22293.60
548.51	22272.54
548.67	22405.95
548.84	22300.62
549.01	22614.26
549.18	22434.03
549.34	22600.21
549.51	22377.86
549.68	22396.59
549.84	22424.67
550.01	22483.19
550.18	22436.38
550.34	22466.80
550.51	22731.28
550.68	22466.80
550.84	22370.84
551.01	22317.01
551.18	22230.41
551.34	22190.62
551.51	22429.35
551.68	22506.59
551.84	22359.14
552.01	22434.03
552.18	22370.84
552.34	22520.63
552.51	22670.43
552.68	22501.91
552.84	22602.55
553.01	22712.56
553.18	22761.71
553.34	22785.12
553.51	22710.22
553.67	22850.65
553.84	22888.10
554.01	22988.74
554.17	23005.13
554.34	22895.12
554.51	22925.55
554.67	22995.76
554.84	23094.07
555.00	23068.32
555.17	22726.60
555.33	22939.59
555.50	22410.63
555.67	22539.36
555.83	22888.10
556.00	22995.76
556.16	23077.68
556.33	22963.00
556.50	22902.14
556.66	23042.57
556.83	22609.58
556.99	22932.57
557.16	22754.69
557.32	23374.93
557.49	23215.77
557.65	23000.44
557.82	22951.29
557.98	22558.08
558.15	23101.09
558.32	23257.90
558.48	23199.39
558.65	23557.49
558.81	23063.64
558.98	23119.81
559.14	23293.01
559.31	23187.69
559.47	23089.38
559.64	23323.44
559.80	23274.29
559.97	23082.36
560.13	23002.78
560.30	23356.21
560.46	23328.12
560.63	23166.62
560.79	23304.71
560.96	23349.18
561.12	23330.46
561.29	23419.40
561.45	23220.45
561.61	23592.60
561.78	23264.92
561.94	23300.03
562.11	23424.08
562.27	23644.09
562.44	23538.77
562.60	23051.94
562.77	23480.25
562.93	23363.23
563.10	23861.76
563.26	23424.08
563.42	23517.70
563.59	23482.59
563.75	23601.96
563.92	23695.58
564.08	23534.09
564.24	23566.85
564.41	23625.37
564.57	23484.94
564.74	23414.72
564.90	23796.23
565.07	23796.23
565.23	23513.02
565.39	23274.29
565.56	23826.65
565.72	23800.91
565.88	23824.31
566.05	23761.12
566.21	23517.70
566.38	23339.82
566.54	23716.65
566.70	23852.40
566.87	24100.50
567.03	23700.26
567.19	23859.42
567.36	23824.31
567.52	23592.60
567.68	23950.70
567.85	23669.84
568.01	23665.16
568.17	23786.86
568.34	24002.19
568.50	24009.22
568.66	24025.60
568.83	23864.10
568.99	23758.78
569.15	23735.37
569.32	23962.40
569.48	23569.19
569.64	23667.50
569.81	23807.93
569.97	23433.44
570.13	24217.52
570.30	23550.47
570.46	23793.89
570.62	23627.71
570.78	23737.71
570.95	23924.96
571.11	23583.24
571.27	23580.90
571.43	23421.74
571.60	23814.95
571.76	23845.38
571.92	23702.61
572.09	24053.69
572.25	24105.18
572.41	24018.58
572.57	23978.79
572.74	24266.67
572.90	23765.80
573.06	23910.91
573.22	24065.39
573.38	24084.11
573.55	23702.61
573.71	23946.02
573.87	23857.08
574.03	24259.65
574.20	23821.97
574.36	23906.23
574.52	24049.00
574.68	23782.18
574.84	24414.13
575.01	24013.90
575.17	23997.51
575.33	23887.51
575.49	23740.05
575.65	24212.84
575.82	24027.94
575.98	23910.91
576.14	23953.04
576.30	24006.87
576.46	24212.84
576.62	23627.71
576.79	24112.20
576.95	24187.10
577.11	24173.05
577.27	23974.11
577.43	24166.03
577.59	24442.21
577.75	24098.16
577.92	24020.92
578.08	23828.99
578.24	23983.47
578.40	24191.78
578.56	24109.86
578.72	24362.64
578.88	24458.60
579.04	24781.59
579.21	24287.74
579.37	23990.49
579.53	24542.86
579.69	23955.38
579.85	24343.91
580.01	24322.85
580.17	24170.71
580.33	23960.06
580.49	23826.65
580.65	24191.78
580.82	23936.66
580.98	24142.63
581.14	24297.10
581.30	24474.98
581.46	24264.33
581.62	24020.92
581.78	23985.81
581.94	24294.76
582.10	23915.59
582.26	24109.86
582.42	24053.69
582.58	24198.80
582.74	24077.09
582.90	24493.71
583.06	24180.07
583.22	24168.37
583.38	24119.22
583.54	24004.53
583.70	23880.49
583.86	24393.06
584.02	23828.99
584.18	24568.60
584.34	24084.11
584.50	24135.60
584.66	23840.70
584.82	24240.93
584.98	24238.59
585.14	24224.54
585.30	24240.93
585.46	24053.69
585.62	24100.50
585.78	24290.08
585.94	24254.97
586.10	24458.60
586.26	24423.49
586.42	24269.01
586.58	24079.43
586.74	24109.86
586.90	24395.40
587.06	24065.39
587.22	24276.04
587.38	24383.70
587.54	24561.58
587.70	24652.86
587.86	24154.33
588.02	24294.76
588.18	24648.18
588.34	24393.06
588.49	24381.36
588.65	24432.85
588.81	24430.51
588.97	24451.58
589.13	24285.40
589.29	24329.87
589.45	24444.56
589.61	24477.32
589.77	24304.12
589.93	24322.85
590.08	24320.51
590.24	24341.57
590.40	24397.74
590.56	24364.98
590.72	24577.97
590.88	24395.40
