SpectraSuite Data File
++++++++++++++++++++++++++++++++++++
Date: Thu Oct 24 13:21:30 EDT 2013
User: stostad
Dark Spectrum Present: No
Reference Spectrum Present: No
Number of Sampled Component Spectra: 1
Spectrometers: USB2+H05261
Integration Time (usec): 100000 (USB2+H05261)
Spectra Averaged: 1 (USB2+H05261)
Boxcar Smoothing: 0 (USB2+H05261)
Correct for Electrical Dark: No (USB2+H05261)
Strobe/Lamp Enabled: No (USB2+H05261)
Correct for Detector Non-linearity: No (USB2+H05261)
Correct for Stray Light: No (USB2+H05261)
Number of Pixels in Processed Spectrum: 2048
>>>>>Begin Processed Spectral Data<<<<<
365.73	592.16
365.92	592.16
366.12	592.16
366.32	454.06
366.52	552.37
366.72	447.04
366.91	456.40
367.11	517.26
367.31	465.77
367.51	444.70
367.70	425.98
367.90	440.02
368.10	461.09
368.30	458.74
368.49	449.38
368.69	421.30
368.89	510.24
369.09	472.79
369.28	592.16
369.48	421.30
369.68	524.28
369.87	550.03
370.07	475.13
370.27	554.71
370.47	678.76
370.66	1004.09
370.86	1109.41
371.06	1036.86
371.25	1165.59
371.45	1137.50
371.65	1043.88
371.84	1181.97
372.04	1102.39
372.24	1226.44
372.44	1158.57
372.63	1179.63
372.83	1205.38
373.03	1036.86
373.22	1174.95
373.42	1193.67
373.62	1275.59
373.81	1259.21
374.01	1282.61
374.21	1284.95
374.40	1320.06
374.60	1296.66
374.79	1221.76
374.99	1294.32
375.19	1331.76
375.38	1284.95
375.58	1261.55
375.78	1270.91
375.97	1380.92
376.17	1362.19
376.37	1338.79
376.56	1387.94
376.76	1327.08
376.95	1376.24
377.15	1411.34
377.35	1345.81
377.54	1425.39
377.74	1371.55
377.93	1425.39
378.13	1432.41
378.33	1434.75
378.52	1453.47
378.72	1437.09
378.91	1511.99
379.11	1432.41
379.31	1373.89
379.50	1460.49
379.70	1481.56
379.89	1526.03
380.09	1418.36
380.28	1481.56
380.48	1558.80
380.68	1497.94
380.87	1425.39
381.07	1509.65
381.26	1462.83
381.46	1579.86
381.65	1516.67
381.85	1537.73
382.04	1600.93
382.24	1607.95
382.43	1591.56
382.63	1563.48
382.83	1586.88
383.02	1664.12
383.22	1717.95
383.41	1621.99
383.61	1593.90
383.80	1645.40
384.00	1638.38
384.19	1640.72
384.39	1633.69
384.58	1703.91
384.78	1680.50
384.97	1760.08
385.17	1713.27
385.36	1717.95
385.56	1727.32
385.75	1619.65
385.95	1757.74
386.14	1732.00
386.34	1710.93
386.53	1849.02
386.72	1781.15
386.92	1806.89
387.11	1867.75
387.31	1874.77
387.50	1830.30
387.70	1895.83
387.89	1734.34
388.09	1834.98
388.28	1872.43
388.48	1748.38
388.67	1879.45
388.86	1907.54
389.06	1963.71
389.25	1930.94
389.45	1935.62
389.64	1973.07
389.84	1928.60
390.03	1959.03
390.22	1947.33
390.42	1980.09
390.61	1898.17
390.81	2043.29
391.00	2076.06
391.19	2043.29
391.39	2064.35
391.58	2047.97
391.78	2113.50
391.97	2155.63
392.16	2136.91
392.36	2113.50
392.55	2134.57
392.75	2085.42
392.94	2176.70
393.13	2083.08
393.33	2244.57
393.52	2160.31
393.71	2225.85
393.91	2221.17
394.10	2307.77
394.29	2216.49
394.49	2232.87
394.68	2277.34
394.88	2277.34
395.07	2331.17
395.26	2296.07
395.46	2342.88
395.65	2413.09
395.84	2321.81
396.04	2422.45
396.23	2366.28
396.42	2406.07
396.62	2403.73
396.81	2499.69
397.00	2483.31
397.19	2392.03
397.39	2431.82
397.58	2392.03
397.77	2441.18
397.97	2567.57
398.16	2516.08
398.35	2654.17
398.55	2602.68
398.74	2644.81
398.93	2668.21
399.12	2736.09
399.32	2719.70
399.51	2612.04
399.70	2654.17
399.90	2689.28
400.09	2710.34
400.28	2867.16
400.47	2661.19
400.67	2878.86
400.86	2768.85
401.05	2820.35
401.24	2874.18
401.44	2895.24
401.63	2843.75
401.82	2834.39
402.01	2834.39
402.21	2970.14
402.40	2843.75
402.59	2958.44
402.78	2995.89
402.97	3030.99
403.17	3091.85
403.36	3141.00
403.55	3073.12
403.74	3082.49
403.93	3208.87
404.13	3274.41
404.32	3129.30
404.51	3236.96
404.70	3159.72
404.89	3309.52
405.09	3243.98
405.28	3197.17
405.47	3267.39
405.66	3199.51
405.85	3351.65
406.05	3351.65
406.24	3239.30
406.43	3389.10
406.62	3590.38
406.81	3349.31
407.00	3309.52
407.20	3379.73
407.39	3475.70
407.58	3433.57
407.77	3639.53
407.96	3606.77
408.15	3634.85
408.34	3569.32
408.54	3754.22
408.73	3623.15
408.92	3613.79
409.11	3758.90
409.30	3646.55
409.49	3850.18
409.68	3831.46
409.87	3861.88
410.07	3878.27
410.26	3981.25
410.45	3878.27
410.64	3836.14
410.83	3887.63
411.02	4093.60
411.21	4053.81
411.40	3946.14
411.59	4067.85
411.78	4021.04
411.98	4236.37
412.17	4187.22
412.36	4283.18
412.55	4362.76
412.74	4287.86
412.93	4341.69
413.12	4173.18
413.31	4554.68
413.50	4322.97
413.69	4381.48
413.88	4503.19
414.07	4571.07
414.26	4709.16
414.45	4631.92
414.64	4573.41
414.83	4676.39
415.02	4858.95
415.22	4784.06
415.41	4880.02
415.60	4875.34
415.79	5008.75
415.98	4959.60
416.17	5149.18
416.36	5057.90
416.55	4985.34
416.74	5107.05
416.93	5100.03
417.12	5104.71
417.31	5376.21
417.50	5153.86
417.69	5502.60
417.88	5327.06
418.07	5240.46
418.26	5371.53
418.45	5277.91
418.64	5584.52
418.83	5526.00
419.02	5523.66
419.21	5605.58
419.39	5638.35
419.58	5696.86
419.77	5490.90
419.96	5647.71
420.15	5774.10
420.34	5631.33
420.53	5767.08
420.72	5687.50
420.91	5746.02
421.10	5930.92
421.29	6050.28
421.48	5827.93
421.67	6099.44
421.86	5884.11
422.05	6153.27
422.24	6003.47
422.43	6057.31
422.61	6310.08
422.80	6057.31
422.99	6059.65
423.18	6171.99
423.37	6139.23
423.56	6176.67
423.75	6057.31
423.94	6040.92
424.13	5809.21
424.32	5912.19
424.50	6160.29
424.69	6197.74
424.88	6157.95
425.07	6202.42
425.26	5996.45
425.45	6218.80
425.64	6258.59
425.83	6190.72
426.01	6167.31
426.20	6300.72
426.39	6164.97
426.58	6071.35
426.77	6211.78
426.96	6338.17
427.15	6342.85
427.33	6513.71
427.52	6237.53
427.71	6537.12
427.90	6382.64
428.09	6466.90
428.28	6616.69
428.46	6607.33
428.65	6586.27
428.84	6651.80
429.03	6654.14
429.22	6492.65
429.40	6792.23
429.59	6808.62
429.78	6569.88
429.97	6471.58
430.16	6857.77
430.34	6897.56
430.53	6942.03
430.72	6923.30
430.91	6832.02
431.10	6862.45
431.28	7140.97
431.47	7199.49
431.66	7075.44
431.85	7131.61
432.03	7140.97
432.22	7293.11
432.41	7180.76
432.60	7246.30
432.79	7417.16
432.97	7281.41
433.16	7344.60
433.35	7190.13
433.54	7581.00
433.72	7426.52
433.91	7468.65
434.10	7527.16
434.28	7517.80
434.47	7545.89
434.66	7653.55
434.85	7714.41
435.03	7913.35
435.22	7822.07
435.41	8311.24
435.59	7918.03
435.78	8077.19
435.97	8084.21
436.16	7822.07
436.34	7854.84
436.53	7943.78
436.72	8086.55
436.90	7943.78
437.09	8182.51
437.28	7847.82
437.46	8070.17
437.65	7920.37
437.84	8196.56
438.02	8351.03
438.21	8145.06
438.40	8058.46
438.58	8652.96
438.77	8566.36
438.96	8226.98
439.14	8575.72
439.33	8758.28
439.52	8840.20
439.70	8730.20
439.89	8739.56
440.08	8844.88
440.26	8802.75
440.45	8819.14
440.63	9235.75
440.82	9329.38
441.01	9132.77
441.19	9228.73
441.38	9341.08
441.57	9195.96
441.75	9500.23
441.94	9884.08
442.12	9846.63
442.31	9771.74
442.50	9640.67
442.68	9750.67
442.87	9703.86
443.05	9820.89
443.24	9921.53
443.43	9734.29
443.61	9949.62
443.80	10249.21
443.98	9771.74
444.17	9350.44
444.35	9830.25
444.54	10045.58
444.73	10134.52
444.91	10033.88
445.10	10190.69
445.28	9898.13
445.47	10024.51
445.65	10263.25
445.84	10331.12
446.02	10246.87
446.21	10293.68
446.39	9994.09
446.58	10186.01
446.77	10127.50
446.95	10097.07
447.14	9982.38
447.32	10239.84
447.51	10260.91
447.69	10150.90
447.88	10125.16
448.06	10462.19
448.25	10242.18
448.43	10602.63
448.62	10434.11
448.80	10427.09
448.99	10438.79
449.17	10331.12
449.36	10387.30
449.54	10635.39
449.73	10806.25
449.91	10871.79
450.10	10822.64
450.28	10951.37
450.46	11021.58
450.65	11014.56
450.83	10958.39
451.02	10782.85
451.20	11276.70
451.39	11096.48
451.57	11096.48
451.76	10986.47
451.94	11098.82
452.13	11257.98
452.31	11421.81
452.49	11044.99
452.68	11318.83
452.86	11475.65
453.05	11517.78
453.23	11295.43
453.42	11325.85
453.60	11157.33
453.78	11396.07
453.97	11367.98
454.15	11646.51
454.34	11515.44
454.52	11882.90
454.70	11566.93
454.89	11648.85
455.07	11569.27
455.26	11899.28
455.44	12135.68
455.62	12018.65
455.81	11868.86
455.99	12224.62
456.17	12093.55
456.36	12123.98
456.54	12208.23
456.73	12423.56
456.91	12723.15
457.09	12564.00
457.28	12772.30
457.46	12390.80
457.64	12681.02
457.83	12879.97
458.01	12264.41
458.19	12952.52
458.38	12837.84
458.56	12996.99
458.74	12727.83
458.93	13020.40
459.11	12788.69
459.29	13062.53
459.48	12957.21
459.66	12973.59
459.84	13139.77
460.03	13214.66
460.21	13294.24
460.39	13228.71
460.57	13294.24
460.76	13312.97
460.94	13558.72
461.12	13472.12
461.31	13514.25
461.49	13376.16
461.67	13252.11
461.85	13738.94
462.04	13633.62
462.22	13870.01
462.40	14141.52
462.59	13811.50
462.77	13722.56
462.95	13862.99
463.13	14052.58
463.32	14047.90
463.50	14066.62
463.68	13881.72
463.86	14223.44
464.05	13729.58
464.23	13844.27
464.41	14384.93
464.59	13980.02
464.78	14714.95
464.96	14560.47
465.14	14153.22
465.32	14537.07
465.50	14567.49
465.69	14630.69
465.87	14717.29
466.05	14642.39
466.23	14684.52
466.41	14824.95
466.60	14780.48
466.78	14738.35
466.96	14698.56
467.14	14710.27
467.32	14855.38
467.51	14909.21
467.69	14757.08
467.87	14848.36
468.05	15185.40
468.23	14934.96
468.41	14731.33
468.60	14998.15
468.78	15288.38
468.96	15070.71
469.14	15417.11
469.32	15419.45
469.50	15349.23
469.69	15459.24
469.87	15573.92
470.05	15630.10
470.23	15543.50
470.41	15786.91
470.59	15779.89
470.77	15749.46
470.95	15974.16
471.14	16271.40
471.32	15630.10
471.50	16224.59
471.68	16149.70
471.86	16336.94
472.04	16397.79
472.22	17048.46
472.40	16381.41
472.58	16566.31
472.77	16982.93
472.95	17036.76
473.13	17373.80
473.31	16727.81
473.49	16889.31
473.67	17067.19
473.85	17177.19
474.03	17710.83
474.21	17614.87
474.39	17542.32
474.57	17488.48
474.75	17951.91
474.93	18029.15
475.12	18085.32
475.30	18164.90
475.48	18080.64
475.66	18340.44
475.84	18260.86
476.02	18398.95
476.20	18422.36
476.38	18902.17
476.56	19112.81
476.74	18822.59
476.92	19063.66
477.10	19129.20
477.28	19365.59
477.46	19349.21
477.64	19604.33
477.82	19613.69
478.00	20339.26
478.18	20086.48
478.36	20521.82
478.54	20538.20
478.72	20388.41
478.90	20912.69
479.08	21170.15
479.26	21223.98
479.44	20952.48
479.62	21558.67
479.80	21645.27
479.98	21839.54
480.16	22223.39
480.34	21902.73
480.52	22150.83
480.70	22452.76
480.88	22143.81
481.06	22558.08
481.24	22670.43
481.41	22899.80
481.59	23445.15
481.77	23379.61
481.95	23571.54
482.13	23775.16
482.31	23447.49
482.49	24247.95
482.67	24217.52
482.85	24606.05
483.03	24652.86
483.21	24606.05
483.39	25050.75
483.57	25207.57
483.74	25212.25
483.92	25493.12
484.10	25298.85
484.28	25944.84
484.46	26284.22
484.64	26644.66
484.82	26307.62
485.00	26623.59
485.18	27068.30
485.35	27751.73
485.53	27672.15
485.71	27424.06
485.89	27971.74
486.07	27541.08
486.25	27641.73
486.43	27920.25
486.61	28402.40
486.78	29046.05
486.96	29085.84
487.14	29532.88
487.32	29315.21
487.50	29495.43
487.68	29724.80
487.85	30529.95
488.03	30579.10
488.21	31044.87
488.39	31150.19
488.57	30876.35
488.75	31325.73
488.92	31431.05
489.10	32163.64
489.28	32142.58
489.46	32498.34
489.64	32112.15
489.81	33287.10
489.99	33060.07
490.17	32929.00
490.35	33890.96
490.53	34036.07
490.70	33748.18
490.88	33675.63
491.06	34361.40
491.24	34623.54
491.41	34511.20
491.59	34663.33
491.77	35136.12
491.95	35601.89
492.13	35611.25
492.30	35945.95
492.48	35590.19
492.66	36250.22
492.84	35803.17
493.01	36194.04
493.19	36547.47
493.37	37055.36
493.54	37057.70
493.72	37476.66
493.90	37504.74
494.08	37963.49
494.25	37904.98
494.43	37869.87
494.61	38057.11
494.79	38740.55
494.96	38569.69
495.14	38803.74
495.32	39431.01
495.49	39583.14
495.67	39784.43
495.85	39700.17
496.02	39824.22
496.20	40390.62
496.38	40577.87
496.55	40407.01
496.73	41212.15
496.91	41127.89
497.09	41078.74
497.26	41755.16
497.44	41570.25
497.62	41614.72
497.79	42457.32
497.97	42038.36
498.14	42347.31
498.32	42480.72
498.50	42710.10
498.67	42902.02
498.85	42703.07
499.03	43208.63
499.20	43433.32
499.38	43672.06
499.56	43875.68
499.73	43573.75
499.91	43873.34
500.08	44208.04
500.26	44271.23
500.44	44608.27
500.61	44823.60
500.79	44917.22
500.97	44790.83
501.14	45570.23
501.32	45146.59
501.49	44989.78
501.67	45240.21
501.84	45970.46
502.02	46099.19
502.20	45603.00
502.37	46024.29
502.55	46164.73
502.72	46256.01
502.90	46499.42
503.07	46703.05
503.25	46457.29
503.43	46583.68
503.60	46993.28
503.78	47110.30
503.95	47035.41
504.13	47440.32
504.30	47133.71
504.48	47824.17
504.65	47971.62
504.83	48254.82
505.01	48100.35
505.18	48229.08
505.36	48744.00
505.53	47945.87
505.71	48392.92
505.88	48720.59
506.06	48893.79
506.23	48507.60
506.41	49085.72
506.58	49120.82
506.76	48989.75
506.93	49095.08
507.11	49399.35
507.28	49729.36
507.46	49780.85
507.63	49579.57
507.81	49855.75
507.98	49675.53
508.16	49869.79
508.33	50319.18
508.50	50548.55
508.68	50628.13
508.85	50681.96
509.03	50714.73
509.20	50504.08
509.38	50944.10
509.55	51173.47
509.73	51054.11
509.90	51498.81
510.08	51433.27
510.25	51372.42
510.42	51442.63
510.60	51613.49
510.77	51772.65
510.95	52037.13
511.12	51957.55
511.30	51845.21
511.47	52210.33
511.64	51866.27
511.82	52423.32
511.99	52102.67
512.17	52615.24
512.34	52381.19
512.51	52853.98
512.69	52961.64
512.86	52971.00
513.04	53036.54
513.21	53471.88
513.38	52772.06
513.56	53076.33
513.73	53209.74
513.90	53462.52
514.08	53462.52
514.25	53612.31
514.43	53989.14
514.60	53673.16
514.77	53773.81
514.95	53970.41
515.12	53694.23
515.29	53930.62
515.47	54101.48
515.64	54614.06
515.81	54138.93
515.99	54422.14
516.16	54478.31
516.33	54391.71
516.51	54651.51
516.68	54534.48
516.85	54850.45
517.03	54908.97
517.20	55025.99
517.37	54850.45
517.54	54787.26
517.72	54871.52
517.89	54983.86
518.06	55119.62
518.24	55086.85
518.41	55290.48
518.58	55466.02
518.75	55157.06
518.93	55248.35
519.10	55552.62
519.27	55299.84
519.45	55531.55
519.62	55826.46
519.79	55669.64
519.96	55671.98
520.14	56020.72
520.31	55674.32
520.48	55899.01
520.65	55908.38
520.83	56259.46
521.00	56119.02
521.17	56289.88
521.34	56109.66
521.52	56303.93
521.69	56264.14
521.86	56507.55
522.03	56460.74
522.20	56652.67
522.38	56853.95
522.55	56828.21
522.72	56741.61
522.89	56903.10
523.07	57137.16
523.24	56992.04
523.41	57118.43
523.58	56985.02
523.75	57233.12
523.92	57336.10
524.10	57296.31
524.27	57275.25
524.44	57324.40
524.61	57631.01
524.78	57525.69
524.96	57535.05
525.13	57631.01
525.30	57858.04
525.47	57989.11
525.64	57855.70
525.81	58183.38
525.98	57925.92
526.16	57741.02
526.33	57801.87
526.50	57886.13
526.67	58101.46
526.84	58075.71
527.01	58138.91
527.18	57949.32
527.36	58326.15
527.53	58269.98
527.70	58445.52
527.87	58391.68
528.04	58459.56
528.21	58756.81
528.38	58621.06
528.55	58574.25
528.72	58466.58
528.89	58670.21
529.07	58553.18
529.24	58529.78
529.41	58925.33
529.58	58848.09
529.75	58698.30
529.92	59063.42
530.09	58738.08
530.26	58794.26
530.43	58969.80
530.60	58922.99
530.77	58990.86
530.94	59278.75
531.11	59086.82
531.28	59283.43
531.46	59178.10
531.63	59267.05
531.80	59213.21
531.97	59458.97
532.14	59262.36
532.31	59311.52
532.48	59496.42
532.65	59573.66
532.82	59402.80
532.99	59552.59
533.16	59332.58
533.33	59889.63
533.50	59693.02
533.67	59767.92
533.84	59536.21
534.01	59646.21
534.18	59824.09
534.35	60205.60
534.52	59966.87
534.69	60044.10
534.86	59992.61
535.03	59618.13
535.20	60161.13
535.37	60023.04
535.54	60491.15
535.71	59978.57
535.88	60331.99
536.05	60245.39
536.22	60193.90
536.38	60154.11
536.55	60355.39
536.72	60339.01
536.89	60437.31
537.06	60505.19
537.23	60818.82
537.40	60582.43
537.57	60556.68
537.74	60278.16
537.91	60673.71
538.08	60374.12
538.25	60748.60
538.42	60526.25
538.59	60835.20
538.75	60608.17
538.92	60905.42
539.09	60863.29
539.26	60788.39
539.43	60673.71
539.60	60891.38
539.77	60872.65
539.94	61261.18
540.11	61333.74
540.28	61272.88
540.44	61174.58
540.61	61361.82
540.78	61069.26
540.95	61127.77
541.12	61162.88
541.29	61237.78
541.46	61457.79
541.62	61300.97
541.79	61485.87
541.96	61307.99
542.13	61422.68
542.30	61296.29
542.47	61436.72
542.63	61474.17
542.80	61609.92
542.97	62014.83
543.14	62164.63
543.31	61879.08
543.48	61902.49
543.64	62244.21
543.81	62106.12
543.98	61965.68
544.15	61956.32
544.32	62157.61
544.48	62042.92
544.65	62120.16
544.82	62377.62
544.99	62071.01
545.16	62227.82
545.32	61986.75
545.49	62230.16
545.66	62342.51
545.83	62485.28
546.00	62546.14
546.16	62482.94
546.33	62237.19
546.50	62330.81
546.67	62394.00
546.83	62080.37
547.00	62248.89
547.17	62356.55
547.34	62293.36
547.50	62501.67
547.67	62649.12
547.84	62597.63
548.00	62819.98
548.17	62897.22
548.34	62688.91
548.51	62681.89
548.67	62667.84
548.84	62803.59
549.01	62499.33
549.18	62899.56
549.34	62709.97
549.51	62864.45
549.68	62885.51
549.84	62768.49
550.01	62894.88
550.18	62672.52
550.34	62770.83
550.51	62965.09
550.68	63007.22
550.84	62866.79
551.01	63135.95
551.18	62908.92
551.34	62972.11
551.51	63182.76
551.68	63098.50
551.84	63039.99
552.01	63025.95
552.18	63178.08
552.34	63210.85
552.51	63510.44
552.68	63215.53
552.84	63245.96
553.01	63547.89
553.18	63381.71
553.34	63592.36
553.51	63168.72
553.67	63480.01
553.84	63714.06
554.01	63704.70
554.17	63611.08
554.34	63629.80
554.51	63599.38
554.67	63538.52
554.84	63585.33
555.00	63416.82
555.17	63351.28
555.33	63636.83
555.50	63421.50
555.67	63625.12
555.83	63578.31
556.00	63723.43
556.16	63793.64
556.33	63674.27
556.50	63533.84
556.66	63643.85
556.83	63545.54
556.99	63882.58
557.16	63983.22
557.32	64023.01
557.49	63950.46
557.65	63847.47
557.82	64090.89
557.98	63863.86
558.15	63917.69
558.32	63910.67
558.48	63826.41
558.65	64044.08
558.81	64128.34
558.98	64013.65
559.14	64114.29
559.31	64207.92
559.47	63987.91
559.64	64259.41
559.80	63992.59
559.97	64161.11
560.13	63934.07
560.30	64111.95
560.46	64126.00
560.63	64362.39
560.79	64224.30
560.96	64313.24
561.12	64214.94
561.29	64193.87
561.45	64360.05
561.61	64317.92
561.78	64282.81
561.94	64406.86
562.11	64451.33
562.27	64416.22
562.44	64533.25
562.60	64594.10
562.77	64397.50
562.93	64217.28
563.10	64465.38
563.26	64200.89
563.42	64582.40
563.59	64559.00
563.75	64430.27
563.92	64879.65
564.08	64463.03
564.24	64554.32
564.41	64392.82
564.57	64423.25
564.74	64470.06
564.90	64568.36
565.07	64811.77
565.23	64727.52
565.39	64839.86
565.56	64837.52
565.72	64596.45
565.88	64746.24
566.05	64505.16
566.21	64439.63
566.38	64502.82
566.54	64652.62
566.70	64486.44
566.87	64851.56
567.03	64776.67
567.19	64954.55
567.36	64966.25
567.52	64697.09
567.68	64963.91
567.85	64568.36
568.01	64860.93
568.17	64853.90
568.34	64781.35
568.50	64881.99
568.66	64757.94
568.83	64961.57
568.99	64814.12
569.15	64708.79
569.32	64678.36
569.48	64732.20
569.64	64725.17
569.81	64711.13
569.97	64673.68
570.13	64727.52
570.30	64898.37
570.46	64795.39
570.62	64804.75
570.78	64858.59
570.95	64708.79
571.11	65080.94
571.27	64790.71
571.43	64729.86
571.60	64755.60
571.76	65017.74
571.92	65183.92
572.09	65144.13
572.25	65200.30
572.41	65137.11
572.57	65050.51
572.74	65045.83
572.90	65092.64
573.06	65045.83
573.22	65181.58
573.38	65071.57
573.55	65186.26
573.71	65375.84
573.87	65022.42
574.03	65116.04
574.20	65078.60
574.36	65043.49
574.52	65008.38
574.68	65116.04
574.84	65277.54
575.01	65202.64
575.17	65221.37
575.33	65165.20
575.49	64966.25
575.65	65417.97
575.82	65247.11
575.98	65244.77
576.14	65319.67
576.30	65279.88
576.46	65165.20
576.62	65179.24
576.79	65322.01
576.95	64994.34
577.11	65076.26
577.27	65361.80
577.43	65254.14
577.59	65312.65
577.75	65277.54
577.92	65111.36
578.08	64949.87
578.24	65190.94
578.40	65284.56
578.56	65326.69
578.72	65424.99
578.88	65382.87
579.04	65389.89
579.21	65424.99
579.37	65476.49
579.53	65535.00
579.69	65371.16
579.85	65223.71
580.01	65305.63
580.17	65219.03
580.33	65268.18
580.49	65513.94
580.65	65300.95
580.82	65319.67
580.98	65406.27
581.14	65429.68
581.30	65364.14
581.46	65249.45
581.62	65345.42
581.78	65195.62
581.94	65193.28
582.10	65186.26
582.26	65403.93
582.42	65314.99
582.58	65488.19
582.74	65258.82
582.90	65406.27
583.06	65474.15
583.22	65242.43
583.38	65392.23
583.54	65450.74
583.70	65385.21
583.86	65535.00
584.02	65436.70
584.18	65535.00
584.34	65471.81
584.50	65535.00
584.66	65509.25
584.82	65298.61
584.98	65509.25
585.14	65387.55
585.30	65385.21
585.46	65476.49
585.62	65389.89
585.78	65427.34
585.94	65483.51
586.10	65387.55
586.26	65354.78
586.42	65535.00
586.58	65535.00
586.74	65354.78
586.90	65282.22
587.06	65380.52
587.22	65535.00
587.38	65347.76
