SpectraSuite Data File
++++++++++++++++++++++++++++++++++++
Date: Thu Oct 24 13:21:18 EDT 2013
User: stostad
Dark Spectrum Present: No
Reference Spectrum Present: No
Number of Sampled Component Spectra: 1
Spectrometers: USB2+H05261
Integration Time (usec): 100000 (USB2+H05261)
Spectra Averaged: 1 (USB2+H05261)
Boxcar Smoothing: 0 (USB2+H05261)
Correct for Electrical Dark: No (USB2+H05261)
Strobe/Lamp Enabled: No (USB2+H05261)
Correct for Detector Non-linearity: No (USB2+H05261)
Correct for Stray Light: No (USB2+H05261)
Number of Pixels in Processed Spectrum: 2048
>>>>>Begin Processed Spectral Data<<<<<
365.73	594.50
365.92	594.50
366.12	594.50
366.32	533.64
366.52	482.15
366.72	500.87
366.91	404.91
367.11	496.19
367.31	430.66
367.51	463.43
367.70	442.36
367.90	407.25
368.10	444.70
368.30	430.66
368.49	468.11
368.69	510.24
368.89	433.00
369.09	507.90
369.28	528.96
369.48	503.22
369.68	463.43
369.87	507.90
370.07	507.90
370.27	580.45
370.47	582.79
370.66	805.14
370.86	861.32
371.06	936.21
371.25	868.34
371.45	795.78
371.65	842.59
371.84	901.11
372.04	933.87
372.24	858.98
372.44	908.13
372.63	840.25
372.83	924.51
373.03	936.21
373.22	990.05
373.42	999.41
373.62	1013.45
373.81	1013.45
374.01	952.60
374.21	978.34
374.40	919.83
374.60	1036.86
374.79	997.07
374.99	898.77
375.19	1055.58
375.38	1015.79
375.58	1032.18
375.78	1062.60
375.97	1018.13
376.17	1020.47
376.37	1029.84
376.56	1004.09
376.76	954.94
376.95	1032.18
377.15	1013.45
377.35	987.71
377.54	997.07
377.74	992.39
377.93	1001.75
378.13	1050.90
378.33	1093.03
378.52	1036.86
378.72	1121.12
378.91	1086.01
379.11	1039.20
379.31	1093.03
379.50	1032.18
379.70	1165.59
379.89	1121.12
380.09	1130.48
380.28	1095.37
380.48	1118.78
380.68	1013.45
380.87	1090.69
381.07	1097.71
381.26	1177.29
381.46	1172.61
381.65	1181.97
381.85	1114.10
382.04	1153.88
382.24	1167.93
382.43	1118.78
382.63	1107.07
382.83	1196.01
383.02	1247.51
383.22	1226.44
383.41	1107.07
383.61	1184.31
383.80	1245.16
384.00	1252.19
384.19	1165.59
384.39	1172.61
384.58	1153.88
384.78	1282.61
384.97	1231.12
385.17	1203.04
385.36	1259.21
385.56	1308.36
385.75	1177.29
385.95	1153.88
386.14	1270.91
386.34	1331.76
386.53	1249.85
386.72	1249.85
386.92	1404.32
387.11	1224.10
387.31	1233.46
387.50	1268.57
387.70	1303.68
387.89	1273.25
388.09	1371.55
388.28	1306.02
388.48	1273.25
388.67	1294.32
388.86	1233.46
389.06	1355.17
389.25	1373.89
389.45	1352.83
389.64	1273.25
389.84	1324.74
390.03	1406.66
390.22	1313.04
390.42	1350.49
390.61	1380.92
390.81	1299.00
391.00	1465.18
391.19	1448.79
391.39	1469.86
391.58	1453.47
391.78	1430.07
391.97	1397.30
392.16	1469.86
392.36	1425.39
392.55	1476.88
392.75	1502.62
392.94	1502.62
393.13	1416.02
393.33	1486.24
393.52	1556.46
393.71	1483.90
393.91	1586.88
394.10	1535.39
394.29	1577.52
394.49	1526.03
394.68	1535.39
394.88	1509.65
395.07	1659.44
395.26	1591.56
395.46	1668.80
395.65	1668.80
395.84	1586.88
396.04	1652.42
396.23	1591.56
396.42	1706.25
396.62	1636.03
396.81	1734.34
397.00	1715.61
397.19	1767.10
397.39	1638.38
397.58	1694.55
397.77	1722.63
397.97	1769.44
398.16	1736.68
398.35	1678.16
398.55	1743.70
398.74	1792.85
398.93	1769.44
399.12	1724.97
399.32	1666.46
399.51	1900.52
399.70	1858.39
399.90	1797.53
400.09	1834.98
400.28	1832.64
400.47	1837.32
400.67	1937.96
400.86	1856.04
401.05	1827.96
401.24	1839.66
401.44	1963.71
401.63	1928.60
401.82	2010.52
402.01	1973.07
402.21	1996.48
402.40	1989.46
402.59	1989.46
402.78	2029.24
402.97	2038.61
403.17	2078.40
403.36	1998.82
403.55	2008.18
403.74	2026.90
403.93	2155.63
404.13	2209.47
404.32	2136.91
404.51	2134.57
404.70	2186.06
404.89	2188.40
405.09	2225.85
405.28	2097.12
405.47	2214.15
405.66	2232.87
405.85	2307.77
406.05	2251.60
406.24	2263.30
406.43	2275.00
406.62	2375.64
406.81	2286.70
407.00	2298.41
407.20	2256.28
407.39	2235.21
407.58	2349.90
407.77	2485.65
407.96	2370.96
408.15	2450.54
408.34	2312.45
408.54	2438.84
408.73	2497.35
408.92	2490.33
409.11	2516.08
409.30	2574.59
409.49	2527.78
409.68	2506.71
409.87	2448.20
410.07	2527.78
410.26	2616.72
410.45	2644.81
410.64	2626.08
410.83	2663.53
411.02	2717.36
411.21	2700.98
411.40	2682.25
411.59	2780.56
411.78	2616.72
411.98	2724.38
412.17	2853.11
412.36	2780.56
412.55	2888.22
412.74	2801.62
412.93	2932.69
413.12	2855.45
413.31	2916.31
413.50	3016.95
413.69	2897.58
413.88	3089.51
414.07	3063.76
414.26	3131.64
414.45	3112.91
414.64	3148.02
414.83	3176.11
415.02	3171.43
415.22	3316.54
415.41	3253.34
415.60	3197.17
415.79	3302.50
415.98	3421.86
416.17	3339.94
416.36	3365.69
416.55	3337.60
416.74	3421.86
416.93	3243.98
417.12	3447.61
417.31	3426.54
417.50	3454.63
417.69	3438.25
417.88	3576.34
418.07	3613.79
418.26	3552.93
418.45	3597.40
418.64	3782.31
418.83	3630.17
419.02	3646.55
419.21	3728.47
419.39	3815.07
419.58	3672.30
419.77	3716.77
419.96	3744.86
420.15	3861.88
420.34	3679.32
420.53	3803.37
420.72	3882.95
420.91	3810.39
421.10	3882.95
421.29	3805.71
421.48	3859.54
421.67	3871.25
421.86	3815.07
422.05	3943.80
422.24	3925.08
422.43	3992.95
422.61	3943.80
422.80	3943.80
422.99	4014.02
423.18	4084.23
423.37	3962.53
423.56	3995.29
423.75	4121.68
423.94	3847.84
424.13	3798.69
424.32	3992.95
424.50	4049.13
424.69	4105.30
424.88	4025.72
425.07	3960.19
425.26	4217.65
425.45	4065.51
425.64	4142.75
425.83	3990.61
426.01	4109.98
426.20	4102.96
426.39	4152.11
426.58	4091.26
426.77	4063.17
426.96	4133.39
427.15	4166.15
427.33	4093.60
427.52	4114.66
427.71	4208.28
427.90	4217.65
428.09	4152.11
428.28	4182.54
428.46	4271.48
428.65	4372.12
428.84	4493.83
429.03	4484.47
429.22	4447.02
429.40	4416.59
429.59	4414.25
429.78	4138.07
429.97	4201.26
430.16	4428.29
430.34	4327.65
430.53	4456.38
430.72	4463.40
430.91	4423.61
431.10	4484.47
431.28	4552.34
431.47	4573.41
431.66	4603.83
431.85	4601.49
432.03	4702.14
432.22	4755.97
432.41	4608.51
432.60	4636.60
432.79	4833.21
432.97	4755.97
433.16	4800.44
433.35	4760.65
433.54	4858.95
433.72	4837.89
433.91	4767.67
434.10	4823.84
434.28	4903.42
434.47	4929.17
434.66	5097.69
434.85	5078.96
435.03	5177.26
435.22	5102.37
435.41	5476.85
435.59	5280.25
435.78	5200.67
435.97	5116.41
436.16	5254.50
436.34	5097.69
436.53	5163.22
436.72	5224.08
436.90	5093.01
437.09	5263.86
437.28	5069.60
437.46	5193.65
437.65	5123.43
437.84	5219.39
438.02	5238.12
438.21	5378.55
438.40	5275.57
438.58	5612.60
438.77	5408.98
438.96	5397.28
439.14	5472.17
439.33	5586.86
439.52	5689.84
439.70	5724.95
439.89	5813.89
440.08	5797.51
440.26	5846.66
440.45	5703.89
440.63	5818.57
440.82	5937.94
441.01	5963.68
441.19	6080.71
441.38	5956.66
441.57	6054.97
441.75	6092.41
441.94	6169.65
442.12	5996.45
442.31	6263.27
442.50	6265.61
442.68	6207.10
442.87	6246.89
443.05	6101.78
443.24	6342.85
443.43	6267.95
443.61	6328.81
443.80	6614.35
443.98	6277.32
444.17	6164.97
444.35	6305.40
444.54	6399.02
444.73	6363.92
444.91	6363.92
445.10	6462.22
445.28	6389.66
445.47	6375.62
445.65	6399.02
445.84	6499.67
446.02	6567.54
446.21	6410.73
446.39	6530.09
446.58	6490.31
446.77	6560.52
446.95	6480.94
447.14	6532.44
447.32	6520.73
447.51	6670.53
447.69	6506.69
447.88	6457.54
448.06	6502.01
448.25	6619.04
448.43	6513.71
448.62	6492.65
448.80	6661.16
448.99	6640.10
449.17	6532.44
449.36	6740.74
449.54	6913.94
449.73	7005.22
449.91	6902.24
450.10	7047.35
450.28	7148.00
450.46	7115.23
450.65	6986.50
450.83	6892.88
451.02	6991.18
451.20	7143.32
451.39	6967.77
451.57	6834.36
451.76	7030.97
451.94	7030.97
452.13	7283.75
452.31	7080.12
452.49	7040.33
452.68	7206.51
452.86	7412.48
453.05	7272.04
453.23	7084.80
453.42	7150.34
453.60	7171.40
453.78	7506.10
453.97	7332.90
454.15	7304.81
454.34	7321.20
454.52	7363.33
454.70	7351.62
454.89	7342.26
455.07	7356.30
455.26	7688.66
455.44	7597.38
455.62	7688.66
455.81	7562.27
455.99	7660.57
456.17	7723.77
456.36	7812.71
456.54	7786.96
456.73	7882.92
456.91	7868.88
457.09	7927.39
457.28	8039.74
457.46	7983.57
457.64	8016.33
457.83	8084.21
458.01	7964.84
458.19	8264.43
458.38	8023.36
458.56	8009.31
458.74	8379.12
458.93	8126.34
459.11	8140.38
459.29	8147.40
459.48	8226.98
459.66	8140.38
459.84	8360.39
460.03	8301.88
460.21	8287.84
460.39	8241.03
460.57	8229.32
460.76	8362.73
460.94	8477.42
461.12	8643.60
461.31	8578.06
461.49	8428.27
461.67	8458.70
461.85	8636.58
462.04	8477.42
462.22	8985.32
462.40	8793.39
462.59	8526.57
462.77	8655.30
462.95	8830.84
463.13	8819.14
463.32	8884.67
463.50	9001.70
463.68	8980.64
463.86	8936.17
464.05	8868.29
464.23	8809.78
464.41	9060.21
464.59	8727.86
464.78	9149.15
464.96	8987.66
465.14	8891.70
465.32	9027.45
465.50	9114.05
465.69	9029.79
465.87	9102.34
466.05	9015.74
466.23	9125.75
466.41	9078.94
466.60	9369.16
466.78	9137.45
466.96	9195.96
467.14	9324.69
467.32	9233.41
467.51	9401.93
467.69	9235.75
467.87	9476.83
468.05	9240.44
468.23	9128.09
468.41	9380.87
468.60	9497.89
468.78	9694.50
468.96	9507.26
469.14	9764.72
469.32	9692.16
469.50	9334.06
469.69	9689.82
469.87	9745.99
470.05	9624.28
470.23	9944.94
470.41	9781.10
470.59	9926.21
470.77	9598.54
470.95	9839.61
471.14	9921.53
471.32	9919.19
471.50	10338.15
471.68	10239.84
471.86	10061.96
472.04	10090.05
472.22	10750.08
472.40	10422.41
472.58	10251.55
472.77	10513.69
472.95	10501.98
473.13	10696.25
473.31	10534.75
473.49	10686.89
473.67	10682.20
473.85	10689.23
474.03	11030.94
474.21	11014.56
474.39	11002.86
474.57	10956.05
474.75	11253.30
474.93	11274.36
475.12	10923.28
475.30	11199.46
475.48	11169.04
475.66	11337.56
475.84	11328.19
476.02	11332.87
476.20	11499.05
476.38	11639.48
476.56	11756.51
476.74	12006.95
476.92	11819.71
477.10	11754.17
477.28	12023.33
477.46	12006.95
477.64	11981.20
477.82	12093.55
478.00	12411.86
478.18	12395.48
478.36	12421.22
478.54	12674.00
478.72	12753.58
478.90	12725.49
479.08	12786.35
479.26	13102.32
479.44	13025.08
479.62	13067.21
479.80	13172.54
479.98	13282.54
480.16	13654.69
480.34	13509.57
480.52	13593.83
480.70	13650.00
480.88	13577.45
481.06	13951.93
481.24	13862.99
481.41	14061.94
481.59	14141.52
481.77	14609.62
481.95	14291.31
482.13	14544.09
482.31	14225.78
482.49	14857.72
482.67	14689.20
482.85	14862.40
483.03	15161.99
483.21	15304.76
483.39	15372.64
483.57	15297.74
483.74	15475.62
483.92	15843.09
484.10	15428.81
484.28	16053.73
484.46	16105.23
484.64	16465.67
484.82	16088.84
485.00	16444.60
485.18	16711.42
485.35	16908.03
485.53	17064.85
485.71	17099.95
485.89	17256.77
486.07	17310.60
486.25	17415.93
486.43	17549.34
486.61	17675.73
486.78	17647.64
486.96	17877.01
487.14	17774.03
487.32	17848.93
487.50	18436.40
487.68	18363.84
487.85	18492.57
488.03	18808.54
488.21	18911.53
488.39	18981.74
488.57	19201.76
488.75	19248.57
488.92	19360.91
489.10	19501.34
489.28	19569.22
489.46	20009.24
489.64	19803.27
489.81	20306.49
489.99	20243.29
490.17	20229.25
490.35	20505.43
490.53	20489.05
490.70	20776.94
490.88	20713.74
491.06	21247.38
491.24	20968.86
491.41	21165.46
491.59	21130.36
491.77	21500.16
491.95	21397.18
492.13	21776.34
492.30	22017.42
492.48	21886.35
492.66	21926.14
492.84	22043.17
493.01	22185.94
493.19	22405.95
493.37	22487.87
493.54	22452.76
493.72	22930.23
493.90	22532.34
494.08	23412.38
494.25	23447.49
494.43	23513.02
494.61	23466.21
494.79	23672.18
494.96	23438.12
495.14	23812.61
495.32	24039.64
495.49	24437.53
495.67	24360.30
495.85	24364.98
496.02	24421.15
496.20	24341.57
496.38	24664.57
496.55	24879.89
496.73	25607.80
496.91	24966.49
497.09	25315.23
497.26	25525.88
497.44	25450.99
497.62	25282.47
497.79	25844.20
497.97	25645.25
498.14	26274.85
498.32	26132.08
498.50	26272.51
498.67	26639.98
498.85	26150.81
499.03	26705.51
499.20	26967.65
499.38	26513.59
499.56	26742.96
499.73	27171.28
499.91	27049.57
500.08	27391.29
500.26	27089.36
500.44	27522.36
500.61	27800.88
500.79	27578.53
500.97	27854.72
501.14	28133.24
501.32	28158.99
501.49	27716.62
501.67	28264.31
501.84	28692.63
502.02	28500.70
502.20	28404.74
502.37	28545.17
502.55	28320.48
502.72	28414.10
502.90	28676.24
503.07	28470.28
503.25	29015.62
503.43	28589.64
503.60	28945.41
503.78	29296.49
503.95	28950.09
504.13	29397.13
504.30	29436.92
504.48	29338.62
504.65	29563.31
504.83	29750.55
505.01	29708.42
505.18	29682.67
505.36	30139.08
505.53	30160.14
505.71	30089.93
505.88	30426.96
506.06	30213.98
506.23	30644.63
506.41	30359.09
506.58	30665.70
506.76	30412.92
506.93	31124.44
507.11	31033.16
507.28	31103.38
507.46	31220.41
507.63	31182.96
507.81	31498.93
507.98	31070.61
508.16	31519.99
508.33	31426.37
508.50	31241.47
508.68	31917.89
508.85	31632.34
509.03	31697.88
509.20	32077.04
509.38	31983.42
509.55	32343.86
509.73	32378.97
509.90	32690.26
510.08	32734.73
510.25	32856.44
510.42	32655.15
510.60	32673.88
510.77	32870.48
510.95	33275.40
511.12	32807.29
511.30	33228.59
511.47	33249.65
511.64	33315.19
511.82	33345.61
511.99	33376.04
512.17	33453.28
512.34	33612.43
512.51	34419.92
512.69	34129.69
512.86	34054.79
513.04	34183.52
513.21	34440.98
513.38	34293.53
513.56	34176.50
513.73	34338.00
513.90	34361.40
514.08	34520.56
514.25	34646.95
514.43	34843.56
514.60	34899.73
514.77	34953.56
514.95	34845.90
515.12	34656.31
515.29	34581.42
515.47	35159.53
515.64	35672.10
515.81	35449.75
515.99	35171.23
516.16	35491.88
516.33	35318.68
516.51	35894.46
516.68	35629.98
516.85	35934.24
517.03	36027.87
517.20	36203.41
517.37	36425.76
517.54	35997.44
517.72	36252.56
517.89	36201.07
518.06	36098.08
518.24	36928.97
518.41	36355.54
518.58	36613.00
518.75	36348.52
518.93	37057.70
519.10	37090.47
519.27	36418.74
519.45	36959.40
519.62	37219.20
519.79	36893.86
519.96	37469.64
520.14	37432.19
520.31	36790.88
520.48	37003.87
520.65	37532.83
520.83	37933.06
521.00	37743.48
521.17	37294.10
521.34	37354.95
521.52	37734.12
521.69	37837.10
521.86	38239.67
522.03	38220.95
522.20	38347.34
522.38	38213.93
522.55	38738.21
522.72	38319.25
522.89	38279.46
523.07	38813.10
523.24	38291.16
523.41	38480.75
523.58	38328.61
523.75	39313.98
523.92	38852.89
524.10	39229.72
524.27	39351.43
524.44	39379.51
524.61	38913.75
524.78	39180.57
524.96	38852.89
525.13	39688.46
525.30	39791.45
525.47	39948.26
525.64	39693.15
525.81	39695.49
525.98	40062.95
526.16	39915.50
526.33	39754.00
526.50	40133.17
526.67	39786.77
526.84	40112.10
527.01	39927.20
527.18	40051.25
527.36	40395.31
527.53	40512.33
527.70	40495.95
527.87	40627.02
528.04	40425.73
528.21	40683.19
528.38	40627.02
528.55	41013.21
528.72	40526.38
528.89	40587.23
529.07	40477.22
529.24	40844.69
529.41	41280.03
529.58	40753.41
529.75	41081.08
529.92	41303.43
530.09	40858.73
530.26	41471.95
530.43	41069.38
530.60	40950.01
530.77	41462.59
530.94	41352.58
531.11	41780.90
531.28	41764.52
531.46	41808.99
531.63	41766.86
531.80	41713.03
531.97	41748.14
532.14	42220.92
532.31	41940.06
532.48	42122.62
532.65	42511.15
532.82	42120.28
532.99	41921.34
533.16	42225.60
533.33	42227.95
533.50	42845.85
533.67	42380.08
533.84	41951.76
534.01	42354.33
534.18	42541.58
534.35	43054.15
534.52	42667.97
534.69	43154.80
534.86	42511.15
535.03	42447.96
535.20	43091.60
535.37	42726.48
535.54	42649.24
535.71	42834.14
535.88	43379.49
536.05	43164.16
536.22	43105.65
536.38	43337.36
536.55	43325.66
536.72	43903.77
536.89	43639.29
537.06	43732.91
537.23	43995.05
537.40	44074.63
537.57	43906.11
537.74	43557.37
537.91	43686.10
538.08	43658.01
538.25	43498.86
538.42	44538.05
538.59	44182.29
538.75	44163.57
538.92	44491.24
539.09	44409.32
539.26	44156.55
539.43	44175.27
539.60	44280.60
539.77	44357.83
539.94	44725.30
540.11	44804.88
540.28	45095.10
540.44	44762.75
540.61	44776.79
540.78	44755.72
540.95	44790.83
541.12	44854.03
541.29	44655.08
541.46	45074.04
541.62	45439.16
541.79	45132.55
541.96	45235.53
542.13	45029.57
542.30	45069.36
542.47	45083.40
542.63	45448.52
542.80	45598.32
542.97	46115.58
543.14	46043.02
543.31	46099.19
543.48	46138.98
543.64	46508.79
543.81	46169.41
543.98	46014.93
544.15	46012.59
544.32	46047.70
544.48	46515.81
544.65	46281.75
544.82	46405.80
544.99	45907.27
545.16	46478.36
545.32	46218.56
545.49	46988.60
545.66	47391.17
545.83	47627.56
546.00	47096.26
546.16	47187.54
546.33	46930.08
546.50	46586.02
546.67	46092.17
546.83	46103.87
547.00	46199.83
547.17	46447.93
547.34	46487.72
547.50	46894.97
547.67	47093.92
547.84	47112.64
548.00	47325.63
548.17	47749.27
548.34	46834.12
548.51	47463.72
548.67	47288.18
548.84	47234.35
549.01	46658.58
549.18	47332.65
549.34	47480.11
549.51	48018.43
549.68	47547.98
549.84	47079.88
550.01	47501.17
550.18	47150.09
550.34	47246.05
550.51	47578.41
550.68	47208.61
550.84	47299.89
551.01	47466.06
551.18	47372.44
551.34	47587.77
551.51	47484.79
551.68	47777.36
551.84	47435.64
552.01	47606.50
552.18	48067.58
552.34	47704.80
552.51	48039.50
552.68	48212.70
552.84	48032.47
553.01	48023.11
553.18	47936.51
553.34	47854.59
553.51	47842.89
553.67	48282.91
553.84	48535.69
554.01	48767.40
554.17	48491.22
554.34	48662.08
554.51	48212.70
554.67	48540.37
554.84	48273.55
555.00	48074.60
555.17	47737.57
555.33	48421.00
555.50	48402.28
555.67	48645.69
555.83	48397.60
556.00	48617.61
556.16	48720.59
556.33	48486.54
556.50	48507.60
556.66	48533.35
556.83	48491.22
556.99	49088.06
557.16	48776.76
557.32	48933.58
557.49	49083.37
557.65	49249.55
557.82	48823.58
557.98	48893.79
558.15	48669.10
558.32	48645.69
558.48	48804.85
558.65	48816.55
558.81	49179.34
558.98	49272.96
559.14	48980.39
559.31	48844.64
559.47	49202.74
559.64	49268.28
559.80	49109.12
559.97	48982.73
560.13	48942.94
560.30	48795.49
560.46	49148.91
560.63	49265.94
560.79	49521.05
560.96	49684.89
561.12	49137.21
561.29	49214.44
561.45	49364.24
561.61	49226.15
561.78	49272.96
561.94	49602.97
562.11	49549.14
562.27	49600.63
562.44	49769.15
562.60	49701.28
562.77	49874.48
562.93	49448.50
563.10	49766.81
563.26	49177.00
563.42	49844.05
563.59	49794.90
563.75	49291.68
563.92	49778.51
564.08	49490.63
564.24	49441.48
564.41	49642.76
564.57	49570.21
564.74	49785.54
564.90	49972.78
565.07	50024.27
565.23	50050.02
565.39	49806.60
565.56	50373.01
565.72	49790.22
565.88	49977.46
566.05	50225.56
566.21	49698.94
566.38	49436.80
566.54	49628.72
566.70	50129.59
566.87	50260.66
567.03	49975.12
567.19	50272.37
567.36	50260.66
567.52	50232.58
567.68	50333.22
567.85	49949.37
568.01	50244.28
568.17	50478.33
568.34	50010.23
568.50	50337.90
568.66	50263.00
568.83	50209.17
568.99	50600.04
569.15	50141.30
569.32	49968.10
569.48	50014.91
569.64	50426.84
569.81	49918.95
569.97	50162.36
570.13	50567.27
570.30	49886.18
570.46	50071.08
570.62	50384.71
570.78	50087.46
570.95	50258.32
571.11	50038.31
571.27	50134.28
571.43	50155.34
571.60	50066.40
571.76	50138.96
571.92	50405.78
572.09	50457.27
572.25	50873.88
572.41	50349.60
572.57	50436.20
572.74	50878.57
572.90	50440.89
573.06	50192.79
573.22	50429.18
573.38	50387.05
573.55	50628.13
573.71	50777.92
573.87	50440.89
574.03	50244.28
574.20	50429.18
574.36	50642.17
574.52	50527.48
574.68	50281.73
574.84	50340.24
575.01	50857.50
575.17	50801.33
575.33	50368.33
575.49	50604.72
575.65	50707.71
575.82	50848.14
575.98	50520.46
576.14	50829.41
576.30	50855.16
576.46	50759.20
576.62	50806.01
576.79	50663.24
576.95	50424.50
577.11	50976.87
577.27	51011.98
577.43	50770.90
577.59	50763.88
577.75	50843.46
577.92	50735.79
578.08	50941.76
578.24	50349.60
578.40	50712.39
578.56	50721.75
578.72	50976.87
578.88	51239.01
579.04	51129.00
579.21	50969.85
579.37	51634.56
579.53	50988.57
579.69	50700.68
579.85	50834.10
580.01	51185.18
580.17	50710.05
580.33	50960.48
580.49	50824.73
580.65	51075.17
580.82	50820.05
580.98	51229.65
581.14	50611.74
581.30	51154.75
581.46	50700.68
581.62	50529.83
581.78	51033.04
581.94	50775.58
582.10	50782.60
582.26	51269.43
582.42	50761.54
582.58	50834.10
582.74	50890.27
582.90	50855.16
583.06	51061.13
583.22	50712.39
583.38	50756.86
583.54	50429.18
583.70	50756.86
583.86	51107.94
584.02	51077.51
584.18	51070.49
584.34	51356.03
584.50	51011.98
584.66	50843.46
584.82	51178.15
584.98	51440.29
585.14	51257.73
585.30	51056.45
585.46	50967.51
585.62	50990.91
585.78	51423.91
585.94	51208.58
586.10	51496.47
586.26	51208.58
586.42	51370.08
586.58	51262.41
586.74	50775.58
586.90	50871.54
587.06	50815.37
587.22	51026.02
587.38	51302.20
587.54	51208.58
587.70	51304.54
587.86	51360.72
588.02	51419.23
588.18	51477.74
588.34	51421.57
588.49	51627.54
588.65	51129.00
588.81	51367.74
588.97	51168.79
