SpectraSuite Data File
++++++++++++++++++++++++++++++++++++
Date: Thu Oct 24 13:21:20 EDT 2013
User: stostad
Dark Spectrum Present: No
Reference Spectrum Present: No
Number of Sampled Component Spectra: 1
Spectrometers: USB2+H05261
Integration Time (usec): 100000 (USB2+H05261)
Spectra Averaged: 1 (USB2+H05261)
Boxcar Smoothing: 0 (USB2+H05261)
Correct for Electrical Dark: No (USB2+H05261)
Strobe/Lamp Enabled: No (USB2+H05261)
Correct for Detector Non-linearity: No (USB2+H05261)
Correct for Stray Light: No (USB2+H05261)
Number of Pixels in Processed Spectrum: 2048
>>>>>Begin Processed Spectral Data<<<<<
365.73	564.07
365.92	564.07
366.12	564.07
366.32	482.15
366.52	423.64
366.72	510.24
366.91	477.47
367.11	393.21
367.31	440.02
367.51	496.19
367.70	451.72
367.90	461.09
368.10	456.40
368.30	503.22
368.49	543.00
368.69	472.79
368.89	463.43
369.09	535.98
369.28	500.87
369.48	463.43
369.68	500.87
369.87	491.51
370.07	552.37
370.27	568.75
370.47	697.48
370.66	849.61
370.86	856.64
371.06	854.30
371.25	873.02
371.45	835.57
371.65	854.30
371.84	800.46
372.04	866.00
372.24	877.70
372.44	950.26
372.63	952.60
372.83	922.17
373.03	889.40
373.22	828.55
373.42	983.02
373.62	912.81
373.81	1036.86
374.01	994.73
374.21	999.41
374.40	943.24
374.60	1022.81
374.79	1006.43
374.99	976.00
375.19	1025.15
375.38	1006.43
375.58	978.34
375.78	961.96
375.97	1004.09
376.17	1008.77
376.37	964.30
376.56	1036.86
376.76	966.64
376.95	990.05
377.15	933.87
377.35	966.64
377.54	1020.47
377.74	1011.11
377.93	985.37
378.13	1001.75
378.33	1041.54
378.52	915.15
378.72	1097.71
378.91	1107.07
379.11	1090.69
379.31	1013.45
379.50	1032.18
379.70	1071.97
379.89	1004.09
380.09	1102.39
380.28	1097.71
380.48	1109.41
380.68	1095.37
380.87	1057.92
381.07	1121.12
381.26	1086.01
381.46	1156.22
381.65	1135.16
381.85	1078.99
382.04	1128.14
382.24	1123.46
382.43	1081.33
382.63	1238.14
382.83	1078.99
383.02	1123.46
383.22	1207.72
383.41	1177.29
383.61	1144.52
383.80	1086.01
384.00	1100.05
384.19	1203.04
384.39	1191.33
384.58	1193.67
384.78	1196.01
384.97	1203.04
385.17	1151.54
385.36	1170.27
385.56	1151.54
385.75	1174.95
385.95	1142.18
386.14	1228.78
386.34	1221.76
386.53	1128.14
386.72	1186.65
386.92	1266.23
387.11	1268.57
387.31	1198.35
387.50	1249.85
387.70	1219.42
387.89	1315.38
388.09	1254.53
388.28	1284.95
388.48	1221.76
388.67	1233.46
388.86	1352.83
389.06	1275.59
389.25	1294.32
389.45	1299.00
389.64	1299.00
389.84	1425.39
390.03	1343.47
390.22	1380.92
390.42	1334.11
390.61	1336.45
390.81	1416.02
391.00	1380.92
391.19	1465.18
391.39	1373.89
391.58	1472.20
391.78	1378.58
391.97	1338.79
392.16	1376.24
392.36	1434.75
392.55	1394.96
392.75	1366.87
392.94	1446.45
393.13	1448.79
393.33	1448.79
393.52	1430.07
393.71	1479.22
393.91	1462.83
394.10	1516.67
394.29	1469.86
394.49	1444.11
394.68	1465.18
394.88	1558.80
395.07	1547.09
395.26	1530.71
395.46	1535.39
395.65	1547.09
395.84	1631.35
396.04	1474.54
396.23	1533.05
396.42	1589.22
396.62	1502.62
396.81	1607.95
397.00	1624.33
397.19	1621.99
397.39	1647.74
397.58	1596.25
397.77	1591.56
397.97	1664.12
398.16	1792.85
398.35	1762.42
398.55	1659.44
398.74	1739.02
398.93	1764.76
399.12	1743.70
399.32	1785.83
399.51	1715.61
399.70	1792.85
399.90	1734.34
400.09	1729.66
400.28	1774.13
400.47	1769.44
400.67	1830.30
400.86	1823.28
401.05	1802.21
401.24	1846.68
401.44	1851.36
401.63	1865.41
401.82	1877.11
402.01	1834.98
402.21	1933.28
402.40	1944.99
402.59	1888.81
402.78	1940.30
402.97	1881.79
403.17	1996.48
403.36	1961.37
403.55	1923.92
403.74	1994.14
403.93	2024.56
404.13	2012.86
404.32	2066.69
404.51	2087.76
404.70	2005.84
404.89	2040.95
405.09	2150.95
405.28	2094.78
405.47	2122.87
405.66	2113.50
405.85	2153.29
406.05	2179.04
406.24	2204.78
406.43	2167.34
406.62	2183.72
406.81	2174.36
407.00	2256.28
407.20	2127.55
407.39	2272.66
407.58	2333.51
407.77	2216.49
407.96	2291.38
408.15	2394.37
408.34	2305.43
408.54	2420.11
408.73	2251.60
408.92	2387.35
409.11	2249.25
409.30	2392.03
409.49	2495.01
409.68	2452.88
409.87	2497.35
410.07	2511.39
410.26	2434.16
410.45	2485.65
410.64	2532.46
410.83	2537.14
411.02	2654.17
411.21	2696.30
411.40	2663.53
411.59	2548.84
411.78	2579.27
411.98	2595.65
412.17	2672.89
412.36	2670.55
412.55	2679.91
412.74	2778.22
412.93	2764.17
413.12	2808.64
413.31	2874.18
413.50	2731.41
413.69	2853.11
413.88	2958.44
414.07	2946.73
414.26	2810.98
414.45	2906.95
414.64	2916.31
414.83	3110.57
415.02	3126.96
415.22	3103.55
415.41	3098.87
415.60	3066.10
415.79	3148.02
415.98	3054.40
416.17	3208.87
416.36	3204.19
416.55	3094.19
416.74	3255.69
416.93	3180.79
417.12	3253.34
417.31	3295.47
417.50	3213.56
417.69	3370.37
417.88	3410.16
418.07	3365.69
418.26	3372.71
418.45	3391.44
418.64	3644.21
418.83	3496.76
419.02	3403.14
419.21	3449.95
419.39	3463.99
419.58	3538.89
419.77	3520.17
419.96	3597.40
420.15	3585.70
420.34	3604.42
420.53	3712.09
420.72	3707.41
420.91	3529.53
421.10	3684.00
421.29	3777.62
421.48	3662.94
421.67	3688.68
421.86	3641.87
422.05	3684.00
422.24	3676.98
422.43	3768.26
422.61	3754.22
422.80	3772.94
422.99	3882.95
423.18	3896.99
423.37	3885.29
423.56	3801.03
423.75	3772.94
423.94	3648.90
424.13	3658.26
424.32	3742.52
424.50	3964.87
424.69	3992.95
424.88	3955.51
425.07	3927.42
425.26	3810.39
425.45	3772.94
425.64	3740.18
425.83	3985.93
426.01	3918.06
426.20	3878.27
426.39	3976.57
426.58	3864.22
426.77	3868.91
426.96	3974.23
427.15	3950.82
427.33	4051.47
427.52	3943.80
427.71	4023.38
427.90	3992.95
428.09	4018.70
428.28	3983.59
428.46	4154.45
428.65	4154.45
428.84	3999.98
429.03	4198.92
429.22	4037.42
429.40	4243.39
429.59	4219.99
429.78	4088.92
429.97	3971.89
430.16	4184.88
430.34	4351.06
430.53	4400.21
430.72	4259.78
430.91	4315.95
431.10	4374.46
431.28	4374.46
431.47	4306.59
431.66	4468.08
431.85	4325.31
432.03	4594.47
432.22	4550.00
432.41	4407.23
432.60	4542.98
432.79	4374.46
432.97	4465.74
433.16	4568.73
433.35	4486.81
433.54	4671.71
433.72	4554.68
433.91	4631.92
434.10	4634.26
434.28	4559.36
434.47	4552.34
434.66	4697.46
434.85	4758.31
435.03	4847.25
435.22	4964.28
435.41	5291.95
435.59	5022.79
435.78	5069.60
435.97	5043.85
436.16	4887.04
436.34	4746.61
436.53	4758.31
436.72	5011.09
436.90	4779.37
437.09	4880.02
437.28	4975.98
437.46	4805.12
437.65	4877.68
437.84	5167.90
438.02	5085.98
438.21	5207.69
438.40	5032.15
438.58	5249.82
438.77	5238.12
438.96	5184.29
439.14	5364.51
439.33	5378.55
439.52	5455.79
439.70	5416.00
439.89	5401.96
440.08	5441.75
440.26	5537.71
440.45	5373.87
440.63	5518.98
440.82	5799.85
441.01	5460.47
441.19	5802.19
441.38	5619.63
441.57	5909.85
441.75	5746.02
441.94	5689.84
442.12	5708.57
442.31	5905.17
442.50	5884.11
442.68	5865.38
442.87	5951.98
443.05	6033.90
443.24	6209.44
443.43	5928.58
443.61	6054.97
443.80	6218.80
443.98	5968.37
444.17	5935.60
444.35	5996.45
444.54	6214.12
444.73	6113.48
444.91	6143.91
445.10	6125.18
445.28	6286.68
445.47	6169.65
445.65	6223.48
445.84	6188.38
446.02	6277.32
446.21	6307.74
446.39	6120.50
446.58	6272.64
446.77	6251.57
446.95	5954.32
447.14	6200.08
447.32	6342.85
447.51	6223.48
447.69	6221.14
447.88	6274.98
448.06	6370.94
448.25	6171.99
448.43	6345.19
448.62	6183.70
448.80	6204.76
448.99	6375.62
449.17	6553.50
449.36	6382.64
449.54	6277.32
449.73	6604.99
449.91	6476.26
450.10	6565.20
450.28	6623.72
450.46	6668.19
450.65	6499.67
450.83	6691.59
451.02	6438.81
451.20	6700.95
451.39	6857.77
451.57	6579.25
451.76	6677.55
451.94	6719.68
452.13	6630.74
452.31	6918.62
452.49	6703.29
452.68	6857.77
452.86	6705.63
453.05	7080.12
453.23	6740.74
453.42	7052.03
453.60	6857.77
453.78	7030.97
453.97	6923.30
454.15	6883.52
454.34	7096.50
454.52	6991.18
454.70	7124.59
454.89	7068.42
455.07	7140.97
455.26	7117.57
455.44	7243.96
455.62	7178.42
455.81	7321.20
455.99	7234.60
456.17	7414.82
456.36	7332.90
456.54	7456.95
456.73	7524.82
456.91	7588.02
457.09	7545.89
457.28	7531.84
457.46	7583.34
457.64	7543.55
457.83	7691.00
458.01	7485.03
458.19	7639.51
458.38	7768.24
458.56	7826.75
458.74	7719.09
458.93	7667.60
459.11	7599.72
459.29	7859.52
459.48	7789.30
459.66	7981.23
459.84	7719.09
460.03	8142.72
460.21	7873.56
460.39	7892.29
460.57	7903.99
460.76	8018.68
460.94	7889.95
461.12	7953.14
461.31	8250.39
461.49	8095.91
461.67	8119.32
461.85	8201.24
462.04	8044.42
462.22	8571.04
462.40	8332.31
462.59	8135.70
462.77	8264.43
462.95	8149.75
463.13	8404.86
463.32	8362.73
463.50	8313.58
463.68	8531.25
463.86	8339.33
464.05	8404.86
464.23	8290.18
464.41	8472.74
464.59	8217.62
464.78	8840.20
464.96	8603.81
465.14	8568.70
465.32	8592.11
465.50	8629.56
465.69	8627.21
465.87	8791.05
466.05	8620.19
466.23	8819.14
466.41	8758.28
466.60	8910.42
466.78	8631.90
466.96	8751.26
467.14	8725.52
467.32	8889.35
467.51	9050.85
467.69	8582.74
467.87	8954.89
468.05	8968.93
468.23	8966.59
468.41	8842.54
468.60	8947.87
468.78	9062.55
468.96	9163.20
469.14	9100.00
469.32	9329.38
469.50	9146.81
469.69	9109.36
469.87	9479.17
470.05	9181.92
470.23	9322.35
470.41	9518.96
470.59	9591.52
470.77	9371.50
470.95	9542.36
471.14	9673.43
471.32	9355.12
471.50	9795.14
471.68	9511.94
471.86	9701.52
472.04	9675.77
472.22	10008.13
472.40	9554.07
472.58	10031.54
472.77	10057.28
472.95	9984.73
473.13	10263.25
473.31	9991.75
473.49	9968.34
473.67	10111.11
473.85	10015.15
474.03	10251.55
474.21	10384.96
474.39	10359.21
474.57	10588.58
474.75	10520.71
474.93	10614.33
475.12	10611.99
475.30	10579.22
475.48	10614.33
475.66	10698.59
475.84	10738.38
476.02	10796.89
476.20	10979.45
476.38	11108.18
476.56	11169.04
476.74	11239.25
476.92	11185.42
477.10	11351.60
477.28	11393.73
477.46	11297.77
477.64	11440.54
477.82	11613.74
478.00	11815.02
478.18	11819.71
478.36	11932.05
478.54	12025.67
478.72	12004.61
478.90	12149.72
479.08	12079.50
479.26	12203.55
479.44	12428.24
479.62	12374.41
479.80	12575.70
479.98	12683.36
480.16	13048.49
480.34	12732.51
480.52	13067.21
480.70	13247.43
480.88	13015.72
481.06	12917.42
481.24	13029.76
481.41	13418.29
481.59	13701.50
481.77	13493.19
481.95	13640.64
482.13	13870.01
482.31	13914.48
482.49	14321.74
482.67	13830.23
482.85	14066.62
483.03	14429.40
483.21	14595.58
483.39	14670.48
483.57	14466.85
483.74	14656.43
483.92	14855.38
484.10	14831.97
484.28	15227.53
484.46	15183.06
484.64	15761.17
484.82	15522.43
485.00	15421.79
485.18	15763.51
485.35	16130.97
485.53	15864.15
485.71	16343.96
485.89	16360.34
486.07	16114.59
486.25	16238.64
486.43	16507.80
486.61	16711.42
486.78	16617.80
486.96	16774.62
487.14	17247.41
487.32	17116.34
487.50	17069.53
487.68	17331.67
487.85	17799.77
488.03	17593.81
488.21	18075.96
488.39	17860.63
488.57	18113.41
488.75	17994.04
488.92	18202.35
489.10	18471.51
489.28	18696.20
489.46	18750.03
489.64	18738.33
489.81	19005.15
489.99	18881.10
490.17	19232.18
490.35	19452.19
490.53	19475.60
490.70	19737.74
490.88	19316.44
491.06	19983.49
491.24	19943.70
491.41	19742.42
491.59	20067.75
491.77	20388.41
491.95	20482.03
492.13	20348.62
492.30	20346.28
492.48	20798.00
492.66	20718.42
492.84	20854.17
493.01	21312.92
493.19	20989.92
493.37	21027.37
493.54	21425.26
493.72	21329.30
493.90	21481.44
494.08	21537.61
494.25	21947.20
494.43	22190.62
494.61	22171.89
494.79	22108.70
494.96	22417.65
495.14	22558.08
495.32	22775.75
495.49	23063.64
495.67	22939.59
495.85	23215.77
496.02	22721.92
496.20	23330.46
496.38	23351.52
496.55	23566.85
496.73	23807.93
496.91	23681.54
497.09	23910.91
497.26	23967.09
497.44	24056.03
497.62	23929.64
497.79	24734.78
497.97	24421.15
498.14	24617.75
498.32	25081.18
498.50	24435.19
498.67	25303.53
498.85	25245.02
499.03	24978.20
499.20	25090.54
499.38	25186.50
499.56	25551.63
499.73	25642.91
499.91	25710.78
500.08	25565.67
500.26	25516.52
500.44	25736.53
500.61	25993.99
500.79	26029.10
500.97	25963.56
501.14	26735.94
501.32	26384.86
501.49	26174.21
501.67	26745.30
501.84	26363.79
502.02	27023.83
502.20	26768.71
502.37	26991.06
502.55	26569.76
502.72	26787.43
502.90	27047.23
503.07	26670.40
503.25	27234.47
503.43	27438.10
503.60	27421.72
503.78	27267.24
503.95	27264.90
504.13	27531.72
504.30	27641.73
504.48	27761.09
504.65	28360.27
504.83	28032.60
505.01	28144.94
505.18	28439.85
505.36	28608.37
505.53	28341.55
505.71	28676.24
505.88	28397.72
506.06	28332.18
506.23	28910.30
506.41	28833.06
506.58	29095.20
506.76	29296.49
506.93	28687.95
507.11	28863.49
507.28	29364.36
507.46	29415.85
507.63	29633.52
507.81	29535.22
507.98	29308.19
508.16	29558.63
508.33	29469.69
508.50	30015.03
508.68	29888.64
508.85	30080.56
509.03	29544.58
509.20	30232.70
509.38	30204.61
509.55	30342.70
509.73	30361.43
509.90	30576.76
510.08	30717.19
510.25	30967.63
510.42	30555.69
510.60	30558.03
510.77	30817.83
510.95	31091.68
511.12	31445.10
511.30	31194.66
511.47	31335.09
511.64	31566.81
511.82	31761.07
511.99	31550.42
512.17	31395.95
512.34	31777.45
512.51	32149.60
512.69	31889.80
512.86	32205.77
513.04	32407.06
513.21	32016.19
513.38	32196.41
513.56	32290.03
513.73	32350.88
513.90	32339.18
514.08	32786.22
514.25	32788.56
514.43	32769.84
514.60	32882.19
514.77	32748.78
514.95	32753.46
515.12	32479.61
515.29	33050.70
515.47	33525.83
515.64	33472.00
515.81	33057.73
515.99	33338.59
516.16	33631.16
516.33	33254.33
516.51	33926.07
516.68	33876.91
516.85	33886.28
517.03	33617.11
517.20	34082.88
517.37	33984.58
517.54	33645.20
517.72	34326.30
517.89	34026.71
518.06	33614.77
518.24	33914.36
518.41	34466.73
518.58	34380.13
518.75	34295.87
518.93	34433.96
519.10	34529.92
519.27	34345.02
519.45	34677.38
519.62	34717.17
519.79	34668.02
519.96	34979.31
520.14	35204.00
520.31	35103.35
520.48	35201.66
520.65	35299.96
520.83	35587.85
521.00	35606.57
521.17	35456.78
521.34	35784.45
521.52	35470.82
521.69	35718.92
521.86	36016.16
522.03	35803.17
522.20	35814.88
522.38	36294.69
522.55	36116.81
522.72	36610.66
522.89	36212.77
523.07	36636.41
523.24	36418.74
523.41	36669.17
523.58	36180.00
523.75	36741.73
523.92	36458.52
524.10	36950.04
524.27	36704.28
524.44	36442.14
524.61	37223.88
524.78	37237.92
524.96	36636.41
525.13	37156.00
525.30	37422.83
525.47	37368.99
525.64	37095.15
525.81	37780.93
525.98	37710.71
526.16	37427.51
526.33	37368.99
526.50	37944.76
526.67	37717.73
526.84	37659.22
527.01	38136.69
527.18	37694.33
527.36	38153.07
527.53	38162.43
527.70	38260.74
527.87	37984.55
528.04	38370.74
528.21	38483.09
528.38	38576.71
528.55	38679.69
528.72	38078.18
528.89	38251.38
529.07	38595.43
529.24	38511.17
529.41	38614.16
529.58	38335.63
529.75	38770.97
529.92	38817.78
530.09	39325.68
530.26	38747.57
530.43	38726.50
530.60	38345.00
530.77	38763.95
530.94	39168.87
531.11	39569.10
531.28	39274.19
531.46	39754.00
531.63	39358.45
531.80	39299.94
531.97	39981.03
532.14	39594.84
532.31	39555.05
532.48	40098.06
532.65	40013.80
532.82	39775.06
532.99	39339.72
533.16	39709.53
533.33	40189.34
533.50	40100.40
533.67	39817.19
533.84	39913.16
534.01	40306.37
534.18	40304.02
534.35	40353.18
534.52	40627.02
534.69	40439.78
534.86	40407.01
535.03	40304.02
535.20	40657.45
535.37	40762.77
535.54	40863.41
535.71	40708.94
535.88	40701.92
536.05	40524.04
536.22	40875.12
536.38	40884.48
536.55	40961.72
536.72	41153.64
536.89	41090.44
537.06	41296.41
537.23	41521.10
537.40	41507.06
537.57	41258.96
537.74	41483.66
537.91	41558.55
538.08	41659.20
538.25	41373.65
538.42	41769.20
538.59	41820.69
538.75	41251.94
538.92	41350.24
539.09	41703.67
539.26	41476.63
539.43	41766.86
539.60	41818.35
539.77	41790.27
539.94	42171.77
540.11	42494.77
540.28	42466.68
540.44	42284.12
540.61	42522.85
540.78	42321.57
540.95	41986.87
541.12	42391.78
541.29	42590.73
541.46	42473.70
541.62	42902.02
541.79	42953.51
541.96	42445.62
542.13	42930.11
542.30	42953.51
542.47	43026.07
542.63	42579.03
542.80	43138.41
542.97	43339.70
543.14	43320.98
543.31	43508.22
543.48	43447.36
543.64	43873.34
543.81	43606.52
543.98	43290.55
544.15	43585.46
544.32	43707.16
544.48	44165.91
544.65	43529.28
544.82	43868.66
544.99	43807.81
545.16	43878.02
545.32	43999.73
545.49	44540.39
545.66	44442.09
545.83	44776.79
546.00	45179.36
546.16	44507.63
546.33	44498.26
546.50	44072.29
546.67	44545.08
546.83	43320.98
547.00	43901.43
547.17	43908.45
547.34	44491.24
547.50	44299.32
547.67	45024.89
547.84	44549.76
548.00	44957.01
548.17	44996.80
548.34	44795.51
548.51	44467.84
548.67	44641.04
548.84	44175.27
549.01	44339.11
549.18	44992.12
549.34	45008.50
549.51	44538.05
549.68	44987.44
549.84	44699.55
550.01	45132.55
550.18	44793.17
550.34	44788.49
550.51	44538.05
550.68	45102.12
550.84	44847.00
551.01	45193.40
551.18	44985.10
551.34	45134.89
551.51	44949.99
551.68	45064.67
551.84	45214.47
552.01	45045.95
552.18	45212.13
552.34	45474.27
552.51	45656.83
552.68	45469.59
552.84	45308.09
553.01	45429.80
553.18	45605.34
553.34	45464.91
553.51	45174.68
553.67	45537.46
553.84	45790.24
554.01	46003.23
554.17	46148.34
554.34	46136.64
554.51	46078.13
554.67	45839.39
554.84	45794.92
555.00	45598.32
555.17	45682.58
555.33	45645.13
555.50	45591.30
555.67	46040.68
555.83	46160.05
556.00	46337.93
556.16	46253.67
556.33	46209.20
556.50	45961.10
556.66	45741.09
556.83	46010.25
556.99	46440.91
557.16	46485.38
557.32	46700.71
557.49	46583.68
557.65	46490.06
557.82	46302.82
557.98	46274.73
558.15	46557.94
558.32	46293.46
558.48	46347.29
558.65	46433.89
558.81	46738.16
558.98	46497.08
559.14	46625.81
559.31	46115.58
559.47	46382.40
559.64	46417.50
559.80	46429.21
559.97	46988.60
560.13	46426.87
560.30	46389.42
560.46	46529.85
560.63	46937.10
560.79	46763.90
560.96	46838.80
561.12	46937.10
561.29	46937.10
561.45	46616.45
561.61	46951.15
561.78	46595.38
561.94	47112.64
562.11	47290.52
562.27	47107.96
562.44	47030.72
562.60	47126.69
562.77	47295.21
562.93	46784.97
563.10	47447.34
563.26	46614.11
563.42	47332.65
563.59	46890.29
563.75	46983.91
563.92	47725.86
564.08	46848.16
564.24	47145.41
564.41	47042.43
564.57	46944.12
564.74	46841.14
564.90	47306.91
565.07	47445.00
565.23	47384.15
565.39	47283.50
565.56	47758.63
565.72	47547.98
565.88	47285.84
566.05	47217.97
566.21	47276.48
566.38	47007.32
566.54	47423.93
566.70	47660.33
566.87	47863.96
567.03	47346.70
567.19	47995.03
567.36	47655.65
567.52	47377.12
567.68	47791.40
567.85	47683.73
568.01	47526.92
568.17	47100.94
568.34	47672.03
568.50	47468.40
568.66	47512.88
568.83	47793.74
568.99	47461.38
569.15	47950.56
569.32	47655.65
569.48	47337.33
569.64	47789.06
569.81	47676.71
569.97	47412.23
570.13	47824.17
570.30	47756.29
570.46	47545.64
570.62	47955.24
570.78	47948.21
570.95	47667.35
571.11	47892.04
571.27	48018.43
571.43	47709.48
571.60	47646.29
571.76	47639.26
571.92	47863.96
572.09	47976.30
572.25	48252.48
572.41	48027.79
572.57	47878.00
572.74	48282.91
572.90	47870.98
573.06	47838.21
573.22	47927.15
573.38	48144.82
573.55	47629.90
573.71	48376.53
573.87	47941.19
574.03	47765.65
574.20	48060.56
574.36	48273.55
574.52	48189.29
574.68	48065.24
574.84	48147.16
575.01	48570.80
575.17	48233.76
575.33	48058.22
575.49	47997.37
575.65	48587.18
575.82	48413.98
575.98	48165.88
576.14	48479.52
576.30	48175.25
576.46	47880.34
576.62	48006.73
576.79	48301.64
576.95	48334.40
577.11	48215.04
577.27	48119.07
577.43	48381.21
577.59	48156.52
577.75	47938.85
577.92	48198.65
578.08	48109.71
578.24	48081.63
578.40	48577.82
578.56	47964.60
578.72	48477.18
578.88	48884.43
579.04	48706.55
579.21	48266.53
579.37	48343.77
579.53	48526.33
579.69	48594.20
579.85	48484.20
580.01	48629.31
580.17	48540.37
580.33	48369.51
580.49	48238.44
580.65	48547.39
580.82	48282.91
580.98	48835.28
581.14	48814.21
581.30	48762.72
581.46	48514.62
581.62	48058.22
581.78	48247.80
581.94	48444.41
582.10	48428.02
582.26	48458.45
582.42	48231.42
582.58	48329.72
582.74	48252.48
582.90	48442.07
583.06	48325.04
583.22	48406.96
583.38	48406.96
583.54	48229.08
583.70	48514.62
583.86	48451.43
584.02	48315.68
584.18	48313.34
584.34	48935.92
584.50	48533.35
584.66	47901.40
584.82	48243.12
584.98	48816.55
585.14	48526.33
585.30	48591.86
585.46	48605.91
585.62	48025.45
585.78	48734.63
585.94	48435.05
586.10	48526.33
586.26	48528.67
586.42	48610.59
586.58	48645.69
586.74	48610.59
586.90	48556.75
587.06	48451.43
587.22	48802.51
587.38	48619.95
587.54	48865.70
587.70	49258.91
587.86	48643.35
588.02	49085.72
588.18	49066.99
588.34	49024.86
588.49	48786.13
588.65	48678.46
588.81	48545.05
588.97	48753.36
589.13	48800.17
