SpectraSuite Data File
++++++++++++++++++++++++++++++++++++
Date: Thu Oct 24 13:21:39 EDT 2013
User: stostad
Dark Spectrum Present: No
Reference Spectrum Present: No
Number of Sampled Component Spectra: 1
Spectrometers: USB2+H05261
Integration Time (usec): 100000 (USB2+H05261)
Spectra Averaged: 1 (USB2+H05261)
Boxcar Smoothing: 0 (USB2+H05261)
Correct for Electrical Dark: No (USB2+H05261)
Strobe/Lamp Enabled: No (USB2+H05261)
Correct for Detector Non-linearity: No (USB2+H05261)
Correct for Stray Light: No (USB2+H05261)
Number of Pixels in Processed Spectrum: 2048
>>>>>Begin Processed Spectral Data<<<<<
365.73	582.79
365.92	582.79
366.12	582.79
366.32	482.15
366.52	393.21
366.72	475.13
366.91	533.64
367.11	482.15
367.31	421.30
367.51	444.70
367.70	360.44
367.90	543.00
368.10	472.79
368.30	395.55
368.49	465.77
368.69	587.47
368.89	498.53
369.09	440.02
369.28	505.56
369.48	484.49
369.68	521.94
369.87	503.22
370.07	538.32
370.27	550.03
370.47	709.18
370.66	1088.35
370.86	1170.27
371.06	1191.33
371.25	1261.55
371.45	1357.51
371.65	1301.34
371.84	1291.98
372.04	1277.93
372.24	1315.38
372.44	1437.09
372.63	1399.64
372.83	1317.72
373.03	1364.53
373.22	1476.88
373.42	1406.66
373.62	1458.15
373.81	1413.68
374.01	1476.88
374.21	1479.22
374.40	1504.96
374.60	1462.83
374.79	1453.47
374.99	1425.39
375.19	1575.18
375.38	1526.03
375.58	1528.37
375.78	1612.63
375.97	1535.39
376.17	1612.63
376.37	1605.61
376.56	1516.67
376.76	1514.33
376.95	1572.84
377.15	1526.03
377.35	1593.90
377.54	1624.33
377.74	1542.41
377.93	1636.03
378.13	1556.46
378.33	1664.12
378.52	1657.10
378.72	1675.82
378.91	1661.78
379.11	1689.87
379.31	1647.74
379.50	1589.22
379.70	1671.14
379.89	1680.50
380.09	1750.72
380.28	1708.59
380.48	1806.89
380.68	1696.89
380.87	1732.00
381.07	1877.11
381.26	1872.43
381.46	1762.42
381.65	1891.15
381.85	1827.96
382.04	1839.66
382.24	1933.28
382.43	1956.69
382.63	1881.79
382.83	1982.43
383.02	1870.09
383.22	1905.20
383.41	1893.49
383.61	1961.37
383.80	1877.11
384.00	1970.73
384.19	1998.82
384.39	1900.52
384.58	1991.80
384.78	1940.30
384.97	2076.06
385.17	2003.50
385.36	2043.29
385.56	1954.35
385.75	2040.95
385.95	2125.21
386.14	2066.69
386.34	2076.06
386.53	2120.53
386.72	2090.10
386.92	2193.08
387.11	2101.80
387.31	2129.89
387.50	2153.29
387.70	2225.85
387.89	2118.18
388.09	2169.68
388.28	2207.13
388.48	2289.04
388.67	2249.25
388.86	2214.15
389.06	2251.60
389.25	2317.13
389.45	2277.34
389.64	2221.17
389.84	2387.35
390.03	2300.75
390.22	2319.47
390.42	2448.20
390.61	2438.84
390.81	2361.60
391.00	2429.48
391.19	2396.71
391.39	2429.48
391.58	2448.20
391.78	2466.92
391.97	2457.56
392.16	2466.92
392.36	2700.98
392.55	2579.27
392.75	2623.74
392.94	2544.16
393.13	2633.10
393.33	2609.70
393.52	2647.15
393.71	2637.78
393.91	2654.17
394.10	2733.75
394.29	2696.30
394.49	2656.51
394.68	2888.22
394.88	2771.19
395.07	2759.49
395.26	2841.41
395.46	2719.70
395.65	2904.60
395.84	2815.66
396.04	2766.51
396.23	2918.65
396.42	2855.45
396.62	2895.24
396.81	2916.31
397.00	2965.46
397.19	2946.73
397.39	2923.33
397.58	3007.59
397.77	2974.82
397.97	3075.46
398.16	3059.08
398.35	3112.91
398.55	3115.25
398.74	3199.51
398.93	3176.11
399.12	3194.83
399.32	3068.44
399.51	3220.58
399.70	3283.77
399.90	3274.41
400.09	3258.03
400.28	3330.58
400.47	3398.46
400.67	3346.97
400.86	3377.39
401.05	3332.92
401.24	3379.73
401.44	3517.83
401.63	3438.25
401.82	3515.48
402.01	3445.27
402.21	3543.57
402.40	3466.33
402.59	3590.38
402.78	3662.94
402.97	3571.66
403.17	3709.75
403.36	3779.97
403.55	3569.32
403.74	3740.18
403.93	3927.42
404.13	3859.54
404.32	3953.16
404.51	3796.35
404.70	3815.07
404.89	3772.94
405.09	3941.46
405.28	3936.78
405.47	4025.72
405.66	4091.26
405.85	4093.60
406.05	3915.72
406.24	4044.45
406.43	4039.76
406.62	4262.12
406.81	4245.73
407.00	4095.94
407.20	4173.18
407.39	4105.30
407.58	4236.37
407.77	4217.65
407.96	4327.65
408.15	4393.19
408.34	4416.59
408.54	4393.19
408.73	4329.99
408.92	4454.04
409.11	4482.13
409.30	4561.70
409.49	4517.23
409.68	4496.17
409.87	4491.49
410.07	4662.35
410.26	4650.64
410.45	4573.41
410.64	4688.09
410.83	4772.35
411.02	4847.25
411.21	4954.91
411.40	4877.68
411.59	4915.12
411.78	4795.76
411.98	4812.14
412.17	5057.90
412.36	5004.07
412.55	5097.69
412.74	5167.90
412.93	5149.18
413.12	5114.07
413.31	5338.76
413.50	5303.65
413.69	5423.02
413.88	5371.53
414.07	5502.60
414.26	5423.02
414.45	5544.73
414.64	5558.77
414.83	5593.88
415.02	5806.87
415.22	5774.10
415.41	5736.65
415.60	5963.68
415.79	5689.84
415.98	6157.95
416.17	5914.53
416.36	5790.49
416.55	6038.58
416.74	6008.16
416.93	6099.44
417.12	6183.70
417.31	6204.76
417.50	6216.46
417.69	6328.81
417.88	6513.71
418.07	6291.36
418.26	6417.75
418.45	6569.88
418.64	6541.80
418.83	6619.04
419.02	6626.06
419.21	6616.69
419.39	6693.93
419.58	6679.89
419.77	6623.72
419.96	6609.67
420.15	6707.98
420.34	6841.39
420.53	6846.07
420.72	6993.52
420.91	6825.00
421.10	7030.97
421.29	7173.74
421.48	7068.42
421.67	7045.01
421.86	7164.38
422.05	7014.59
422.24	7075.44
422.43	7211.19
422.61	7213.53
422.80	7290.77
422.99	7262.68
423.18	7171.40
423.37	7428.86
423.56	7281.41
423.75	7243.96
423.94	7075.44
424.13	6684.57
424.32	6832.02
424.50	7487.37
424.69	7503.76
424.88	7332.90
425.07	7229.91
425.26	7258.00
425.45	7365.67
425.64	7386.73
425.83	7405.46
426.01	7304.81
426.20	7363.33
426.39	7496.74
426.58	7300.13
426.77	7482.69
426.96	7515.46
427.15	7545.89
427.33	7864.20
427.52	7459.29
427.71	7826.75
427.90	7550.57
428.09	7712.07
428.28	8009.31
428.46	7957.82
428.65	7950.80
428.84	8081.87
429.03	8067.83
429.22	7978.89
429.40	8025.70
429.59	8086.55
429.78	7864.20
429.97	7777.60
430.16	8098.25
430.34	8280.82
430.53	8203.58
430.72	8318.26
430.91	8201.24
431.10	8116.98
431.28	8395.50
431.47	8444.65
431.66	8299.54
431.85	8383.80
432.03	8606.15
432.22	8800.41
432.41	8772.33
432.60	8477.42
432.79	8561.68
432.97	8830.84
433.16	8975.95
433.35	8692.75
433.54	8879.99
433.72	8954.89
433.91	8887.01
434.10	9001.70
434.28	8725.52
434.47	9146.81
434.66	9088.30
434.85	9193.62
435.03	9310.65
435.22	9387.89
435.41	9881.74
435.59	9514.28
435.78	9612.58
435.97	9383.21
436.16	9523.64
436.34	9310.65
436.53	9511.94
436.72	9703.86
436.90	9525.98
437.09	9643.01
437.28	9589.17
437.46	9717.90
437.65	9696.84
437.84	9741.31
438.02	9886.42
438.21	9865.36
438.40	9657.05
438.58	10019.83
438.77	10363.89
438.96	10094.73
439.14	10459.85
439.33	10520.71
439.52	10595.61
439.70	10457.51
439.89	10544.11
440.08	10848.38
440.26	10736.04
440.45	10698.59
440.63	10878.81
440.82	11438.20
441.01	10899.87
441.19	11164.36
441.38	11164.36
441.57	11265.00
441.75	11398.41
441.94	11442.88
442.12	11571.61
442.31	11531.82
442.50	11555.22
442.68	11721.40
442.87	11838.43
443.05	11854.81
443.24	11798.64
443.43	11658.21
443.61	11896.94
443.80	12088.87
443.98	11733.11
444.17	11529.48
444.35	11936.73
444.54	12283.13
444.73	12362.71
444.91	12056.10
445.10	12173.13
445.28	12163.76
445.47	11903.96
445.65	12241.00
445.84	12479.74
446.02	12458.67
446.21	12346.33
446.39	12046.74
446.58	12248.02
446.77	12475.06
446.95	12299.52
447.14	12322.92
447.32	12470.37
447.51	12219.94
447.69	12334.62
447.88	12299.52
448.06	12524.21
448.25	12549.95
448.43	12407.18
448.62	12608.47
448.80	12596.76
448.99	12535.91
449.17	12863.58
449.36	12594.42
449.54	12936.14
449.73	13027.42
449.91	13273.18
450.10	13357.44
450.28	13233.39
450.46	13099.98
450.65	13231.05
450.83	13310.63
451.02	13046.15
451.20	13371.48
451.39	13434.68
451.57	13081.25
451.76	13224.03
451.94	13334.03
452.13	13554.04
452.31	13584.47
452.49	13523.62
452.68	13729.58
452.86	13715.54
453.05	13582.13
453.23	13752.99
453.42	13568.09
453.60	13640.64
453.78	14068.96
453.97	14090.02
454.15	13671.07
454.34	13680.43
454.52	14043.21
454.70	14141.52
454.89	14279.61
455.07	14104.07
455.26	14413.02
455.44	14579.20
455.62	14672.82
455.81	14307.69
455.99	14464.51
456.17	14789.85
456.36	14726.65
456.54	14993.47
456.73	15023.90
456.91	15445.20
457.09	15197.10
457.28	15243.91
457.46	15122.20
457.64	15215.82
457.83	15363.28
458.01	15323.49
458.19	15768.19
458.38	15108.16
458.56	15700.31
458.74	15840.75
458.93	15597.33
459.11	15936.71
459.29	15829.04
459.48	15793.94
459.66	15719.04
459.84	15999.90
460.03	16444.60
460.21	16163.74
460.39	15920.32
460.57	15922.66
460.76	16451.63
460.94	16407.16
461.12	16463.33
461.31	16402.47
461.49	16269.06
461.67	16287.79
461.85	16842.50
462.04	16634.19
462.22	17020.38
462.40	17149.11
462.59	17160.81
462.77	16936.12
462.95	17298.90
463.13	17018.04
463.32	16912.71
463.50	16823.77
463.68	17338.69
463.86	17296.56
464.05	17235.70
464.23	16931.44
464.41	17469.76
464.59	17399.54
464.78	17790.41
464.96	17717.86
465.14	17308.26
465.32	17710.83
465.50	17820.84
465.69	18024.47
465.87	17816.16
466.05	17919.14
466.23	17963.61
466.41	18192.98
466.60	18230.43
466.78	17970.63
466.96	18036.17
467.14	17837.22
467.32	18082.98
467.51	18625.98
467.69	17909.78
467.87	18581.51
468.05	18434.06
468.23	18192.98
468.41	18424.70
468.60	18448.10
468.78	18658.75
468.96	18363.84
469.14	18541.72
469.32	19161.97
469.50	18728.97
469.69	19234.52
469.87	19295.38
470.05	19236.86
470.23	19314.10
470.41	19311.76
470.59	19646.46
470.77	19365.59
470.95	19761.14
471.14	20102.86
471.32	19358.57
471.50	20121.59
471.68	19726.04
471.86	20379.04
472.04	19957.75
472.22	20580.33
472.40	20102.86
472.58	20212.87
472.77	20601.40
472.95	20802.68
473.13	21509.52
473.31	20554.58
473.49	20999.29
473.67	20788.64
473.85	21034.39
474.03	21502.50
474.21	21493.14
474.39	21343.35
474.57	21315.26
474.75	21671.02
474.93	22267.86
475.12	22214.02
475.30	22366.16
475.48	21998.70
475.66	22546.38
475.84	22436.38
476.02	22792.14
476.20	22850.65
476.38	23218.11
476.56	23400.68
476.74	23761.12
476.92	23328.12
477.10	23332.80
477.28	23784.52
477.46	23981.13
477.64	23871.12
477.82	23995.17
478.00	24774.57
478.18	24575.62
478.36	25060.12
478.54	25130.33
478.72	25563.33
478.90	25771.64
479.08	25872.28
479.26	26120.38
479.44	26204.64
479.62	26331.03
479.80	26560.40
479.98	26679.77
480.16	27578.53
480.34	26799.13
480.52	27143.19
480.70	27557.47
480.88	27569.17
481.06	27864.08
481.24	27754.07
481.41	28133.24
481.59	28533.47
481.77	28912.64
481.95	28882.21
482.13	29097.54
482.31	28959.45
482.49	29736.51
482.67	29783.32
482.85	30141.42
483.03	30766.34
483.21	30714.85
483.39	31035.50
483.57	30838.90
483.74	31365.52
483.92	31126.78
484.10	31339.77
484.28	32194.07
484.46	32568.55
484.64	33092.83
484.82	32634.09
485.00	32627.07
485.18	33230.93
485.35	33720.10
485.53	34010.32
485.71	34363.75
485.89	34841.21
486.07	34279.49
486.25	34679.72
486.43	34909.09
486.61	35400.60
486.78	35515.29
486.96	35927.22
487.14	36500.65
487.32	36058.29
487.50	36535.76
487.68	36460.87
487.85	37441.55
488.03	37930.72
488.21	37820.72
488.39	38033.71
488.57	38230.31
488.75	38717.14
488.92	39138.44
489.10	39253.12
489.28	39700.17
489.46	39831.24
489.64	39800.81
489.81	40442.12
489.99	40339.13
490.17	40872.78
490.35	41401.74
490.53	41928.36
490.70	42167.09
490.88	41820.69
491.06	41780.90
491.24	42330.93
491.41	42583.71
491.59	42932.45
491.77	43103.31
491.95	43662.69
492.13	43538.65
492.30	44406.98
492.48	43859.30
492.66	44161.23
492.84	44311.02
493.01	44945.31
493.19	45006.16
493.37	45275.32
493.54	45467.25
493.72	45909.61
493.90	45853.44
494.08	46333.24
494.25	46974.55
494.43	46862.21
494.61	47250.74
494.79	47147.75
494.96	46937.10
495.14	47400.53
495.32	48095.67
495.49	48502.92
495.67	48540.37
495.85	48692.50
496.02	48926.56
496.20	49172.31
496.38	48917.20
496.55	49017.84
496.73	50258.32
496.91	49799.58
497.09	49977.46
497.26	50328.54
497.44	50057.04
497.62	50440.89
497.79	50857.50
497.97	50588.34
498.14	51253.05
498.32	51325.61
498.50	51423.91
498.67	51526.89
498.85	51367.74
499.03	51782.01
499.20	52039.47
499.38	52313.31
499.56	52603.54
499.73	52954.62
499.91	52648.01
500.08	52657.37
500.26	52287.57
500.44	53106.76
500.61	53158.25
500.79	53123.14
500.97	53322.08
501.14	53965.73
501.32	53595.93
501.49	53925.94
501.67	53916.58
501.84	54089.78
502.02	54085.10
502.20	54330.86
502.37	54443.20
502.55	54356.60
502.72	54321.49
502.90	54616.40
503.07	54309.79
503.25	54756.83
503.43	54539.16
503.60	54948.76
503.78	55082.17
503.95	55278.77
504.13	55426.23
504.30	55456.65
504.48	55297.50
504.65	55594.74
504.83	55959.87
505.01	56109.66
505.18	55576.02
505.36	55999.66
505.53	55955.19
505.71	55973.91
505.88	56446.70
506.06	55934.12
506.23	56814.16
506.41	56217.33
506.58	56561.39
506.76	56631.60
506.93	56739.27
507.11	56671.39
507.28	57006.09
507.46	56865.66
507.63	57102.05
507.81	57296.31
507.98	57118.43
508.16	57130.14
508.33	57408.66
508.50	57546.75
508.68	57670.80
508.85	58026.56
509.03	57647.39
509.20	57911.88
509.38	58178.70
509.55	57961.03
509.73	58305.09
509.90	58295.72
510.08	58017.20
510.25	58422.11
510.42	58295.72
510.60	58340.19
510.77	58710.00
510.95	58740.42
511.12	58616.38
511.30	58710.00
511.47	58941.71
511.64	58801.28
511.82	59229.60
511.99	58988.52
512.17	59332.58
512.34	59248.32
512.51	59564.29
512.69	59477.69
512.86	59393.43
513.04	59662.60
513.21	59503.44
513.38	59491.74
513.56	59601.74
513.73	59604.08
513.90	60046.44
514.08	59793.67
514.25	60107.30
514.43	60135.38
514.60	59938.78
514.77	60009.00
514.95	60107.30
515.12	60200.92
515.29	60285.18
515.47	60451.36
515.64	60687.75
515.81	60612.85
515.99	60512.21
516.16	60629.24
516.33	60580.09
516.51	60828.18
516.68	61003.72
516.85	61036.49
517.03	61083.30
517.20	61132.45
517.37	61029.47
517.54	60959.25
517.72	61176.92
517.89	61200.33
518.06	61413.32
518.24	61441.40
518.41	61558.43
518.58	61532.68
518.75	61460.13
518.93	61520.98
519.10	61378.21
519.27	61726.95
519.45	61579.49
519.62	61778.44
519.79	61958.66
519.96	61829.93
520.14	62024.20
520.31	61860.36
520.48	61989.09
520.65	61902.49
520.83	62461.88
521.00	62312.08
521.17	62473.58
521.34	62520.39
521.52	62375.28
521.69	62667.84
521.86	62511.03
522.03	62546.14
522.20	62731.04
522.38	62929.98
522.55	62885.51
522.72	62887.85
522.89	62709.97
523.07	62962.75
523.24	62878.49
523.41	63135.95
523.58	62862.11
523.75	63164.04
523.92	63189.78
524.10	63374.69
524.27	63192.12
524.44	63281.06
524.61	63318.51
524.78	63379.37
524.96	63458.94
525.13	63444.90
525.30	63697.68
525.47	63838.11
525.64	63646.19
525.81	63685.98
525.98	63838.11
526.16	63615.76
526.33	63777.26
526.50	64008.97
526.67	63894.28
526.84	63908.33
527.01	64006.63
527.18	63826.41
527.36	63950.46
527.53	64109.61
527.70	64261.75
527.87	64346.01
528.04	64203.24
528.21	64547.29
528.38	64399.84
528.55	64402.18
528.72	64357.71
528.89	64413.88
529.07	64371.75
529.24	64296.86
529.41	64502.82
529.58	64741.56
529.75	64673.68
529.92	64839.86
530.09	64725.17
530.26	64722.83
530.43	64694.75
530.60	64589.42
530.77	64788.37
530.94	64949.87
531.11	64973.27
531.28	64889.01
531.46	65092.64
531.63	65085.62
531.80	65165.20
531.97	65275.20
532.14	65212.01
532.31	65242.43
532.48	65373.50
532.65	65296.27
532.82	65441.38
532.99	65535.00
533.16	65197.96
533.33	65455.42
533.50	65535.00
533.67	65535.00
533.84	65476.49
534.01	65535.00
534.18	65535.00
534.35	65535.00
534.52	65535.00
534.69	65535.00
534.86	65535.00
535.03	65535.00
535.20	65535.00
535.37	65535.00
535.54	65535.00
535.71	65535.00
535.88	65535.00
536.05	65535.00
536.22	65535.00
536.38	65535.00
536.55	65535.00
536.72	65535.00
536.89	65535.00
537.06	65535.00
537.23	65535.00
537.40	65535.00
537.57	65535.00
537.74	65535.00
537.91	65535.00
538.08	65535.00
538.25	65535.00
538.42	65535.00
538.59	65535.00
538.75	65535.00
538.92	65535.00
539.09	65535.00
539.26	65535.00
539.43	65535.00
539.60	65535.00
539.77	65535.00
539.94	65535.00
540.11	65535.00
540.28	65535.00
540.44	65535.00
540.61	65535.00
540.78	65535.00
540.95	65535.00
541.12	65535.00
541.29	65535.00
541.46	65535.00
541.62	65535.00
541.79	65535.00
541.96	65535.00
542.13	65535.00
542.30	65535.00
542.47	65535.00
542.63	65535.00
542.80	65535.00
542.97	65535.00
543.14	65535.00
543.31	65535.00
543.48	65535.00
543.64	65535.00
543.81	65535.00
543.98	65535.00
544.15	65535.00
544.32	65535.00
544.48	65535.00
544.65	65535.00
544.82	65535.00
544.99	65535.00
545.16	65535.00
545.32	65535.00
545.49	65535.00
545.66	65535.00
545.83	65535.00
546.00	65535.00
546.16	65535.00
546.33	65535.00
546.50	65535.00
546.67	65535.00
546.83	65535.00
547.00	65535.00
547.17	65535.00
547.34	65535.00
547.50	65535.00
547.67	65535.00
547.84	65535.00
548.00	65535.00
548.17	65535.00
548.34	65535.00
548.51	65535.00
548.67	65535.00
548.84	65535.00
549.01	65535.00
549.18	65535.00
549.34	65535.00
549.51	65535.00
549.68	65535.00
549.84	65535.00
550.01	65535.00
550.18	65535.00
550.34	65535.00
550.51	65535.00
550.68	65535.00
550.84	65535.00
551.01	65535.00
551.18	65535.00
551.34	65535.00
551.51	65535.00
551.68	65535.00
551.84	65535.00
552.01	65535.00
552.18	65535.00
552.34	65535.00
552.51	65535.00
552.68	65535.00
552.84	65535.00
553.01	65535.00
553.18	65535.00
553.34	65535.00
553.51	65535.00
553.67	65535.00
553.84	65535.00
554.01	65535.00
554.17	65535.00
554.34	65535.00
554.51	65535.00
554.67	65535.00
554.84	65535.00
555.00	65535.00
555.17	65535.00
555.33	65535.00
555.50	65535.00
555.67	65535.00
555.83	65535.00
556.00	65535.00
556.16	65535.00
556.33	65535.00
556.50	65535.00
556.66	65535.00
556.83	65535.00
556.99	65535.00
557.16	65535.00
557.32	65535.00
557.49	65535.00
557.65	65535.00
557.82	65535.00
557.98	65535.00
558.15	65535.00
558.32	65535.00
558.48	65535.00
558.65	65535.00
558.81	65535.00
558.98	65535.00
559.14	65535.00
559.31	65535.00
559.47	65535.00
559.64	65535.00
559.80	65535.00
559.97	65535.00
560.13	65535.00
560.30	65535.00
560.46	65535.00
560.63	65535.00
560.79	65535.00
560.96	65535.00
561.12	65535.00
561.29	65535.00
561.45	65535.00
561.61	65535.00
561.78	65535.00
561.94	65535.00
562.11	65535.00
562.27	65535.00
562.44	65535.00
562.60	65535.00
562.77	65535.00
562.93	65535.00
563.10	65535.00
563.26	65535.00
563.42	65535.00
563.59	65535.00
563.75	65535.00
563.92	65535.00
564.08	65535.00
564.24	65535.00
564.41	65535.00
564.57	65535.00
564.74	65535.00
564.90	65535.00
565.07	65535.00
565.23	65535.00
565.39	65535.00
565.56	65535.00
565.72	65535.00
565.88	65535.00
566.05	65535.00
566.21	65535.00
566.38	65535.00
566.54	65535.00
566.70	65535.00
566.87	65535.00
567.03	65535.00
567.19	65535.00
567.36	65535.00
567.52	65535.00
567.68	65535.00
567.85	65535.00
568.01	65535.00
568.17	65535.00
568.34	65535.00
568.50	65535.00
568.66	65535.00
568.83	65535.00
568.99	65535.00
569.15	65535.00
569.32	65535.00
569.48	65535.00
569.64	65535.00
569.81	65535.00
569.97	65535.00
570.13	65535.00
570.30	65535.00
570.46	65535.00
570.62	65535.00
570.78	65535.00
570.95	65535.00
571.11	65535.00
571.27	65535.00
571.43	65535.00
571.60	65535.00
571.76	65535.00
571.92	65535.00
572.09	65535.00
572.25	65535.00
572.41	65535.00
572.57	65535.00
572.74	65535.00
572.90	65535.00
573.06	65535.00
573.22	65535.00
573.38	65535.00
573.55	65535.00
573.71	65535.00
573.87	65535.00
574.03	65535.00
574.20	65535.00
574.36	65535.00
574.52	65535.00
574.68	65535.00
574.84	65535.00
575.01	65535.00
575.17	65535.00
575.33	65535.00
575.49	65535.00
575.65	65535.00
575.82	65535.00
575.98	65535.00
576.14	65535.00
576.30	65535.00
576.46	65535.00
576.62	65535.00
576.79	65535.00
576.95	65535.00
577.11	65535.00
577.27	65535.00
577.43	65535.00
577.59	65535.00
577.75	65535.00
577.92	65535.00
578.08	65535.00
578.24	65535.00
578.40	65535.00
578.56	65535.00
578.72	65535.00
578.88	65535.00
579.04	65535.00
579.21	65535.00
579.37	65535.00
579.53	65535.00
579.69	65535.00
579.85	65535.00
580.01	65535.00
580.17	65535.00
580.33	65535.00
580.49	65535.00
580.65	65535.00
580.82	65535.00
580.98	65535.00
581.14	65535.00
581.30	65535.00
581.46	65535.00
581.62	65535.00
581.78	65535.00
581.94	65535.00
582.10	65535.00
582.26	65535.00
582.42	65535.00
582.58	65535.00
582.74	65535.00
582.90	65535.00
583.06	65535.00
583.22	65535.00
583.38	65535.00
583.54	65535.00
583.70	65535.00
583.86	65535.00
584.02	65535.00
584.18	65535.00
584.34	65535.00
584.50	65535.00
584.66	65535.00
584.82	65535.00
584.98	65535.00
585.14	65535.00
585.30	65535.00
585.46	65535.00
585.62	65535.00
585.78	65535.00
585.94	65535.00
586.10	65535.00
586.26	65535.00
586.42	65535.00
586.58	65535.00
586.74	65535.00
586.90	65535.00
587.06	65535.00
