SpectraSuite Data File
++++++++++++++++++++++++++++++++++++
Date: Thu Oct 24 13:21:31 EDT 2013
User: stostad
Dark Spectrum Present: No
Reference Spectrum Present: No
Number of Sampled Component Spectra: 1
Spectrometers: USB2+H05261
Integration Time (usec): 100000 (USB2+H05261)
Spectra Averaged: 1 (USB2+H05261)
Boxcar Smoothing: 0 (USB2+H05261)
Correct for Electrical Dark: No (USB2+H05261)
Strobe/Lamp Enabled: No (USB2+H05261)
Correct for Detector Non-linearity: No (USB2+H05261)
Correct for Stray Light: No (USB2+H05261)
Number of Pixels in Processed Spectrum: 2048
>>>>>Begin Processed Spectral Data<<<<<
365.73	561.73
365.92	561.73
366.12	561.73
366.32	484.49
366.52	472.79
366.72	407.25
366.91	444.70
367.11	468.11
367.31	454.06
367.51	440.02
367.70	472.79
367.90	468.11
368.10	447.04
368.30	367.46
368.49	493.85
368.69	447.04
368.89	543.00
369.09	486.83
369.28	486.83
369.48	521.94
369.68	503.22
369.87	463.43
370.07	507.90
370.27	568.75
370.47	709.18
370.66	1097.71
370.86	1191.33
371.06	1219.42
371.25	1132.82
371.45	1123.46
371.65	1177.29
371.84	1151.54
372.04	1165.59
372.24	1233.46
372.44	1270.91
372.63	1275.59
372.83	1270.91
373.03	1315.38
373.22	1287.29
373.42	1336.45
373.62	1315.38
373.81	1343.47
374.01	1364.53
374.21	1373.89
374.40	1350.49
374.60	1404.32
374.79	1416.02
374.99	1373.89
375.19	1371.55
375.38	1301.34
375.58	1329.42
375.78	1472.20
375.97	1430.07
376.17	1427.73
376.37	1455.81
376.56	1401.98
376.76	1310.70
376.95	1451.13
377.15	1427.73
377.35	1444.11
377.54	1504.96
377.74	1530.71
377.93	1511.99
378.13	1441.77
378.33	1577.52
378.52	1549.43
378.72	1528.37
378.91	1465.18
379.11	1490.92
379.31	1554.12
379.50	1507.30
379.70	1549.43
379.89	1544.75
380.09	1504.96
380.28	1448.79
380.48	1640.72
380.68	1558.80
380.87	1610.29
381.07	1631.35
381.26	1746.04
381.46	1664.12
381.65	1650.08
381.85	1692.21
382.04	1650.08
382.24	1720.29
382.43	1715.61
382.63	1703.91
382.83	1732.00
383.02	1696.89
383.22	1776.47
383.41	1788.17
383.61	1739.02
383.80	1771.79
384.00	1792.85
384.19	1804.55
384.39	1781.15
384.58	1696.89
384.78	1870.09
384.97	1795.19
385.17	1865.41
385.36	1799.87
385.56	1909.88
385.75	1867.75
385.95	1937.96
386.14	1818.60
386.34	1891.15
386.53	1863.07
386.72	1933.28
386.92	1905.20
387.11	1991.80
387.31	1914.56
387.50	1970.73
387.70	1973.07
387.89	2026.90
388.09	1872.43
388.28	1987.11
388.48	2108.82
388.67	2019.88
388.86	2066.69
389.06	2132.23
389.25	2087.76
389.45	2092.44
389.64	2078.40
389.84	2115.84
390.03	2230.53
390.22	2132.23
390.42	2094.78
390.61	2179.04
390.81	2195.42
391.00	2134.57
391.19	2260.96
391.39	2251.60
391.58	2289.04
391.78	2291.38
391.97	2162.66
392.16	2221.17
392.36	2382.67
392.55	2340.54
392.75	2420.11
392.94	2312.45
393.13	2385.01
393.33	2258.62
393.52	2377.98
393.71	2352.24
393.91	2438.84
394.10	2434.16
394.29	2457.56
394.49	2352.24
394.68	2377.98
394.88	2389.69
395.07	2473.95
395.26	2583.95
395.46	2518.42
395.65	2553.52
395.84	2668.21
396.04	2565.23
396.23	2569.91
396.42	2719.70
396.62	2715.02
396.81	2773.53
397.00	2759.49
397.19	2700.98
397.39	2736.09
397.58	2675.23
397.77	2649.49
397.97	2771.19
398.16	2733.75
398.35	2878.86
398.55	2813.32
398.74	2806.30
398.93	2991.20
399.12	2949.08
399.32	2965.46
399.51	2860.13
399.70	3030.99
399.90	2906.95
400.09	3080.14
400.28	3000.57
400.47	2977.16
400.67	3042.70
400.86	3038.02
401.05	3068.44
401.24	3030.99
401.44	3183.13
401.63	3204.19
401.82	3098.87
402.01	3075.46
402.21	3159.72
402.40	3178.45
402.59	3197.17
402.78	3206.53
402.97	3169.09
403.17	3290.79
403.36	3396.12
403.55	3372.71
403.74	3375.05
403.93	3358.67
404.13	3463.99
404.32	3538.89
404.51	3496.76
404.70	3468.67
404.89	3581.02
405.09	3606.77
405.28	3583.36
405.47	3574.00
405.66	3534.21
405.85	3651.24
406.05	3459.31
406.24	3641.87
406.43	3585.70
406.62	3831.46
406.81	3772.94
407.00	3871.25
407.20	3777.62
407.39	3913.38
407.58	3969.55
407.77	4004.66
407.96	3850.18
408.15	3971.89
408.34	3815.07
408.54	4156.79
408.73	3981.25
408.92	4119.34
409.11	4088.92
409.30	4149.77
409.49	4121.68
409.68	4205.94
409.87	4245.73
410.07	4299.56
410.26	4161.47
410.45	4215.30
410.64	4257.43
410.83	4346.37
411.02	4198.92
411.21	4578.09
411.40	4624.90
411.59	4594.47
411.78	4559.36
411.98	4409.57
412.17	4674.05
412.36	4823.84
412.55	4681.07
412.74	4734.90
412.93	4772.35
413.12	4652.98
413.31	4924.49
413.50	4919.81
413.69	4947.89
413.88	5006.41
414.07	5057.90
414.26	5170.24
414.45	5195.99
414.64	5158.54
414.83	5100.03
415.02	5240.46
415.22	5423.02
415.41	5334.08
415.60	5394.93
415.79	5465.15
415.98	5392.59
416.17	5570.48
416.36	5453.45
416.55	5500.26
416.74	5551.75
416.93	5556.43
417.12	5666.44
417.31	5610.26
417.50	5628.99
417.69	5781.12
417.88	5944.96
418.07	5968.37
418.26	5877.09
418.45	5867.72
418.64	6066.67
418.83	5961.34
419.02	6153.27
419.21	6155.61
419.39	6171.99
419.58	6150.93
419.77	6073.69
419.96	6338.17
420.15	6382.64
420.34	6200.08
420.53	6380.30
420.72	6310.08
420.91	6394.34
421.10	6438.81
421.29	6523.07
421.48	6289.02
421.67	6382.64
421.86	6387.32
422.05	6518.39
422.24	6649.46
422.43	6717.34
422.61	6729.04
422.80	6930.33
422.99	6626.06
423.18	6560.52
423.37	6740.74
423.56	6665.85
423.75	6623.72
423.94	6544.14
424.13	6160.29
424.32	6436.47
424.50	6731.38
424.69	6972.46
424.88	6771.17
425.07	6754.79
425.26	6523.07
425.45	6792.23
425.64	6743.08
425.83	6628.40
426.01	7112.89
426.20	6771.17
426.39	6970.12
426.58	6843.73
426.77	6794.58
426.96	6949.05
427.15	6944.37
427.33	7000.54
427.52	6855.43
427.71	7101.19
427.90	7077.78
428.09	7068.42
428.28	7108.21
428.46	7087.14
428.65	7150.34
428.84	7346.94
429.03	7421.84
429.22	7124.59
429.40	7358.64
429.59	7433.54
429.78	7150.34
429.97	7059.06
430.16	7461.63
430.34	7288.43
430.53	7557.59
430.72	7681.64
430.91	7637.17
431.10	7318.86
431.28	7756.54
431.47	7922.71
431.66	7934.42
431.85	7751.85
432.03	7983.57
432.22	8035.06
432.41	7932.08
432.60	7772.92
432.79	8140.38
432.97	8039.74
433.16	8049.10
433.35	8112.30
433.54	8189.53
433.72	8285.50
433.91	8294.86
434.10	8177.83
434.28	8344.01
434.47	8322.94
434.66	8538.27
434.85	8498.49
435.03	8549.98
435.22	8547.64
435.41	8940.85
435.59	8781.69
435.78	8739.56
435.97	8926.80
436.16	8727.86
436.34	8620.19
436.53	8758.28
436.72	8638.92
436.90	8683.39
437.09	8872.97
437.28	8833.18
437.46	8709.13
437.65	8964.25
437.84	9057.87
438.02	9083.62
438.21	9090.64
438.40	8919.78
438.58	9432.36
438.77	9509.60
438.96	9149.15
439.14	9355.12
439.33	9549.39
439.52	9783.44
439.70	9706.20
439.89	9720.24
440.08	10017.49
440.26	9958.98
440.45	9905.15
440.63	9975.36
440.82	10225.80
441.01	10228.14
441.19	10317.08
441.38	10108.77
441.57	10279.63
441.75	10354.53
441.94	10759.44
442.12	10551.14
442.31	10593.26
442.50	10871.79
442.68	10714.97
442.87	10651.78
443.05	10822.64
443.24	10956.05
443.43	10899.87
443.61	10857.75
443.80	11136.27
443.98	10747.74
444.17	10604.97
444.35	10850.72
444.54	11154.99
444.73	10960.73
444.91	10984.13
445.10	11054.35
445.28	11066.05
445.47	11012.22
445.65	11000.52
445.84	11178.40
446.02	10986.47
446.21	11178.40
446.39	11187.76
446.58	11330.53
446.77	11248.61
446.95	10960.73
447.14	11232.23
447.32	11382.03
447.51	11187.76
447.69	11232.23
447.88	11335.21
448.06	11447.56
448.25	11276.70
448.43	11527.14
448.62	11482.67
448.80	11358.62
448.99	11501.39
449.17	11702.68
449.36	11632.46
449.54	11587.99
449.73	11740.13
449.91	11763.53
450.10	11761.19
450.28	12011.63
450.46	11922.69
450.65	12053.76
450.83	12006.95
451.02	12039.72
451.20	12451.65
451.39	12149.72
451.57	12088.87
451.76	12070.14
451.94	12184.83
452.13	12355.69
452.31	12425.90
452.49	12250.36
452.68	12414.20
452.86	12580.38
453.05	12463.35
453.23	12655.28
453.42	12545.27
453.60	12512.50
453.78	12608.47
453.97	12573.36
454.15	12453.99
454.34	12362.71
454.52	12730.17
454.70	12936.14
454.89	12950.18
455.07	12879.97
455.26	13137.43
455.44	13114.02
455.62	13219.35
455.81	13174.88
455.99	13383.18
456.17	13205.30
456.36	13404.25
456.54	13535.32
456.73	13752.99
456.91	13832.57
457.09	13804.48
457.28	13841.93
457.46	13607.87
457.64	14083.00
457.83	14115.77
458.01	13837.25
458.19	14239.82
458.38	14291.31
458.56	14153.22
458.74	14043.21
458.93	14214.07
459.11	14288.97
459.29	14221.10
459.48	14183.65
459.66	14286.63
459.84	14663.46
460.03	14567.49
460.21	14719.63
460.39	14501.96
460.57	14380.25
460.76	14850.70
460.94	14824.95
461.12	15035.60
461.31	14930.28
461.49	14946.66
461.67	14665.80
461.85	15096.46
462.04	14941.98
462.22	15342.21
462.40	15632.44
462.59	15171.35
462.77	15222.84
462.95	15318.81
463.13	15311.78
463.32	15293.06
463.50	15466.26
463.68	15700.31
463.86	15726.06
464.05	15176.03
464.23	15449.88
464.41	15459.24
464.59	15712.02
464.78	15988.20
464.96	15871.17
465.14	15482.64
465.32	16137.99
465.50	15868.83
465.69	16016.29
465.87	16428.22
466.05	16046.71
466.23	16086.50
466.41	16444.60
466.60	16690.36
466.78	16219.91
466.96	16044.37
467.14	16159.06
467.32	16257.36
467.51	16603.76
467.69	15910.96
467.87	16468.01
468.05	16765.26
468.23	16341.62
468.41	16531.20
468.60	16872.92
468.78	16779.30
468.96	16711.42
469.14	17078.89
469.32	17184.21
469.50	16741.85
469.69	17109.32
469.87	17380.82
470.05	17315.28
470.23	17521.25
470.41	17376.14
470.59	17818.50
470.77	17399.54
470.95	17668.70
471.14	18005.74
471.32	17692.11
471.50	18012.76
471.68	18001.06
471.86	17991.70
472.04	18380.23
472.22	18513.64
472.40	18113.41
472.58	18153.20
472.77	18651.73
472.95	18771.10
473.13	19323.46
473.31	18679.82
473.49	18707.90
473.67	18951.32
473.85	18981.74
474.03	19417.08
474.21	19096.43
474.39	19562.20
474.57	19477.94
474.75	19878.17
474.93	19829.02
475.12	19740.08
475.30	20271.38
475.48	19707.31
475.66	20102.86
475.84	19995.20
476.02	20594.37
476.20	20669.27
476.38	20748.85
476.56	20840.13
476.74	21179.51
476.92	21006.31
477.10	21104.61
477.28	21465.05
477.46	21823.16
477.64	21872.31
477.82	22106.36
478.00	22593.19
478.18	22022.10
478.36	22621.28
478.54	22986.40
478.72	22892.78
478.90	22824.90
479.08	23145.56
479.26	23494.30
479.44	23503.66
479.62	23417.06
479.80	24379.02
479.98	24032.62
480.16	24683.29
480.34	24318.17
480.52	24692.65
480.70	24477.32
480.88	24196.46
481.06	24947.77
481.24	24945.43
481.41	25076.50
481.59	25759.94
481.77	26015.05
481.95	25893.35
482.13	26368.48
482.31	26396.56
482.49	26946.59
482.67	26579.12
482.85	27063.61
483.03	27374.91
483.21	27466.19
483.39	27840.67
483.57	27791.52
483.74	27639.39
483.92	28341.55
484.10	28449.21
484.28	28842.42
484.46	29266.06
484.64	29656.93
484.82	29046.05
485.00	29450.96
485.18	29986.94
485.35	30235.04
485.53	30288.87
485.71	30686.76
485.89	31211.04
486.07	31023.80
486.25	30771.02
486.43	31250.83
486.61	31632.34
486.78	31924.91
486.96	32156.62
487.14	32683.24
487.32	32568.55
487.50	32554.51
487.68	32781.54
487.85	33577.33
488.03	33886.28
488.21	34436.30
488.39	33745.84
488.57	34227.99
488.75	34569.71
488.92	34953.56
489.10	35571.46
489.28	35243.79
489.46	36130.85
489.64	35592.53
489.81	36575.55
489.99	36378.95
490.17	36531.08
490.35	36847.05
490.53	36982.80
490.70	37780.93
490.88	37406.44
491.06	37897.95
491.24	37886.25
491.41	38136.69
491.59	38333.29
491.77	39009.71
491.95	39164.18
492.13	39281.21
492.30	39461.43
492.48	39447.39
492.66	39948.26
492.84	39931.88
493.01	40528.72
493.19	40568.51
493.37	41198.11
493.54	40786.18
493.72	41048.32
493.90	41031.93
494.08	41900.27
494.25	42012.62
494.43	42082.83
494.61	42087.51
494.79	42623.50
494.96	42656.26
495.14	42827.12
495.32	43124.37
495.49	43445.02
495.67	43192.25
495.85	43711.84
496.02	44509.97
496.20	44488.90
496.38	44584.86
496.55	44678.49
496.73	45532.78
496.91	45155.96
497.09	45113.83
497.26	45890.88
497.44	45455.54
497.62	45619.38
497.79	46822.42
497.97	46206.86
498.14	46857.52
498.32	46611.77
498.50	46796.67
498.67	47168.82
498.85	47086.90
499.03	47679.05
499.20	47615.86
499.38	47847.57
499.56	47955.24
499.73	48280.57
499.91	48027.79
500.08	48353.13
500.26	48179.93
500.44	48409.30
500.61	48823.58
500.79	49095.08
500.97	49249.55
501.14	49553.82
501.32	49467.22
501.49	49521.05
501.67	49785.54
501.84	49860.43
502.02	49947.03
502.20	50199.81
502.37	50335.56
502.55	50082.78
502.72	50658.56
502.90	50302.79
503.07	50557.91
503.25	50501.74
503.43	50639.83
503.60	51599.45
503.78	51440.29
503.95	51213.26
504.13	51536.26
504.30	51540.94
504.48	51695.41
504.65	51529.23
504.83	52126.07
505.01	52114.37
505.18	51650.94
505.36	52266.50
505.53	52182.24
505.71	52294.59
505.88	52659.71
506.06	52442.04
506.23	52886.74
506.41	52893.77
506.58	52928.87
506.76	52882.06
506.93	53265.91
507.11	52978.03
507.28	53277.61
507.46	53366.55
507.63	53881.47
507.81	53485.92
507.98	53705.93
508.16	53586.57
508.33	53708.27
508.50	54094.46
508.68	54190.42
508.85	54295.75
509.03	54328.52
509.20	54216.17
509.38	54291.07
509.55	54616.40
509.73	54789.60
509.90	54810.67
510.08	54930.03
510.25	54866.84
510.42	54717.04
510.60	54880.88
510.77	55391.12
510.95	55299.84
511.12	55000.25
511.30	55238.98
511.47	55721.13
511.64	55391.12
511.82	55906.04
511.99	55725.81
512.17	55751.56
512.34	55868.59
512.51	56053.49
512.69	56175.20
512.86	56067.53
513.04	56598.83
513.21	56250.09
513.38	56254.78
513.56	56285.20
513.73	56324.99
513.90	56530.96
514.08	56605.86
514.25	56900.76
514.43	56879.70
514.60	56992.04
514.77	56793.10
514.95	57017.79
515.12	56849.27
515.29	57013.11
515.47	57172.27
515.64	57504.62
515.81	57200.35
515.99	57434.41
516.16	57535.05
516.33	57375.89
516.51	57776.12
516.68	57811.23
516.85	57698.89
517.03	57998.48
517.20	57977.41
517.37	58024.22
517.54	57869.75
517.72	57930.60
517.89	57986.77
518.06	57972.73
518.24	58138.91
518.41	58185.72
518.58	58166.99
518.75	58005.50
518.93	58192.74
519.10	58143.59
519.27	58344.87
519.45	58499.35
519.62	58541.48
519.79	58754.47
519.96	58728.72
520.14	58824.68
520.31	58419.77
520.48	58770.85
520.65	58820.00
520.83	59278.75
521.00	59133.63
521.17	59030.65
521.34	59201.51
521.52	59341.94
521.69	59285.77
521.86	59334.92
522.03	59529.19
522.20	59643.87
522.38	59854.52
522.55	59667.28
522.72	59791.33
522.89	59711.75
523.07	59999.63
523.24	59671.96
523.41	60048.78
523.58	60006.65
523.75	60004.31
523.92	60083.89
524.10	59927.08
524.27	60465.40
524.44	60236.03
524.61	60168.15
524.78	60341.35
524.96	60509.87
525.13	60477.10
525.30	60544.98
525.47	60605.83
525.64	60573.06
525.81	60420.93
525.98	60552.00
526.16	60666.69
526.33	60643.28
526.50	60893.72
526.67	60701.79
526.84	60896.06
527.01	60809.46
527.18	60996.70
527.36	61055.21
527.53	60830.52
527.70	61109.05
527.87	61034.15
528.04	61102.03
528.21	61478.85
528.38	61279.91
528.55	61518.64
528.72	61242.46
528.89	61120.75
529.07	61226.07
529.24	61048.19
529.41	61492.89
529.58	61638.01
529.75	61572.47
529.92	61640.35
530.09	61471.83
530.26	61441.40
530.43	61612.26
530.60	61499.92
530.77	61656.73
530.94	61972.70
531.11	61806.53
531.28	61930.58
531.46	62122.50
531.63	61986.75
531.80	61998.45
531.97	62134.20
532.14	62054.62
532.31	62239.53
532.48	62171.65
532.65	62302.72
532.82	62209.10
532.99	62307.40
533.16	62089.73
533.33	62379.96
533.50	62515.71
533.67	62417.41
533.84	62307.40
534.01	62499.33
534.18	62511.03
534.35	62670.18
534.52	62745.08
534.69	62695.93
534.86	62728.70
535.03	62417.41
535.20	62646.78
535.37	62756.78
535.54	63042.33
535.71	62798.91
535.88	62782.53
536.05	63112.55
536.22	62866.79
536.38	62831.68
536.55	62864.45
536.72	62967.43
536.89	63089.14
537.06	63264.68
537.23	63374.69
537.40	63360.64
537.57	63082.12
537.74	63063.39
537.91	63407.45
538.08	63224.89
538.25	63295.11
538.42	63313.83
538.59	63613.42
538.75	63313.83
538.92	63533.84
539.09	63302.13
539.26	63475.33
539.43	63515.12
539.60	63538.52
539.77	63585.33
539.94	63875.56
540.11	63763.21
540.28	63873.22
540.44	63704.70
540.61	63985.57
540.78	63852.15
540.95	63859.18
541.12	63758.53
541.29	63760.87
541.46	64081.53
541.62	64083.87
541.79	64186.85
541.96	63863.86
542.13	63856.84
542.30	64039.40
542.47	64069.82
542.63	64142.38
542.80	64189.19
542.97	64537.93
543.14	64570.70
543.31	64346.01
543.48	64535.59
543.64	64685.39
543.81	64563.68
543.98	64523.89
544.15	64598.79
544.32	64516.87
544.48	64818.80
544.65	64832.84
544.82	64783.69
544.99	64530.91
545.16	64563.68
545.32	64823.48
545.49	64865.61
545.66	65031.78
545.83	65031.78
546.00	65102.00
546.16	65113.70
546.33	64940.50
546.50	64952.21
546.67	65071.57
546.83	64481.76
547.00	64898.37
547.17	64839.86
547.34	65008.38
547.50	65104.34
547.67	65240.09
547.84	65305.63
548.00	65408.61
548.17	65535.00
548.34	65186.26
548.51	65317.33
548.67	65303.29
548.84	65275.20
549.01	65314.99
549.18	65303.29
549.34	65394.57
549.51	65450.74
549.68	65535.00
549.84	65441.38
550.01	65413.29
550.18	65420.31
550.34	65389.89
550.51	65464.78
550.68	65535.00
550.84	65375.84
551.01	65535.00
551.18	65535.00
551.34	65495.21
551.51	65532.66
551.68	65535.00
551.84	65535.00
552.01	65535.00
552.18	65535.00
552.34	65535.00
552.51	65535.00
552.68	65535.00
552.84	65535.00
553.01	65535.00
553.18	65535.00
553.34	65535.00
553.51	65535.00
553.67	65535.00
553.84	65535.00
554.01	65535.00
554.17	65535.00
554.34	65535.00
554.51	65535.00
554.67	65535.00
554.84	65535.00
555.00	65535.00
555.17	65535.00
555.33	65535.00
555.50	65535.00
555.67	65535.00
555.83	65535.00
556.00	65535.00
556.16	65535.00
556.33	65535.00
556.50	65535.00
556.66	65535.00
556.83	65535.00
556.99	65535.00
557.16	65535.00
557.32	65535.00
557.49	65535.00
557.65	65535.00
557.82	65535.00
557.98	65535.00
558.15	65535.00
558.32	65535.00
558.48	65535.00
558.65	65535.00
558.81	65535.00
558.98	65535.00
559.14	65535.00
559.31	65535.00
559.47	65535.00
559.64	65535.00
559.80	65535.00
559.97	65535.00
560.13	65535.00
560.30	65535.00
560.46	65535.00
560.63	65535.00
560.79	65535.00
560.96	65535.00
561.12	65535.00
561.29	65535.00
561.45	65535.00
561.61	65535.00
561.78	65535.00
561.94	65535.00
562.11	65535.00
562.27	65535.00
562.44	65535.00
562.60	65535.00
562.77	65535.00
562.93	65535.00
563.10	65535.00
563.26	65535.00
563.42	65535.00
563.59	65535.00
563.75	65535.00
563.92	65535.00
564.08	65535.00
564.24	65535.00
564.41	65535.00
564.57	65535.00
564.74	65535.00
564.90	65535.00
565.07	65535.00
565.23	65535.00
565.39	65535.00
565.56	65535.00
565.72	65535.00
565.88	65535.00
566.05	65535.00
566.21	65535.00
566.38	65535.00
566.54	65535.00
566.70	65535.00
566.87	65535.00
567.03	65535.00
567.19	65535.00
567.36	65535.00
567.52	65535.00
567.68	65535.00
567.85	65535.00
568.01	65535.00
568.17	65535.00
568.34	65535.00
568.50	65535.00
568.66	65535.00
568.83	65535.00
568.99	65535.00
569.15	65535.00
569.32	65535.00
569.48	65535.00
569.64	65535.00
569.81	65535.00
569.97	65535.00
570.13	65535.00
570.30	65535.00
570.46	65535.00
570.62	65535.00
570.78	65535.00
570.95	65535.00
571.11	65535.00
571.27	65535.00
571.43	65535.00
571.60	65535.00
571.76	65535.00
571.92	65535.00
572.09	65535.00
572.25	65535.00
572.41	65535.00
572.57	65535.00
572.74	65535.00
572.90	65535.00
573.06	65535.00
573.22	65535.00
573.38	65535.00
573.55	65535.00
573.71	65535.00
573.87	65535.00
574.03	65535.00
574.20	65535.00
574.36	65535.00
574.52	65535.00
574.68	65535.00
574.84	65535.00
575.01	65535.00
575.17	65535.00
575.33	65535.00
575.49	65535.00
575.65	65535.00
575.82	65535.00
575.98	65535.00
576.14	65535.00
576.30	65535.00
576.46	65535.00
576.62	65535.00
576.79	65535.00
576.95	65535.00
577.11	65535.00
577.27	65535.00
577.43	65535.00
577.59	65535.00
577.75	65535.00
577.92	65535.00
578.08	65535.00
578.24	65535.00
578.40	65535.00
578.56	65535.00
578.72	65535.00
578.88	65535.00
579.04	65535.00
579.21	65535.00
579.37	65535.00
579.53	65535.00
579.69	65535.00
579.85	65535.00
580.01	65535.00
580.17	65535.00
580.33	65535.00
580.49	65535.00
580.65	65535.00
580.82	65535.00
580.98	65535.00
581.14	65535.00
581.30	65535.00
581.46	65535.00
581.62	65535.00
581.78	65535.00
581.94	65535.00
582.10	65535.00
582.26	65535.00
582.42	65535.00
582.58	65535.00
582.74	65535.00
582.90	65535.00
583.06	65535.00
583.22	65535.00
583.38	65535.00
583.54	65535.00
583.70	65535.00
583.86	65535.00
584.02	65535.00
584.18	65535.00
584.34	65535.00
584.50	65535.00
584.66	65535.00
584.82	65535.00
584.98	65535.00
585.14	65535.00
585.30	65535.00
585.46	65535.00
585.62	65535.00
585.78	65535.00
585.94	65535.00
586.10	65535.00
586.26	65535.00
586.42	65535.00
586.58	65535.00
586.74	65535.00
586.90	65535.00
587.06	65535.00
