SpectraSuite Data File
++++++++++++++++++++++++++++++++++++
Date: Thu Oct 24 13:21:02 EDT 2013
User: stostad
Dark Spectrum Present: No
Reference Spectrum Present: No
Number of Sampled Component Spectra: 1
Spectrometers: USB2+H05261
Integration Time (usec): 100000 (USB2+H05261)
Spectra Averaged: 1 (USB2+H05261)
Boxcar Smoothing: 0 (USB2+H05261)
Correct for Electrical Dark: No (USB2+H05261)
Strobe/Lamp Enabled: No (USB2+H05261)
Correct for Detector Non-linearity: No (USB2+H05261)
Correct for Stray Light: No (USB2+H05261)
Number of Pixels in Processed Spectrum: 2048
>>>>>Begin Processed Spectral Data<<<<<
365.73	608.54
365.92	608.54
366.12	608.54
366.32	433.00
366.52	486.83
366.72	463.43
366.91	498.53
367.11	486.83
367.31	475.13
367.51	430.66
367.70	486.83
367.90	404.91
368.10	454.06
368.30	421.30
368.49	433.00
368.69	461.09
368.89	444.70
369.09	451.72
369.28	496.19
369.48	521.94
369.68	524.28
369.87	545.34
370.07	582.79
370.27	535.98
370.47	514.92
370.66	547.69
370.86	545.34
371.06	540.66
371.25	615.56
371.45	596.84
371.65	540.66
371.84	568.75
372.04	575.77
372.24	571.09
372.44	580.45
372.63	638.97
372.83	603.86
373.03	638.97
373.22	603.86
373.42	613.22
373.62	566.41
373.81	645.99
374.01	627.26
374.21	617.90
374.40	657.69
374.60	690.46
374.79	603.86
374.99	636.63
375.19	601.52
375.38	603.86
375.58	648.33
375.78	664.71
375.97	535.98
376.17	662.37
376.37	645.99
376.56	624.92
376.76	617.90
376.95	631.94
377.15	620.24
377.35	650.67
377.54	631.94
377.74	585.13
377.93	606.20
378.13	613.22
378.33	582.79
378.52	688.12
378.72	645.99
378.91	676.41
379.11	603.86
379.31	603.86
379.50	599.18
379.70	671.73
379.89	552.37
380.09	554.71
380.28	622.58
380.48	592.16
380.68	543.00
380.87	622.58
381.07	634.29
381.26	596.84
381.46	606.20
381.65	667.05
381.85	585.13
382.04	690.46
382.24	610.88
382.43	627.26
382.63	603.86
382.83	608.54
383.02	655.35
383.22	627.26
383.41	617.90
383.61	685.78
383.80	629.60
384.00	624.92
384.19	676.41
384.39	587.47
384.58	634.29
384.78	695.14
384.97	653.01
385.17	624.92
385.36	617.90
385.56	547.69
385.75	657.69
385.95	690.46
386.14	660.03
386.34	589.82
386.53	713.86
386.72	608.54
386.92	580.45
387.11	629.60
387.31	648.33
387.50	599.18
387.70	697.48
387.89	622.58
388.09	559.39
388.28	568.75
388.48	667.05
388.67	667.05
388.86	636.63
389.06	617.90
389.25	580.45
389.45	627.26
389.64	603.86
389.84	643.65
390.03	730.25
390.22	526.62
390.42	568.75
390.61	613.22
390.81	620.24
391.00	629.60
391.19	615.56
391.39	601.52
391.58	667.05
391.78	638.97
391.97	573.43
392.16	617.90
392.36	578.11
392.55	641.31
392.75	688.12
392.94	657.69
393.13	592.16
393.33	648.33
393.52	615.56
393.71	608.54
393.91	617.90
394.10	613.22
394.29	594.50
394.49	617.90
394.68	624.92
394.88	638.97
395.07	589.82
395.26	650.67
395.46	596.84
395.65	636.63
395.84	613.22
396.04	690.46
396.23	615.56
396.42	613.22
396.62	592.16
396.81	631.94
397.00	608.54
397.19	688.12
397.39	685.78
397.58	643.65
397.77	655.35
397.97	685.78
398.16	622.58
398.35	573.43
398.55	627.26
398.74	519.60
398.93	657.69
399.12	683.44
399.32	648.33
399.51	617.90
399.70	594.50
399.90	671.73
400.09	657.69
400.28	650.67
400.47	580.45
400.67	634.29
400.86	664.71
401.05	671.73
401.24	669.39
401.44	613.22
401.63	650.67
401.82	690.46
402.01	571.09
402.21	578.11
402.40	636.63
402.59	657.69
402.78	655.35
402.97	547.69
403.17	676.41
403.36	690.46
403.55	636.63
403.74	674.07
403.93	695.14
404.13	669.39
404.32	671.73
404.51	650.67
404.70	662.37
404.89	653.01
405.09	634.29
405.28	552.37
405.47	535.98
405.66	603.86
405.85	617.90
406.05	603.86
406.24	667.05
406.43	645.99
406.62	631.94
406.81	648.33
407.00	617.90
407.20	657.69
407.39	627.26
407.58	587.47
407.77	645.99
407.96	674.07
408.15	697.48
408.34	606.20
408.54	671.73
408.73	608.54
408.92	592.16
409.11	702.16
409.30	624.92
409.49	662.37
409.68	643.65
409.87	643.65
410.07	564.07
410.26	634.29
410.45	641.31
410.64	683.44
410.83	564.07
411.02	660.03
411.21	559.39
411.40	688.12
411.59	610.88
411.78	662.37
411.98	561.73
412.17	636.63
412.36	667.05
412.55	571.09
412.74	695.14
412.93	688.12
413.12	638.97
413.31	631.94
413.50	589.82
413.69	662.37
413.88	667.05
414.07	627.26
414.26	622.58
414.45	566.41
414.64	617.90
414.83	655.35
415.02	667.05
415.22	660.03
415.41	610.88
415.60	638.97
415.79	585.13
415.98	662.37
416.17	678.76
416.36	645.99
416.55	568.75
416.74	657.69
416.93	631.94
417.12	634.29
417.31	697.48
417.50	650.67
417.69	638.97
417.88	655.35
418.07	585.13
418.26	589.82
418.45	564.07
418.64	683.44
418.83	660.03
419.02	608.54
419.21	631.94
419.39	664.71
419.58	587.47
419.77	645.99
419.96	603.86
420.15	631.94
420.34	613.22
420.53	674.07
420.72	606.20
420.91	629.60
421.10	688.12
421.29	692.80
421.48	681.10
421.67	634.29
421.86	589.82
422.05	629.60
422.24	606.20
422.43	643.65
422.61	603.86
422.80	645.99
422.99	610.88
423.18	599.18
423.37	709.18
423.56	608.54
423.75	627.26
423.94	695.14
424.13	629.60
424.32	592.16
424.50	617.90
424.69	711.52
424.88	617.90
425.07	622.58
425.26	596.84
425.45	603.86
425.64	645.99
425.83	669.39
426.01	631.94
426.20	615.56
426.39	606.20
426.58	664.71
426.77	573.43
426.96	585.13
427.15	636.63
427.33	695.14
427.52	596.84
427.71	641.31
427.90	645.99
428.09	676.41
428.28	648.33
428.46	613.22
428.65	629.60
428.84	653.01
429.03	634.29
429.22	655.35
429.40	645.99
429.59	702.16
429.78	638.97
429.97	641.31
430.16	664.71
430.34	596.84
430.53	547.69
430.72	648.33
430.91	645.99
431.10	603.86
431.28	648.33
431.47	676.41
431.66	653.01
431.85	660.03
432.03	667.05
432.22	592.16
432.41	624.92
432.60	709.18
432.79	704.50
432.97	655.35
433.16	662.37
433.35	692.80
433.54	641.31
433.72	594.50
433.91	585.13
434.10	606.20
434.28	653.01
434.47	662.37
434.66	695.14
434.85	683.44
435.03	856.64
435.22	978.34
435.41	1116.44
435.59	1011.11
435.78	912.81
435.97	844.93
436.16	784.08
436.34	690.46
436.53	620.24
436.72	667.05
436.90	634.29
437.09	709.18
437.28	706.84
437.46	566.41
437.65	660.03
437.84	636.63
438.02	519.60
438.21	676.41
438.40	585.13
438.58	582.79
438.77	631.94
438.96	660.03
439.14	587.47
439.33	629.60
439.52	627.26
439.70	669.39
439.89	643.65
440.08	641.31
440.26	573.43
440.45	631.94
440.63	617.90
440.82	610.88
441.01	650.67
441.19	582.79
441.38	669.39
441.57	596.84
441.75	650.67
441.94	711.52
442.12	671.73
442.31	648.33
442.50	636.63
442.68	594.50
442.87	589.82
443.05	657.69
443.24	613.22
443.43	704.50
443.61	617.90
443.80	627.26
443.98	608.54
444.17	667.05
444.35	664.71
444.54	580.45
444.73	634.29
444.91	713.86
445.10	587.47
445.28	561.73
445.47	631.94
445.65	601.52
445.84	575.77
446.02	643.65
446.21	688.12
446.39	631.94
446.58	627.26
446.77	528.96
446.95	676.41
447.14	664.71
447.32	674.07
447.51	678.76
447.69	631.94
447.88	720.88
448.06	674.07
448.25	643.65
448.43	697.48
448.62	699.82
448.80	622.58
448.99	650.67
449.17	667.05
449.36	617.90
449.54	655.35
449.73	608.54
449.91	664.71
450.10	664.71
450.28	706.84
450.46	615.56
450.65	585.13
450.83	636.63
451.02	554.71
451.20	657.69
451.39	575.77
451.57	667.05
451.76	645.99
451.94	683.44
452.13	655.35
452.31	660.03
452.49	662.37
452.68	582.79
452.86	634.29
453.05	660.03
453.23	627.26
453.42	610.88
453.60	657.69
453.78	610.88
453.97	660.03
454.15	634.29
454.34	610.88
454.52	655.35
454.70	650.67
454.89	683.44
455.07	667.05
455.26	676.41
455.44	638.97
455.62	587.47
455.81	638.97
455.99	695.14
456.17	650.67
456.36	624.92
456.54	650.67
456.73	643.65
456.91	638.97
457.09	667.05
457.28	622.58
457.46	690.46
457.64	547.69
457.83	723.23
458.01	599.18
458.19	657.69
458.38	615.56
458.56	603.86
458.74	678.76
458.93	624.92
459.11	631.94
459.29	690.46
459.48	638.97
459.66	695.14
459.84	610.88
460.03	610.88
460.21	702.16
460.39	643.65
460.57	657.69
460.76	657.69
460.94	653.01
461.12	615.56
461.31	664.71
461.49	681.10
461.67	517.26
461.85	627.26
462.04	641.31
462.22	978.34
462.40	676.41
462.59	613.22
462.77	641.31
462.95	655.35
463.13	671.73
463.32	615.56
463.50	582.79
463.68	622.58
463.86	690.46
464.05	622.58
464.23	615.56
464.41	638.97
464.59	683.44
464.78	655.35
464.96	655.35
465.14	650.67
465.32	669.39
465.50	608.54
465.69	631.94
465.87	615.56
466.05	631.94
466.23	596.84
466.41	594.50
466.60	690.46
466.78	599.18
466.96	648.33
467.14	650.67
467.32	685.78
467.51	653.01
467.69	643.65
467.87	669.39
468.05	669.39
468.23	683.44
468.41	713.86
468.60	622.58
468.78	636.63
468.96	620.24
469.14	627.26
469.32	664.71
469.50	631.94
469.69	695.14
469.87	627.26
470.05	603.86
470.23	573.43
470.41	667.05
470.59	613.22
470.77	671.73
470.95	648.33
471.14	692.80
471.32	573.43
471.50	704.50
471.68	655.35
471.86	685.78
472.04	613.22
472.22	702.16
472.40	671.73
472.58	676.41
472.77	634.29
472.95	660.03
473.13	667.05
473.31	681.10
473.49	601.52
473.67	671.73
473.85	676.41
474.03	631.94
474.21	669.39
474.39	671.73
474.57	599.18
474.75	653.01
474.93	634.29
475.12	622.58
475.30	613.22
475.48	653.01
475.66	685.78
475.84	603.86
476.02	603.86
476.20	606.20
476.38	610.88
476.56	603.86
476.74	617.90
476.92	613.22
477.10	699.82
477.28	587.47
477.46	596.84
477.64	655.35
477.82	709.18
478.00	599.18
478.18	690.46
478.36	641.31
478.54	688.12
478.72	645.99
478.90	681.10
479.08	631.94
479.26	615.56
479.44	622.58
479.62	641.31
479.80	631.94
479.98	603.86
480.16	624.92
480.34	622.58
480.52	718.54
480.70	601.52
480.88	655.35
481.06	631.94
481.24	716.20
481.41	685.78
481.59	653.01
481.77	748.97
481.95	596.84
482.13	713.86
482.31	723.23
482.49	676.41
482.67	645.99
482.85	645.99
483.03	688.12
483.21	734.93
483.39	685.78
483.57	627.26
483.74	732.59
483.92	657.69
484.10	702.16
484.28	695.14
484.46	744.29
484.64	690.46
484.82	753.65
485.00	578.11
485.18	734.93
485.35	699.82
485.53	692.80
485.71	718.54
485.89	655.35
486.07	695.14
486.25	765.36
486.43	781.74
486.61	711.52
486.78	744.29
486.96	638.97
487.14	681.10
487.32	713.86
487.50	669.39
487.68	739.61
487.85	760.67
488.03	772.38
488.21	695.14
488.39	734.93
488.57	692.80
488.75	702.16
488.92	692.80
489.10	716.20
489.28	685.78
489.46	716.20
489.64	706.84
489.81	683.44
489.99	725.57
490.17	650.67
490.35	678.76
490.53	730.25
490.70	744.29
490.88	748.97
491.06	641.31
491.24	692.80
491.41	688.12
491.59	695.14
491.77	685.78
491.95	685.78
492.13	751.31
492.30	713.86
492.48	676.41
492.66	716.20
492.84	692.80
493.01	734.93
493.19	669.39
493.37	777.06
493.54	669.39
493.72	751.31
493.90	690.46
494.08	727.91
494.25	660.03
494.43	674.07
494.61	702.16
494.79	634.29
494.96	711.52
495.14	702.16
495.32	681.10
495.49	730.25
495.67	641.31
495.85	648.33
496.02	645.99
496.20	657.69
496.38	699.82
496.55	697.48
496.73	636.63
496.91	627.26
497.09	669.39
497.26	688.12
497.44	582.79
497.62	608.54
497.79	706.84
497.97	690.46
498.14	716.20
498.32	741.95
498.50	730.25
498.67	648.33
498.85	613.22
499.03	587.47
499.20	702.16
499.38	669.39
499.56	660.03
499.73	662.37
499.91	676.41
500.08	667.05
500.26	730.25
500.44	723.23
500.61	718.54
500.79	697.48
500.97	589.82
501.14	725.57
501.32	643.65
501.49	711.52
501.67	723.23
501.84	720.88
502.02	664.71
502.20	688.12
502.37	695.14
502.55	657.69
502.72	620.24
502.90	634.29
503.07	655.35
503.25	671.73
503.43	674.07
503.60	667.05
503.78	704.50
503.95	671.73
504.13	716.20
504.30	627.26
504.48	678.76
504.65	678.76
504.83	720.88
505.01	629.60
505.18	617.90
505.36	638.97
505.53	592.16
505.71	613.22
505.88	606.20
506.06	641.31
506.23	566.41
506.41	617.90
506.58	613.22
506.76	622.58
506.93	613.22
507.11	587.47
507.28	603.86
507.46	655.35
507.63	716.20
507.81	645.99
507.98	627.26
508.16	664.71
508.33	660.03
508.50	638.97
508.68	648.33
508.85	627.26
509.03	697.48
509.20	620.24
509.38	615.56
509.55	664.71
509.73	685.78
509.90	695.14
510.08	608.54
510.25	603.86
510.42	587.47
510.60	685.78
510.77	613.22
510.95	610.88
511.12	627.26
511.30	653.01
511.47	671.73
511.64	671.73
511.82	664.71
511.99	622.58
512.17	631.94
512.34	699.82
512.51	706.84
512.69	620.24
512.86	671.73
513.04	629.60
513.21	589.82
513.38	613.22
513.56	622.58
513.73	585.13
513.90	634.29
514.08	634.29
514.25	622.58
514.43	634.29
514.60	648.33
514.77	638.97
514.95	683.44
515.12	706.84
515.29	674.07
515.47	664.71
515.64	681.10
515.81	695.14
515.99	631.94
516.16	634.29
516.33	676.41
516.51	610.88
516.68	662.37
516.85	681.10
517.03	638.97
517.20	664.71
517.37	610.88
517.54	655.35
517.72	568.75
517.89	676.41
518.06	657.69
518.24	678.76
518.41	636.63
518.58	655.35
518.75	692.80
518.93	660.03
519.10	603.86
519.27	669.39
519.45	636.63
519.62	683.44
519.79	580.45
519.96	650.67
520.14	634.29
520.31	727.91
520.48	653.01
520.65	702.16
520.83	681.10
521.00	692.80
521.17	613.22
521.34	676.41
521.52	617.90
521.69	678.76
521.86	645.99
522.03	697.48
522.20	667.05
522.38	634.29
522.55	683.44
522.72	676.41
522.89	620.24
523.07	676.41
523.24	692.80
523.41	638.97
523.58	667.05
523.75	655.35
523.92	671.73
524.10	664.71
524.27	660.03
524.44	709.18
524.61	660.03
524.78	650.67
524.96	669.39
525.13	617.90
525.30	638.97
525.47	727.91
525.64	645.99
525.81	650.67
525.98	660.03
526.16	550.03
526.33	662.37
526.50	657.69
526.67	678.76
526.84	641.31
527.01	660.03
527.18	624.92
527.36	655.35
527.53	615.56
527.70	690.46
527.87	678.76
528.04	702.16
528.21	613.22
528.38	660.03
528.55	688.12
528.72	653.01
528.89	737.27
529.07	638.97
529.24	706.84
529.41	760.67
529.58	678.76
529.75	741.95
529.92	669.39
530.09	587.47
530.26	645.99
530.43	592.16
530.60	676.41
530.77	704.50
530.94	699.82
531.11	704.50
531.28	641.31
531.46	692.80
531.63	610.88
531.80	627.26
531.97	606.20
532.14	702.16
532.31	617.90
532.48	634.29
532.65	638.97
532.82	704.50
532.99	706.84
533.16	594.50
533.33	723.23
533.50	667.05
533.67	674.07
533.84	636.63
534.01	662.37
534.18	655.35
534.35	692.80
534.52	706.84
534.69	671.73
534.86	723.23
535.03	692.80
535.20	706.84
535.37	695.14
535.54	648.33
535.71	692.80
535.88	758.33
536.05	695.14
536.22	664.71
536.38	650.67
536.55	734.93
536.72	709.18
536.89	650.67
537.06	758.33
537.23	730.25
537.40	802.80
537.57	763.01
537.74	777.06
537.91	678.76
538.08	718.54
538.25	713.86
538.42	671.73
538.59	748.97
538.75	837.91
538.92	777.06
539.09	765.36
539.26	781.74
539.43	805.14
539.60	828.55
539.77	940.90
539.94	894.08
540.11	875.36
540.28	849.61
540.44	966.64
540.61	976.00
540.78	896.43
540.95	1116.44
541.12	1135.16
541.29	1193.67
541.46	1212.40
541.62	1217.08
541.79	1259.21
541.96	1275.59
542.13	1294.32
542.30	1249.85
542.47	1219.42
542.63	1210.06
542.80	1167.93
542.97	1207.72
543.14	1139.84
543.31	1315.38
543.48	1210.06
543.64	1219.42
543.81	1135.16
543.98	1184.31
544.15	1139.84
544.32	1219.42
544.48	1240.48
544.65	1179.63
544.82	1181.97
544.99	1123.46
545.16	1137.50
545.32	1228.78
545.49	1516.67
545.66	2087.76
545.83	2132.23
546.00	1898.17
546.16	1593.90
546.33	1465.18
546.50	1275.59
546.67	1308.36
546.83	1020.47
547.00	1004.09
547.17	1067.28
547.34	945.58
547.50	901.11
547.67	957.28
547.84	908.13
548.00	910.47
548.17	919.83
548.34	870.68
548.51	947.92
548.67	940.90
548.84	924.51
549.01	910.47
549.18	987.71
549.34	917.49
549.51	854.30
549.68	851.96
549.84	739.61
550.01	784.08
550.18	926.85
550.34	821.53
550.51	814.51
550.68	854.30
550.84	821.53
551.01	763.01
551.18	812.17
551.34	791.10
551.51	828.55
551.68	809.83
551.84	816.85
552.01	737.27
552.18	732.59
552.34	763.01
552.51	674.07
552.68	741.95
552.84	753.65
553.01	807.48
553.18	732.59
553.34	732.59
553.51	779.40
553.67	723.23
553.84	704.50
554.01	727.91
554.17	751.31
554.34	643.65
554.51	664.71
554.67	685.78
554.84	676.41
555.00	624.92
555.17	711.52
555.33	653.01
555.50	683.44
555.67	697.48
555.83	678.76
556.00	685.78
556.16	812.17
556.33	723.23
556.50	674.07
556.66	676.41
556.83	620.24
556.99	592.16
557.16	660.03
557.32	695.14
557.49	648.33
557.65	667.05
557.82	674.07
557.98	683.44
558.15	629.60
558.32	660.03
558.48	643.65
558.65	627.26
558.81	678.76
558.98	653.01
559.14	650.67
559.31	660.03
559.47	667.05
559.64	716.20
559.80	664.71
559.97	638.97
560.13	683.44
560.30	657.69
560.46	648.33
560.63	748.97
560.79	692.80
560.96	697.48
561.12	683.44
561.29	678.76
561.45	585.13
561.61	601.52
561.78	676.41
561.94	695.14
562.11	657.69
562.27	620.24
562.44	624.92
562.60	662.37
562.77	711.52
562.93	704.50
563.10	627.26
563.26	699.82
563.42	667.05
563.59	648.33
563.75	645.99
563.92	650.67
564.08	629.60
564.24	657.69
564.41	748.97
564.57	664.71
564.74	725.57
564.90	676.41
565.07	716.20
565.23	648.33
565.39	634.29
565.56	648.33
565.72	571.09
565.88	674.07
566.05	664.71
566.21	566.41
566.38	641.31
566.54	627.26
566.70	582.79
566.87	631.94
567.03	690.46
567.19	667.05
567.36	791.10
567.52	716.20
567.68	690.46
567.85	636.63
568.01	683.44
568.17	657.69
568.34	767.70
568.50	737.27
568.66	582.79
568.83	713.86
568.99	699.82
569.15	685.78
569.32	627.26
569.48	645.99
569.64	643.65
569.81	704.50
569.97	695.14
570.13	638.97
570.30	573.43
570.46	648.33
570.62	688.12
570.78	643.65
570.95	610.88
571.11	725.57
571.27	685.78
571.43	648.33
571.60	643.65
571.76	685.78
571.92	667.05
572.09	622.58
572.25	648.33
572.41	571.09
572.57	631.94
572.74	648.33
572.90	786.42
573.06	678.76
573.22	606.20
573.38	697.48
573.55	636.63
573.71	653.01
573.87	629.60
574.03	697.48
574.20	578.11
574.36	688.12
574.52	564.07
574.68	681.10
574.84	603.86
575.01	690.46
575.17	720.88
575.33	678.76
575.49	718.54
575.65	610.88
575.82	678.76
575.98	706.84
576.14	655.35
576.30	669.39
576.46	795.78
576.62	821.53
576.79	866.00
576.95	837.91
577.11	699.82
577.27	695.14
577.43	730.25
577.59	713.86
577.75	695.14
577.92	650.67
578.08	716.20
578.24	671.73
578.40	755.99
578.56	844.93
578.72	826.21
578.88	873.02
579.04	844.93
579.21	751.31
579.37	861.32
579.53	730.25
579.69	866.00
579.85	760.67
580.01	800.46
580.17	755.99
580.33	748.97
580.49	683.44
580.65	770.04
580.82	732.59
580.98	727.91
581.14	702.16
581.30	737.27
581.46	781.74
581.62	697.48
581.78	748.97
581.94	737.27
582.10	723.23
582.26	758.33
582.42	746.63
582.58	777.06
582.74	676.41
582.90	767.70
583.06	744.29
583.22	774.72
583.38	798.12
583.54	793.44
583.70	758.33
583.86	692.80
584.02	774.72
584.18	758.33
584.34	772.38
584.50	812.17
584.66	767.70
584.82	814.51
584.98	774.72
585.14	753.65
585.30	746.63
585.46	737.27
585.62	774.72
585.78	685.78
585.94	784.08
586.10	763.01
586.26	812.17
586.42	777.06
586.58	854.30
586.74	779.40
586.90	819.19
587.06	858.98
587.22	915.15
587.38	877.70
587.54	870.68
587.70	887.06
587.86	791.10
588.02	737.27
588.18	823.87
588.34	786.42
588.49	704.50
588.65	702.16
588.81	739.61
588.97	685.78
589.13	648.33
589.29	777.06
589.45	777.06
589.61	692.80
589.77	767.70
589.93	730.25
590.08	697.48
590.24	685.78
590.40	727.91
590.56	760.67
590.72	763.01
590.88	704.50
591.04	720.88
591.20	765.36
591.35	723.23
591.51	734.93
591.67	751.31
591.83	727.91
591.99	751.31
592.15	781.74
592.31	763.01
592.46	777.06
592.62	727.91
592.78	744.29
592.94	826.21
593.10	774.72
593.26	781.74
593.41	781.74
593.57	788.76
593.73	807.48
593.89	730.25
594.05	784.08
594.20	786.42
594.36	779.40
594.52	657.69
594.68	744.29
594.84	713.86
594.99	718.54
595.15	685.78
595.31	699.82
595.47	758.33
595.62	688.12
595.78	629.60
595.94	704.50
596.10	674.07
596.25	678.76
596.41	746.63
596.57	720.88
596.73	685.78
596.88	671.73
597.04	732.59
597.20	716.20
597.36	720.88
597.51	669.39
597.67	662.37
597.83	685.78
597.99	732.59
598.14	730.25
598.30	709.18
598.46	678.76
598.61	739.61
598.77	753.65
598.93	739.61
599.09	702.16
599.24	695.14
599.40	767.70
599.56	713.86
599.71	683.44
599.87	744.29
600.03	774.72
600.18	643.65
600.34	744.29
600.50	650.67
600.65	706.84
600.81	737.27
600.97	725.57
601.12	669.39
601.28	653.01
601.44	657.69
601.59	664.71
601.75	734.93
601.91	788.76
602.06	702.16
602.22	753.65
602.37	678.76
602.53	709.18
602.69	688.12
602.84	634.29
603.00	702.16
603.16	685.78
603.31	716.20
603.47	723.23
603.62	636.63
603.78	746.63
603.94	709.18
604.09	697.48
604.25	718.54
604.40	650.67
604.56	674.07
604.71	723.23
604.87	685.78
605.03	730.25
605.18	657.69
605.34	610.88
605.49	678.76
605.65	660.03
605.80	676.41
605.96	781.74
606.12	737.27
606.27	730.25
606.43	704.50
606.58	751.31
606.74	737.27
606.89	636.63
607.05	681.10
607.20	709.18
607.36	760.67
607.51	704.50
607.67	744.29
607.82	741.95
607.98	713.86
608.13	706.84
608.29	758.33
608.44	760.67
608.60	748.97
608.75	880.04
608.91	793.44
609.06	828.55
609.22	821.53
609.37	823.87
609.53	856.64
609.68	896.43
609.84	987.71
