SpectraSuite Data File
++++++++++++++++++++++++++++++++++++
Date: Thu Oct 24 13:21:31 EDT 2013
User: stostad
Dark Spectrum Present: No
Reference Spectrum Present: No
Number of Sampled Component Spectra: 1
Spectrometers: USB2+H05261
Integration Time (usec): 100000 (USB2+H05261)
Spectra Averaged: 1 (USB2+H05261)
Boxcar Smoothing: 0 (USB2+H05261)
Correct for Electrical Dark: No (USB2+H05261)
Strobe/Lamp Enabled: No (USB2+H05261)
Correct for Detector Non-linearity: No (USB2+H05261)
Correct for Stray Light: No (USB2+H05261)
Number of Pixels in Processed Spectrum: 2048
>>>>>Begin Processed Spectral Data<<<<<
365.73	610.88
365.92	610.88
366.12	610.88
366.32	463.43
366.52	477.47
366.72	461.09
366.91	425.98
367.11	447.04
367.31	414.27
367.51	491.51
367.70	456.40
367.90	451.72
368.10	561.73
368.30	447.04
368.49	575.77
368.69	526.62
368.89	458.74
369.09	470.45
369.28	449.38
369.48	505.56
369.68	493.85
369.87	543.00
370.07	493.85
370.27	550.03
370.47	671.73
370.66	1067.28
370.86	1097.71
371.06	1177.29
371.25	1137.50
371.45	1231.12
371.65	1217.08
371.84	1139.84
372.04	1207.72
372.24	1240.48
372.44	1284.95
372.63	1188.99
372.83	1210.06
373.03	1289.64
373.22	1303.68
373.42	1306.02
373.62	1198.35
373.81	1306.02
374.01	1357.51
374.21	1366.87
374.40	1252.19
374.60	1359.85
374.79	1345.81
374.99	1270.91
375.19	1341.13
375.38	1411.34
375.58	1378.58
375.78	1390.28
375.97	1432.41
376.17	1441.77
376.37	1409.00
376.56	1362.19
376.76	1385.60
376.95	1430.07
377.15	1500.28
377.35	1488.58
377.54	1458.15
377.74	1453.47
377.93	1451.13
378.13	1526.03
378.33	1563.48
378.52	1544.75
378.72	1528.37
378.91	1605.61
379.11	1502.62
379.31	1495.60
379.50	1577.52
379.70	1528.37
379.89	1600.93
380.09	1654.76
380.28	1528.37
380.48	1497.94
380.68	1526.03
380.87	1694.55
381.07	1633.69
381.26	1617.31
381.46	1579.86
381.65	1617.31
381.85	1643.06
382.04	1654.76
382.24	1696.89
382.43	1755.40
382.63	1631.35
382.83	1701.57
383.02	1732.00
383.22	1781.15
383.41	1685.19
383.61	1713.27
383.80	1799.87
384.00	1732.00
384.19	1818.60
384.39	1809.23
384.58	1844.34
384.78	1757.74
384.97	1825.62
385.17	1790.51
385.36	1860.73
385.56	1839.66
385.75	1785.83
385.95	1867.75
386.14	1799.87
386.34	1849.02
386.53	1846.68
386.72	1839.66
386.92	1933.28
387.11	1895.83
387.31	1933.28
387.50	1956.69
387.70	1977.75
387.89	1954.35
388.09	1989.46
388.28	2019.88
388.48	2026.90
388.67	2113.50
388.86	1980.09
389.06	2015.20
389.25	2108.82
389.45	2036.27
389.64	1996.48
389.84	2165.00
390.03	2099.46
390.22	2232.87
390.42	2127.55
390.61	2174.36
390.81	2127.55
391.00	2146.27
391.19	2209.47
391.39	2256.28
391.58	2218.83
391.78	2326.49
391.97	2134.57
392.16	2228.19
392.36	2317.13
392.55	2347.56
392.75	2289.04
392.94	2356.92
393.13	2211.81
393.33	2331.17
393.52	2368.62
393.71	2340.54
393.91	2291.38
394.10	2293.72
394.29	2424.80
394.49	2462.24
394.68	2544.16
394.88	2392.03
395.07	2462.24
395.26	2452.88
395.46	2424.80
395.65	2630.76
395.84	2588.63
396.04	2558.21
396.23	2626.08
396.42	2614.38
396.62	2581.61
396.81	2677.57
397.00	2630.76
397.19	2801.62
397.39	2766.51
397.58	2789.92
397.77	2747.79
397.97	2771.19
398.16	2766.51
398.35	2731.41
398.55	2724.38
398.74	2745.45
398.93	2789.92
399.12	2782.90
399.32	2785.24
399.51	2874.18
399.70	2897.58
399.90	2850.77
400.09	2935.03
400.28	2977.16
400.47	2963.12
400.67	3089.51
400.86	3030.99
401.05	3019.29
401.24	3066.10
401.44	3138.66
401.63	3009.93
401.82	3138.66
402.01	3101.21
402.21	3199.51
402.40	3215.90
402.59	3206.53
402.78	3164.40
402.97	3279.09
403.17	3248.66
403.36	3342.28
403.55	3351.65
403.74	3393.78
403.93	3337.60
404.13	3361.01
404.32	3494.42
404.51	3445.27
404.70	3538.89
404.89	3337.60
405.09	3494.42
405.28	3550.59
405.47	3524.85
405.66	3571.66
405.85	3602.08
406.05	3529.53
406.24	3618.47
406.43	3812.73
406.62	3796.35
406.81	3679.32
407.00	3620.81
407.20	3796.35
407.39	3728.47
407.58	3847.84
407.77	3911.04
407.96	3794.01
408.15	3866.56
408.34	3826.78
408.54	3875.93
408.73	4091.26
408.92	3927.42
409.11	4175.52
409.30	4007.00
409.49	4049.13
409.68	4086.58
409.87	4102.96
410.07	4290.20
410.26	4329.99
410.45	4053.81
410.64	4173.18
410.83	4308.93
411.02	4322.97
411.21	4346.37
411.40	4479.79
411.59	4421.27
411.78	4538.30
411.98	4449.36
412.17	4535.96
412.36	4491.49
412.55	4636.60
412.74	4704.48
412.93	4643.62
413.12	4690.43
413.31	4912.78
413.50	4741.93
413.69	4774.69
413.88	5043.85
414.07	4919.81
414.26	5095.35
414.45	4938.53
414.64	5071.94
414.83	5050.88
415.02	5252.16
415.22	5184.29
415.41	5324.72
415.60	5266.21
415.79	5280.25
415.98	5366.85
416.17	5331.74
416.36	5392.59
416.55	5455.79
416.74	5533.03
416.93	5359.83
417.12	5544.73
417.31	5734.31
417.50	5769.42
417.69	5839.64
417.88	5741.33
418.07	5729.63
418.26	5820.91
418.45	5849.00
418.64	5893.47
418.83	6001.13
419.02	5947.30
419.21	6083.05
419.39	6099.44
419.58	6073.69
419.77	6024.54
419.96	6174.33
420.15	6228.17
420.34	6209.44
420.53	6129.86
420.72	6132.20
420.91	6345.19
421.10	6267.95
421.29	6340.51
421.48	6279.66
421.67	6441.15
421.86	6413.07
422.05	6366.26
422.24	6399.02
422.43	6476.26
422.61	6565.20
422.80	6722.02
422.99	6429.45
423.18	6754.79
423.37	6448.18
423.56	6703.29
423.75	6665.85
423.94	6502.01
424.13	6183.70
424.32	6314.77
424.50	6602.65
424.69	6906.92
424.88	6787.55
425.07	6698.61
425.26	6476.26
425.45	6731.38
425.64	6750.10
425.83	6384.98
426.01	6684.57
426.20	6602.65
426.39	6736.06
426.58	6651.80
426.77	6595.63
426.96	6895.22
427.15	6937.35
427.33	7225.23
427.52	6789.89
427.71	7056.72
427.90	6970.12
428.09	7140.97
428.28	7304.81
428.46	7274.38
428.65	7187.79
428.84	7456.95
429.03	7286.09
429.22	6913.94
429.40	7169.06
429.59	7290.77
429.78	7129.27
429.97	6895.22
430.16	7178.42
430.34	7400.77
430.53	7527.16
430.72	7339.92
430.91	7318.86
431.10	7555.25
431.28	7712.07
431.47	7812.71
431.66	7793.98
431.85	7693.34
432.03	7740.15
432.22	8025.70
432.41	7829.09
432.60	7847.82
432.79	7911.01
432.97	7939.10
433.16	7992.93
433.35	7861.86
433.54	7892.29
433.72	8159.11
433.91	8128.68
434.10	8168.47
434.28	8079.53
434.47	8107.62
434.66	8346.35
434.85	8432.95
435.03	8446.99
435.22	8519.55
435.41	8746.58
435.59	8592.11
435.78	8624.87
435.97	8578.06
436.16	8608.49
436.34	8458.70
436.53	8194.22
436.72	8713.81
436.90	8500.83
437.09	8854.25
437.28	8475.08
437.46	8545.30
437.65	8788.71
437.84	8812.12
438.02	8917.44
438.21	8903.40
438.40	8884.67
438.58	9107.02
438.77	9186.60
438.96	9149.15
439.14	9296.61
439.33	9418.32
439.52	9589.17
439.70	9308.31
439.89	9699.18
440.08	9736.63
440.26	9643.01
440.45	9460.45
440.63	10029.20
440.82	10085.37
441.01	9844.29
441.19	9989.41
441.38	10073.67
441.57	10078.35
441.75	10118.14
441.94	10408.36
442.12	10399.00
442.31	10614.33
442.50	10399.00
442.68	10597.95
442.87	10480.92
443.05	10434.11
443.24	10684.55
443.43	10649.44
443.61	10565.18
443.80	11075.42
443.98	10399.00
444.17	10169.63
444.35	10665.82
444.54	10925.62
444.73	10740.72
444.91	10998.18
445.10	10918.60
445.28	11101.16
445.47	10775.83
445.65	10815.62
445.84	10984.13
446.02	10958.39
446.21	10836.68
446.39	10796.89
446.58	10953.71
446.77	10965.41
446.95	10960.73
447.14	10977.11
447.32	11070.73
447.51	11049.67
447.69	11077.76
447.88	11096.48
448.06	11143.29
448.25	11035.63
448.43	11351.60
448.62	11288.40
448.80	11138.61
448.99	11370.32
449.17	11382.03
449.36	11325.85
449.54	11492.03
449.73	11768.21
449.91	11707.36
450.10	11929.71
450.28	11887.58
450.46	11882.90
450.65	11808.00
450.83	11875.88
451.02	11831.41
451.20	11925.03
451.39	12049.08
451.57	11782.26
451.76	12035.03
451.94	11861.84
452.13	12044.40
452.31	12210.57
452.49	11864.18
452.68	12472.71
452.86	12304.20
453.05	12175.47
453.23	12549.95
453.42	12250.36
453.60	12332.28
453.78	12435.27
453.97	12116.95
454.15	12418.88
454.34	12358.03
454.52	12627.19
454.70	12650.60
454.89	12793.37
455.07	12666.98
455.26	12828.48
455.44	13043.81
455.62	13078.91
455.81	12978.27
455.99	12989.97
456.17	13043.81
456.36	12966.57
456.54	13128.06
456.73	13474.46
456.91	13834.91
457.09	13448.72
457.28	13781.07
457.46	13500.21
457.64	13699.16
457.83	13706.18
458.01	13390.20
458.19	14057.26
458.38	13816.18
458.56	13900.44
458.74	13701.50
458.93	14090.02
459.11	13886.40
459.29	14125.13
459.48	13958.96
459.66	14249.18
459.84	14188.33
460.03	14565.15
460.21	14300.67
460.39	14434.08
460.57	14457.49
460.76	14499.62
460.94	14583.88
461.12	14693.88
461.31	14700.90
461.49	14726.65
461.67	14696.22
461.85	14850.70
462.04	14967.73
462.22	15044.96
462.40	15300.08
462.59	15190.08
462.77	14862.40
462.95	15049.64
463.13	15272.00
463.32	15171.35
463.50	15129.22
463.68	15346.89
463.86	15363.28
464.05	15239.23
464.23	15262.63
464.41	15611.37
464.59	15311.78
464.78	16016.29
464.96	15365.62
465.14	15346.89
465.32	15541.16
465.50	15878.19
465.69	15878.19
465.87	15789.25
466.05	16107.57
466.23	15815.00
466.41	16198.85
466.60	16191.83
466.78	15962.45
466.96	15967.13
467.14	15885.22
467.32	16147.36
467.51	16236.30
467.69	15632.44
467.87	16442.26
468.05	16463.33
468.23	15997.56
468.41	16240.98
468.60	16393.11
468.78	16641.21
468.96	16453.97
469.14	16826.11
469.32	16896.33
469.50	16542.91
469.69	16816.75
469.87	17039.10
470.05	17139.74
470.23	17135.06
470.41	17172.51
470.59	17392.52
470.77	17151.45
470.95	17151.45
471.14	17764.67
471.32	17371.46
471.50	17593.81
471.68	17699.13
471.86	17759.98
472.04	17767.01
472.22	18501.93
472.40	17774.03
472.58	17968.29
472.77	18087.66
472.95	18345.12
473.13	19243.88
473.31	18038.51
473.49	18464.49
473.67	18544.06
473.85	18600.24
474.03	19101.11
474.21	19147.92
474.39	18953.66
474.57	19222.82
474.75	19651.14
474.93	19592.62
475.12	19503.68
475.30	19726.04
475.48	19772.85
475.66	19950.73
475.84	19899.23
476.02	20341.60
476.20	20091.16
476.38	20297.13
476.56	20727.78
476.74	20903.32
476.92	20702.04
477.10	20758.21
477.28	21413.56
477.46	21060.14
477.64	21231.00
477.82	21451.01
478.00	22256.15
478.18	21963.59
478.36	22216.36
478.54	22279.56
478.72	22199.98
478.90	22813.20
479.08	22703.20
479.26	23119.81
479.44	23037.89
479.62	23082.36
479.80	23672.18
479.98	23737.71
480.16	24421.15
480.34	24184.76
480.52	24280.72
480.70	24020.92
480.88	24205.82
481.06	24425.83
481.24	24606.05
481.41	24582.65
481.59	25193.53
481.77	25315.23
481.95	25696.74
482.13	25640.57
482.31	25568.01
482.49	26588.49
482.67	26286.56
482.85	26600.19
483.03	26665.72
483.21	27679.18
483.39	27323.41
483.57	27154.90
483.74	27501.29
483.92	27470.87
484.10	27548.11
484.28	28278.35
484.46	28353.25
484.64	29137.33
484.82	28531.13
485.00	29214.57
485.18	29624.16
485.35	29975.24
485.53	30022.05
485.71	30082.91
485.89	30059.50
486.07	30363.77
486.25	30277.17
486.43	31072.95
486.61	31388.92
486.78	31658.09
486.96	31180.62
487.14	31950.65
487.32	31927.25
487.50	32254.92
487.68	32779.20
487.85	32978.15
488.03	33422.85
488.21	33591.37
488.39	33542.22
488.57	33944.79
488.75	33914.36
488.92	34340.34
489.10	35026.12
489.28	34838.87
489.46	35192.30
489.64	35199.32
489.81	35847.64
489.99	35875.73
490.17	35807.86
490.35	36451.50
490.53	36870.46
490.70	36912.59
490.88	36952.38
491.06	37479.00
491.24	37191.11
491.41	37832.42
491.59	37474.32
491.77	38153.07
491.95	38532.24
492.13	38653.95
492.30	39065.88
492.48	38740.55
492.66	38754.59
492.84	39763.36
493.01	39772.72
493.19	39955.29
493.37	39901.45
493.54	40304.02
493.72	40460.84
493.90	40392.97
494.08	41254.28
494.25	41354.93
494.43	41385.35
494.61	41951.76
494.79	41832.39
494.96	41851.12
495.14	42457.32
495.32	42567.32
495.49	43243.74
495.67	43264.80
495.85	43510.56
496.02	43564.39
496.20	43353.74
496.38	43838.23
496.55	43985.69
496.73	44722.96
496.91	44423.37
497.09	44741.68
497.26	44879.77
497.44	44842.32
497.62	45338.52
497.79	45748.11
497.97	45478.95
498.14	46120.26
498.32	46337.93
498.50	46080.47
498.67	47054.13
498.85	46047.70
499.03	46672.62
499.20	46646.88
499.38	46611.77
499.56	47138.39
499.73	47789.06
499.91	47578.41
500.08	48123.75
500.26	47430.96
500.44	47983.32
500.61	48828.26
500.79	48474.84
500.97	48748.68
501.14	48942.94
501.32	48479.52
501.49	48971.03
501.67	48846.98
501.84	49050.61
502.02	49521.05
502.20	49897.88
502.37	49600.63
502.55	49708.30
502.72	49528.08
502.90	50078.10
503.07	49825.32
503.25	50293.43
503.43	49970.44
503.60	50272.37
503.78	50227.90
503.95	50333.22
504.13	50747.50
504.30	51112.62
504.48	50548.55
504.65	51437.95
504.83	51491.79
505.01	51723.50
505.18	51344.33
505.36	51784.35
505.53	51442.63
505.71	51585.41
505.88	52360.12
506.06	51793.71
506.23	52025.43
506.41	52144.80
506.58	52112.03
506.76	52184.58
506.93	52467.79
507.11	52584.82
507.28	52996.75
507.46	52802.49
507.63	53062.29
507.81	53340.81
507.98	52755.68
508.16	53193.36
508.33	53221.44
508.50	53453.15
508.68	53467.20
508.85	53911.90
509.03	53659.12
509.20	53825.30
509.38	54021.90
509.55	53801.89
509.73	54335.54
509.90	54284.04
510.08	54358.94
510.25	54628.10
510.42	54316.81
510.60	54258.30
510.77	54548.53
510.95	54796.62
511.12	54878.54
511.30	54967.48
511.47	55292.82
511.64	55140.68
511.82	55356.01
511.99	55025.99
512.17	55316.22
512.34	55323.24
512.51	55423.89
512.69	55739.86
512.86	55515.17
513.04	56069.87
513.21	55929.44
513.38	55707.09
513.56	55880.29
513.73	55957.53
513.90	56210.31
514.08	56254.78
514.25	56467.76
514.43	56488.83
514.60	56245.41
514.77	56285.20
514.95	56652.67
515.12	56495.85
515.29	56481.81
515.47	56690.12
515.64	57118.43
515.81	56982.68
515.99	56830.55
516.16	56928.85
516.33	56886.72
516.51	57139.50
516.68	57345.47
516.85	57265.89
517.03	57422.70
517.20	57347.81
517.37	57359.51
517.54	57368.87
517.72	57408.66
517.89	57403.98
518.06	57785.49
518.24	57853.36
518.41	57858.04
518.58	57872.09
518.75	57785.49
518.93	57998.48
519.10	57879.11
519.27	58431.47
519.45	58035.92
519.62	58431.47
519.79	58309.77
519.96	58164.65
520.14	58356.58
520.31	58188.06
520.48	58253.59
520.65	58424.45
520.83	58667.87
521.00	58770.85
521.17	58766.17
521.34	58885.54
521.52	58866.81
521.69	58836.39
521.86	58894.90
522.03	58892.56
522.20	58972.14
522.38	59154.70
522.55	59166.40
522.72	59269.39
522.89	59299.81
523.07	59363.01
523.24	59299.81
523.41	59339.60
523.58	59035.33
523.75	59412.16
523.92	59545.57
524.10	59585.36
524.27	59678.98
524.44	59742.17
524.61	59955.16
524.78	59791.33
524.96	59898.99
525.13	59985.59
525.30	60102.62
525.47	60177.51
525.64	60238.37
525.81	59980.91
525.98	60226.66
526.16	60109.64
526.33	60067.51
526.50	60374.12
526.67	60439.65
526.84	60566.04
527.01	60612.85
527.18	60523.91
527.36	60678.39
527.53	60786.05
527.70	60786.05
527.87	60870.31
528.04	60589.45
528.21	60835.20
528.38	60769.67
528.55	61158.20
528.72	60865.63
528.89	61057.56
529.07	60949.89
529.24	60743.92
529.41	60987.34
529.58	61181.60
529.75	61256.50
529.92	61233.10
530.09	61062.24
530.26	60982.66
530.43	61113.73
530.60	61109.05
530.77	61183.94
530.94	61357.14
531.11	61394.59
531.28	61600.56
531.46	61652.05
531.63	61570.13
531.80	61544.39
531.97	61478.85
532.14	61677.80
532.31	61542.05
532.48	61963.34
532.65	61893.13
532.82	61638.01
532.99	61883.76
533.16	61432.04
533.33	61876.74
533.50	61958.66
533.67	62038.24
533.84	61740.99
534.01	61895.47
534.18	62082.71
534.35	62272.29
534.52	62223.14
534.69	62389.32
534.86	62120.16
535.03	61949.30
535.20	62307.40
535.37	62370.60
535.54	62560.18
535.71	62719.34
535.88	62588.27
536.05	62595.29
536.22	62574.22
536.38	62677.21
536.55	62606.99
536.72	62660.82
536.89	62695.93
537.06	62541.45
537.23	62922.96
537.40	62735.72
537.57	62571.88
537.74	62780.19
537.91	62962.75
538.08	62824.66
538.25	62728.70
538.42	62829.34
538.59	63138.29
538.75	62965.09
538.92	62951.05
539.09	63180.42
539.26	62969.77
539.43	63105.52
539.60	63133.61
539.77	63061.05
539.94	63222.55
540.11	63302.13
540.28	63290.43
540.44	63215.53
540.61	63313.83
540.78	63168.72
540.95	63346.60
541.12	63447.24
541.29	63295.11
541.46	63662.57
541.62	63564.27
541.79	63779.60
541.96	63552.57
542.13	63458.94
542.30	63601.72
542.47	63695.34
542.63	63866.20
542.80	63634.48
542.97	64025.35
543.14	64240.68
543.31	64179.83
543.48	64175.15
543.64	64296.86
543.81	64233.66
543.98	63950.46
544.15	64044.08
544.32	64357.71
544.48	64409.20
544.65	64346.01
544.82	64472.40
544.99	64142.38
545.16	64446.65
545.32	64238.34
545.49	64556.66
545.66	64736.88
545.83	64725.17
546.00	64741.56
546.16	64741.56
546.33	64582.40
546.50	64591.76
546.67	64512.19
546.83	64034.72
547.00	64502.82
547.17	64470.06
547.34	64329.62
547.50	64500.48
547.67	64870.29
547.84	64743.90
548.00	64959.23
548.17	65062.21
548.34	64881.99
548.51	65008.38
548.67	64790.71
548.84	64669.00
549.01	64720.49
549.18	64835.18
549.34	64963.91
549.51	64921.78
549.68	65057.53
549.84	65057.53
550.01	64992.00
550.18	64896.03
550.34	65071.57
550.51	65223.71
550.68	65066.89
550.84	65090.30
551.01	65361.80
551.18	65041.15
551.34	64966.25
551.51	65249.45
551.68	65357.12
551.84	65202.64
552.01	65043.49
552.18	65209.67
552.34	65162.85
552.51	65417.97
552.68	65399.25
552.84	65345.42
553.01	65535.00
553.18	65535.00
553.34	65518.62
553.51	65387.55
553.67	65467.12
553.84	65535.00
554.01	65535.00
554.17	65535.00
554.34	65535.00
554.51	65535.00
554.67	65535.00
554.84	65535.00
555.00	65535.00
555.17	65497.55
555.33	65535.00
555.50	65535.00
555.67	65535.00
555.83	65535.00
556.00	65535.00
556.16	65535.00
556.33	65535.00
556.50	65535.00
556.66	65535.00
556.83	65535.00
556.99	65535.00
557.16	65535.00
557.32	65535.00
557.49	65535.00
557.65	65535.00
557.82	65535.00
557.98	65535.00
558.15	65535.00
558.32	65535.00
558.48	65535.00
558.65	65535.00
558.81	65535.00
558.98	65535.00
559.14	65535.00
559.31	65535.00
559.47	65535.00
559.64	65535.00
559.80	65535.00
559.97	65535.00
560.13	65535.00
560.30	65535.00
560.46	65535.00
560.63	65535.00
560.79	65535.00
560.96	65535.00
561.12	65535.00
561.29	65535.00
561.45	65535.00
561.61	65535.00
561.78	65535.00
561.94	65535.00
562.11	65535.00
562.27	65535.00
562.44	65535.00
562.60	65535.00
562.77	65535.00
562.93	65535.00
563.10	65535.00
563.26	65535.00
563.42	65535.00
563.59	65535.00
563.75	65535.00
563.92	65535.00
564.08	65535.00
564.24	65535.00
564.41	65535.00
564.57	65535.00
564.74	65535.00
564.90	65535.00
565.07	65535.00
565.23	65535.00
565.39	65535.00
565.56	65535.00
565.72	65535.00
565.88	65535.00
566.05	65535.00
566.21	65535.00
566.38	65535.00
566.54	65535.00
566.70	65535.00
566.87	65535.00
567.03	65535.00
567.19	65535.00
567.36	65535.00
567.52	65535.00
567.68	65535.00
567.85	65535.00
568.01	65535.00
568.17	65535.00
568.34	65535.00
568.50	65535.00
568.66	65535.00
568.83	65535.00
568.99	65535.00
569.15	65535.00
569.32	65535.00
569.48	65535.00
569.64	65535.00
569.81	65535.00
569.97	65535.00
570.13	65535.00
570.30	65535.00
570.46	65535.00
570.62	65535.00
570.78	65535.00
570.95	65535.00
571.11	65535.00
571.27	65535.00
571.43	65535.00
571.60	65535.00
571.76	65535.00
571.92	65535.00
572.09	65535.00
572.25	65535.00
572.41	65535.00
572.57	65535.00
572.74	65535.00
572.90	65535.00
573.06	65535.00
573.22	65535.00
573.38	65535.00
573.55	65535.00
573.71	65535.00
573.87	65535.00
574.03	65535.00
574.20	65535.00
574.36	65535.00
574.52	65535.00
574.68	65535.00
574.84	65535.00
575.01	65535.00
575.17	65535.00
575.33	65535.00
575.49	65535.00
575.65	65535.00
575.82	65535.00
575.98	65535.00
576.14	65535.00
576.30	65535.00
576.46	65535.00
576.62	65535.00
576.79	65535.00
576.95	65535.00
577.11	65535.00
577.27	65535.00
577.43	65535.00
577.59	65535.00
577.75	65535.00
577.92	65535.00
578.08	65535.00
578.24	65535.00
578.40	65535.00
578.56	65535.00
578.72	65535.00
578.88	65535.00
579.04	65535.00
579.21	65535.00
579.37	65535.00
579.53	65535.00
579.69	65535.00
579.85	65535.00
580.01	65535.00
580.17	65535.00
580.33	65535.00
580.49	65535.00
580.65	65535.00
580.82	65535.00
580.98	65535.00
581.14	65535.00
581.30	65535.00
581.46	65535.00
581.62	65535.00
581.78	65535.00
581.94	65535.00
582.10	65535.00
582.26	65535.00
582.42	65535.00
582.58	65535.00
582.74	65535.00
582.90	65535.00
583.06	65535.00
583.22	65535.00
583.38	65535.00
583.54	65535.00
583.70	65535.00
583.86	65535.00
584.02	65535.00
584.18	65535.00
584.34	65535.00
584.50	65535.00
584.66	65535.00
584.82	65535.00
584.98	65535.00
585.14	65535.00
585.30	65535.00
585.46	65535.00
585.62	65535.00
585.78	65535.00
585.94	65535.00
586.10	65535.00
586.26	65535.00
586.42	65535.00
586.58	65535.00
586.74	65535.00
586.90	65535.00
587.06	65535.00
