SpectraSuite Data File
++++++++++++++++++++++++++++++++++++
Date: Thu Oct 24 13:21:28 EDT 2013
User: stostad
Dark Spectrum Present: No
Reference Spectrum Present: No
Number of Sampled Component Spectra: 1
Spectrometers: USB2+H05261
Integration Time (usec): 100000 (USB2+H05261)
Spectra Averaged: 1 (USB2+H05261)
Boxcar Smoothing: 0 (USB2+H05261)
Correct for Electrical Dark: No (USB2+H05261)
Strobe/Lamp Enabled: No (USB2+H05261)
Correct for Detector Non-linearity: No (USB2+H05261)
Correct for Stray Light: No (USB2+H05261)
Number of Pixels in Processed Spectrum: 2048
>>>>>Begin Processed Spectral Data<<<<<
365.73	552.37
365.92	552.37
366.12	552.37
366.32	444.70
366.52	498.53
366.72	444.70
366.91	465.77
367.11	376.83
367.31	421.30
367.51	482.15
367.70	442.36
367.90	440.02
368.10	477.47
368.30	479.81
368.49	489.17
368.69	503.22
368.89	423.64
369.09	451.72
369.28	496.19
369.48	557.05
369.68	454.06
369.87	559.39
370.07	554.71
370.27	547.69
370.47	725.57
370.66	997.07
370.86	1013.45
371.06	1050.90
371.25	978.34
371.45	1034.52
371.65	1086.01
371.84	1069.62
372.04	1076.65
372.24	1041.54
372.44	1060.26
372.63	1095.37
372.83	1121.12
373.03	1163.25
373.22	1086.01
373.42	1207.72
373.62	1135.16
373.81	1163.25
374.01	1165.59
374.21	1172.61
374.40	1263.89
374.60	1348.15
374.79	1193.67
374.99	1261.55
375.19	1277.93
375.38	1245.16
375.58	1287.29
375.78	1224.10
375.97	1252.19
376.17	1327.08
376.37	1282.61
376.56	1196.01
376.76	1228.78
376.95	1188.99
377.15	1235.80
377.35	1327.08
377.54	1355.17
377.74	1324.74
377.93	1296.66
378.13	1282.61
378.33	1322.40
378.52	1364.53
378.72	1299.00
378.91	1306.02
379.11	1444.11
379.31	1411.34
379.50	1289.64
379.70	1453.47
379.89	1441.77
380.09	1369.21
380.28	1362.19
380.48	1453.47
380.68	1397.30
380.87	1369.21
381.07	1387.94
381.26	1479.22
381.46	1500.28
381.65	1460.49
381.85	1425.39
382.04	1416.02
382.24	1469.86
382.43	1448.79
382.63	1511.99
382.83	1397.30
383.02	1439.43
383.22	1561.14
383.41	1502.62
383.61	1521.35
383.80	1659.44
384.00	1511.99
384.19	1563.48
384.39	1563.48
384.58	1596.25
384.78	1549.43
384.97	1633.69
385.17	1673.48
385.36	1605.61
385.56	1591.56
385.75	1614.97
385.95	1666.46
386.14	1589.22
386.34	1664.12
386.53	1633.69
386.72	1629.01
386.92	1710.93
387.11	1692.21
387.31	1598.59
387.50	1703.91
387.70	1739.02
387.89	1710.93
388.09	1729.66
388.28	1799.87
388.48	1710.93
388.67	1792.85
388.86	1776.47
389.06	1783.49
389.25	1853.70
389.45	1774.13
389.64	1811.57
389.84	1844.34
390.03	1884.13
390.22	1839.66
390.42	1870.09
390.61	1832.64
390.81	1891.15
391.00	1874.77
391.19	1926.26
391.39	1898.17
391.58	1963.71
391.78	1909.88
391.97	1886.47
392.16	1893.49
392.36	2059.67
392.55	1956.69
392.75	2047.97
392.94	2036.27
393.13	2040.95
393.33	2045.63
393.52	2064.35
393.71	2052.65
393.91	2080.74
394.10	2118.18
394.29	2094.78
394.49	2069.03
394.68	2120.53
394.88	2062.01
395.07	2211.81
395.26	2104.14
395.46	2165.00
395.65	2115.84
395.84	2279.68
396.04	2251.60
396.23	2289.04
396.42	2265.64
396.62	2153.29
396.81	2263.30
397.00	2314.79
397.19	2392.03
397.39	2319.47
397.58	2326.49
397.77	2307.77
397.97	2300.75
398.16	2314.79
398.35	2347.56
398.55	2389.69
398.74	2429.48
398.93	2548.84
399.12	2415.43
399.32	2396.71
399.51	2485.65
399.70	2612.04
399.90	2548.84
400.09	2532.46
400.28	2562.89
400.47	2588.63
400.67	2579.27
400.86	2691.62
401.05	2661.19
401.24	2581.61
401.44	2544.16
401.63	2719.70
401.82	2722.04
402.01	2607.36
402.21	2670.55
402.40	2775.88
402.59	2848.43
402.78	2738.43
402.97	2782.90
403.17	2743.11
403.36	2876.52
403.55	2775.88
403.74	2942.05
403.93	2974.82
404.13	3049.72
404.32	2923.33
404.51	2923.33
404.70	2810.98
404.89	2970.14
405.09	2958.44
405.28	3054.40
405.47	3002.91
405.66	3098.87
405.85	3115.25
406.05	3056.74
406.24	3234.62
406.43	3145.68
406.62	3171.43
406.81	3283.77
407.00	3159.72
407.20	3171.43
407.39	3251.00
407.58	3281.43
407.77	3375.05
407.96	3400.80
408.15	3384.41
408.34	3339.94
408.54	3372.71
408.73	3309.52
408.92	3379.73
409.11	3375.05
409.30	3576.34
409.49	3456.97
409.68	3431.23
409.87	3550.59
410.07	3592.72
410.26	3574.00
410.45	3590.38
410.64	3672.30
410.83	3637.19
411.02	3648.90
411.21	3700.39
411.40	3646.55
411.59	3896.99
411.78	3840.82
411.98	3779.97
412.17	3819.75
412.36	3908.69
412.55	4044.45
412.74	4007.00
412.93	4079.55
413.12	4007.00
413.31	4156.79
413.50	4102.96
413.69	4109.98
413.88	4208.28
414.07	4182.54
414.26	4346.37
414.45	4236.37
414.64	4360.42
414.83	4334.67
415.02	4484.47
415.22	4587.45
415.41	4671.71
415.60	4542.98
415.79	4676.39
415.98	4734.90
416.17	4674.05
416.36	4624.90
416.55	4554.68
416.74	4681.07
416.93	4667.03
417.12	4795.76
417.31	4821.50
417.50	4809.80
417.69	5081.30
417.88	5093.01
418.07	4877.68
418.26	5029.81
418.45	4978.32
418.64	5121.09
418.83	5228.76
419.02	5076.62
419.21	5142.16
419.39	5186.63
419.58	5186.63
419.77	5167.90
419.96	5198.33
420.15	5277.91
420.34	5217.05
420.53	5305.99
420.72	5308.34
420.91	5277.91
421.10	5392.59
421.29	5509.62
421.48	5479.19
421.67	5462.81
421.86	5451.11
422.05	5404.30
422.24	5472.17
422.43	5607.92
422.61	5502.60
422.80	5771.76
422.99	5696.86
423.18	5685.16
423.37	5846.66
423.56	5666.44
423.75	5563.45
423.94	5385.57
424.13	5195.99
424.32	5441.75
424.50	5563.45
424.69	5731.97
424.88	5783.46
425.07	5671.12
425.26	5577.50
425.45	5540.05
425.64	5713.25
425.83	5537.71
426.01	5753.04
426.20	5785.80
426.39	5804.53
426.58	5703.89
426.77	5783.46
426.96	5856.02
427.15	5881.77
427.33	5975.39
427.52	5820.91
427.71	6118.16
427.90	5926.24
428.09	6155.61
428.28	6157.95
428.46	6047.94
428.65	6188.38
428.84	6216.46
429.03	6284.34
429.22	5942.62
429.40	6162.63
429.59	6127.52
429.78	6232.85
429.97	5851.34
430.16	6207.10
430.34	6228.17
430.53	6417.75
430.72	6469.24
430.91	6303.06
431.10	6225.82
431.28	6504.35
431.47	6693.93
431.66	6740.74
431.85	6466.90
432.03	6843.73
432.22	6717.34
432.41	6642.44
432.60	6736.06
432.79	6710.32
432.97	6626.06
433.16	6808.62
433.35	6904.58
433.54	6829.68
433.72	6958.41
433.91	6778.19
434.10	6867.13
434.28	6864.79
434.47	6951.39
434.66	7047.35
434.85	7061.40
435.03	7269.70
435.22	7180.76
435.41	7524.82
435.59	7330.56
435.78	7314.17
435.97	7311.83
436.16	7295.45
436.34	7351.62
436.53	7176.08
436.72	7485.03
436.90	7197.15
437.09	7297.79
437.28	7241.62
437.46	7382.05
437.65	7571.63
437.84	7604.40
438.02	7562.27
438.21	7550.57
438.40	7653.55
438.58	7747.17
438.77	7714.41
438.96	7686.32
439.14	7929.74
439.33	7934.42
439.52	8241.03
439.70	7887.61
439.89	8042.08
440.08	8065.49
440.26	8224.64
440.45	8241.03
440.63	8451.67
440.82	8477.42
441.01	8461.04
441.19	8498.49
441.38	8760.63
441.57	8879.99
441.75	8737.22
441.94	8926.80
442.12	8973.61
442.31	9092.98
442.50	9008.72
442.68	8741.90
442.87	8835.52
443.05	9202.99
443.24	9135.11
443.43	9071.92
443.61	9022.77
443.80	9341.08
443.98	9142.13
444.17	8978.30
444.35	9200.65
444.54	9214.69
444.73	9256.82
444.91	9170.22
445.10	9298.95
445.28	9327.03
445.47	9305.97
445.65	9177.24
445.84	9425.34
446.02	9327.03
446.21	9275.54
446.39	9186.60
446.58	9380.87
446.77	9479.17
446.95	9160.86
447.14	9420.66
447.32	9523.64
447.51	9305.97
447.69	9266.18
447.88	9514.28
448.06	9387.89
448.25	9359.80
448.43	9369.16
448.62	9584.49
448.80	9521.30
448.99	9687.48
449.17	9933.23
449.36	9675.77
449.54	9745.99
449.73	9853.66
449.91	10143.88
450.10	9776.42
450.28	10094.73
450.46	10155.58
450.65	10104.09
450.83	10136.86
451.02	10169.63
451.20	10097.07
451.39	10169.63
451.57	10136.86
451.76	10111.11
451.94	10242.18
452.13	10368.57
452.31	10225.80
452.49	10347.51
452.68	10492.62
452.86	10335.81
453.05	10532.41
453.23	10600.29
453.42	10518.37
453.60	10274.95
453.78	10644.76
453.97	10602.63
454.15	10511.35
454.34	10326.44
454.52	10897.53
454.70	10703.27
454.89	10705.61
455.07	10691.57
455.26	11023.92
455.44	10782.85
455.62	11014.56
455.81	11063.71
455.99	11206.48
456.17	11194.78
456.36	11218.19
456.54	11124.57
456.73	11435.86
456.91	11419.47
457.09	11463.94
457.28	11571.61
457.46	11290.74
457.64	11587.99
457.83	11779.92
458.01	11452.24
458.19	11974.18
458.38	11639.48
458.56	11836.09
458.74	11667.57
458.93	11660.55
459.11	12046.74
459.29	12046.74
459.48	11852.47
459.66	11812.68
459.84	11995.25
460.03	12194.19
460.21	12269.09
460.39	12081.85
460.57	12248.02
460.76	12262.07
460.94	12327.60
461.12	12524.21
461.31	12414.20
461.49	12353.35
461.67	12325.26
461.85	12634.21
462.04	12510.16
462.22	12957.21
462.40	12741.88
462.59	12615.49
462.77	12631.87
462.95	12753.58
463.13	12615.49
463.32	12685.70
463.50	13153.81
463.68	13097.64
463.86	13032.10
464.05	12842.52
464.23	12650.60
464.41	13151.47
464.59	12737.20
464.78	13280.20
464.96	13207.64
465.14	12791.03
465.32	13158.49
465.50	13589.15
465.69	13472.12
465.87	13429.99
466.05	13413.61
466.23	13331.69
466.41	13310.63
466.60	13781.07
466.78	13308.29
466.96	13479.15
467.14	13673.41
467.32	13628.94
467.51	13921.51
467.69	13425.31
467.87	13881.72
468.05	13778.73
468.23	13530.64
468.41	13694.47
468.60	13776.39
468.78	14050.24
468.96	13937.89
469.14	13888.74
469.32	14204.71
469.50	13877.04
469.69	14150.88
469.87	14054.92
470.05	14314.72
470.23	14572.18
470.41	14548.77
470.59	14703.25
470.77	14314.72
470.95	14352.16
471.14	15012.20
471.32	14530.05
471.50	14789.85
471.68	14813.25
471.86	14831.97
472.04	14923.26
472.22	15484.98
472.40	15105.82
472.58	15143.27
472.77	15262.63
472.95	15321.15
473.13	15955.43
473.31	15307.10
473.49	15452.22
473.67	15389.02
473.85	15831.38
474.03	16023.31
474.21	16013.95
474.39	16196.51
474.57	16149.70
474.75	16280.77
474.93	16512.48
475.12	16414.18
475.30	16814.41
475.48	16285.45
475.66	16505.46
475.84	16650.57
476.02	16699.72
476.20	16795.68
476.38	17111.66
476.56	17818.50
476.74	17404.22
476.92	17287.20
477.10	17558.70
477.28	17968.29
477.46	17673.39
477.64	17600.83
477.82	18338.10
478.00	18665.77
478.18	18342.78
478.36	18607.26
478.54	19000.47
478.72	18644.71
478.90	18897.49
479.08	18998.13
479.26	19314.10
479.44	19503.68
479.62	19772.85
479.80	19943.70
479.98	20072.43
480.16	20334.57
480.34	19627.73
480.52	20032.65
480.70	20283.08
480.88	20201.16
481.06	20709.06
481.24	20671.61
481.41	20842.47
481.59	21200.57
481.77	21411.22
481.95	21710.81
482.13	21422.92
482.31	21671.02
482.49	22314.67
482.67	22195.30
482.85	22111.04
483.03	22497.23
483.21	22927.89
483.39	22944.27
483.57	22923.21
483.74	23225.14
483.92	23517.70
484.10	23417.06
484.28	23812.61
484.46	23931.98
484.64	24149.65
484.82	23772.82
485.00	24753.51
485.18	25062.46
485.35	25364.39
485.53	24957.13
485.71	25528.22
485.89	25724.83
486.07	25575.03
486.25	25591.42
486.43	25818.45
486.61	26239.75
486.78	26206.98
486.96	26913.82
487.14	27215.75
487.32	27042.55
487.50	27054.25
487.68	27278.94
487.85	27873.44
488.03	28182.39
488.21	28341.55
488.39	28226.86
488.57	28196.43
488.75	28381.34
488.92	29034.35
489.10	29390.11
489.28	28961.79
489.46	29771.61
489.64	29359.68
489.81	30134.40
489.99	30174.19
490.17	30335.68
490.35	30981.67
490.53	30728.89
490.70	30838.90
490.88	30834.22
491.06	31253.17
491.24	31393.61
491.41	31824.26
491.59	31737.66
491.77	31999.80
491.95	32109.81
492.13	32381.31
492.30	32680.90
492.48	32912.61
492.66	33156.03
492.84	33031.98
493.01	33422.85
493.19	33486.04
493.37	33703.71
493.54	33802.02
493.72	34576.73
493.90	33848.83
494.08	34117.99
494.25	35318.68
494.43	34572.05
494.61	35147.82
494.79	35178.25
494.96	35374.86
495.14	35463.80
495.32	36212.77
495.49	35992.76
495.67	36140.21
495.85	36299.37
496.02	36605.98
496.20	36760.45
496.38	37074.09
496.55	36893.86
496.73	37940.08
496.91	37614.75
497.09	37731.78
497.26	37642.84
497.44	38005.62
497.62	38007.96
497.79	38855.23
497.97	38321.59
498.14	38904.38
498.32	39475.48
498.50	39545.69
498.67	39835.92
498.85	38829.49
499.03	39721.23
499.20	39723.57
499.38	40252.53
499.56	40231.47
499.73	40294.66
499.91	40442.12
500.08	40861.07
500.26	40453.82
500.44	40898.52
500.61	41095.13
500.79	41591.32
500.97	41422.80
501.14	41680.26
501.32	41560.89
501.49	41357.27
501.67	41694.30
501.84	42721.80
502.02	42010.28
502.20	42131.98
502.37	42148.37
502.55	42391.78
502.72	42628.18
502.90	42424.55
503.07	43054.15
503.25	42960.53
503.43	43351.40
503.60	43569.07
503.78	43140.75
503.95	43005.00
504.13	43306.93
504.30	43531.62
504.48	43758.66
504.65	44404.64
504.83	44091.01
505.01	44839.98
505.18	44175.27
505.36	44788.49
505.53	44280.60
505.71	44734.66
505.88	45174.68
506.06	45146.59
506.23	44863.39
506.41	45268.30
506.58	45235.53
506.76	45553.85
506.93	45876.84
507.11	45764.49
507.28	46019.61
507.46	46473.68
507.63	46492.40
507.81	46536.87
507.98	45713.00
508.16	46417.50
508.33	46831.78
508.50	46913.70
508.68	46878.59
508.85	46876.25
509.03	46983.91
509.20	47248.39
509.38	47526.92
509.55	47393.51
509.73	48072.26
509.90	47826.51
510.08	47901.40
510.25	48198.65
510.42	47847.57
510.60	48633.99
510.77	48371.85
510.95	48739.32
511.12	48030.13
511.30	48418.66
511.47	48889.11
511.64	48844.64
511.82	48980.39
511.99	48846.98
512.17	49036.56
512.34	49521.05
512.51	49188.70
512.69	49666.17
512.86	49492.97
513.04	49771.49
513.21	49822.98
513.38	50099.17
513.56	49680.21
513.73	49804.26
513.90	50031.29
514.08	50443.23
514.25	50522.80
514.43	50609.40
514.60	50508.76
514.77	50253.64
514.95	50497.06
515.12	50501.74
515.29	50789.62
515.47	51164.11
515.64	51386.46
515.81	51323.27
515.99	51583.07
516.16	51313.90
516.33	51274.12
516.51	51487.10
516.68	51704.77
516.85	51739.88
517.03	51896.70
517.20	51770.31
517.37	51819.46
517.54	51707.12
517.72	52191.61
517.89	52247.78
518.06	52135.43
518.24	52376.51
518.41	52360.12
518.58	52119.05
518.75	52205.65
518.93	52343.74
519.10	52554.39
519.27	52652.69
519.45	52921.85
519.62	52882.06
519.79	52905.47
519.96	52631.63
520.14	52790.78
520.31	52626.95
520.48	53202.72
520.65	53205.06
520.83	53443.79
521.00	53469.54
521.17	53364.21
521.34	53031.86
521.52	53567.84
521.69	53310.38
521.86	53785.51
522.03	53771.47
522.20	53942.33
522.38	54038.29
522.55	54085.10
522.72	54019.56
522.89	54328.52
523.07	54157.66
523.24	53979.78
523.41	54518.10
523.58	53975.09
523.75	54695.98
523.92	54581.29
524.10	54485.33
524.27	54925.35
524.44	54752.15
524.61	54667.89
524.78	54883.22
524.96	54841.09
525.13	55136.00
525.30	54953.44
525.47	55365.37
525.64	55072.81
525.81	55264.73
525.98	55161.75
526.16	55077.49
526.33	55164.09
526.50	55569.00
526.67	55250.69
526.84	55475.38
527.01	55391.12
527.18	55618.15
527.36	55236.64
527.53	55760.92
527.70	55842.84
527.87	56004.34
528.04	55779.65
528.21	56196.26
528.38	55978.59
528.55	56207.97
528.72	55948.17
528.89	55950.51
529.07	56072.21
529.24	55779.65
529.41	56360.10
529.58	56231.37
529.75	56367.12
529.92	56521.60
530.09	56240.73
530.26	56418.61
530.43	56303.93
530.60	56119.02
530.77	56622.24
530.94	56788.42
531.11	56842.25
531.28	56591.81
531.46	56788.42
531.63	56727.56
531.80	56704.16
531.97	56640.96
532.14	56690.12
532.31	57099.71
532.48	57036.51
532.65	57146.52
532.82	56985.02
532.99	57235.46
533.16	57083.33
533.33	57162.90
533.50	57333.76
533.67	57130.14
533.84	57279.93
534.01	57364.19
534.18	57343.12
534.35	57867.40
534.52	57666.12
534.69	57560.79
534.86	57443.77
535.03	57202.69
535.20	57565.48
535.37	57614.63
535.54	57841.66
535.71	57654.42
535.88	57839.32
536.05	57769.10
536.22	57677.82
536.38	57886.13
536.55	57806.55
536.72	58005.50
536.89	57979.75
537.06	58042.95
537.23	58372.96
537.40	57954.00
537.57	58089.76
537.74	58309.77
537.91	58511.05
538.08	58239.55
538.25	58204.44
538.42	58431.47
538.59	58394.03
538.75	58337.85
538.92	58466.58
539.09	58555.52
539.26	58761.49
539.43	58326.15
539.60	58440.84
539.77	58185.72
539.94	58798.94
540.11	58740.42
540.28	58850.43
540.44	58688.93
540.61	58904.26
540.78	58941.71
540.95	59002.56
541.12	58632.76
541.29	58649.14
541.46	58972.14
541.62	59224.92
541.79	59166.40
541.96	59124.27
542.13	59016.61
542.30	58993.20
542.47	59248.32
542.63	59084.48
542.80	59248.32
542.97	59540.89
543.14	59510.46
543.31	59793.67
543.48	59508.12
543.64	59494.08
543.81	59751.54
543.98	59571.32
544.15	59611.10
544.32	59716.43
544.48	59896.65
544.65	59592.38
544.82	59859.20
544.99	59627.49
545.16	59877.93
545.32	59831.11
545.49	59906.01
545.66	60107.30
545.83	60200.92
546.00	60273.48
546.16	60367.10
546.33	60317.95
546.50	60030.06
546.67	60376.46
546.83	59765.58
547.00	60095.60
547.17	59854.52
547.34	60030.06
547.50	60317.95
547.67	60467.74
547.84	60315.61
548.00	60519.23
548.17	60587.11
548.34	60505.19
548.51	60526.25
548.67	60423.27
548.84	60425.61
549.01	60519.23
549.18	60547.32
549.34	60547.32
549.51	60568.38
549.68	60470.08
549.84	60441.99
550.01	60570.72
550.18	60383.48
550.34	60388.16
550.51	60654.98
550.68	60626.90
550.84	60486.46
551.01	60823.50
551.18	60479.44
551.34	60416.25
551.51	60748.60
551.68	60748.60
551.84	60786.05
552.01	60678.39
552.18	60856.27
552.34	60767.33
552.51	61017.77
552.68	61057.56
552.84	61169.90
553.01	61102.03
553.18	61080.96
553.34	60942.87
553.51	60734.56
553.67	60956.91
553.84	61389.91
554.01	61326.72
554.17	61169.90
554.34	61300.97
554.51	61221.39
554.67	61343.10
554.84	61319.70
555.00	61209.69
555.17	61167.56
555.33	61193.31
555.50	61277.57
555.67	61345.44
555.83	61375.87
556.00	61558.43
556.16	61682.48
556.33	61528.00
556.50	61446.08
556.66	61425.02
556.83	61389.91
556.99	61673.12
557.16	61520.98
557.32	61829.93
557.49	61918.87
557.65	61542.05
557.82	61663.75
557.98	61703.54
558.15	61633.33
558.32	61717.59
558.48	61822.91
558.65	61682.48
558.81	61748.01
558.98	61680.14
559.14	61895.47
559.31	61623.96
559.47	61804.19
559.64	61970.36
559.80	62059.30
559.97	61771.42
560.13	61893.13
560.30	61740.99
560.46	62138.88
560.63	61921.21
560.79	62173.99
560.96	62106.12
561.12	61998.45
561.29	61925.89
561.45	61993.77
561.61	62173.99
561.78	62031.22
561.94	62230.16
562.11	62265.27
562.27	62113.14
562.44	62148.24
562.60	62239.53
562.77	62195.06
562.93	61914.19
563.10	62232.50
563.26	62152.93
563.42	62262.93
563.59	62127.18
563.75	62080.37
563.92	62248.89
564.08	62321.44
564.24	62354.21
564.41	62218.46
564.57	62429.11
564.74	62223.14
564.90	62337.83
565.07	62321.44
565.23	62426.77
565.39	62515.71
565.56	62911.26
565.72	62424.43
565.88	62520.39
566.05	62379.96
566.21	62199.74
566.38	62372.94
566.54	62269.95
566.70	62496.98
566.87	62560.18
567.03	62499.33
567.19	62876.15
567.36	62775.51
567.52	62504.01
567.68	62440.81
567.85	62515.71
568.01	62611.67
568.17	62511.03
568.34	62356.55
568.50	62539.11
568.66	62436.13
568.83	62791.89
568.99	62494.64
569.15	62529.75
569.32	62574.22
569.48	62408.04
569.64	62386.98
569.81	62422.09
569.97	62354.21
570.13	62829.34
570.30	62433.79
570.46	62658.48
570.62	62541.45
570.78	62560.18
570.95	62717.00
571.11	62794.23
571.27	62436.13
571.43	62501.67
571.60	62621.03
571.76	62637.42
571.92	62709.97
572.09	62848.06
572.25	62864.45
572.41	62836.36
572.57	62789.55
572.74	63016.58
572.90	62899.56
573.06	62775.51
573.22	62864.45
573.38	62709.97
573.55	62527.41
573.71	63173.40
573.87	62838.70
574.03	62819.98
574.20	62794.23
574.36	62904.24
574.52	62929.98
574.68	62791.89
574.84	63058.71
575.01	63077.44
575.17	62995.52
575.33	62946.37
575.49	62920.62
575.65	62922.96
575.82	63142.97
575.98	63032.97
576.14	63032.97
576.30	63213.19
576.46	62784.87
576.62	62761.47
576.79	62731.04
576.95	62822.32
577.11	62901.90
577.27	63023.61
577.43	62993.18
577.59	63016.58
577.75	62925.30
577.92	62885.51
578.08	62803.59
578.24	62735.72
578.40	63072.76
578.56	63061.05
578.72	63133.61
578.88	63231.91
579.04	63089.14
579.21	62983.82
579.37	63243.62
579.53	63210.85
579.69	62911.26
579.85	63105.52
580.01	63096.16
580.17	62993.18
580.33	63152.33
580.49	63110.20
580.65	62932.32
580.82	63140.63
580.98	63075.10
581.14	63077.44
581.30	63159.36
581.46	63018.92
581.62	62990.84
581.78	62901.90
581.94	63145.31
582.10	63070.42
582.26	63185.10
582.42	63180.42
582.58	63288.09
582.74	63334.90
582.90	62988.50
583.06	63267.02
583.22	62920.62
583.38	63049.35
583.54	63044.67
583.70	63096.16
583.86	63393.41
584.02	63166.38
584.18	63262.34
584.34	63227.23
584.50	63327.87
584.66	63229.57
584.82	63018.92
584.98	63302.13
585.14	63213.19
585.30	63058.71
585.46	63145.31
585.62	63016.58
585.78	63351.28
585.94	63227.23
586.10	63306.81
586.26	63178.08
586.42	63503.42
586.58	63316.17
586.74	63238.93
586.90	62981.48
587.06	63168.72
587.22	63491.71
587.38	63182.76
587.54	63468.31
587.70	63646.19
