SpectraSuite Data File
++++++++++++++++++++++++++++++++++++
Date: Thu Oct 24 13:21:19 EDT 2013
User: stostad
Dark Spectrum Present: No
Reference Spectrum Present: No
Number of Sampled Component Spectra: 1
Spectrometers: USB2+H05261
Integration Time (usec): 100000 (USB2+H05261)
Spectra Averaged: 1 (USB2+H05261)
Boxcar Smoothing: 0 (USB2+H05261)
Correct for Electrical Dark: No (USB2+H05261)
Strobe/Lamp Enabled: No (USB2+H05261)
Correct for Detector Non-linearity: No (USB2+H05261)
Correct for Stray Light: No (USB2+H05261)
Number of Pixels in Processed Spectrum: 2048
>>>>>Begin Processed Spectral Data<<<<<
365.73	561.73
365.92	561.73
366.12	561.73
366.32	482.15
366.52	484.49
366.72	533.64
366.91	486.83
367.11	479.81
367.31	397.89
367.51	418.96
367.70	409.59
367.90	425.98
368.10	528.96
368.30	458.74
368.49	463.43
368.69	500.87
368.89	507.90
369.09	463.43
369.28	465.77
369.48	484.49
369.68	545.34
369.87	596.84
370.07	550.03
370.27	566.41
370.47	599.18
370.66	816.85
370.86	816.85
371.06	873.02
371.25	933.87
371.45	788.76
371.65	884.72
371.84	877.70
372.04	931.53
372.24	908.13
372.44	947.92
372.63	861.32
372.83	947.92
373.03	966.64
373.22	894.08
373.42	952.60
373.62	971.32
373.81	901.11
374.01	964.30
374.21	1034.52
374.40	992.39
374.60	1039.20
374.79	952.60
374.99	938.55
375.19	1027.50
375.38	1076.65
375.58	1057.92
375.78	1083.67
375.97	919.83
376.17	1046.22
376.37	1102.39
376.56	1006.43
376.76	1088.35
376.95	997.07
377.15	1048.56
377.35	980.68
377.54	1060.26
377.74	999.41
377.93	1025.15
378.13	1118.78
378.33	1039.20
378.52	1062.60
378.72	1067.28
378.91	1076.65
379.11	1184.31
379.31	1104.73
379.50	1050.90
379.70	1083.67
379.89	1102.39
380.09	1032.18
380.28	1071.97
380.48	1123.46
380.68	1064.94
380.87	1095.37
381.07	1057.92
381.26	1118.78
381.46	1069.62
381.65	1226.44
381.85	1170.27
382.04	1093.03
382.24	1132.82
382.43	1186.65
382.63	1111.75
382.83	1198.35
383.02	1165.59
383.22	1153.88
383.41	1146.86
383.61	1165.59
383.80	1160.91
384.00	1160.91
384.19	1219.42
384.39	1233.46
384.58	1177.29
384.78	1200.69
384.97	1179.63
385.17	1158.57
385.36	1254.53
385.56	1163.25
385.75	1219.42
385.95	1252.19
386.14	1268.57
386.34	1165.59
386.53	1163.25
386.72	1174.95
386.92	1247.51
387.11	1294.32
387.31	1366.87
387.50	1310.70
387.70	1299.00
387.89	1355.17
388.09	1226.44
388.28	1383.26
388.48	1320.06
388.67	1350.49
388.86	1345.81
389.06	1242.82
389.25	1313.04
389.45	1329.42
389.64	1371.55
389.84	1369.21
390.03	1423.05
390.22	1371.55
390.42	1320.06
390.61	1355.17
390.81	1387.94
391.00	1430.07
391.19	1397.30
391.39	1334.11
391.58	1341.13
391.78	1441.77
391.97	1497.94
392.16	1441.77
392.36	1511.99
392.55	1455.81
392.75	1497.94
392.94	1474.54
393.13	1537.73
393.33	1502.62
393.52	1455.81
393.71	1394.96
393.91	1401.98
394.10	1593.90
394.29	1570.50
394.49	1455.81
394.68	1533.05
394.88	1516.67
395.07	1535.39
395.26	1603.27
395.46	1561.14
395.65	1647.74
395.84	1661.78
396.04	1586.88
396.23	1600.93
396.42	1696.89
396.62	1724.97
396.81	1614.97
397.00	1661.78
397.19	1687.53
397.39	1657.10
397.58	1732.00
397.77	1694.55
397.97	1701.57
398.16	1727.32
398.35	1724.97
398.55	1643.06
398.74	1755.40
398.93	1792.85
399.12	1790.51
399.32	1792.85
399.51	1846.68
399.70	1900.52
399.90	1703.91
400.09	1795.19
400.28	1834.98
400.47	1816.26
400.67	1923.92
400.86	1839.66
401.05	1785.83
401.24	1961.37
401.44	1846.68
401.63	1900.52
401.82	1937.96
402.01	1914.56
402.21	1980.09
402.40	1975.41
402.59	1954.35
402.78	1942.64
402.97	2036.27
403.17	2090.10
403.36	2038.61
403.55	2036.27
403.74	2087.76
403.93	2054.99
404.13	2155.63
404.32	2106.48
404.51	2092.44
404.70	2221.17
404.89	2111.16
405.09	2160.31
405.28	2146.27
405.47	2155.63
405.66	2284.36
405.85	2167.34
406.05	2129.89
406.24	2200.10
406.43	2246.91
406.62	2406.07
406.81	2363.94
407.00	2359.26
407.20	2193.08
407.39	2284.36
407.58	2352.24
407.77	2296.07
407.96	2317.13
408.15	2359.26
408.34	2385.01
408.54	2417.77
408.73	2380.32
408.92	2485.65
409.11	2427.14
409.30	2387.35
409.49	2520.76
409.68	2452.88
409.87	2551.18
410.07	2497.35
410.26	2644.81
410.45	2502.03
410.64	2621.40
410.83	2665.87
411.02	2630.76
411.21	2703.32
411.40	2637.78
411.59	2773.53
411.78	2686.94
411.98	2736.09
412.17	2808.64
412.36	2829.71
412.55	2825.03
412.74	2789.92
412.93	2839.07
413.12	2911.63
413.31	2998.23
413.50	2899.92
413.69	2972.48
413.88	3068.44
414.07	2918.65
414.26	3005.25
414.45	3054.40
414.64	3119.93
414.83	3091.85
415.02	3091.85
415.22	3215.90
415.41	3194.83
415.60	3246.32
415.79	3281.43
415.98	3325.90
416.17	3241.64
416.36	3265.05
416.55	3286.11
416.74	3426.54
416.93	3351.65
417.12	3400.80
417.31	3478.04
417.50	3581.02
417.69	3428.88
417.88	3529.53
418.07	3541.23
418.26	3473.36
418.45	3581.02
418.64	3637.19
418.83	3520.17
419.02	3672.30
419.21	3688.68
419.39	3623.15
419.58	3581.02
419.77	3524.85
419.96	3648.90
420.15	3705.07
420.34	3892.31
420.53	3716.77
420.72	3845.50
420.91	3791.67
421.10	3847.84
421.29	3852.52
421.48	3852.52
421.67	3859.54
421.86	3899.33
422.05	3723.79
422.24	3985.93
422.43	3988.27
422.61	3899.33
422.80	4124.02
422.99	4077.21
423.18	3908.69
423.37	3957.85
423.56	3967.21
423.75	4049.13
423.94	3882.95
424.13	3679.32
424.32	3939.12
424.50	4032.74
424.69	4138.07
424.88	4112.32
425.07	3936.78
425.26	4070.19
425.45	4042.11
425.64	3929.76
425.83	4039.76
426.01	4084.23
426.20	4046.79
426.39	4107.64
426.58	4138.07
426.77	4124.02
426.96	4072.53
427.15	4159.13
427.33	4095.94
427.52	4032.74
427.71	4236.37
427.90	4224.67
428.09	4266.80
428.28	4355.74
428.46	4322.97
428.65	4194.24
428.84	4315.95
429.03	4367.44
429.22	4273.82
429.40	4320.63
429.59	4358.08
429.78	4299.56
429.97	4250.41
430.16	4402.55
430.34	4428.29
430.53	4407.23
430.72	4489.15
430.91	4521.92
431.10	4606.17
431.28	4645.96
431.47	4578.09
431.66	4638.94
431.85	4519.57
432.03	4650.64
432.22	4655.33
432.41	4716.18
432.60	4601.49
432.79	4564.04
432.97	4657.67
433.16	4837.89
433.35	4699.80
433.54	4741.93
433.72	4945.55
433.91	4954.91
434.10	4903.42
434.28	4779.37
434.47	4961.94
434.66	4929.17
434.85	4865.97
435.03	5193.65
435.22	5252.16
435.41	5254.50
435.59	5233.44
435.78	5313.02
435.97	5146.84
436.16	5095.35
436.34	5128.11
436.53	5043.85
436.72	5170.24
436.90	5032.15
437.09	5221.74
437.28	5109.39
437.46	5109.39
437.65	5322.38
437.84	5343.44
438.02	5142.16
438.21	5284.93
438.40	5151.52
438.58	5411.32
438.77	5366.85
438.96	5460.47
439.14	5486.22
439.33	5533.03
439.52	5554.09
439.70	5607.92
439.89	5589.20
440.08	5638.35
440.26	5778.78
440.45	5570.48
440.63	5879.43
440.82	5884.11
441.01	5767.08
441.19	5898.15
441.38	5959.00
441.57	5961.34
441.75	5940.28
441.94	6087.73
442.12	6092.41
442.31	6197.74
442.50	6092.41
442.68	6136.88
442.87	6080.71
443.05	6300.72
443.24	6258.59
443.43	6457.54
443.61	6310.08
443.80	6473.92
443.98	6202.42
444.17	6076.03
444.35	6300.72
444.54	6363.92
444.73	6146.25
444.91	6122.84
445.10	6384.98
445.28	6328.81
445.47	6312.42
445.65	6516.05
445.84	6534.78
446.02	6436.47
446.21	6359.24
446.39	6289.02
446.58	6492.65
446.77	6492.65
446.95	6502.01
447.14	6401.37
447.32	6523.07
447.51	6387.32
447.69	6567.54
447.88	6373.28
448.06	6504.35
448.25	6478.60
448.43	6523.07
448.62	6651.80
448.80	6410.73
448.99	6661.16
449.17	6621.38
449.36	6555.84
449.54	6567.54
449.73	6754.79
449.91	6944.37
450.10	6878.83
450.28	6932.67
450.46	6925.65
450.65	6876.49
450.83	6890.54
451.02	6906.92
451.20	7007.56
451.39	6904.58
451.57	6970.12
451.76	7026.29
451.94	7026.29
452.13	6935.01
452.31	7119.91
452.49	7047.35
452.68	7105.87
452.86	7173.74
453.05	7201.83
453.23	7339.92
453.42	7091.82
453.60	7066.08
453.78	7241.62
453.97	7222.89
454.15	7162.04
454.34	7213.53
454.52	7304.81
454.70	7309.49
454.89	7262.68
455.07	7407.80
455.26	7384.39
455.44	7620.78
455.62	7325.88
455.81	7508.44
455.99	7620.78
456.17	7707.38
456.36	7616.10
456.54	7660.57
456.73	7770.58
456.91	7808.03
457.09	7857.18
457.28	7852.50
457.46	7932.08
457.64	7901.65
457.83	7915.69
458.01	7962.50
458.19	8067.83
458.38	7964.84
458.56	8219.96
458.74	8021.02
458.93	8126.34
459.11	8093.57
459.29	8149.75
459.48	8180.17
459.66	8109.96
459.84	8294.86
460.03	8271.45
460.21	8383.80
460.39	8301.88
460.57	8383.80
460.76	8334.65
460.94	8493.80
461.12	8587.43
461.31	8308.90
461.49	8320.60
461.67	8479.76
461.85	8549.98
462.04	8505.51
462.22	8968.93
462.40	8720.84
462.59	8711.47
462.77	8472.74
462.95	8779.35
463.13	8652.96
463.32	8767.65
463.50	8908.08
463.68	8786.37
463.86	8922.12
464.05	8709.13
464.23	8933.82
464.41	8865.95
464.59	8828.50
464.78	9018.08
464.96	8879.99
465.14	8805.10
465.32	9104.68
465.50	9032.13
465.69	9242.78
465.87	9125.75
466.05	9011.06
466.23	9078.94
466.41	9137.45
466.60	9039.15
466.78	9114.05
466.96	9135.11
467.14	9254.48
467.32	9298.95
467.51	9462.79
467.69	9165.54
467.87	9165.54
468.05	9455.76
468.23	9284.91
468.41	9411.29
468.60	9404.27
468.78	9392.57
468.96	9371.50
469.14	9486.19
469.32	9659.39
469.50	9317.67
469.69	9549.39
469.87	9706.20
470.05	9741.31
470.23	9687.48
470.41	9633.64
470.59	9874.72
470.77	9783.44
470.95	9942.60
471.14	10033.88
471.32	9729.61
471.50	10148.56
471.68	10083.03
471.86	10090.05
472.04	10106.43
472.22	10324.10
472.40	10237.50
472.58	10328.78
472.77	10483.26
472.95	10504.32
473.13	10691.57
473.31	10520.71
473.49	10370.91
473.67	10300.70
473.85	10661.14
474.03	10832.00
474.21	10691.57
474.39	10890.51
474.57	10972.43
474.75	11136.27
474.93	10888.17
475.12	10953.71
475.30	11044.99
475.48	11124.57
475.66	11325.85
475.84	11248.61
476.02	11403.09
476.20	11447.56
476.38	11712.04
476.56	11929.71
476.74	11786.94
476.92	11616.08
477.10	11487.35
477.28	12006.95
477.46	11747.15
477.64	12112.27
477.82	12339.30
478.00	12491.44
478.18	12404.84
478.36	12451.65
478.54	12587.40
478.72	12629.53
478.90	12814.43
479.08	12601.44
479.26	12947.84
479.44	13015.72
479.62	13221.69
479.80	13357.44
479.98	13195.94
480.16	13455.74
480.34	13336.37
480.52	13593.83
480.70	13462.76
480.88	13425.31
481.06	13738.94
481.24	13687.45
481.41	14059.60
481.59	14104.07
481.77	14221.10
481.95	14352.16
482.13	14359.19
482.31	14445.79
482.49	14682.18
482.67	14724.31
482.85	15019.22
483.03	15222.84
483.21	15129.22
483.39	15513.07
483.57	15396.04
483.74	15126.88
483.92	15494.35
484.10	15517.75
484.28	15964.79
484.46	16283.11
484.64	16306.51
484.82	16156.72
485.00	16318.22
485.18	16482.05
485.35	16423.54
485.53	16650.57
485.71	16561.63
485.89	17179.53
486.07	16903.35
486.25	16772.28
486.43	17104.64
486.61	17626.57
486.78	17476.78
486.96	17729.56
487.14	18001.06
487.32	18160.22
487.50	18068.94
487.68	17860.63
487.85	18391.93
488.03	18544.06
488.21	18953.66
488.39	18490.23
488.57	18951.32
488.75	18902.17
488.92	19112.81
489.10	19571.56
489.28	19414.74
489.46	19599.65
489.64	19527.09
489.81	20137.97
489.99	20020.94
490.17	20046.69
490.35	20191.80
490.53	20285.42
490.70	20287.76
490.88	20589.69
491.06	20842.47
491.24	20940.77
491.41	20938.43
491.59	21212.28
491.77	21135.04
491.95	21390.16
492.13	21598.46
492.30	21486.12
492.48	21862.94
492.66	21923.80
492.84	21825.50
493.01	22230.41
493.19	22045.51
493.37	22352.12
493.54	22387.22
493.72	22714.90
493.90	22569.79
494.08	23028.53
494.25	22834.27
494.43	23323.44
494.61	23269.61
494.79	23421.74
494.96	23517.70
495.14	23529.41
495.32	24187.10
495.49	24018.58
495.67	23985.81
495.85	24128.58
496.02	24402.43
496.20	24484.34
496.38	24271.36
496.55	24444.56
496.73	25179.48
496.91	24865.85
497.09	25364.39
497.26	25102.25
497.44	24987.56
497.62	24973.52
497.79	25848.88
497.97	25635.89
498.14	25881.64
498.32	25965.90
498.50	25790.36
498.67	25963.56
498.85	26267.83
499.03	26078.25
499.20	26309.96
499.38	26747.64
499.56	26738.28
499.73	26630.62
499.91	26904.46
500.08	26824.88
500.26	27110.43
500.44	26904.46
500.61	27194.68
500.79	27442.78
500.97	27484.91
501.14	27733.01
501.32	27421.72
501.49	27686.20
501.67	27517.68
501.84	27700.24
502.02	28386.02
502.20	27969.40
502.37	28386.02
502.55	27850.03
502.72	28259.63
502.90	28367.29
503.07	28362.61
503.25	28730.08
503.43	28226.86
503.60	28697.31
503.78	28959.45
503.95	29001.58
504.13	28580.28
504.30	29184.14
504.48	28840.08
504.65	29373.72
504.83	29525.86
505.01	29851.19
505.18	29277.76
505.36	29930.77
505.53	29766.93
505.71	29780.98
505.88	30122.69
506.06	29928.43
506.23	30668.04
506.41	30225.68
506.58	30150.78
506.76	30204.61
506.93	30532.29
507.11	30583.78
507.28	30333.34
507.46	30883.37
507.63	30988.69
507.81	31197.00
507.98	30696.13
508.16	31182.96
508.33	30761.66
508.50	31367.86
508.68	31573.83
508.85	31585.53
509.03	31281.26
509.20	31290.62
509.38	31922.57
509.55	32048.96
509.73	32254.92
509.90	32474.93
510.08	32400.04
510.25	32072.36
510.42	32308.76
510.60	32393.01
510.77	32575.58
510.95	32786.22
511.12	32723.03
511.30	32903.25
511.47	33193.48
511.64	33134.96
511.82	33668.61
511.99	33090.49
512.17	33156.03
512.34	33509.45
512.51	33490.73
512.69	33195.82
512.86	34110.97
513.04	33706.05
513.21	33696.69
513.38	34017.35
513.56	34005.64
513.73	33799.68
513.90	34494.82
514.08	34143.74
514.25	34450.35
514.43	34675.04
514.60	34712.49
514.77	34408.22
514.95	34625.89
515.12	34550.99
515.29	34857.60
515.47	35065.91
515.64	35550.40
515.81	34761.64
515.99	35014.41
516.16	35321.02
516.33	35065.91
516.51	35409.96
516.68	35620.61
516.85	35440.39
517.03	35438.05
517.20	35714.23
517.37	35906.16
517.54	35779.77
517.72	35714.23
517.89	35765.73
518.06	36172.98
518.24	36229.15
518.41	35866.37
518.58	35871.05
518.75	36107.44
518.93	36287.67
519.10	35938.93
519.27	36451.50
519.45	36495.97
519.62	36816.63
519.79	36858.76
519.96	36767.48
520.14	36790.88
520.31	36378.95
520.48	36851.73
520.65	37031.96
520.83	37483.68
521.00	37469.64
521.17	37294.10
521.34	37310.48
521.52	37324.52
521.69	37017.91
521.86	37483.68
522.03	37596.03
522.20	37972.85
522.38	38361.38
522.55	38148.39
522.72	38117.96
522.89	38220.95
523.07	38122.65
523.24	38476.07
523.41	38483.09
523.58	38309.89
523.75	38508.83
523.92	38611.82
524.10	38806.08
524.27	38831.83
524.44	39131.42
524.61	38927.79
524.78	38880.98
524.96	39023.75
525.13	39241.42
525.30	39318.66
525.47	39470.79
525.64	39360.79
525.81	39438.03
525.98	38967.58
526.16	38920.77
526.33	39552.71
526.50	40025.50
526.67	39833.58
526.84	39662.72
527.01	39681.44
527.18	39901.45
527.36	39892.09
527.53	40084.01
527.70	40032.52
527.87	40151.89
528.04	40144.87
528.21	40357.86
528.38	40030.18
528.55	40275.94
528.72	40577.87
528.89	40451.48
529.07	40119.12
529.24	40882.14
529.41	41282.37
529.58	40755.75
529.75	40568.51
529.92	40940.65
530.09	40208.06
530.26	40753.41
530.43	40954.69
530.60	40662.13
530.77	40942.99
530.94	41235.56
531.11	41439.18
531.28	40898.52
531.46	41343.22
531.63	41186.41
531.80	40865.75
531.97	41315.14
532.14	41607.70
532.31	41446.21
532.48	41965.81
532.65	41975.17
532.82	41291.73
532.99	41780.90
533.16	41579.62
533.33	41780.90
533.50	42363.70
533.67	41888.57
533.84	41867.50
534.01	42342.63
534.18	42155.39
534.35	42597.75
534.52	42026.66
534.69	42607.11
534.86	42340.29
535.03	42326.25
535.20	42450.30
535.37	42326.25
535.54	43007.34
535.71	42672.65
535.88	43058.84
536.05	42824.78
536.22	42829.46
536.38	43150.12
536.55	43447.36
536.72	43243.74
536.89	42937.13
537.06	43325.66
537.23	43749.29
537.40	43220.33
537.57	43320.98
537.74	43187.56
537.91	43599.50
538.08	43377.15
538.25	43239.06
538.42	43559.71
538.59	44147.18
538.75	43585.46
538.92	43978.67
539.09	44039.52
539.26	43590.14
539.43	43688.44
539.60	43695.46
539.77	43636.95
539.94	44051.22
540.11	44367.20
540.28	44467.84
540.44	44624.65
540.61	44327.41
540.78	44472.52
540.95	44444.43
541.12	44575.50
541.29	44378.90
541.46	45184.04
541.62	44884.45
541.79	44879.77
541.96	44622.31
542.13	44832.96
542.30	44488.90
542.47	44678.49
542.63	44545.08
542.80	45546.82
542.97	45567.89
543.14	45834.71
543.31	45457.88
543.48	45652.15
543.64	45961.10
543.81	45729.39
543.98	45497.67
544.15	45750.45
544.32	45682.58
544.48	46256.01
544.65	45483.63
544.82	45720.02
544.99	45607.68
545.16	46096.85
545.32	45766.84
545.49	46300.48
545.66	46195.15
545.83	47019.02
546.00	46953.49
546.16	46513.47
546.33	46721.77
546.50	46344.95
546.67	46553.26
546.83	46054.72
547.00	46248.99
547.17	46038.34
547.34	46370.69
547.50	46178.77
547.67	46813.05
547.84	47012.00
548.00	46852.84
548.17	46976.89
548.34	46646.88
548.51	46567.30
548.67	46969.87
548.84	46887.95
549.01	46342.61
549.18	46616.45
549.34	46810.71
549.51	47004.98
549.68	46986.25
549.84	47035.41
550.01	47255.42
550.18	46663.26
550.34	46557.94
550.51	46656.24
550.68	47185.20
550.84	46894.97
551.01	47388.83
551.18	47304.57
551.34	47196.90
551.51	46871.57
551.68	47278.82
551.84	47040.09
552.01	47377.12
552.18	47082.22
552.34	47093.92
552.51	47466.06
552.68	47681.39
552.84	48074.60
553.01	48137.80
553.18	47599.47
553.34	47863.96
553.51	47468.40
553.67	47920.13
553.84	47997.37
554.01	48177.59
554.17	47983.32
554.34	47927.15
554.51	48034.81
554.67	48179.93
554.84	47789.06
555.00	47611.18
555.17	47498.83
555.33	48018.43
555.50	47737.57
555.67	48144.82
555.83	48133.12
556.00	48311.00
556.16	48105.03
556.33	48463.13
556.50	48058.22
556.66	47817.14
556.83	47903.74
556.99	48039.50
557.16	48428.02
557.32	48170.57
557.49	48891.45
557.65	48090.99
557.82	48348.45
557.98	48388.24
558.15	47990.34
558.32	48315.68
558.48	48229.08
558.65	48736.98
558.81	48477.18
558.98	48378.87
559.14	48736.98
559.31	48687.82
559.47	48392.92
559.64	48584.84
559.80	48793.15
559.97	49368.92
560.13	48839.96
560.30	48732.29
560.46	48926.56
560.63	49048.27
560.79	48786.13
560.96	49097.42
561.12	49102.10
561.29	49001.46
561.45	48961.67
561.61	48870.39
561.78	49207.42
561.94	49237.85
562.11	49242.53
562.27	49514.03
562.44	49565.52
562.60	49366.58
562.77	49076.35
562.93	48987.41
563.10	49544.46
563.26	48933.58
563.42	49614.68
563.59	49532.76
563.75	49834.69
563.92	49846.39
564.08	49214.44
564.24	49441.48
564.41	49244.87
564.57	49408.71
564.74	49097.42
564.90	49663.83
565.07	49418.07
565.23	49577.23
565.39	49542.12
565.56	49844.05
565.72	49406.37
565.88	49647.44
566.05	49373.60
566.21	49354.88
566.38	49291.68
566.54	49532.76
566.70	49792.56
566.87	49890.86
567.03	49708.30
567.19	50134.28
567.36	49968.10
567.52	49822.98
567.68	49638.08
567.85	49177.00
568.01	49715.32
568.17	49790.22
568.34	49727.02
568.50	49712.98
568.66	49645.10
568.83	50035.97
568.99	49745.75
569.15	49694.25
569.32	49750.43
569.48	49830.01
569.64	49605.31
569.81	49602.97
569.97	49429.77
570.13	50007.89
570.30	49659.15
570.46	50045.33
570.62	50117.89
570.78	49401.69
570.95	49542.12
571.11	49808.94
571.27	49958.73
571.43	49748.09
571.60	49734.04
571.76	49972.78
571.92	49984.48
572.09	50045.33
572.25	50218.53
572.41	50019.59
572.57	49963.42
572.74	50174.06
572.90	49769.15
573.06	50218.53
573.22	49890.86
573.38	49958.73
573.55	50129.59
573.71	50342.58
573.87	50185.77
574.03	50164.70
574.20	50171.72
574.36	49862.77
574.52	50017.25
574.68	49895.54
574.84	50302.79
575.01	50117.89
575.17	50405.78
575.33	50260.66
575.49	50028.95
575.65	50490.04
575.82	50319.18
575.98	50120.23
576.14	50440.89
576.30	50424.50
576.46	50255.98
576.62	50101.51
576.79	50150.66
576.95	50188.11
577.11	50410.46
577.27	50284.07
577.43	50642.17
577.59	50527.48
577.75	50756.86
577.92	50244.28
578.08	50281.73
578.24	50328.54
578.40	50459.61
578.56	50602.38
578.72	50293.43
578.88	50777.92
579.04	50468.97
579.21	50251.30
579.37	50639.83
579.53	50387.05
579.69	50445.57
579.85	50335.56
580.01	50230.24
580.17	50389.39
580.33	50677.28
580.49	50342.58
580.65	50735.79
580.82	50223.22
580.98	50513.44
581.14	50211.51
581.30	50501.74
581.46	50672.60
581.62	50373.01
581.78	50387.05
581.94	50494.72
582.10	49944.69
582.26	50733.45
582.42	50160.02
582.58	50031.29
582.74	50485.36
582.90	50518.12
583.06	50415.14
583.22	50120.23
583.38	50581.32
583.54	50169.38
583.70	50527.48
583.86	50742.81
584.02	50541.53
584.18	50768.56
584.34	50466.63
584.50	50658.56
584.66	50525.14
584.82	50267.69
584.98	50815.37
585.14	50445.57
585.30	50534.51
585.46	50822.39
585.62	50468.97
585.78	50953.46
585.94	50768.56
586.10	50607.06
586.26	51131.34
586.42	50993.25
586.58	50787.28
586.74	50691.32
586.90	50667.92
587.06	50478.33
587.22	50745.15
587.38	50731.11
587.54	51009.64
587.70	51231.99
587.86	51051.76
588.02	51084.53
588.18	50738.13
588.34	50967.51
588.49	50939.42
588.65	50321.52
588.81	50927.72
588.97	50843.46
