SpectraSuite Data File
++++++++++++++++++++++++++++++++++++
Date: Thu Oct 24 13:21:08 EDT 2013
User: stostad
Dark Spectrum Present: No
Reference Spectrum Present: No
Number of Sampled Component Spectra: 1
Spectrometers: USB2+H05261
Integration Time (usec): 100000 (USB2+H05261)
Spectra Averaged: 1 (USB2+H05261)
Boxcar Smoothing: 0 (USB2+H05261)
Correct for Electrical Dark: No (USB2+H05261)
Strobe/Lamp Enabled: No (USB2+H05261)
Correct for Detector Non-linearity: No (USB2+H05261)
Correct for Stray Light: No (USB2+H05261)
Number of Pixels in Processed Spectrum: 2048
>>>>>Begin Processed Spectral Data<<<<<
365.73	519.60
365.92	519.60
366.12	519.60
366.32	463.43
366.52	468.11
366.72	468.11
366.91	491.51
367.11	477.47
367.31	461.09
367.51	447.04
367.70	470.45
367.90	425.98
368.10	479.81
368.30	486.83
368.49	463.43
368.69	442.36
368.89	433.00
369.09	573.43
369.28	484.49
369.48	519.60
369.68	440.02
369.87	496.19
370.07	503.22
370.27	486.83
370.47	624.92
370.66	645.99
370.86	711.52
371.06	695.14
371.25	718.54
371.45	711.52
371.65	767.70
371.84	692.80
372.04	725.57
372.24	681.10
372.44	638.97
372.63	781.74
372.83	744.29
373.03	699.82
373.22	807.48
373.42	737.27
373.62	720.88
373.81	767.70
374.01	781.74
374.21	753.65
374.40	791.10
374.60	805.14
374.79	833.23
374.99	777.06
375.19	830.89
375.38	880.04
375.58	835.57
375.78	781.74
375.97	781.74
376.17	884.72
376.37	821.53
376.56	795.78
376.76	774.72
376.95	791.10
377.15	870.68
377.35	763.01
377.54	823.87
377.74	901.11
377.93	830.89
378.13	842.59
378.33	842.59
378.52	847.27
378.72	774.72
378.91	823.87
379.11	849.61
379.31	858.98
379.50	779.40
379.70	840.25
379.89	861.32
380.09	793.44
380.28	847.27
380.48	915.15
380.68	847.27
380.87	814.51
381.07	898.77
381.26	884.72
381.46	889.40
381.65	880.04
381.85	812.17
382.04	901.11
382.24	901.11
382.43	844.93
382.63	880.04
382.83	908.13
383.02	814.51
383.22	929.19
383.41	877.70
383.61	931.53
383.80	959.62
384.00	882.38
384.19	896.43
384.39	823.87
384.58	894.08
384.78	889.40
384.97	919.83
385.17	823.87
385.36	912.81
385.56	952.60
385.75	889.40
385.95	950.26
386.14	945.58
386.34	931.53
386.53	870.68
386.72	882.38
386.92	910.47
387.11	880.04
387.31	938.55
387.50	882.38
387.70	931.53
387.89	873.02
388.09	898.77
388.28	922.17
388.48	990.05
388.67	971.32
388.86	966.64
389.06	952.60
389.25	1100.05
389.45	985.37
389.64	931.53
389.84	954.94
390.03	926.85
390.22	959.62
390.42	971.32
390.61	938.55
390.81	976.00
391.00	938.55
391.19	1022.81
391.39	912.81
391.58	959.62
391.78	1001.75
391.97	1001.75
392.16	1055.58
392.36	1100.05
392.55	997.07
392.75	1011.11
392.94	1036.86
393.13	1055.58
393.33	1071.97
393.52	990.05
393.71	1041.54
393.91	1041.54
394.10	1125.80
394.29	1090.69
394.49	1102.39
394.68	1109.41
394.88	1064.94
395.07	992.39
395.26	1008.77
395.46	1071.97
395.65	1022.81
395.84	1071.97
396.04	1132.82
396.23	1121.12
396.42	1142.18
396.62	1132.82
396.81	1170.27
397.00	1193.67
397.19	1146.86
397.39	1097.71
397.58	1142.18
397.77	1198.35
397.97	1188.99
398.16	1163.25
398.35	1132.82
398.55	1174.95
398.74	1135.16
398.93	1184.31
399.12	1043.88
399.32	1179.63
399.51	1219.42
399.70	1142.18
399.90	1156.22
400.09	1231.12
400.28	1284.95
400.47	1200.69
400.67	1289.64
400.86	1203.04
401.05	1259.21
401.24	1301.34
401.44	1226.44
401.63	1301.34
401.82	1259.21
402.01	1287.29
402.21	1240.48
402.40	1289.64
402.59	1341.13
402.78	1263.89
402.97	1249.85
403.17	1287.29
403.36	1338.79
403.55	1366.87
403.74	1369.21
403.93	1329.42
404.13	1469.86
404.32	1343.47
404.51	1378.58
404.70	1444.11
404.89	1357.51
405.09	1497.94
405.28	1397.30
405.47	1380.92
405.66	1385.60
405.85	1455.81
406.05	1430.07
406.24	1441.77
406.43	1493.26
406.62	1437.09
406.81	1493.26
407.00	1401.98
407.20	1385.60
407.39	1385.60
407.58	1441.77
407.77	1511.99
407.96	1500.28
408.15	1497.94
408.34	1413.68
408.54	1516.67
408.73	1448.79
408.92	1493.26
409.11	1500.28
409.30	1490.92
409.49	1605.61
409.68	1603.27
409.87	1526.03
410.07	1551.78
410.26	1603.27
410.45	1619.65
410.64	1544.75
410.83	1561.14
411.02	1647.74
411.21	1617.31
411.40	1617.31
411.59	1776.47
411.78	1720.29
411.98	1734.34
412.17	1650.08
412.36	1722.63
412.55	1720.29
412.74	1717.95
412.93	1769.44
413.12	1715.61
413.31	1837.32
413.50	1790.51
413.69	1802.21
413.88	1818.60
414.07	1776.47
414.26	1785.83
414.45	1839.66
414.64	1802.21
414.83	1844.34
415.02	1872.43
415.22	1977.75
415.41	1980.09
415.60	1837.32
415.79	1961.37
415.98	1930.94
416.17	1865.41
416.36	2003.50
416.55	1900.52
416.74	1909.88
416.93	1961.37
417.12	2087.76
417.31	2003.50
417.50	1998.82
417.69	2045.63
417.88	2043.29
418.07	2106.48
418.26	1956.69
418.45	2118.18
418.64	2066.69
418.83	2036.27
419.02	2118.18
419.21	2125.21
419.39	2108.82
419.58	2221.17
419.77	2120.53
419.96	2188.40
420.15	2186.06
420.34	2200.10
420.53	2172.02
420.72	2263.30
420.91	2232.87
421.10	2237.55
421.29	2190.74
421.48	2228.19
421.67	2282.02
421.86	2207.13
422.05	2221.17
422.24	2167.34
422.43	2251.60
422.61	2284.36
422.80	2338.20
422.99	2319.47
423.18	2375.64
423.37	2237.55
423.56	2312.45
423.75	2335.85
423.94	2291.38
424.13	2200.10
424.32	2209.47
424.50	2289.04
424.69	2312.45
424.88	2228.19
425.07	2225.85
425.26	2284.36
425.45	2310.11
425.64	2216.49
425.83	2324.15
426.01	2331.17
426.20	2251.60
426.39	2434.16
426.58	2441.18
426.77	2389.69
426.96	2331.17
427.15	2272.66
427.33	2396.71
427.52	2349.90
427.71	2331.17
427.90	2333.51
428.09	2380.32
428.28	2487.99
428.46	2480.97
428.65	2448.20
428.84	2457.56
429.03	2523.10
429.22	2455.22
429.40	2385.01
429.59	2541.82
429.78	2452.88
429.97	2464.58
430.16	2417.77
430.34	2497.35
430.53	2558.21
430.72	2546.50
430.91	2520.76
431.10	2558.21
431.28	2562.89
431.47	2586.29
431.66	2586.29
431.85	2473.95
432.03	2590.97
432.22	2719.70
432.41	2619.06
432.60	2630.76
432.79	2616.72
432.97	2609.70
433.16	2630.76
433.35	2780.56
433.54	2635.44
433.72	2675.23
433.91	2738.43
434.10	2780.56
434.28	2738.43
434.47	2836.73
434.66	2810.98
434.85	2780.56
435.03	2932.69
435.22	3126.96
435.41	3325.90
435.59	3077.80
435.78	2993.55
435.97	3070.78
436.16	2869.50
436.34	2848.43
436.53	2888.22
436.72	2932.69
436.90	2672.89
437.09	2794.60
437.28	2789.92
437.46	2782.90
437.65	2794.60
437.84	2939.71
438.02	2995.89
438.21	2951.42
438.40	2871.84
438.58	3049.72
438.77	3080.14
438.96	3073.12
439.14	3152.70
439.33	3038.02
439.52	2970.14
439.70	3110.57
439.89	3148.02
440.08	3150.36
440.26	3124.62
440.45	3138.66
440.63	3117.59
440.82	3253.34
441.01	3176.11
441.19	3339.94
441.38	3187.81
441.57	3239.30
441.75	3255.69
441.94	3323.56
442.12	3337.60
442.31	3438.25
442.50	3279.09
442.68	3342.28
442.87	3405.48
443.05	3288.45
443.24	3452.29
443.43	3414.84
443.61	3304.84
443.80	3485.06
443.98	3461.65
444.17	3309.52
444.35	3304.84
444.54	3463.99
444.73	3459.31
444.91	3492.08
445.10	3454.63
445.28	3412.50
445.47	3426.54
445.65	3407.82
445.84	3403.14
446.02	3513.14
446.21	3552.93
446.39	3414.84
446.58	3421.86
446.77	3529.53
446.95	3412.50
447.14	3487.40
447.32	3494.42
447.51	3485.06
447.69	3482.72
447.88	3515.48
448.06	3454.63
448.25	3527.19
448.43	3569.32
448.62	3520.17
448.80	3412.50
448.99	3688.68
449.17	3583.36
449.36	3665.28
449.54	3557.61
449.73	3599.74
449.91	3679.32
450.10	3693.37
450.28	3641.87
450.46	3669.96
450.65	3749.54
450.83	3616.13
451.02	3499.10
451.20	3698.05
451.39	3733.15
451.57	3676.98
451.76	3674.64
451.94	3763.58
452.13	3798.69
452.31	3733.15
452.49	3737.84
452.68	3758.90
452.86	3789.33
453.05	3843.16
453.23	3943.80
453.42	3880.61
453.60	3871.25
453.78	3805.71
453.97	3761.24
454.15	3941.46
454.34	3925.08
454.52	3808.05
454.70	3885.29
454.89	3875.93
455.07	3871.25
455.26	4023.38
455.44	4109.98
455.62	4035.08
455.81	4016.36
455.99	3939.12
456.17	3953.16
456.36	4081.89
456.54	4112.32
456.73	4140.41
456.91	4063.17
457.09	4093.60
457.28	4318.29
457.46	4117.00
457.64	4318.29
457.83	4255.09
458.01	4212.96
458.19	4372.12
458.38	4348.72
458.56	4257.43
458.74	4208.28
458.93	4346.37
459.11	4175.52
459.29	4322.97
459.48	4250.41
459.66	4294.88
459.84	4292.54
460.03	4430.63
460.21	4388.50
460.39	4285.52
460.57	4414.25
460.76	4390.84
460.94	4421.27
461.12	4379.14
461.31	4430.63
461.49	4390.84
461.67	4470.42
461.85	4456.38
462.04	4503.19
462.22	4870.65
462.40	4599.15
462.59	4547.66
462.77	4470.42
462.95	4491.49
463.13	4479.79
463.32	4561.70
463.50	4629.58
463.68	4585.11
463.86	4622.56
464.05	4482.13
464.23	4517.23
464.41	4568.73
464.59	4709.16
464.78	4784.06
464.96	4669.37
465.14	4603.83
465.32	4657.67
465.50	4589.79
465.69	4753.63
465.87	4702.14
466.05	4660.01
466.23	4681.07
466.41	4779.37
466.60	4877.68
466.78	4734.90
466.96	4573.41
467.14	4858.95
467.32	4744.27
467.51	5085.98
467.69	4746.61
467.87	4908.10
468.05	4929.17
468.23	4781.71
468.41	4770.01
468.60	4950.23
468.78	4842.57
468.96	4844.91
469.14	4966.62
469.32	5069.60
469.50	4765.33
469.69	4926.83
469.87	5008.75
470.05	4877.68
470.23	5057.90
470.41	5018.11
470.59	4985.34
470.77	4961.94
470.95	5071.94
471.14	5254.50
471.32	5095.35
471.50	5111.73
471.68	5076.62
471.86	5252.16
472.04	5160.88
472.22	5301.31
472.40	5107.05
472.58	5200.67
472.77	5355.15
472.95	5394.93
473.13	5528.35
473.31	5425.36
473.49	5289.61
473.67	5357.49
473.85	5504.94
474.03	5636.01
474.21	5507.28
474.39	5731.97
474.57	5624.31
474.75	5657.07
474.93	5584.52
475.12	5551.75
475.30	5706.23
475.48	5619.63
475.66	5664.10
475.84	5668.78
476.02	5823.25
476.20	5715.59
476.38	5846.66
476.56	5970.71
476.74	5902.83
476.92	6015.18
477.10	5877.09
477.28	6076.03
477.46	6155.61
477.64	6012.84
477.82	6090.07
478.00	6300.72
478.18	6298.38
478.36	6331.15
478.54	6466.90
478.72	6223.48
478.90	6366.26
479.08	6553.50
479.26	6504.35
479.44	6555.84
479.62	6654.14
479.80	6864.79
479.98	6715.00
480.16	6848.41
480.34	6888.20
480.52	6759.47
480.70	6839.05
480.88	6806.28
481.06	6965.43
481.24	6862.45
481.41	6949.05
481.59	6965.43
481.77	7091.82
481.95	7314.17
482.13	7222.89
482.31	7337.58
482.49	7325.88
482.67	7407.80
482.85	7236.94
483.03	7424.18
483.21	7613.76
483.39	7581.00
483.57	7665.25
483.74	7470.99
483.92	7754.19
484.10	7653.55
484.28	7847.82
484.46	8009.31
484.64	8180.17
484.82	8128.68
485.00	8067.83
485.18	8294.86
485.35	8301.88
485.53	8287.84
485.71	8334.65
485.89	8552.32
486.07	8421.25
486.25	8465.72
486.43	8430.61
486.61	8603.81
486.78	8772.33
486.96	8755.94
487.14	8844.88
487.32	9013.40
487.50	8980.64
487.68	9020.42
487.85	9142.13
488.03	9188.94
488.21	9130.43
488.39	9338.74
488.57	9205.33
488.75	9411.29
488.92	9415.98
489.10	9455.76
489.28	9565.77
489.46	9771.74
489.64	9509.60
489.81	9858.34
489.99	9731.95
490.17	9694.50
490.35	9980.04
490.53	10188.35
490.70	9984.73
490.88	10197.71
491.06	10242.18
491.24	10314.74
491.41	10303.04
491.59	10207.08
491.77	10239.84
491.95	10567.52
492.13	10429.43
492.30	10485.60
492.48	10663.48
492.66	10511.35
492.84	10647.10
493.01	10806.25
493.19	10539.43
493.37	10867.11
493.54	10965.41
493.72	10951.37
493.90	10958.39
494.08	11101.16
494.25	11337.56
494.43	11073.07
494.61	11115.20
494.79	11410.11
494.96	11541.18
495.14	11487.35
495.32	11571.61
495.49	11611.40
495.67	11405.43
495.85	11740.13
496.02	11578.63
496.20	11871.20
496.38	11822.05
496.55	11960.14
496.73	12411.86
496.91	12140.36
497.09	12203.55
497.26	12376.75
497.44	12203.55
497.62	12222.28
497.79	12273.77
497.97	12386.12
498.14	12479.74
498.32	12446.97
498.50	12453.99
498.67	12547.61
498.85	12535.91
499.03	12758.26
499.20	12662.30
499.38	12535.91
499.56	12571.02
499.73	12915.08
499.91	12931.46
500.08	12929.12
500.26	12657.62
500.44	12940.82
500.61	13139.77
500.79	12800.39
500.97	13486.17
501.14	13364.46
501.32	13060.19
501.49	13355.10
501.67	13448.72
501.84	13408.93
502.02	13455.74
502.20	13516.59
502.37	13521.27
502.55	13453.40
502.72	13415.95
502.90	13577.45
503.07	13832.57
503.25	13612.56
503.43	13884.06
503.60	13853.63
503.78	13893.42
503.95	13907.46
504.13	13467.44
504.30	14003.43
504.48	13802.14
504.65	14139.18
504.83	13832.57
505.01	14235.14
505.18	14094.71
505.36	14312.38
505.53	14305.35
505.71	14281.95
505.88	14347.48
506.06	14347.48
506.23	14277.27
506.41	14368.55
506.58	14588.56
506.76	14443.45
506.93	14511.32
507.11	14626.01
507.28	14813.25
507.46	14827.29
507.63	14944.32
507.81	14979.43
507.98	14555.79
508.16	14656.43
508.33	14958.36
508.50	15080.07
508.68	15260.29
508.85	15047.30
509.03	15463.92
509.20	15250.93
509.38	15021.56
509.55	15089.43
509.73	15363.28
509.90	15522.43
510.08	15243.91
510.25	15557.54
510.42	15194.76
510.60	15454.56
510.77	15524.77
510.95	15440.51
511.12	15559.88
511.30	15606.69
511.47	15917.98
511.64	15782.23
511.82	15812.66
511.99	15892.24
512.17	15880.53
512.34	15733.08
512.51	15950.75
512.69	16297.15
512.86	15981.18
513.04	16212.89
513.21	16243.32
513.38	16091.18
513.56	16145.02
513.73	15948.41
513.90	16339.28
514.08	16226.93
514.25	16369.71
514.43	16545.25
514.60	16456.31
514.77	16610.78
514.95	16533.54
515.12	16484.39
515.29	16636.53
515.47	16851.86
515.64	16819.09
515.81	16610.78
515.99	16910.37
516.16	16585.04
516.33	16980.59
516.51	16973.56
516.68	17060.16
516.85	17142.08
517.03	17114.00
517.20	16987.61
517.37	16840.15
517.54	17266.13
517.72	17209.96
517.89	16720.79
518.06	17191.23
518.24	17198.26
518.41	17041.44
518.58	17231.02
518.75	16999.31
518.93	17563.38
519.10	17139.74
519.27	17467.42
519.45	17188.89
519.62	17371.46
519.79	17326.99
519.96	17261.45
520.14	17495.50
520.31	17373.80
520.48	17436.99
520.65	17387.84
520.83	17935.53
521.00	17898.08
521.17	17884.03
521.34	17680.41
521.52	17664.02
521.69	17621.89
521.86	17671.04
522.03	17989.36
522.20	17877.01
522.38	18396.61
522.55	18214.05
522.72	17898.08
522.89	17944.89
523.07	18230.43
523.24	18090.00
523.41	18148.51
523.58	18216.39
523.75	18356.82
523.92	18387.25
524.10	18169.58
524.27	18384.91
524.44	18530.02
524.61	18464.49
524.78	18574.49
524.96	18511.30
525.13	18539.38
525.30	18944.30
525.47	18574.49
525.64	18665.77
525.81	18794.50
525.98	18698.54
526.16	18768.76
526.33	18787.48
526.50	18895.14
526.67	19133.88
526.84	19159.63
527.01	18801.52
527.18	19166.65
527.36	18867.06
527.53	18899.83
527.70	19117.50
527.87	18785.14
528.04	19164.31
528.21	19454.53
528.38	19145.58
528.55	19236.86
528.72	18937.27
528.89	19309.42
529.07	19267.29
529.24	19047.28
529.41	19353.89
529.58	19330.48
529.75	19344.53
529.92	19852.42
530.09	19482.62
530.26	19400.70
530.43	19487.30
530.60	19353.89
530.77	19344.53
530.94	19716.67
531.11	19723.69
531.28	19389.00
531.46	19637.09
531.63	19829.02
531.80	19183.03
531.97	19697.95
532.14	19618.37
532.31	20170.74
532.48	19967.11
532.65	19866.47
532.82	19742.42
532.99	19812.63
533.16	19847.74
533.33	19964.77
533.50	19906.26
533.67	19683.91
533.84	20039.67
534.01	20121.59
534.18	20037.33
534.35	20109.88
534.52	20250.32
534.69	20133.29
534.86	19948.39
535.03	19967.11
535.20	20334.57
535.37	20187.12
535.54	20549.90
535.71	20269.04
535.88	20367.34
536.05	20741.83
536.22	20313.51
536.38	20365.00
536.55	20451.60
536.72	20830.77
536.89	20496.07
537.06	20739.49
537.23	20884.60
537.40	20379.04
537.57	20716.08
537.74	20720.76
537.91	20528.84
538.08	20587.35
538.25	20734.81
538.42	20475.01
538.59	20760.55
538.75	20865.88
538.92	20966.52
539.09	20765.23
539.26	21095.25
539.43	20809.70
539.60	20781.62
539.77	20652.89
539.94	21226.32
540.11	21165.46
540.28	21076.52
540.44	20985.24
540.61	21266.11
540.78	20968.86
540.95	21142.06
541.12	21387.82
541.29	21565.70
541.46	21504.84
541.62	21654.64
541.79	21940.18
541.96	21640.59
542.13	21774.00
542.30	21872.31
542.47	21776.34
542.63	22045.51
542.80	21750.60
542.97	21991.67
543.14	21851.24
543.31	22312.33
543.48	22118.06
543.64	22188.28
543.81	22160.19
543.98	21968.27
544.15	22118.06
544.32	22223.39
544.48	22560.42
544.65	22047.85
544.82	22162.53
544.99	21837.20
545.16	22092.32
545.32	22164.87
545.49	22827.24
545.66	23061.30
545.83	23178.33
546.00	23243.86
546.16	22480.85
546.33	22417.65
546.50	22270.20
546.67	22487.87
546.83	22174.24
547.00	22141.47
547.17	21996.35
547.34	22174.24
547.50	22263.18
547.67	22260.84
547.84	22300.62
548.00	22640.00
548.17	22764.05
548.34	22085.30
548.51	22665.75
548.67	22401.27
548.84	22415.31
549.01	22527.66
549.18	22466.80
549.34	22251.47
549.51	22452.76
549.68	22291.26
549.84	22305.31
550.01	22319.35
550.18	22747.67
550.34	22197.64
550.51	22394.25
550.68	22640.00
550.84	22295.94
551.01	22544.04
551.18	22408.29
551.34	22277.22
551.51	22427.01
551.68	22581.49
551.84	22253.81
552.01	22373.18
552.18	22771.07
552.34	22525.32
552.51	22876.40
552.68	22391.91
552.84	22719.58
553.01	22867.03
553.18	22841.29
553.34	23012.15
553.51	22450.42
553.67	22565.10
553.84	22754.69
554.01	22864.69
554.17	22845.97
554.34	22792.14
554.51	22696.17
554.67	22728.94
554.84	22820.22
555.00	22647.02
555.17	22504.25
555.33	22686.81
555.50	22768.73
555.67	22717.24
555.83	22934.91
556.00	23145.56
556.16	23147.90
556.33	22965.34
556.50	22883.42
556.66	22876.40
556.83	22745.33
556.99	22881.08
557.16	23061.30
557.32	22993.42
557.49	23030.87
557.65	23082.36
557.82	23056.62
557.98	22731.28
558.15	22925.55
558.32	22822.56
558.48	22670.43
558.65	22953.63
558.81	23222.80
558.98	23087.04
559.14	23180.67
559.31	22817.88
559.47	23110.45
559.64	23234.50
559.80	23126.83
559.97	23129.17
560.13	23271.95
560.30	22852.99
560.46	22986.40
560.63	23414.72
560.79	23185.35
560.96	23311.74
561.12	23044.91
561.29	23262.58
561.45	23506.00
561.61	23274.29
561.78	23241.52
561.94	23316.42
562.11	23503.66
562.27	23716.65
562.44	23417.06
562.60	23318.76
562.77	23208.75
562.93	23304.71
563.10	23597.28
563.26	23351.52
563.42	23412.38
563.59	23475.57
563.75	23454.51
563.92	23630.05
564.08	23775.16
564.24	23915.59
564.41	23290.67
564.57	23599.62
564.74	23208.75
564.90	23534.09
565.07	23765.80
565.23	23798.57
565.39	23536.43
565.56	23714.31
565.72	23381.95
565.88	23772.82
566.05	23304.71
566.21	23285.99
566.38	23484.94
566.54	23250.88
566.70	23857.08
566.87	23625.37
567.03	23452.17
567.19	23527.06
567.36	23885.17
567.52	23814.95
567.68	23737.71
567.85	23386.63
568.01	23885.17
568.17	23763.46
568.34	23770.48
568.50	23887.51
568.66	23847.72
568.83	23964.75
568.99	23950.70
569.15	23578.56
569.32	23686.22
569.48	23534.09
569.64	23817.29
569.81	23892.19
569.97	23810.27
570.13	23733.03
570.30	23667.50
570.46	23775.16
570.62	23501.32
570.78	23674.52
570.95	23679.20
571.11	23990.49
571.27	23669.84
571.43	23681.54
571.60	23686.22
571.76	23489.62
571.92	23721.33
572.09	23683.88
572.25	23718.99
572.41	23983.47
572.57	24140.29
572.74	23924.96
572.90	23536.43
573.06	23995.17
573.22	23857.08
573.38	24098.16
573.55	23623.03
573.71	23967.09
573.87	23861.76
574.03	23775.16
574.20	23662.82
574.36	23737.71
574.52	23620.69
574.68	23908.57
574.84	23833.68
575.01	23854.74
575.17	23953.04
575.33	23845.38
575.49	23620.69
575.65	24093.47
575.82	24053.69
575.98	23779.84
576.14	24254.97
576.30	23941.34
576.46	24116.88
576.62	23791.55
576.79	24311.14
576.95	23913.25
577.11	23770.48
577.27	24053.69
577.43	24072.41
577.59	24114.54
577.75	23812.61
577.92	23791.55
578.08	24095.82
578.24	24107.52
578.40	24233.91
578.56	24013.90
578.72	24360.30
578.88	24697.33
579.04	24261.99
579.21	24177.73
579.37	24407.11
579.53	23976.45
579.69	24233.91
579.85	24060.71
580.01	23777.50
580.17	24023.26
580.33	23889.85
580.49	24081.77
580.65	24163.69
580.82	24208.16
580.98	24149.65
581.14	23927.30
581.30	24430.51
581.46	23866.44
581.62	24151.99
581.78	23936.66
581.94	24013.90
582.10	24130.92
582.26	24383.70
582.42	24243.27
582.58	23723.67
582.74	24372.00
582.90	24404.77
583.06	24217.52
583.22	24032.62
583.38	24238.59
583.54	24095.82
583.70	23953.04
583.86	24180.07
584.02	23779.84
584.18	24287.74
584.34	23971.77
584.50	24222.20
584.66	24250.29
584.82	23981.13
584.98	24123.90
585.14	23920.28
585.30	23978.79
585.46	24163.69
585.62	23821.97
585.78	24119.22
585.94	24383.70
586.10	24287.74
586.26	24067.73
586.42	24166.03
586.58	24144.97
586.74	23931.98
586.90	23946.02
587.06	24084.11
587.22	24404.77
587.38	24505.41
587.54	24257.31
587.70	24386.04
587.86	24547.54
588.02	24437.53
588.18	24023.26
588.34	24470.30
588.49	24390.72
588.65	24498.39
588.81	23882.83
588.97	24353.27
589.13	24372.00
589.29	24236.25
589.45	24400.08
589.61	24002.19
589.77	24545.20
589.93	24425.83
590.08	24608.39
590.24	24372.00
590.40	24329.87
590.56	24435.19
590.72	24142.63
590.88	23943.68
