SpectraSuite Data File
++++++++++++++++++++++++++++++++++++
Date: Thu Oct 24 13:21:01 EDT 2013
User: stostad
Dark Spectrum Present: No
Reference Spectrum Present: No
Number of Sampled Component Spectra: 1
Spectrometers: USB2+H05261
Integration Time (usec): 100000 (USB2+H05261)
Spectra Averaged: 1 (USB2+H05261)
Boxcar Smoothing: 0 (USB2+H05261)
Correct for Electrical Dark: No (USB2+H05261)
Strobe/Lamp Enabled: No (USB2+H05261)
Correct for Detector Non-linearity: No (USB2+H05261)
Correct for Stray Light: No (USB2+H05261)
Number of Pixels in Processed Spectrum: 2048
>>>>>Begin Processed Spectral Data<<<<<
365.73	571.09
365.92	571.09
366.12	571.09
366.32	414.27
366.52	463.43
366.72	470.45
366.91	442.36
367.11	458.74
367.31	442.36
367.51	543.00
367.70	491.51
367.90	463.43
368.10	437.68
368.30	500.87
368.49	461.09
368.69	449.38
368.89	505.56
369.09	442.36
369.28	482.15
369.48	498.53
369.68	512.58
369.87	547.69
370.07	491.51
370.27	596.84
370.47	547.69
370.66	547.69
370.86	540.66
371.06	594.50
371.25	620.24
371.45	566.41
371.65	634.29
371.84	608.54
372.04	617.90
372.24	624.92
372.44	617.90
372.63	578.11
372.83	587.47
373.03	641.31
373.22	601.52
373.42	657.69
373.62	620.24
373.81	655.35
374.01	678.76
374.21	657.69
374.40	578.11
374.60	653.01
374.79	631.94
374.99	636.63
375.19	634.29
375.38	643.65
375.58	559.39
375.78	622.58
375.97	699.82
376.17	641.31
376.37	650.67
376.56	723.23
376.76	620.24
376.95	575.77
377.15	674.07
377.35	645.99
377.54	601.52
377.74	531.30
377.93	599.18
378.13	634.29
378.33	676.41
378.52	566.41
378.72	662.37
378.91	601.52
379.11	540.66
379.31	608.54
379.50	650.67
379.70	608.54
379.89	613.22
380.09	615.56
380.28	554.71
380.48	592.16
380.68	594.50
380.87	573.43
381.07	533.64
381.26	664.71
381.46	667.05
381.65	643.65
381.85	667.05
382.04	622.58
382.24	664.71
382.43	538.32
382.63	599.18
382.83	655.35
383.02	620.24
383.22	697.48
383.41	683.44
383.61	638.97
383.80	589.82
384.00	601.52
384.19	641.31
384.39	617.90
384.58	606.20
384.78	594.50
384.97	692.80
385.17	648.33
385.36	608.54
385.56	690.46
385.75	664.71
385.95	571.09
386.14	631.94
386.34	617.90
386.53	683.44
386.72	629.60
386.92	676.41
387.11	610.88
387.31	667.05
387.50	613.22
387.70	648.33
387.89	540.66
388.09	641.31
388.28	636.63
388.48	552.37
388.67	613.22
388.86	585.13
389.06	601.52
389.25	613.22
389.45	720.88
389.64	627.26
389.84	573.43
390.03	589.82
390.22	638.97
390.42	697.48
390.61	636.63
390.81	702.16
391.00	561.73
391.19	730.25
391.39	596.84
391.58	641.31
391.78	627.26
391.97	709.18
392.16	697.48
392.36	671.73
392.55	571.09
392.75	615.56
392.94	608.54
393.13	589.82
393.33	575.77
393.52	589.82
393.71	648.33
393.91	660.03
394.10	631.94
394.29	571.09
394.49	631.94
394.68	603.86
394.88	594.50
395.07	650.67
395.26	645.99
395.46	603.86
395.65	643.65
395.84	613.22
396.04	676.41
396.23	627.26
396.42	554.71
396.62	664.71
396.81	585.13
397.00	650.67
397.19	653.01
397.39	601.52
397.58	603.86
397.77	578.11
397.97	601.52
398.16	526.62
398.35	655.35
398.55	599.18
398.74	620.24
398.93	660.03
399.12	587.47
399.32	606.20
399.51	585.13
399.70	608.54
399.90	613.22
400.09	615.56
400.28	608.54
400.47	678.76
400.67	643.65
400.86	634.29
401.05	599.18
401.24	589.82
401.44	664.71
401.63	648.33
401.82	596.84
402.01	636.63
402.21	603.86
402.40	660.03
402.59	585.13
402.78	592.16
402.97	603.86
403.17	491.51
403.36	692.80
403.55	596.84
403.74	660.03
403.93	657.69
404.13	741.95
404.32	645.99
404.51	753.65
404.70	695.14
404.89	662.37
405.09	655.35
405.28	657.69
405.47	589.82
405.66	561.73
405.85	711.52
406.05	683.44
406.24	655.35
406.43	690.46
406.62	662.37
406.81	641.31
407.00	662.37
407.20	620.24
407.39	648.33
407.58	627.26
407.77	636.63
407.96	678.76
408.15	629.60
408.34	608.54
408.54	648.33
408.73	674.07
408.92	636.63
409.11	624.92
409.30	608.54
409.49	596.84
409.68	627.26
409.87	648.33
410.07	594.50
410.26	676.41
410.45	660.03
410.64	594.50
410.83	681.10
411.02	641.31
411.21	671.73
411.40	608.54
411.59	653.01
411.78	629.60
411.98	599.18
412.17	582.79
412.36	636.63
412.55	641.31
412.74	610.88
412.93	660.03
413.12	559.39
413.31	638.97
413.50	629.60
413.69	629.60
413.88	667.05
414.07	657.69
414.26	613.22
414.45	627.26
414.64	624.92
414.83	599.18
415.02	620.24
415.22	627.26
415.41	657.69
415.60	571.09
415.79	589.82
415.98	631.94
416.17	585.13
416.36	606.20
416.55	631.94
416.74	610.88
416.93	620.24
417.12	582.79
417.31	603.86
417.50	617.90
417.69	578.11
417.88	601.52
418.07	594.50
418.26	582.79
418.45	606.20
418.64	627.26
418.83	641.31
419.02	629.60
419.21	657.69
419.39	610.88
419.58	601.52
419.77	697.48
419.96	683.44
420.15	636.63
420.34	573.43
420.53	617.90
420.72	606.20
420.91	601.52
421.10	620.24
421.29	641.31
421.48	645.99
421.67	669.39
421.86	573.43
422.05	564.07
422.24	617.90
422.43	620.24
422.61	662.37
422.80	594.50
422.99	669.39
423.18	599.18
423.37	690.46
423.56	615.56
423.75	643.65
423.94	674.07
424.13	592.16
424.32	631.94
424.50	645.99
424.69	620.24
424.88	655.35
425.07	608.54
425.26	610.88
425.45	641.31
425.64	638.97
425.83	613.22
426.01	692.80
426.20	620.24
426.39	627.26
426.58	622.58
426.77	587.47
426.96	585.13
427.15	589.82
427.33	617.90
427.52	676.41
427.71	643.65
427.90	634.29
428.09	685.78
428.28	645.99
428.46	587.47
428.65	648.33
428.84	599.18
429.03	631.94
429.22	585.13
429.40	603.86
429.59	592.16
429.78	617.90
429.97	578.11
430.16	636.63
430.34	631.94
430.53	601.52
430.72	650.67
430.91	678.76
431.10	592.16
431.28	653.01
431.47	582.79
431.66	601.52
431.85	613.22
432.03	589.82
432.22	645.99
432.41	613.22
432.60	653.01
432.79	606.20
432.97	622.58
433.16	662.37
433.35	596.84
433.54	662.37
433.72	606.20
433.91	669.39
434.10	624.92
434.28	641.31
434.47	624.92
434.66	678.76
434.85	655.35
435.03	793.44
435.22	973.66
435.41	1137.50
435.59	1088.35
435.78	1013.45
435.97	922.17
436.16	854.30
436.34	751.31
436.53	662.37
436.72	620.24
436.90	636.63
437.09	706.84
437.28	650.67
437.46	608.54
437.65	664.71
437.84	599.18
438.02	676.41
438.21	589.82
438.40	716.20
438.58	629.60
438.77	608.54
438.96	620.24
439.14	667.05
439.33	578.11
439.52	671.73
439.70	587.47
439.89	592.16
440.08	697.48
440.26	662.37
440.45	636.63
440.63	638.97
440.82	688.12
441.01	664.71
441.19	603.86
441.38	550.03
441.57	585.13
441.75	688.12
441.94	648.33
442.12	613.22
442.31	606.20
442.50	585.13
442.68	641.31
442.87	610.88
443.05	641.31
443.24	629.60
443.43	660.03
443.61	690.46
443.80	624.92
443.98	655.35
444.17	634.29
444.35	702.16
444.54	603.86
444.73	645.99
444.91	674.07
445.10	596.84
445.28	653.01
445.47	624.92
445.65	706.84
445.84	704.50
446.02	662.37
446.21	648.33
446.39	566.41
446.58	610.88
446.77	638.97
446.95	615.56
447.14	671.73
447.32	596.84
447.51	657.69
447.69	622.58
447.88	631.94
448.06	655.35
448.25	662.37
448.43	664.71
448.62	650.67
448.80	641.31
448.99	617.90
449.17	662.37
449.36	683.44
449.54	645.99
449.73	692.80
449.91	629.60
450.10	648.33
450.28	627.26
450.46	690.46
450.65	645.99
450.83	615.56
451.02	608.54
451.20	674.07
451.39	713.86
451.57	573.43
451.76	653.01
451.94	638.97
452.13	674.07
452.31	620.24
452.49	634.29
452.68	643.65
452.86	613.22
453.05	655.35
453.23	671.73
453.42	603.86
453.60	655.35
453.78	662.37
453.97	643.65
454.15	683.44
454.34	645.99
454.52	699.82
454.70	638.97
454.89	650.67
455.07	599.18
455.26	627.26
455.44	674.07
455.62	613.22
455.81	585.13
455.99	681.10
456.17	620.24
456.36	622.58
456.54	695.14
456.73	575.77
456.91	629.60
457.09	629.60
457.28	617.90
457.46	594.50
457.64	589.82
457.83	650.67
458.01	695.14
458.19	697.48
458.38	650.67
458.56	662.37
458.74	627.26
458.93	653.01
459.11	634.29
459.29	573.43
459.48	671.73
459.66	685.78
459.84	634.29
460.03	692.80
460.21	727.91
460.39	704.50
460.57	688.12
460.76	660.03
460.94	627.26
461.12	641.31
461.31	678.76
461.49	608.54
461.67	622.58
461.85	697.48
462.04	678.76
462.22	947.92
462.40	695.14
462.59	716.20
462.77	622.58
462.95	690.46
463.13	622.58
463.32	641.31
463.50	674.07
463.68	674.07
463.86	678.76
464.05	648.33
464.23	606.20
464.41	664.71
464.59	613.22
464.78	650.67
464.96	622.58
465.14	620.24
465.32	622.58
465.50	615.56
465.69	669.39
465.87	664.71
466.05	645.99
466.23	636.63
466.41	592.16
466.60	681.10
466.78	601.52
466.96	690.46
467.14	695.14
467.32	664.71
467.51	643.65
467.69	685.78
467.87	648.33
468.05	636.63
468.23	667.05
468.41	660.03
468.60	669.39
468.78	702.16
468.96	622.58
469.14	629.60
469.32	650.67
469.50	610.88
469.69	566.41
469.87	613.22
470.05	669.39
470.23	650.67
470.41	587.47
470.59	601.52
470.77	650.67
470.95	547.69
471.14	739.61
471.32	681.10
471.50	596.84
471.68	678.76
471.86	641.31
472.04	645.99
472.22	723.23
472.40	645.99
472.58	603.86
472.77	596.84
472.95	655.35
473.13	662.37
473.31	676.41
473.49	638.97
473.67	622.58
473.85	660.03
474.03	755.99
474.21	592.16
474.39	702.16
474.57	716.20
474.75	634.29
474.93	622.58
475.12	617.90
475.30	641.31
475.48	561.73
475.66	575.77
475.84	629.60
476.02	648.33
476.20	678.76
476.38	631.94
476.56	664.71
476.74	638.97
476.92	620.24
477.10	643.65
477.28	655.35
477.46	653.01
477.64	620.24
477.82	603.86
478.00	723.23
478.18	671.73
478.36	688.12
478.54	671.73
478.72	655.35
478.90	641.31
479.08	660.03
479.26	706.84
479.44	613.22
479.62	692.80
479.80	645.99
479.98	645.99
480.16	657.69
480.34	615.56
480.52	624.92
480.70	669.39
480.88	662.37
481.06	613.22
481.24	655.35
481.41	643.65
481.59	685.78
481.77	631.94
481.95	699.82
482.13	650.67
482.31	676.41
482.49	613.22
482.67	657.69
482.85	690.46
483.03	648.33
483.21	641.31
483.39	664.71
483.57	709.18
483.74	699.82
483.92	692.80
484.10	699.82
484.28	713.86
484.46	753.65
484.64	730.25
484.82	685.78
485.00	704.50
485.18	667.05
485.35	655.35
485.53	786.42
485.71	702.16
485.89	753.65
486.07	765.36
486.25	716.20
486.43	706.84
486.61	699.82
486.78	746.63
486.96	744.29
487.14	833.23
487.32	697.48
487.50	734.93
487.68	660.03
487.85	751.31
488.03	748.97
488.21	723.23
488.39	674.07
488.57	697.48
488.75	732.59
488.92	791.10
489.10	744.29
489.28	732.59
489.46	634.29
489.64	711.52
489.81	645.99
489.99	685.78
490.17	711.52
490.35	695.14
490.53	667.05
490.70	697.48
490.88	716.20
491.06	692.80
491.24	676.41
491.41	723.23
491.59	734.93
491.77	641.31
491.95	678.76
492.13	634.29
492.30	725.57
492.48	732.59
492.66	713.86
492.84	690.46
493.01	720.88
493.19	699.82
493.37	727.91
493.54	732.59
493.72	751.31
493.90	704.50
494.08	657.69
494.25	624.92
494.43	702.16
494.61	713.86
494.79	638.97
494.96	641.31
495.14	741.95
495.32	732.59
495.49	746.63
495.67	730.25
495.85	641.31
496.02	685.78
496.20	674.07
496.38	688.12
496.55	725.57
496.73	697.48
496.91	704.50
497.09	741.95
497.26	641.31
497.44	660.03
497.62	711.52
497.79	599.18
497.97	610.88
498.14	610.88
498.32	746.63
498.50	760.67
498.67	617.90
498.85	678.76
499.03	650.67
499.20	629.60
499.38	650.67
499.56	580.45
499.73	634.29
499.91	669.39
500.08	681.10
500.26	664.71
500.44	725.57
500.61	664.71
500.79	613.22
500.97	643.65
501.14	678.76
501.32	610.88
501.49	650.67
501.67	655.35
501.84	648.33
502.02	718.54
502.20	697.48
502.37	650.67
502.55	695.14
502.72	692.80
502.90	713.86
503.07	641.31
503.25	624.92
503.43	676.41
503.60	671.73
503.78	713.86
503.95	746.63
504.13	615.56
504.30	660.03
504.48	699.82
504.65	732.59
504.83	667.05
505.01	610.88
505.18	674.07
505.36	662.37
505.53	655.35
505.71	603.86
505.88	653.01
506.06	660.03
506.23	650.67
506.41	613.22
506.58	723.23
506.76	655.35
506.93	622.58
507.11	662.37
507.28	638.97
507.46	648.33
507.63	645.99
507.81	617.90
507.98	622.58
508.16	671.73
508.33	669.39
508.50	683.44
508.68	645.99
508.85	643.65
509.03	622.58
509.20	627.26
509.38	713.86
509.55	716.20
509.73	641.31
509.90	624.92
510.08	692.80
510.25	622.58
510.42	655.35
510.60	650.67
510.77	603.86
510.95	697.48
511.12	697.48
511.30	629.60
511.47	608.54
511.64	655.35
511.82	634.29
511.99	676.41
512.17	660.03
512.34	643.65
512.51	627.26
512.69	596.84
512.86	704.50
513.04	627.26
513.21	622.58
513.38	608.54
513.56	636.63
513.73	683.44
513.90	653.01
514.08	648.33
514.25	664.71
514.43	653.01
514.60	620.24
514.77	636.63
514.95	685.78
515.12	634.29
515.29	650.67
515.47	664.71
515.64	571.09
515.81	688.12
515.99	676.41
516.16	641.31
516.33	596.84
516.51	685.78
516.68	601.52
516.85	655.35
517.03	648.33
517.20	706.84
517.37	685.78
517.54	681.10
517.72	704.50
517.89	622.58
518.06	636.63
518.24	732.59
518.41	704.50
518.58	622.58
518.75	627.26
518.93	755.99
519.10	561.73
519.27	676.41
519.45	681.10
519.62	643.65
519.79	643.65
519.96	617.90
520.14	615.56
520.31	667.05
520.48	620.24
520.65	638.97
520.83	678.76
521.00	655.35
521.17	695.14
521.34	702.16
521.52	615.56
521.69	589.82
521.86	683.44
522.03	624.92
522.20	699.82
522.38	660.03
522.55	613.22
522.72	653.01
522.89	674.07
523.07	741.95
523.24	683.44
523.41	634.29
523.58	601.52
523.75	606.20
523.92	636.63
524.10	662.37
524.27	601.52
524.44	622.58
524.61	643.65
524.78	631.94
524.96	596.84
525.13	690.46
525.30	608.54
525.47	706.84
525.64	678.76
525.81	636.63
525.98	613.22
526.16	627.26
526.33	723.23
526.50	627.26
526.67	645.99
526.84	643.65
527.01	594.50
527.18	662.37
527.36	645.99
527.53	650.67
527.70	678.76
527.87	638.97
528.04	709.18
528.21	669.39
528.38	683.44
528.55	709.18
528.72	713.86
528.89	688.12
529.07	648.33
529.24	617.90
529.41	627.26
529.58	657.69
529.75	706.84
529.92	603.86
530.09	671.73
530.26	699.82
530.43	601.52
530.60	575.77
530.77	662.37
530.94	718.54
531.11	681.10
531.28	638.97
531.46	547.69
531.63	692.80
531.80	624.92
531.97	631.94
532.14	645.99
532.31	601.52
532.48	627.26
532.65	688.12
532.82	688.12
532.99	723.23
533.16	697.48
533.33	732.59
533.50	730.25
533.67	732.59
533.84	697.48
534.01	699.82
534.18	641.31
534.35	662.37
534.52	660.03
534.69	634.29
534.86	688.12
535.03	636.63
535.20	601.52
535.37	638.97
535.54	692.80
535.71	662.37
535.88	655.35
536.05	674.07
536.22	678.76
536.38	674.07
536.55	657.69
536.72	692.80
536.89	739.61
537.06	617.90
537.23	784.08
537.40	695.14
537.57	730.25
537.74	725.57
537.91	702.16
538.08	709.18
538.25	753.65
538.42	772.38
538.59	777.06
538.75	819.19
538.92	779.40
539.09	744.29
539.26	830.89
539.43	849.61
539.60	849.61
539.77	870.68
539.94	978.34
540.11	877.70
540.28	931.53
540.44	894.08
540.61	1055.58
540.78	1083.67
540.95	1118.78
541.12	1207.72
541.29	1263.89
541.46	1310.70
541.62	1359.85
541.79	1275.59
541.96	1327.08
542.13	1275.59
542.30	1317.72
542.47	1315.38
542.63	1261.55
542.80	1217.08
542.97	1247.51
543.14	1207.72
543.31	1231.12
543.48	1224.10
543.64	1217.08
543.81	1249.85
543.98	1177.29
544.15	1163.25
544.32	1160.91
544.48	1249.85
544.65	1256.87
544.82	1207.72
544.99	1200.69
545.16	1181.97
545.32	1245.16
545.49	1624.33
545.66	2043.29
545.83	2244.57
546.00	1949.67
546.16	1638.38
546.33	1540.07
546.50	1334.11
546.67	1228.78
546.83	1142.18
547.00	1107.07
547.17	1022.81
547.34	924.51
547.50	940.90
547.67	901.11
547.84	933.87
548.00	968.98
548.17	992.39
548.34	851.96
548.51	887.06
548.67	945.58
548.84	894.08
549.01	968.98
549.18	842.59
549.34	844.93
549.51	868.34
549.68	961.96
549.84	884.72
550.01	812.17
550.18	821.53
550.34	833.23
550.51	910.47
550.68	903.45
550.84	753.65
551.01	774.72
551.18	772.38
551.34	732.59
551.51	791.10
551.68	751.31
551.84	816.85
552.01	786.42
552.18	739.61
552.34	746.63
552.51	657.69
552.68	819.19
552.84	809.83
553.01	774.72
553.18	704.50
553.34	697.48
553.51	720.88
553.67	798.12
553.84	809.83
554.01	751.31
554.17	676.41
554.34	704.50
554.51	763.01
554.67	704.50
554.84	781.74
555.00	706.84
555.17	657.69
555.33	706.84
555.50	667.05
555.67	718.54
555.83	641.31
556.00	681.10
556.16	800.46
556.33	777.06
556.50	697.48
556.66	681.10
556.83	627.26
556.99	739.61
557.16	746.63
557.32	718.54
557.49	716.20
557.65	617.90
557.82	624.92
557.98	660.03
558.15	692.80
558.32	610.88
558.48	685.78
558.65	685.78
558.81	645.99
558.98	627.26
559.14	711.52
559.31	627.26
559.47	746.63
559.64	622.58
559.80	641.31
559.97	706.84
560.13	709.18
560.30	603.86
560.46	622.58
560.63	603.86
560.79	674.07
560.96	645.99
561.12	667.05
561.29	681.10
561.45	671.73
561.61	601.52
561.78	697.48
561.94	592.16
562.11	671.73
562.27	688.12
562.44	636.63
562.60	664.71
562.77	636.63
562.93	699.82
563.10	566.41
563.26	683.44
563.42	606.20
563.59	629.60
563.75	645.99
563.92	706.84
564.08	678.76
564.24	655.35
564.41	636.63
564.57	727.91
564.74	653.01
564.90	690.46
565.07	610.88
565.23	650.67
565.39	617.90
565.56	650.67
565.72	594.50
565.88	620.24
566.05	730.25
566.21	636.63
566.38	662.37
566.54	667.05
566.70	662.37
566.87	657.69
567.03	641.31
567.19	634.29
567.36	667.05
567.52	681.10
567.68	610.88
567.85	606.20
568.01	636.63
568.17	662.37
568.34	571.09
568.50	711.52
568.66	678.76
568.83	653.01
568.99	613.22
569.15	685.78
569.32	683.44
569.48	608.54
569.64	561.73
569.81	636.63
569.97	608.54
570.13	725.57
570.30	603.86
570.46	688.12
570.62	608.54
570.78	624.92
570.95	620.24
571.11	657.69
571.27	746.63
571.43	596.84
571.60	653.01
571.76	552.37
571.92	681.10
572.09	641.31
572.25	699.82
572.41	709.18
572.57	660.03
572.74	638.97
572.90	676.41
573.06	620.24
573.22	585.13
573.38	692.80
573.55	695.14
573.71	648.33
573.87	638.97
574.03	657.69
574.20	575.77
574.36	631.94
574.52	674.07
574.68	645.99
574.84	655.35
575.01	578.11
575.17	671.73
575.33	655.35
575.49	634.29
575.65	676.41
575.82	650.67
575.98	653.01
576.14	634.29
576.30	660.03
576.46	823.87
576.62	936.21
576.79	863.66
576.95	903.45
577.11	819.19
577.27	706.84
577.43	753.65
577.59	784.08
577.75	713.86
577.92	685.78
578.08	727.91
578.24	727.91
578.40	676.41
578.56	781.74
578.72	863.66
578.88	985.37
579.04	880.04
579.21	854.30
579.37	720.88
579.53	830.89
579.69	774.72
579.85	835.57
580.01	802.80
580.17	788.76
580.33	861.32
580.49	727.91
580.65	772.38
580.82	678.76
580.98	730.25
581.14	730.25
581.30	697.48
581.46	692.80
581.62	713.86
581.78	748.97
581.94	758.33
582.10	767.70
582.26	781.74
582.42	723.23
582.58	730.25
582.74	795.78
582.90	737.27
583.06	821.53
583.22	807.48
583.38	807.48
583.54	751.31
583.70	814.51
583.86	828.55
584.02	704.50
584.18	844.93
584.34	784.08
584.50	767.70
584.66	734.93
584.82	765.36
584.98	828.55
585.14	784.08
585.30	748.97
585.46	765.36
585.62	704.50
585.78	802.80
585.94	763.01
586.10	805.14
586.26	781.74
586.42	741.95
586.58	795.78
586.74	821.53
586.90	812.17
587.06	851.96
587.22	938.55
587.38	866.00
587.54	763.01
587.70	919.83
587.86	823.87
588.02	793.44
588.18	732.59
588.34	800.46
588.49	751.31
588.65	741.95
588.81	786.42
588.97	770.04
589.13	739.61
589.29	727.91
589.45	746.63
589.61	758.33
589.77	779.40
589.93	767.70
590.08	770.04
590.24	755.99
590.40	833.23
590.56	753.65
590.72	711.52
590.88	734.93
591.04	697.48
591.20	706.84
591.35	770.04
591.51	784.08
591.67	788.76
591.83	650.67
591.99	723.23
592.15	753.65
592.31	793.44
592.46	823.87
592.62	833.23
592.78	779.40
592.94	814.51
593.10	802.80
593.26	814.51
593.41	819.19
593.57	802.80
593.73	763.01
593.89	828.55
594.05	683.44
594.20	732.59
594.36	763.01
594.52	669.39
594.68	697.48
594.84	739.61
594.99	758.33
595.15	667.05
595.31	734.93
595.47	730.25
595.62	650.67
595.78	739.61
595.94	695.14
596.10	725.57
596.25	730.25
596.41	727.91
596.57	681.10
596.73	667.05
596.88	732.59
597.04	688.12
597.20	683.44
597.36	706.84
597.51	655.35
597.67	779.40
597.83	692.80
597.99	753.65
598.14	718.54
598.30	690.46
598.46	751.31
598.61	734.93
598.77	802.80
598.93	713.86
599.09	704.50
599.24	809.83
599.40	809.83
599.56	772.38
599.71	725.57
599.87	685.78
600.03	674.07
600.18	667.05
600.34	734.93
600.50	704.50
600.65	692.80
600.81	697.48
600.97	702.16
601.12	655.35
601.28	725.57
601.44	702.16
601.59	697.48
601.75	727.91
601.91	718.54
602.06	674.07
602.22	772.38
602.37	739.61
602.53	678.76
602.69	667.05
602.84	643.65
603.00	706.84
603.16	718.54
603.31	653.01
603.47	648.33
603.62	613.22
603.78	650.67
603.94	699.82
604.09	636.63
604.25	699.82
604.40	688.12
604.56	732.59
604.71	634.29
604.87	671.73
605.03	737.27
605.18	699.82
605.34	695.14
605.49	690.46
605.65	732.59
605.80	676.41
605.96	713.86
606.12	765.36
606.27	699.82
606.43	748.97
606.58	716.20
606.74	737.27
606.89	709.18
607.05	767.70
607.20	779.40
607.36	744.29
607.51	737.27
607.67	730.25
607.82	739.61
607.98	821.53
608.13	873.02
608.29	807.48
608.44	795.78
608.60	781.74
608.75	774.72
608.91	770.04
609.06	816.85
609.22	882.38
609.37	812.17
609.53	851.96
609.68	959.62
