SpectraSuite Data File
++++++++++++++++++++++++++++++++++++
Date: Thu Oct 24 13:21:23 EDT 2013
User: stostad
Dark Spectrum Present: No
Reference Spectrum Present: No
Number of Sampled Component Spectra: 1
Spectrometers: USB2+H05261
Integration Time (usec): 100000 (USB2+H05261)
Spectra Averaged: 1 (USB2+H05261)
Boxcar Smoothing: 0 (USB2+H05261)
Correct for Electrical Dark: No (USB2+H05261)
Strobe/Lamp Enabled: No (USB2+H05261)
Correct for Detector Non-linearity: No (USB2+H05261)
Correct for Stray Light: No (USB2+H05261)
Number of Pixels in Processed Spectrum: 2048
>>>>>Begin Processed Spectral Data<<<<<
365.73	535.98
365.92	535.98
366.12	535.98
366.32	561.73
366.52	500.87
366.72	470.45
366.91	458.74
367.11	454.06
367.31	484.49
367.51	411.93
367.70	472.79
367.90	533.64
368.10	447.04
368.30	465.77
368.49	496.19
368.69	472.79
368.89	437.68
369.09	552.37
369.28	496.19
369.48	482.15
369.68	503.22
369.87	561.73
370.07	517.26
370.27	517.26
370.47	629.60
370.66	926.85
370.86	863.66
371.06	840.25
371.25	947.92
371.45	947.92
371.65	985.37
371.84	976.00
372.04	990.05
372.24	983.02
372.44	931.53
372.63	1057.92
372.83	1004.09
373.03	931.53
373.22	931.53
373.42	1064.94
373.62	1100.05
373.81	1111.75
374.01	1071.97
374.21	1060.26
374.40	1015.79
374.60	1055.58
374.79	1172.61
374.99	1057.92
375.19	1043.88
375.38	1090.69
375.58	1121.12
375.78	1174.95
375.97	1088.35
376.17	1221.76
376.37	1076.65
376.56	1139.84
376.76	1050.90
376.95	1174.95
377.15	1104.73
377.35	1053.24
377.54	1118.78
377.74	1086.01
377.93	1081.33
378.13	1165.59
378.33	1203.04
378.52	1179.63
378.72	1153.88
378.91	1188.99
379.11	1242.82
379.31	1198.35
379.50	1165.59
379.70	1254.53
379.89	1228.78
380.09	1170.27
380.28	1219.42
380.48	1137.50
380.68	1095.37
380.87	1132.82
381.07	1235.80
381.26	1224.10
381.46	1210.06
381.65	1261.55
381.85	1336.45
382.04	1177.29
382.24	1214.74
382.43	1289.64
382.63	1270.91
382.83	1322.40
383.02	1294.32
383.22	1266.23
383.41	1299.00
383.61	1315.38
383.80	1301.34
384.00	1385.60
384.19	1348.15
384.39	1296.66
384.58	1416.02
384.78	1303.68
384.97	1357.51
385.17	1409.00
385.36	1343.47
385.56	1331.76
385.75	1406.66
385.95	1313.04
386.14	1394.96
386.34	1308.36
386.53	1369.21
386.72	1390.28
386.92	1401.98
387.11	1418.36
387.31	1437.09
387.50	1441.77
387.70	1352.83
387.89	1406.66
388.09	1437.09
388.28	1465.18
388.48	1427.73
388.67	1441.77
388.86	1570.50
389.06	1490.92
389.25	1481.56
389.45	1479.22
389.64	1474.54
389.84	1544.75
390.03	1521.35
390.22	1586.88
390.42	1596.25
390.61	1533.05
390.81	1624.33
391.00	1629.01
391.19	1547.09
391.39	1607.95
391.58	1521.35
391.78	1631.35
391.97	1554.12
392.16	1654.76
392.36	1636.03
392.55	1633.69
392.75	1746.04
392.94	1710.93
393.13	1668.80
393.33	1633.69
393.52	1619.65
393.71	1666.46
393.91	1724.97
394.10	1692.21
394.29	1732.00
394.49	1678.16
394.68	1748.38
394.88	1659.44
395.07	1682.85
395.26	1778.81
395.46	1771.79
395.65	1755.40
395.84	1790.51
396.04	1856.04
396.23	1785.83
396.42	1820.94
396.62	1884.13
396.81	1930.94
397.00	1844.34
397.19	1830.30
397.39	1865.41
397.58	1947.33
397.77	1748.38
397.97	1893.49
398.16	1954.35
398.35	1980.09
398.55	1881.79
398.74	2017.54
398.93	2017.54
399.12	1954.35
399.32	1973.07
399.51	1996.48
399.70	2029.24
399.90	2022.22
400.09	2118.18
400.28	2090.10
400.47	2052.65
400.67	2087.76
400.86	2057.33
401.05	2038.61
401.24	2181.38
401.44	2132.23
401.63	2146.27
401.82	2225.85
402.01	2125.21
402.21	2204.78
402.40	2200.10
402.59	2216.49
402.78	2282.02
402.97	2303.09
403.17	2237.55
403.36	2338.20
403.55	2359.26
403.74	2275.00
403.93	2392.03
404.13	2361.60
404.32	2361.60
404.51	2389.69
404.70	2555.86
404.89	2356.92
405.09	2509.05
405.28	2476.29
405.47	2483.31
405.66	2471.61
405.85	2434.16
406.05	2567.57
406.24	2544.16
406.43	2544.16
406.62	2525.44
406.81	2626.08
407.00	2544.16
407.20	2523.10
407.39	2661.19
407.58	2682.25
407.77	2766.51
407.96	2759.49
408.15	2658.85
408.34	2644.81
408.54	2668.21
408.73	2684.59
408.92	2780.56
409.11	2752.47
409.30	2789.92
409.49	2850.77
409.68	2848.43
409.87	2871.84
410.07	2937.37
410.26	2904.60
410.45	3026.31
410.64	2963.12
410.83	3007.59
411.02	3045.04
411.21	3005.25
411.40	2979.50
411.59	3096.53
411.78	3030.99
411.98	3075.46
412.17	3084.83
412.36	3152.70
412.55	3138.66
412.74	3272.07
412.93	3225.26
413.12	3382.07
413.31	3431.23
413.50	3309.52
413.69	3346.97
413.88	3461.65
414.07	3389.10
414.26	3468.67
414.45	3403.14
414.64	3471.01
414.83	3520.17
415.02	3494.42
415.22	3595.06
415.41	3552.93
415.60	3616.13
415.79	3576.34
415.98	3651.24
416.17	3812.73
416.36	3679.32
416.55	3737.84
416.74	3911.04
416.93	3740.18
417.12	3866.56
417.31	4002.32
417.50	3742.52
417.69	4009.34
417.88	4126.36
418.07	3946.14
418.26	4079.55
418.45	4142.75
418.64	3957.85
418.83	4147.43
419.02	3964.87
419.21	4210.62
419.39	4119.34
419.58	4002.32
419.77	4058.49
419.96	4264.46
420.15	4283.18
420.34	4222.33
420.53	4238.71
420.72	4217.65
420.91	4341.69
421.10	4294.88
421.29	4430.63
421.48	4355.74
421.67	4376.80
421.86	4379.14
422.05	4444.68
422.24	4411.91
422.43	4472.76
422.61	4428.29
422.80	4606.17
422.99	4442.34
423.18	4482.13
423.37	4620.22
423.56	4596.81
423.75	4500.85
423.94	4484.47
424.13	4210.62
424.32	4301.90
424.50	4444.68
424.69	4559.36
424.88	4814.48
425.07	4550.00
425.26	4540.64
425.45	4531.28
425.64	4442.34
425.83	4500.85
426.01	4484.47
426.20	4519.57
426.39	4627.24
426.58	4643.62
426.77	4489.15
426.96	4706.82
427.15	4730.22
427.33	4809.80
427.52	4777.03
427.71	4842.57
427.90	4723.20
428.09	4812.14
428.28	4983.00
428.46	4788.74
428.65	4875.34
428.84	4961.94
429.03	5020.45
429.22	4854.27
429.40	5048.54
429.59	5022.79
429.78	4844.91
429.97	4664.69
430.16	4863.63
430.34	5062.58
430.53	5186.63
430.72	5233.44
430.91	5139.82
431.10	5151.52
431.28	5167.90
431.47	5233.44
431.66	5317.70
431.85	5184.29
432.03	5376.21
432.22	5352.81
432.41	5350.46
432.60	5387.91
432.79	5317.70
432.97	5408.98
433.16	5504.94
433.35	5305.99
433.54	5568.13
433.72	5558.77
433.91	5315.36
434.10	5582.18
434.28	5502.60
434.47	5591.54
434.66	5598.56
434.85	5551.75
435.03	5785.80
435.22	5912.19
435.41	6087.73
435.59	5865.38
435.78	5888.79
435.97	5909.85
436.16	5865.38
436.34	5701.54
436.53	5729.63
436.72	5806.87
436.90	5781.12
437.09	5841.98
437.28	5715.59
437.46	5912.19
437.65	6017.52
437.84	6085.39
438.02	6148.59
438.21	6190.72
438.40	5893.47
438.58	6202.42
438.77	6340.51
438.96	6059.65
439.14	6277.32
439.33	6370.94
439.52	6352.21
439.70	6541.80
439.89	6684.57
440.08	6483.28
440.26	6506.69
440.45	6464.56
440.63	6588.61
440.82	6738.40
441.01	6773.51
441.19	6710.32
441.38	6810.96
441.57	6754.79
441.75	6848.41
441.94	7157.36
442.12	7133.95
442.31	7021.61
442.50	7033.31
442.68	7115.23
442.87	7089.48
443.05	7000.54
443.24	7218.21
443.43	7241.62
443.61	7201.83
443.80	7370.35
443.98	7096.50
444.17	6815.64
444.35	7267.36
444.54	7073.10
444.73	7211.19
444.91	7143.32
445.10	7208.85
445.28	7318.86
445.47	7473.33
445.65	7407.80
445.84	7215.87
446.02	7433.54
446.21	7421.84
446.39	7363.33
446.58	7559.93
446.77	7611.42
446.95	7288.43
447.14	7468.65
447.32	7639.51
447.51	7466.31
447.69	7438.22
447.88	7609.08
448.06	7379.71
448.25	7410.14
448.43	7548.23
448.62	7452.27
448.80	7625.47
448.99	7602.06
449.17	7674.62
449.36	7564.61
449.54	7719.09
449.73	7801.01
449.91	7770.58
450.10	7950.80
450.28	7962.50
450.46	7896.97
450.65	7946.12
450.83	8088.89
451.02	7943.78
451.20	8046.76
451.39	8072.51
451.57	8032.72
451.76	8063.15
451.94	7995.27
452.13	8198.90
452.31	8177.83
452.49	7999.95
452.68	8299.54
452.86	8116.98
453.05	8318.26
453.23	8121.66
453.42	8278.47
453.60	8100.59
453.78	8369.76
453.97	8271.45
454.15	8140.38
454.34	8259.75
454.52	8421.25
454.70	8435.29
454.89	8442.31
455.07	8423.59
455.26	8425.93
455.44	8760.63
455.62	8566.36
455.81	8512.53
455.99	8823.82
456.17	8819.14
456.36	8755.94
456.54	8751.26
456.73	8952.55
456.91	9362.14
457.09	8954.89
457.28	9015.74
457.46	8821.48
457.64	9013.40
457.83	9233.41
458.01	8922.12
458.19	9387.89
458.38	8992.34
458.56	9254.48
458.74	9240.44
458.93	9434.70
459.11	9268.52
459.29	9298.95
459.48	9210.01
459.66	9373.85
459.84	9469.81
460.03	9537.68
460.21	9621.94
460.39	9338.74
460.57	9628.96
460.76	9593.86
460.94	9666.41
461.12	9647.69
461.31	9666.41
461.49	9598.54
461.67	9678.12
461.85	9949.62
462.04	9881.74
462.22	10195.37
462.40	10043.24
462.59	10066.64
462.77	9834.93
462.95	10054.94
463.13	10003.45
463.32	9912.17
463.50	10127.50
463.68	10218.78
463.86	10235.16
464.05	10097.07
464.23	10202.40
464.41	10455.17
464.59	10134.52
464.78	10466.88
464.96	10281.97
465.14	10279.63
465.32	10228.14
465.50	10546.45
465.69	10534.75
465.87	10492.62
466.05	10614.33
466.23	10473.90
466.41	10504.32
466.60	10656.46
466.78	10438.79
466.96	10747.74
467.14	10766.46
467.32	10789.87
467.51	10981.79
467.69	10143.88
467.87	10661.14
468.05	10782.85
468.23	10794.55
468.41	10703.27
468.60	10696.25
468.78	10665.82
468.96	11030.94
469.14	10906.90
469.32	10937.32
469.50	11005.20
469.69	11033.29
469.87	11197.12
470.05	11300.11
470.23	11580.97
470.41	11246.27
470.59	11456.92
470.77	11389.05
470.95	11311.81
471.14	11662.89
471.32	11117.54
471.50	11550.54
471.68	11557.57
471.86	11449.90
472.04	11672.25
472.22	12175.47
472.40	11875.88
472.58	11712.04
472.77	12147.38
472.95	12159.08
473.13	12489.10
473.31	12056.10
473.49	12065.46
473.67	12091.21
473.85	12226.96
474.03	12299.52
474.21	12592.08
474.39	12449.31
474.57	12699.75
474.75	12585.06
474.93	12891.67
475.12	12901.03
475.30	12734.85
475.48	12615.49
475.66	12886.99
475.84	13004.02
476.02	13095.30
476.20	13259.13
476.38	13202.96
476.56	13628.94
476.74	13626.60
476.92	13322.33
477.10	13481.49
477.28	13785.76
477.46	13870.01
477.64	13916.83
477.82	14047.90
478.00	14717.29
478.18	14164.92
478.36	14204.71
478.54	14604.94
478.72	14429.40
478.90	14635.37
479.08	14867.08
479.26	15014.54
479.44	15089.43
479.62	15082.41
479.80	15250.93
479.98	15484.98
480.16	15822.02
480.34	15543.50
480.52	15594.99
480.70	15920.32
480.88	15913.30
481.06	15737.76
481.24	15950.75
481.41	16215.23
481.59	16734.83
481.77	16585.04
481.95	16652.91
482.13	16425.88
482.31	16535.88
482.49	16926.75
482.67	16872.92
482.85	17200.60
483.03	17439.33
483.21	17642.96
483.39	17886.37
483.57	17745.94
483.74	17987.02
483.92	18017.44
484.10	17958.93
484.28	18202.35
484.46	18860.04
484.64	18897.49
484.82	18883.44
485.00	18813.23
485.18	19367.93
485.35	19171.33
485.53	19475.60
485.71	19618.37
485.89	19908.60
486.07	19807.95
486.25	19845.40
486.43	20259.68
486.61	20285.42
486.78	20215.21
486.96	20512.46
487.14	21067.16
487.32	20641.18
487.50	20947.79
487.68	20989.92
487.85	21310.58
488.03	21710.81
488.21	21944.86
488.39	21921.46
488.57	21954.22
488.75	22026.78
488.92	22253.81
489.10	22682.13
489.28	22768.73
489.46	22801.50
489.64	22801.50
489.81	23094.07
489.99	23344.50
490.17	23161.94
490.35	23819.63
490.53	23779.84
490.70	24142.63
490.88	23789.20
491.06	24327.53
491.24	24196.46
491.41	24587.33
491.59	24570.94
491.77	24753.51
491.95	25015.65
492.13	25106.93
492.30	25139.69
492.48	25226.29
492.66	25287.15
492.84	25752.91
493.01	25799.73
493.19	26209.32
493.37	26223.36
493.54	25874.62
493.72	26562.74
493.90	26494.86
494.08	26583.80
494.25	26679.77
494.43	27098.72
494.61	27154.90
494.79	27089.36
494.96	27410.01
495.14	27538.74
495.32	27601.94
495.49	28011.53
495.67	27850.03
495.85	28280.69
496.02	28156.64
496.20	28109.83
496.38	28594.32
496.55	28318.14
496.73	29558.63
496.91	29001.58
497.09	29221.59
497.26	29252.02
497.44	29500.11
497.62	29413.51
497.79	29998.65
497.97	29745.87
498.14	30232.70
498.32	30852.94
498.50	30422.28
498.67	30632.93
498.85	30719.53
499.03	30794.43
499.20	30707.83
499.38	31417.01
499.56	30913.80
499.73	31332.75
499.91	31168.91
500.08	31566.81
500.26	31215.72
500.44	31267.22
500.61	31295.30
500.79	31791.50
500.97	31697.88
501.14	32566.21
501.32	32311.10
501.49	32484.30
501.67	32163.64
501.84	32552.17
502.02	32847.08
502.20	32540.47
502.37	32924.32
502.55	32472.59
502.72	33144.33
502.90	33048.36
503.07	32938.36
503.25	33535.20
503.43	33127.94
503.60	33764.57
503.78	33654.56
503.95	33633.50
504.13	33614.77
504.30	33797.34
504.48	33818.40
504.65	34511.20
504.83	34686.74
505.01	34319.28
505.18	34352.04
505.36	34948.88
505.53	34930.16
505.71	34803.77
505.88	35049.52
506.06	34829.51
506.23	35632.32
506.41	35283.58
506.58	35428.69
506.76	35398.26
506.93	35393.58
507.11	35267.19
507.28	35580.82
507.46	35824.24
507.63	36116.81
507.81	36322.77
507.98	35866.37
508.16	35945.95
508.33	36301.71
508.50	36559.17
508.68	36517.04
508.85	37198.13
509.03	36561.51
509.20	36797.90
509.38	36767.48
509.55	37528.15
509.73	37762.20
509.90	37570.28
510.08	37619.43
510.25	37773.91
510.42	37649.86
510.60	37881.57
510.77	37846.46
510.95	38080.52
511.12	37998.60
511.30	37940.08
511.47	39049.50
511.64	38361.38
511.82	39084.61
511.99	38082.86
512.17	38885.66
512.34	38455.00
512.51	39384.19
512.69	39138.44
512.86	38990.98
513.04	39613.57
513.21	39164.18
513.38	39543.35
513.56	39033.11
513.73	39438.03
513.90	39512.92
514.08	39611.23
514.25	40538.08
514.43	40119.12
514.60	40016.14
514.77	40175.30
514.95	40273.60
515.12	39812.51
515.29	40215.08
515.47	40758.09
515.64	40636.38
515.81	40666.81
515.99	40720.64
516.16	41010.87
516.33	40933.63
516.51	41212.15
516.68	41291.73
516.85	41380.67
517.03	41624.09
517.20	41729.41
517.37	41488.34
517.54	41242.58
517.72	41439.18
517.89	41682.60
518.06	41691.96
518.24	41879.21
518.41	41698.98
518.58	42153.05
518.75	41497.70
518.93	42246.67
519.10	41844.10
519.27	42295.82
519.45	42693.71
519.62	42925.42
519.79	42682.01
519.96	42815.42
520.14	42782.65
520.31	42564.98
520.48	42803.72
520.65	42838.83
520.83	43217.99
521.00	43367.79
521.17	43313.95
521.34	43299.91
521.52	43718.87
521.69	43337.36
521.86	43494.18
522.03	43768.02
522.20	43763.34
522.38	44549.76
522.55	43840.57
522.72	44350.81
522.89	43903.77
523.07	44299.32
523.24	44446.77
523.41	44657.42
523.58	44086.33
523.75	44175.27
523.92	44594.23
524.10	44755.72
524.27	45310.43
524.44	44912.54
524.61	44439.75
524.78	45174.68
524.96	45132.55
525.13	45397.03
525.30	45722.37
525.47	45647.47
525.64	45415.76
525.81	45521.08
525.98	45846.41
526.16	45354.90
526.33	45663.85
526.50	45848.75
526.67	45698.96
526.84	46146.00
527.01	46176.43
527.18	46024.29
527.36	46237.28
527.53	45996.21
527.70	46354.31
527.87	46447.93
528.04	46337.93
528.21	46604.75
528.38	46780.29
528.55	46754.54
528.72	46710.07
528.89	47168.82
529.07	46356.65
529.24	46478.36
529.41	46869.23
529.58	46995.62
529.75	47133.71
529.92	47047.11
530.09	47138.39
530.26	47070.51
530.43	47306.91
530.60	46314.52
530.77	47110.30
530.94	47681.39
531.11	47297.55
531.28	47945.87
531.46	47730.54
531.63	47796.08
531.80	47657.99
531.97	47878.00
532.14	48039.50
532.31	47695.44
532.48	47772.67
532.65	48090.99
532.82	48172.91
532.99	48105.03
533.16	47833.53
533.33	48346.11
533.50	48491.22
533.67	48460.79
533.84	48416.32
534.01	48306.32
534.18	48612.93
534.35	49207.42
534.52	48418.66
534.69	48477.18
534.86	48769.74
535.03	48540.37
535.20	49120.82
535.37	48956.99
535.54	49474.24
535.71	48769.74
535.88	49296.36
536.05	48690.16
536.22	48924.22
536.38	49572.55
536.55	48935.92
536.72	49729.36
536.89	49389.98
537.06	49724.68
537.23	49968.10
537.40	49701.28
537.57	49483.61
537.74	49668.51
537.91	49872.14
538.08	49785.54
538.25	49434.45
538.42	50052.36
538.59	50103.85
538.75	49656.81
538.92	49928.31
539.09	50344.92
539.26	50073.42
539.43	49867.45
539.60	50410.46
539.77	50150.66
539.94	50754.52
540.11	50124.91
540.28	50712.39
540.44	50204.49
540.61	50653.87
540.78	50597.70
540.95	50646.85
541.12	50468.97
541.29	51035.38
541.46	51056.45
541.62	51138.36
541.79	51386.46
541.96	51014.32
542.13	50775.58
542.30	51166.45
542.47	51253.05
542.63	50679.62
542.80	51562.00
542.97	51735.20
543.14	51409.87
543.31	51590.09
543.48	51889.68
543.64	51789.03
543.81	52060.54
543.98	51709.46
544.15	51683.71
544.32	51763.29
544.48	52252.46
544.65	51571.36
544.82	52053.51
544.99	51899.04
545.16	51903.72
545.32	52053.51
545.49	52296.93
545.66	52254.80
545.83	52638.65
546.00	52861.00
546.16	52664.39
546.33	52259.48
546.50	52355.44
546.67	52699.50
546.83	51803.08
547.00	52327.36
547.17	52203.31
547.34	52219.69
547.50	52552.05
547.67	52727.59
547.84	52753.33
548.00	53045.90
548.17	53045.90
548.34	52519.28
548.51	52743.97
548.67	52765.04
548.84	53036.54
549.01	52566.09
549.18	52898.45
549.34	52556.73
549.51	53153.57
549.68	52760.36
549.84	52882.06
550.01	52992.07
550.18	52556.73
550.34	52828.23
550.51	52924.19
550.68	52949.94
550.84	52865.68
551.01	53212.08
551.18	52982.71
551.34	52935.90
551.51	53141.86
551.68	53469.54
551.84	53045.90
552.01	53214.42
552.18	53317.40
552.34	52935.90
552.51	53581.88
552.68	53352.51
552.84	53537.41
553.01	53757.42
553.18	52987.39
553.34	53598.27
553.51	53382.94
553.67	53446.13
553.84	53457.84
554.01	53677.85
554.17	53429.75
554.34	53731.68
554.51	53829.98
554.67	53764.45
554.84	53865.09
555.00	53504.65
555.17	53616.99
555.33	53553.80
555.50	53556.14
555.67	53829.98
555.83	53984.46
556.00	53925.94
556.16	54087.44
556.33	54141.27
556.50	53867.43
556.66	53834.66
556.83	53661.46
556.99	53949.35
557.16	54031.27
557.32	54438.52
557.49	54471.29
557.65	54162.34
557.82	53928.28
557.98	54124.89
558.15	53851.05
558.32	54195.10
558.48	54010.20
558.65	54005.52
558.81	54422.14
558.98	54260.64
559.14	54394.05
559.31	54321.49
559.47	54286.39
559.64	54546.18
559.80	54295.75
559.97	54227.87
560.13	54365.96
560.30	54553.21
560.46	54897.27
560.63	54529.80
560.79	54834.07
560.96	54712.36
561.12	54330.86
561.29	54583.63
561.45	54567.25
561.61	54405.75
561.78	54468.95
561.94	54894.92
562.11	54951.10
562.27	55185.15
562.44	54981.52
562.60	54625.76
562.77	54611.72
562.93	54560.23
563.10	55028.34
563.26	54506.40
563.42	54946.42
563.59	54901.95
563.75	54691.30
563.92	54951.10
564.08	55058.76
564.24	54944.08
564.41	54876.20
564.57	54906.63
564.74	54635.13
564.90	55047.06
565.07	54939.39
565.23	55311.54
565.39	55192.17
565.56	55143.02
565.72	55009.61
565.88	55138.34
566.05	54901.95
566.21	54859.82
566.38	54923.01
566.54	55147.70
566.70	55267.07
566.87	55264.73
567.03	55084.51
567.19	55744.54
567.36	55489.42
567.52	55063.44
567.68	55260.05
567.85	55084.51
568.01	55285.79
568.17	55028.34
568.34	55578.36
568.50	55227.28
568.66	55168.77
568.83	55356.01
568.99	55295.16
569.15	55236.64
569.32	55009.61
569.48	55025.99
569.64	55180.47
569.81	55203.88
569.97	55056.42
570.13	55381.76
570.30	55285.79
570.46	55552.62
570.62	55430.91
570.78	55358.35
570.95	55133.66
571.11	55508.14
571.27	55620.49
571.43	55128.98
571.60	55271.75
571.76	55199.19
571.92	55234.30
572.09	55451.97
572.25	55786.67
572.41	55274.09
572.57	55517.51
572.74	55573.68
572.90	55388.78
573.06	55386.44
573.22	55470.70
573.38	55599.43
573.55	55444.95
573.71	55650.92
573.87	55742.20
574.03	55533.89
574.20	55393.46
574.36	55739.86
574.52	55412.18
574.68	55475.38
574.84	55517.51
575.01	55639.22
575.17	55358.35
575.33	55206.22
575.49	55664.96
575.65	55950.51
575.82	55950.51
575.98	55781.99
576.14	55725.81
576.30	55950.51
576.46	55557.30
576.62	55559.64
576.79	55739.86
576.95	55557.30
577.11	55716.45
577.27	55571.34
577.43	55894.33
577.59	55526.87
577.75	55889.65
577.92	55629.85
578.08	55529.21
578.24	55629.85
578.40	55739.86
578.56	55714.11
578.72	55835.82
578.88	55807.73
579.04	55906.04
579.21	55807.73
579.37	55854.54
579.53	55875.61
579.69	55564.32
579.85	55894.33
580.01	56109.66
580.17	55767.94
580.33	56060.51
580.49	55854.54
580.65	55987.95
580.82	55943.48
580.98	56044.13
581.14	55896.67
581.30	55821.78
581.46	55690.71
581.62	55789.01
581.78	55948.17
581.94	55732.84
582.10	55519.85
582.26	55674.32
582.42	55964.55
582.58	56004.34
582.74	55920.08
582.90	55718.79
583.06	56133.07
583.22	55786.67
583.38	55765.60
583.54	55945.83
583.70	55941.14
583.86	55786.67
584.02	55994.98
584.18	56086.26
584.34	55821.78
584.50	56102.64
584.66	55854.54
584.82	55969.23
584.98	55833.48
585.14	56191.58
585.30	55887.31
585.46	55889.65
585.62	55856.88
585.78	56399.89
585.94	56058.17
586.10	55910.72
586.26	56055.83
586.42	56236.05
586.58	55882.63
586.74	55812.41
586.90	56165.84
587.06	56016.04
587.22	56540.32
587.38	56072.21
587.54	56388.19
587.70	56266.48
587.86	56093.28
588.02	56282.86
588.18	56336.69
588.34	56257.12
588.49	55927.10
