SpectraSuite Data File
++++++++++++++++++++++++++++++++++++
Date: Thu Oct 24 13:21:14 EDT 2013
User: stostad
Dark Spectrum Present: No
Reference Spectrum Present: No
Number of Sampled Component Spectra: 1
Spectrometers: USB2+H05261
Integration Time (usec): 100000 (USB2+H05261)
Spectra Averaged: 1 (USB2+H05261)
Boxcar Smoothing: 0 (USB2+H05261)
Correct for Electrical Dark: No (USB2+H05261)
Strobe/Lamp Enabled: No (USB2+H05261)
Correct for Detector Non-linearity: No (USB2+H05261)
Correct for Stray Light: No (USB2+H05261)
Number of Pixels in Processed Spectrum: 2048
>>>>>Begin Processed Spectral Data<<<<<
365.73	510.24
365.92	510.24
366.12	510.24
366.32	482.15
366.52	526.62
366.72	463.43
366.91	449.38
367.11	496.19
367.31	386.19
367.51	491.51
367.70	404.91
367.90	468.11
368.10	416.62
368.30	435.34
368.49	435.34
368.69	505.56
368.89	561.73
369.09	521.94
369.28	561.73
369.48	554.71
369.68	479.81
369.87	634.29
370.07	566.41
370.27	636.63
370.47	606.20
370.66	709.18
370.86	770.04
371.06	709.18
371.25	807.48
371.45	786.42
371.65	800.46
371.84	800.46
372.04	861.32
372.24	915.15
372.44	849.61
372.63	793.44
372.83	873.02
373.03	901.11
373.22	814.51
373.42	826.21
373.62	919.83
373.81	819.19
374.01	903.45
374.21	903.45
374.40	889.40
374.60	903.45
374.79	866.00
374.99	840.25
375.19	877.70
375.38	819.19
375.58	889.40
375.78	875.36
375.97	931.53
376.17	877.70
376.37	882.38
376.56	870.68
376.76	844.93
376.95	938.55
377.15	854.30
377.35	884.72
377.54	931.53
377.74	950.26
377.93	976.00
378.13	873.02
378.33	929.19
378.52	926.85
378.72	903.45
378.91	945.58
379.11	973.66
379.31	947.92
379.50	922.17
379.70	898.77
379.89	945.58
380.09	959.62
380.28	917.49
380.48	882.38
380.68	901.11
380.87	891.74
381.07	917.49
381.26	1128.14
381.46	1004.09
381.65	997.07
381.85	976.00
382.04	887.06
382.24	987.71
382.43	987.71
382.63	1006.43
382.83	851.96
383.02	1032.18
383.22	1020.47
383.41	952.60
383.61	1053.24
383.80	1027.50
384.00	1097.71
384.19	1015.79
384.39	1004.09
384.58	1011.11
384.78	950.26
384.97	1032.18
385.17	1039.20
385.36	964.30
385.56	952.60
385.75	1048.56
385.95	1057.92
386.14	1142.18
386.34	1013.45
386.53	1083.67
386.72	1071.97
386.92	1032.18
387.11	1041.54
387.31	1060.26
387.50	1046.22
387.70	1128.14
387.89	1048.56
388.09	1053.24
388.28	1128.14
388.48	1153.88
388.67	1097.71
388.86	1123.46
389.06	1144.52
389.25	1203.04
389.45	1086.01
389.64	1055.58
389.84	1149.20
390.03	1184.31
390.22	1123.46
390.42	1121.12
390.61	1130.48
390.81	1128.14
391.00	1093.03
391.19	1163.25
391.39	1198.35
391.58	1097.71
391.78	1153.88
391.97	1165.59
392.16	1198.35
392.36	1310.70
392.55	1203.04
392.75	1226.44
392.94	1364.53
393.13	1214.74
393.33	1273.25
393.52	1245.16
393.71	1224.10
393.91	1289.64
394.10	1249.85
394.29	1228.78
394.49	1181.97
394.68	1275.59
394.88	1242.82
395.07	1350.49
395.26	1299.00
395.46	1331.76
395.65	1390.28
395.84	1341.13
396.04	1350.49
396.23	1242.82
396.42	1352.83
396.62	1331.76
396.81	1338.79
397.00	1350.49
397.19	1306.02
397.39	1327.08
397.58	1336.45
397.77	1348.15
397.97	1299.00
398.16	1446.45
398.35	1406.66
398.55	1444.11
398.74	1348.15
398.93	1451.13
399.12	1322.40
399.32	1404.32
399.51	1432.41
399.70	1488.58
399.90	1434.75
400.09	1467.52
400.28	1540.07
400.47	1432.41
400.67	1582.20
400.86	1476.88
401.05	1547.09
401.24	1507.30
401.44	1502.62
401.63	1481.56
401.82	1535.39
402.01	1584.54
402.21	1493.26
402.40	1551.78
402.59	1572.84
402.78	1540.07
402.97	1589.22
403.17	1652.42
403.36	1638.38
403.55	1652.42
403.74	1619.65
403.93	1717.95
404.13	1713.27
404.32	1657.10
404.51	1722.63
404.70	1650.08
404.89	1715.61
405.09	1724.97
405.28	1797.53
405.47	1713.27
405.66	1621.99
405.85	1724.97
406.05	1764.76
406.24	1764.76
406.43	1774.13
406.62	1771.79
406.81	1839.66
407.00	1750.72
407.20	1713.27
407.39	1790.51
407.58	1863.07
407.77	1872.43
407.96	1982.43
408.15	1956.69
408.34	1839.66
408.54	1923.92
408.73	1853.70
408.92	1907.54
409.11	1867.75
409.30	1867.75
409.49	2001.16
409.68	1905.20
409.87	1998.82
410.07	1963.71
410.26	1982.43
410.45	2059.67
410.64	2064.35
410.83	2099.46
411.02	2106.48
411.21	1961.37
411.40	2029.24
411.59	2132.23
411.78	2038.61
411.98	2143.93
412.17	2047.97
412.36	2228.19
412.55	2235.21
412.74	2277.34
412.93	2179.04
413.12	2162.66
413.31	2272.66
413.50	2186.06
413.69	2338.20
413.88	2352.24
414.07	2289.04
414.26	2363.94
414.45	2382.67
414.64	2420.11
414.83	2438.84
415.02	2389.69
415.22	2377.98
415.41	2387.35
415.60	2448.20
415.79	2424.80
415.98	2502.03
416.17	2588.63
416.36	2506.71
416.55	2562.89
416.74	2555.86
416.93	2527.78
417.12	2452.88
417.31	2689.28
417.50	2532.46
417.69	2628.42
417.88	2806.30
418.07	2668.21
418.26	2642.46
418.45	2757.15
418.64	2670.55
418.83	2766.51
419.02	2731.41
419.21	2708.00
419.39	2745.45
419.58	2717.36
419.77	2846.09
419.96	2909.29
420.15	2871.84
420.34	2878.86
420.53	2857.79
420.72	2869.50
420.91	2916.31
421.10	2918.65
421.29	2958.44
421.48	2876.52
421.67	2953.76
421.86	2972.48
422.05	2881.20
422.24	2963.12
422.43	2946.73
422.61	2979.50
422.80	3002.91
422.99	2998.23
423.18	2998.23
423.37	2958.44
423.56	2977.16
423.75	2981.84
423.94	2988.86
424.13	2787.58
424.32	2843.75
424.50	3016.95
424.69	3033.33
424.88	2949.08
425.07	2979.50
425.26	3047.38
425.45	2988.86
425.64	2991.20
425.83	2991.20
426.01	3026.31
426.20	3026.31
426.39	3126.96
426.58	3084.83
426.77	2951.42
426.96	3157.38
427.15	3021.63
427.33	3040.36
427.52	3059.08
427.71	3218.24
427.90	3042.70
428.09	3206.53
428.28	3215.90
428.46	3169.09
428.65	3183.13
428.84	3201.85
429.03	3353.99
429.22	3178.45
429.40	3213.56
429.59	3225.26
429.78	3300.16
429.97	3260.37
430.16	3293.13
430.34	3325.90
430.53	3435.91
430.72	3358.67
430.91	3316.54
431.10	3265.05
431.28	3412.50
431.47	3398.46
431.66	3522.51
431.85	3368.03
432.03	3588.04
432.22	3468.67
432.41	3447.61
432.60	3349.31
432.79	3478.04
432.97	3487.40
433.16	3482.72
433.35	3508.46
433.54	3590.38
433.72	3590.38
433.91	3651.24
434.10	3669.96
434.28	3658.26
434.47	3578.68
434.66	3695.71
434.85	3644.21
435.03	3815.07
435.22	3929.76
435.41	4117.00
435.59	4004.66
435.78	3953.16
435.97	3974.23
436.16	3918.06
436.34	3637.19
436.53	3726.13
436.72	3840.82
436.90	3880.61
437.09	3868.91
437.28	3779.97
437.46	3786.99
437.65	3892.31
437.84	3915.72
438.02	3978.91
438.21	3971.89
438.40	3801.03
438.58	4016.36
438.77	4091.26
438.96	3911.04
439.14	4170.83
439.33	4039.76
439.52	4299.56
439.70	4238.71
439.89	4030.40
440.08	4234.03
440.26	4212.96
440.45	4091.26
440.63	4189.56
440.82	4390.84
441.01	4271.48
441.19	4423.61
441.38	4395.53
441.57	4337.01
441.75	4325.31
441.94	4550.00
442.12	4531.28
442.31	4606.17
442.50	4568.73
442.68	4442.34
442.87	4358.08
443.05	4559.36
443.24	4594.47
443.43	4678.73
443.61	4734.90
443.80	4674.05
443.98	4550.00
444.17	4535.96
444.35	4678.73
444.54	4610.86
444.73	4744.27
444.91	4744.27
445.10	4777.03
445.28	4767.67
445.47	4704.48
445.65	4730.22
445.84	4592.13
446.02	4772.35
446.21	4755.97
446.39	4575.75
446.58	4634.26
446.77	4793.42
446.95	4709.16
447.14	4755.97
447.32	4798.10
447.51	4891.72
447.69	4777.03
447.88	4723.20
448.06	4870.65
448.25	4812.14
448.43	4816.82
448.62	4793.42
448.80	4784.06
448.99	4798.10
449.17	4772.35
449.36	4905.76
449.54	4863.63
449.73	5093.01
449.91	5036.83
450.10	5205.35
450.28	5004.07
450.46	5125.77
450.65	4954.91
450.83	4975.98
451.02	4959.60
451.20	5036.83
451.39	5200.67
451.57	5071.94
451.76	5067.26
451.94	5160.88
452.13	5203.01
452.31	5294.29
452.49	5198.33
452.68	5181.95
452.86	5252.16
453.05	5303.65
453.23	5259.18
453.42	5224.08
453.60	5139.82
453.78	5390.25
453.97	5193.65
454.15	5219.39
454.34	5210.03
454.52	5495.58
454.70	5322.38
454.89	5401.96
455.07	5430.04
455.26	5453.45
455.44	5469.83
455.62	5514.30
455.81	5554.09
455.99	5544.73
456.17	5434.72
456.36	5439.40
456.54	5614.95
456.73	5731.97
456.91	5657.07
457.09	5743.67
457.28	5816.23
457.46	5823.25
457.64	5741.33
457.83	5823.25
458.01	5785.80
458.19	5654.73
458.38	5689.84
458.56	5823.25
458.74	5762.40
458.93	5774.10
459.11	5748.36
459.29	5984.75
459.48	6003.47
459.66	5963.68
459.84	5968.37
460.03	6052.63
460.21	6167.31
460.39	6171.99
460.57	5966.03
460.76	6092.41
460.94	6017.52
461.12	6230.51
461.31	6078.37
461.49	6251.57
461.67	6059.65
461.85	6019.86
462.04	6171.99
462.22	6480.94
462.40	6384.98
462.59	6228.17
462.77	6214.12
462.95	6214.12
463.13	6195.40
463.32	6249.23
463.50	6354.55
463.68	6370.94
463.86	6399.02
464.05	6525.41
464.23	6392.00
464.41	6487.96
464.59	6338.17
464.78	6581.59
464.96	6658.82
465.14	6485.62
465.32	6473.92
465.50	6633.08
465.69	6511.37
465.87	6452.86
466.05	6413.07
466.23	6532.44
466.41	6626.06
466.60	6759.47
466.78	6628.40
466.96	6597.97
467.14	6581.59
467.32	6565.20
467.51	6773.51
467.69	6494.99
467.87	6581.59
468.05	6712.66
468.23	6736.06
468.41	6668.19
468.60	6738.40
468.78	6792.23
468.96	6817.98
469.14	6925.65
469.32	7042.67
469.50	6942.03
469.69	6906.92
469.87	6878.83
470.05	7045.01
470.23	7101.19
470.41	6995.86
470.59	7110.55
470.77	6895.22
470.95	7091.82
471.14	7162.04
471.32	6881.18
471.50	7140.97
471.68	7258.00
471.86	7295.45
472.04	7375.03
472.22	7356.30
472.40	7295.45
472.58	7314.17
472.77	7536.52
472.95	7393.75
473.13	7515.46
473.31	7449.93
473.49	7517.80
473.67	7630.15
473.85	7585.68
474.03	7791.64
474.21	7805.69
474.39	7733.13
474.57	7852.50
474.75	8011.65
474.93	7803.35
475.12	7705.04
475.30	8105.28
475.48	7887.61
475.66	8013.99
475.84	7981.23
476.02	8189.53
476.20	8084.21
476.38	8329.97
476.56	8276.13
476.74	8425.93
476.92	8393.16
477.10	8290.18
477.28	8386.14
477.46	8512.53
477.64	8381.46
477.82	8589.77
478.00	8823.82
478.18	8849.57
478.36	8849.57
478.54	8887.01
478.72	9015.74
478.90	9121.07
479.08	9020.42
479.26	9270.86
479.44	9170.22
479.62	9294.27
479.80	9284.91
479.98	9525.98
480.16	9439.38
480.34	9603.22
480.52	9650.03
480.70	9675.77
480.88	9540.02
481.06	9586.83
481.24	9951.96
481.41	9774.08
481.59	9853.66
481.77	10134.52
481.95	10183.67
482.13	10338.15
482.31	10071.33
482.49	10485.60
482.67	10471.56
482.85	10504.32
483.03	10640.08
483.21	10736.04
483.39	10839.02
483.57	10633.05
483.74	10698.59
483.92	11063.71
484.10	11040.31
484.28	11140.95
484.46	11323.51
484.64	11534.16
484.82	11236.91
485.00	11309.47
485.18	11798.64
485.35	11686.29
485.53	11543.52
485.71	11885.24
485.89	11871.20
486.07	11960.14
486.25	12051.42
486.43	12343.99
486.61	12280.79
486.78	12358.03
486.96	12365.05
487.14	12697.41
487.32	12545.27
487.50	12706.77
487.68	12833.16
487.85	13099.98
488.03	12788.69
488.21	13446.38
488.39	13268.50
488.57	13329.35
488.75	13188.92
488.92	13366.80
489.10	13631.28
489.28	13671.07
489.46	13888.74
489.64	13757.67
489.81	14097.05
489.99	14001.08
490.17	14129.81
490.35	14583.88
490.53	14178.97
490.70	14703.25
490.88	14380.25
491.06	14736.01
491.24	14452.81
491.41	14520.68
491.59	14750.06
491.77	14710.27
491.95	15143.27
492.13	15218.16
492.30	15325.83
492.48	15293.06
492.66	15307.10
492.84	15325.83
493.01	15262.63
493.19	15838.41
493.37	15822.02
493.54	15758.83
493.72	15854.79
493.90	15616.05
494.08	15915.64
494.25	16126.29
494.43	16222.25
494.61	16166.08
494.79	16049.05
494.96	16114.59
495.14	16503.12
495.32	16783.98
495.49	16781.64
495.67	16837.81
495.85	16947.82
496.02	16816.75
496.20	16898.67
496.38	17067.19
496.55	17275.49
496.73	17523.59
496.91	17121.02
497.09	17668.70
497.26	17633.60
497.44	17811.48
497.62	17350.39
497.79	17724.88
497.97	18050.21
498.14	18218.73
498.32	18178.94
498.50	18071.28
498.67	18511.30
498.85	17965.95
499.03	18279.58
499.20	18244.48
499.38	18508.96
499.56	18820.25
499.73	18827.27
499.91	18885.78
500.08	18897.49
500.26	18925.57
500.44	18946.64
500.61	19176.01
500.79	19000.47
500.97	19323.46
501.14	19197.07
501.32	19288.35
501.49	19103.45
501.67	19440.49
501.84	19676.88
502.02	19431.13
502.20	19695.61
502.37	19669.86
502.55	19644.12
502.72	19742.42
502.90	19735.40
503.07	19676.88
503.25	20004.56
503.43	19704.97
503.60	20102.86
503.78	20130.95
503.95	20121.59
504.13	19843.06
504.30	20247.97
504.48	20152.01
504.65	20652.89
504.83	20620.12
505.01	20858.85
505.18	20561.61
505.36	20933.75
505.53	20996.95
505.71	20755.87
505.88	20919.71
506.06	20865.88
506.23	20975.88
506.41	20835.45
506.58	21163.12
506.76	21231.00
506.93	21242.70
507.11	21172.49
507.28	21642.93
507.46	21439.31
507.63	21687.40
507.81	21392.50
507.98	21329.30
508.16	21249.72
508.33	21736.56
508.50	22001.04
508.68	21841.88
508.85	22171.89
509.03	21970.61
509.20	21893.37
509.38	22431.69
509.55	22417.65
509.73	22089.98
509.90	22391.91
510.08	22178.92
510.25	22462.12
510.42	22497.23
510.60	22740.64
510.77	22441.06
510.95	22705.54
511.12	22665.75
511.30	22820.22
511.47	23040.23
511.64	23009.81
511.82	22881.08
511.99	22759.37
512.17	22984.06
512.34	23288.33
512.51	23555.15
512.69	23328.12
512.86	23772.82
513.04	23536.43
513.21	23466.21
513.38	23379.61
513.56	23644.09
513.73	23707.29
513.90	23880.49
514.08	23707.29
514.25	24060.71
514.43	24435.19
514.60	23857.08
514.77	23960.06
514.95	24245.61
515.12	24006.87
515.29	24224.54
515.47	24128.58
515.64	24269.01
515.81	24229.23
515.99	24472.64
516.16	24339.23
516.33	24353.27
516.51	24737.12
516.68	24861.17
516.85	24624.78
517.03	24931.39
517.20	25067.14
517.37	24577.97
517.54	24746.48
517.72	24861.17
517.89	24819.04
518.06	24533.50
518.24	25006.28
518.41	24919.68
518.58	25186.50
518.75	25022.67
518.93	25163.10
519.10	25146.72
519.27	25369.07
519.45	25472.05
519.62	25759.94
519.79	25469.71
519.96	25230.98
520.14	25612.48
520.31	25570.35
520.48	25720.15
520.65	25766.96
520.83	25869.94
521.00	25996.33
521.17	26244.43
521.34	25736.53
521.52	25958.88
521.69	25895.69
521.86	25825.47
522.03	26050.16
522.20	26267.83
522.38	26590.83
522.55	26448.05
522.72	26494.86
522.89	26195.28
523.07	26534.65
523.24	26295.92
523.41	26773.39
523.58	26874.03
523.75	26822.54
523.92	26913.82
524.10	26518.27
524.27	27447.46
524.44	26906.80
524.61	27021.48
524.78	26934.88
524.96	27161.92
525.13	27007.44
525.30	27552.79
525.47	27314.05
525.64	27199.37
525.81	27236.81
525.98	27250.86
526.16	27346.82
526.33	27407.67
526.50	27733.01
526.67	27276.60
526.84	27580.87
527.01	27550.45
527.18	27707.26
527.36	27522.36
527.53	27721.30
527.70	27901.53
527.87	28177.71
528.04	27903.87
528.21	27742.37
528.38	28034.94
528.55	28135.58
528.72	27889.82
528.89	27927.27
529.07	28381.34
529.24	27463.85
529.41	28198.77
529.58	27927.27
529.75	28243.24
529.92	28503.04
530.09	28500.70
530.26	28510.07
530.43	28360.27
530.60	28624.75
530.77	28603.69
530.94	29109.24
531.11	28510.07
531.28	29006.26
531.46	29022.64
531.63	28779.23
531.80	28360.27
531.97	28781.57
532.14	29160.73
532.31	29032.00
532.48	29179.46
532.65	29343.30
532.82	28800.29
532.99	29017.96
533.16	28907.96
533.33	29376.06
533.50	29715.44
533.67	29567.99
533.84	28840.08
534.01	29284.78
534.18	28919.66
534.35	29809.06
534.52	29858.21
534.69	29436.92
534.86	29383.09
535.03	29223.93
535.20	29493.09
535.37	29717.78
535.54	29958.86
535.71	29923.75
535.88	29565.65
536.05	29649.91
536.22	29720.12
536.38	30139.08
536.55	30087.59
536.72	30284.19
536.89	30174.19
537.06	30265.47
537.23	30115.67
537.40	30328.66
537.57	30661.02
537.74	30204.61
537.91	30113.33
538.08	30485.48
538.25	30003.33
538.42	30127.38
538.59	30675.06
538.75	30426.96
538.92	30405.90
539.09	30637.61
539.26	30302.92
539.43	30225.68
539.60	30574.42
539.77	30906.77
539.94	30932.52
540.11	30866.98
540.28	31009.76
540.44	31040.18
540.61	30785.07
540.78	30948.90
540.95	31030.82
541.12	31248.49
541.29	31297.64
541.46	31529.36
541.62	31639.36
541.79	31250.83
541.96	31424.03
542.13	31264.88
542.30	31346.79
542.47	31424.03
542.63	31578.51
542.80	31702.56
542.97	32254.92
543.14	31826.60
543.31	31672.13
543.48	32009.17
543.64	32362.59
543.81	32154.28
543.98	32343.86
544.15	31950.65
544.32	32210.45
544.48	32383.65
544.65	32264.28
544.82	32165.98
544.99	32247.90
545.16	32158.96
545.32	32109.81
545.49	32566.21
545.66	33502.43
545.83	33464.98
546.00	33043.68
546.16	32856.44
546.33	32596.64
546.50	32327.48
546.67	32545.15
546.83	32055.98
547.00	32114.49
547.17	32943.04
547.34	32425.78
547.50	32652.81
547.67	33013.26
547.84	32414.08
548.00	32283.01
548.17	33078.79
548.34	32430.46
548.51	32875.16
548.67	32924.32
548.84	33013.26
549.01	32622.39
549.18	32828.35
549.34	32601.32
549.51	33031.98
549.68	32872.82
549.84	32666.86
550.01	33120.92
550.18	32648.13
550.34	32863.46
550.51	33364.34
550.68	32870.48
550.84	32402.38
551.01	32889.21
551.18	32694.94
551.34	32620.05
551.51	32933.68
551.68	33338.59
551.84	32893.89
552.01	33001.55
552.18	32830.69
552.34	33074.11
552.51	33537.54
552.68	33237.95
552.84	33380.72
553.01	33371.36
553.18	33261.35
553.34	33312.84
553.51	33209.86
553.67	33221.56
553.84	33666.27
554.01	33614.77
554.17	33493.07
554.34	33439.23
554.51	33343.27
554.67	33809.04
554.84	33333.91
555.00	33429.87
555.17	32919.63
555.33	33432.21
555.50	33366.68
555.67	33661.58
555.83	33462.64
556.00	33701.37
556.16	34129.69
556.33	33708.40
556.50	34043.09
556.66	33249.65
556.83	33617.11
556.99	33806.70
557.16	33986.92
557.32	34178.84
557.49	33968.19
557.65	33996.28
557.82	34078.20
557.98	34071.18
558.15	34132.03
558.32	34153.10
558.48	33832.44
558.65	33986.92
558.81	34092.24
558.98	34548.65
559.14	34078.20
559.31	34094.58
559.47	33993.94
559.64	34174.16
559.80	34059.48
559.97	34225.65
560.13	33727.12
560.30	34321.62
560.46	34202.25
560.63	34738.23
560.79	34611.84
560.96	34565.03
561.12	34668.02
561.29	34033.73
561.45	34494.82
561.61	34499.50
561.78	34157.78
561.94	34794.40
562.11	34948.88
562.27	34988.67
562.44	34188.21
562.60	34464.39
562.77	34845.90
562.93	34857.60
563.10	34740.57
563.26	34096.92
563.42	34569.71
563.59	34918.45
563.75	34951.22
563.92	34569.71
564.08	34810.79
564.24	34710.14
564.41	34810.79
564.57	34490.13
564.74	34536.94
564.90	34677.38
565.07	34789.72
565.23	35145.48
565.39	34684.40
565.56	35101.01
565.72	34892.71
565.88	35009.73
566.05	35028.46
566.21	34529.92
566.38	34253.74
566.54	34249.06
566.70	35133.78
566.87	34829.51
567.03	34998.03
567.19	34979.31
567.36	35208.68
567.52	34712.49
567.68	34965.26
567.85	35281.24
568.01	35267.19
568.17	34794.40
568.34	35288.26
568.50	35044.84
568.66	35283.58
568.83	35152.51
568.99	35152.51
569.15	35086.97
569.32	34883.34
569.48	34494.82
569.64	35124.42
569.81	35079.95
569.97	35173.57
570.13	35309.32
570.30	34925.47
570.46	35246.13
570.62	34813.13
570.78	35213.36
570.95	34831.85
571.11	35199.32
571.27	35040.16
571.43	34902.07
571.60	34806.11
571.76	34974.63
571.92	35332.73
572.09	35374.86
572.25	35227.40
572.41	35339.75
572.57	35482.52
572.74	35622.95
572.90	34771.00
573.06	35311.66
573.22	35316.34
573.38	34981.65
573.55	35395.92
573.71	35220.38
573.87	35353.79
574.03	35442.73
574.20	35276.55
574.36	35508.27
574.52	35309.32
574.68	35227.40
574.84	35309.32
575.01	35295.28
575.17	35660.40
575.33	35232.08
575.49	35033.14
575.65	35505.93
575.82	35674.45
575.98	35332.73
576.14	35138.46
576.30	35459.12
576.46	35318.68
576.62	35337.41
576.79	35227.40
576.95	35629.98
577.11	35711.89
577.27	35681.47
577.43	35629.98
577.59	35131.44
577.75	35459.12
577.92	35552.74
578.08	35295.28
578.24	35440.39
578.40	35253.15
578.56	35964.67
578.72	35524.65
578.88	35878.07
579.04	35681.47
579.21	35583.16
579.37	35697.85
579.53	35978.72
579.69	35555.08
579.85	35576.14
580.01	35466.14
580.17	35393.58
580.33	35564.44
580.49	35861.69
580.65	35854.67
580.82	35599.55
580.98	35831.26
581.14	35913.18
581.30	36154.26
581.46	35463.80
581.62	35360.81
581.78	35344.43
581.94	35433.37
582.10	35086.97
582.26	35419.33
582.42	35316.34
582.58	35442.73
582.74	35503.59
582.90	35742.32
583.06	35601.89
583.22	35929.56
583.38	35344.43
583.54	35758.70
583.70	35367.84
583.86	35543.38
584.02	35473.16
584.18	35496.56
584.34	35835.94
584.50	35395.92
584.66	35129.10
584.82	35234.42
584.98	35475.50
585.14	35756.36
585.30	35711.89
585.46	35576.14
585.62	35353.79
585.78	35943.61
585.94	35952.97
586.10	36006.80
586.26	36053.61
586.42	36067.66
586.58	35660.40
586.74	35805.52
586.90	35426.35
587.06	36006.80
587.22	36257.24
587.38	35721.26
587.54	36051.27
587.70	36140.21
587.86	36231.49
588.02	36081.70
588.18	35955.31
588.34	36203.41
588.49	35669.76
588.65	35349.11
588.81	36074.68
588.97	35955.31
589.13	35786.79
589.29	36070.00
589.45	35812.54
589.61	35910.84
589.77	35941.27
589.93	35962.33
