SpectraSuite Data File
++++++++++++++++++++++++++++++++++++
Date: Thu Oct 24 13:21:34 EDT 2013
User: stostad
Dark Spectrum Present: No
Reference Spectrum Present: No
Number of Sampled Component Spectra: 1
Spectrometers: USB2+H05261
Integration Time (usec): 100000 (USB2+H05261)
Spectra Averaged: 1 (USB2+H05261)
Boxcar Smoothing: 0 (USB2+H05261)
Correct for Electrical Dark: No (USB2+H05261)
Strobe/Lamp Enabled: No (USB2+H05261)
Correct for Detector Non-linearity: No (USB2+H05261)
Correct for Stray Light: No (USB2+H05261)
Number of Pixels in Processed Spectrum: 2048
>>>>>Begin Processed Spectral Data<<<<<
365.73	528.96
365.92	528.96
366.12	528.96
366.32	458.74
366.52	521.94
366.72	493.85
366.91	430.66
367.11	461.09
367.31	468.11
367.51	437.68
367.70	447.04
367.90	456.40
368.10	435.34
368.30	418.96
368.49	430.66
368.69	519.60
368.89	503.22
369.09	547.69
369.28	568.75
369.48	554.71
369.68	540.66
369.87	526.62
370.07	519.60
370.27	557.05
370.47	760.67
370.66	1144.52
370.86	1174.95
371.06	1228.78
371.25	1273.25
371.45	1210.06
371.65	1322.40
371.84	1242.82
372.04	1291.98
372.24	1287.29
372.44	1341.13
372.63	1334.11
372.83	1338.79
373.03	1416.02
373.22	1306.02
373.42	1355.17
373.62	1420.71
373.81	1451.13
374.01	1481.56
374.21	1352.83
374.40	1483.90
374.60	1425.39
374.79	1394.96
374.99	1458.15
375.19	1416.02
375.38	1425.39
375.58	1425.39
375.78	1535.39
375.97	1519.01
376.17	1584.54
376.37	1455.81
376.56	1558.80
376.76	1509.65
376.95	1565.82
377.15	1554.12
377.35	1476.88
377.54	1502.62
377.74	1547.09
377.93	1446.45
378.13	1586.88
378.33	1605.61
378.52	1614.97
378.72	1671.14
378.91	1643.06
379.11	1610.29
379.31	1612.63
379.50	1687.53
379.70	1722.63
379.89	1703.91
380.09	1638.38
380.28	1739.02
380.48	1783.49
380.68	1708.59
380.87	1713.27
381.07	1750.72
381.26	1694.55
381.46	1809.23
381.65	1694.55
381.85	1877.11
382.04	1755.40
382.24	1912.22
382.43	1816.26
382.63	1741.36
382.83	1816.26
383.02	1956.69
383.22	1853.70
383.41	1839.66
383.61	1783.49
383.80	1907.54
384.00	1879.45
384.19	1898.17
384.39	1916.90
384.58	1928.60
384.78	1980.09
384.97	2029.24
385.17	2036.27
385.36	2015.20
385.56	1970.73
385.75	2040.95
385.95	2073.71
386.14	1954.35
386.34	2073.71
386.53	1961.37
386.72	1987.11
386.92	2071.37
387.11	2029.24
387.31	2036.27
387.50	2050.31
387.70	1996.48
387.89	2085.42
388.09	2127.55
388.28	2097.12
388.48	2228.19
388.67	2197.76
388.86	2202.44
389.06	2221.17
389.25	2275.00
389.45	2282.02
389.64	2230.53
389.84	2286.70
390.03	2267.98
390.22	2300.75
390.42	2349.90
390.61	2230.53
390.81	2331.17
391.00	2363.94
391.19	2366.28
391.39	2305.43
391.58	2375.64
391.78	2504.37
391.97	2443.52
392.16	2361.60
392.36	2406.07
392.55	2520.76
392.75	2593.31
392.94	2361.60
393.13	2375.64
393.33	2520.76
393.52	2502.03
393.71	2602.68
393.91	2623.74
394.10	2473.95
394.29	2595.65
394.49	2623.74
394.68	2668.21
394.88	2754.81
395.07	2745.45
395.26	2661.19
395.46	2738.43
395.65	2754.81
395.84	2881.20
396.04	2766.51
396.23	2736.09
396.42	2895.24
396.62	2869.50
396.81	2888.22
397.00	2918.65
397.19	2909.29
397.39	2911.63
397.58	2923.33
397.77	2942.05
397.97	2920.99
398.16	2979.50
398.35	2981.84
398.55	2935.03
398.74	2991.20
398.93	3094.19
399.12	3187.81
399.32	3185.47
399.51	3143.34
399.70	3185.47
399.90	3222.92
400.09	3131.64
400.28	3248.66
400.47	3190.15
400.67	3225.26
400.86	3358.67
401.05	3183.13
401.24	3356.33
401.44	3241.64
401.63	3456.97
401.82	3377.39
402.01	3363.35
402.21	3370.37
402.40	3417.18
402.59	3447.61
402.78	3508.46
402.97	3555.27
403.17	3651.24
403.36	3393.78
403.55	3583.36
403.74	3712.09
403.93	3730.81
404.13	3740.18
404.32	3686.34
404.51	3693.37
404.70	3796.35
404.89	3772.94
405.09	3719.11
405.28	3955.51
405.47	3845.50
405.66	3822.09
405.85	3918.06
406.05	3892.31
406.24	4004.66
406.43	3985.93
406.62	4007.00
406.81	4117.00
407.00	3777.62
407.20	3918.06
407.39	4067.85
407.58	4126.36
407.77	4135.73
407.96	4236.37
408.15	4231.69
408.34	4212.96
408.54	4280.84
408.73	4180.20
408.92	4243.39
409.11	4362.76
409.30	4386.16
409.49	4381.48
409.68	4449.36
409.87	4432.97
410.07	4531.28
410.26	4526.60
410.45	4571.07
410.64	4615.54
410.83	4603.83
411.02	4596.81
411.21	4856.61
411.40	4784.06
411.59	4894.06
411.78	4940.87
411.98	4926.83
412.17	4835.55
412.36	4898.74
412.55	4875.34
412.74	5083.64
412.93	4992.36
413.12	4954.91
413.31	5235.78
413.50	5210.03
413.69	5029.81
413.88	5329.40
414.07	5385.57
414.26	5226.42
414.45	5439.40
414.64	5547.07
414.83	5500.26
415.02	5605.58
415.22	5788.14
415.41	5783.46
415.60	5809.21
415.79	5841.98
415.98	5687.50
416.17	5825.59
416.36	5778.78
416.55	5930.92
416.74	5905.17
416.93	5977.73
417.12	5858.36
417.31	5987.09
417.50	6221.14
417.69	6015.18
417.88	6143.91
418.07	6314.77
418.26	6162.63
418.45	6310.08
418.64	6408.39
418.83	6476.26
419.02	6502.01
419.21	6724.36
419.39	6499.67
419.58	6661.16
419.77	6583.93
419.96	6494.99
420.15	6853.09
420.34	6609.67
420.53	6813.30
420.72	6574.56
420.91	6736.06
421.10	6817.98
421.29	6939.69
421.48	6815.64
421.67	7047.35
421.86	7052.03
422.05	7028.63
422.24	6888.20
422.43	6977.14
422.61	7037.99
422.80	7115.23
422.99	7005.22
423.18	7138.63
423.37	7300.13
423.56	7105.87
423.75	7166.72
423.94	6920.96
424.13	6745.42
424.32	6846.07
424.50	7169.06
424.69	7272.04
424.88	7255.66
425.07	7232.26
425.26	6991.18
425.45	7229.91
425.64	7112.89
425.83	7330.56
426.01	7351.62
426.20	7255.66
426.39	7417.16
426.58	7274.38
426.77	7375.03
426.96	7351.62
427.15	7297.79
427.33	7545.89
427.52	7325.88
427.71	7513.12
427.90	7534.18
428.09	7588.02
428.28	7822.07
428.46	7662.91
428.65	7714.41
428.84	7854.84
429.03	7775.26
429.22	7552.91
429.40	7964.84
429.59	7908.67
429.78	7581.00
429.97	7548.23
430.16	7927.39
430.34	8030.38
430.53	7906.33
430.72	8093.57
430.91	8128.68
431.10	8163.79
431.28	8154.43
431.47	8454.02
431.66	8304.22
431.85	8175.49
432.03	8517.21
432.22	8521.89
432.41	8355.71
432.60	8404.86
432.79	8599.13
432.97	8688.07
433.16	8542.96
433.35	8486.78
433.54	8669.34
433.72	8812.12
433.91	8854.25
434.10	8802.75
434.28	8648.28
434.47	8875.31
434.66	8929.14
434.85	8975.95
435.03	9240.44
435.22	9069.58
435.41	9327.03
435.59	9455.76
435.78	9671.09
435.97	9446.40
436.16	9296.61
436.34	9102.34
436.53	9308.31
436.72	9364.48
436.90	9125.75
437.09	9301.29
437.28	9378.53
437.46	9542.36
437.65	9298.95
437.84	9490.87
438.02	9643.01
438.21	9680.46
438.40	9600.88
438.58	9848.97
438.77	10003.45
438.96	9954.30
439.14	10061.96
439.33	10181.33
439.52	10235.16
439.70	10600.29
439.89	10464.54
440.08	10588.58
440.26	10565.18
440.45	10560.50
440.63	10593.26
440.82	10686.89
441.01	10696.25
441.19	10944.34
441.38	10902.22
441.57	11164.36
441.75	11037.97
441.94	11103.50
442.12	11419.47
442.31	11421.81
442.50	11227.55
442.68	11316.49
442.87	11534.16
443.05	11435.86
443.24	11595.01
443.43	11728.42
443.61	11499.05
443.80	11735.45
443.98	11536.50
444.17	11140.95
444.35	11850.13
444.54	11831.41
444.73	11660.55
444.91	11768.21
445.10	11758.85
445.28	11864.18
445.47	11679.27
445.65	11716.72
445.84	11988.22
446.02	12004.61
446.21	11999.93
446.39	12056.10
446.58	12170.79
446.77	11948.43
446.95	11737.79
447.14	12128.66
447.32	12133.34
447.51	12217.60
447.69	12025.67
447.88	12149.72
448.06	12077.16
448.25	12013.97
448.43	12369.73
448.62	12189.51
448.80	11960.14
448.99	12407.18
449.17	12517.18
449.36	12390.80
449.54	12610.81
449.73	12685.70
449.91	12819.11
450.10	12760.60
450.28	12690.38
450.46	12917.42
450.65	13041.46
450.83	12620.17
451.02	12812.09
451.20	13181.90
451.39	12992.31
451.57	12844.86
451.76	13172.54
451.94	13221.69
452.13	12985.29
452.31	13097.64
452.49	12947.84
452.68	13385.52
452.86	13366.80
453.05	13390.20
453.23	13617.24
453.42	13462.76
453.60	13181.90
453.78	13352.76
453.97	13771.71
454.15	13427.65
454.34	13327.01
454.52	13862.99
454.70	13668.73
454.89	13987.04
455.07	13928.53
455.26	13813.84
455.44	14207.05
455.62	13956.61
455.81	14153.22
455.99	14253.86
456.17	14356.85
456.36	14218.75
456.54	14537.07
456.73	14567.49
456.91	14909.21
457.09	14665.80
457.28	14902.19
457.46	14565.15
457.64	14965.39
457.83	15073.05
458.01	14853.04
458.19	15171.35
458.38	14934.96
458.56	15524.77
458.74	15133.90
458.93	15360.94
459.11	15391.36
459.29	14988.79
459.48	15379.66
459.66	15183.06
459.84	15559.88
460.03	15836.06
460.21	15683.93
460.39	15597.33
460.57	15789.25
460.76	15749.46
460.94	16168.42
461.12	15840.75
461.31	15758.83
461.49	16032.67
461.67	15887.56
461.85	16229.27
462.04	15929.69
462.22	16592.06
462.40	16390.77
462.59	16248.00
462.77	16311.19
462.95	16304.17
463.13	16613.12
463.32	16446.94
463.50	16666.95
463.68	16791.00
463.86	16723.13
464.05	16666.95
464.23	16711.42
464.41	16746.53
464.59	16484.39
464.78	17039.10
464.96	17067.19
465.14	16643.55
465.32	17132.72
465.50	17305.92
465.69	17343.37
465.87	17348.05
466.05	17319.96
466.23	17242.73
466.41	17336.35
466.60	17420.61
466.78	17240.39
466.96	17078.89
467.14	17158.47
467.32	17771.69
467.51	17891.06
467.69	17551.68
467.87	17678.07
468.05	17996.38
468.23	17795.09
468.41	17731.90
468.60	18090.00
468.78	17954.25
468.96	17500.19
469.14	18118.09
469.32	18677.48
469.50	18155.54
469.69	18520.66
469.87	18424.70
470.05	18499.59
470.23	18707.90
470.41	18686.84
470.59	18892.80
470.77	18831.95
470.95	19016.85
471.14	19304.74
471.32	18829.61
471.50	19325.80
471.68	19309.42
471.86	19695.61
472.04	19192.39
472.22	19868.81
472.40	19599.65
472.58	19520.07
472.77	19829.02
472.95	19917.96
473.13	20680.97
473.31	19892.21
473.49	20276.06
473.67	19913.28
473.85	20463.30
474.03	20662.25
474.21	20809.70
474.39	20898.64
474.57	21111.63
474.75	21076.52
474.93	21116.31
475.12	21151.42
475.30	21343.35
475.48	21132.70
475.66	21736.56
475.84	21621.87
476.02	22214.02
476.20	22104.02
476.38	22328.71
476.56	22771.07
476.74	22831.93
476.92	22375.52
477.10	22527.66
477.28	22932.57
477.46	22927.89
477.64	22831.93
477.82	23283.65
478.00	24154.33
478.18	24006.87
478.36	23934.32
478.54	24484.34
478.72	24271.36
478.90	24437.53
479.08	24786.27
479.26	25371.41
479.44	25125.65
479.62	25333.96
479.80	25387.79
479.98	26106.34
480.16	26515.93
480.34	26022.08
480.52	26614.23
480.70	26012.71
480.88	26529.97
481.06	26441.03
481.24	26663.38
481.41	27061.27
481.59	27145.53
481.77	27960.04
481.95	27929.61
482.13	27889.82
482.31	28004.51
482.49	28917.32
482.67	28591.98
482.85	28950.09
483.03	29362.02
483.21	29467.34
483.39	30178.87
483.57	29633.52
483.74	30246.74
483.92	30377.81
484.10	30293.55
484.28	31063.59
484.46	31253.17
484.64	31653.40
484.82	31299.98
485.00	31562.12
485.18	32453.87
485.35	32666.86
485.53	32336.84
485.71	33043.68
485.89	33439.23
486.07	33294.12
486.25	33127.94
486.43	33677.97
486.61	33523.49
486.78	34117.99
486.96	34220.97
487.14	35105.70
487.32	35028.46
487.50	34981.65
487.68	35452.09
487.85	36580.23
488.03	36573.21
488.21	36584.91
488.39	36503.00
488.57	36926.63
488.75	36896.20
488.92	36952.38
489.10	38059.45
489.28	37834.76
489.46	38522.88
489.64	38506.49
489.81	39068.22
489.99	39232.06
490.17	39033.11
490.35	39936.56
490.53	39938.90
490.70	39856.98
490.88	40250.19
491.06	40912.56
491.24	40863.41
491.41	41029.59
491.59	41577.28
491.77	41486.00
491.95	41820.69
492.13	42139.00
492.30	42438.59
492.48	42506.47
492.66	42588.39
492.84	42972.24
493.01	43583.12
493.19	43477.79
493.37	43999.73
493.54	43562.05
493.72	43821.85
493.90	44091.01
494.08	44816.58
494.25	44978.07
494.43	45228.51
494.61	44774.45
494.79	45265.96
494.96	45284.68
495.14	45764.49
495.32	46007.91
495.49	46684.33
495.67	46831.78
495.85	46829.44
496.02	47276.48
496.20	47421.59
496.38	47379.46
496.55	48119.07
496.73	48767.40
496.91	48395.26
497.09	48423.34
497.26	48711.23
497.44	48371.85
497.62	48924.22
497.79	49148.91
497.97	49191.04
498.14	49944.69
498.32	49523.40
498.50	49932.99
498.67	50169.38
498.85	49944.69
499.03	50380.03
499.20	50358.97
499.38	50724.09
499.56	51168.79
499.73	51224.96
499.91	51353.69
500.08	51274.12
500.26	51332.63
500.44	51260.07
500.61	51580.73
500.79	51800.74
500.97	51922.44
501.14	52037.13
501.32	52013.73
501.49	52193.95
501.67	52402.25
501.84	52577.79
502.02	52669.08
502.20	52898.45
502.37	53116.12
502.55	52802.49
502.72	53078.67
502.90	52994.41
503.07	53010.79
503.25	53464.86
503.43	53301.02
503.60	53609.97
503.78	54136.59
503.95	53605.29
504.13	53778.49
504.30	54169.36
504.48	53848.71
504.65	54150.63
504.83	54576.61
505.01	54700.66
505.18	54611.72
505.36	54670.23
505.53	54691.30
505.71	54869.18
505.88	54981.52
506.06	54908.97
506.23	55201.53
506.41	55098.55
506.58	55274.09
506.76	55171.11
506.93	55552.62
507.11	55313.88
507.28	55856.88
507.46	55899.01
507.63	55767.94
507.81	55999.66
507.98	55889.65
508.16	55861.57
508.33	56240.73
508.50	56353.08
508.68	56432.66
508.85	56500.53
509.03	56374.14
509.20	56535.64
509.38	56699.48
509.55	56811.82
509.73	56828.21
509.90	57221.42
510.08	57069.28
510.25	57031.83
510.42	56896.08
510.60	57160.56
510.77	57518.67
510.95	57654.42
511.12	57247.16
511.30	57886.13
511.47	57932.94
511.64	57691.86
511.82	58071.03
511.99	57588.88
512.17	58054.65
512.34	57907.19
512.51	58164.65
512.69	58438.50
512.86	58431.47
513.04	58508.71
513.21	58501.69
513.38	58506.37
513.56	58576.59
513.73	58447.86
513.90	58679.57
514.08	58740.42
514.25	58939.37
514.43	59054.06
514.60	58944.05
514.77	58866.81
514.95	59133.63
515.12	58922.99
515.29	59135.98
515.47	59236.62
515.64	59552.59
515.81	59501.10
515.99	59192.15
516.16	59578.34
516.33	59365.35
516.51	59810.05
516.68	59690.68
516.85	59835.80
517.03	59800.69
517.20	60051.12
517.37	59868.56
517.54	59938.78
517.72	59753.88
517.89	60037.08
518.06	60060.49
518.24	60137.72
518.41	60219.64
518.58	60371.78
518.75	60123.68
518.93	60418.59
519.10	60229.01
519.27	60472.42
519.45	60666.69
519.62	60636.26
519.79	60676.05
519.96	60647.96
520.14	60961.59
520.31	60669.03
520.48	60669.03
520.65	60825.84
520.83	60992.02
521.00	61272.88
521.17	61109.05
521.34	60975.64
521.52	61230.75
521.69	61298.63
521.86	61361.82
522.03	61577.15
522.20	61640.35
522.38	61743.33
522.55	61787.80
522.72	61771.42
522.89	61785.46
523.07	61806.53
523.24	61738.65
523.41	61832.27
523.58	61881.42
523.75	61965.68
523.92	61965.68
524.10	62085.05
524.27	62087.39
524.44	62096.75
524.61	62063.99
524.78	62255.91
524.96	62218.46
525.13	62312.08
525.30	62358.89
525.47	62672.52
525.64	62560.18
525.81	62667.84
525.98	62522.73
526.16	62534.43
526.33	62768.49
526.50	62801.25
526.67	62731.04
526.84	62960.41
527.01	62597.63
527.18	62918.28
527.36	63035.31
527.53	62972.11
527.70	63107.86
527.87	62904.24
528.04	63182.76
528.21	63276.38
528.38	63131.27
528.55	63372.34
528.72	63035.31
528.89	63241.28
529.07	63189.78
529.24	63103.18
529.41	63414.47
529.58	63458.94
529.75	63604.06
529.92	63414.47
530.09	63667.25
530.26	63622.78
530.43	63622.78
530.60	63505.76
530.77	63582.99
530.94	63828.75
531.11	63800.66
531.28	63877.90
531.46	63957.48
531.63	63945.78
531.80	63807.68
531.97	63819.39
532.14	64121.32
532.31	64083.87
532.48	64100.25
532.65	64329.62
532.82	64193.87
532.99	64261.75
533.16	64081.53
533.33	64268.77
533.50	64320.26
533.67	64343.67
533.84	64212.60
534.01	64346.01
534.18	64540.27
534.35	64678.36
534.52	64402.18
534.69	64741.56
534.86	64661.98
535.03	64348.35
535.20	64615.17
535.37	64774.33
535.54	64921.78
535.71	64800.07
535.88	64781.35
536.05	64872.63
536.22	64858.59
536.38	65013.06
536.55	64935.82
536.72	64996.68
536.89	65137.11
537.06	65176.90
537.23	65307.97
537.40	65066.89
537.57	65092.64
537.74	65109.02
537.91	65160.51
538.08	65331.37
538.25	65024.76
538.42	65469.46
538.59	65535.00
538.75	65359.46
538.92	65495.21
539.09	65471.81
539.26	65415.63
539.43	65219.03
539.60	65535.00
539.77	65535.00
539.94	65535.00
540.11	65535.00
540.28	65535.00
540.44	65535.00
540.61	65535.00
540.78	65535.00
540.95	65535.00
541.12	65535.00
541.29	65535.00
541.46	65535.00
541.62	65535.00
541.79	65535.00
541.96	65535.00
542.13	65535.00
542.30	65535.00
542.47	65535.00
542.63	65535.00
542.80	65535.00
542.97	65535.00
543.14	65535.00
543.31	65535.00
543.48	65535.00
543.64	65535.00
543.81	65535.00
543.98	65535.00
544.15	65535.00
544.32	65535.00
544.48	65535.00
544.65	65535.00
544.82	65535.00
544.99	65535.00
545.16	65535.00
545.32	65535.00
545.49	65535.00
545.66	65535.00
545.83	65535.00
546.00	65535.00
546.16	65535.00
546.33	65535.00
546.50	65535.00
546.67	65535.00
546.83	65535.00
547.00	65535.00
547.17	65535.00
547.34	65535.00
547.50	65535.00
547.67	65535.00
547.84	65535.00
548.00	65535.00
548.17	65535.00
548.34	65535.00
548.51	65535.00
548.67	65535.00
548.84	65535.00
549.01	65535.00
549.18	65535.00
549.34	65535.00
549.51	65535.00
549.68	65535.00
549.84	65535.00
550.01	65535.00
550.18	65535.00
550.34	65535.00
550.51	65535.00
550.68	65535.00
550.84	65535.00
551.01	65535.00
551.18	65535.00
551.34	65535.00
551.51	65535.00
551.68	65535.00
551.84	65535.00
552.01	65535.00
552.18	65535.00
552.34	65535.00
552.51	65535.00
552.68	65535.00
552.84	65535.00
553.01	65535.00
553.18	65535.00
553.34	65535.00
553.51	65535.00
553.67	65535.00
553.84	65535.00
554.01	65535.00
554.17	65535.00
554.34	65535.00
554.51	65535.00
554.67	65535.00
554.84	65535.00
555.00	65535.00
555.17	65535.00
555.33	65535.00
555.50	65535.00
555.67	65535.00
555.83	65535.00
556.00	65535.00
556.16	65535.00
556.33	65535.00
556.50	65535.00
556.66	65535.00
556.83	65535.00
556.99	65535.00
557.16	65535.00
557.32	65535.00
557.49	65535.00
557.65	65535.00
557.82	65535.00
557.98	65535.00
558.15	65535.00
558.32	65535.00
558.48	65535.00
558.65	65535.00
558.81	65535.00
558.98	65535.00
559.14	65535.00
559.31	65535.00
559.47	65535.00
559.64	65535.00
559.80	65535.00
559.97	65535.00
560.13	65535.00
560.30	65535.00
560.46	65535.00
560.63	65535.00
560.79	65535.00
560.96	65535.00
561.12	65535.00
561.29	65535.00
561.45	65535.00
561.61	65535.00
561.78	65535.00
561.94	65535.00
562.11	65535.00
562.27	65535.00
562.44	65535.00
562.60	65535.00
562.77	65535.00
562.93	65535.00
563.10	65535.00
563.26	65535.00
563.42	65535.00
563.59	65535.00
563.75	65535.00
563.92	65535.00
564.08	65535.00
564.24	65535.00
564.41	65535.00
564.57	65535.00
564.74	65535.00
564.90	65535.00
565.07	65535.00
565.23	65535.00
565.39	65535.00
565.56	65535.00
565.72	65535.00
565.88	65535.00
566.05	65535.00
566.21	65535.00
566.38	65535.00
566.54	65535.00
566.70	65535.00
566.87	65535.00
567.03	65535.00
567.19	65535.00
567.36	65535.00
567.52	65535.00
567.68	65535.00
567.85	65535.00
568.01	65535.00
568.17	65535.00
568.34	65535.00
568.50	65535.00
568.66	65535.00
568.83	65535.00
568.99	65535.00
569.15	65535.00
569.32	65535.00
569.48	65535.00
569.64	65535.00
569.81	65535.00
569.97	65535.00
570.13	65535.00
570.30	65535.00
570.46	65535.00
570.62	65535.00
570.78	65535.00
570.95	65535.00
571.11	65535.00
571.27	65535.00
571.43	65535.00
571.60	65535.00
571.76	65535.00
571.92	65535.00
572.09	65535.00
572.25	65535.00
572.41	65535.00
572.57	65535.00
572.74	65535.00
572.90	65535.00
573.06	65535.00
573.22	65535.00
573.38	65535.00
573.55	65535.00
573.71	65535.00
573.87	65535.00
574.03	65535.00
574.20	65535.00
574.36	65535.00
574.52	65535.00
574.68	65535.00
574.84	65535.00
575.01	65535.00
575.17	65535.00
575.33	65535.00
575.49	65535.00
575.65	65535.00
575.82	65535.00
575.98	65535.00
576.14	65535.00
576.30	65535.00
576.46	65535.00
576.62	65535.00
576.79	65535.00
576.95	65535.00
577.11	65535.00
577.27	65535.00
577.43	65535.00
577.59	65535.00
577.75	65535.00
577.92	65535.00
578.08	65535.00
578.24	65535.00
578.40	65535.00
578.56	65535.00
578.72	65535.00
578.88	65535.00
579.04	65535.00
579.21	65535.00
579.37	65535.00
579.53	65535.00
579.69	65535.00
579.85	65535.00
580.01	65535.00
580.17	65535.00
580.33	65535.00
580.49	65535.00
580.65	65535.00
580.82	65535.00
580.98	65535.00
581.14	65535.00
581.30	65535.00
581.46	65535.00
581.62	65535.00
581.78	65535.00
581.94	65535.00
582.10	65535.00
582.26	65535.00
582.42	65535.00
582.58	65535.00
582.74	65535.00
582.90	65535.00
583.06	65535.00
583.22	65535.00
583.38	65535.00
583.54	65535.00
583.70	65535.00
583.86	65535.00
584.02	65535.00
584.18	65535.00
584.34	65535.00
584.50	65535.00
584.66	65535.00
584.82	65535.00
584.98	65535.00
585.14	65535.00
585.30	65535.00
585.46	65535.00
585.62	65535.00
585.78	65535.00
585.94	65535.00
586.10	65535.00
586.26	65535.00
586.42	65535.00
586.58	65535.00
586.74	65535.00
586.90	65535.00
587.06	65535.00
