SpectraSuite Data File
++++++++++++++++++++++++++++++++++++
Date: Thu Oct 24 13:21:02 EDT 2013
User: stostad
Dark Spectrum Present: No
Reference Spectrum Present: No
Number of Sampled Component Spectra: 1
Spectrometers: USB2+H05261
Integration Time (usec): 100000 (USB2+H05261)
Spectra Averaged: 1 (USB2+H05261)
Boxcar Smoothing: 0 (USB2+H05261)
Correct for Electrical Dark: No (USB2+H05261)
Strobe/Lamp Enabled: No (USB2+H05261)
Correct for Detector Non-linearity: No (USB2+H05261)
Correct for Stray Light: No (USB2+H05261)
Number of Pixels in Processed Spectrum: 2048
>>>>>Begin Processed Spectral Data<<<<<
365.73	561.73
365.92	561.73
366.12	561.73
366.32	479.81
366.52	484.49
366.72	533.64
366.91	458.74
367.11	433.00
367.31	449.38
367.51	456.40
367.70	447.04
367.90	458.74
368.10	498.53
368.30	496.19
368.49	512.58
368.69	498.53
368.89	477.47
369.09	461.09
369.28	486.83
369.48	484.49
369.68	526.62
369.87	486.83
370.07	510.24
370.27	507.90
370.47	587.47
370.66	528.96
370.86	538.32
371.06	533.64
371.25	571.09
371.45	620.24
371.65	613.22
371.84	552.37
372.04	524.28
372.24	599.18
372.44	585.13
372.63	613.22
372.83	538.32
373.03	601.52
373.22	601.52
373.42	669.39
373.62	568.75
373.81	629.60
374.01	631.94
374.21	620.24
374.40	653.01
374.60	641.31
374.79	615.56
374.99	610.88
375.19	592.16
375.38	624.92
375.58	667.05
375.78	662.37
375.97	702.16
376.17	667.05
376.37	645.99
376.56	650.67
376.76	571.09
376.95	608.54
377.15	603.86
377.35	610.88
377.54	552.37
377.74	589.82
377.93	634.29
378.13	667.05
378.33	634.29
378.52	624.92
378.72	622.58
378.91	664.71
379.11	575.77
379.31	620.24
379.50	631.94
379.70	685.78
379.89	667.05
380.09	643.65
380.28	627.26
380.48	622.58
380.68	617.90
380.87	622.58
381.07	596.84
381.26	648.33
381.46	636.63
381.65	629.60
381.85	620.24
382.04	594.50
382.24	636.63
382.43	643.65
382.63	617.90
382.83	615.56
383.02	636.63
383.22	627.26
383.41	634.29
383.61	627.26
383.80	671.73
384.00	669.39
384.19	620.24
384.39	559.39
384.58	638.97
384.78	608.54
384.97	674.07
385.17	627.26
385.36	622.58
385.56	617.90
385.75	627.26
385.95	608.54
386.14	678.76
386.34	638.97
386.53	641.31
386.72	702.16
386.92	657.69
387.11	699.82
387.31	594.50
387.50	585.13
387.70	667.05
387.89	648.33
388.09	561.73
388.28	575.77
388.48	617.90
388.67	713.86
388.86	650.67
389.06	690.46
389.25	655.35
389.45	629.60
389.64	613.22
389.84	620.24
390.03	613.22
390.22	610.88
390.42	606.20
390.61	660.03
390.81	660.03
391.00	582.79
391.19	645.99
391.39	615.56
391.58	657.69
391.78	681.10
391.97	582.79
392.16	620.24
392.36	660.03
392.55	608.54
392.75	676.41
392.94	608.54
393.13	655.35
393.33	669.39
393.52	629.60
393.71	620.24
393.91	641.31
394.10	631.94
394.29	641.31
394.49	606.20
394.68	662.37
394.88	634.29
395.07	585.13
395.26	580.45
395.46	617.90
395.65	606.20
395.84	650.67
396.04	603.86
396.23	643.65
396.42	627.26
396.62	578.11
396.81	601.52
397.00	596.84
397.19	599.18
397.39	655.35
397.58	648.33
397.77	561.73
397.97	620.24
398.16	627.26
398.35	697.48
398.55	636.63
398.74	650.67
398.93	624.92
399.12	620.24
399.32	631.94
399.51	695.14
399.70	697.48
399.90	653.01
400.09	664.71
400.28	620.24
400.47	601.52
400.67	606.20
400.86	545.34
401.05	643.65
401.24	617.90
401.44	645.99
401.63	650.67
401.82	664.71
402.01	622.58
402.21	610.88
402.40	645.99
402.59	545.34
402.78	657.69
402.97	655.35
403.17	608.54
403.36	578.11
403.55	596.84
403.74	638.97
403.93	641.31
404.13	704.50
404.32	650.67
404.51	629.60
404.70	641.31
404.89	550.03
405.09	660.03
405.28	617.90
405.47	547.69
405.66	664.71
405.85	638.97
406.05	667.05
406.24	678.76
406.43	592.16
406.62	601.52
406.81	662.37
407.00	636.63
407.20	624.92
407.39	629.60
407.58	620.24
407.77	557.05
407.96	601.52
408.15	648.33
408.34	653.01
408.54	587.47
408.73	669.39
408.92	613.22
409.11	664.71
409.30	638.97
409.49	629.60
409.68	538.32
409.87	664.71
410.07	557.05
410.26	627.26
410.45	629.60
410.64	664.71
410.83	617.90
411.02	538.32
411.21	671.73
411.40	681.10
411.59	620.24
411.78	657.69
411.98	638.97
412.17	638.97
412.36	622.58
412.55	664.71
412.74	641.31
412.93	627.26
413.12	603.86
413.31	657.69
413.50	699.82
413.69	631.94
413.88	580.45
414.07	662.37
414.26	606.20
414.45	662.37
414.64	603.86
414.83	624.92
415.02	585.13
415.22	620.24
415.41	653.01
415.60	575.77
415.79	660.03
415.98	596.84
416.17	678.76
416.36	594.50
416.55	620.24
416.74	596.84
416.93	585.13
417.12	603.86
417.31	634.29
417.50	653.01
417.69	601.52
417.88	587.47
418.07	599.18
418.26	622.58
418.45	624.92
418.64	664.71
418.83	634.29
419.02	608.54
419.21	617.90
419.39	601.52
419.58	648.33
419.77	624.92
419.96	638.97
420.15	566.41
420.34	608.54
420.53	615.56
420.72	660.03
420.91	573.43
421.10	615.56
421.29	645.99
421.48	697.48
421.67	610.88
421.86	638.97
422.05	638.97
422.24	676.41
422.43	702.16
422.61	580.45
422.80	631.94
422.99	599.18
423.18	578.11
423.37	573.43
423.56	606.20
423.75	585.13
423.94	643.65
424.13	620.24
424.32	667.05
424.50	653.01
424.69	627.26
424.88	561.73
425.07	610.88
425.26	589.82
425.45	564.07
425.64	657.69
425.83	643.65
426.01	603.86
426.20	758.33
426.39	650.67
426.58	678.76
426.77	638.97
426.96	592.16
427.15	594.50
427.33	645.99
427.52	636.63
427.71	702.16
427.90	615.56
428.09	636.63
428.28	629.60
428.46	603.86
428.65	603.86
428.84	648.33
429.03	688.12
429.22	648.33
429.40	674.07
429.59	587.47
429.78	725.57
429.97	596.84
430.16	629.60
430.34	613.22
430.53	608.54
430.72	650.67
430.91	624.92
431.10	645.99
431.28	603.86
431.47	648.33
431.66	615.56
431.85	681.10
432.03	636.63
432.22	669.39
432.41	608.54
432.60	725.57
432.79	667.05
432.97	617.90
433.16	629.60
433.35	641.31
433.54	667.05
433.72	631.94
433.91	596.84
434.10	669.39
434.28	610.88
434.47	636.63
434.66	643.65
434.85	657.69
435.03	751.31
435.22	994.73
435.41	1069.62
435.59	1043.88
435.78	950.26
435.97	877.70
436.16	781.74
436.34	660.03
436.53	655.35
436.72	664.71
436.90	664.71
437.09	638.97
437.28	608.54
437.46	573.43
437.65	650.67
437.84	636.63
438.02	681.10
438.21	648.33
438.40	575.77
438.58	589.82
438.77	718.54
438.96	606.20
439.14	653.01
439.33	610.88
439.52	631.94
439.70	650.67
439.89	681.10
440.08	681.10
440.26	671.73
440.45	636.63
440.63	603.86
440.82	699.82
441.01	685.78
441.19	699.82
441.38	645.99
441.57	653.01
441.75	671.73
441.94	634.29
442.12	594.50
442.31	664.71
442.50	594.50
442.68	636.63
442.87	601.52
443.05	638.97
443.24	667.05
443.43	660.03
443.61	624.92
443.80	636.63
443.98	601.52
444.17	568.75
444.35	692.80
444.54	620.24
444.73	638.97
444.91	730.25
445.10	627.26
445.28	620.24
445.47	599.18
445.65	667.05
445.84	608.54
446.02	648.33
446.21	674.07
446.39	669.39
446.58	653.01
446.77	699.82
446.95	653.01
447.14	655.35
447.32	648.33
447.51	634.29
447.69	746.63
447.88	671.73
448.06	653.01
448.25	634.29
448.43	575.77
448.62	713.86
448.80	629.60
448.99	617.90
449.17	547.69
449.36	622.58
449.54	615.56
449.73	645.99
449.91	617.90
450.10	627.26
450.28	664.71
450.46	706.84
450.65	578.11
450.83	650.67
451.02	624.92
451.20	655.35
451.39	606.20
451.57	603.86
451.76	582.79
451.94	641.31
452.13	636.63
452.31	685.78
452.49	664.71
452.68	613.22
452.86	631.94
453.05	664.71
453.23	636.63
453.42	617.90
453.60	709.18
453.78	641.31
453.97	575.77
454.15	671.73
454.34	685.78
454.52	589.82
454.70	643.65
454.89	615.56
455.07	638.97
455.26	634.29
455.44	664.71
455.62	603.86
455.81	674.07
455.99	634.29
456.17	601.52
456.36	615.56
456.54	615.56
456.73	660.03
456.91	603.86
457.09	557.05
457.28	615.56
457.46	610.88
457.64	617.90
457.83	617.90
458.01	763.01
458.19	610.88
458.38	575.77
458.56	580.45
458.74	716.20
458.93	571.09
459.11	648.33
459.29	627.26
459.48	629.60
459.66	620.24
459.84	758.33
460.03	699.82
460.21	645.99
460.39	653.01
460.57	655.35
460.76	676.41
460.94	610.88
461.12	678.76
461.31	624.92
461.49	669.39
461.67	643.65
461.85	631.94
462.04	617.90
462.22	903.45
462.40	695.14
462.59	629.60
462.77	655.35
462.95	599.18
463.13	650.67
463.32	655.35
463.50	622.58
463.68	627.26
463.86	620.24
464.05	657.69
464.23	739.61
464.41	610.88
464.59	615.56
464.78	624.92
464.96	571.09
465.14	601.52
465.32	655.35
465.50	613.22
465.69	662.37
465.87	704.50
466.05	620.24
466.23	615.56
466.41	653.01
466.60	660.03
466.78	613.22
466.96	690.46
467.14	615.56
467.32	641.31
467.51	650.67
467.69	655.35
467.87	629.60
468.05	617.90
468.23	664.71
468.41	613.22
468.60	582.79
468.78	645.99
468.96	566.41
469.14	631.94
469.32	573.43
469.50	599.18
469.69	645.99
469.87	645.99
470.05	648.33
470.23	631.94
470.41	629.60
470.59	641.31
470.77	638.97
470.95	622.58
471.14	692.80
471.32	711.52
471.50	643.65
471.68	599.18
471.86	585.13
472.04	634.29
472.22	617.90
472.40	704.50
472.58	650.67
472.77	634.29
472.95	589.82
473.13	662.37
473.31	720.88
473.49	601.52
473.67	669.39
473.85	730.25
474.03	709.18
474.21	603.86
474.39	648.33
474.57	655.35
474.75	634.29
474.93	599.18
475.12	636.63
475.30	688.12
475.48	634.29
475.66	711.52
475.84	737.27
476.02	629.60
476.20	706.84
476.38	610.88
476.56	690.46
476.74	699.82
476.92	695.14
477.10	683.44
477.28	589.82
477.46	667.05
477.64	610.88
477.82	681.10
478.00	599.18
478.18	653.01
478.36	617.90
478.54	678.76
478.72	610.88
478.90	613.22
479.08	575.77
479.26	685.78
479.44	617.90
479.62	653.01
479.80	613.22
479.98	627.26
480.16	660.03
480.34	683.44
480.52	585.13
480.70	655.35
480.88	657.69
481.06	615.56
481.24	669.39
481.41	725.57
481.59	678.76
481.77	657.69
481.95	699.82
482.13	683.44
482.31	671.73
482.49	657.69
482.67	650.67
482.85	629.60
483.03	636.63
483.21	667.05
483.39	667.05
483.57	660.03
483.74	690.46
483.92	667.05
484.10	631.94
484.28	720.88
484.46	690.46
484.64	706.84
484.82	753.65
485.00	678.76
485.18	627.26
485.35	723.23
485.53	641.31
485.71	674.07
485.89	648.33
486.07	683.44
486.25	779.40
486.43	774.72
486.61	664.71
486.78	706.84
486.96	699.82
487.14	704.50
487.32	695.14
487.50	725.57
487.68	753.65
487.85	695.14
488.03	723.23
488.21	688.12
488.39	617.90
488.57	723.23
488.75	690.46
488.92	786.42
489.10	681.10
489.28	791.10
489.46	695.14
489.64	657.69
489.81	737.27
489.99	713.86
490.17	711.52
490.35	793.44
490.53	667.05
490.70	727.91
490.88	690.46
491.06	648.33
491.24	725.57
491.41	681.10
491.59	711.52
491.77	681.10
491.95	662.37
492.13	664.71
492.30	667.05
492.48	697.48
492.66	734.93
492.84	664.71
493.01	702.16
493.19	634.29
493.37	655.35
493.54	734.93
493.72	667.05
493.90	657.69
494.08	676.41
494.25	671.73
494.43	653.01
494.61	648.33
494.79	638.97
494.96	660.03
495.14	692.80
495.32	690.46
495.49	692.80
495.67	638.97
495.85	669.39
496.02	648.33
496.20	681.10
496.38	709.18
496.55	683.44
496.73	695.14
496.91	592.16
497.09	655.35
497.26	671.73
497.44	711.52
497.62	617.90
497.79	641.31
497.97	737.27
498.14	678.76
498.32	674.07
498.50	746.63
498.67	690.46
498.85	697.48
499.03	650.67
499.20	669.39
499.38	662.37
499.56	645.99
499.73	676.41
499.91	636.63
500.08	650.67
500.26	615.56
500.44	681.10
500.61	636.63
500.79	585.13
500.97	631.94
501.14	624.92
501.32	683.44
501.49	690.46
501.67	580.45
501.84	645.99
502.02	653.01
502.20	627.26
502.37	589.82
502.55	617.90
502.72	638.97
502.90	681.10
503.07	660.03
503.25	629.60
503.43	627.26
503.60	641.31
503.78	657.69
503.95	631.94
504.13	608.54
504.30	716.20
504.48	660.03
504.65	641.31
504.83	648.33
505.01	631.94
505.18	709.18
505.36	657.69
505.53	585.13
505.71	636.63
505.88	683.44
506.06	617.90
506.23	671.73
506.41	610.88
506.58	662.37
506.76	645.99
506.93	671.73
507.11	655.35
507.28	655.35
507.46	636.63
507.63	575.77
507.81	568.75
507.98	676.41
508.16	685.78
508.33	667.05
508.50	629.60
508.68	678.76
508.85	620.24
509.03	594.50
509.20	585.13
509.38	578.11
509.55	685.78
509.73	695.14
509.90	627.26
510.08	683.44
510.25	648.33
510.42	716.20
510.60	603.86
510.77	676.41
510.95	678.76
511.12	634.29
511.30	648.33
511.47	582.79
511.64	671.73
511.82	688.12
511.99	641.31
512.17	664.71
512.34	580.45
512.51	585.13
512.69	660.03
512.86	676.41
513.04	580.45
513.21	650.67
513.38	720.88
513.56	653.01
513.73	674.07
513.90	669.39
514.08	564.07
514.25	669.39
514.43	638.97
514.60	629.60
514.77	622.58
514.95	568.75
515.12	613.22
515.29	676.41
515.47	667.05
515.64	716.20
515.81	664.71
515.99	617.90
516.16	629.60
516.33	596.84
516.51	671.73
516.68	688.12
516.85	599.18
517.03	608.54
517.20	620.24
517.37	620.24
517.54	697.48
517.72	648.33
517.89	599.18
518.06	629.60
518.24	697.48
518.41	678.76
518.58	645.99
518.75	669.39
518.93	561.73
519.10	638.97
519.27	660.03
519.45	683.44
519.62	627.26
519.79	683.44
519.96	568.75
520.14	629.60
520.31	662.37
520.48	641.31
520.65	589.82
520.83	634.29
521.00	613.22
521.17	622.58
521.34	573.43
521.52	653.01
521.69	613.22
521.86	613.22
522.03	688.12
522.20	671.73
522.38	760.67
522.55	571.09
522.72	624.92
522.89	557.05
523.07	631.94
523.24	669.39
523.41	564.07
523.58	617.90
523.75	674.07
523.92	660.03
524.10	638.97
524.27	631.94
524.44	709.18
524.61	617.90
524.78	575.77
524.96	648.33
525.13	629.60
525.30	706.84
525.47	650.67
525.64	664.71
525.81	631.94
525.98	627.26
526.16	608.54
526.33	643.65
526.50	678.76
526.67	653.01
526.84	727.91
527.01	653.01
527.18	706.84
527.36	606.20
527.53	634.29
527.70	624.92
527.87	653.01
528.04	681.10
528.21	634.29
528.38	631.94
528.55	662.37
528.72	624.92
528.89	695.14
529.07	606.20
529.24	697.48
529.41	634.29
529.58	660.03
529.75	638.97
529.92	634.29
530.09	634.29
530.26	683.44
530.43	627.26
530.60	669.39
530.77	594.50
530.94	678.76
531.11	641.31
531.28	655.35
531.46	624.92
531.63	610.88
531.80	636.63
531.97	636.63
532.14	631.94
532.31	629.60
532.48	648.33
532.65	643.65
532.82	674.07
532.99	664.71
533.16	692.80
533.33	662.37
533.50	685.78
533.67	650.67
533.84	615.56
534.01	676.41
534.18	641.31
534.35	669.39
534.52	664.71
534.69	681.10
534.86	645.99
535.03	683.44
535.20	683.44
535.37	681.10
535.54	678.76
535.71	688.12
535.88	760.67
536.05	636.63
536.22	699.82
536.38	741.95
536.55	681.10
536.72	662.37
536.89	695.14
537.06	688.12
537.23	699.82
537.40	655.35
537.57	732.59
537.74	760.67
537.91	788.76
538.08	734.93
538.25	814.51
538.42	739.61
538.59	767.70
538.75	823.87
538.92	844.93
539.09	758.33
539.26	788.76
539.43	868.34
539.60	849.61
539.77	854.30
539.94	814.51
540.11	877.70
540.28	887.06
540.44	915.15
540.61	863.66
540.78	933.87
540.95	938.55
541.12	1116.44
541.29	1156.22
541.46	1247.51
541.62	1235.80
541.79	1205.38
541.96	1259.21
542.13	1214.74
542.30	1249.85
542.47	1196.01
542.63	1144.52
542.80	1109.41
542.97	1228.78
543.14	1221.76
543.31	1181.97
543.48	1153.88
543.64	1198.35
543.81	1193.67
543.98	1121.12
544.15	1167.93
544.32	1181.97
544.48	1137.50
544.65	1074.31
544.82	1116.44
544.99	1163.25
545.16	1200.69
545.32	1207.72
545.49	1593.90
545.66	1827.96
545.83	2080.74
546.00	1830.30
546.16	1533.05
546.33	1385.60
546.50	1291.98
546.67	1247.51
546.83	1217.08
547.00	938.55
547.17	882.38
547.34	950.26
547.50	929.19
547.67	908.13
547.84	856.64
548.00	882.38
548.17	793.44
548.34	901.11
548.51	910.47
548.67	784.08
548.84	915.15
549.01	835.57
549.18	870.68
549.34	828.55
549.51	826.21
549.68	889.40
549.84	889.40
550.01	812.17
550.18	898.77
550.34	889.40
550.51	791.10
550.68	873.02
550.84	793.44
551.01	833.23
551.18	777.06
551.34	753.65
551.51	763.01
551.68	784.08
551.84	751.31
552.01	763.01
552.18	737.27
552.34	770.04
552.51	706.84
552.68	688.12
552.84	727.91
553.01	704.50
553.18	746.63
553.34	718.54
553.51	690.46
553.67	706.84
553.84	709.18
554.01	664.71
554.17	725.57
554.34	755.99
554.51	706.84
554.67	695.14
554.84	702.16
555.00	688.12
555.17	688.12
555.33	774.72
555.50	699.82
555.67	713.86
555.83	641.31
556.00	653.01
556.16	837.91
556.33	763.01
556.50	718.54
556.66	695.14
556.83	683.44
556.99	599.18
557.16	674.07
557.32	634.29
557.49	699.82
557.65	683.44
557.82	713.86
557.98	636.63
558.15	594.50
558.32	688.12
558.48	660.03
558.65	748.97
558.81	678.76
558.98	629.60
559.14	641.31
559.31	622.58
559.47	653.01
559.64	631.94
559.80	706.84
559.97	699.82
560.13	634.29
560.30	608.54
560.46	596.84
560.63	627.26
560.79	636.63
560.96	657.69
561.12	608.54
561.29	667.05
561.45	741.95
561.61	669.39
561.78	704.50
561.94	643.65
562.11	692.80
562.27	615.56
562.44	660.03
562.60	620.24
562.77	695.14
562.93	669.39
563.10	727.91
563.26	620.24
563.42	622.58
563.59	685.78
563.75	657.69
563.92	711.52
564.08	585.13
564.24	711.52
564.41	683.44
564.57	620.24
564.74	624.92
564.90	603.86
565.07	610.88
565.23	606.20
565.39	664.71
565.56	636.63
565.72	599.18
565.88	711.52
566.05	648.33
566.21	615.56
566.38	650.67
566.54	695.14
566.70	669.39
566.87	690.46
567.03	660.03
567.19	610.88
567.36	596.84
567.52	596.84
567.68	720.88
567.85	725.57
568.01	596.84
568.17	641.31
568.34	601.52
568.50	657.69
568.66	669.39
568.83	706.84
568.99	713.86
569.15	631.94
569.32	617.90
569.48	653.01
569.64	622.58
569.81	704.50
569.97	699.82
570.13	713.86
570.30	662.37
570.46	589.82
570.62	690.46
570.78	676.41
570.95	641.31
571.11	718.54
571.27	645.99
571.43	620.24
571.60	676.41
571.76	660.03
571.92	638.97
572.09	655.35
572.25	725.57
572.41	580.45
572.57	650.67
572.74	688.12
572.90	648.33
573.06	674.07
573.22	587.47
573.38	683.44
573.55	699.82
573.71	615.56
573.87	683.44
574.03	653.01
574.20	631.94
574.36	641.31
574.52	716.20
574.68	624.92
574.84	629.60
575.01	627.26
575.17	592.16
575.33	643.65
575.49	681.10
575.65	702.16
575.82	638.97
575.98	690.46
576.14	650.67
576.30	669.39
576.46	709.18
576.62	903.45
576.79	901.11
576.95	933.87
577.11	802.80
577.27	713.86
577.43	770.04
577.59	723.23
577.75	711.52
577.92	699.82
578.08	669.39
578.24	727.91
578.40	723.23
578.56	777.06
578.72	809.83
578.88	866.00
579.04	882.38
579.21	835.57
579.37	755.99
579.53	760.67
579.69	734.93
579.85	718.54
580.01	763.01
580.17	725.57
580.33	744.29
580.49	779.40
580.65	763.01
580.82	692.80
580.98	788.76
581.14	690.46
581.30	730.25
581.46	641.31
581.62	774.72
581.78	741.95
581.94	784.08
582.10	737.27
582.26	706.84
582.42	774.72
582.58	784.08
582.74	802.80
582.90	767.70
583.06	833.23
583.22	720.88
583.38	732.59
583.54	753.65
583.70	828.55
583.86	816.85
584.02	667.05
584.18	795.78
584.34	737.27
584.50	767.70
584.66	685.78
584.82	765.36
584.98	755.99
585.14	779.40
585.30	833.23
585.46	758.33
585.62	770.04
585.78	786.42
585.94	772.38
586.10	709.18
586.26	814.51
586.42	739.61
586.58	844.93
586.74	781.74
586.90	819.19
587.06	898.77
587.22	910.47
587.38	847.27
587.54	887.06
587.70	840.25
587.86	821.53
588.02	798.12
588.18	798.12
588.34	816.85
588.49	758.33
588.65	755.99
588.81	746.63
588.97	741.95
589.13	667.05
589.29	772.38
589.45	805.14
589.61	720.88
589.77	674.07
589.93	631.94
590.08	709.18
590.24	767.70
590.40	641.31
590.56	765.36
590.72	725.57
590.88	723.23
591.04	732.59
591.20	690.46
591.35	774.72
591.51	695.14
591.67	683.44
591.83	737.27
591.99	779.40
592.15	716.20
592.31	830.89
592.46	791.10
592.62	741.95
592.78	702.16
592.94	781.74
593.10	863.66
593.26	882.38
593.41	774.72
593.57	758.33
593.73	704.50
593.89	725.57
594.05	751.31
594.20	725.57
594.36	711.52
594.52	671.73
594.68	716.20
594.84	711.52
594.99	645.99
595.15	667.05
595.31	669.39
595.47	716.20
595.62	711.52
595.78	777.06
595.94	746.63
596.10	753.65
596.25	718.54
596.41	702.16
596.57	688.12
596.73	763.01
596.88	674.07
597.04	720.88
597.20	758.33
597.36	669.39
597.51	648.33
597.67	746.63
597.83	664.71
597.99	690.46
598.14	739.61
598.30	702.16
598.46	671.73
598.61	793.44
598.77	688.12
598.93	685.78
599.09	648.33
599.24	751.31
599.40	727.91
599.56	791.10
599.71	716.20
599.87	692.80
600.03	791.10
600.18	755.99
600.34	709.18
600.50	779.40
600.65	765.36
600.81	744.29
600.97	718.54
601.12	643.65
601.28	610.88
601.44	641.31
601.59	706.84
601.75	697.48
601.91	683.44
602.06	685.78
602.22	748.97
602.37	662.37
602.53	723.23
602.69	737.27
602.84	681.10
603.00	697.48
603.16	713.86
603.31	650.67
603.47	692.80
603.62	711.52
603.78	695.14
603.94	732.59
604.09	767.70
604.25	688.12
604.40	664.71
604.56	695.14
604.71	720.88
604.87	667.05
605.03	690.46
605.18	709.18
605.34	767.70
605.49	704.50
605.65	624.92
605.80	631.94
605.96	629.60
606.12	725.57
606.27	690.46
606.43	751.31
606.58	678.76
606.74	711.52
606.89	695.14
607.05	772.38
607.20	702.16
607.36	779.40
607.51	713.86
607.67	741.95
607.82	723.23
607.98	702.16
608.13	727.91
608.29	770.04
608.44	835.57
608.60	767.70
608.75	837.91
608.91	828.55
609.06	777.06
609.22	875.36
609.37	821.53
609.53	901.11
609.68	873.02
609.84	891.74
