SpectraSuite Data File
++++++++++++++++++++++++++++++++++++
Date: Thu Oct 24 13:21:02 EDT 2013
User: stostad
Dark Spectrum Present: No
Reference Spectrum Present: No
Number of Sampled Component Spectra: 1
Spectrometers: USB2+H05261
Integration Time (usec): 100000 (USB2+H05261)
Spectra Averaged: 1 (USB2+H05261)
Boxcar Smoothing: 0 (USB2+H05261)
Correct for Electrical Dark: No (USB2+H05261)
Strobe/Lamp Enabled: No (USB2+H05261)
Correct for Detector Non-linearity: No (USB2+H05261)
Correct for Stray Light: No (USB2+H05261)
Number of Pixels in Processed Spectrum: 2048
>>>>>Begin Processed Spectral Data<<<<<
365.73	575.77
365.92	575.77
366.12	575.77
366.32	484.49
366.52	472.79
366.72	496.19
366.91	418.96
367.11	430.66
367.31	418.96
367.51	428.32
367.70	486.83
367.90	437.68
368.10	404.91
368.30	496.19
368.49	444.70
368.69	486.83
368.89	465.77
369.09	470.45
369.28	507.90
369.48	458.74
369.68	554.71
369.87	484.49
370.07	510.24
370.27	526.62
370.47	507.90
370.66	479.81
370.86	528.96
371.06	585.13
371.25	601.52
371.45	561.73
371.65	624.92
371.84	645.99
372.04	592.16
372.24	580.45
372.44	580.45
372.63	634.29
372.83	601.52
373.03	613.22
373.22	650.67
373.42	702.16
373.62	613.22
373.81	596.84
374.01	631.94
374.21	660.03
374.40	580.45
374.60	669.39
374.79	669.39
374.99	650.67
375.19	667.05
375.38	615.56
375.58	667.05
375.78	631.94
375.97	676.41
376.17	650.67
376.37	620.24
376.56	624.92
376.76	592.16
376.95	601.52
377.15	725.57
377.35	573.43
377.54	627.26
377.74	585.13
377.93	692.80
378.13	674.07
378.33	603.86
378.52	592.16
378.72	615.56
378.91	660.03
379.11	571.09
379.31	622.58
379.50	667.05
379.70	629.60
379.89	629.60
380.09	638.97
380.28	594.50
380.48	650.67
380.68	589.82
380.87	636.63
381.07	695.14
381.26	688.12
381.46	615.56
381.65	615.56
381.85	603.86
382.04	615.56
382.24	662.37
382.43	669.39
382.63	613.22
382.83	587.47
383.02	662.37
383.22	627.26
383.41	613.22
383.61	578.11
383.80	571.09
384.00	650.67
384.19	608.54
384.39	617.90
384.58	643.65
384.78	624.92
384.97	636.63
385.17	580.45
385.36	617.90
385.56	638.97
385.75	561.73
385.95	636.63
386.14	657.69
386.34	641.31
386.53	592.16
386.72	585.13
386.92	641.31
387.11	657.69
387.31	624.92
387.50	627.26
387.70	622.58
387.89	638.97
388.09	601.52
388.28	624.92
388.48	662.37
388.67	606.20
388.86	770.04
389.06	603.86
389.25	601.52
389.45	643.65
389.64	638.97
389.84	624.92
390.03	601.52
390.22	603.86
390.42	641.31
390.61	636.63
390.81	648.33
391.00	697.48
391.19	664.71
391.39	596.84
391.58	603.86
391.78	641.31
391.97	606.20
392.16	603.86
392.36	627.26
392.55	671.73
392.75	662.37
392.94	622.58
393.13	671.73
393.33	610.88
393.52	606.20
393.71	615.56
393.91	704.50
394.10	631.94
394.29	592.16
394.49	657.69
394.68	641.31
394.88	594.50
395.07	615.56
395.26	664.71
395.46	664.71
395.65	629.60
395.84	606.20
396.04	674.07
396.23	655.35
396.42	603.86
396.62	641.31
396.81	557.05
397.00	592.16
397.19	660.03
397.39	660.03
397.58	636.63
397.77	587.47
397.97	622.58
398.16	610.88
398.35	629.60
398.55	613.22
398.74	587.47
398.93	596.84
399.12	596.84
399.32	610.88
399.51	681.10
399.70	627.26
399.90	615.56
400.09	648.33
400.28	599.18
400.47	606.20
400.67	643.65
400.86	660.03
401.05	631.94
401.24	664.71
401.44	636.63
401.63	599.18
401.82	615.56
402.01	650.67
402.21	638.97
402.40	636.63
402.59	676.41
402.78	573.43
402.97	669.39
403.17	678.76
403.36	688.12
403.55	681.10
403.74	594.50
403.93	669.39
404.13	631.94
404.32	678.76
404.51	713.86
404.70	617.90
404.89	629.60
405.09	702.16
405.28	599.18
405.47	631.94
405.66	645.99
405.85	596.84
406.05	592.16
406.24	601.52
406.43	641.31
406.62	613.22
406.81	645.99
407.00	645.99
407.20	643.65
407.39	653.01
407.58	617.90
407.77	634.29
407.96	662.37
408.15	653.01
408.34	636.63
408.54	692.80
408.73	610.88
408.92	615.56
409.11	664.71
409.30	662.37
409.49	620.24
409.68	608.54
409.87	613.22
410.07	622.58
410.26	645.99
410.45	566.41
410.64	608.54
410.83	620.24
411.02	631.94
411.21	695.14
411.40	692.80
411.59	636.63
411.78	674.07
411.98	645.99
412.17	662.37
412.36	664.71
412.55	603.86
412.74	638.97
412.93	631.94
413.12	594.50
413.31	629.60
413.50	557.05
413.69	610.88
413.88	678.76
414.07	578.11
414.26	620.24
414.45	636.63
414.64	627.26
414.83	657.69
415.02	653.01
415.22	645.99
415.41	678.76
415.60	587.47
415.79	645.99
415.98	706.84
416.17	638.97
416.36	699.82
416.55	622.58
416.74	606.20
416.93	662.37
417.12	622.58
417.31	671.73
417.50	580.45
417.69	608.54
417.88	627.26
418.07	615.56
418.26	615.56
418.45	674.07
418.64	713.86
418.83	645.99
419.02	699.82
419.21	641.31
419.39	622.58
419.58	538.32
419.77	594.50
419.96	648.33
420.15	606.20
420.34	599.18
420.53	624.92
420.72	606.20
420.91	669.39
421.10	580.45
421.29	645.99
421.48	608.54
421.67	706.84
421.86	671.73
422.05	697.48
422.24	543.00
422.43	648.33
422.61	631.94
422.80	660.03
422.99	671.73
423.18	596.84
423.37	629.60
423.56	657.69
423.75	643.65
423.94	629.60
424.13	610.88
424.32	699.82
424.50	631.94
424.69	634.29
424.88	638.97
425.07	627.26
425.26	667.05
425.45	650.67
425.64	657.69
425.83	667.05
426.01	695.14
426.20	664.71
426.39	636.63
426.58	674.07
426.77	739.61
426.96	641.31
427.15	653.01
427.33	645.99
427.52	589.82
427.71	699.82
427.90	620.24
428.09	674.07
428.28	669.39
428.46	615.56
428.65	617.90
428.84	662.37
429.03	601.52
429.22	610.88
429.40	685.78
429.59	662.37
429.78	667.05
429.97	667.05
430.16	606.20
430.34	622.58
430.53	615.56
430.72	615.56
430.91	650.67
431.10	571.09
431.28	606.20
431.47	610.88
431.66	603.86
431.85	636.63
432.03	706.84
432.22	685.78
432.41	669.39
432.60	685.78
432.79	615.56
432.97	650.67
433.16	702.16
433.35	678.76
433.54	617.90
433.72	706.84
433.91	683.44
434.10	650.67
434.28	603.86
434.47	641.31
434.66	669.39
434.85	681.10
435.03	870.68
435.22	1018.13
435.41	1160.91
435.59	1062.60
435.78	884.72
435.97	866.00
436.16	851.96
436.34	671.73
436.53	655.35
436.72	610.88
436.90	667.05
437.09	589.82
437.28	676.41
437.46	580.45
437.65	634.29
437.84	622.58
438.02	624.92
438.21	711.52
438.40	643.65
438.58	615.56
438.77	580.45
438.96	622.58
439.14	557.05
439.33	662.37
439.52	627.26
439.70	596.84
439.89	596.84
440.08	634.29
440.26	634.29
440.45	683.44
440.63	709.18
440.82	664.71
441.01	685.78
441.19	699.82
441.38	620.24
441.57	627.26
441.75	655.35
441.94	620.24
442.12	627.26
442.31	653.01
442.50	627.26
442.68	660.03
442.87	671.73
443.05	606.20
443.24	657.69
443.43	627.26
443.61	676.41
443.80	657.69
443.98	709.18
444.17	660.03
444.35	674.07
444.54	568.75
444.73	592.16
444.91	655.35
445.10	601.52
445.28	552.37
445.47	706.84
445.65	617.90
445.84	641.31
446.02	657.69
446.21	615.56
446.39	552.37
446.58	645.99
446.77	622.58
446.95	636.63
447.14	648.33
447.32	587.47
447.51	671.73
447.69	631.94
447.88	653.01
448.06	629.60
448.25	699.82
448.43	678.76
448.62	653.01
448.80	641.31
448.99	587.47
449.17	554.71
449.36	643.65
449.54	653.01
449.73	641.31
449.91	634.29
450.10	564.07
450.28	683.44
450.46	667.05
450.65	716.20
450.83	634.29
451.02	643.65
451.20	660.03
451.39	603.86
451.57	592.16
451.76	631.94
451.94	631.94
452.13	645.99
452.31	669.39
452.49	650.67
452.68	606.20
452.86	596.84
453.05	641.31
453.23	587.47
453.42	631.94
453.60	608.54
453.78	610.88
453.97	629.60
454.15	641.31
454.34	641.31
454.52	573.43
454.70	653.01
454.89	678.76
455.07	655.35
455.26	699.82
455.44	613.22
455.62	610.88
455.81	629.60
455.99	615.56
456.17	641.31
456.36	627.26
456.54	655.35
456.73	622.58
456.91	634.29
457.09	634.29
457.28	601.52
457.46	655.35
457.64	599.18
457.83	629.60
458.01	669.39
458.19	643.65
458.38	624.92
458.56	613.22
458.74	622.58
458.93	629.60
459.11	655.35
459.29	650.67
459.48	641.31
459.66	730.25
459.84	641.31
460.03	674.07
460.21	688.12
460.39	582.79
460.57	681.10
460.76	655.35
460.94	620.24
461.12	683.44
461.31	681.10
461.49	601.52
461.67	603.86
461.85	645.99
462.04	622.58
462.22	1015.79
462.40	638.97
462.59	702.16
462.77	709.18
462.95	664.71
463.13	596.84
463.32	559.39
463.50	620.24
463.68	648.33
463.86	608.54
464.05	610.88
464.23	746.63
464.41	645.99
464.59	655.35
464.78	650.67
464.96	596.84
465.14	648.33
465.32	685.78
465.50	667.05
465.69	624.92
465.87	631.94
466.05	697.48
466.23	702.16
466.41	622.58
466.60	566.41
466.78	631.94
466.96	655.35
467.14	685.78
467.32	645.99
467.51	660.03
467.69	615.56
467.87	660.03
468.05	645.99
468.23	699.82
468.41	638.97
468.60	653.01
468.78	631.94
468.96	688.12
469.14	585.13
469.32	594.50
469.50	641.31
469.69	610.88
469.87	622.58
470.05	641.31
470.23	676.41
470.41	685.78
470.59	688.12
470.77	653.01
470.95	650.67
471.14	662.37
471.32	634.29
471.50	676.41
471.68	629.60
471.86	709.18
472.04	676.41
472.22	599.18
472.40	627.26
472.58	678.76
472.77	601.52
472.95	676.41
473.13	631.94
473.31	627.26
473.49	664.71
473.67	596.84
473.85	660.03
474.03	599.18
474.21	629.60
474.39	643.65
474.57	671.73
474.75	699.82
474.93	606.20
475.12	571.09
475.30	669.39
475.48	692.80
475.66	660.03
475.84	592.16
476.02	669.39
476.20	676.41
476.38	662.37
476.56	660.03
476.74	692.80
476.92	617.90
477.10	688.12
477.28	610.88
477.46	610.88
477.64	589.82
477.82	620.24
478.00	606.20
478.18	681.10
478.36	617.90
478.54	608.54
478.72	641.31
478.90	608.54
479.08	720.88
479.26	650.67
479.44	695.14
479.62	587.47
479.80	582.79
479.98	627.26
480.16	587.47
480.34	624.92
480.52	657.69
480.70	643.65
480.88	606.20
481.06	634.29
481.24	587.47
481.41	674.07
481.59	690.46
481.77	627.26
481.95	610.88
482.13	718.54
482.31	655.35
482.49	702.16
482.67	664.71
482.85	739.61
483.03	667.05
483.21	650.67
483.39	638.97
483.57	685.78
483.74	725.57
483.92	636.63
484.10	653.01
484.28	676.41
484.46	690.46
484.64	641.31
484.82	741.95
485.00	711.52
485.18	716.20
485.35	711.52
485.53	744.29
485.71	695.14
485.89	582.79
486.07	678.76
486.25	746.63
486.43	753.65
486.61	641.31
486.78	760.67
486.96	746.63
487.14	697.48
487.32	770.04
487.50	716.20
487.68	798.12
487.85	732.59
488.03	744.29
488.21	758.33
488.39	650.67
488.57	727.91
488.75	725.57
488.92	741.95
489.10	662.37
489.28	685.78
489.46	755.99
489.64	674.07
489.81	653.01
489.99	695.14
490.17	690.46
490.35	765.36
490.53	734.93
490.70	711.52
490.88	674.07
491.06	681.10
491.24	641.31
491.41	746.63
491.59	730.25
491.77	685.78
491.95	753.65
492.13	702.16
492.30	704.50
492.48	711.52
492.66	645.99
492.84	617.90
493.01	699.82
493.19	720.88
493.37	713.86
493.54	702.16
493.72	697.48
493.90	650.67
494.08	669.39
494.25	697.48
494.43	681.10
494.61	657.69
494.79	732.59
494.96	627.26
495.14	692.80
495.32	669.39
495.49	660.03
495.67	723.23
495.85	692.80
496.02	662.37
496.20	718.54
496.38	695.14
496.55	732.59
496.73	667.05
496.91	669.39
497.09	645.99
497.26	744.29
497.44	713.86
497.62	660.03
497.79	631.94
497.97	610.88
498.14	674.07
498.32	655.35
498.50	624.92
498.67	643.65
498.85	671.73
499.03	624.92
499.20	620.24
499.38	662.37
499.56	706.84
499.73	674.07
499.91	636.63
500.08	650.67
500.26	678.76
500.44	615.56
500.61	678.76
500.79	622.58
500.97	662.37
501.14	723.23
501.32	641.31
501.49	718.54
501.67	690.46
501.84	648.33
502.02	681.10
502.20	685.78
502.37	662.37
502.55	643.65
502.72	638.97
502.90	615.56
503.07	601.52
503.25	629.60
503.43	664.71
503.60	669.39
503.78	723.23
503.95	608.54
504.13	692.80
504.30	617.90
504.48	683.44
504.65	690.46
504.83	706.84
505.01	739.61
505.18	678.76
505.36	615.56
505.53	624.92
505.71	730.25
505.88	732.59
506.06	683.44
506.23	711.52
506.41	603.86
506.58	662.37
506.76	683.44
506.93	660.03
507.11	587.47
507.28	697.48
507.46	655.35
507.63	624.92
507.81	634.29
507.98	653.01
508.16	655.35
508.33	617.90
508.50	674.07
508.68	620.24
508.85	643.65
509.03	596.84
509.20	615.56
509.38	608.54
509.55	727.91
509.73	716.20
509.90	622.58
510.08	683.44
510.25	596.84
510.42	582.79
510.60	620.24
510.77	688.12
510.95	620.24
511.12	601.52
511.30	592.16
511.47	615.56
511.64	685.78
511.82	678.76
511.99	688.12
512.17	610.88
512.34	557.05
512.51	610.88
512.69	631.94
512.86	643.65
513.04	699.82
513.21	706.84
513.38	608.54
513.56	653.01
513.73	615.56
513.90	610.88
514.08	634.29
514.25	631.94
514.43	617.90
514.60	582.79
514.77	589.82
514.95	695.14
515.12	622.58
515.29	688.12
515.47	596.84
515.64	622.58
515.81	643.65
515.99	688.12
516.16	678.76
516.33	629.60
516.51	631.94
516.68	667.05
516.85	662.37
517.03	713.86
517.20	706.84
517.37	723.23
517.54	685.78
517.72	662.37
517.89	681.10
518.06	645.99
518.24	732.59
518.41	641.31
518.58	596.84
518.75	727.91
518.93	683.44
519.10	645.99
519.27	596.84
519.45	671.73
519.62	622.58
519.79	695.14
519.96	627.26
520.14	631.94
520.31	671.73
520.48	620.24
520.65	622.58
520.83	554.71
521.00	641.31
521.17	645.99
521.34	650.67
521.52	622.58
521.69	648.33
521.86	627.26
522.03	662.37
522.20	648.33
522.38	645.99
522.55	660.03
522.72	606.20
522.89	615.56
523.07	711.52
523.24	688.12
523.41	615.56
523.58	617.90
523.75	641.31
523.92	657.69
524.10	613.22
524.27	657.69
524.44	622.58
524.61	615.56
524.78	594.50
524.96	667.05
525.13	655.35
525.30	674.07
525.47	606.20
525.64	688.12
525.81	634.29
525.98	643.65
526.16	603.86
526.33	571.09
526.50	667.05
526.67	615.56
526.84	699.82
527.01	638.97
527.18	662.37
527.36	653.01
527.53	678.76
527.70	653.01
527.87	657.69
528.04	624.92
528.21	674.07
528.38	601.52
528.55	706.84
528.72	695.14
528.89	702.16
529.07	660.03
529.24	613.22
529.41	648.33
529.58	662.37
529.75	688.12
529.92	683.44
530.09	713.86
530.26	634.29
530.43	627.26
530.60	674.07
530.77	620.24
530.94	683.44
531.11	653.01
531.28	674.07
531.46	599.18
531.63	617.90
531.80	622.58
531.97	692.80
532.14	660.03
532.31	734.93
532.48	709.18
532.65	681.10
532.82	681.10
532.99	662.37
533.16	636.63
533.33	617.90
533.50	704.50
533.67	685.78
533.84	610.88
534.01	711.52
534.18	650.67
534.35	615.56
534.52	552.37
534.69	697.48
534.86	653.01
535.03	683.44
535.20	732.59
535.37	695.14
535.54	617.90
535.71	650.67
535.88	685.78
536.05	697.48
536.22	664.71
536.38	706.84
536.55	671.73
536.72	667.05
536.89	657.69
537.06	741.95
537.23	660.03
537.40	688.12
537.57	744.29
537.74	758.33
537.91	812.17
538.08	791.10
538.25	737.27
538.42	734.93
538.59	753.65
538.75	746.63
538.92	748.97
539.09	835.57
539.26	784.08
539.43	863.66
539.60	873.02
539.77	837.91
539.94	868.34
540.11	828.55
540.28	915.15
540.44	985.37
540.61	1022.81
540.78	1062.60
540.95	1111.75
541.12	1128.14
541.29	1247.51
541.46	1196.01
541.62	1233.46
541.79	1270.91
541.96	1226.44
542.13	1177.29
542.30	1238.14
542.47	1252.19
542.63	1242.82
542.80	1254.53
542.97	1224.10
543.14	1181.97
543.31	1203.04
543.48	1156.22
543.64	1214.74
543.81	1238.14
543.98	1200.69
544.15	1181.97
544.32	1235.80
544.48	1142.18
544.65	1193.67
544.82	1249.85
544.99	1200.69
545.16	1153.88
545.32	1219.42
545.49	1497.94
545.66	1937.96
545.83	2139.25
546.00	1888.81
546.16	1727.32
546.33	1401.98
546.50	1306.02
546.67	1296.66
546.83	1057.92
547.00	992.39
547.17	1071.97
547.34	1078.99
547.50	964.30
547.67	933.87
547.84	856.64
548.00	985.37
548.17	884.72
548.34	950.26
548.51	856.64
548.67	835.57
548.84	919.83
549.01	823.87
549.18	826.21
549.34	870.68
549.51	931.53
549.68	905.79
549.84	866.00
550.01	870.68
550.18	866.00
550.34	847.27
550.51	772.38
550.68	837.91
550.84	786.42
551.01	858.98
551.18	774.72
551.34	781.74
551.51	716.20
551.68	732.59
551.84	781.74
552.01	732.59
552.18	805.14
552.34	732.59
552.51	706.84
552.68	741.95
552.84	685.78
553.01	795.78
553.18	723.23
553.34	741.95
553.51	671.73
553.67	669.39
553.84	734.93
554.01	660.03
554.17	676.41
554.34	660.03
554.51	727.91
554.67	664.71
554.84	704.50
555.00	685.78
555.17	699.82
555.33	765.36
555.50	709.18
555.67	697.48
555.83	678.76
556.00	634.29
556.16	727.91
556.33	727.91
556.50	648.33
556.66	631.94
556.83	594.50
556.99	648.33
557.16	615.56
557.32	657.69
557.49	657.69
557.65	695.14
557.82	671.73
557.98	711.52
558.15	671.73
558.32	699.82
558.48	638.97
558.65	681.10
558.81	615.56
558.98	653.01
559.14	723.23
559.31	636.63
559.47	711.52
559.64	692.80
559.80	697.48
559.97	638.97
560.13	641.31
560.30	650.67
560.46	643.65
560.63	660.03
560.79	713.86
560.96	629.60
561.12	655.35
561.29	634.29
561.45	601.52
561.61	713.86
561.78	709.18
561.94	627.26
562.11	634.29
562.27	678.76
562.44	662.37
562.60	711.52
562.77	657.69
562.93	734.93
563.10	629.60
563.26	688.12
563.42	723.23
563.59	631.94
563.75	641.31
563.92	697.48
564.08	711.52
564.24	653.01
564.41	610.88
564.57	657.69
564.74	655.35
564.90	636.63
565.07	711.52
565.23	634.29
565.39	608.54
565.56	657.69
565.72	641.31
565.88	636.63
566.05	683.44
566.21	660.03
566.38	683.44
566.54	655.35
566.70	601.52
566.87	648.33
567.03	627.26
567.19	730.25
567.36	692.80
567.52	716.20
567.68	650.67
567.85	678.76
568.01	657.69
568.17	645.99
568.34	645.99
568.50	706.84
568.66	683.44
568.83	744.29
568.99	685.78
569.15	723.23
569.32	655.35
569.48	634.29
569.64	608.54
569.81	613.22
569.97	667.05
570.13	629.60
570.30	690.46
570.46	657.69
570.62	589.82
570.78	638.97
570.95	650.67
571.11	711.52
571.27	627.26
571.43	678.76
571.60	711.52
571.76	697.48
571.92	716.20
572.09	662.37
572.25	622.58
572.41	645.99
572.57	664.71
572.74	643.65
572.90	683.44
573.06	629.60
573.22	671.73
573.38	711.52
573.55	699.82
573.71	603.86
573.87	622.58
574.03	664.71
574.20	713.86
574.36	683.44
574.52	641.31
574.68	643.65
574.84	638.97
575.01	641.31
575.17	669.39
575.33	667.05
575.49	653.01
575.65	711.52
575.82	690.46
575.98	683.44
576.14	657.69
576.30	655.35
576.46	763.01
576.62	877.70
576.79	880.04
576.95	919.83
577.11	753.65
577.27	823.87
577.43	821.53
577.59	739.61
577.75	791.10
577.92	690.46
578.08	711.52
578.24	667.05
578.40	748.97
578.56	851.96
578.72	856.64
578.88	891.74
579.04	837.91
579.21	788.76
579.37	751.31
579.53	784.08
579.69	755.99
579.85	763.01
580.01	765.36
580.17	755.99
580.33	737.27
580.49	711.52
580.65	727.91
580.82	805.14
580.98	713.86
581.14	732.59
581.30	793.44
581.46	755.99
581.62	767.70
581.78	723.23
581.94	758.33
582.10	748.97
582.26	751.31
582.42	739.61
582.58	723.23
582.74	777.06
582.90	702.16
583.06	748.97
583.22	809.83
583.38	678.76
583.54	767.70
583.70	844.93
583.86	786.42
584.02	798.12
584.18	795.78
584.34	758.33
584.50	781.74
584.66	795.78
584.82	748.97
584.98	760.67
585.14	702.16
585.30	798.12
585.46	732.59
585.62	697.48
585.78	763.01
585.94	800.46
586.10	765.36
586.26	744.29
586.42	786.42
586.58	774.72
586.74	844.93
586.90	898.77
587.06	898.77
587.22	912.81
587.38	833.23
587.54	894.08
587.70	833.23
587.86	812.17
588.02	842.59
588.18	727.91
588.34	767.70
588.49	737.27
588.65	763.01
588.81	760.67
588.97	723.23
589.13	746.63
589.29	781.74
589.45	755.99
589.61	690.46
589.77	713.86
589.93	697.48
590.08	671.73
590.24	702.16
590.40	706.84
590.56	737.27
590.72	697.48
590.88	676.41
591.04	695.14
591.20	709.18
591.35	713.86
591.51	798.12
591.67	695.14
591.83	718.54
591.99	828.55
592.15	741.95
592.31	765.36
592.46	765.36
592.62	753.65
592.78	753.65
592.94	849.61
593.10	732.59
593.26	713.86
593.41	774.72
593.57	737.27
593.73	732.59
593.89	755.99
594.05	688.12
594.20	732.59
594.36	777.06
594.52	669.39
594.68	669.39
594.84	748.97
594.99	702.16
595.15	730.25
595.31	662.37
595.47	763.01
595.62	692.80
595.78	695.14
595.94	727.91
596.10	716.20
596.25	760.67
596.41	711.52
596.57	683.44
596.73	683.44
596.88	671.73
597.04	657.69
597.20	716.20
597.36	660.03
597.51	608.54
597.67	674.07
597.83	727.91
597.99	716.20
598.14	676.41
598.30	786.42
598.46	723.23
598.61	706.84
598.77	720.88
598.93	774.72
599.09	711.52
599.24	730.25
599.40	753.65
599.56	767.70
599.71	727.91
599.87	723.23
600.03	720.88
600.18	770.04
600.34	716.20
600.50	692.80
600.65	678.76
600.81	709.18
600.97	723.23
601.12	699.82
601.28	746.63
601.44	662.37
601.59	699.82
601.75	678.76
601.91	662.37
602.06	709.18
602.22	711.52
602.37	706.84
602.53	653.01
602.69	641.31
602.84	765.36
603.00	671.73
603.16	624.92
603.31	690.46
603.47	732.59
603.62	662.37
603.78	688.12
603.94	709.18
604.09	655.35
604.25	702.16
604.40	760.67
604.56	664.71
604.71	627.26
604.87	781.74
605.03	688.12
605.18	702.16
605.34	674.07
605.49	709.18
605.65	617.90
605.80	718.54
605.96	657.69
606.12	706.84
606.27	669.39
606.43	678.76
606.58	732.59
606.74	683.44
606.89	706.84
607.05	695.14
607.20	746.63
607.36	720.88
607.51	725.57
607.67	737.27
607.82	720.88
607.98	777.06
608.13	645.99
608.29	781.74
608.44	767.70
608.60	800.46
608.75	835.57
608.91	774.72
609.06	870.68
609.22	844.93
609.37	795.78
609.53	828.55
609.68	938.55
