SpectraSuite Data File
++++++++++++++++++++++++++++++++++++
Date: Thu Oct 24 13:21:19 EDT 2013
User: stostad
Dark Spectrum Present: No
Reference Spectrum Present: No
Number of Sampled Component Spectra: 1
Spectrometers: USB2+H05261
Integration Time (usec): 100000 (USB2+H05261)
Spectra Averaged: 1 (USB2+H05261)
Boxcar Smoothing: 0 (USB2+H05261)
Correct for Electrical Dark: No (USB2+H05261)
Strobe/Lamp Enabled: No (USB2+H05261)
Correct for Detector Non-linearity: No (USB2+H05261)
Correct for Stray Light: No (USB2+H05261)
Number of Pixels in Processed Spectrum: 2048
>>>>>Begin Processed Spectral Data<<<<<
365.73	543.00
365.92	543.00
366.12	543.00
366.32	559.39
366.52	526.62
366.72	493.85
366.91	444.70
367.11	503.22
367.31	397.89
367.51	411.93
367.70	468.11
367.90	437.68
368.10	440.02
368.30	484.49
368.49	428.32
368.69	484.49
368.89	533.64
369.09	407.25
369.28	477.47
369.48	491.51
369.68	510.24
369.87	496.19
370.07	500.87
370.27	608.54
370.47	613.22
370.66	819.19
370.86	753.65
371.06	844.93
371.25	908.13
371.45	926.85
371.65	812.17
371.84	791.10
372.04	812.17
372.24	884.72
372.44	856.64
372.63	896.43
372.83	936.21
373.03	938.55
373.22	854.30
373.42	999.41
373.62	987.71
373.81	931.53
374.01	1011.11
374.21	992.39
374.40	933.87
374.60	1029.84
374.79	961.96
374.99	992.39
375.19	1043.88
375.38	968.98
375.58	908.13
375.78	947.92
375.97	966.64
376.17	1025.15
376.37	954.94
376.56	1048.56
376.76	1036.86
376.95	1090.69
377.15	997.07
377.35	1039.20
377.54	1078.99
377.74	1069.62
377.93	1032.18
378.13	1053.24
378.33	1029.84
378.52	1043.88
378.72	1078.99
378.91	1121.12
379.11	1128.14
379.31	1128.14
379.50	1071.97
379.70	990.05
379.89	1090.69
380.09	1109.41
380.28	1102.39
380.48	1050.90
380.68	1074.31
380.87	1088.35
381.07	1034.52
381.26	1165.59
381.46	1125.80
381.65	1217.08
381.85	1193.67
382.04	1139.84
382.24	1060.26
382.43	1233.46
382.63	1165.59
382.83	1107.07
383.02	1116.44
383.22	1174.95
383.41	1097.71
383.61	1191.33
383.80	1149.20
384.00	1238.14
384.19	1212.40
384.39	1203.04
384.58	1210.06
384.78	1247.51
384.97	1151.54
385.17	1242.82
385.36	1231.12
385.56	1163.25
385.75	1125.80
385.95	1287.29
386.14	1210.06
386.34	1231.12
386.53	1252.19
386.72	1291.98
386.92	1196.01
387.11	1261.55
387.31	1224.10
387.50	1291.98
387.70	1289.64
387.89	1212.40
388.09	1334.11
388.28	1205.38
388.48	1217.08
388.67	1256.87
388.86	1270.91
389.06	1315.38
389.25	1268.57
389.45	1352.83
389.64	1296.66
389.84	1420.71
390.03	1263.89
390.22	1352.83
390.42	1364.53
390.61	1350.49
390.81	1345.81
391.00	1364.53
391.19	1376.24
391.39	1385.60
391.58	1446.45
391.78	1495.60
391.97	1411.34
392.16	1366.87
392.36	1483.90
392.55	1537.73
392.75	1404.32
392.94	1434.75
393.13	1455.81
393.33	1500.28
393.52	1476.88
393.71	1511.99
393.91	1504.96
394.10	1455.81
394.29	1495.60
394.49	1523.69
394.68	1394.96
394.88	1455.81
395.07	1610.29
395.26	1530.71
395.46	1533.05
395.65	1490.92
395.84	1579.86
396.04	1636.03
396.23	1612.63
396.42	1589.22
396.62	1584.54
396.81	1600.93
397.00	1614.97
397.19	1617.31
397.39	1671.14
397.58	1682.85
397.77	1703.91
397.97	1638.38
398.16	1652.42
398.35	1699.23
398.55	1638.38
398.74	1748.38
398.93	1788.17
399.12	1739.02
399.32	1673.48
399.51	1755.40
399.70	1783.49
399.90	1818.60
400.09	1825.62
400.28	1795.19
400.47	1750.72
400.67	1844.34
400.86	1884.13
401.05	1790.51
401.24	1884.13
401.44	1916.90
401.63	1895.83
401.82	1930.94
402.01	1863.07
402.21	1898.17
402.40	2045.63
402.59	1947.33
402.78	1909.88
402.97	2012.86
403.17	2024.56
403.36	1996.48
403.55	2066.69
403.74	2015.20
403.93	2195.42
404.13	2127.55
404.32	2064.35
404.51	2211.81
404.70	2160.31
404.89	2059.67
405.09	2160.31
405.28	2076.06
405.47	2092.44
405.66	2143.93
405.85	2181.38
406.05	2169.68
406.24	2225.85
406.43	2143.93
406.62	2277.34
406.81	2211.81
407.00	2265.64
407.20	2207.13
407.39	2230.53
407.58	2291.38
407.77	2249.25
407.96	2242.23
408.15	2415.43
408.34	2370.96
408.54	2473.95
408.73	2429.48
408.92	2359.26
409.11	2413.09
409.30	2473.95
409.49	2434.16
409.68	2495.01
409.87	2541.82
410.07	2532.46
410.26	2640.12
410.45	2497.35
410.64	2471.61
410.83	2546.50
411.02	2612.04
411.21	2614.38
411.40	2642.46
411.59	2698.64
411.78	2588.63
411.98	2640.12
412.17	2670.55
412.36	2775.88
412.55	2771.19
412.74	2885.88
412.93	2918.65
413.12	2794.60
413.31	2871.84
413.50	2874.18
413.69	2920.99
413.88	2984.18
414.07	2942.05
414.26	2958.44
414.45	2984.18
414.64	3047.38
414.83	2946.73
415.02	3021.63
415.22	3117.59
415.41	3117.59
415.60	3108.23
415.79	3171.43
415.98	3269.73
416.17	3269.73
416.36	3176.11
416.55	3332.92
416.74	3328.24
416.93	3262.71
417.12	3330.58
417.31	3363.35
417.50	3403.14
417.69	3459.31
417.88	3515.48
418.07	3473.36
418.26	3428.88
418.45	3506.12
418.64	3634.85
418.83	3466.33
419.02	3536.55
419.21	3627.83
419.39	3517.83
419.58	3648.90
419.77	3597.40
419.96	3557.61
420.15	3662.94
420.34	3672.30
420.53	3744.86
420.72	3672.30
420.91	3735.50
421.10	3714.43
421.29	3740.18
421.48	3716.77
421.67	3765.92
421.86	3688.68
422.05	3726.13
422.24	3723.79
422.43	3815.07
422.61	3882.95
422.80	3922.74
422.99	3911.04
423.18	3950.82
423.37	3913.38
423.56	3885.29
423.75	3779.97
423.94	3892.31
424.13	3534.21
424.32	3831.46
424.50	3901.67
424.69	3992.95
424.88	3957.85
425.07	4004.66
425.26	3838.48
425.45	3950.82
425.64	3904.01
425.83	3946.14
426.01	3990.61
426.20	3904.01
426.39	3920.40
426.58	3887.63
426.77	4011.68
426.96	4065.51
427.15	3990.61
427.33	4093.60
427.52	4081.89
427.71	4149.77
427.90	4079.55
428.09	4280.84
428.28	4084.23
428.46	4161.47
428.65	4114.66
428.84	4437.66
429.03	4372.12
429.22	4241.05
429.40	4432.97
429.59	4189.56
429.78	4168.49
429.97	4189.56
430.16	4337.01
430.34	4348.72
430.53	4454.04
430.72	4320.63
430.91	4454.04
431.10	4430.63
431.28	4500.85
431.47	4491.49
431.66	4622.56
431.85	4451.70
432.03	4526.60
432.22	4730.22
432.41	4489.15
432.60	4564.04
432.79	4552.34
432.97	4723.20
433.16	4657.67
433.35	4559.36
433.54	4704.48
433.72	4800.44
433.91	4608.51
434.10	4793.42
434.28	4856.61
434.47	4842.57
434.66	4798.10
434.85	4889.38
435.03	4891.72
435.22	4997.04
435.41	5235.78
435.59	5060.24
435.78	4952.57
435.97	4990.02
436.16	5006.41
436.34	4957.25
436.53	5139.82
436.72	5156.20
436.90	5029.81
437.09	5050.88
437.28	5085.98
437.46	5139.82
437.65	5167.90
437.84	5128.11
438.02	5029.81
438.21	5036.83
438.40	5069.60
438.58	5233.44
438.77	5401.96
438.96	5219.39
439.14	5462.81
439.33	5488.56
439.52	5509.62
439.70	5423.02
439.89	5610.26
440.08	5540.05
440.26	5598.56
440.45	5591.54
440.63	5809.21
440.82	5870.06
441.01	5666.44
441.19	5827.93
441.38	5872.40
441.57	5844.32
441.75	5746.02
441.94	5827.93
442.12	5973.05
442.31	6064.33
442.50	6232.85
442.68	6001.13
442.87	6076.03
443.05	6076.03
443.24	6104.12
443.43	6258.59
443.61	6289.02
443.80	6331.15
443.98	6106.46
444.17	5926.24
444.35	6090.07
444.54	6260.93
444.73	6101.78
444.91	6263.27
445.10	6363.92
445.28	6345.19
445.47	6239.87
445.65	6267.95
445.84	6399.02
446.02	6415.41
446.21	6314.77
446.39	6195.40
446.58	6417.75
446.77	6445.84
446.95	6216.46
447.14	6345.19
447.32	6384.98
447.51	6452.86
447.69	6370.94
447.88	6251.57
448.06	6438.81
448.25	6478.60
448.43	6511.37
448.62	6448.18
448.80	6434.13
448.99	6448.18
449.17	6609.67
449.36	6476.26
449.54	6745.42
449.73	6647.12
449.91	6705.63
450.10	6600.31
450.28	6883.52
450.46	6789.89
450.65	6719.68
450.83	6731.38
451.02	6799.26
451.20	6963.09
451.39	6895.22
451.57	6691.59
451.76	6668.19
451.94	6698.61
452.13	6904.58
452.31	7108.21
452.49	6857.77
452.68	6946.71
452.86	6888.20
453.05	7045.01
453.23	6984.16
453.42	7002.88
453.60	7049.69
453.78	7208.85
453.97	7098.84
454.15	7115.23
454.34	7105.87
454.52	7276.73
454.70	7143.32
454.89	7173.74
455.07	7302.47
455.26	7339.92
455.44	7356.30
455.62	7536.52
455.81	7459.29
455.99	7412.48
456.17	7328.22
456.36	7527.16
456.54	7529.50
456.73	7679.30
456.91	7705.04
457.09	7597.38
457.28	7929.74
457.46	7609.08
457.64	7922.71
457.83	7719.09
458.01	7765.90
458.19	7857.18
458.38	7602.06
458.56	7906.33
458.74	7831.43
458.93	7955.48
459.11	7920.37
459.29	7901.65
459.48	8030.38
459.66	8042.08
459.84	8084.21
460.03	8060.80
460.21	8128.68
460.39	8098.25
460.57	8264.43
460.76	8147.40
460.94	8411.89
461.12	8182.51
461.31	8245.71
461.49	8128.68
461.67	8191.88
461.85	8514.87
462.04	8383.80
462.22	8601.47
462.40	8645.94
462.59	8369.76
462.77	8397.84
462.95	8475.08
463.13	8592.11
463.32	8381.46
463.50	8531.25
463.68	8606.15
463.86	8608.49
464.05	8622.53
464.23	8561.68
464.41	8587.43
464.59	8554.66
464.78	8903.40
464.96	8737.22
465.14	8582.74
465.32	8847.22
465.50	8758.28
465.69	8968.93
465.87	9156.18
466.05	8760.63
466.23	8879.99
466.41	8882.33
466.60	8917.44
466.78	8833.18
466.96	8851.91
467.14	8975.95
467.32	8943.19
467.51	9006.38
467.69	9095.32
467.87	9125.75
468.05	9291.93
468.23	8966.59
468.41	9240.44
468.60	9085.96
468.78	9315.33
468.96	9238.09
469.14	9689.82
469.32	9320.01
469.50	9359.80
469.69	9254.48
469.87	9621.94
470.05	9607.90
470.23	9549.39
470.41	9495.55
470.59	9846.63
470.77	9699.18
470.95	9563.43
471.14	9748.33
471.32	9867.70
471.50	9851.31
471.68	9895.78
471.86	9912.17
472.04	10120.48
472.22	10303.04
472.40	9956.64
472.58	10040.90
472.77	10125.16
472.95	10249.21
473.13	10581.56
473.31	10209.42
473.49	10122.82
473.67	10134.52
473.85	10333.47
474.03	10689.23
474.21	10569.86
474.39	10649.44
474.57	10396.66
474.75	10846.04
474.93	10881.15
475.12	10607.31
475.30	10881.15
475.48	10729.02
475.66	10864.77
475.84	11115.20
476.02	10986.47
476.20	11246.27
476.38	11494.37
476.56	11370.32
476.74	11609.06
476.92	11262.66
477.10	11510.75
477.28	11513.10
477.46	11630.12
477.64	11779.92
477.82	11885.24
478.00	12278.45
478.18	12100.57
478.36	12182.49
478.54	12304.20
478.72	12348.67
478.90	12343.99
479.08	12610.81
479.26	12847.20
479.44	12718.47
479.62	12784.01
479.80	12971.25
479.98	13186.58
480.16	13109.34
480.34	13004.02
480.52	13298.92
480.70	13240.41
480.88	13308.29
481.06	13322.33
481.24	13537.66
481.41	13811.50
481.59	13937.89
481.77	13907.46
481.95	14012.79
482.13	14143.86
482.31	13963.64
482.49	14235.14
482.67	14445.79
482.85	14668.14
483.03	14665.80
483.21	14888.15
483.39	14988.79
483.57	14897.51
483.74	15051.99
483.92	15272.00
484.10	15192.42
484.28	15592.65
484.46	15779.89
484.64	15850.11
484.82	15618.39
485.00	15775.21
485.18	16100.55
485.35	16379.07
485.53	16301.83
485.71	16472.69
485.89	16767.60
486.07	16489.07
486.25	16610.78
486.43	16678.66
486.61	16795.68
486.78	17224.00
486.96	17317.62
487.14	17418.27
487.32	17399.54
487.50	17589.13
487.68	17965.95
487.85	17776.37
488.03	18319.37
488.21	18047.87
488.39	18031.49
488.57	18499.59
488.75	18560.45
488.92	18523.00
489.10	18843.65
489.28	18995.79
489.46	19290.70
489.64	19194.73
489.81	19536.45
489.99	19314.10
490.17	19386.66
490.35	20034.99
490.53	19765.82
490.70	20154.35
490.88	19992.86
491.06	20390.75
491.24	20709.06
491.41	20442.24
491.59	20922.05
491.77	20577.99
491.95	21104.61
492.13	21050.78
492.30	21479.10
492.48	21371.43
492.66	21296.53
492.84	21125.68
493.01	21600.80
493.19	21776.34
493.37	22057.21
493.54	21879.33
493.72	22075.93
493.90	22277.22
494.08	22164.87
494.25	22689.15
494.43	22930.23
494.61	22679.79
494.79	23250.88
494.96	22707.88
495.14	23110.45
495.32	23248.54
495.49	23513.02
495.67	23543.45
495.85	23424.08
496.02	23700.26
496.20	23840.70
496.38	23639.41
496.55	23693.24
496.73	24390.72
496.91	24381.36
497.09	24421.15
497.26	24748.82
497.44	24531.15
497.62	24992.24
497.79	25062.46
497.97	25123.31
498.14	25144.38
498.32	25507.16
498.50	25450.99
498.67	25745.89
498.85	25582.06
499.03	25666.31
499.20	25696.74
499.38	25762.28
499.56	26291.24
499.73	26071.23
499.91	26211.66
500.08	26541.68
500.26	26370.82
500.44	26319.32
500.61	26869.35
500.79	26352.09
500.97	26937.23
501.14	27281.28
501.32	27164.26
501.49	27295.33
501.67	27241.50
501.84	27339.80
502.02	27257.88
502.20	27644.07
502.37	27419.38
502.55	27597.26
502.72	27475.55
502.90	27386.61
503.07	27700.24
503.25	27974.08
503.43	27246.18
503.60	28137.92
503.78	28404.74
503.95	28168.35
504.13	28252.61
504.30	28154.30
504.48	28491.34
504.65	28849.44
504.83	29060.09
505.01	29376.06
505.18	28706.67
505.36	29095.20
505.53	28828.38
505.71	28980.51
505.88	29638.20
506.06	29167.76
506.23	29572.67
506.41	29469.69
506.58	29521.18
506.76	29586.71
506.93	30167.16
507.11	29504.79
507.28	30277.17
507.46	29706.08
507.63	29923.75
507.81	30649.32
507.98	29867.58
508.16	30153.12
508.33	30302.92
508.50	30136.74
508.68	30616.55
508.85	30918.48
509.03	30995.71
509.20	30625.91
509.38	31180.62
509.55	31164.23
509.73	31112.74
509.90	31489.57
510.08	31740.00
510.25	31487.23
510.42	31938.95
510.60	31630.00
510.77	31555.10
510.95	32184.71
511.12	31828.95
511.30	32058.32
511.47	32091.09
511.64	32444.51
511.82	32470.25
511.99	32278.33
512.17	32355.57
512.34	32699.62
512.51	32652.81
512.69	33017.94
512.86	32826.01
513.04	33186.46
513.21	33233.27
513.38	33036.66
513.56	33289.44
513.73	32947.72
513.90	33390.08
514.08	33256.67
514.25	33745.84
514.43	33703.71
514.60	33659.24
514.77	33883.94
514.95	33780.95
515.12	33530.51
515.29	33809.04
515.47	34192.89
515.64	34579.07
515.81	34305.23
515.99	33827.76
516.16	34171.82
516.33	34387.15
516.51	34387.15
516.68	34548.65
516.85	34602.48
517.03	34941.86
517.20	34878.66
517.37	35136.12
517.54	34670.36
517.72	34913.77
517.89	34965.26
518.06	34740.57
518.24	35629.98
518.41	35189.95
518.58	35044.84
518.75	35267.19
518.93	35489.54
519.10	35402.94
519.27	35700.19
519.45	35491.88
519.62	35632.32
519.79	35777.43
519.96	35945.95
520.14	36030.21
520.31	35791.47
520.48	35887.43
520.65	36191.70
520.83	36598.96
521.00	36376.61
521.17	35838.28
521.34	36676.19
521.52	36685.56
521.69	36549.81
521.86	36601.30
522.03	36861.10
522.20	37336.23
522.38	37244.94
522.55	37317.50
522.72	37319.84
522.89	37186.43
523.07	37244.94
523.24	37120.90
523.41	37308.14
523.58	36973.44
523.75	37425.17
523.92	37383.04
524.10	37975.19
524.27	37570.28
524.44	38099.24
524.61	37886.25
524.78	38176.48
524.96	38064.13
525.13	38499.47
525.30	38602.46
525.47	38932.47
525.64	38665.65
525.81	38464.36
525.98	37872.21
526.16	38188.18
526.33	38010.30
526.50	38780.34
526.67	38363.72
526.84	38682.03
527.01	38576.71
527.18	38595.43
527.36	38476.07
527.53	39030.77
527.70	39164.18
527.87	38930.13
528.04	39262.49
528.21	39416.96
528.38	39189.93
528.55	39636.97
528.72	39573.78
528.89	39166.52
529.07	39346.75
529.24	39119.71
529.41	39344.41
529.58	39501.22
529.75	39821.87
529.92	39814.85
530.09	39625.27
530.26	39559.73
530.43	39950.60
530.60	39833.58
530.77	39917.84
530.94	40336.79
531.11	40191.68
531.28	40577.87
531.46	40786.18
531.63	40587.23
531.80	40275.94
531.97	40289.98
532.14	40378.92
532.31	40339.13
532.48	40615.32
532.65	40851.71
532.82	40699.58
532.99	40875.12
533.16	40477.22
533.33	41024.91
533.50	40957.03
533.67	41055.34
533.84	40790.86
534.01	40870.43
534.18	40847.03
534.35	41422.80
534.52	41371.31
534.69	41368.97
534.86	41343.22
535.03	41226.20
535.20	41212.15
535.37	41228.54
535.54	42092.19
535.71	41771.54
535.88	41748.14
536.05	42153.05
536.22	41799.63
536.38	42202.20
536.55	42066.45
536.72	42429.23
536.89	42525.19
537.06	42059.43
537.23	42614.13
537.40	42349.65
537.57	42703.07
537.74	42253.69
537.91	42747.54
538.08	42183.48
538.25	42202.20
538.42	42529.87
538.59	42677.33
538.75	42129.64
538.92	42637.54
539.09	43194.59
539.26	42478.38
539.43	42667.97
539.60	42595.41
539.77	43328.00
539.94	43562.05
540.11	43349.06
540.28	43688.44
540.44	43468.43
540.61	43285.87
540.78	43217.99
540.95	43592.48
541.12	43325.66
541.29	43728.23
541.46	43246.08
541.62	43852.28
541.79	44140.16
541.96	43367.79
542.13	43901.43
542.30	43758.66
542.47	44327.41
542.63	43742.27
542.80	44140.16
542.97	44673.81
543.14	44432.73
543.31	44900.84
543.48	44669.12
543.64	44587.21
543.81	44559.12
543.98	44676.15
544.15	44664.44
544.32	44966.37
544.48	45034.25
544.65	44938.29
544.82	44800.19
544.99	44809.56
545.16	44641.04
545.32	44409.32
545.49	45460.23
545.66	45956.42
545.83	45762.15
546.00	45958.76
546.16	45654.49
546.33	45429.80
546.50	45137.23
546.67	45448.52
546.83	45181.70
547.00	45134.89
547.17	44818.92
547.34	45322.13
547.50	45268.30
547.67	45600.66
547.84	45750.45
548.00	45713.00
548.17	45925.99
548.34	45705.98
548.51	45876.84
548.67	45642.79
548.84	46012.59
549.01	45893.22
549.18	45930.67
549.34	45947.06
549.51	46244.30
549.68	46155.36
549.84	46096.85
550.01	46026.63
550.18	45507.04
550.34	45801.94
550.51	46127.28
550.68	46136.64
550.84	45963.44
551.01	46043.02
551.18	45738.75
551.34	45549.17
551.51	45778.54
551.68	46085.15
551.84	45888.54
552.01	46270.05
552.18	46288.77
552.34	46110.89
552.51	46799.01
552.68	46623.47
552.84	46939.44
553.01	46752.20
553.18	46679.64
553.34	47281.16
553.51	46153.02
553.67	46649.22
553.84	46803.69
554.01	47224.99
554.17	46714.75
554.34	47007.32
554.51	47292.86
554.67	47021.36
554.84	46408.14
555.00	46677.30
555.17	46674.96
555.33	46681.98
555.50	46894.97
555.67	46986.25
555.83	47023.70
556.00	47072.85
556.16	46876.25
556.33	47023.70
556.50	46986.25
556.66	47597.13
556.83	46838.80
556.99	47349.04
557.16	47400.53
557.32	47821.83
557.49	47496.49
557.65	47440.32
557.82	47519.90
557.98	47234.35
558.15	47327.97
558.32	47707.14
558.48	47505.85
558.65	47688.42
558.81	47835.87
558.98	47833.53
559.14	47707.14
559.31	47529.26
559.47	48154.18
559.64	47990.34
559.80	47711.82
559.97	47232.01
560.13	47503.51
560.30	47592.45
560.46	47920.13
560.63	48268.87
560.79	48027.79
560.96	48172.91
561.12	47845.23
561.29	47908.43
561.45	47503.51
561.61	48289.93
561.78	47973.96
561.94	48229.08
562.11	48477.18
562.27	48446.75
562.44	48011.41
562.60	47805.44
562.77	47868.64
562.93	48311.00
563.10	48182.27
563.26	47791.40
563.42	48652.72
563.59	48495.90
563.75	47990.34
563.92	48559.09
564.08	48285.25
564.24	48163.54
564.41	48399.94
564.57	48444.41
564.74	47995.03
564.90	48603.56
565.07	48643.35
565.23	48566.12
565.39	48704.21
565.56	49109.12
565.72	48577.82
565.88	48704.21
566.05	48875.07
566.21	47971.62
566.38	48191.63
566.54	48320.36
566.70	48519.31
566.87	48971.03
567.03	48760.38
567.19	49111.46
567.36	48692.50
567.52	48720.59
567.68	48690.16
567.85	48762.72
568.01	48865.70
568.17	48907.83
568.34	48685.48
568.50	48760.38
568.66	48549.73
568.83	48891.45
568.99	48828.26
569.15	48685.48
569.32	49277.64
569.48	48741.66
569.64	48907.83
569.81	48519.31
569.97	48765.06
570.13	48734.63
570.30	48687.82
570.46	48772.08
570.62	48334.40
570.78	48718.25
570.95	48591.86
571.11	48971.03
571.27	48900.81
571.43	48985.07
571.60	48699.53
571.76	48802.51
571.92	49088.06
572.09	48758.04
572.25	49193.38
572.41	49165.29
572.57	49174.66
572.74	49577.23
572.90	48856.34
573.06	48928.90
573.22	49008.48
573.38	49022.52
573.55	49081.03
573.71	49265.94
573.87	48900.81
574.03	48835.28
574.20	49174.66
574.36	49361.90
574.52	49008.48
574.68	49120.82
574.84	49045.93
575.01	49209.76
575.17	49507.01
575.33	49214.44
575.49	49387.64
575.65	49338.49
575.82	49537.44
575.98	49347.86
576.14	49680.21
576.30	49460.20
576.46	49064.65
576.62	49216.78
576.79	48975.71
576.95	48933.58
577.11	49268.28
577.27	49406.37
577.43	49357.22
577.59	49144.23
577.75	49373.60
577.92	49050.61
578.08	49315.09
578.24	49261.26
578.40	49659.15
578.56	49294.02
578.72	49333.81
578.88	49837.03
579.04	50143.64
579.21	49195.72
579.37	49734.04
579.53	49736.38
579.69	49333.81
579.85	49546.80
580.01	49703.62
580.17	49570.21
580.33	49464.88
580.49	49429.77
580.65	49399.35
580.82	49305.73
580.98	49373.60
581.14	49516.37
581.30	49724.68
581.46	49984.48
581.62	49492.97
581.78	49008.48
581.94	49574.89
582.10	48828.26
582.26	49193.38
582.42	49193.38
582.58	49471.90
582.74	49682.55
582.90	49427.43
583.06	49504.67
583.22	49698.94
583.38	49516.37
583.54	49268.28
583.70	49326.79
583.86	49581.91
584.02	49600.63
584.18	49872.14
584.34	49504.67
584.50	49834.69
584.66	49272.96
584.82	49015.50
584.98	49549.14
585.14	49818.30
585.30	49635.74
585.46	49647.44
585.62	49748.09
585.78	49883.84
585.94	49977.46
586.10	49932.99
586.26	49785.54
586.42	49642.76
586.58	49818.30
586.74	49523.40
586.90	49602.97
587.06	49874.48
587.22	50267.69
587.38	49598.29
587.54	50145.98
587.70	50574.30
587.86	50094.49
588.02	50103.85
588.18	49963.42
588.34	49858.09
588.49	50145.98
588.65	49720.00
588.81	50092.15
588.97	50155.34
589.13	49755.11
