SpectraSuite Data File
++++++++++++++++++++++++++++++++++++
Date: Thu Oct 24 13:21:03 EDT 2013
User: stostad
Dark Spectrum Present: No
Reference Spectrum Present: No
Number of Sampled Component Spectra: 1
Spectrometers: USB2+H05261
Integration Time (usec): 100000 (USB2+H05261)
Spectra Averaged: 1 (USB2+H05261)
Boxcar Smoothing: 0 (USB2+H05261)
Correct for Electrical Dark: No (USB2+H05261)
Strobe/Lamp Enabled: No (USB2+H05261)
Correct for Detector Non-linearity: No (USB2+H05261)
Correct for Stray Light: No (USB2+H05261)
Number of Pixels in Processed Spectrum: 2048
>>>>>Begin Processed Spectral Data<<<<<
365.73	608.54
365.92	608.54
366.12	608.54
366.32	510.24
366.52	461.09
366.72	409.59
366.91	402.57
367.11	463.43
367.31	456.40
367.51	414.27
367.70	404.91
367.90	437.68
368.10	461.09
368.30	575.77
368.49	489.17
368.69	404.91
368.89	458.74
369.09	514.92
369.28	498.53
369.48	437.68
369.68	528.96
369.87	505.56
370.07	503.22
370.27	468.11
370.47	561.73
370.66	610.88
370.86	585.13
371.06	601.52
371.25	592.16
371.45	610.88
371.65	578.11
371.84	601.52
372.04	547.69
372.24	601.52
372.44	578.11
372.63	613.22
372.83	678.76
373.03	624.92
373.22	674.07
373.42	613.22
373.62	674.07
373.81	653.01
374.01	697.48
374.21	610.88
374.40	669.39
374.60	688.12
374.79	613.22
374.99	667.05
375.19	601.52
375.38	627.26
375.58	702.16
375.78	681.10
375.97	575.77
376.17	699.82
376.37	657.69
376.56	615.56
376.76	667.05
376.95	580.45
377.15	667.05
377.35	657.69
377.54	704.50
377.74	662.37
377.93	620.24
378.13	610.88
378.33	617.90
378.52	645.99
378.72	606.20
378.91	657.69
379.11	648.33
379.31	629.60
379.50	645.99
379.70	681.10
379.89	657.69
380.09	580.45
380.28	582.79
380.48	667.05
380.68	634.29
380.87	587.47
381.07	596.84
381.26	643.65
381.46	603.86
381.65	634.29
381.85	636.63
382.04	599.18
382.24	580.45
382.43	606.20
382.63	655.35
382.83	587.47
383.02	613.22
383.22	648.33
383.41	561.73
383.61	620.24
383.80	683.44
384.00	552.37
384.19	587.47
384.39	613.22
384.58	641.31
384.78	660.03
384.97	624.92
385.17	578.11
385.36	608.54
385.56	613.22
385.75	643.65
385.95	638.97
386.14	622.58
386.34	608.54
386.53	601.52
386.72	695.14
386.92	615.56
387.11	650.67
387.31	559.39
387.50	585.13
387.70	608.54
387.89	594.50
388.09	552.37
388.28	578.11
388.48	606.20
388.67	641.31
388.86	564.07
389.06	603.86
389.25	660.03
389.45	627.26
389.64	608.54
389.84	615.56
390.03	660.03
390.22	585.13
390.42	566.41
390.61	571.09
390.81	636.63
391.00	608.54
391.19	638.97
391.39	653.01
391.58	578.11
391.78	688.12
391.97	627.26
392.16	648.33
392.36	575.77
392.55	599.18
392.75	592.16
392.94	596.84
393.13	601.52
393.33	655.35
393.52	587.47
393.71	645.99
393.91	610.88
394.10	662.37
394.29	599.18
394.49	587.47
394.68	667.05
394.88	657.69
395.07	643.65
395.26	634.29
395.46	730.25
395.65	643.65
395.84	631.94
396.04	622.58
396.23	683.44
396.42	610.88
396.62	674.07
396.81	631.94
397.00	643.65
397.19	643.65
397.39	606.20
397.58	613.22
397.77	547.69
397.97	599.18
398.16	641.31
398.35	608.54
398.55	585.13
398.74	594.50
398.93	631.94
399.12	664.71
399.32	606.20
399.51	655.35
399.70	678.76
399.90	655.35
400.09	681.10
400.28	603.86
400.47	653.01
400.67	592.16
400.86	631.94
401.05	678.76
401.24	683.44
401.44	664.71
401.63	713.86
401.82	601.52
402.01	587.47
402.21	615.56
402.40	613.22
402.59	645.99
402.78	561.73
402.97	636.63
403.17	622.58
403.36	627.26
403.55	622.58
403.74	641.31
403.93	685.78
404.13	730.25
404.32	688.12
404.51	688.12
404.70	641.31
404.89	664.71
405.09	657.69
405.28	667.05
405.47	589.82
405.66	606.20
405.85	629.60
406.05	610.88
406.24	587.47
406.43	634.29
406.62	636.63
406.81	610.88
407.00	627.26
407.20	643.65
407.39	706.84
407.58	667.05
407.77	690.46
407.96	667.05
408.15	617.90
408.34	617.90
408.54	655.35
408.73	660.03
408.92	629.60
409.11	636.63
409.30	671.73
409.49	636.63
409.68	615.56
409.87	681.10
410.07	610.88
410.26	727.91
410.45	589.82
410.64	641.31
410.83	667.05
411.02	643.65
411.21	643.65
411.40	608.54
411.59	547.69
411.78	564.07
411.98	653.01
412.17	641.31
412.36	603.86
412.55	664.71
412.74	564.07
412.93	641.31
413.12	578.11
413.31	631.94
413.50	643.65
413.69	655.35
413.88	631.94
414.07	624.92
414.26	601.52
414.45	578.11
414.64	624.92
414.83	641.31
415.02	596.84
415.22	617.90
415.41	631.94
415.60	622.58
415.79	599.18
415.98	681.10
416.17	601.52
416.36	627.26
416.55	552.37
416.74	674.07
416.93	648.33
417.12	641.31
417.31	627.26
417.50	617.90
417.69	653.01
417.88	589.82
418.07	587.47
418.26	547.69
418.45	641.31
418.64	678.76
418.83	641.31
419.02	629.60
419.21	589.82
419.39	641.31
419.58	596.84
419.77	653.01
419.96	678.76
420.15	655.35
420.34	643.65
420.53	606.20
420.72	606.20
420.91	662.37
421.10	702.16
421.29	655.35
421.48	681.10
421.67	688.12
421.86	601.52
422.05	671.73
422.24	638.97
422.43	650.67
422.61	582.79
422.80	669.39
422.99	641.31
423.18	603.86
423.37	702.16
423.56	594.50
423.75	678.76
423.94	648.33
424.13	664.71
424.32	664.71
424.50	617.90
424.69	713.86
424.88	599.18
425.07	627.26
425.26	688.12
425.45	664.71
425.64	641.31
425.83	620.24
426.01	655.35
426.20	617.90
426.39	664.71
426.58	641.31
426.77	674.07
426.96	627.26
427.15	629.60
427.33	608.54
427.52	676.41
427.71	667.05
427.90	664.71
428.09	578.11
428.28	629.60
428.46	664.71
428.65	669.39
428.84	641.31
429.03	627.26
429.22	627.26
429.40	617.90
429.59	638.97
429.78	638.97
429.97	627.26
430.16	662.37
430.34	695.14
430.53	622.58
430.72	650.67
430.91	629.60
431.10	683.44
431.28	664.71
431.47	620.24
431.66	580.45
431.85	594.50
432.03	589.82
432.22	683.44
432.41	671.73
432.60	669.39
432.79	615.56
432.97	617.90
433.16	636.63
433.35	674.07
433.54	699.82
433.72	681.10
433.91	645.99
434.10	660.03
434.28	634.29
434.47	587.47
434.66	655.35
434.85	664.71
435.03	807.48
435.22	985.37
435.41	1123.46
435.59	985.37
435.78	837.91
435.97	793.44
436.16	755.99
436.34	638.97
436.53	641.31
436.72	650.67
436.90	692.80
437.09	697.48
437.28	580.45
437.46	599.18
437.65	662.37
437.84	636.63
438.02	606.20
438.21	664.71
438.40	655.35
438.58	720.88
438.77	681.10
438.96	643.65
439.14	638.97
439.33	622.58
439.52	589.82
439.70	566.41
439.89	685.78
440.08	667.05
440.26	610.88
440.45	683.44
440.63	678.76
440.82	671.73
441.01	587.47
441.19	559.39
441.38	638.97
441.57	671.73
441.75	678.76
441.94	603.86
442.12	615.56
442.31	643.65
442.50	631.94
442.68	657.69
442.87	669.39
443.05	575.77
443.24	617.90
443.43	692.80
443.61	676.41
443.80	643.65
443.98	622.58
444.17	657.69
444.35	634.29
444.54	620.24
444.73	571.09
444.91	697.48
445.10	608.54
445.28	634.29
445.47	568.75
445.65	669.39
445.84	634.29
446.02	596.84
446.21	645.99
446.39	655.35
446.58	662.37
446.77	631.94
446.95	667.05
447.14	657.69
447.32	678.76
447.51	650.67
447.69	678.76
447.88	648.33
448.06	699.82
448.25	692.80
448.43	676.41
448.62	655.35
448.80	643.65
448.99	636.63
449.17	608.54
449.36	655.35
449.54	620.24
449.73	671.73
449.91	648.33
450.10	606.20
450.28	645.99
450.46	622.58
450.65	622.58
450.83	648.33
451.02	601.52
451.20	575.77
451.39	620.24
451.57	587.47
451.76	617.90
451.94	613.22
452.13	648.33
452.31	655.35
452.49	645.99
452.68	599.18
452.86	664.71
453.05	674.07
453.23	638.97
453.42	695.14
453.60	648.33
453.78	645.99
453.97	674.07
454.15	617.90
454.34	634.29
454.52	636.63
454.70	634.29
454.89	664.71
455.07	697.48
455.26	692.80
455.44	641.31
455.62	603.86
455.81	638.97
455.99	650.67
456.17	650.67
456.36	641.31
456.54	571.09
456.73	634.29
456.91	683.44
457.09	650.67
457.28	727.91
457.46	631.94
457.64	683.44
457.83	681.10
458.01	660.03
458.19	568.75
458.38	641.31
458.56	662.37
458.74	674.07
458.93	692.80
459.11	667.05
459.29	648.33
459.48	685.78
459.66	692.80
459.84	634.29
460.03	624.92
460.21	631.94
460.39	690.46
460.57	636.63
460.76	599.18
460.94	538.32
461.12	617.90
461.31	669.39
461.49	613.22
461.67	678.76
461.85	610.88
462.04	690.46
462.22	929.19
462.40	550.03
462.59	706.84
462.77	716.20
462.95	741.95
463.13	606.20
463.32	669.39
463.50	594.50
463.68	667.05
463.86	585.13
464.05	578.11
464.23	660.03
464.41	615.56
464.59	636.63
464.78	664.71
464.96	690.46
465.14	636.63
465.32	596.84
465.50	683.44
465.69	681.10
465.87	660.03
466.05	653.01
466.23	615.56
466.41	578.11
466.60	610.88
466.78	613.22
466.96	709.18
467.14	695.14
467.32	671.73
467.51	594.50
467.69	669.39
467.87	648.33
468.05	634.29
468.23	695.14
468.41	671.73
468.60	669.39
468.78	631.94
468.96	594.50
469.14	702.16
469.32	624.92
469.50	571.09
469.69	636.63
469.87	662.37
470.05	676.41
470.23	608.54
470.41	622.58
470.59	664.71
470.77	688.12
470.95	638.97
471.14	578.11
471.32	622.58
471.50	641.31
471.68	627.26
471.86	636.63
472.04	641.31
472.22	622.58
472.40	695.14
472.58	613.22
472.77	624.92
472.95	650.67
473.13	657.69
473.31	662.37
473.49	641.31
473.67	540.66
473.85	606.20
474.03	688.12
474.21	718.54
474.39	697.48
474.57	648.33
474.75	685.78
474.93	657.69
475.12	636.63
475.30	660.03
475.48	688.12
475.66	627.26
475.84	610.88
476.02	603.86
476.20	643.65
476.38	622.58
476.56	575.77
476.74	655.35
476.92	622.58
477.10	594.50
477.28	662.37
477.46	636.63
477.64	594.50
477.82	678.76
478.00	624.92
478.18	631.94
478.36	608.54
478.54	648.33
478.72	678.76
478.90	608.54
479.08	685.78
479.26	636.63
479.44	636.63
479.62	629.60
479.80	650.67
479.98	690.46
480.16	720.88
480.34	613.22
480.52	634.29
480.70	688.12
480.88	629.60
481.06	676.41
481.24	608.54
481.41	664.71
481.59	655.35
481.77	627.26
481.95	582.79
482.13	615.56
482.31	657.69
482.49	634.29
482.67	608.54
482.85	734.93
483.03	690.46
483.21	641.31
483.39	636.63
483.57	624.92
483.74	732.59
483.92	578.11
484.10	685.78
484.28	681.10
484.46	702.16
484.64	643.65
484.82	730.25
485.00	657.69
485.18	732.59
485.35	671.73
485.53	655.35
485.71	667.05
485.89	650.67
486.07	692.80
486.25	753.65
486.43	690.46
486.61	718.54
486.78	716.20
486.96	744.29
487.14	643.65
487.32	706.84
487.50	711.52
487.68	648.33
487.85	685.78
488.03	765.36
488.21	755.99
488.39	685.78
488.57	699.82
488.75	720.88
488.92	784.08
489.10	699.82
489.28	725.57
489.46	692.80
489.64	648.33
489.81	620.24
489.99	716.20
490.17	748.97
490.35	713.86
490.53	697.48
490.70	667.05
490.88	669.39
491.06	723.23
491.24	631.94
491.41	631.94
491.59	753.65
491.77	695.14
491.95	645.99
492.13	716.20
492.30	702.16
492.48	653.01
492.66	692.80
492.84	723.23
493.01	655.35
493.19	629.60
493.37	692.80
493.54	676.41
493.72	678.76
493.90	617.90
494.08	713.86
494.25	671.73
494.43	695.14
494.61	655.35
494.79	617.90
494.96	669.39
495.14	653.01
495.32	624.92
495.49	660.03
495.67	641.31
495.85	760.67
496.02	641.31
496.20	709.18
496.38	648.33
496.55	667.05
496.73	702.16
496.91	678.76
497.09	622.58
497.26	699.82
497.44	732.59
497.62	636.63
497.79	678.76
497.97	636.63
498.14	678.76
498.32	667.05
498.50	664.71
498.67	631.94
498.85	676.41
499.03	634.29
499.20	669.39
499.38	655.35
499.56	692.80
499.73	629.60
499.91	650.67
500.08	676.41
500.26	636.63
500.44	655.35
500.61	660.03
500.79	678.76
500.97	552.37
501.14	599.18
501.32	669.39
501.49	631.94
501.67	669.39
501.84	653.01
502.02	620.24
502.20	571.09
502.37	676.41
502.55	648.33
502.72	641.31
502.90	671.73
503.07	603.86
503.25	664.71
503.43	664.71
503.60	662.37
503.78	655.35
503.95	681.10
504.13	692.80
504.30	657.69
504.48	657.69
504.65	730.25
504.83	702.16
505.01	610.88
505.18	594.50
505.36	601.52
505.53	655.35
505.71	650.67
505.88	664.71
506.06	674.07
506.23	685.78
506.41	636.63
506.58	645.99
506.76	582.79
506.93	669.39
507.11	631.94
507.28	596.84
507.46	655.35
507.63	660.03
507.81	657.69
507.98	638.97
508.16	748.97
508.33	622.58
508.50	709.18
508.68	655.35
508.85	676.41
509.03	578.11
509.20	683.44
509.38	678.76
509.55	711.52
509.73	645.99
509.90	653.01
510.08	671.73
510.25	648.33
510.42	671.73
510.60	648.33
510.77	662.37
510.95	615.56
511.12	634.29
511.30	667.05
511.47	636.63
511.64	669.39
511.82	648.33
511.99	671.73
512.17	608.54
512.34	641.31
512.51	648.33
512.69	692.80
512.86	592.16
513.04	617.90
513.21	634.29
513.38	615.56
513.56	631.94
513.73	662.37
513.90	702.16
514.08	664.71
514.25	664.71
514.43	599.18
514.60	711.52
514.77	624.92
514.95	624.92
515.12	641.31
515.29	690.46
515.47	641.31
515.64	678.76
515.81	624.92
515.99	638.97
516.16	638.97
516.33	671.73
516.51	645.99
516.68	702.16
516.85	662.37
517.03	718.54
517.20	674.07
517.37	664.71
517.54	681.10
517.72	624.92
517.89	648.33
518.06	662.37
518.24	688.12
518.41	643.65
518.58	636.63
518.75	599.18
518.93	636.63
519.10	662.37
519.27	669.39
519.45	615.56
519.62	662.37
519.79	641.31
519.96	638.97
520.14	657.69
520.31	662.37
520.48	620.24
520.65	725.57
520.83	631.94
521.00	671.73
521.17	688.12
521.34	667.05
521.52	620.24
521.69	592.16
521.86	660.03
522.03	636.63
522.20	671.73
522.38	678.76
522.55	629.60
522.72	636.63
522.89	660.03
523.07	622.58
523.24	568.75
523.41	610.88
523.58	601.52
523.75	582.79
523.92	641.31
524.10	624.92
524.27	573.43
524.44	636.63
524.61	638.97
524.78	589.82
524.96	638.97
525.13	648.33
525.30	641.31
525.47	643.65
525.64	622.58
525.81	599.18
525.98	690.46
526.16	711.52
526.33	589.82
526.50	620.24
526.67	667.05
526.84	664.71
527.01	664.71
527.18	629.60
527.36	582.79
527.53	711.52
527.70	662.37
527.87	571.09
528.04	669.39
528.21	620.24
528.38	634.29
528.55	692.80
528.72	702.16
528.89	669.39
529.07	627.26
529.24	730.25
529.41	664.71
529.58	667.05
529.75	617.90
529.92	610.88
530.09	664.71
530.26	624.92
530.43	695.14
530.60	601.52
530.77	664.71
530.94	657.69
531.11	655.35
531.28	620.24
531.46	610.88
531.63	643.65
531.80	627.26
531.97	643.65
532.14	589.82
532.31	641.31
532.48	645.99
532.65	643.65
532.82	655.35
532.99	713.86
533.16	681.10
533.33	676.41
533.50	641.31
533.67	660.03
533.84	636.63
534.01	655.35
534.18	685.78
534.35	741.95
534.52	571.09
534.69	725.57
534.86	706.84
535.03	617.90
535.20	641.31
535.37	608.54
535.54	674.07
535.71	685.78
535.88	751.31
536.05	662.37
536.22	669.39
536.38	603.86
536.55	688.12
536.72	667.05
536.89	702.16
537.06	725.57
537.23	690.46
537.40	655.35
537.57	746.63
537.74	758.33
537.91	704.50
538.08	763.01
538.25	641.31
538.42	741.95
538.59	718.54
538.75	741.95
538.92	812.17
539.09	739.61
539.26	713.86
539.43	805.14
539.60	830.89
539.77	854.30
539.94	847.27
540.11	875.36
540.28	835.57
540.44	936.21
540.61	891.74
540.78	908.13
540.95	1004.09
541.12	1083.67
541.29	1170.27
541.46	1200.69
541.62	1177.29
541.79	1186.65
541.96	1100.05
542.13	1146.86
542.30	1114.10
542.47	1118.78
542.63	1114.10
542.80	1093.03
542.97	1104.73
543.14	1130.48
543.31	1046.22
543.48	1076.65
543.64	1137.50
543.81	1060.26
543.98	1078.99
544.15	1067.28
544.32	1104.73
544.48	1123.46
544.65	1057.92
544.82	1043.88
544.99	1015.79
545.16	1100.05
545.32	1181.97
545.49	1434.75
545.66	1746.04
545.83	1825.62
546.00	1621.99
546.16	1476.88
546.33	1306.02
546.50	1233.46
546.67	1146.86
546.83	968.98
547.00	938.55
547.17	1006.43
547.34	954.94
547.50	830.89
547.67	898.77
547.84	866.00
548.00	854.30
548.17	985.37
548.34	854.30
548.51	823.87
548.67	828.55
548.84	847.27
549.01	833.23
549.18	784.08
549.34	779.40
549.51	765.36
549.68	837.91
549.84	882.38
550.01	814.51
550.18	823.87
550.34	800.46
550.51	807.48
550.68	823.87
550.84	734.93
551.01	718.54
551.18	706.84
551.34	779.40
551.51	725.57
551.68	770.04
551.84	800.46
552.01	702.16
552.18	802.80
552.34	688.12
552.51	781.74
552.68	774.72
552.84	702.16
553.01	725.57
553.18	755.99
553.34	699.82
553.51	741.95
553.67	767.70
553.84	734.93
554.01	702.16
554.17	692.80
554.34	678.76
554.51	664.71
554.67	667.05
554.84	662.37
555.00	664.71
555.17	657.69
555.33	697.48
555.50	653.01
555.67	664.71
555.83	629.60
556.00	610.88
556.16	760.67
556.33	683.44
556.50	732.59
556.66	690.46
556.83	727.91
556.99	697.48
557.16	713.86
557.32	641.31
557.49	660.03
557.65	622.58
557.82	594.50
557.98	634.29
558.15	685.78
558.32	709.18
558.48	622.58
558.65	662.37
558.81	613.22
558.98	578.11
559.14	638.97
559.31	622.58
559.47	585.13
559.64	641.31
559.80	636.63
559.97	650.67
560.13	667.05
560.30	678.76
560.46	643.65
560.63	599.18
560.79	617.90
560.96	585.13
561.12	676.41
561.29	624.92
561.45	636.63
561.61	660.03
561.78	676.41
561.94	645.99
562.11	676.41
562.27	681.10
562.44	674.07
562.60	678.76
562.77	685.78
562.93	685.78
563.10	695.14
563.26	711.52
563.42	688.12
563.59	657.69
563.75	610.88
563.92	692.80
564.08	688.12
564.24	608.54
564.41	702.16
564.57	716.20
564.74	622.58
564.90	669.39
565.07	631.94
565.23	648.33
565.39	653.01
565.56	730.25
565.72	645.99
565.88	678.76
566.05	662.37
566.21	592.16
566.38	697.48
566.54	650.67
566.70	683.44
566.87	575.77
567.03	655.35
567.19	648.33
567.36	674.07
567.52	695.14
567.68	676.41
567.85	695.14
568.01	655.35
568.17	608.54
568.34	582.79
568.50	648.33
568.66	688.12
568.83	613.22
568.99	650.67
569.15	657.69
569.32	638.97
569.48	678.76
569.64	624.92
569.81	671.73
569.97	622.58
570.13	678.76
570.30	650.67
570.46	587.47
570.62	716.20
570.78	620.24
570.95	615.56
571.11	678.76
571.27	634.29
571.43	617.90
571.60	620.24
571.76	615.56
571.92	699.82
572.09	688.12
572.25	692.80
572.41	620.24
572.57	678.76
572.74	664.71
572.90	653.01
573.06	641.31
573.22	629.60
573.38	664.71
573.55	657.69
573.71	676.41
573.87	601.52
574.03	634.29
574.20	645.99
574.36	683.44
574.52	685.78
574.68	610.88
574.84	706.84
575.01	571.09
575.17	601.52
575.33	617.90
575.49	636.63
575.65	645.99
575.82	688.12
575.98	667.05
576.14	667.05
576.30	702.16
576.46	807.48
576.62	812.17
576.79	954.94
576.95	793.44
577.11	814.51
577.27	753.65
577.43	786.42
577.59	784.08
577.75	690.46
577.92	662.37
578.08	638.97
578.24	653.01
578.40	734.93
578.56	751.31
578.72	854.30
578.88	894.08
579.04	809.83
579.21	833.23
579.37	795.78
579.53	690.46
579.69	791.10
579.85	725.57
580.01	732.59
580.17	723.23
580.33	737.27
580.49	662.37
580.65	765.36
580.82	699.82
580.98	664.71
581.14	667.05
581.30	713.86
581.46	662.37
581.62	713.86
581.78	737.27
581.94	741.95
582.10	704.50
582.26	732.59
582.42	688.12
582.58	798.12
582.74	751.31
582.90	758.33
583.06	772.38
583.22	781.74
583.38	777.06
583.54	725.57
583.70	751.31
583.86	755.99
584.02	748.97
584.18	751.31
584.34	727.91
584.50	760.67
584.66	716.20
584.82	690.46
584.98	758.33
585.14	711.52
585.30	793.44
585.46	765.36
585.62	723.23
585.78	706.84
585.94	737.27
586.10	723.23
586.26	720.88
586.42	772.38
586.58	716.20
586.74	697.48
586.90	861.32
587.06	835.57
587.22	800.46
587.38	837.91
587.54	819.19
587.70	851.96
587.86	805.14
588.02	774.72
588.18	770.04
588.34	763.01
588.49	681.10
588.65	767.70
588.81	669.39
588.97	662.37
589.13	641.31
589.29	711.52
589.45	793.44
589.61	678.76
589.77	683.44
589.93	681.10
590.08	755.99
590.24	730.25
590.40	753.65
590.56	699.82
590.72	683.44
590.88	636.63
591.04	730.25
591.20	690.46
591.35	718.54
591.51	648.33
591.67	709.18
591.83	713.86
591.99	739.61
592.15	816.85
592.31	751.31
592.46	746.63
592.62	800.46
592.78	737.27
592.94	788.76
593.10	849.61
593.26	830.89
593.41	772.38
593.57	812.17
593.73	812.17
593.89	802.80
594.05	748.97
594.20	655.35
594.36	704.50
594.52	692.80
594.68	767.70
594.84	755.99
594.99	688.12
595.15	655.35
595.31	711.52
595.47	716.20
595.62	650.67
595.78	734.93
595.94	678.76
596.10	746.63
596.25	713.86
596.41	674.07
596.57	709.18
596.73	706.84
596.88	709.18
597.04	685.78
597.20	671.73
597.36	674.07
597.51	660.03
597.67	725.57
597.83	629.60
597.99	713.86
598.14	648.33
598.30	690.46
598.46	662.37
598.61	699.82
598.77	744.29
598.93	702.16
599.09	791.10
599.24	779.40
599.40	732.59
599.56	767.70
599.71	699.82
599.87	695.14
600.03	741.95
600.18	711.52
600.34	674.07
600.50	669.39
600.65	727.91
600.81	732.59
600.97	704.50
601.12	622.58
601.28	711.52
601.44	690.46
601.59	641.31
601.75	690.46
601.91	657.69
602.06	657.69
602.22	716.20
602.37	662.37
602.53	627.26
602.69	596.84
602.84	674.07
603.00	676.41
603.16	699.82
603.31	678.76
603.47	678.76
603.62	648.33
603.78	699.82
603.94	629.60
604.09	748.97
604.25	641.31
604.40	681.10
604.56	730.25
604.71	713.86
604.87	650.67
605.03	730.25
605.18	664.71
605.34	683.44
605.49	636.63
605.65	716.20
605.80	704.50
605.96	676.41
606.12	725.57
606.27	664.71
606.43	734.93
606.58	674.07
606.74	716.20
606.89	699.82
607.05	772.38
607.20	748.97
607.36	638.97
607.51	713.86
607.67	683.44
607.82	669.39
607.98	638.97
608.13	772.38
608.29	702.16
608.44	716.20
608.60	744.29
608.75	795.78
608.91	788.76
609.06	807.48
609.22	826.21
609.37	788.76
609.53	868.34
609.68	816.85
609.84	915.15
