SpectraSuite Data File
++++++++++++++++++++++++++++++++++++
Date: Thu Oct 24 13:21:25 EDT 2013
User: stostad
Dark Spectrum Present: No
Reference Spectrum Present: No
Number of Sampled Component Spectra: 1
Spectrometers: USB2+H05261
Integration Time (usec): 100000 (USB2+H05261)
Spectra Averaged: 1 (USB2+H05261)
Boxcar Smoothing: 0 (USB2+H05261)
Correct for Electrical Dark: No (USB2+H05261)
Strobe/Lamp Enabled: No (USB2+H05261)
Correct for Detector Non-linearity: No (USB2+H05261)
Correct for Stray Light: No (USB2+H05261)
Number of Pixels in Processed Spectrum: 2048
>>>>>Begin Processed Spectral Data<<<<<
365.73	585.13
365.92	585.13
366.12	585.13
366.32	547.69
366.52	496.19
366.72	526.62
366.91	454.06
367.11	486.83
367.31	468.11
367.51	411.93
367.70	528.96
367.90	524.28
368.10	472.79
368.30	397.89
368.49	503.22
368.69	489.17
368.89	421.30
369.09	505.56
369.28	472.79
369.48	512.58
369.68	519.60
369.87	582.79
370.07	463.43
370.27	559.39
370.47	645.99
370.66	863.66
370.86	936.21
371.06	964.30
371.25	1001.75
371.45	985.37
371.65	997.07
371.84	987.71
372.04	1013.45
372.24	994.73
372.44	1008.77
372.63	1048.56
372.83	1041.54
373.03	1191.33
373.22	1004.09
373.42	1165.59
373.62	1008.77
373.81	1158.57
374.01	1151.54
374.21	1083.67
374.40	1149.20
374.60	1149.20
374.79	1111.75
374.99	1107.07
375.19	1167.93
375.38	1128.14
375.58	1135.16
375.78	1200.69
375.97	1118.78
376.17	1163.25
376.37	1212.40
376.56	1200.69
376.76	1221.76
376.95	1114.10
377.15	1226.44
377.35	1184.31
377.54	1219.42
377.74	1184.31
377.93	1228.78
378.13	1193.67
378.33	1214.74
378.52	1217.08
378.72	1210.06
378.91	1228.78
379.11	1299.00
379.31	1259.21
379.50	1219.42
379.70	1240.48
379.89	1207.72
380.09	1235.80
380.28	1235.80
380.48	1289.64
380.68	1277.93
380.87	1341.13
381.07	1219.42
381.26	1299.00
381.46	1259.21
381.65	1324.74
381.85	1406.66
382.04	1291.98
382.24	1249.85
382.43	1334.11
382.63	1226.44
382.83	1289.64
383.02	1331.76
383.22	1343.47
383.41	1334.11
383.61	1383.26
383.80	1390.28
384.00	1299.00
384.19	1469.86
384.39	1409.00
384.58	1401.98
384.78	1418.36
384.97	1390.28
385.17	1376.24
385.36	1483.90
385.56	1504.96
385.75	1446.45
385.95	1488.58
386.14	1390.28
386.34	1474.54
386.53	1469.86
386.72	1437.09
386.92	1511.99
387.11	1460.49
387.31	1556.46
387.50	1516.67
387.70	1509.65
387.89	1586.88
388.09	1437.09
388.28	1500.28
388.48	1556.46
388.67	1657.10
388.86	1535.39
389.06	1689.87
389.25	1575.18
389.45	1516.67
389.64	1607.95
389.84	1610.29
390.03	1638.38
390.22	1743.70
390.42	1675.82
390.61	1643.06
390.81	1687.53
391.00	1762.42
391.19	1734.34
391.39	1727.32
391.58	1783.49
391.78	1699.23
391.97	1722.63
392.16	1659.44
392.36	1771.79
392.55	1867.75
392.75	1867.75
392.94	1774.13
393.13	1755.40
393.33	1785.83
393.52	1849.02
393.71	1813.92
393.91	1863.07
394.10	1739.02
394.29	1811.57
394.49	1877.11
394.68	1923.92
394.88	1851.36
395.07	1776.47
395.26	1872.43
395.46	1909.88
395.65	1940.30
395.84	1966.05
396.04	1902.86
396.23	1926.26
396.42	1968.39
396.62	1991.80
396.81	2022.22
397.00	2080.74
397.19	1998.82
397.39	2001.16
397.58	1963.71
397.77	2029.24
397.97	2043.29
398.16	2001.16
398.35	2165.00
398.55	2057.33
398.74	2162.66
398.93	2080.74
399.12	2115.84
399.32	2094.78
399.51	2165.00
399.70	2331.17
399.90	2087.76
400.09	2193.08
400.28	2251.60
400.47	2270.32
400.67	2275.00
400.86	2305.43
401.05	2223.51
401.24	2335.85
401.44	2289.04
401.63	2417.77
401.82	2340.54
402.01	2310.11
402.21	2368.62
402.40	2251.60
402.59	2363.94
402.78	2520.76
402.97	2342.88
403.17	2452.88
403.36	2487.99
403.55	2518.42
403.74	2427.14
403.93	2595.65
404.13	2600.34
404.32	2597.99
404.51	2558.21
404.70	2731.41
404.89	2530.12
405.09	2626.08
405.28	2565.23
405.47	2635.44
405.66	2708.00
405.85	2719.70
406.05	2712.68
406.24	2703.32
406.43	2799.28
406.62	2806.30
406.81	2810.98
407.00	2698.64
407.20	2780.56
407.39	2757.15
407.58	2768.85
407.77	2876.52
407.96	2984.18
408.15	2888.22
408.34	2937.37
408.54	2995.89
408.73	2909.29
408.92	3073.12
409.11	3033.33
409.30	3012.27
409.49	3047.38
409.68	3180.79
409.87	3094.19
410.07	3016.95
410.26	3234.62
410.45	3066.10
410.64	3248.66
410.83	3229.94
411.02	3201.85
411.21	3325.90
411.40	3199.51
411.59	3353.99
411.78	3431.23
411.98	3412.50
412.17	3386.76
412.36	3393.78
412.55	3403.14
412.74	3520.17
412.93	3480.38
413.12	3520.17
413.31	3721.45
413.50	3676.98
413.69	3644.21
413.88	3653.58
414.07	3648.90
414.26	3763.58
414.45	3763.58
414.64	3794.01
414.83	3885.29
415.02	3786.99
415.22	3838.48
415.41	3908.69
415.60	3992.95
415.79	3943.80
415.98	4028.06
416.17	4039.76
416.36	4002.32
416.55	3873.59
416.74	4035.08
416.93	3992.95
417.12	4219.99
417.31	4175.52
417.50	4056.15
417.69	4311.27
417.88	4362.76
418.07	4278.50
418.26	4287.86
418.45	4369.78
418.64	4484.47
418.83	4512.55
419.02	4397.87
419.21	4486.81
419.39	4470.42
419.58	4376.80
419.77	4550.00
419.96	4486.81
420.15	4608.51
420.34	4606.17
420.53	4606.17
420.72	4774.69
420.91	4557.02
421.10	4725.54
421.29	4809.80
421.48	4631.92
421.67	4723.20
421.86	4847.25
422.05	4791.08
422.24	4765.33
422.43	4777.03
422.61	4983.00
422.80	4940.87
422.99	4765.33
423.18	4954.91
423.37	4828.53
423.56	4880.02
423.75	4873.00
423.94	4758.31
424.13	4669.37
424.32	4746.61
424.50	5004.07
424.69	5132.79
424.88	5036.83
425.07	4891.72
425.26	4950.23
425.45	4887.04
425.64	4837.89
425.83	4823.84
426.01	4999.38
426.20	4868.31
426.39	5060.24
426.58	4924.49
426.77	4952.57
426.96	5081.30
427.15	5083.64
427.33	5060.24
427.52	4987.68
427.71	5146.84
427.90	5158.54
428.09	5195.99
428.28	5238.12
428.46	5210.03
428.65	5224.08
428.84	5331.74
429.03	5280.25
429.22	5188.97
429.40	5371.53
429.59	5425.36
429.78	5158.54
429.97	5128.11
430.16	5350.46
430.34	5371.53
430.53	5537.71
430.72	5533.03
430.91	5603.24
431.10	5430.04
431.28	5734.31
431.47	5795.17
431.66	5696.86
431.85	5715.59
432.03	5785.80
432.22	5825.59
432.41	5778.78
432.60	5804.53
432.79	5912.19
432.97	5839.64
433.16	5886.45
433.35	5879.43
433.54	5837.30
433.72	5860.70
433.91	5804.53
434.10	5902.83
434.28	5797.51
434.47	6148.59
434.66	6193.06
434.85	6101.78
435.03	6143.91
435.22	6396.68
435.41	6494.99
435.59	6466.90
435.78	6509.03
435.97	6345.19
436.16	6242.21
436.34	6188.38
436.53	6335.83
436.72	6504.35
436.90	6375.62
437.09	6328.81
437.28	6207.10
437.46	6532.44
437.65	6434.13
437.84	6492.65
438.02	6368.60
438.21	6537.12
438.40	6370.94
438.58	6722.02
438.77	6651.80
438.96	6766.49
439.14	6794.58
439.33	6963.09
439.52	6965.43
439.70	6939.69
439.89	7108.21
440.08	7194.81
440.26	7012.24
440.45	7133.95
440.63	7180.76
440.82	7309.49
441.01	7236.94
441.19	7456.95
441.38	7349.28
441.57	7454.61
441.75	7473.33
441.94	7698.02
442.12	7517.80
442.31	7599.72
442.50	7714.41
442.68	7564.61
442.87	7627.81
443.05	7861.86
443.24	7882.92
443.43	7873.56
443.61	7817.39
443.80	8067.83
443.98	7887.61
444.17	7651.21
444.35	7761.22
444.54	8109.96
444.73	7990.59
444.91	7817.39
445.10	7892.29
445.28	8112.30
445.47	7763.56
445.65	7932.08
445.84	8175.49
446.02	8140.38
446.21	8037.40
446.39	8128.68
446.58	8056.12
446.77	8180.17
446.95	7967.18
447.14	7943.78
447.32	8341.67
447.51	8112.30
447.69	7932.08
447.88	8201.24
448.06	8217.62
448.25	8124.00
448.43	8107.62
448.62	8329.97
448.80	8245.71
448.99	8313.58
449.17	8285.50
449.36	8231.66
449.54	8493.80
449.73	8369.76
449.91	8484.44
450.10	8484.44
450.28	8643.60
450.46	8608.49
450.65	8652.96
450.83	8648.28
451.02	8549.98
451.20	8805.10
451.39	8755.94
451.57	8648.28
451.76	8669.34
451.94	8692.75
452.13	9048.51
452.31	8798.07
452.49	8645.94
452.68	8879.99
452.86	8767.65
453.05	9210.01
453.23	8952.55
453.42	8863.61
453.60	8982.98
453.78	9025.11
453.97	9008.72
454.15	9011.06
454.34	8898.72
454.52	9273.20
454.70	9320.01
454.89	9207.67
455.07	9224.05
455.26	9245.12
455.44	9502.58
455.62	9675.77
455.81	9476.83
455.99	9514.28
456.17	9408.95
456.36	9542.36
456.54	9589.17
456.73	9692.16
456.91	9767.06
457.09	9872.38
457.28	9900.47
457.46	9727.27
457.64	10036.22
457.83	9947.28
458.01	10008.13
458.19	10157.92
458.38	9851.31
458.56	9973.02
458.74	10115.80
458.93	10272.61
459.11	10148.56
459.29	10319.42
459.48	10043.24
459.66	10300.70
459.84	10307.72
460.03	10478.58
460.21	10382.62
460.39	10225.80
460.57	10415.38
460.76	10333.47
460.94	10541.77
461.12	10593.26
461.31	10553.48
461.49	10537.09
461.67	10335.81
461.85	10415.38
462.04	10576.88
462.22	11286.06
462.40	10691.57
462.59	10883.49
462.77	10918.60
462.95	10810.93
463.13	10939.66
463.32	10932.64
463.50	10885.83
463.68	10869.45
463.86	11150.31
464.05	10967.75
464.23	11098.82
464.41	11257.98
464.59	11089.46
464.78	11316.49
464.96	11302.45
465.14	11047.33
465.32	11365.64
465.50	11201.80
465.69	11328.19
465.87	11655.87
466.05	11281.38
466.23	11573.95
466.41	11515.44
466.60	11290.74
466.78	11349.26
466.96	11562.25
467.14	11632.46
467.32	11632.46
467.51	11698.00
467.69	11538.84
467.87	11735.45
468.05	11950.78
468.23	11632.46
468.41	11489.69
468.60	11618.42
468.78	11861.84
468.96	11815.02
469.14	12210.57
469.32	12273.77
469.50	11798.64
469.69	12065.46
469.87	11978.86
470.05	12294.83
470.23	12444.63
470.41	12301.86
470.59	12430.59
470.77	12430.59
470.95	12367.39
471.14	12610.81
471.32	12383.77
471.50	12823.80
471.68	12554.63
471.86	12936.14
472.04	13013.38
472.22	13160.83
472.40	12980.61
472.58	13149.13
472.77	13188.92
472.95	13158.49
473.13	13654.69
473.31	13046.15
473.49	13238.07
473.67	13165.51
473.85	13343.39
474.03	13530.64
474.21	13689.79
474.39	13682.77
474.57	13774.05
474.75	13958.96
474.93	13954.27
475.12	13703.84
475.30	14312.38
475.48	13902.78
475.66	14443.45
475.84	14136.84
476.02	14368.55
476.20	14352.16
476.38	14773.46
476.56	14768.78
476.74	14693.88
476.92	14644.73
477.10	14555.79
477.28	15091.77
477.46	15124.54
477.64	14981.77
477.82	15370.30
478.00	15908.62
478.18	15461.58
478.36	15716.70
478.54	15997.56
478.72	15658.18
478.90	16266.72
479.08	16470.35
479.26	16423.54
479.44	16486.73
479.62	16776.96
479.80	16556.95
479.98	16643.55
480.16	17465.08
480.34	16751.21
480.52	17350.39
480.70	17514.23
480.88	17179.53
481.06	17425.29
481.24	17378.48
481.41	17668.70
481.59	18031.49
481.77	17956.59
481.95	18045.53
482.13	18398.95
482.31	18422.36
482.49	18775.78
482.67	18932.59
482.85	18738.33
483.03	19206.44
483.21	19321.12
483.39	19379.64
483.57	19463.90
483.74	19374.95
483.92	19800.93
484.10	19555.18
484.28	20168.40
484.46	20290.10
484.64	20893.96
484.82	20262.02
485.00	20989.92
485.18	20746.51
485.35	21582.08
485.53	21294.19
485.71	21848.90
485.89	21795.07
486.07	21921.46
486.25	21570.38
486.43	22038.48
486.61	22195.30
486.78	22398.93
486.96	22300.62
487.14	22644.68
487.32	23070.66
487.50	23185.35
487.68	23344.50
487.85	23571.54
488.03	23885.17
488.21	24161.35
488.39	23704.95
488.57	24297.10
488.75	24091.13
488.92	24437.53
489.10	24999.26
489.28	24786.27
489.46	25214.59
489.64	24999.26
489.81	25549.29
489.99	25642.91
490.17	25462.69
490.35	25692.06
490.53	25905.05
490.70	26209.32
490.88	26267.83
491.06	26771.05
491.24	26656.36
491.41	26792.11
491.59	27140.85
491.77	27145.53
491.95	27126.81
492.13	27524.70
492.30	27601.94
492.48	27489.59
492.66	27971.74
492.84	27920.25
493.01	28357.93
493.19	28519.43
493.37	28732.42
493.54	28851.78
493.72	28971.15
493.90	28898.59
494.08	29214.57
494.25	29563.31
494.43	29675.65
494.61	29766.93
494.79	29809.06
494.96	29858.21
495.14	30087.59
495.32	30213.98
495.49	30216.32
495.67	30501.86
495.85	30731.23
496.02	31246.15
496.20	31431.05
496.38	31438.08
496.55	31304.67
496.73	32041.93
496.91	31819.58
497.09	31964.70
497.26	32020.87
497.44	32151.94
497.62	32261.94
497.79	33001.55
497.97	33137.30
498.14	33270.72
498.32	32905.59
498.50	33598.39
498.67	33446.26
498.85	33326.89
499.03	33956.49
499.20	34073.52
499.38	33851.17
499.56	34384.81
499.73	34342.68
499.91	34686.74
500.08	34565.03
500.26	33968.19
500.44	35143.14
500.61	34621.20
500.79	34618.86
500.97	35098.67
501.14	35515.29
501.32	35487.20
501.49	35178.25
501.67	35461.46
501.84	36025.53
502.02	35917.86
502.20	36016.16
502.37	36034.89
502.55	36002.12
502.72	36304.05
502.90	36313.41
503.07	36266.60
503.25	37050.68
503.43	36624.70
503.60	37109.19
503.78	37359.63
503.95	36800.24
504.13	36912.59
504.30	37184.09
504.48	37256.65
504.65	37750.50
504.83	37914.34
505.01	38316.91
505.18	37570.28
505.36	38169.46
505.53	38078.18
505.71	37897.95
505.88	38611.82
506.06	38579.05
506.23	38820.13
506.41	38663.31
506.58	38520.54
506.76	38756.93
506.93	39105.67
507.11	39171.21
507.28	39220.36
507.46	39480.16
507.63	39636.97
507.81	39566.76
507.98	39313.98
508.16	39578.46
508.33	40259.55
508.50	39966.99
508.68	40149.55
508.85	40032.52
509.03	39793.79
509.20	40678.51
509.38	40765.11
509.55	40987.46
509.73	41148.96
509.90	41036.61
510.08	41375.99
510.25	41170.02
510.42	40996.82
510.60	41766.86
510.77	41731.75
510.95	41160.66
511.12	41619.41
511.30	42078.15
511.47	41869.84
511.64	42288.80
511.82	42087.51
511.99	41965.81
512.17	42220.92
512.34	42401.14
512.51	42588.39
512.69	43274.16
512.86	42623.50
513.04	43391.19
513.21	42932.45
513.38	42513.49
513.56	43210.97
513.73	43049.47
513.90	43187.56
514.08	43704.82
514.25	43840.57
514.43	43749.29
514.60	43718.87
514.77	43763.34
514.95	43878.02
515.12	43875.68
515.29	43746.95
515.47	44598.91
515.64	44697.21
515.81	44418.69
515.99	44519.33
516.16	44900.84
516.33	44535.71
516.51	45170.00
516.68	45013.18
516.85	44832.96
517.03	45661.51
517.20	45057.65
517.37	45158.30
517.54	45523.42
517.72	45102.12
517.89	45095.10
518.06	45640.45
518.24	45415.76
518.41	45815.99
518.58	46122.60
518.75	45504.70
518.93	45757.47
519.10	45862.80
519.27	45858.12
519.45	46541.55
519.62	46309.84
519.79	46990.94
519.96	46461.97
520.14	46312.18
520.31	46227.92
520.48	47037.75
520.65	46761.56
520.83	47334.99
521.00	47779.70
521.17	47274.14
521.34	47395.85
521.52	47206.26
521.69	46969.87
521.86	47264.78
522.03	48004.39
522.20	47730.54
522.38	48025.45
522.55	47442.66
522.72	48072.26
522.89	47983.32
523.07	48311.00
523.24	48032.47
523.41	48156.52
523.58	48322.70
523.75	48451.43
523.92	48519.31
524.10	48975.71
524.27	48619.95
524.44	48959.33
524.61	48615.27
524.78	48870.39
524.96	48744.00
525.13	48989.75
525.30	49247.21
525.47	49584.25
525.64	48753.36
525.81	49254.23
525.98	49240.19
526.16	49347.86
526.33	49397.01
526.50	49649.78
526.67	49455.52
526.84	49811.28
527.01	49425.09
527.18	49794.90
527.36	49806.60
527.53	50005.55
527.70	50274.71
527.87	50195.13
528.04	50300.45
528.21	50688.98
528.38	50646.85
528.55	50550.89
528.72	50391.73
528.89	50312.16
529.07	50485.36
529.24	50541.53
529.41	50780.26
529.58	50646.85
529.75	50546.21
529.92	50941.76
530.09	50637.49
530.26	50632.81
530.43	50850.48
530.60	50801.33
530.77	50981.55
530.94	51489.45
531.11	51278.80
531.28	51140.71
531.46	51255.39
531.63	51475.40
531.80	51047.08
531.97	51145.39
532.14	51547.96
532.31	51604.13
532.48	51735.20
532.65	51924.78
532.82	51784.35
532.99	51966.91
533.16	51819.46
533.33	51831.16
533.50	52334.38
533.67	52121.39
533.84	51468.38
534.01	52053.51
534.18	52229.05
534.35	52456.09
534.52	51899.04
534.69	52465.45
534.86	52439.70
535.03	52034.79
535.20	52435.02
535.37	52428.00
535.54	52626.95
535.71	52327.36
535.88	52992.07
536.05	52603.54
536.22	52680.78
536.38	52568.43
536.55	52610.56
536.72	52774.40
536.89	52992.07
537.06	53284.64
537.23	53404.00
537.40	52664.39
537.57	52940.58
537.74	52989.73
537.91	53364.21
538.08	53123.14
538.25	52994.41
538.42	53345.49
538.59	53509.33
538.75	53165.27
538.92	53532.73
539.09	53476.56
539.26	53286.98
539.43	53588.91
539.60	53584.22
539.77	53631.04
539.94	54174.04
540.11	54085.10
540.28	53848.71
540.44	54068.72
540.61	53818.28
540.78	53867.43
540.95	54010.20
541.12	53895.52
541.29	54101.48
541.46	54061.69
541.62	54230.21
541.79	54398.73
541.96	54209.15
542.13	53986.80
542.30	54405.75
542.47	54054.67
542.63	54408.09
542.80	54698.32
542.97	54754.49
543.14	54864.50
543.31	54848.11
543.48	54883.22
543.64	55103.23
543.81	55014.29
543.98	54864.50
544.15	54850.45
544.32	54901.95
544.48	55128.98
544.65	55159.41
544.82	55114.94
544.99	55063.44
545.16	55503.46
545.32	55075.15
545.49	55260.05
545.66	55316.22
545.83	55515.17
546.00	55737.52
546.16	55412.18
546.33	55339.63
546.50	55082.17
546.67	55590.06
546.83	54784.92
547.00	55267.07
547.17	55182.81
547.34	55309.20
547.50	55426.23
547.67	55606.45
547.84	55889.65
548.00	55793.69
548.17	55824.12
548.34	55543.25
548.51	56102.64
548.67	55657.94
548.84	55763.26
549.01	55646.24
549.18	55763.26
549.34	55664.96
549.51	55807.73
549.68	55959.87
549.84	56095.62
550.01	55889.65
550.18	55779.65
550.34	56046.47
550.51	55842.84
550.68	56013.70
550.84	55903.70
551.01	56184.56
551.18	56130.73
551.34	55838.16
551.51	56133.07
551.68	56392.87
551.84	56034.77
552.01	55987.95
552.18	56247.75
552.34	56364.78
552.51	56568.41
552.68	56762.67
552.84	56596.49
553.01	56481.81
553.18	56374.14
553.34	56549.68
553.51	56528.62
553.67	56467.76
553.84	56797.78
554.01	56701.82
554.17	56835.23
554.34	56722.88
554.51	56552.02
554.67	56683.09
554.84	56643.30
555.00	56502.87
555.17	56633.94
555.33	56640.96
555.50	56757.99
555.67	57069.28
555.83	56774.37
556.00	57020.13
556.16	57001.41
556.33	56907.79
556.50	56968.64
556.66	57001.41
556.83	56734.59
556.99	57083.33
557.16	57237.80
557.32	57319.72
557.49	57446.11
557.65	57130.14
557.82	57066.94
557.98	57041.20
558.15	56889.06
558.32	57080.98
558.48	56825.87
558.65	57015.45
558.81	57066.94
558.98	57279.93
559.14	57528.03
559.31	57408.66
559.47	57312.70
559.64	57455.47
559.80	57322.06
559.97	57481.22
560.13	57310.36
560.30	57476.54
560.46	57436.75
560.63	57364.19
560.79	57586.54
560.96	57574.84
561.12	57467.17
561.29	57499.94
561.45	57378.23
561.61	57455.47
561.78	57429.72
561.94	57595.90
562.11	57748.04
562.27	57733.99
562.44	57745.70
562.60	57640.37
562.77	57689.52
562.93	57577.18
563.10	57738.68
563.26	57462.49
563.42	57797.19
563.59	57827.62
563.75	57902.51
563.92	57839.32
564.08	57855.70
564.24	57986.77
564.41	57792.51
564.57	57661.44
564.74	57851.02
564.90	57773.78
565.07	57755.06
565.23	58061.67
565.39	57942.30
565.56	58103.80
565.72	58014.86
565.88	57895.49
566.05	57972.73
566.21	58145.93
566.38	57797.19
566.54	57808.89
566.70	57942.30
566.87	57918.90
567.03	58176.36
567.19	58471.26
567.36	58143.59
567.52	58089.76
567.68	58005.50
567.85	58061.67
568.01	58059.33
568.17	57862.72
568.34	57965.71
568.50	58134.23
568.66	58061.67
568.83	58279.34
568.99	58211.46
569.15	57860.38
569.32	58124.86
569.48	57879.11
569.64	58232.53
569.81	58045.29
569.97	57801.87
570.13	58078.05
570.30	58052.31
570.46	58218.49
570.62	58113.16
570.78	58138.91
570.95	58066.35
571.11	58326.15
571.27	58136.57
571.43	58064.01
571.60	58145.93
571.76	58010.18
571.92	58110.82
572.09	58401.05
572.25	58520.41
572.41	58529.78
572.57	58426.79
572.74	58653.82
572.90	58185.72
573.06	58305.09
573.22	58279.34
573.38	58466.58
573.55	58398.71
573.71	58632.76
573.87	58232.53
574.03	58293.38
574.20	58419.77
574.36	58616.38
574.52	58394.03
574.68	58415.09
574.84	58569.57
575.01	58560.20
575.17	58618.72
575.33	58358.92
575.49	58454.88
575.65	58602.33
575.82	58674.89
575.98	58581.27
576.14	58611.70
576.30	58630.42
576.46	58513.39
576.62	58265.30
576.79	58585.95
576.95	58223.17
577.11	58499.35
577.27	58468.92
577.43	58595.31
577.59	58609.35
577.75	58478.28
577.92	58326.15
578.08	58452.54
578.24	58520.41
578.40	58485.31
578.56	58731.06
578.72	58372.96
578.88	58740.42
579.04	58850.43
579.21	58955.75
579.37	58820.00
579.53	58639.78
579.69	58464.24
579.85	58541.48
580.01	58695.95
580.17	58777.87
580.33	58901.92
580.49	58756.81
580.65	58759.15
580.82	58857.45
580.98	58667.87
581.14	58878.52
581.30	58714.68
581.46	58548.50
581.62	58768.51
581.78	58344.87
581.94	58733.40
582.10	58319.13
582.26	58464.24
582.42	58571.91
582.58	58721.70
582.74	58773.19
582.90	58789.58
583.06	58670.21
583.22	58539.14
583.38	58724.04
583.54	58527.44
583.70	58574.25
583.86	58749.79
584.02	58707.66
584.18	58869.15
584.34	58927.67
584.50	58667.87
584.66	58567.23
584.82	58747.45
584.98	58747.45
585.14	58836.39
585.30	58658.51
585.46	58972.14
585.62	58541.48
585.78	58646.80
585.94	58665.53
586.10	58824.68
586.26	58922.99
586.42	58939.37
586.58	58653.82
586.74	58726.38
586.90	58658.51
587.06	58901.92
587.22	59189.81
587.38	58766.17
587.54	58988.52
587.70	59355.99
587.86	58658.51
588.02	58979.16
588.18	59093.85
