SpectraSuite Data File
++++++++++++++++++++++++++++++++++++
Date: Thu Oct 24 13:21:18 EDT 2013
User: stostad
Dark Spectrum Present: No
Reference Spectrum Present: No
Number of Sampled Component Spectra: 1
Spectrometers: USB2+H05261
Integration Time (usec): 100000 (USB2+H05261)
Spectra Averaged: 1 (USB2+H05261)
Boxcar Smoothing: 0 (USB2+H05261)
Correct for Electrical Dark: No (USB2+H05261)
Strobe/Lamp Enabled: No (USB2+H05261)
Correct for Detector Non-linearity: No (USB2+H05261)
Correct for Stray Light: No (USB2+H05261)
Number of Pixels in Processed Spectrum: 2048
>>>>>Begin Processed Spectral Data<<<<<
365.73	578.11
365.92	578.11
366.12	578.11
366.32	454.06
366.52	500.87
366.72	531.30
366.91	425.98
367.11	571.09
367.31	477.47
367.51	414.27
367.70	451.72
367.90	468.11
368.10	458.74
368.30	416.62
368.49	454.06
368.69	545.34
368.89	472.79
369.09	461.09
369.28	519.60
369.48	437.68
369.68	528.96
369.87	458.74
370.07	545.34
370.27	582.79
370.47	650.67
370.66	744.29
370.86	837.91
371.06	823.87
371.25	894.08
371.45	842.59
371.65	891.74
371.84	889.40
372.04	908.13
372.24	868.34
372.44	898.77
372.63	945.58
372.83	1001.75
373.03	868.34
373.22	919.83
373.42	936.21
373.62	945.58
373.81	915.15
374.01	992.39
374.21	978.34
374.40	926.85
374.60	1020.47
374.79	929.19
374.99	966.64
375.19	1001.75
375.38	957.28
375.58	1008.77
375.78	1053.24
375.97	983.02
376.17	1036.86
376.37	973.66
376.56	1020.47
376.76	1046.22
376.95	983.02
377.15	1076.65
377.35	1060.26
377.54	957.28
377.74	980.68
377.93	1081.33
378.13	1018.13
378.33	1032.18
378.52	1029.84
378.72	1041.54
378.91	1062.60
379.11	1081.33
379.31	1116.44
379.50	1064.94
379.70	1083.67
379.89	992.39
380.09	1086.01
380.28	1036.86
380.48	1057.92
380.68	1015.79
380.87	1165.59
381.07	1053.24
381.26	1062.60
381.46	1053.24
381.65	1118.78
381.85	1090.69
382.04	1088.35
382.24	1071.97
382.43	1163.25
382.63	1172.61
382.83	1062.60
383.02	1200.69
383.22	1224.10
383.41	1142.18
383.61	1128.14
383.80	1186.65
384.00	1242.82
384.19	1149.20
384.39	1172.61
384.58	1188.99
384.78	1146.86
384.97	1184.31
385.17	1174.95
385.36	1212.40
385.56	1156.22
385.75	1144.52
385.95	1261.55
386.14	1348.15
386.34	1210.06
386.53	1191.33
386.72	1184.31
386.92	1235.80
387.11	1242.82
387.31	1273.25
387.50	1233.46
387.70	1259.21
387.89	1317.72
388.09	1196.01
388.28	1193.67
388.48	1383.26
388.67	1282.61
388.86	1207.72
389.06	1289.64
389.25	1301.34
389.45	1317.72
389.64	1231.12
389.84	1329.42
390.03	1259.21
390.22	1270.91
390.42	1348.15
390.61	1317.72
390.81	1338.79
391.00	1420.71
391.19	1411.34
391.39	1444.11
391.58	1427.73
391.78	1364.53
391.97	1427.73
392.16	1383.26
392.36	1495.60
392.55	1439.43
392.75	1444.11
392.94	1394.96
393.13	1437.09
393.33	1373.89
393.52	1441.77
393.71	1537.73
393.91	1486.24
394.10	1434.75
394.29	1486.24
394.49	1500.28
394.68	1373.89
394.88	1629.01
395.07	1619.65
395.26	1619.65
395.46	1511.99
395.65	1605.61
395.84	1523.69
396.04	1511.99
396.23	1533.05
396.42	1495.60
396.62	1617.31
396.81	1551.78
397.00	1582.20
397.19	1551.78
397.39	1570.50
397.58	1680.50
397.77	1589.22
397.97	1645.40
398.16	1680.50
398.35	1689.87
398.55	1638.38
398.74	1600.93
398.93	1757.74
399.12	1643.06
399.32	1729.66
399.51	1750.72
399.70	1799.87
399.90	1750.72
400.09	1757.74
400.28	1746.04
400.47	1853.70
400.67	1689.87
400.86	1750.72
401.05	1757.74
401.24	1811.57
401.44	1886.47
401.63	1898.17
401.82	1902.86
402.01	1863.07
402.21	1860.73
402.40	1832.64
402.59	1832.64
402.78	1867.75
402.97	1823.28
403.17	1902.86
403.36	1977.75
403.55	1912.22
403.74	2059.67
403.93	2083.08
404.13	2054.99
404.32	2092.44
404.51	1987.11
404.70	2106.48
404.89	2078.40
405.09	2099.46
405.28	2101.80
405.47	2054.99
405.66	2148.61
405.85	2087.76
406.05	2052.65
406.24	2106.48
406.43	2115.84
406.62	2193.08
406.81	2260.96
407.00	2282.02
407.20	2232.87
407.39	2179.04
407.58	2314.79
407.77	2328.83
407.96	2352.24
408.15	2324.15
408.34	2284.36
408.54	2375.64
408.73	2282.02
408.92	2345.22
409.11	2352.24
409.30	2415.43
409.49	2401.39
409.68	2422.45
409.87	2464.58
410.07	2427.14
410.26	2478.63
410.45	2399.05
410.64	2612.04
410.83	2595.65
411.02	2525.44
411.21	2569.91
411.40	2567.57
411.59	2567.57
411.78	2663.53
411.98	2588.63
412.17	2616.72
412.36	2581.61
412.55	2810.98
412.74	2836.73
412.93	2810.98
413.12	2787.58
413.31	2832.05
413.50	2883.54
413.69	2850.77
413.88	2892.90
414.07	2911.63
414.26	2963.12
414.45	2993.55
414.64	2949.08
414.83	2984.18
415.02	2986.52
415.22	3119.93
415.41	2995.89
415.60	3042.70
415.79	3019.29
415.98	3108.23
416.17	3162.06
416.36	3190.15
416.55	3166.74
416.74	3171.43
416.93	3211.22
417.12	3311.86
417.31	3302.50
417.50	3229.94
417.69	3454.63
417.88	3393.78
418.07	3318.88
418.26	3316.54
418.45	3428.88
418.64	3510.80
418.83	3396.12
419.02	3492.08
419.21	3435.91
419.39	3566.98
419.58	3456.97
419.77	3492.08
419.96	3489.74
420.15	3515.48
420.34	3665.28
420.53	3562.30
420.72	3623.15
420.91	3667.62
421.10	3602.08
421.29	3789.33
421.48	3660.60
421.67	3637.19
421.86	3665.28
422.05	3740.18
422.24	3789.33
422.43	3651.24
422.61	3908.69
422.80	3761.24
422.99	3840.82
423.18	3833.80
423.37	3857.20
423.56	3758.90
423.75	3735.50
423.94	3735.50
424.13	3557.61
424.32	3623.15
424.50	3843.16
424.69	3824.44
424.88	3920.40
425.07	3880.61
425.26	3761.24
425.45	3796.35
425.64	3826.78
425.83	3786.99
426.01	3908.69
426.20	3789.33
426.39	3941.46
426.58	3899.33
426.77	4009.34
426.96	3962.53
427.15	3936.78
427.33	3906.35
427.52	3955.51
427.71	4126.36
427.90	3995.29
428.09	4159.13
428.28	4133.39
428.46	4131.05
428.65	4079.55
428.84	4210.62
429.03	4215.30
429.22	3969.55
429.40	4173.18
429.59	4269.14
429.78	4149.77
429.97	4058.49
430.16	4100.62
430.34	4404.89
430.53	4329.99
430.72	4297.22
430.91	4198.92
431.10	4205.94
431.28	4355.74
431.47	4351.06
431.66	4217.65
431.85	4435.32
432.03	4468.08
432.22	4521.92
432.41	4564.04
432.60	4423.61
432.79	4440.00
432.97	4620.22
433.16	4498.51
433.35	4561.70
433.54	4622.56
433.72	4540.64
433.91	4561.70
434.10	4716.18
434.28	4615.54
434.47	4688.09
434.66	4662.35
434.85	4798.10
435.03	4805.12
435.22	4854.27
435.41	5048.54
435.59	4975.98
435.78	4980.66
435.97	4954.91
436.16	4833.21
436.34	4842.57
436.53	4664.69
436.72	4924.49
436.90	4983.00
437.09	4931.51
437.28	4887.04
437.46	5011.09
437.65	5036.83
437.84	5018.11
438.02	5071.94
438.21	4985.34
438.40	4957.25
438.58	5179.61
438.77	5212.37
438.96	5245.14
439.14	5366.85
439.33	5329.40
439.52	5366.85
439.70	5233.44
439.89	5441.75
440.08	5364.51
440.26	5626.65
440.45	5565.79
440.63	5563.45
440.82	5699.20
441.01	5589.20
441.19	5638.35
441.38	5631.33
441.57	5610.26
441.75	5774.10
441.94	5933.26
442.12	5961.34
442.31	5715.59
442.50	5867.72
442.68	5776.44
442.87	5926.24
443.05	6005.81
443.24	6038.58
443.43	6069.01
443.61	5928.58
443.80	6179.01
443.98	5935.60
444.17	5860.70
444.35	6083.05
444.54	6071.35
444.73	6073.69
444.91	6061.99
445.10	6160.29
445.28	6148.59
445.47	5968.37
445.65	6061.99
445.84	6129.86
446.02	6202.42
446.21	6307.74
446.39	6277.32
446.58	6169.65
446.77	6031.56
446.95	6139.23
447.14	6134.54
447.32	6183.70
447.51	6333.49
447.69	6328.81
447.88	6127.52
448.06	6179.01
448.25	6473.92
448.43	6406.05
448.62	6242.21
448.80	6169.65
448.99	6422.43
449.17	6338.17
449.36	6370.94
449.54	6450.52
449.73	6567.54
449.91	6597.97
450.10	6445.84
450.28	6600.31
450.46	6787.55
450.65	6464.56
450.83	6600.31
451.02	6729.04
451.20	6764.15
451.39	6677.55
451.57	6581.59
451.76	6717.34
451.94	6654.14
452.13	6789.89
452.31	6761.81
452.49	6799.26
452.68	6782.87
452.86	6822.66
453.05	6834.36
453.23	6846.07
453.42	6860.11
453.60	6789.89
453.78	6836.70
453.97	6890.54
454.15	6848.41
454.34	6743.08
454.52	7082.46
454.70	6820.32
454.89	6963.09
455.07	7070.76
455.26	7227.57
455.44	7117.57
455.62	7234.60
455.81	7140.97
455.99	7368.01
456.17	7255.66
456.36	7124.59
456.54	7162.04
456.73	7260.34
456.91	7562.27
457.09	7478.01
457.28	7543.55
457.46	7496.74
457.64	7578.65
457.83	7482.69
458.01	7506.10
458.19	7735.47
458.38	7595.04
458.56	7667.60
458.74	7625.47
458.93	7604.40
459.11	7714.41
459.29	7681.64
459.48	7779.94
459.66	7520.14
459.84	7878.24
460.03	8039.74
460.21	7929.74
460.39	7941.44
460.57	8016.33
460.76	8131.02
460.94	8189.53
461.12	8100.59
461.31	8018.68
461.49	8058.46
461.67	7866.54
461.85	8245.71
462.04	7964.84
462.22	8491.46
462.40	8344.01
462.59	8109.96
462.77	8327.63
462.95	8112.30
463.13	8175.49
463.32	8212.94
463.50	8510.19
463.68	8449.33
463.86	8554.66
464.05	8353.37
464.23	8201.24
464.41	8564.02
464.59	8404.86
464.78	8674.03
464.96	8540.61
465.14	8388.48
465.32	8674.03
465.50	8713.81
465.69	8620.19
465.87	8643.60
466.05	8699.77
466.23	8662.32
466.41	8765.31
466.60	8997.02
466.78	8730.20
466.96	8847.22
467.14	8713.81
467.32	8753.60
467.51	8910.42
467.69	8737.22
467.87	8917.44
468.05	9104.68
468.23	8784.03
468.41	8882.33
468.60	9032.13
468.78	9057.87
468.96	9062.55
469.14	9118.73
469.32	9245.12
469.50	8992.34
469.69	9373.85
469.87	9198.31
470.05	9397.25
470.23	9214.69
470.41	9362.14
470.59	9415.98
470.77	9404.27
470.95	9273.20
471.14	9542.36
471.32	9170.22
471.50	9643.01
471.68	9650.03
471.86	9572.79
472.04	9687.48
472.22	9951.96
472.40	9542.36
472.58	9743.65
472.77	9820.89
472.95	9837.27
473.13	10286.65
473.31	10036.22
473.49	9923.87
473.67	9907.49
473.85	10017.49
474.03	10310.06
474.21	10377.94
474.39	10193.03
474.57	10436.45
474.75	10399.00
474.93	10534.75
475.12	10415.38
475.30	10677.52
475.48	10417.72
475.66	10684.55
475.84	10597.95
476.02	10810.93
476.20	10576.88
476.38	11026.26
476.56	11199.46
476.74	11274.36
476.92	11187.76
477.10	10970.09
477.28	11241.59
477.46	11274.36
477.64	11257.98
477.82	11501.39
478.00	11875.88
478.18	11910.99
478.36	11796.30
478.54	11761.19
478.72	12006.95
478.90	12215.26
479.08	12287.81
479.26	12215.26
479.44	12219.94
479.62	12381.43
479.80	12533.57
479.98	12711.45
480.16	12828.48
480.34	12589.74
480.52	12807.41
480.70	13048.49
480.88	12840.18
481.06	13043.81
481.24	13355.10
481.41	13172.54
481.59	13600.85
481.77	13621.92
481.95	13469.78
482.13	13825.54
482.31	13448.72
482.49	14057.26
482.67	14015.13
482.85	14106.41
483.03	14277.27
483.21	14546.43
483.39	14305.35
483.57	14363.87
483.74	14583.88
483.92	14745.38
484.10	14635.37
484.28	15075.39
484.46	15187.74
484.64	15410.09
484.82	15391.36
485.00	15232.21
485.18	15913.30
485.35	15868.83
485.53	15779.89
485.71	15917.98
485.89	16313.53
486.07	16248.00
486.25	16395.45
486.43	16163.74
486.61	16374.39
486.78	16898.67
486.96	16758.24
487.14	16952.50
487.32	16947.82
487.50	17193.58
487.68	17238.05
487.85	17425.29
488.03	17605.51
488.21	17792.75
488.39	17837.22
488.57	18036.17
488.75	18019.78
488.92	18190.64
489.10	18415.34
489.28	18359.16
489.46	18658.75
489.64	18586.19
489.81	19002.81
489.99	19133.88
490.17	18991.11
490.35	19339.85
490.53	19391.34
490.70	19686.25
490.88	19733.06
491.06	19789.23
491.24	19775.19
491.41	19789.23
491.59	20285.42
491.77	20250.32
491.95	20381.38
492.13	20428.20
492.30	20425.86
492.48	20662.25
492.66	20505.43
492.84	20957.16
493.01	20755.87
493.19	20781.62
493.37	21106.95
493.54	21280.15
493.72	21584.42
493.90	21497.82
494.08	21680.38
494.25	21799.75
494.43	21933.16
494.61	22113.38
494.79	21935.50
494.96	22104.02
495.14	22239.77
495.32	22834.27
495.49	22576.81
495.67	22551.06
495.85	22993.42
496.02	23023.85
496.20	23323.44
496.38	23208.75
496.55	23271.95
496.73	23747.08
496.91	23594.94
497.09	23814.95
497.26	23976.45
497.44	23960.06
497.62	24077.09
497.79	24381.36
497.97	24149.65
498.14	24631.80
498.32	24683.29
498.50	24842.45
498.67	25151.40
498.85	24713.72
499.03	24936.07
499.20	25238.00
499.38	24938.41
499.56	25216.93
499.73	25497.80
499.91	25455.67
500.08	25680.36
500.26	25273.10
500.44	25853.56
500.61	26204.64
500.79	25617.16
500.97	25970.58
501.14	26359.11
501.32	26389.54
501.49	26373.16
501.67	26768.71
501.84	26927.86
502.02	26448.05
502.20	26754.66
502.37	26871.69
502.55	26632.96
502.72	26962.97
502.90	27091.70
503.07	26930.20
503.25	27342.14
503.43	27005.10
503.60	27438.10
503.78	27541.08
503.95	27316.39
504.13	27449.80
504.30	27779.82
504.48	27505.98
504.65	27826.63
504.83	28037.28
505.01	28144.94
505.18	28109.83
505.36	28489.00
505.53	28266.65
505.71	28498.36
505.88	28638.80
506.06	28596.67
506.23	28891.57
506.41	28910.30
506.58	29010.94
506.76	28526.45
506.93	28891.57
507.11	28877.53
507.28	29315.21
507.46	29205.20
507.63	29598.41
507.81	29392.45
507.98	29041.37
508.16	29233.29
508.33	29556.28
508.50	29706.08
508.68	29909.71
508.85	30333.34
509.03	30024.39
509.20	30199.93
509.38	30586.12
509.55	30340.36
509.73	30473.78
509.90	30813.15
510.08	30815.49
510.25	30874.01
510.42	30581.44
510.60	30883.37
510.77	30841.24
510.95	31033.16
511.12	31119.76
511.30	31337.43
511.47	31339.77
511.64	31393.61
511.82	31449.78
511.99	31283.60
512.17	31372.54
512.34	31805.54
512.51	31845.33
512.69	32004.49
512.86	32187.05
513.04	32364.93
513.21	32020.87
513.38	31901.50
513.56	32559.19
513.73	32116.83
513.90	32376.63
514.08	32360.25
514.25	32385.99
514.43	33219.22
514.60	32706.65
514.77	32875.16
514.95	32893.89
515.12	32287.69
515.29	32847.08
515.47	33102.20
515.64	33673.29
515.81	33362.00
515.99	32989.85
516.16	33319.87
516.33	33200.50
516.51	33404.13
516.68	33464.98
516.85	33926.07
517.03	34036.07
517.20	33869.89
517.37	33745.84
517.54	33958.83
517.72	33883.94
517.89	33640.52
518.06	33998.62
518.24	34211.61
518.41	34293.53
518.58	34183.52
518.75	34583.76
518.93	34405.88
519.10	34270.12
519.27	34794.40
519.45	34668.02
519.62	34621.20
519.79	34873.98
519.96	34965.26
520.14	35016.75
520.31	34878.66
520.48	34747.59
520.65	35037.82
520.83	35445.07
521.00	35379.54
521.17	35667.42
521.34	35723.60
521.52	35264.85
521.69	35335.07
521.86	35938.93
522.03	35885.09
522.20	36250.22
522.38	36449.16
522.55	36133.19
522.72	35796.15
522.89	35964.67
523.07	36652.79
523.24	36285.33
523.41	36086.38
523.58	36177.66
523.75	36411.71
523.92	36360.22
524.10	36835.35
524.27	36811.95
524.44	36872.80
524.61	36694.92
524.78	36781.52
524.96	36800.24
525.13	36753.43
525.30	37284.73
525.47	37258.99
525.64	36893.86
525.81	37244.94
525.98	37474.32
526.16	37361.97
526.33	37170.05
526.50	37799.65
526.67	37427.51
526.84	37589.00
527.01	38143.71
527.18	37991.58
527.36	38169.46
527.53	37738.80
527.70	37886.25
527.87	38073.49
528.04	37848.80
528.21	38572.03
528.38	38775.66
528.55	38256.06
528.72	38567.35
528.89	38340.32
529.07	38089.88
529.24	37979.87
529.41	38483.09
529.58	38775.66
529.75	38213.93
529.92	38761.61
530.09	38794.38
530.26	38600.12
530.43	38377.76
530.60	38876.30
530.77	38508.83
530.94	39225.04
531.11	39115.03
531.28	38904.38
531.46	39407.60
531.63	39349.09
531.80	38815.44
531.97	39379.51
532.14	39384.19
532.31	39377.17
532.48	39948.26
532.65	39964.65
532.82	39592.50
532.99	39381.85
533.16	39751.66
533.33	39800.81
533.50	39821.87
533.67	39627.61
533.84	39510.58
534.01	39786.77
534.18	40165.93
534.35	40266.58
534.52	40339.13
534.69	40161.25
534.86	40566.16
535.03	40275.94
535.20	40566.16
535.37	40727.66
535.54	41104.49
535.71	40348.50
535.88	40858.73
536.05	40823.62
536.22	40730.00
536.38	40809.58
536.55	41277.69
536.72	40528.72
536.89	41134.92
537.06	41092.79
537.23	41755.16
537.40	41280.03
537.57	41067.04
537.74	40821.28
537.91	41502.38
538.08	40669.15
538.25	41240.24
538.42	41244.92
538.59	41820.69
538.75	41155.98
538.92	41577.28
539.09	41928.36
539.26	41532.81
539.43	41549.19
539.60	41628.77
539.77	41649.83
539.94	42192.84
540.11	41996.23
540.28	42127.30
540.44	42447.96
540.61	42176.45
540.78	42113.26
540.95	42394.12
541.12	42326.25
541.29	42518.17
541.46	42277.10
541.62	42777.97
541.79	42555.62
541.96	42045.38
542.13	42766.27
542.30	42628.18
542.47	42548.60
542.63	42820.10
542.80	42801.38
542.97	43412.26
543.14	43346.72
543.31	43229.69
543.48	43466.09
543.64	43636.95
543.81	43772.70
543.98	43756.32
544.15	43316.29
544.32	43761.00
544.48	43725.89
544.65	43494.18
544.82	43976.33
544.99	43615.88
545.16	43716.53
545.32	43763.34
545.49	43952.92
545.66	44222.08
545.83	44566.14
546.00	44692.53
546.16	44198.68
546.33	44083.99
546.50	44058.24
546.67	44083.99
546.83	43370.13
547.00	44006.75
547.17	43875.68
547.34	44533.37
547.50	44109.74
547.67	44554.44
547.84	44306.34
548.00	44624.65
548.17	44863.39
548.34	44561.46
548.51	44533.37
548.67	44486.56
548.84	44968.71
549.01	44568.48
549.18	44687.85
549.34	44999.14
549.51	44978.07
549.68	44722.96
549.84	44975.73
550.01	44870.41
550.18	44116.76
550.34	44671.46
550.51	44533.37
550.68	44980.42
550.84	44329.75
551.01	45443.84
551.18	44814.24
551.34	44636.36
551.51	44849.35
551.68	45230.85
551.84	45132.55
552.01	44626.99
552.18	45038.93
552.34	44973.39
552.51	45698.96
552.68	45242.56
552.84	45626.40
553.01	45715.34
553.18	45230.85
553.34	45598.32
553.51	45254.26
553.67	45750.45
553.84	45549.17
554.01	45930.67
554.17	45853.44
554.34	45825.35
554.51	45823.01
554.67	45591.30
554.84	45610.02
555.00	45710.66
555.17	45399.37
555.33	45488.31
555.50	45511.72
555.67	45794.92
555.83	45687.26
556.00	45900.25
556.16	45998.55
556.33	46356.65
556.50	45954.08
556.66	45736.41
556.83	45998.55
556.99	46197.49
557.16	46691.35
557.32	46609.43
557.49	46632.83
557.65	45813.65
557.82	46349.63
557.98	45839.39
558.15	46031.32
558.32	46527.51
558.48	46309.84
558.65	46431.55
558.81	46356.65
558.98	46520.49
559.14	45968.12
559.31	46803.69
559.47	46043.02
559.64	46663.26
559.80	46672.62
559.97	46593.04
560.13	46323.88
560.30	46440.91
560.46	46686.67
560.63	46466.66
560.79	46951.15
560.96	46920.72
561.12	46504.10
561.29	46988.60
561.45	46794.33
561.61	46571.98
561.78	46841.14
561.94	46745.18
562.11	46670.28
562.27	47061.15
562.44	47070.51
562.60	47014.34
562.77	46796.67
562.93	47030.72
563.10	47110.30
563.26	46796.67
563.42	47409.89
563.59	46871.57
563.75	47037.75
563.92	47334.99
564.08	46920.72
564.24	47290.52
564.41	47138.39
564.57	46953.49
564.74	46902.00
564.90	47049.45
565.07	47571.39
565.23	47255.42
565.39	47068.17
565.56	47613.52
565.72	47239.03
565.88	47423.93
566.05	47416.91
566.21	47061.15
566.38	47122.01
566.54	47313.93
566.70	47672.03
566.87	47342.02
567.03	47339.68
567.19	47980.98
567.36	47892.04
567.52	47545.64
567.68	47419.25
567.85	47299.89
568.01	47416.91
568.17	47580.75
568.34	47475.43
568.50	47746.93
568.66	47840.55
568.83	47597.13
568.99	47655.65
569.15	47758.63
569.32	47351.38
569.48	47409.89
569.64	47749.27
569.81	47175.84
569.97	47512.88
570.13	47353.72
570.30	47533.94
570.46	47945.87
570.62	47526.92
570.78	47604.16
570.95	47056.47
571.11	48107.37
571.27	47578.41
571.43	47547.98
571.60	47470.75
571.76	47297.55
571.92	47782.04
572.09	47746.93
572.25	47980.98
572.41	48081.63
572.57	48102.69
572.74	48369.51
572.90	47428.62
573.06	47831.19
573.22	47913.11
573.38	47983.32
573.55	47831.19
573.71	48200.99
573.87	47461.38
574.03	47997.37
574.20	48498.24
574.36	48072.26
574.52	47854.59
574.68	48086.31
574.84	48350.79
575.01	48121.41
575.17	48182.27
575.33	47931.83
575.49	47866.30
575.65	47833.53
575.82	48252.48
575.98	48016.09
576.14	48547.39
576.30	48432.71
576.46	48142.48
576.62	47849.91
576.79	47983.32
576.95	47779.70
577.11	48037.16
577.27	48016.09
577.43	47880.34
577.59	48198.65
577.75	48697.19
577.92	47730.54
578.08	47941.19
578.24	47889.70
578.40	48449.09
578.56	48217.38
578.72	48360.15
578.88	48694.85
579.04	48989.75
579.21	48105.03
579.37	48573.14
579.53	48416.32
579.69	48465.47
579.85	48760.38
580.01	47969.28
580.17	48275.89
580.33	48273.55
580.49	48311.00
580.65	48271.21
580.82	48559.09
580.98	48605.91
581.14	48170.57
581.30	48294.61
581.46	48282.91
581.62	48226.74
581.78	48322.70
581.94	48334.40
582.10	47725.86
582.26	47917.79
582.42	48491.22
582.58	48306.32
582.74	48399.94
582.90	48500.58
583.06	48397.60
583.22	48051.20
583.38	48406.96
583.54	48296.95
583.70	48505.26
583.86	48584.84
584.02	48095.67
584.18	48500.58
584.34	48432.71
584.50	48353.13
584.66	48034.81
584.82	48067.58
584.98	48500.58
585.14	48465.47
585.30	48341.42
585.46	48198.65
585.62	48437.39
585.78	48552.07
585.94	48378.87
586.10	48610.59
586.26	49076.35
586.42	48413.98
586.58	48748.68
586.74	48533.35
586.90	48360.15
587.06	48641.01
587.22	48816.55
587.38	48488.88
587.54	49034.22
587.70	48968.69
587.86	48708.89
588.02	48680.80
588.18	48641.01
588.34	48718.25
588.49	48804.85
588.65	48545.05
588.81	48453.77
588.97	48793.15
589.13	48657.40
