SpectraSuite Data File
++++++++++++++++++++++++++++++++++++
Date: Thu Oct 24 13:21:25 EDT 2013
User: stostad
Dark Spectrum Present: No
Reference Spectrum Present: No
Number of Sampled Component Spectra: 1
Spectrometers: USB2+H05261
Integration Time (usec): 100000 (USB2+H05261)
Spectra Averaged: 1 (USB2+H05261)
Boxcar Smoothing: 0 (USB2+H05261)
Correct for Electrical Dark: No (USB2+H05261)
Strobe/Lamp Enabled: No (USB2+H05261)
Correct for Detector Non-linearity: No (USB2+H05261)
Correct for Stray Light: No (USB2+H05261)
Number of Pixels in Processed Spectrum: 2048
>>>>>Begin Processed Spectral Data<<<<<
365.73	587.47
365.92	587.47
366.12	587.47
366.32	552.37
366.52	512.58
366.72	458.74
366.91	458.74
367.11	468.11
367.31	442.36
367.51	414.27
367.70	470.45
367.90	440.02
368.10	468.11
368.30	463.43
368.49	465.77
368.69	543.00
368.89	430.66
369.09	498.53
369.28	484.49
369.48	435.34
369.68	519.60
369.87	505.56
370.07	503.22
370.27	608.54
370.47	599.18
370.66	868.34
370.86	997.07
371.06	1011.11
371.25	990.05
371.45	1001.75
371.65	999.41
371.84	1008.77
372.04	985.37
372.24	910.47
372.44	1034.52
372.63	1095.37
372.83	1048.56
373.03	1004.09
373.22	1029.84
373.42	1097.71
373.62	1088.35
373.81	1142.18
374.01	1167.93
374.21	1067.28
374.40	1064.94
374.60	1060.26
374.79	1142.18
374.99	1156.22
375.19	1064.94
375.38	1128.14
375.58	1275.59
375.78	1193.67
375.97	1207.72
376.17	1196.01
376.37	1179.63
376.56	1167.93
376.76	1196.01
376.95	1097.71
377.15	1086.01
377.35	1188.99
377.54	1212.40
377.74	1163.25
377.93	1102.39
378.13	1217.08
378.33	1245.16
378.52	1221.76
378.72	1174.95
378.91	1203.04
379.11	1252.19
379.31	1284.95
379.50	1203.04
379.70	1256.87
379.89	1306.02
380.09	1280.27
380.28	1301.34
380.48	1254.53
380.68	1301.34
380.87	1303.68
381.07	1320.06
381.26	1306.02
381.46	1380.92
381.65	1308.36
381.85	1334.11
382.04	1268.57
382.24	1336.45
382.43	1273.25
382.63	1282.61
382.83	1357.51
383.02	1434.75
383.22	1369.21
383.41	1413.68
383.61	1385.60
383.80	1453.47
384.00	1373.89
384.19	1441.77
384.39	1303.68
384.58	1348.15
384.78	1409.00
384.97	1404.32
385.17	1465.18
385.36	1411.34
385.56	1582.20
385.75	1401.98
385.95	1444.11
386.14	1458.15
386.34	1430.07
386.53	1497.94
386.72	1453.47
386.92	1547.09
387.11	1563.48
387.31	1476.88
387.50	1434.75
387.70	1579.86
387.89	1476.88
388.09	1551.78
388.28	1507.30
388.48	1533.05
388.67	1572.84
388.86	1582.20
389.06	1497.94
389.25	1589.22
389.45	1612.63
389.64	1603.27
389.84	1708.59
390.03	1631.35
390.22	1619.65
390.42	1589.22
390.61	1593.90
390.81	1626.67
391.00	1687.53
391.19	1645.40
391.39	1610.29
391.58	1626.67
391.78	1813.92
391.97	1743.70
392.16	1708.59
392.36	1753.06
392.55	1734.34
392.75	1799.87
392.94	1701.57
393.13	1755.40
393.33	1750.72
393.52	1881.79
393.71	1853.70
393.91	1818.60
394.10	1865.41
394.29	1870.09
394.49	1870.09
394.68	1926.26
394.88	1902.86
395.07	1846.68
395.26	1781.15
395.46	1881.79
395.65	1881.79
395.84	1858.39
396.04	1989.46
396.23	2031.58
396.42	2005.84
396.62	1968.39
396.81	1940.30
397.00	1991.80
397.19	1940.30
397.39	2160.31
397.58	2153.29
397.77	2090.10
397.97	2059.67
398.16	2031.58
398.35	2092.44
398.55	2062.01
398.74	2172.02
398.93	2118.18
399.12	2087.76
399.32	2132.23
399.51	2136.91
399.70	2167.34
399.90	2132.23
400.09	2265.64
400.28	2176.70
400.47	2289.04
400.67	2270.32
400.86	2312.45
401.05	2298.41
401.24	2312.45
401.44	2305.43
401.63	2361.60
401.82	2424.80
402.01	2392.03
402.21	2333.51
402.40	2450.54
402.59	2291.38
402.78	2373.30
402.97	2394.37
403.17	2354.58
403.36	2427.14
403.55	2548.84
403.74	2539.48
403.93	2441.18
404.13	2485.65
404.32	2574.59
404.51	2595.65
404.70	2672.89
404.89	2558.21
405.09	2616.72
405.28	2700.98
405.47	2703.32
405.66	2736.09
405.85	2672.89
406.05	2750.13
406.24	2825.03
406.43	2691.62
406.62	2736.09
406.81	2771.19
407.00	2752.47
407.20	2771.19
407.39	2846.09
407.58	2939.71
407.77	2970.14
407.96	2803.96
408.15	2920.99
408.34	2904.60
408.54	3005.25
408.73	3033.33
408.92	2916.31
409.11	2958.44
409.30	3112.91
409.49	2991.20
409.68	3110.57
409.87	3105.89
410.07	3082.49
410.26	3141.00
410.45	3115.25
410.64	3166.74
410.83	3302.50
411.02	3295.47
411.21	3283.77
411.40	3290.79
411.59	3279.09
411.78	3260.37
411.98	3185.47
412.17	3375.05
412.36	3410.16
412.55	3501.44
412.74	3559.95
412.93	3513.14
413.12	3419.52
413.31	3581.02
413.50	3550.59
413.69	3524.85
413.88	3637.19
414.07	3592.72
414.26	3707.41
414.45	3728.47
414.64	3744.86
414.83	3693.37
415.02	3854.86
415.22	3857.20
415.41	3962.53
415.60	3889.97
415.79	3978.91
415.98	4126.36
416.17	4093.60
416.36	4035.08
416.55	4147.43
416.74	4194.24
416.93	4107.64
417.12	4243.39
417.31	4119.34
417.50	4299.56
417.69	4278.50
417.88	4229.35
418.07	4276.16
418.26	4329.99
418.45	4440.00
418.64	4573.41
418.83	4514.89
419.02	4341.69
419.21	4568.73
419.39	4465.74
419.58	4409.57
419.77	4470.42
419.96	4674.05
420.15	4493.83
420.34	4526.60
420.53	4704.48
420.72	4538.30
420.91	4636.60
421.10	4599.15
421.29	4870.65
421.48	4779.37
421.67	4833.21
421.86	4629.58
422.05	4826.18
422.24	4758.31
422.43	4910.44
422.61	4807.46
422.80	4868.31
422.99	4901.08
423.18	4865.97
423.37	5041.51
423.56	4903.42
423.75	4943.21
423.94	4814.48
424.13	4545.32
424.32	4762.99
424.50	4882.36
424.69	5018.11
424.88	4954.91
425.07	5053.22
425.26	4905.76
425.45	4975.98
425.64	4809.80
425.83	5008.75
426.01	4915.12
426.20	5025.13
426.39	4931.51
426.58	5046.20
426.77	4840.23
426.96	5053.22
427.15	5039.17
427.33	5027.47
427.52	5167.90
427.71	5238.12
427.90	5308.34
428.09	5247.48
428.28	5256.84
428.46	5142.16
428.65	5394.93
428.84	5373.87
429.03	5383.23
429.22	5240.46
429.40	5305.99
429.59	5301.31
429.78	5219.39
429.97	5256.84
430.16	5378.55
430.34	5497.92
430.53	5558.77
430.72	5612.60
430.91	5404.30
431.10	5544.73
431.28	5584.52
431.47	5729.63
431.66	5907.51
431.85	5764.74
432.03	5771.76
432.22	5802.19
432.41	5734.31
432.60	5837.30
432.79	5858.36
432.97	5849.00
433.16	5944.96
433.35	6076.03
433.54	5994.11
433.72	6097.10
433.91	5760.06
434.10	6057.31
434.28	6101.78
434.47	6036.24
434.66	6286.68
434.85	6143.91
435.03	6291.36
435.22	6272.64
435.41	6574.56
435.59	6305.40
435.78	6368.60
435.97	6338.17
436.16	6415.41
436.34	6492.65
436.53	6408.39
436.72	6663.51
436.90	6207.10
437.09	6516.05
437.28	6356.90
437.46	6476.26
437.65	6560.52
437.84	6661.16
438.02	6731.38
438.21	6569.88
438.40	6499.67
438.58	6609.67
438.77	6909.26
438.96	6600.31
439.14	6876.49
439.33	6956.07
439.52	6967.77
439.70	6942.03
439.89	7007.56
440.08	7274.38
440.26	7201.83
440.45	7005.22
440.63	7248.64
440.82	7431.20
441.01	7005.22
441.19	7358.64
441.38	7442.90
441.57	7548.23
441.75	7536.52
441.94	7588.02
442.12	7676.96
442.31	7770.58
442.50	7637.17
442.68	7662.91
442.87	7613.76
443.05	7971.86
443.24	7833.77
443.43	7988.25
443.61	7974.21
443.80	8042.08
443.98	7824.41
444.17	7473.33
444.35	7936.76
444.54	8161.45
444.73	7939.10
444.91	7932.08
445.10	7896.97
445.28	8046.76
445.47	8098.25
445.65	8021.02
445.84	8088.89
446.02	8121.66
446.21	8086.55
446.39	7962.50
446.58	8128.68
446.77	8271.45
446.95	7978.89
447.14	8152.09
447.32	8308.90
447.51	8189.53
447.69	7903.99
447.88	8252.73
448.06	8255.07
448.25	8072.51
448.43	8299.54
448.62	8088.89
448.80	8159.11
448.99	8285.50
449.17	8276.13
449.36	8161.45
449.54	8503.17
449.73	8353.37
449.91	8568.70
450.10	8484.44
450.28	8659.98
450.46	8542.96
450.65	8652.96
450.83	8711.47
451.02	8599.13
451.20	8926.80
451.39	8882.33
451.57	8795.73
451.76	8741.90
451.94	8959.57
452.13	9006.38
452.31	9041.49
452.49	8952.55
452.68	8863.61
452.86	8898.72
453.05	9111.71
453.23	9200.65
453.42	8929.14
453.60	8844.88
453.78	8917.44
453.97	8990.00
454.15	9029.79
454.34	8964.25
454.52	9308.31
454.70	9352.78
454.89	9186.60
455.07	9156.18
455.26	9348.10
455.44	9408.95
455.62	9404.27
455.81	9509.60
455.99	9383.21
456.17	9579.81
456.36	9420.66
456.54	9614.92
456.73	9664.07
456.91	10033.88
457.09	9837.27
457.28	9792.80
457.46	9839.61
457.64	10029.20
457.83	9973.02
458.01	9837.27
458.19	10127.50
458.38	9930.89
458.56	10359.21
458.74	10127.50
458.93	10066.64
459.11	10267.93
459.29	10171.97
459.48	9919.19
459.66	10300.70
459.84	10445.81
460.03	10525.39
460.21	10377.94
460.39	10284.31
460.57	10396.66
460.76	10319.42
460.94	10675.18
461.12	10794.55
461.31	10478.58
461.49	10553.48
461.67	10738.38
461.85	10953.71
462.04	10621.35
462.22	10981.79
462.40	11063.71
462.59	10902.22
462.77	10686.89
462.95	10855.40
463.13	10942.00
463.32	10972.43
463.50	11262.66
463.68	11126.91
463.86	11063.71
464.05	10920.94
464.23	10939.66
464.41	11143.29
464.59	11234.57
464.78	11398.41
464.96	11452.24
465.14	11040.31
465.32	11520.12
465.50	11328.19
465.69	11473.31
465.87	11510.75
466.05	11510.75
466.23	11433.52
466.41	11442.88
466.60	11763.53
466.78	11501.39
466.96	11571.61
467.14	11527.14
467.32	11674.59
467.51	11913.33
467.69	11524.80
467.87	11740.13
468.05	11800.98
468.23	11920.35
468.41	11721.40
468.60	11906.31
468.78	11894.60
468.96	11873.54
469.14	12009.29
469.32	12257.39
469.50	12025.67
469.69	12060.78
469.87	12271.43
470.05	12271.43
470.23	12294.83
470.41	12709.11
470.59	12360.37
470.77	12425.90
470.95	12393.14
471.14	12779.32
471.32	12365.05
471.50	12755.92
471.68	12744.22
471.86	13041.46
472.04	12765.28
472.22	13273.18
472.40	13004.02
472.58	13029.76
472.77	13177.22
472.95	13149.13
473.13	13640.64
473.31	13142.11
473.49	13296.58
473.67	13411.27
473.85	13486.17
474.03	13689.79
474.21	13916.83
474.39	13965.98
474.57	13834.91
474.75	13839.59
474.93	13965.98
475.12	13984.70
475.30	14305.35
475.48	14185.99
475.66	14401.32
475.84	14141.52
476.02	14366.21
476.20	14335.78
476.38	14810.91
476.56	15016.88
476.74	14897.51
476.92	14803.89
477.10	14820.27
477.28	15349.23
477.46	15309.44
477.64	15276.68
477.82	15400.72
478.00	15723.72
478.18	15733.08
478.36	16004.58
478.54	15917.98
478.72	16093.52
478.90	16217.57
479.08	16727.81
479.26	16173.10
479.44	16603.76
479.62	16723.13
479.80	16748.87
479.98	16893.99
480.16	17518.91
480.34	17111.66
480.52	17422.95
480.70	17163.15
480.88	17322.30
481.06	17680.41
481.24	17729.56
481.41	17799.77
481.59	18221.07
481.77	18288.95
481.95	18228.09
482.13	18508.96
482.31	18396.61
482.49	19016.85
482.67	18693.86
482.85	18792.16
483.03	19058.98
483.21	19499.00
483.39	19782.21
483.57	19239.20
483.74	19503.68
483.92	20114.56
484.10	19646.46
484.28	19922.64
484.46	20638.84
484.64	20833.11
484.82	20809.70
485.00	20690.34
485.18	21266.11
485.35	21350.37
485.53	21338.66
485.71	21853.58
485.89	22010.40
486.07	21577.40
486.25	21879.33
486.43	21837.20
486.61	22178.92
486.78	22349.78
486.96	22518.29
487.14	22551.06
487.32	23000.44
487.50	23255.56
487.68	23180.67
487.85	23342.16
488.03	23494.30
488.21	24198.80
488.39	23995.17
488.57	24173.05
488.75	24313.48
488.92	24568.60
489.10	24924.36
489.28	24760.53
489.46	25355.02
489.64	25350.34
489.81	25631.21
489.99	25633.55
490.17	25792.70
490.35	26125.06
490.53	26532.31
490.70	26094.63
490.88	26654.02
491.06	26562.74
491.24	26579.12
491.41	26691.47
491.59	27054.25
491.77	27241.50
491.95	27269.58
492.13	27676.83
492.30	27653.43
492.48	28189.41
492.66	28081.75
492.84	28407.08
493.01	28610.71
493.19	28561.56
493.37	28744.12
493.54	28599.01
493.72	29134.99
493.90	29170.10
494.08	29347.98
494.25	29457.98
494.43	29736.51
494.61	29991.62
494.79	29780.98
494.96	30043.12
495.14	30555.69
495.32	30576.76
495.49	30551.01
495.67	30969.97
495.85	31042.53
496.02	30848.26
496.20	31360.84
496.38	31606.59
496.55	31775.11
496.73	32339.18
496.91	32116.83
497.09	32137.90
497.26	32559.19
497.44	32240.88
497.62	32493.66
497.79	32842.40
497.97	32781.54
498.14	33467.32
498.32	33472.00
498.50	33467.32
498.67	33989.26
498.85	33596.05
499.03	33586.69
499.20	34148.42
499.38	34068.84
499.56	34082.88
499.73	34607.16
499.91	34270.12
500.08	34497.16
500.26	34375.45
500.44	34873.98
500.61	35028.46
500.79	35040.16
500.97	35290.60
501.14	35922.54
501.32	35398.26
501.49	35449.75
501.67	35601.89
501.84	35922.54
502.02	36039.57
502.20	36261.92
502.37	36495.97
502.55	35878.07
502.72	36421.08
502.90	36657.47
503.07	36561.51
503.25	37198.13
503.43	36538.10
503.60	36804.92
503.78	37111.53
503.95	36835.35
504.13	37181.75
504.30	37645.18
504.48	37401.76
504.65	37699.01
504.83	37684.97
505.01	37879.23
505.18	38319.25
505.36	38321.59
505.53	37778.59
505.71	38185.84
505.88	38740.55
506.06	38345.00
506.23	38892.68
506.41	38918.43
506.58	38939.49
506.76	39105.67
506.93	39295.25
507.11	39093.97
507.28	39519.95
507.46	39775.06
507.63	39990.39
507.81	39695.49
507.98	39480.16
508.16	39894.43
508.33	39988.05
508.50	39845.28
508.68	40467.86
508.85	40832.99
509.03	40442.12
509.20	40449.14
509.38	40793.20
509.55	41305.77
509.73	41401.74
509.90	41104.49
510.08	41282.37
510.25	41397.06
510.42	41509.40
510.60	41486.00
510.77	41893.25
510.95	41776.22
511.12	41755.16
511.30	41954.10
511.47	42192.84
511.64	42096.88
511.82	42422.21
511.99	42239.65
512.17	42270.08
512.34	42822.44
512.51	43180.54
512.69	43372.47
512.86	43159.48
513.04	43253.10
513.21	42869.25
513.38	42895.00
513.56	43433.32
513.73	43309.27
513.90	43658.01
514.08	43885.04
514.25	44004.41
514.43	44156.55
514.60	44041.86
514.77	43927.17
514.95	43999.73
515.12	44313.36
515.29	43899.09
515.47	44636.36
515.64	44772.11
515.81	44472.52
515.99	44926.58
516.16	44966.37
516.33	44336.77
516.51	45191.06
516.68	45212.13
516.85	45272.98
517.03	45247.24
517.20	45544.48
517.37	45441.50
517.54	45441.50
517.72	45277.66
517.89	45661.51
518.06	45645.13
518.24	45855.78
518.41	46054.72
518.58	45778.54
518.75	45708.32
518.93	46244.30
519.10	46220.90
519.27	46628.15
519.45	46092.17
519.62	46752.20
519.79	46546.23
519.96	46735.82
520.14	46401.12
520.31	46419.84
520.48	46834.12
520.65	46859.87
520.83	47063.49
521.00	47760.97
521.17	47522.24
521.34	48067.58
521.52	47466.06
521.69	47643.94
521.86	48011.41
522.03	47627.56
522.20	47737.57
522.38	48303.98
522.55	48421.00
522.72	48446.75
522.89	47924.81
523.07	48802.51
523.24	48231.42
523.41	48385.89
523.58	48376.53
523.75	48711.23
523.92	48619.95
524.10	48692.50
524.27	48968.69
524.44	48910.17
524.61	48900.81
524.78	48722.93
524.96	49268.28
525.13	49401.69
525.30	49322.11
525.47	49675.53
525.64	49600.63
525.81	49874.48
525.98	49902.56
526.16	49188.70
526.33	49525.74
526.50	49790.22
526.67	49638.08
526.84	50302.79
527.01	49787.88
527.18	50007.89
527.36	49961.08
527.53	50309.82
527.70	50375.35
527.87	50604.72
528.04	50681.96
528.21	50686.64
528.38	50871.54
528.55	50710.05
528.72	50473.65
528.89	50611.74
529.07	50913.67
529.24	50480.67
529.41	50941.76
529.58	50908.99
529.75	50808.35
529.92	51171.13
530.09	50932.40
530.26	50651.53
530.43	50787.28
530.60	50820.05
530.77	51398.16
530.94	51604.13
531.11	51105.60
531.28	51569.02
531.46	51531.57
531.63	51545.62
531.80	51496.47
531.97	51498.81
532.14	51646.26
532.31	51718.82
532.48	52044.15
532.65	51814.78
532.82	51770.31
532.99	52240.76
533.16	51927.13
533.33	51955.21
533.50	52362.46
533.67	52060.54
533.84	51936.49
534.01	52289.91
534.18	51885.00
534.35	52711.20
534.52	52411.62
534.69	52678.44
534.86	52390.55
535.03	52381.19
535.20	52357.78
535.37	52956.96
535.54	52907.81
535.71	52610.56
535.88	52818.87
536.05	53010.79
536.22	52767.38
536.38	53017.82
536.55	52961.64
536.72	52928.87
536.89	53085.69
537.06	53254.21
537.23	53729.34
537.40	52963.98
537.57	53134.84
537.74	53242.51
537.91	53474.22
538.08	53373.58
538.25	53113.78
538.42	53385.28
538.59	53556.14
538.75	53331.45
538.92	53769.13
539.09	53872.11
539.26	53645.08
539.43	53666.14
539.60	53619.33
539.77	53722.32
539.94	54082.76
540.11	53834.66
540.28	54040.63
540.44	54078.08
540.61	54307.45
540.78	53879.13
540.95	53916.58
541.12	54248.94
541.29	54340.22
541.46	54480.65
541.62	54323.83
541.79	54342.56
541.96	54061.69
542.13	54433.84
542.30	54450.22
542.47	54277.02
542.63	54520.44
542.80	54679.60
542.97	54974.50
543.14	55159.41
543.31	55128.98
543.48	55023.65
543.64	55227.28
543.81	55140.68
543.98	54831.73
544.15	54899.61
544.32	54948.76
544.48	55351.33
544.65	55292.82
544.82	55119.62
544.99	54911.31
545.16	55217.92
545.32	55412.18
545.49	55250.69
545.66	55571.34
545.83	55571.34
546.00	55971.57
546.16	55758.58
546.33	55564.32
546.50	55503.46
546.67	55608.79
546.83	55274.09
547.00	55360.69
547.17	55126.64
547.34	55938.80
547.50	55849.86
547.67	56177.54
547.84	56079.24
548.00	56006.68
548.17	55959.87
548.34	55913.06
548.51	55891.99
548.67	55906.04
548.84	55971.57
549.01	55992.64
549.18	55770.28
549.34	55873.27
549.51	55948.17
549.68	56086.26
549.84	56046.47
550.01	56198.60
550.18	55664.96
550.34	56076.90
550.51	55913.06
550.68	56130.73
550.84	55990.30
551.01	56397.55
551.18	56247.75
551.34	56317.97
551.51	56177.54
551.68	56348.40
551.84	56217.33
552.01	56247.75
552.18	56432.66
552.34	56418.61
552.51	56418.61
552.68	56608.20
552.84	56793.10
553.01	56612.88
553.18	56636.28
553.34	56645.65
553.51	56624.58
553.67	56570.75
553.84	56963.96
554.01	56933.53
554.17	56938.21
554.34	57111.41
554.51	56669.05
554.67	56912.47
554.84	56811.82
555.00	56655.01
555.17	56638.62
555.33	57020.13
555.50	56734.59
555.67	57097.37
555.83	56973.32
556.00	57247.16
556.16	57153.54
556.33	57080.98
556.50	56851.61
556.66	57045.88
556.83	56612.88
556.99	57123.11
557.16	57219.08
557.32	57495.26
557.49	57308.02
557.65	57064.60
557.82	57144.18
557.98	57226.10
558.15	57073.96
558.32	57139.50
558.48	56935.87
558.65	57286.95
558.81	57251.84
558.98	57324.40
559.14	57354.83
559.31	57378.23
559.47	57322.06
559.64	57385.25
559.80	57378.23
559.97	57572.50
560.13	57425.04
560.30	57726.97
560.46	57490.58
560.63	57586.54
560.79	57565.48
560.96	57757.40
561.12	57628.67
561.29	57680.16
561.45	57350.15
561.61	57570.16
561.78	57460.15
561.94	57954.00
562.11	57907.19
562.27	58007.84
562.44	57977.41
562.60	57745.70
562.77	57633.35
562.93	57696.55
563.10	58031.24
563.26	57691.86
563.42	57801.87
563.59	57762.08
563.75	57755.06
563.92	58220.83
564.08	57935.28
564.24	57918.90
564.41	57705.91
564.57	57911.88
564.74	57518.67
564.90	57937.62
565.07	57998.48
565.23	57860.38
565.39	58134.23
565.56	58342.53
565.72	58066.35
565.88	57951.66
566.05	57977.41
566.21	57822.93
566.38	57677.82
566.54	58059.33
566.70	57939.96
566.87	58103.80
567.03	58251.25
567.19	58527.44
567.36	58396.37
567.52	58066.35
567.68	58277.00
567.85	58042.95
568.01	58253.59
568.17	58089.76
568.34	58082.73
568.50	58363.60
568.66	58211.46
568.83	58260.62
568.99	58061.67
569.15	58246.57
569.32	58351.90
569.48	58122.52
569.64	58424.45
569.81	58157.63
569.97	58110.82
570.13	58438.50
570.30	58064.01
570.46	58291.04
570.62	58262.96
570.78	58396.37
570.95	58110.82
571.11	58447.86
571.27	58291.04
571.43	58206.78
571.60	58178.70
571.76	58347.21
571.92	58438.50
572.09	58497.01
572.25	58630.42
572.41	58630.42
572.57	58501.69
572.74	58450.20
572.90	58602.33
573.06	58574.25
573.22	58454.88
573.38	58450.20
573.55	58501.69
573.71	58707.66
573.87	58583.61
574.03	58581.27
574.20	58665.53
574.36	58379.98
574.52	58401.05
574.68	58473.60
574.84	58639.78
575.01	58735.74
575.17	58724.04
575.33	58745.11
575.49	58384.66
575.65	58604.67
575.82	58740.42
575.98	58632.76
576.14	58614.04
576.30	58588.29
576.46	58410.41
576.62	58419.77
576.79	58204.44
576.95	58255.93
577.11	58527.44
577.27	58695.95
577.43	58518.07
577.59	58658.51
577.75	58604.67
577.92	58635.10
578.08	58731.06
578.24	58602.33
578.40	58571.91
578.56	58763.83
578.72	58782.55
578.88	58967.46
579.04	59147.68
579.21	58726.38
579.37	58852.77
579.53	58836.39
579.69	58653.82
579.85	58611.70
580.01	58841.07
580.17	58838.73
580.33	58651.48
580.49	58953.41
580.65	58878.52
580.82	58920.65
580.98	58698.30
581.14	58681.91
581.30	58894.90
581.46	58834.05
581.62	58693.61
581.78	58656.17
581.94	58801.28
582.10	58705.32
582.26	58873.84
582.42	58595.31
582.58	58632.76
582.74	58871.49
582.90	58859.79
583.06	58831.71
583.22	58749.79
583.38	58803.62
583.54	58684.25
583.70	58628.08
583.86	58990.86
584.02	58801.28
584.18	59110.23
584.34	58827.02
584.50	59068.10
584.66	58979.16
584.82	58756.81
584.98	59178.10
585.14	58773.19
585.30	58761.49
585.46	58812.98
585.62	58653.82
585.78	59032.99
585.94	58791.92
586.10	59093.85
586.26	58831.71
586.42	59114.91
586.58	58857.45
586.74	59145.34
586.90	58667.87
587.06	58932.35
587.22	59061.08
587.38	59021.29
587.54	59309.18
587.70	59224.92
587.86	59260.02
588.02	59009.59
588.18	59210.87
