SpectraSuite Data File
++++++++++++++++++++++++++++++++++++
Date: Thu Oct 24 13:21:04 EDT 2013
User: stostad
Dark Spectrum Present: No
Reference Spectrum Present: No
Number of Sampled Component Spectra: 1
Spectrometers: USB2+H05261
Integration Time (usec): 100000 (USB2+H05261)
Spectra Averaged: 1 (USB2+H05261)
Boxcar Smoothing: 0 (USB2+H05261)
Correct for Electrical Dark: No (USB2+H05261)
Strobe/Lamp Enabled: No (USB2+H05261)
Correct for Detector Non-linearity: No (USB2+H05261)
Correct for Stray Light: No (USB2+H05261)
Number of Pixels in Processed Spectrum: 2048
>>>>>Begin Processed Spectral Data<<<<<
365.73	573.43
365.92	573.43
366.12	573.43
366.32	498.53
366.52	484.49
366.72	521.94
366.91	463.43
367.11	414.27
367.31	482.15
367.51	491.51
367.70	468.11
367.90	505.56
368.10	477.47
368.30	449.38
368.49	444.70
368.69	493.85
368.89	479.81
369.09	472.79
369.28	479.81
369.48	454.06
369.68	463.43
369.87	521.94
370.07	510.24
370.27	484.49
370.47	533.64
370.66	547.69
370.86	538.32
371.06	610.88
371.25	629.60
371.45	667.05
371.65	606.20
371.84	608.54
372.04	566.41
372.24	674.07
372.44	533.64
372.63	599.18
372.83	650.67
373.03	589.82
373.22	634.29
373.42	568.75
373.62	629.60
373.81	706.84
374.01	627.26
374.21	617.90
374.40	627.26
374.60	669.39
374.79	629.60
374.99	594.50
375.19	641.31
375.38	601.52
375.58	655.35
375.78	709.18
375.97	636.63
376.17	664.71
376.37	608.54
376.56	669.39
376.76	596.84
376.95	638.97
377.15	634.29
377.35	678.76
377.54	627.26
377.74	624.92
377.93	610.88
378.13	732.59
378.33	589.82
378.52	608.54
378.72	631.94
378.91	615.56
379.11	676.41
379.31	671.73
379.50	622.58
379.70	678.76
379.89	638.97
380.09	554.71
380.28	596.84
380.48	575.77
380.68	531.30
380.87	599.18
381.07	615.56
381.26	655.35
381.46	613.22
381.65	587.47
381.85	692.80
382.04	578.11
382.24	603.86
382.43	608.54
382.63	538.32
382.83	631.94
383.02	622.58
383.22	606.20
383.41	582.79
383.61	650.67
383.80	681.10
384.00	559.39
384.19	692.80
384.39	557.05
384.58	587.47
384.78	568.75
384.97	613.22
385.17	667.05
385.36	617.90
385.56	655.35
385.75	589.82
385.95	601.52
386.14	671.73
386.34	585.13
386.53	615.56
386.72	573.43
386.92	622.58
387.11	601.52
387.31	601.52
387.50	622.58
387.70	617.90
387.89	566.41
388.09	648.33
388.28	650.67
388.48	645.99
388.67	573.43
388.86	613.22
389.06	655.35
389.25	636.63
389.45	629.60
389.64	587.47
389.84	674.07
390.03	622.58
390.22	620.24
390.42	622.58
390.61	580.45
390.81	564.07
391.00	580.45
391.19	631.94
391.39	636.63
391.58	655.35
391.78	622.58
391.97	645.99
392.16	613.22
392.36	704.50
392.55	664.71
392.75	643.65
392.94	568.75
393.13	627.26
393.33	627.26
393.52	594.50
393.71	596.84
393.91	603.86
394.10	641.31
394.29	650.67
394.49	615.56
394.68	655.35
394.88	617.90
395.07	645.99
395.26	587.47
395.46	671.73
395.65	615.56
395.84	645.99
396.04	667.05
396.23	615.56
396.42	667.05
396.62	589.82
396.81	620.24
397.00	613.22
397.19	617.90
397.39	603.86
397.58	613.22
397.77	655.35
397.97	676.41
398.16	606.20
398.35	615.56
398.55	648.33
398.74	620.24
398.93	613.22
399.12	552.37
399.32	622.58
399.51	695.14
399.70	671.73
399.90	657.69
400.09	615.56
400.28	587.47
400.47	636.63
400.67	678.76
400.86	648.33
401.05	660.03
401.24	543.00
401.44	599.18
401.63	671.73
401.82	704.50
402.01	683.44
402.21	601.52
402.40	587.47
402.59	608.54
402.78	674.07
402.97	624.92
403.17	664.71
403.36	641.31
403.55	655.35
403.74	655.35
403.93	655.35
404.13	711.52
404.32	753.65
404.51	645.99
404.70	627.26
404.89	657.69
405.09	615.56
405.28	634.29
405.47	662.37
405.66	629.60
405.85	599.18
406.05	617.90
406.24	606.20
406.43	683.44
406.62	676.41
406.81	662.37
407.00	655.35
407.20	622.58
407.39	655.35
407.58	554.71
407.77	601.52
407.96	657.69
408.15	718.54
408.34	648.33
408.54	601.52
408.73	608.54
408.92	599.18
409.11	660.03
409.30	655.35
409.49	608.54
409.68	667.05
409.87	678.76
410.07	575.77
410.26	690.46
410.45	603.86
410.64	624.92
410.83	610.88
411.02	655.35
411.21	615.56
411.40	688.12
411.59	688.12
411.78	627.26
411.98	704.50
412.17	599.18
412.36	653.01
412.55	629.60
412.74	606.20
412.93	627.26
413.12	617.90
413.31	737.27
413.50	592.16
413.69	589.82
413.88	643.65
414.07	601.52
414.26	587.47
414.45	641.31
414.64	610.88
414.83	643.65
415.02	608.54
415.22	671.73
415.41	653.01
415.60	573.43
415.79	629.60
415.98	557.05
416.17	648.33
416.36	662.37
416.55	638.97
416.74	610.88
416.93	702.16
417.12	671.73
417.31	613.22
417.50	645.99
417.69	667.05
417.88	578.11
418.07	655.35
418.26	648.33
418.45	582.79
418.64	631.94
418.83	667.05
419.02	662.37
419.21	671.73
419.39	603.86
419.58	557.05
419.77	561.73
419.96	643.65
420.15	702.16
420.34	671.73
420.53	629.60
420.72	657.69
420.91	674.07
421.10	657.69
421.29	627.26
421.48	610.88
421.67	650.67
421.86	610.88
422.05	615.56
422.24	664.71
422.43	624.92
422.61	587.47
422.80	613.22
422.99	664.71
423.18	648.33
423.37	690.46
423.56	657.69
423.75	692.80
423.94	615.56
424.13	664.71
424.32	568.75
424.50	643.65
424.69	688.12
424.88	667.05
425.07	615.56
425.26	690.46
425.45	660.03
425.64	653.01
425.83	638.97
426.01	578.11
426.20	629.60
426.39	606.20
426.58	615.56
426.77	648.33
426.96	671.73
427.15	631.94
427.33	610.88
427.52	664.71
427.71	627.26
427.90	634.29
428.09	667.05
428.28	575.77
428.46	582.79
428.65	589.82
428.84	596.84
429.03	716.20
429.22	629.60
429.40	575.77
429.59	634.29
429.78	664.71
429.97	608.54
430.16	660.03
430.34	587.47
430.53	622.58
430.72	664.71
430.91	638.97
431.10	638.97
431.28	615.56
431.47	610.88
431.66	606.20
431.85	641.31
432.03	615.56
432.22	690.46
432.41	582.79
432.60	629.60
432.79	643.65
432.97	589.82
433.16	685.78
433.35	599.18
433.54	624.92
433.72	594.50
433.91	697.48
434.10	620.24
434.28	655.35
434.47	676.41
434.66	653.01
434.85	655.35
435.03	856.64
435.22	992.39
435.41	1093.03
435.59	976.00
435.78	875.36
435.97	837.91
436.16	784.08
436.34	723.23
436.53	613.22
436.72	671.73
436.90	671.73
437.09	557.05
437.28	653.01
437.46	589.82
437.65	564.07
437.84	634.29
438.02	615.56
438.21	664.71
438.40	599.18
438.58	601.52
438.77	645.99
438.96	664.71
439.14	578.11
439.33	622.58
439.52	592.16
439.70	578.11
439.89	582.79
440.08	702.16
440.26	627.26
440.45	620.24
440.63	655.35
440.82	711.52
441.01	594.50
441.19	608.54
441.38	690.46
441.57	671.73
441.75	706.84
441.94	643.65
442.12	601.52
442.31	617.90
442.50	636.63
442.68	676.41
442.87	650.67
443.05	660.03
443.24	683.44
443.43	662.37
443.61	716.20
443.80	608.54
443.98	671.73
444.17	638.97
444.35	662.37
444.54	660.03
444.73	674.07
444.91	674.07
445.10	643.65
445.28	653.01
445.47	613.22
445.65	606.20
445.84	603.86
446.02	617.90
446.21	606.20
446.39	615.56
446.58	585.13
446.77	676.41
446.95	660.03
447.14	566.41
447.32	678.76
447.51	571.09
447.69	631.94
447.88	655.35
448.06	650.67
448.25	674.07
448.43	669.39
448.62	622.58
448.80	683.44
448.99	706.84
449.17	660.03
449.36	697.48
449.54	685.78
449.73	564.07
449.91	617.90
450.10	685.78
450.28	638.97
450.46	653.01
450.65	613.22
450.83	660.03
451.02	643.65
451.20	610.88
451.39	662.37
451.57	622.58
451.76	688.12
451.94	681.10
452.13	683.44
452.31	727.91
452.49	599.18
452.68	716.20
452.86	655.35
453.05	730.25
453.23	648.33
453.42	655.35
453.60	765.36
453.78	697.48
453.97	655.35
454.15	629.60
454.34	599.18
454.52	622.58
454.70	702.16
454.89	669.39
455.07	636.63
455.26	671.73
455.44	685.78
455.62	561.73
455.81	662.37
455.99	615.56
456.17	685.78
456.36	615.56
456.54	575.77
456.73	702.16
456.91	589.82
457.09	685.78
457.28	636.63
457.46	641.31
457.64	638.97
457.83	704.50
458.01	599.18
458.19	655.35
458.38	519.60
458.56	580.45
458.74	650.67
458.93	657.69
459.11	636.63
459.29	557.05
459.48	725.57
459.66	692.80
459.84	627.26
460.03	655.35
460.21	641.31
460.39	622.58
460.57	713.86
460.76	641.31
460.94	608.54
461.12	627.26
461.31	624.92
461.49	688.12
461.67	594.50
461.85	678.76
462.04	585.13
462.22	905.79
462.40	657.69
462.59	622.58
462.77	550.03
462.95	606.20
463.13	610.88
463.32	723.23
463.50	575.77
463.68	634.29
463.86	648.33
464.05	578.11
464.23	660.03
464.41	739.61
464.59	643.65
464.78	664.71
464.96	599.18
465.14	634.29
465.32	634.29
465.50	631.94
465.69	671.73
465.87	641.31
466.05	688.12
466.23	709.18
466.41	681.10
466.60	655.35
466.78	669.39
466.96	641.31
467.14	657.69
467.32	634.29
467.51	660.03
467.69	610.88
467.87	713.86
468.05	620.24
468.23	650.67
468.41	653.01
468.60	678.76
468.78	603.86
468.96	702.16
469.14	580.45
469.32	690.46
469.50	702.16
469.69	674.07
469.87	692.80
470.05	631.94
470.23	648.33
470.41	702.16
470.59	641.31
470.77	610.88
470.95	655.35
471.14	585.13
471.32	571.09
471.50	676.41
471.68	667.05
471.86	653.01
472.04	622.58
472.22	582.79
472.40	582.79
472.58	660.03
472.77	634.29
472.95	601.52
473.13	636.63
473.31	676.41
473.49	615.56
473.67	674.07
473.85	645.99
474.03	699.82
474.21	634.29
474.39	638.97
474.57	650.67
474.75	662.37
474.93	594.50
475.12	608.54
475.30	557.05
475.48	601.52
475.66	662.37
475.84	655.35
476.02	606.20
476.20	622.58
476.38	610.88
476.56	671.73
476.74	585.13
476.92	643.65
477.10	653.01
477.28	704.50
477.46	690.46
477.64	615.56
477.82	681.10
478.00	620.24
478.18	669.39
478.36	645.99
478.54	641.31
478.72	587.47
478.90	664.71
479.08	645.99
479.26	613.22
479.44	662.37
479.62	653.01
479.80	678.76
479.98	674.07
480.16	641.31
480.34	681.10
480.52	650.67
480.70	653.01
480.88	734.93
481.06	575.77
481.24	592.16
481.41	681.10
481.59	620.24
481.77	667.05
481.95	671.73
482.13	657.69
482.31	681.10
482.49	643.65
482.67	706.84
482.85	629.60
483.03	653.01
483.21	711.52
483.39	713.86
483.57	683.44
483.74	655.35
483.92	662.37
484.10	629.60
484.28	653.01
484.46	709.18
484.64	657.69
484.82	681.10
485.00	678.76
485.18	697.48
485.35	695.14
485.53	690.46
485.71	695.14
485.89	671.73
486.07	620.24
486.25	802.80
486.43	795.78
486.61	706.84
486.78	718.54
486.96	622.58
487.14	758.33
487.32	692.80
487.50	739.61
487.68	706.84
487.85	704.50
488.03	695.14
488.21	730.25
488.39	650.67
488.57	704.50
488.75	758.33
488.92	660.03
489.10	763.01
489.28	732.59
489.46	704.50
489.64	716.20
489.81	643.65
489.99	685.78
490.17	674.07
490.35	732.59
490.53	711.52
490.70	704.50
490.88	692.80
491.06	739.61
491.24	676.41
491.41	737.27
491.59	638.97
491.77	634.29
491.95	653.01
492.13	699.82
492.30	699.82
492.48	711.52
492.66	671.73
492.84	653.01
493.01	760.67
493.19	706.84
493.37	727.91
493.54	676.41
493.72	692.80
493.90	702.16
494.08	629.60
494.25	704.50
494.43	688.12
494.61	683.44
494.79	706.84
494.96	683.44
495.14	725.57
495.32	596.84
495.49	695.14
495.67	660.03
495.85	699.82
496.02	678.76
496.20	660.03
496.38	676.41
496.55	678.76
496.73	681.10
496.91	648.33
497.09	589.82
497.26	667.05
497.44	664.71
497.62	655.35
497.79	653.01
497.97	697.48
498.14	655.35
498.32	688.12
498.50	688.12
498.67	643.65
498.85	643.65
499.03	702.16
499.20	655.35
499.38	674.07
499.56	629.60
499.73	723.23
499.91	657.69
500.08	631.94
500.26	662.37
500.44	697.48
500.61	608.54
500.79	702.16
500.97	716.20
501.14	620.24
501.32	690.46
501.49	671.73
501.67	709.18
501.84	695.14
502.02	587.47
502.20	711.52
502.37	624.92
502.55	688.12
502.72	594.50
502.90	725.57
503.07	617.90
503.25	636.63
503.43	683.44
503.60	610.88
503.78	697.48
503.95	657.69
504.13	671.73
504.30	603.86
504.48	723.23
504.65	755.99
504.83	638.97
505.01	622.58
505.18	671.73
505.36	592.16
505.53	650.67
505.71	678.76
505.88	674.07
506.06	716.20
506.23	641.31
506.41	674.07
506.58	702.16
506.76	641.31
506.93	669.39
507.11	706.84
507.28	657.69
507.46	608.54
507.63	660.03
507.81	678.76
507.98	634.29
508.16	702.16
508.33	662.37
508.50	617.90
508.68	624.92
508.85	650.67
509.03	634.29
509.20	683.44
509.38	699.82
509.55	634.29
509.73	648.33
509.90	599.18
510.08	681.10
510.25	578.11
510.42	676.41
510.60	660.03
510.77	638.97
510.95	624.92
511.12	713.86
511.30	634.29
511.47	610.88
511.64	631.94
511.82	653.01
511.99	629.60
512.17	664.71
512.34	657.69
512.51	571.09
512.69	613.22
512.86	697.48
513.04	606.20
513.21	650.67
513.38	592.16
513.56	641.31
513.73	603.86
513.90	641.31
514.08	610.88
514.25	634.29
514.43	720.88
514.60	624.92
514.77	697.48
514.95	664.71
515.12	669.39
515.29	587.47
515.47	657.69
515.64	653.01
515.81	685.78
515.99	655.35
516.16	636.63
516.33	662.37
516.51	615.56
516.68	692.80
516.85	603.86
517.03	594.50
517.20	667.05
517.37	613.22
517.54	699.82
517.72	638.97
517.89	664.71
518.06	568.75
518.24	709.18
518.41	655.35
518.58	676.41
518.75	631.94
518.93	660.03
519.10	671.73
519.27	571.09
519.45	627.26
519.62	641.31
519.79	620.24
519.96	575.77
520.14	641.31
520.31	706.84
520.48	660.03
520.65	575.77
520.83	678.76
521.00	653.01
521.17	683.44
521.34	627.26
521.52	657.69
521.69	657.69
521.86	606.20
522.03	709.18
522.20	718.54
522.38	690.46
522.55	650.67
522.72	631.94
522.89	660.03
523.07	681.10
523.24	753.65
523.41	603.86
523.58	622.58
523.75	709.18
523.92	608.54
524.10	653.01
524.27	631.94
524.44	648.33
524.61	657.69
524.78	589.82
524.96	669.39
525.13	641.31
525.30	737.27
525.47	657.69
525.64	641.31
525.81	620.24
525.98	615.56
526.16	603.86
526.33	617.90
526.50	662.37
526.67	667.05
526.84	683.44
527.01	608.54
527.18	695.14
527.36	702.16
527.53	671.73
527.70	685.78
527.87	578.11
528.04	643.65
528.21	660.03
528.38	667.05
528.55	617.90
528.72	734.93
528.89	617.90
529.07	657.69
529.24	645.99
529.41	685.78
529.58	627.26
529.75	594.50
529.92	725.57
530.09	676.41
530.26	683.44
530.43	678.76
530.60	753.65
530.77	622.58
530.94	655.35
531.11	678.76
531.28	601.52
531.46	631.94
531.63	653.01
531.80	660.03
531.97	667.05
532.14	685.78
532.31	681.10
532.48	638.97
532.65	685.78
532.82	641.31
532.99	697.48
533.16	695.14
533.33	734.93
533.50	596.84
533.67	620.24
533.84	678.76
534.01	629.60
534.18	631.94
534.35	599.18
534.52	688.12
534.69	727.91
534.86	732.59
535.03	643.65
535.20	674.07
535.37	681.10
535.54	758.33
535.71	732.59
535.88	671.73
536.05	671.73
536.22	683.44
536.38	711.52
536.55	688.12
536.72	716.20
536.89	732.59
537.06	709.18
537.23	676.41
537.40	713.86
537.57	702.16
537.74	660.03
537.91	685.78
538.08	685.78
538.25	683.44
538.42	697.48
538.59	699.82
538.75	697.48
538.92	805.14
539.09	793.44
539.26	760.67
539.43	765.36
539.60	791.10
539.77	812.17
539.94	870.68
540.11	795.78
540.28	798.12
540.44	840.25
540.61	1013.45
540.78	940.90
540.95	1004.09
541.12	1067.28
541.29	1128.14
541.46	1128.14
541.62	1078.99
541.79	1090.69
541.96	1123.46
542.13	1142.18
542.30	1132.82
542.47	1111.75
542.63	1090.69
542.80	1093.03
542.97	1151.54
543.14	1109.41
543.31	1102.39
543.48	1111.75
543.64	1029.84
543.81	1135.16
543.98	1095.37
544.15	1097.71
544.32	1060.26
544.48	1074.31
544.65	1088.35
544.82	1025.15
544.99	1025.15
545.16	1114.10
545.32	1172.61
545.49	1465.18
545.66	1713.27
545.83	1877.11
546.00	1636.03
546.16	1460.49
546.33	1282.61
546.50	1200.69
546.67	1053.24
546.83	1048.56
547.00	936.21
547.17	894.08
547.34	896.43
547.50	894.08
547.67	802.80
547.84	884.72
548.00	936.21
548.17	854.30
548.34	842.59
548.51	840.25
548.67	894.08
548.84	788.76
549.01	924.51
549.18	856.64
549.34	805.14
549.51	840.25
549.68	784.08
549.84	767.70
550.01	821.53
550.18	833.23
550.34	908.13
550.51	802.80
550.68	828.55
550.84	744.29
551.01	793.44
551.18	760.67
551.34	732.59
551.51	720.88
551.68	725.57
551.84	674.07
552.01	713.86
552.18	690.46
552.34	805.14
552.51	688.12
552.68	805.14
552.84	697.48
553.01	713.86
553.18	723.23
553.34	744.29
553.51	699.82
553.67	737.27
553.84	704.50
554.01	655.35
554.17	706.84
554.34	655.35
554.51	718.54
554.67	650.67
554.84	690.46
555.00	662.37
555.17	674.07
555.33	638.97
555.50	674.07
555.67	631.94
555.83	643.65
556.00	667.05
556.16	671.73
556.33	711.52
556.50	711.52
556.66	638.97
556.83	678.76
556.99	613.22
557.16	650.67
557.32	648.33
557.49	617.90
557.65	692.80
557.82	732.59
557.98	634.29
558.15	582.79
558.32	681.10
558.48	695.14
558.65	678.76
558.81	683.44
558.98	695.14
559.14	711.52
559.31	631.94
559.47	669.39
559.64	648.33
559.80	631.94
559.97	650.67
560.13	676.41
560.30	753.65
560.46	713.86
560.63	608.54
560.79	667.05
560.96	648.33
561.12	678.76
561.29	662.37
561.45	610.88
561.61	688.12
561.78	727.91
561.94	688.12
562.11	734.93
562.27	550.03
562.44	650.67
562.60	596.84
562.77	674.07
562.93	709.18
563.10	610.88
563.26	711.52
563.42	685.78
563.59	650.67
563.75	650.67
563.92	655.35
564.08	573.43
564.24	636.63
564.41	643.65
564.57	643.65
564.74	575.77
564.90	564.07
565.07	713.86
565.23	615.56
565.39	648.33
565.56	629.60
565.72	688.12
565.88	589.82
566.05	596.84
566.21	657.69
566.38	709.18
566.54	667.05
566.70	748.97
566.87	681.10
567.03	638.97
567.19	690.46
567.36	655.35
567.52	627.26
567.68	669.39
567.85	699.82
568.01	685.78
568.17	660.03
568.34	667.05
568.50	725.57
568.66	603.86
568.83	655.35
568.99	645.99
569.15	718.54
569.32	603.86
569.48	671.73
569.64	683.44
569.81	695.14
569.97	674.07
570.13	655.35
570.30	676.41
570.46	674.07
570.62	641.31
570.78	615.56
570.95	592.16
571.11	664.71
571.27	781.74
571.43	648.33
571.60	653.01
571.76	706.84
571.92	643.65
572.09	636.63
572.25	650.67
572.41	580.45
572.57	734.93
572.74	664.71
572.90	664.71
573.06	662.37
573.22	695.14
573.38	699.82
573.55	676.41
573.71	660.03
573.87	643.65
574.03	571.09
574.20	641.31
574.36	681.10
574.52	716.20
574.68	641.31
574.84	716.20
575.01	601.52
575.17	692.80
575.33	653.01
575.49	699.82
575.65	648.33
575.82	645.99
575.98	704.50
576.14	697.48
576.30	716.20
576.46	770.04
576.62	851.96
576.79	924.51
576.95	849.61
577.11	786.42
577.27	727.91
577.43	777.06
577.59	748.97
577.75	739.61
577.92	645.99
578.08	596.84
578.24	660.03
578.40	760.67
578.56	828.55
578.72	851.96
578.88	828.55
579.04	772.38
579.21	798.12
579.37	791.10
579.53	760.67
579.69	732.59
579.85	718.54
580.01	713.86
580.17	772.38
580.33	727.91
580.49	727.91
580.65	706.84
580.82	695.14
580.98	711.52
581.14	716.20
581.30	688.12
581.46	725.57
581.62	713.86
581.78	716.20
581.94	765.36
582.10	765.36
582.26	753.65
582.42	732.59
582.58	821.53
582.74	765.36
582.90	688.12
583.06	844.93
583.22	746.63
583.38	758.33
583.54	697.48
583.70	688.12
583.86	763.01
584.02	746.63
584.18	748.97
584.34	704.50
584.50	727.91
584.66	788.76
584.82	748.97
584.98	746.63
585.14	784.08
585.30	765.36
585.46	837.91
585.62	727.91
585.78	744.29
585.94	697.48
586.10	748.97
586.26	788.76
586.42	835.57
586.58	798.12
586.74	861.32
586.90	842.59
587.06	891.74
587.22	807.48
587.38	868.34
587.54	727.91
587.70	858.98
587.86	821.53
588.02	711.52
588.18	772.38
588.34	770.04
588.49	648.33
588.65	765.36
588.81	681.10
588.97	709.18
589.13	683.44
589.29	704.50
589.45	720.88
589.61	706.84
589.77	730.25
589.93	718.54
590.08	709.18
590.24	699.82
590.40	755.99
590.56	688.12
590.72	645.99
590.88	690.46
591.04	711.52
591.20	711.52
591.35	727.91
591.51	667.05
591.67	699.82
591.83	671.73
591.99	706.84
592.15	730.25
592.31	760.67
592.46	765.36
592.62	849.61
592.78	772.38
592.94	732.59
593.10	821.53
593.26	692.80
593.41	727.91
593.57	777.06
593.73	798.12
593.89	802.80
594.05	809.83
594.20	812.17
594.36	725.57
594.52	631.94
594.68	699.82
594.84	660.03
594.99	695.14
595.15	641.31
595.31	751.31
595.47	746.63
595.62	748.97
595.78	688.12
595.94	746.63
596.10	802.80
596.25	636.63
596.41	692.80
596.57	758.33
596.73	692.80
596.88	718.54
597.04	725.57
597.20	657.69
597.36	669.39
597.51	660.03
597.67	671.73
597.83	685.78
597.99	671.73
598.14	660.03
598.30	657.69
598.46	737.27
598.61	706.84
598.77	671.73
598.93	713.86
599.09	720.88
599.24	765.36
599.40	690.46
599.56	690.46
599.71	688.12
599.87	772.38
600.03	737.27
600.18	685.78
600.34	744.29
600.50	624.92
600.65	683.44
600.81	655.35
600.97	683.44
601.12	648.33
601.28	727.91
601.44	685.78
601.59	662.37
601.75	713.86
601.91	697.48
602.06	730.25
602.22	706.84
602.37	660.03
602.53	657.69
602.69	648.33
602.84	662.37
603.00	720.88
603.16	608.54
603.31	681.10
603.47	688.12
603.62	655.35
603.78	657.69
603.94	725.57
604.09	695.14
604.25	704.50
604.40	692.80
604.56	772.38
604.71	697.48
604.87	671.73
605.03	667.05
605.18	674.07
605.34	760.67
605.49	648.33
605.65	737.27
605.80	655.35
605.96	631.94
606.12	725.57
606.27	739.61
606.43	695.14
606.58	713.86
606.74	667.05
606.89	683.44
607.05	678.76
607.20	702.16
607.36	713.86
607.51	690.46
607.67	727.91
607.82	744.29
607.98	678.76
608.13	753.65
608.29	746.63
608.44	718.54
608.60	699.82
608.75	835.57
608.91	772.38
609.06	807.48
609.22	779.40
609.37	833.23
609.53	847.27
609.68	870.68
609.84	877.70
