SpectraSuite Data File
++++++++++++++++++++++++++++++++++++
Date: Thu Oct 24 13:21:01 EDT 2013
User: stostad
Dark Spectrum Present: No
Reference Spectrum Present: No
Number of Sampled Component Spectra: 1
Spectrometers: USB2+H05261
Integration Time (usec): 100000 (USB2+H05261)
Spectra Averaged: 1 (USB2+H05261)
Boxcar Smoothing: 0 (USB2+H05261)
Correct for Electrical Dark: No (USB2+H05261)
Strobe/Lamp Enabled: No (USB2+H05261)
Correct for Detector Non-linearity: No (USB2+H05261)
Correct for Stray Light: No (USB2+H05261)
Number of Pixels in Processed Spectrum: 2048
>>>>>Begin Processed Spectral Data<<<<<
365.73	540.66
365.92	540.66
366.12	540.66
366.32	482.15
366.52	465.77
366.72	468.11
366.91	440.02
367.11	545.34
367.31	418.96
367.51	414.27
367.70	430.66
367.90	442.36
368.10	435.34
368.30	486.83
368.49	444.70
368.69	465.77
368.89	512.58
369.09	423.64
369.28	528.96
369.48	510.24
369.68	503.22
369.87	547.69
370.07	514.92
370.27	550.03
370.47	557.05
370.66	545.34
370.86	557.05
371.06	552.37
371.25	685.78
371.45	606.20
371.65	681.10
371.84	573.43
372.04	596.84
372.24	599.18
372.44	550.03
372.63	561.73
372.83	606.20
373.03	575.77
373.22	657.69
373.42	671.73
373.62	685.78
373.81	606.20
374.01	608.54
374.21	629.60
374.40	667.05
374.60	706.84
374.79	587.47
374.99	573.43
375.19	667.05
375.38	615.56
375.58	624.92
375.78	629.60
375.97	624.92
376.17	706.84
376.37	601.52
376.56	662.37
376.76	535.98
376.95	606.20
377.15	631.94
377.35	552.37
377.54	564.07
377.74	627.26
377.93	559.39
378.13	592.16
378.33	650.67
378.52	657.69
378.72	613.22
378.91	692.80
379.11	580.45
379.31	706.84
379.50	620.24
379.70	681.10
379.89	643.65
380.09	580.45
380.28	653.01
380.48	676.41
380.68	655.35
380.87	631.94
381.07	587.47
381.26	699.82
381.46	664.71
381.65	580.45
381.85	622.58
382.04	657.69
382.24	641.31
382.43	596.84
382.63	643.65
382.83	641.31
383.02	641.31
383.22	636.63
383.41	653.01
383.61	627.26
383.80	650.67
384.00	645.99
384.19	683.44
384.39	620.24
384.58	643.65
384.78	615.56
384.97	606.20
385.17	671.73
385.36	627.26
385.56	578.11
385.75	573.43
385.95	582.79
386.14	606.20
386.34	610.88
386.53	678.76
386.72	573.43
386.92	622.58
387.11	608.54
387.31	601.52
387.50	594.50
387.70	685.78
387.89	613.22
388.09	557.05
388.28	678.76
388.48	631.94
388.67	709.18
388.86	643.65
389.06	615.56
389.25	552.37
389.45	638.97
389.64	645.99
389.84	575.77
390.03	629.60
390.22	636.63
390.42	678.76
390.61	629.60
390.81	575.77
391.00	648.33
391.19	601.52
391.39	645.99
391.58	660.03
391.78	650.67
391.97	608.54
392.16	606.20
392.36	655.35
392.55	627.26
392.75	545.34
392.94	561.73
393.13	669.39
393.33	627.26
393.52	627.26
393.71	643.65
393.91	582.79
394.10	585.13
394.29	617.90
394.49	636.63
394.68	629.60
394.88	547.69
395.07	664.71
395.26	601.52
395.46	631.94
395.65	631.94
395.84	629.60
396.04	674.07
396.23	629.60
396.42	650.67
396.62	634.29
396.81	660.03
397.00	692.80
397.19	603.86
397.39	624.92
397.58	641.31
397.77	624.92
397.97	622.58
398.16	620.24
398.35	669.39
398.55	617.90
398.74	678.76
398.93	603.86
399.12	603.86
399.32	617.90
399.51	629.60
399.70	643.65
399.90	624.92
400.09	631.94
400.28	578.11
400.47	566.41
400.67	589.82
400.86	641.31
401.05	589.82
401.24	638.97
401.44	634.29
401.63	669.39
401.82	681.10
402.01	615.56
402.21	594.50
402.40	648.33
402.59	580.45
402.78	610.88
402.97	613.22
403.17	660.03
403.36	648.33
403.55	608.54
403.74	671.73
403.93	713.86
404.13	657.69
404.32	650.67
404.51	669.39
404.70	690.46
404.89	685.78
405.09	610.88
405.28	634.29
405.47	596.84
405.66	575.77
405.85	657.69
406.05	653.01
406.24	603.86
406.43	669.39
406.62	608.54
406.81	669.39
407.00	645.99
407.20	610.88
407.39	660.03
407.58	690.46
407.77	648.33
407.96	610.88
408.15	601.52
408.34	613.22
408.54	636.63
408.73	692.80
408.92	676.41
409.11	622.58
409.30	653.01
409.49	631.94
409.68	648.33
409.87	674.07
410.07	601.52
410.26	669.39
410.45	631.94
410.64	582.79
410.83	599.18
411.02	667.05
411.21	648.33
411.40	578.11
411.59	573.43
411.78	631.94
411.98	645.99
412.17	636.63
412.36	599.18
412.55	575.77
412.74	723.23
412.93	547.69
413.12	587.47
413.31	601.52
413.50	671.73
413.69	624.92
413.88	648.33
414.07	638.97
414.26	594.50
414.45	617.90
414.64	669.39
414.83	655.35
415.02	688.12
415.22	690.46
415.41	660.03
415.60	664.71
415.79	716.20
415.98	615.56
416.17	667.05
416.36	573.43
416.55	617.90
416.74	716.20
416.93	603.86
417.12	662.37
417.31	613.22
417.50	636.63
417.69	638.97
417.88	650.67
418.07	624.92
418.26	580.45
418.45	643.65
418.64	664.71
418.83	660.03
419.02	631.94
419.21	631.94
419.39	601.52
419.58	641.31
419.77	585.13
419.96	615.56
420.15	727.91
420.34	634.29
420.53	594.50
420.72	634.29
420.91	622.58
421.10	592.16
421.29	664.71
421.48	657.69
421.67	601.52
421.86	599.18
422.05	641.31
422.24	681.10
422.43	627.26
422.61	594.50
422.80	580.45
422.99	667.05
423.18	645.99
423.37	706.84
423.56	592.16
423.75	634.29
423.94	624.92
424.13	566.41
424.32	587.47
424.50	650.67
424.69	671.73
424.88	650.67
425.07	631.94
425.26	582.79
425.45	648.33
425.64	650.67
425.83	638.97
426.01	641.31
426.20	671.73
426.39	613.22
426.58	641.31
426.77	617.90
426.96	617.90
427.15	599.18
427.33	601.52
427.52	629.60
427.71	610.88
427.90	629.60
428.09	636.63
428.28	592.16
428.46	678.76
428.65	664.71
428.84	638.97
429.03	613.22
429.22	645.99
429.40	667.05
429.59	667.05
429.78	669.39
429.97	674.07
430.16	599.18
430.34	636.63
430.53	585.13
430.72	547.69
430.91	608.54
431.10	608.54
431.28	697.48
431.47	624.92
431.66	697.48
431.85	662.37
432.03	629.60
432.22	585.13
432.41	643.65
432.60	641.31
432.79	676.41
432.97	573.43
433.16	660.03
433.35	685.78
433.54	638.97
433.72	676.41
433.91	683.44
434.10	638.97
434.28	641.31
434.47	692.80
434.66	725.57
434.85	688.12
435.03	807.48
435.22	1013.45
435.41	1142.18
435.59	1097.71
435.78	1011.11
435.97	866.00
436.16	774.72
436.34	702.16
436.53	645.99
436.72	669.39
436.90	624.92
437.09	608.54
437.28	634.29
437.46	615.56
437.65	683.44
437.84	636.63
438.02	674.07
438.21	683.44
438.40	608.54
438.58	594.50
438.77	688.12
438.96	615.56
439.14	657.69
439.33	601.52
439.52	624.92
439.70	615.56
439.89	664.71
440.08	650.67
440.26	662.37
440.45	636.63
440.63	720.88
440.82	650.67
441.01	692.80
441.19	599.18
441.38	624.92
441.57	559.39
441.75	718.54
441.94	685.78
442.12	648.33
442.31	629.60
442.50	608.54
442.68	620.24
442.87	634.29
443.05	704.50
443.24	636.63
443.43	634.29
443.61	634.29
443.80	657.69
443.98	709.18
444.17	676.41
444.35	727.91
444.54	634.29
444.73	683.44
444.91	713.86
445.10	589.82
445.28	674.07
445.47	685.78
445.65	690.46
445.84	648.33
446.02	664.71
446.21	636.63
446.39	547.69
446.58	617.90
446.77	648.33
446.95	624.92
447.14	690.46
447.32	662.37
447.51	599.18
447.69	585.13
447.88	676.41
448.06	660.03
448.25	629.60
448.43	671.73
448.62	613.22
448.80	641.31
448.99	678.76
449.17	667.05
449.36	667.05
449.54	606.20
449.73	655.35
449.91	620.24
450.10	606.20
450.28	681.10
450.46	648.33
450.65	571.09
450.83	636.63
451.02	622.58
451.20	641.31
451.39	725.57
451.57	641.31
451.76	599.18
451.94	638.97
452.13	641.31
452.31	674.07
452.49	575.77
452.68	641.31
452.86	624.92
453.05	648.33
453.23	706.84
453.42	592.16
453.60	638.97
453.78	594.50
453.97	606.20
454.15	587.47
454.34	648.33
454.52	669.39
454.70	674.07
454.89	678.76
455.07	608.54
455.26	622.58
455.44	650.67
455.62	636.63
455.81	662.37
455.99	676.41
456.17	650.67
456.36	692.80
456.54	596.84
456.73	582.79
456.91	622.58
457.09	716.20
457.28	660.03
457.46	713.86
457.64	669.39
457.83	645.99
458.01	629.60
458.19	594.50
458.38	592.16
458.56	631.94
458.74	641.31
458.93	603.86
459.11	543.00
459.29	624.92
459.48	669.39
459.66	631.94
459.84	599.18
460.03	655.35
460.21	617.90
460.39	692.80
460.57	648.33
460.76	653.01
460.94	655.35
461.12	645.99
461.31	645.99
461.49	648.33
461.67	573.43
461.85	641.31
462.04	678.76
462.22	891.74
462.40	573.43
462.59	634.29
462.77	688.12
462.95	671.73
463.13	615.56
463.32	641.31
463.50	610.88
463.68	695.14
463.86	627.26
464.05	620.24
464.23	699.82
464.41	718.54
464.59	610.88
464.78	650.67
464.96	554.71
465.14	601.52
465.32	629.60
465.50	608.54
465.69	629.60
465.87	620.24
466.05	681.10
466.23	636.63
466.41	571.09
466.60	613.22
466.78	636.63
466.96	631.94
467.14	627.26
467.32	643.65
467.51	683.44
467.69	681.10
467.87	629.60
468.05	667.05
468.23	627.26
468.41	692.80
468.60	692.80
468.78	720.88
468.96	720.88
469.14	653.01
469.32	643.65
469.50	674.07
469.69	690.46
469.87	629.60
470.05	631.94
470.23	664.71
470.41	643.65
470.59	585.13
470.77	613.22
470.95	608.54
471.14	648.33
471.32	645.99
471.50	638.97
471.68	697.48
471.86	636.63
472.04	603.86
472.22	697.48
472.40	667.05
472.58	653.01
472.77	669.39
472.95	676.41
473.13	669.39
473.31	615.56
473.49	615.56
473.67	610.88
473.85	685.78
474.03	678.76
474.21	653.01
474.39	629.60
474.57	755.99
474.75	575.77
474.93	617.90
475.12	629.60
475.30	613.22
475.48	653.01
475.66	692.80
475.84	667.05
476.02	645.99
476.20	683.44
476.38	627.26
476.56	587.47
476.74	641.31
476.92	631.94
477.10	683.44
477.28	634.29
477.46	603.86
477.64	613.22
477.82	613.22
478.00	678.76
478.18	706.84
478.36	634.29
478.54	585.13
478.72	660.03
478.90	629.60
479.08	662.37
479.26	641.31
479.44	578.11
479.62	655.35
479.80	566.41
479.98	641.31
480.16	634.29
480.34	725.57
480.52	627.26
480.70	627.26
480.88	678.76
481.06	655.35
481.24	641.31
481.41	638.97
481.59	601.52
481.77	617.90
481.95	592.16
482.13	676.41
482.31	631.94
482.49	664.71
482.67	727.91
482.85	734.93
483.03	645.99
483.21	613.22
483.39	704.50
483.57	723.23
483.74	653.01
483.92	674.07
484.10	664.71
484.28	685.78
484.46	763.01
484.64	683.44
484.82	704.50
485.00	685.78
485.18	690.46
485.35	767.70
485.53	671.73
485.71	744.29
485.89	711.52
486.07	767.70
486.25	741.95
486.43	788.76
486.61	685.78
486.78	730.25
486.96	676.41
487.14	711.52
487.32	688.12
487.50	704.50
487.68	737.27
487.85	746.63
488.03	730.25
488.21	748.97
488.39	737.27
488.57	718.54
488.75	601.52
488.92	840.25
489.10	732.59
489.28	688.12
489.46	690.46
489.64	685.78
489.81	664.71
489.99	699.82
490.17	676.41
490.35	763.01
490.53	688.12
490.70	800.46
490.88	713.86
491.06	723.23
491.24	734.93
491.41	727.91
491.59	713.86
491.77	716.20
491.95	685.78
492.13	690.46
492.30	664.71
492.48	688.12
492.66	624.92
492.84	709.18
493.01	685.78
493.19	685.78
493.37	753.65
493.54	674.07
493.72	718.54
493.90	690.46
494.08	683.44
494.25	699.82
494.43	692.80
494.61	657.69
494.79	615.56
494.96	636.63
495.14	699.82
495.32	676.41
495.49	697.48
495.67	690.46
495.85	716.20
496.02	709.18
496.20	695.14
496.38	655.35
496.55	601.52
496.73	655.35
496.91	636.63
497.09	643.65
497.26	692.80
497.44	671.73
497.62	613.22
497.79	727.91
497.97	627.26
498.14	706.84
498.32	662.37
498.50	713.86
498.67	587.47
498.85	711.52
499.03	638.97
499.20	653.01
499.38	685.78
499.56	716.20
499.73	699.82
499.91	662.37
500.08	678.76
500.26	688.12
500.44	610.88
500.61	643.65
500.79	688.12
500.97	655.35
501.14	695.14
501.32	660.03
501.49	660.03
501.67	599.18
501.84	634.29
502.02	629.60
502.20	709.18
502.37	634.29
502.55	650.67
502.72	641.31
502.90	713.86
503.07	638.97
503.25	674.07
503.43	573.43
503.60	697.48
503.78	690.46
503.95	690.46
504.13	624.92
504.30	620.24
504.48	692.80
504.65	674.07
504.83	643.65
505.01	699.82
505.18	620.24
505.36	568.75
505.53	526.62
505.71	608.54
505.88	664.71
506.06	601.52
506.23	688.12
506.41	578.11
506.58	622.58
506.76	592.16
506.93	624.92
507.11	594.50
507.28	580.45
507.46	692.80
507.63	580.45
507.81	669.39
507.98	634.29
508.16	617.90
508.33	624.92
508.50	636.63
508.68	669.39
508.85	711.52
509.03	697.48
509.20	585.13
509.38	732.59
509.55	613.22
509.73	603.86
509.90	608.54
510.08	667.05
510.25	655.35
510.42	636.63
510.60	620.24
510.77	620.24
510.95	704.50
511.12	671.73
511.30	650.67
511.47	676.41
511.64	685.78
511.82	669.39
511.99	606.20
512.17	629.60
512.34	606.20
512.51	568.75
512.69	617.90
512.86	629.60
513.04	606.20
513.21	615.56
513.38	683.44
513.56	653.01
513.73	620.24
513.90	660.03
514.08	723.23
514.25	655.35
514.43	681.10
514.60	610.88
514.77	671.73
514.95	636.63
515.12	734.93
515.29	592.16
515.47	650.67
515.64	667.05
515.81	578.11
515.99	699.82
516.16	643.65
516.33	716.20
516.51	690.46
516.68	667.05
516.85	638.97
517.03	627.26
517.20	653.01
517.37	681.10
517.54	655.35
517.72	596.84
517.89	641.31
518.06	643.65
518.24	702.16
518.41	699.82
518.58	627.26
518.75	589.82
518.93	699.82
519.10	664.71
519.27	629.60
519.45	582.79
519.62	573.43
519.79	683.44
519.96	629.60
520.14	596.84
520.31	627.26
520.48	648.33
520.65	601.52
520.83	603.86
521.00	657.69
521.17	601.52
521.34	674.07
521.52	606.20
521.69	606.20
521.86	688.12
522.03	660.03
522.20	657.69
522.38	655.35
522.55	643.65
522.72	575.77
522.89	692.80
523.07	667.05
523.24	631.94
523.41	664.71
523.58	615.56
523.75	622.58
523.92	664.71
524.10	669.39
524.27	676.41
524.44	681.10
524.61	662.37
524.78	622.58
524.96	610.88
525.13	678.76
525.30	711.52
525.47	704.50
525.64	634.29
525.81	615.56
525.98	622.58
526.16	674.07
526.33	638.97
526.50	599.18
526.67	610.88
526.84	645.99
527.01	667.05
527.18	645.99
527.36	697.48
527.53	645.99
527.70	641.31
527.87	667.05
528.04	653.01
528.21	641.31
528.38	685.78
528.55	718.54
528.72	688.12
528.89	631.94
529.07	681.10
529.24	594.50
529.41	613.22
529.58	613.22
529.75	629.60
529.92	645.99
530.09	704.50
530.26	681.10
530.43	601.52
530.60	566.41
530.77	725.57
530.94	615.56
531.11	589.82
531.28	702.16
531.46	624.92
531.63	653.01
531.80	720.88
531.97	784.08
532.14	676.41
532.31	613.22
532.48	690.46
532.65	681.10
532.82	678.76
532.99	617.90
533.16	718.54
533.33	685.78
533.50	617.90
533.67	648.33
533.84	692.80
534.01	631.94
534.18	674.07
534.35	601.52
534.52	697.48
534.69	690.46
534.86	627.26
535.03	653.01
535.20	692.80
535.37	697.48
535.54	681.10
535.71	718.54
535.88	720.88
536.05	653.01
536.22	699.82
536.38	681.10
536.55	695.14
536.72	725.57
536.89	702.16
537.06	727.91
537.23	758.33
537.40	662.37
537.57	744.29
537.74	842.59
537.91	718.54
538.08	746.63
538.25	767.70
538.42	784.08
538.59	727.91
538.75	772.38
538.92	725.57
539.09	788.76
539.26	755.99
539.43	896.43
539.60	830.89
539.77	863.66
539.94	915.15
540.11	875.36
540.28	966.64
540.44	983.02
540.61	947.92
540.78	1102.39
540.95	1076.65
541.12	1139.84
541.29	1205.38
541.46	1280.27
541.62	1263.89
541.79	1294.32
541.96	1277.93
542.13	1170.27
542.30	1320.06
542.47	1231.12
542.63	1291.98
542.80	1217.08
542.97	1188.99
543.14	1205.38
543.31	1284.95
543.48	1296.66
543.64	1221.76
543.81	1186.65
543.98	1167.93
544.15	1247.51
544.32	1249.85
544.48	1235.80
544.65	1163.25
544.82	1247.51
544.99	1277.93
545.16	1217.08
545.32	1261.55
545.49	1558.80
545.66	1987.11
545.83	2218.83
546.00	2043.29
546.16	1673.48
546.33	1479.22
546.50	1380.92
546.67	1364.53
546.83	1062.60
547.00	1029.84
547.17	983.02
547.34	1006.43
547.50	999.41
547.67	947.92
547.84	915.15
548.00	887.06
548.17	1013.45
548.34	901.11
548.51	919.83
548.67	954.94
548.84	894.08
549.01	880.04
549.18	971.32
549.34	903.45
549.51	901.11
549.68	926.85
549.84	821.53
550.01	908.13
550.18	856.64
550.34	910.47
550.51	856.64
550.68	828.55
550.84	816.85
551.01	807.48
551.18	891.74
551.34	795.78
551.51	774.72
551.68	765.36
551.84	814.51
552.01	711.52
552.18	786.42
552.34	793.44
552.51	800.46
552.68	823.87
552.84	723.23
553.01	786.42
553.18	709.18
553.34	730.25
553.51	751.31
553.67	643.65
553.84	734.93
554.01	730.25
554.17	695.14
554.34	688.12
554.51	772.38
554.67	704.50
554.84	734.93
555.00	725.57
555.17	718.54
555.33	727.91
555.50	615.56
555.67	704.50
555.83	699.82
556.00	620.24
556.16	711.52
556.33	662.37
556.50	631.94
556.66	603.86
556.83	671.73
556.99	587.47
557.16	643.65
557.32	653.01
557.49	692.80
557.65	671.73
557.82	617.90
557.98	667.05
558.15	669.39
558.32	718.54
558.48	636.63
558.65	608.54
558.81	650.67
558.98	725.57
559.14	582.79
559.31	699.82
559.47	685.78
559.64	725.57
559.80	683.44
559.97	681.10
560.13	634.29
560.30	723.23
560.46	690.46
560.63	685.78
560.79	650.67
560.96	648.33
561.12	643.65
561.29	650.67
561.45	678.76
561.61	678.76
561.78	669.39
561.94	660.03
562.11	554.71
562.27	685.78
562.44	702.16
562.60	629.60
562.77	650.67
562.93	704.50
563.10	650.67
563.26	676.41
563.42	711.52
563.59	606.20
563.75	643.65
563.92	746.63
564.08	631.94
564.24	685.78
564.41	692.80
564.57	624.92
564.74	688.12
564.90	662.37
565.07	655.35
565.23	660.03
565.39	655.35
565.56	662.37
565.72	678.76
565.88	624.92
566.05	638.97
566.21	643.65
566.38	688.12
566.54	615.56
566.70	713.86
566.87	580.45
567.03	643.65
567.19	648.33
567.36	695.14
567.52	648.33
567.68	653.01
567.85	690.46
568.01	634.29
568.17	650.67
568.34	662.37
568.50	681.10
568.66	685.78
568.83	681.10
568.99	622.58
569.15	685.78
569.32	688.12
569.48	603.86
569.64	711.52
569.81	681.10
569.97	636.63
570.13	552.37
570.30	638.97
570.46	650.67
570.62	657.69
570.78	629.60
570.95	566.41
571.11	610.88
571.27	716.20
571.43	594.50
571.60	660.03
571.76	631.94
571.92	643.65
572.09	645.99
572.25	653.01
572.41	760.67
572.57	650.67
572.74	671.73
572.90	709.18
573.06	713.86
573.22	711.52
573.38	653.01
573.55	706.84
573.71	660.03
573.87	636.63
574.03	606.20
574.20	674.07
574.36	648.33
574.52	674.07
574.68	599.18
574.84	648.33
575.01	648.33
575.17	674.07
575.33	594.50
575.49	629.60
575.65	662.37
575.82	737.27
575.98	727.91
576.14	610.88
576.30	636.63
576.46	795.78
576.62	863.66
576.79	894.08
576.95	842.59
577.11	835.57
577.27	737.27
577.43	739.61
577.59	706.84
577.75	697.48
577.92	664.71
578.08	662.37
578.24	655.35
578.40	718.54
578.56	840.25
578.72	814.51
578.88	919.83
579.04	912.81
579.21	814.51
579.37	763.01
579.53	840.25
579.69	823.87
579.85	741.95
580.01	755.99
580.17	772.38
580.33	800.46
580.49	753.65
580.65	772.38
580.82	770.04
580.98	657.69
581.14	641.31
581.30	800.46
581.46	725.57
581.62	777.06
581.78	812.17
581.94	809.83
582.10	730.25
582.26	786.42
582.42	767.70
582.58	739.61
582.74	772.38
582.90	685.78
583.06	821.53
583.22	828.55
583.38	791.10
583.54	812.17
583.70	875.36
583.86	791.10
584.02	753.65
584.18	819.19
584.34	788.76
584.50	779.40
584.66	802.80
584.82	763.01
584.98	688.12
585.14	711.52
585.30	763.01
585.46	837.91
585.62	727.91
585.78	765.36
585.94	798.12
586.10	770.04
586.26	755.99
586.42	816.85
586.58	866.00
586.74	819.19
586.90	889.40
587.06	915.15
587.22	821.53
587.38	821.53
587.54	844.93
587.70	875.36
587.86	851.96
588.02	760.67
588.18	751.31
588.34	772.38
588.49	695.14
588.65	695.14
588.81	798.12
588.97	746.63
589.13	760.67
589.29	734.93
589.45	760.67
589.61	678.76
589.77	664.71
589.93	711.52
590.08	765.36
590.24	763.01
590.40	732.59
590.56	760.67
590.72	746.63
590.88	730.25
591.04	737.27
591.20	765.36
591.35	763.01
591.51	692.80
591.67	709.18
591.83	690.46
591.99	711.52
592.15	835.57
592.31	720.88
592.46	765.36
592.62	812.17
592.78	840.25
592.94	812.17
593.10	800.46
593.26	828.55
593.41	770.04
593.57	772.38
593.73	774.72
593.89	807.48
594.05	737.27
594.20	697.48
594.36	718.54
594.52	683.44
594.68	746.63
594.84	706.84
594.99	725.57
595.15	713.86
595.31	667.05
595.47	739.61
595.62	690.46
595.78	662.37
595.94	737.27
596.10	622.58
596.25	629.60
596.41	741.95
596.57	669.39
596.73	674.07
596.88	727.91
597.04	648.33
597.20	709.18
597.36	681.10
597.51	683.44
597.67	709.18
597.83	730.25
597.99	753.65
598.14	671.73
598.30	723.23
598.46	702.16
598.61	720.88
598.77	741.95
598.93	723.23
599.09	716.20
599.24	788.76
599.40	777.06
599.56	695.14
599.71	840.25
599.87	821.53
600.03	697.48
600.18	737.27
600.34	737.27
600.50	713.86
600.65	695.14
600.81	760.67
600.97	711.52
601.12	720.88
601.28	744.29
601.44	695.14
601.59	634.29
601.75	655.35
601.91	589.82
602.06	683.44
602.22	711.52
602.37	629.60
602.53	692.80
602.69	664.71
602.84	662.37
603.00	669.39
603.16	641.31
603.31	709.18
603.47	660.03
603.62	585.13
603.78	727.91
603.94	706.84
604.09	709.18
604.25	730.25
604.40	692.80
604.56	697.48
604.71	713.86
604.87	669.39
605.03	664.71
605.18	711.52
605.34	727.91
605.49	716.20
605.65	662.37
605.80	678.76
605.96	636.63
606.12	643.65
606.27	755.99
606.43	697.48
606.58	664.71
606.74	634.29
606.89	739.61
607.05	695.14
607.20	727.91
607.36	720.88
607.51	746.63
607.67	760.67
607.82	695.14
607.98	706.84
608.13	814.51
608.29	730.25
608.44	784.08
608.60	723.23
608.75	781.74
608.91	812.17
609.06	931.53
609.22	854.30
609.37	849.61
609.53	929.19
609.68	837.91
