SpectraSuite Data File
++++++++++++++++++++++++++++++++++++
Date: Thu Oct 24 13:21:39 EDT 2013
User: stostad
Dark Spectrum Present: No
Reference Spectrum Present: No
Number of Sampled Component Spectra: 1
Spectrometers: USB2+H05261
Integration Time (usec): 100000 (USB2+H05261)
Spectra Averaged: 1 (USB2+H05261)
Boxcar Smoothing: 0 (USB2+H05261)
Correct for Electrical Dark: No (USB2+H05261)
Strobe/Lamp Enabled: No (USB2+H05261)
Correct for Detector Non-linearity: No (USB2+H05261)
Correct for Stray Light: No (USB2+H05261)
Number of Pixels in Processed Spectrum: 2048
>>>>>Begin Processed Spectral Data<<<<<
365.73	510.24
365.92	510.24
366.12	510.24
366.32	491.51
366.52	430.66
366.72	435.34
366.91	451.72
367.11	430.66
367.31	461.09
367.51	468.11
367.70	451.72
367.90	489.17
368.10	449.38
368.30	444.70
368.49	507.90
368.69	491.51
368.89	479.81
369.09	561.73
369.28	573.43
369.48	533.64
369.68	465.77
369.87	552.37
370.07	582.79
370.27	610.88
370.47	706.84
370.66	1254.53
370.86	1184.31
371.06	1371.55
371.25	1273.25
371.45	1303.68
371.65	1287.29
371.84	1313.04
372.04	1287.29
372.24	1369.21
372.44	1399.64
372.63	1416.02
372.83	1434.75
373.03	1444.11
373.22	1451.13
373.42	1409.00
373.62	1476.88
373.81	1472.20
374.01	1533.05
374.21	1528.37
374.40	1551.78
374.60	1509.65
374.79	1570.50
374.99	1540.07
375.19	1607.95
375.38	1636.03
375.58	1540.07
375.78	1692.21
375.97	1591.56
376.17	1629.01
376.37	1547.09
376.56	1666.46
376.76	1612.63
376.95	1570.50
377.15	1668.80
377.35	1612.63
377.54	1617.31
377.74	1678.16
377.93	1650.08
378.13	1689.87
378.33	1724.97
378.52	1675.82
378.72	1774.13
378.91	1825.62
379.11	1818.60
379.31	1762.42
379.50	1827.96
379.70	1771.79
379.89	1743.70
380.09	1820.94
380.28	1785.83
380.48	1863.07
380.68	1900.52
380.87	1818.60
381.07	1839.66
381.26	1912.22
381.46	1980.09
381.65	1905.20
381.85	1888.81
382.04	1900.52
382.24	1898.17
382.43	1963.71
382.63	1982.43
382.83	2010.52
383.02	1980.09
383.22	2001.16
383.41	2022.22
383.61	2031.58
383.80	2078.40
384.00	1989.46
384.19	2080.74
384.39	2040.95
384.58	2099.46
384.78	2148.61
384.97	2139.25
385.17	2092.44
385.36	2200.10
385.56	2167.34
385.75	2197.76
385.95	2153.29
386.14	2190.74
386.34	2069.03
386.53	2148.61
386.72	2230.53
386.92	2286.70
387.11	2221.17
387.31	2249.25
387.50	2232.87
387.70	2296.07
387.89	2235.21
388.09	2275.00
388.28	2218.83
388.48	2370.96
388.67	2326.49
388.86	2310.11
389.06	2380.32
389.25	2420.11
389.45	2539.48
389.64	2495.01
389.84	2485.65
390.03	2420.11
390.22	2513.74
390.42	2424.80
390.61	2415.43
390.81	2605.02
391.00	2499.69
391.19	2544.16
391.39	2527.78
391.58	2679.91
391.78	2715.02
391.97	2597.99
392.16	2677.57
392.36	2663.53
392.55	2579.27
392.75	2679.91
392.94	2593.31
393.13	2670.55
393.33	2773.53
393.52	2801.62
393.71	2754.81
393.91	2825.03
394.10	2761.83
394.29	2785.24
394.49	2703.32
394.68	2972.48
394.88	2946.73
395.07	2963.12
395.26	2993.55
395.46	2909.29
395.65	2995.89
395.84	3023.97
396.04	2967.80
396.23	3094.19
396.42	3007.59
396.62	3091.85
396.81	3131.64
397.00	3211.22
397.19	3194.83
397.39	3194.83
397.58	3087.17
397.77	3164.40
397.97	3110.57
398.16	3215.90
398.35	3288.45
398.55	3166.74
398.74	3222.92
398.93	3262.71
399.12	3276.75
399.32	3300.16
399.51	3290.79
399.70	3281.43
399.90	3346.97
400.09	3487.40
400.28	3398.46
400.47	3382.07
400.67	3478.04
400.86	3351.65
401.05	3475.70
401.24	3559.95
401.44	3588.04
401.63	3698.05
401.82	3627.83
402.01	3637.19
402.21	3597.40
402.40	3726.13
402.59	3714.43
402.78	3777.62
402.97	3892.31
403.17	3826.78
403.36	3882.95
403.55	3894.65
403.74	3981.25
403.93	3934.44
404.13	4028.06
404.32	3971.89
404.51	3962.53
404.70	4037.42
404.89	3969.55
405.09	4107.64
405.28	4140.41
405.47	4098.28
405.66	4236.37
405.85	4182.54
406.05	4147.43
406.24	4290.20
406.43	4133.39
406.62	4243.39
406.81	4383.82
407.00	4234.03
407.20	4306.59
407.39	4243.39
407.58	4451.70
407.77	4390.84
407.96	4552.34
408.15	4610.86
408.34	4472.76
408.54	4615.54
408.73	4500.85
408.92	4582.77
409.11	4669.37
409.30	4716.18
409.49	4660.01
409.68	4798.10
409.87	4734.90
410.07	4861.29
410.26	4873.00
410.45	4844.91
410.64	4961.94
410.83	5067.26
411.02	4968.96
411.21	5055.56
411.40	5088.32
411.59	5275.57
411.78	5102.37
411.98	5125.77
412.17	5270.89
412.36	5238.12
412.55	5399.62
412.74	5313.02
412.93	5291.95
413.12	5291.95
413.31	5572.82
413.50	5554.09
413.69	5589.20
413.88	5734.31
414.07	5769.42
414.26	5753.04
414.45	5659.42
414.64	5888.79
414.83	6024.54
415.02	5874.74
415.22	5940.28
415.41	6115.82
415.60	6066.67
415.79	6057.31
415.98	6298.38
416.17	6202.42
416.36	6146.25
416.55	6272.64
416.74	6427.11
416.93	6401.37
417.12	6473.92
417.31	6621.38
417.50	6651.80
417.69	6675.21
417.88	6820.32
418.07	6642.44
418.26	6722.02
418.45	6729.04
418.64	6853.09
418.83	6890.54
419.02	6942.03
419.21	7066.08
419.39	7098.84
419.58	7019.27
419.77	7091.82
419.96	7225.23
420.15	7164.38
420.34	6972.46
420.53	6986.50
420.72	7253.32
420.91	7260.34
421.10	7414.82
421.29	7281.41
421.48	7365.67
421.67	7311.83
421.86	7375.03
422.05	7386.73
422.24	7435.88
422.43	7508.44
422.61	7602.06
422.80	7662.91
422.99	7623.12
423.18	7644.19
423.37	7611.42
423.56	7882.92
423.75	7630.15
423.94	7482.69
424.13	7084.80
424.32	7248.64
424.50	7648.87
424.69	7960.16
424.88	7803.35
425.07	7630.15
425.26	7648.87
425.45	7730.79
425.64	7662.91
425.83	7555.25
426.01	7728.45
426.20	7721.43
426.39	7864.20
426.58	7716.75
426.77	7847.82
426.96	7962.50
427.15	7845.48
427.33	7822.07
427.52	7950.80
427.71	7929.74
427.90	7925.05
428.09	8205.92
428.28	8322.94
428.46	8224.64
428.65	8285.50
428.84	8395.50
429.03	8290.18
429.22	8133.36
429.40	8421.25
429.59	8311.24
429.78	8098.25
429.97	8184.85
430.16	8273.79
430.34	8723.18
430.53	8662.32
430.72	8704.45
430.91	8643.60
431.10	8762.97
431.28	8802.75
431.47	8725.52
431.66	8947.87
431.85	8915.10
432.03	9032.13
432.22	9062.55
432.41	9062.55
432.60	9104.68
432.79	9146.81
432.97	9149.15
433.16	9298.95
433.35	9078.94
433.54	9158.52
433.72	9357.46
433.91	9423.00
434.10	9476.83
434.28	9385.55
434.47	9217.03
434.66	9467.47
434.85	9645.35
435.03	9804.50
435.22	9776.42
435.41	10064.30
435.59	9886.42
435.78	9968.34
435.97	10200.05
436.16	9844.29
436.34	9942.60
436.53	10012.81
436.72	10157.92
436.90	10068.98
437.09	10101.75
437.28	10106.43
437.46	10092.39
437.65	10377.94
437.84	10125.16
438.02	10450.49
438.21	10471.56
438.40	10377.94
438.58	10443.47
438.77	10668.16
438.96	10705.61
439.14	11143.29
439.33	10998.18
439.52	11124.57
439.70	11173.72
439.89	11166.70
440.08	11225.21
440.26	11293.08
440.45	11272.02
440.63	11438.20
440.82	11772.89
441.01	11508.41
441.19	11651.19
441.38	11808.00
441.57	11761.19
441.75	11815.02
441.94	12369.73
442.12	12226.96
442.31	12259.73
442.50	12329.94
442.68	12060.78
442.87	12442.29
443.05	12250.36
443.24	12552.29
443.43	12676.34
443.61	12489.10
443.80	12889.33
443.98	12425.90
444.17	12191.85
444.35	12233.98
444.54	12973.59
444.73	12659.96
444.91	12526.55
445.10	12973.59
445.28	12989.97
445.47	12861.24
445.65	12915.08
445.84	12940.82
446.02	12964.23
446.21	12744.22
446.39	12737.20
446.58	12826.14
446.77	13191.26
446.95	12603.78
447.14	12849.54
447.32	13060.19
447.51	12999.34
447.69	12774.64
447.88	13273.18
448.06	13078.91
448.25	12980.61
448.43	13050.83
448.62	13186.58
448.80	13074.23
448.99	13254.45
449.17	13434.68
449.36	13078.91
449.54	13467.44
449.73	13816.18
449.91	13867.67
450.10	13755.33
450.28	13811.50
450.46	14043.21
450.65	13958.96
450.83	13951.93
451.02	13984.70
451.20	14148.54
451.39	13984.70
451.57	14136.84
451.76	13832.57
451.94	13944.91
452.13	14185.99
452.31	14232.80
452.49	14204.71
452.68	14211.73
452.86	14363.87
453.05	14324.08
453.23	14562.81
453.42	14438.76
453.60	14134.50
453.78	14527.71
453.97	14581.54
454.15	14345.14
454.34	14548.77
454.52	14911.55
454.70	15105.82
454.89	14977.09
455.07	15068.37
455.26	15101.14
455.44	15192.42
455.62	15255.61
455.81	15452.22
455.99	15351.57
456.17	15386.68
456.36	15719.04
456.54	15562.22
456.73	15747.12
456.91	15932.03
457.09	15925.00
457.28	16425.88
457.46	15728.40
457.64	16395.45
457.83	16325.24
458.01	15941.39
458.19	16404.81
458.38	16229.27
458.56	16800.37
458.74	16709.08
458.93	16404.81
459.11	16568.65
459.29	16624.83
459.48	16760.58
459.66	16734.83
459.84	16975.91
460.03	16886.97
460.21	17083.57
460.39	16987.61
460.57	16989.95
460.76	17029.74
460.94	17511.89
461.12	17369.12
461.31	17350.39
461.49	17174.85
461.67	17319.96
461.85	17638.28
462.04	17493.16
462.22	17795.09
462.40	18122.77
462.59	17490.82
462.77	17738.92
462.95	18162.56
463.13	17830.20
463.32	17961.27
463.50	18078.30
463.68	18356.82
463.86	18125.11
464.05	18090.00
464.23	18099.36
464.41	18515.98
464.59	18082.98
464.78	18827.27
464.96	18497.25
465.14	18298.31
465.32	18387.25
465.50	18583.85
465.69	18670.45
465.87	18696.20
466.05	18717.26
466.23	18813.23
466.41	19274.31
466.60	19353.89
466.78	19194.73
466.96	18890.46
467.14	18946.64
467.32	19407.72
467.51	19311.76
467.69	18963.02
467.87	19030.90
468.05	19278.99
468.23	18855.36
468.41	19421.77
468.60	19522.41
468.78	19508.37
468.96	19503.68
469.14	19798.59
469.32	20369.68
469.50	19702.63
469.69	20121.59
469.87	20058.39
470.05	20126.27
470.23	20538.20
470.41	20343.94
470.59	20442.24
470.77	20453.94
470.95	20580.33
471.14	21106.95
471.32	20432.88
471.50	20851.83
471.68	20982.90
471.86	20999.29
472.04	21057.80
472.22	21858.26
472.40	20837.79
472.58	21289.51
472.77	21504.84
472.95	21750.60
473.13	22515.95
473.31	21984.65
473.49	22153.17
473.67	22195.30
473.85	22370.84
474.03	22448.08
474.21	22864.69
474.39	22632.98
474.57	23091.73
474.75	23089.38
474.93	23367.91
475.12	23157.26
475.30	23555.15
475.48	23419.40
475.66	23620.69
475.84	23688.56
476.02	23948.36
476.20	24121.56
476.38	24311.14
476.56	24903.30
476.74	24959.47
476.92	24856.49
477.10	24320.51
477.28	25165.44
477.46	25219.27
477.64	25383.11
477.82	25570.35
478.00	26113.36
478.18	26040.80
478.36	26588.49
478.54	26464.44
478.72	26441.03
478.90	26752.32
479.08	27213.41
479.26	27763.43
479.44	27536.40
479.62	27999.83
479.80	28065.36
479.98	27927.27
480.16	28659.86
480.34	28463.25
480.52	29181.80
480.70	29205.20
480.88	28678.58
481.06	29237.97
481.24	29481.39
481.41	29743.53
481.59	29961.20
481.77	30426.96
481.95	30916.14
482.13	30967.63
482.31	30742.94
482.49	31381.90
482.67	31215.72
482.85	31693.19
483.03	31751.71
483.21	32465.57
483.39	32720.69
483.57	32500.68
483.74	32858.78
483.92	33408.81
484.10	33102.20
484.28	33692.01
484.46	34506.52
484.64	34653.97
484.82	33951.81
485.00	34693.76
485.18	35103.35
485.35	35943.61
485.53	35791.47
485.71	36027.87
485.89	36631.72
486.07	36264.26
486.25	36645.77
486.43	36566.19
486.61	37046.00
486.78	37490.70
486.96	38106.26
487.14	37947.11
487.32	38855.23
487.50	38377.76
487.68	39054.18
487.85	39302.28
488.03	39667.40
488.21	40526.38
488.39	39849.96
488.57	40727.66
488.75	40840.01
488.92	41158.32
489.10	41514.08
489.28	41612.38
489.46	42146.03
489.64	41839.42
489.81	42780.31
489.99	42993.30
490.17	42569.66
490.35	44009.09
490.53	43817.17
490.70	44215.06
490.88	43330.34
491.06	44472.52
491.24	44121.44
491.41	44582.52
491.59	45497.67
491.77	45289.37
491.95	45425.12
492.13	45855.78
492.30	46244.30
492.48	46183.45
492.66	46436.23
492.84	46590.70
493.01	47065.83
493.19	47264.78
493.37	47840.55
493.54	47643.94
493.72	48133.12
493.90	47894.38
494.08	48669.10
494.25	48942.94
494.43	49237.85
494.61	49223.81
494.79	49698.94
494.96	49462.54
495.14	49811.28
495.32	50213.85
495.49	50408.12
495.67	50305.13
495.85	50965.17
496.02	50777.92
496.20	50827.07
496.38	51171.13
496.55	51381.78
496.73	52006.70
496.91	51690.73
497.09	51821.80
497.26	52233.74
497.44	51924.78
497.62	52425.66
497.79	52547.37
497.97	52828.23
498.14	52968.66
498.32	53378.26
498.50	53202.72
498.67	53535.07
498.85	53291.66
499.03	53595.93
499.20	53736.36
499.38	54148.29
499.56	54096.80
499.73	54321.49
499.91	54326.17
500.08	54504.06
500.26	54148.29
500.44	54674.91
500.61	54960.46
500.79	54663.21
500.97	54934.71
501.14	55323.24
501.32	55231.96
501.49	55330.26
501.67	55557.30
501.84	55913.06
502.02	55796.03
502.20	55845.18
502.37	55831.14
502.55	55819.44
502.72	56027.74
502.90	56353.08
503.07	56226.69
503.25	56222.01
503.43	56254.78
503.60	56626.92
503.78	56774.37
503.95	56568.41
504.13	56999.07
504.30	57038.86
504.48	56743.95
504.65	57041.20
504.83	57586.54
505.01	57359.51
505.18	57396.96
505.36	57736.34
505.53	57380.57
505.71	57593.56
505.88	57951.66
506.06	57722.29
506.23	58117.84
506.41	57844.00
506.58	58159.97
506.76	58052.31
506.93	58394.03
507.11	58389.34
507.28	58534.46
507.46	58628.08
507.63	58616.38
507.81	58808.30
507.98	58424.45
508.16	58838.73
508.33	58693.61
508.50	59004.91
508.68	59283.43
508.85	59236.62
509.03	59297.47
509.20	59370.03
509.38	59522.16
509.55	59451.95
509.73	59774.94
509.90	59751.54
510.08	59742.17
510.25	59660.26
510.42	59714.09
510.60	59863.88
510.77	59791.33
510.95	60376.46
511.12	60203.26
511.30	60383.48
511.47	60371.78
511.64	60360.08
511.82	60605.83
511.99	60381.14
512.17	60544.98
512.34	60659.66
512.51	61006.06
512.69	61200.33
512.86	60889.04
513.04	61141.81
513.21	61013.08
513.38	61148.84
513.56	61017.77
513.73	61006.06
513.90	61542.05
514.08	61186.28
514.25	61572.47
514.43	61401.61
514.60	61464.81
514.77	61408.64
514.95	61715.25
515.12	61593.54
515.29	61790.14
515.47	61811.21
515.64	62017.17
515.81	62052.28
515.99	62007.81
516.16	61907.17
516.33	62129.52
516.51	62253.57
516.68	62145.90
516.85	62363.57
517.03	62635.08
517.20	62431.45
517.37	62272.29
517.54	62628.05
517.72	62394.00
517.89	62614.01
518.06	62731.04
518.24	62745.08
518.41	62665.50
518.58	62756.78
518.75	62721.68
518.93	62955.73
519.10	62747.42
519.27	63023.61
519.45	63051.69
519.62	63288.09
519.79	63245.96
519.96	63391.07
520.14	63288.09
520.31	63126.59
520.48	63428.52
520.65	63426.18
520.83	63702.36
521.00	63730.45
521.17	63683.64
521.34	63655.55
521.52	63877.90
521.69	63746.83
521.86	63803.00
522.03	63929.39
522.20	64083.87
522.38	64221.96
522.55	64186.85
522.72	64193.87
522.89	64156.42
523.07	64250.05
523.24	64158.76
523.41	64446.65
523.58	64236.00
523.75	64559.00
523.92	64437.29
524.10	64818.80
524.27	64767.30
524.44	64598.79
524.61	64830.50
524.78	64732.20
524.96	64629.21
525.13	64797.73
525.30	64961.57
525.47	65176.90
525.64	64973.27
525.81	65094.98
525.98	65013.06
526.16	65066.89
526.33	65064.55
526.50	65424.99
526.67	65284.56
526.84	65488.19
527.01	65530.32
527.18	65518.62
527.36	65312.65
527.53	65293.92
527.70	65535.00
527.87	65535.00
528.04	65535.00
528.21	65535.00
528.38	65535.00
528.55	65535.00
528.72	65535.00
528.89	65535.00
529.07	65509.25
529.24	65535.00
529.41	65535.00
529.58	65535.00
529.75	65535.00
529.92	65535.00
530.09	65535.00
530.26	65535.00
530.43	65535.00
530.60	65535.00
530.77	65535.00
530.94	65535.00
531.11	65535.00
531.28	65535.00
531.46	65535.00
531.63	65535.00
531.80	65535.00
531.97	65535.00
532.14	65535.00
532.31	65535.00
532.48	65535.00
532.65	65535.00
532.82	65535.00
532.99	65535.00
533.16	65535.00
533.33	65535.00
533.50	65535.00
533.67	65535.00
533.84	65535.00
534.01	65535.00
534.18	65535.00
534.35	65535.00
534.52	65535.00
534.69	65535.00
534.86	65535.00
535.03	65535.00
535.20	65535.00
535.37	65535.00
535.54	65535.00
535.71	65535.00
535.88	65535.00
536.05	65535.00
536.22	65535.00
536.38	65535.00
536.55	65535.00
536.72	65535.00
536.89	65535.00
537.06	65535.00
537.23	65535.00
537.40	65535.00
537.57	65535.00
537.74	65535.00
537.91	65535.00
538.08	65535.00
538.25	65535.00
538.42	65535.00
538.59	65535.00
538.75	65535.00
538.92	65535.00
539.09	65535.00
539.26	65535.00
539.43	65535.00
539.60	65535.00
539.77	65535.00
539.94	65535.00
540.11	65535.00
540.28	65535.00
540.44	65535.00
540.61	65535.00
540.78	65535.00
540.95	65535.00
541.12	65535.00
541.29	65535.00
541.46	65535.00
541.62	65535.00
541.79	65535.00
541.96	65535.00
542.13	65535.00
542.30	65535.00
542.47	65535.00
542.63	65535.00
542.80	65535.00
542.97	65535.00
543.14	65535.00
543.31	65535.00
543.48	65535.00
543.64	65535.00
543.81	65535.00
543.98	65535.00
544.15	65535.00
544.32	65535.00
544.48	65535.00
544.65	65535.00
544.82	65535.00
544.99	65535.00
545.16	65535.00
545.32	65535.00
545.49	65535.00
545.66	65535.00
545.83	65535.00
546.00	65535.00
546.16	65535.00
546.33	65535.00
546.50	65535.00
546.67	65535.00
546.83	65535.00
547.00	65535.00
547.17	65535.00
547.34	65535.00
547.50	65535.00
547.67	65535.00
547.84	65535.00
548.00	65535.00
548.17	65535.00
548.34	65535.00
548.51	65535.00
548.67	65535.00
548.84	65535.00
549.01	65535.00
549.18	65535.00
549.34	65535.00
549.51	65535.00
549.68	65535.00
549.84	65535.00
550.01	65535.00
550.18	65535.00
550.34	65535.00
550.51	65535.00
550.68	65535.00
550.84	65535.00
551.01	65535.00
551.18	65535.00
551.34	65535.00
551.51	65535.00
551.68	65535.00
551.84	65535.00
552.01	65535.00
552.18	65535.00
552.34	65535.00
552.51	65535.00
552.68	65535.00
552.84	65535.00
553.01	65535.00
553.18	65535.00
553.34	65535.00
553.51	65535.00
553.67	65535.00
553.84	65535.00
554.01	65535.00
554.17	65535.00
554.34	65535.00
554.51	65535.00
554.67	65535.00
554.84	65535.00
555.00	65535.00
555.17	65535.00
555.33	65535.00
555.50	65535.00
555.67	65535.00
555.83	65535.00
556.00	65535.00
556.16	65535.00
556.33	65535.00
556.50	65535.00
556.66	65535.00
556.83	65535.00
556.99	65535.00
557.16	65535.00
557.32	65535.00
557.49	65535.00
557.65	65535.00
557.82	65535.00
557.98	65535.00
558.15	65535.00
558.32	65535.00
558.48	65535.00
558.65	65535.00
558.81	65535.00
558.98	65535.00
559.14	65535.00
559.31	65535.00
559.47	65535.00
559.64	65535.00
559.80	65535.00
559.97	65535.00
560.13	65535.00
560.30	65535.00
560.46	65535.00
560.63	65535.00
560.79	65535.00
560.96	65535.00
561.12	65535.00
561.29	65535.00
561.45	65535.00
561.61	65535.00
561.78	65535.00
561.94	65535.00
562.11	65535.00
562.27	65535.00
562.44	65535.00
562.60	65535.00
562.77	65535.00
562.93	65535.00
563.10	65535.00
563.26	65535.00
563.42	65535.00
563.59	65535.00
563.75	65535.00
563.92	65535.00
564.08	65535.00
564.24	65535.00
564.41	65535.00
564.57	65535.00
564.74	65535.00
564.90	65535.00
565.07	65535.00
565.23	65535.00
565.39	65535.00
565.56	65535.00
565.72	65535.00
565.88	65535.00
566.05	65535.00
566.21	65535.00
566.38	65535.00
566.54	65535.00
566.70	65535.00
566.87	65535.00
567.03	65535.00
567.19	65535.00
567.36	65535.00
567.52	65535.00
567.68	65535.00
567.85	65535.00
568.01	65535.00
568.17	65535.00
568.34	65535.00
568.50	65535.00
568.66	65535.00
568.83	65535.00
568.99	65535.00
569.15	65535.00
569.32	65535.00
569.48	65535.00
569.64	65535.00
569.81	65535.00
569.97	65535.00
570.13	65535.00
570.30	65535.00
570.46	65535.00
570.62	65535.00
570.78	65535.00
570.95	65535.00
571.11	65535.00
571.27	65535.00
571.43	65535.00
571.60	65535.00
571.76	65535.00
571.92	65535.00
572.09	65535.00
572.25	65535.00
572.41	65535.00
572.57	65535.00
572.74	65535.00
572.90	65535.00
573.06	65535.00
573.22	65535.00
573.38	65535.00
573.55	65535.00
573.71	65535.00
573.87	65535.00
574.03	65535.00
574.20	65535.00
574.36	65535.00
574.52	65535.00
574.68	65535.00
574.84	65535.00
575.01	65535.00
575.17	65535.00
575.33	65535.00
575.49	65535.00
575.65	65535.00
575.82	65535.00
575.98	65535.00
576.14	65535.00
576.30	65535.00
576.46	65535.00
576.62	65535.00
576.79	65535.00
576.95	65535.00
577.11	65535.00
577.27	65535.00
577.43	65535.00
577.59	65535.00
577.75	65535.00
577.92	65535.00
578.08	65535.00
578.24	65535.00
578.40	65535.00
578.56	65535.00
578.72	65535.00
578.88	65535.00
579.04	65535.00
579.21	65535.00
579.37	65535.00
579.53	65535.00
579.69	65535.00
579.85	65535.00
580.01	65535.00
580.17	65535.00
580.33	65535.00
580.49	65535.00
580.65	65535.00
580.82	65535.00
580.98	65535.00
581.14	65535.00
581.30	65535.00
581.46	65535.00
581.62	65535.00
581.78	65535.00
581.94	65535.00
582.10	65535.00
582.26	65535.00
582.42	65535.00
582.58	65535.00
582.74	65535.00
582.90	65535.00
583.06	65535.00
583.22	65535.00
583.38	65535.00
583.54	65535.00
583.70	65535.00
583.86	65535.00
584.02	65535.00
584.18	65535.00
584.34	65535.00
584.50	65535.00
584.66	65535.00
584.82	65535.00
584.98	65535.00
585.14	65535.00
585.30	65535.00
585.46	65535.00
585.62	65535.00
585.78	65535.00
585.94	65535.00
586.10	65535.00
586.26	65535.00
586.42	65535.00
586.58	65535.00
586.74	65535.00
586.90	65535.00
