SpectraSuite Data File
++++++++++++++++++++++++++++++++++++
Date: Thu Oct 24 13:21:28 EDT 2013
User: stostad
Dark Spectrum Present: No
Reference Spectrum Present: No
Number of Sampled Component Spectra: 1
Spectrometers: USB2+H05261
Integration Time (usec): 100000 (USB2+H05261)
Spectra Averaged: 1 (USB2+H05261)
Boxcar Smoothing: 0 (USB2+H05261)
Correct for Electrical Dark: No (USB2+H05261)
Strobe/Lamp Enabled: No (USB2+H05261)
Correct for Detector Non-linearity: No (USB2+H05261)
Correct for Stray Light: No (USB2+H05261)
Number of Pixels in Processed Spectrum: 2048
>>>>>Begin Processed Spectral Data<<<<<
365.73	580.45
365.92	580.45
366.12	580.45
366.32	489.17
366.52	477.47
366.72	472.79
366.91	472.79
367.11	519.60
367.31	395.55
367.51	428.32
367.70	507.90
367.90	496.19
368.10	400.23
368.30	435.34
368.49	468.11
368.69	463.43
368.89	519.60
369.09	510.24
369.28	451.72
369.48	461.09
369.68	500.87
369.87	533.64
370.07	533.64
370.27	550.03
370.47	697.48
370.66	959.62
370.86	1020.47
371.06	1034.52
371.25	1029.84
371.45	1036.86
371.65	990.05
371.84	1048.56
372.04	1153.88
372.24	1086.01
372.44	1095.37
372.63	1156.22
372.83	1111.75
373.03	1186.65
373.22	1109.41
373.42	1076.65
373.62	1139.84
373.81	1123.46
374.01	1191.33
374.21	1191.33
374.40	1259.21
374.60	1231.12
374.79	1228.78
374.99	1322.40
375.19	1254.53
375.38	1249.85
375.58	1282.61
375.78	1268.57
375.97	1299.00
376.17	1219.42
376.37	1299.00
376.56	1277.93
376.76	1224.10
376.95	1348.15
377.15	1196.01
377.35	1308.36
377.54	1221.76
377.74	1221.76
377.93	1315.38
378.13	1268.57
378.33	1317.72
378.52	1380.92
378.72	1385.60
378.91	1287.29
379.11	1301.34
379.31	1355.17
379.50	1345.81
379.70	1369.21
379.89	1378.58
380.09	1430.07
380.28	1387.94
380.48	1352.83
380.68	1369.21
380.87	1397.30
381.07	1373.89
381.26	1526.03
381.46	1446.45
381.65	1523.69
381.85	1544.75
382.04	1458.15
382.24	1387.94
382.43	1348.15
382.63	1469.86
382.83	1413.68
383.02	1455.81
383.22	1474.54
383.41	1579.86
383.61	1458.15
383.80	1514.33
384.00	1556.46
384.19	1481.56
384.39	1530.71
384.58	1563.48
384.78	1526.03
384.97	1554.12
385.17	1586.88
385.36	1523.69
385.56	1614.97
385.75	1575.18
385.95	1605.61
386.14	1624.33
386.34	1650.08
386.53	1661.78
386.72	1626.67
386.92	1605.61
387.11	1689.87
387.31	1678.16
387.50	1673.48
387.70	1638.38
387.89	1687.53
388.09	1703.91
388.28	1717.95
388.48	1785.83
388.67	1746.04
388.86	1715.61
389.06	1788.17
389.25	1675.82
389.45	1811.57
389.64	1851.36
389.84	1781.15
390.03	1856.04
390.22	1930.94
390.42	1832.64
390.61	1844.34
390.81	1764.76
391.00	1748.38
391.19	1966.05
391.39	1916.90
391.58	1961.37
391.78	1872.43
391.97	1893.49
392.16	1973.07
392.36	1937.96
392.55	1996.48
392.75	2001.16
392.94	2008.18
393.13	1954.35
393.33	1919.24
393.52	1980.09
393.71	2073.71
393.91	2003.50
394.10	2047.97
394.29	2120.53
394.49	2087.76
394.68	2054.99
394.88	2076.06
395.07	2216.49
395.26	2300.75
395.46	2111.16
395.65	2216.49
395.84	2139.25
396.04	2228.19
396.23	2228.19
396.42	2181.38
396.62	2239.89
396.81	2237.55
397.00	2237.55
397.19	2265.64
397.39	2251.60
397.58	2223.51
397.77	2406.07
397.97	2448.20
398.16	2375.64
398.35	2356.92
398.55	2354.58
398.74	2349.90
398.93	2443.52
399.12	2487.99
399.32	2473.95
399.51	2431.82
399.70	2579.27
399.90	2478.63
400.09	2609.70
400.28	2438.84
400.47	2572.25
400.67	2633.10
400.86	2609.70
401.05	2593.31
401.24	2672.89
401.44	2644.81
401.63	2761.83
401.82	2740.77
402.01	2630.76
402.21	2614.38
402.40	2708.00
402.59	2712.68
402.78	2773.53
402.97	2925.67
403.17	2778.22
403.36	2832.05
403.55	2869.50
403.74	2806.30
403.93	2930.35
404.13	2958.44
404.32	2944.39
404.51	2944.39
404.70	3009.93
404.89	2951.42
405.09	2960.78
405.28	3016.95
405.47	3009.93
405.66	3023.97
405.85	3070.78
406.05	2970.14
406.24	3056.74
406.43	3155.04
406.62	3201.85
406.81	3187.81
407.00	3131.64
407.20	3117.59
407.39	3180.79
407.58	3325.90
407.77	3363.35
407.96	3391.44
408.15	3276.75
408.34	3218.24
408.54	3461.65
408.73	3421.86
408.92	3384.41
409.11	3473.36
409.30	3508.46
409.49	3370.37
409.68	3583.36
409.87	3550.59
410.07	3515.48
410.26	3623.15
410.45	3548.25
410.64	3583.36
410.83	3550.59
411.02	3581.02
411.21	3609.11
411.40	3686.34
411.59	3779.97
411.78	3782.31
411.98	3772.94
412.17	3672.30
412.36	3920.40
412.55	3918.06
412.74	3918.06
412.93	4002.32
413.12	3981.25
413.31	4025.72
413.50	4074.87
413.69	4053.81
413.88	4182.54
414.07	4170.83
414.26	4299.56
414.45	4332.33
414.64	4320.63
414.83	4294.88
415.02	4444.68
415.22	4301.90
415.41	4524.26
415.60	4554.68
415.79	4496.17
415.98	4449.36
416.17	4519.57
416.36	4636.60
416.55	4601.49
416.74	4596.81
416.93	4674.05
417.12	4660.01
417.31	4734.90
417.50	4842.57
417.69	4880.02
417.88	4819.16
418.07	4922.15
418.26	5027.47
418.45	4971.30
418.64	5137.48
418.83	4903.42
419.02	4903.42
419.21	5172.58
419.39	5167.90
419.58	5006.41
419.77	5057.90
419.96	5338.76
420.15	5135.14
420.34	5146.84
420.53	5249.82
420.72	5132.79
420.91	5315.36
421.10	5203.01
421.29	5336.42
421.48	5373.87
421.67	5245.14
421.86	5425.36
422.05	5404.30
422.24	5313.02
422.43	5465.15
422.61	5645.37
422.80	5605.58
422.99	5638.35
423.18	5628.99
423.37	5614.95
423.56	5650.05
423.75	5504.94
423.94	5476.85
424.13	5423.02
424.32	5493.24
424.50	5570.48
424.69	5654.73
424.88	5755.38
425.07	5589.20
425.26	5621.97
425.45	5528.35
425.64	5746.02
425.83	5678.14
426.01	5664.10
426.20	5579.84
426.39	5729.63
426.58	5701.54
426.77	5781.12
426.96	5621.97
427.15	5806.87
427.33	5762.40
427.52	5720.27
427.71	5933.26
427.90	5907.51
428.09	5933.26
428.28	6169.65
428.46	6017.52
428.65	5809.21
428.84	6214.12
429.03	6244.55
429.22	6031.56
429.40	6066.67
429.59	5994.11
429.78	5970.71
429.97	6083.05
430.16	6225.82
430.34	6300.72
430.53	6331.15
430.72	6396.68
430.91	6370.94
431.10	6265.61
431.28	6450.52
431.47	6497.33
431.66	6516.05
431.85	6480.94
432.03	6562.86
432.22	6801.60
432.41	6628.40
432.60	6649.46
432.79	6597.97
432.97	6640.10
433.16	6825.00
433.35	6696.27
433.54	6705.63
433.72	6836.70
433.91	6733.72
434.10	6888.20
434.28	6850.75
434.47	6878.83
434.66	6892.88
434.85	6862.45
435.03	7133.95
435.22	7089.48
435.41	7316.51
435.59	7372.69
435.78	7307.15
435.97	7288.43
436.16	7466.31
436.34	7325.88
436.53	7201.83
436.72	7258.00
436.90	7030.97
437.09	7148.00
437.28	7152.68
437.46	7414.82
437.65	7592.70
437.84	7534.18
438.02	7501.42
438.21	7426.52
438.40	7246.30
438.58	7695.68
438.77	7885.26
438.96	7810.37
439.14	7929.74
439.33	7885.26
439.52	7915.69
439.70	8100.59
439.89	8191.88
440.08	8159.11
440.26	8351.03
440.45	8102.93
440.63	8252.73
440.82	8414.23
441.01	8292.52
441.19	8308.90
441.38	8390.82
441.57	8538.27
441.75	8496.14
441.94	8854.25
442.12	8744.24
442.31	8901.06
442.50	8720.84
442.68	8772.33
442.87	8634.24
443.05	8994.68
443.24	9156.18
443.43	8769.99
443.61	8870.63
443.80	9327.03
443.98	8777.01
444.17	8643.60
444.35	9144.47
444.54	9006.38
444.73	9125.75
444.91	9125.75
445.10	9142.13
445.28	9123.41
445.47	9219.37
445.65	9027.45
445.84	9172.56
446.02	9394.91
446.21	9284.91
446.39	9195.96
446.58	9114.05
446.77	9207.67
446.95	9062.55
447.14	9228.73
447.32	9284.91
447.51	9387.89
447.69	9212.35
447.88	9135.11
448.06	9334.06
448.25	9521.30
448.43	9598.54
448.62	9465.13
448.80	9275.54
448.99	9441.72
449.17	9469.81
449.36	9401.93
449.54	9486.19
449.73	9827.91
449.91	9893.44
450.10	9664.07
450.28	10010.47
450.46	10083.03
450.65	10068.98
450.83	10017.49
451.02	9797.48
451.20	10078.35
451.39	10146.22
451.57	10036.22
451.76	9870.04
451.94	10068.98
452.13	10258.57
452.31	10277.29
452.49	10148.56
452.68	10178.99
452.86	10237.50
453.05	10235.16
453.23	10572.20
453.42	10370.91
453.60	10143.88
453.78	10623.69
453.97	10349.85
454.15	10136.86
454.34	10326.44
454.52	10703.27
454.70	10546.45
454.89	10614.33
455.07	10703.27
455.26	10750.08
455.44	10853.06
455.62	10736.04
455.81	10946.69
455.99	10993.50
456.17	11028.60
456.36	10956.05
456.54	11124.57
456.73	11098.82
456.91	11524.80
457.09	11466.28
457.28	11510.75
457.46	11248.61
457.64	11421.81
457.83	11321.17
458.01	11267.34
458.19	11634.80
458.38	11784.60
458.56	11578.63
458.74	11826.73
458.93	11777.58
459.11	11721.40
459.29	11779.92
459.48	11889.92
459.66	11861.84
459.84	11873.54
460.03	11929.71
460.21	12044.40
460.39	11838.43
460.57	12109.93
460.76	12126.32
460.94	12032.69
461.12	12388.46
461.31	12388.46
461.49	12128.66
461.67	12133.34
461.85	12470.37
462.04	12156.74
462.22	12580.38
462.40	12585.06
462.59	12468.03
462.77	12505.48
462.95	12814.43
463.13	12877.63
463.32	12716.13
463.50	12901.03
463.68	12957.21
463.86	12908.05
464.05	12545.27
464.23	12870.61
464.41	12971.25
464.59	12683.36
464.78	13312.97
464.96	13050.83
465.14	12786.35
465.32	13088.28
465.50	12978.27
465.69	13404.25
465.87	13158.49
466.05	13217.01
466.23	13200.62
466.41	13614.90
466.60	13804.48
466.78	13186.58
466.96	13406.59
467.14	13357.44
467.32	13561.06
467.51	13540.00
467.69	13319.99
467.87	13549.36
468.05	13757.67
468.23	13872.36
468.41	13521.27
468.60	13621.92
468.78	13596.17
468.96	13631.28
469.14	14001.08
469.32	13954.27
469.50	13600.85
469.69	14047.90
469.87	14361.53
470.05	14281.95
470.23	14045.55
470.41	14246.84
470.59	14270.25
470.77	14010.45
470.95	14312.38
471.14	14698.56
471.32	14139.18
471.50	14649.41
471.68	14839.00
471.86	14946.66
472.04	15002.83
472.22	15314.13
472.40	14813.25
472.58	14916.23
472.77	15161.99
472.95	15391.36
473.13	15503.71
473.31	14885.81
473.49	15569.24
473.67	15487.32
473.85	15716.70
474.03	15939.05
474.21	15948.41
474.39	16152.04
474.57	15665.21
474.75	16126.29
474.93	16273.74
475.12	16189.49
475.30	16437.58
475.48	16116.93
475.66	16643.55
475.84	16329.92
476.02	16624.83
476.20	16528.86
476.38	17235.70
476.56	17326.99
476.74	17301.24
476.92	17102.29
477.10	17106.98
477.28	17451.03
477.46	17387.84
477.64	17664.02
477.82	17872.33
478.00	18155.54
478.18	18228.09
478.36	18422.36
478.54	18590.88
478.72	18384.91
478.90	18841.31
479.08	18991.11
479.26	19454.53
479.44	19389.00
479.62	19232.18
479.80	19648.80
479.98	19538.79
480.16	20285.42
480.34	19735.40
480.52	19971.79
480.70	19976.47
480.88	19920.30
481.06	20276.06
481.24	20601.40
481.41	20645.87
481.59	20400.11
481.77	21415.90
481.95	20989.92
482.13	21507.18
482.31	21172.49
482.49	21841.88
482.67	21546.97
482.85	22263.18
483.03	22202.32
483.21	22307.65
483.39	22761.71
483.57	22602.55
483.74	22848.31
483.92	22745.33
484.10	22923.21
484.28	23211.09
484.46	23941.34
484.64	23754.10
484.82	23620.69
485.00	24278.38
485.18	24402.43
485.35	25048.41
485.53	24776.91
485.71	25043.73
485.89	25619.50
486.07	25181.82
486.25	25219.27
486.43	25518.86
486.61	25429.92
486.78	25919.09
486.96	26415.29
487.14	26532.31
487.32	26188.25
487.50	26684.45
487.68	27091.70
487.85	27576.19
488.03	27447.46
488.21	27981.10
488.39	27763.43
488.57	28056.00
488.75	27887.48
488.92	28079.41
489.10	28858.81
489.28	28741.78
489.46	29373.72
489.64	28804.97
489.81	29818.42
489.99	29556.28
490.17	29926.09
490.35	30206.95
490.53	30551.01
490.70	30469.09
490.88	30742.94
491.06	31068.27
491.24	31026.14
491.41	31007.42
491.59	31819.58
491.77	31543.40
491.95	32041.93
492.13	32084.06
492.30	32142.58
492.48	32407.06
492.66	32566.21
492.84	32470.25
493.01	33319.87
493.19	33132.62
493.37	33179.43
493.54	33755.21
493.72	33715.42
493.90	33474.34
494.08	33949.47
494.25	34375.45
494.43	34312.25
494.61	34731.21
494.79	34646.95
494.96	34834.19
495.14	35084.63
495.32	35503.59
495.49	35730.62
495.67	35793.81
495.85	35887.43
496.02	36105.10
496.20	36212.77
496.38	36341.50
496.55	36449.16
496.73	37427.51
496.91	37296.44
497.09	37432.19
497.26	37457.93
497.44	37450.91
497.62	37633.47
497.79	37912.00
497.97	37766.88
498.14	38642.24
498.32	38450.32
498.50	38387.13
498.67	39040.14
498.85	38459.68
499.03	39227.38
499.20	39056.52
499.38	39400.58
499.56	39672.08
499.73	39648.68
499.91	39761.02
500.08	40006.78
500.26	39688.46
500.44	40259.55
500.61	40610.64
500.79	40488.93
500.97	40849.37
501.14	41233.22
501.32	41071.72
501.49	41081.08
501.67	41109.17
501.84	41013.21
502.02	41745.80
502.20	41921.34
502.37	42150.71
502.55	41855.80
502.72	42057.09
502.90	42300.50
503.07	42110.92
503.25	42513.49
503.43	42359.02
503.60	43068.20
503.78	43196.93
503.95	42829.46
504.13	42880.95
504.30	43267.14
504.48	43271.82
504.65	43456.73
504.83	43955.26
505.01	43983.35
505.18	44112.08
505.36	44191.65
505.53	44151.87
505.71	44266.55
505.88	44184.63
506.06	44004.41
506.23	44767.43
506.41	45050.63
506.58	44767.43
506.76	44589.55
506.93	45350.22
507.11	45228.51
507.28	45258.94
507.46	45373.63
507.63	45961.10
507.81	46270.05
507.98	45425.12
508.16	45642.79
508.33	46124.94
508.50	46089.83
508.68	46309.84
508.85	46553.26
509.03	46904.34
509.20	46520.49
509.38	47199.24
509.55	47262.44
509.73	47569.05
509.90	47178.18
510.08	47175.84
510.25	47290.52
510.42	47297.55
510.60	47875.66
510.77	47948.21
510.95	47955.24
511.12	47571.39
511.30	48025.45
511.47	48156.52
511.64	48062.90
511.82	48652.72
511.99	48456.11
512.17	48879.75
512.34	48666.76
512.51	48935.92
512.69	49272.96
512.86	49312.75
513.04	49198.06
513.21	49205.08
513.38	49029.54
513.56	49528.08
513.73	49626.38
513.90	49883.84
514.08	49848.73
514.25	50024.27
514.43	49862.77
514.60	50295.77
514.77	50082.78
514.95	50031.29
515.12	50312.16
515.29	50468.97
515.47	50862.18
515.64	51000.27
515.81	50361.31
515.99	50684.30
516.16	50600.04
516.33	50693.66
516.51	51026.02
516.68	50930.06
516.85	51196.88
517.03	51590.09
517.20	51304.54
517.37	51491.79
517.54	51442.63
517.72	51643.92
517.89	51505.83
518.06	51489.45
518.24	51796.06
518.41	51835.84
518.58	51807.76
518.75	51540.94
518.93	51866.27
519.10	52037.13
519.27	52097.98
519.45	51948.19
519.62	52392.89
519.79	52451.41
519.96	52545.03
520.14	52589.50
520.31	52252.46
520.48	52626.95
520.65	52442.04
520.83	52921.85
521.00	53113.78
521.17	52762.70
521.34	53055.26
521.52	53270.59
521.69	53071.65
521.86	53385.28
522.03	53347.83
522.20	53743.38
522.38	53521.03
522.55	53474.22
522.72	53701.25
522.89	53614.65
523.07	54134.25
523.24	53867.43
523.41	53829.98
523.58	53762.11
523.75	54042.97
523.92	54127.23
524.10	54365.96
524.27	54401.07
524.44	54415.11
524.61	54567.25
524.78	54394.05
524.96	54471.29
525.13	54202.13
525.30	54742.79
525.47	55124.30
525.64	54742.79
525.81	55023.65
525.98	54649.17
526.16	54705.34
526.33	54639.81
526.50	55267.07
526.67	54911.31
526.84	55082.17
527.01	55058.76
527.18	55124.30
527.36	55168.77
527.53	55353.67
527.70	55524.53
527.87	55533.89
528.04	55381.76
528.21	55805.39
528.38	55831.14
528.55	55564.32
528.72	55524.53
528.89	55643.90
529.07	55711.77
529.24	55721.13
529.41	55903.70
529.58	55882.63
529.75	55845.18
529.92	56133.07
530.09	55983.27
530.26	55838.16
530.43	56179.88
530.60	55789.01
530.77	56027.74
530.94	56367.12
531.11	56364.78
531.28	56266.48
531.46	56418.61
531.63	56423.29
531.80	56109.66
531.97	56509.89
532.14	56605.86
532.31	56694.80
532.48	56385.85
532.65	56711.18
532.82	56584.79
532.99	56828.21
533.16	56629.26
533.33	56772.03
533.50	57099.71
533.67	56750.97
533.84	56711.18
534.01	56800.12
534.18	56872.68
534.35	57345.47
534.52	57160.56
534.69	57071.62
534.86	56985.02
535.03	56942.89
535.20	57052.90
535.37	57270.57
535.54	57546.75
535.71	57350.15
535.88	57436.75
536.05	57385.25
536.22	57418.02
536.38	57649.74
536.55	57649.74
536.72	57623.99
536.89	57659.10
537.06	57698.89
537.23	57958.69
537.40	57848.68
537.57	57851.02
537.74	57932.94
537.91	58089.76
538.08	57832.30
538.25	57991.45
538.42	58078.05
538.59	58106.14
538.75	58003.16
538.92	58298.06
539.09	58234.87
539.26	58071.03
539.43	58237.21
539.60	58150.61
539.77	58192.74
539.94	58494.67
540.11	58422.11
540.28	58372.96
540.44	58438.50
540.61	58316.79
540.78	58321.47
540.95	58454.88
541.12	58583.61
541.29	58431.47
541.46	58770.85
541.62	58925.33
541.79	58759.15
541.96	58731.06
542.13	58543.82
542.30	58621.06
542.47	58681.91
542.63	58780.21
542.80	58822.34
542.97	59180.45
543.14	59306.83
543.31	59269.39
543.48	59255.34
543.64	59409.82
543.81	59288.11
543.98	59426.20
544.15	59365.35
544.32	59423.86
544.48	59746.86
544.65	59524.50
544.82	59435.56
544.99	59447.27
545.16	59608.76
545.32	59498.76
545.49	59786.64
545.66	59786.64
545.83	59779.62
546.00	59962.18
546.16	59882.61
546.33	59887.29
546.50	59604.08
546.67	59758.56
546.83	59531.53
547.00	59770.26
547.17	59597.06
547.34	59590.04
547.50	59772.60
547.67	60224.32
547.84	60039.42
548.00	60001.97
548.17	60301.56
548.34	60093.25
548.51	60273.48
548.67	60004.31
548.84	59990.27
549.01	60023.04
549.18	60116.66
549.34	60158.79
549.51	60207.94
549.68	60044.10
549.84	60126.02
550.01	60245.39
550.18	60168.15
550.34	60165.81
550.51	60357.74
550.68	60266.45
550.84	60109.64
551.01	60420.93
551.18	60413.91
551.34	60453.70
551.51	60306.24
551.68	60568.38
551.84	60390.50
552.01	60287.52
552.18	60647.96
552.34	60411.57
552.51	60582.43
552.68	60624.56
552.84	60657.32
553.01	60853.93
553.18	60701.79
553.34	60779.03
553.51	60559.02
553.67	60800.10
553.84	61015.43
554.01	61064.58
554.17	60851.59
554.34	60914.78
554.51	60853.93
554.67	60954.57
554.84	61024.79
555.00	60720.52
555.17	60762.65
555.33	60949.89
555.50	60811.80
555.67	60877.33
555.83	61057.56
556.00	61146.50
556.16	61244.80
556.33	61080.96
556.50	60949.89
556.66	61237.78
556.83	60912.44
556.99	61247.14
557.16	61406.30
557.32	61343.10
557.49	61352.46
557.65	61197.99
557.82	61240.12
557.98	61207.35
558.15	61151.18
558.32	61394.59
558.48	61181.60
558.65	61441.40
558.81	61317.35
558.98	61359.48
559.14	61621.62
559.31	61432.04
559.47	61645.03
559.64	61497.58
559.80	61277.57
559.97	61516.30
560.13	61366.51
560.30	61593.54
560.46	61710.56
560.63	61743.33
560.79	61619.28
560.96	61726.95
561.12	61719.93
561.29	61410.98
561.45	61591.20
561.61	61673.12
561.78	61843.98
561.94	61783.12
562.11	61705.88
562.27	61792.48
562.44	61675.46
562.60	61825.25
562.77	61778.44
562.93	61663.75
563.10	61867.38
563.26	61630.99
563.42	61949.30
563.59	61682.48
563.75	61731.63
563.92	61846.32
564.08	61867.38
564.24	61953.98
564.41	61684.82
564.57	61825.25
564.74	61851.00
564.90	62017.17
565.07	62136.54
565.23	61846.32
565.39	62152.93
565.56	62131.86
565.72	61963.34
565.88	61979.73
566.05	62026.54
566.21	61869.72
566.38	61930.58
566.54	62103.77
566.70	62155.27
566.87	61961.00
567.03	62436.13
567.19	62363.57
567.36	62258.25
567.52	62155.27
567.68	62216.12
567.85	62195.06
568.01	62216.12
568.17	62188.03
568.34	62213.78
568.50	62220.80
568.66	62309.74
568.83	62326.13
568.99	62319.10
569.15	62099.09
569.32	62181.01
569.48	62054.62
569.64	62422.09
569.81	62101.43
569.97	62181.01
570.13	62159.95
570.30	62110.80
570.46	62394.00
570.62	62438.47
570.78	62333.15
570.95	62265.27
571.11	62279.31
571.27	62145.90
571.43	62255.91
571.60	62473.58
571.76	62323.78
571.92	62246.55
572.09	62461.88
572.25	62649.12
572.41	62323.78
572.57	62426.77
572.74	62405.70
572.90	62499.33
573.06	62576.56
573.22	62438.47
573.38	62527.41
573.55	62281.66
573.71	62702.95
573.87	62667.84
574.03	62616.35
574.20	62485.28
574.36	62719.34
574.52	62543.80
574.68	62525.07
574.84	62403.36
575.01	62660.82
575.17	62768.49
575.33	62548.48
575.49	62415.07
575.65	62614.01
575.82	62717.00
575.98	62609.33
576.14	62801.25
576.30	62630.40
576.46	62546.14
576.62	62403.36
576.79	62496.98
576.95	62588.27
577.11	62625.71
577.27	62794.23
577.43	62585.92
577.59	62625.71
577.75	62557.84
577.92	62754.44
578.08	62679.55
578.24	62501.67
578.40	62780.19
578.56	62738.06
578.72	62784.87
578.88	63070.42
579.04	62894.88
579.21	62796.57
579.37	62784.87
579.53	62768.49
579.69	62534.43
579.85	62691.25
580.01	62731.04
580.17	62878.49
580.33	62845.72
580.49	62705.29
580.65	62808.28
580.82	62873.81
580.98	62775.51
581.14	62733.38
581.30	62810.62
581.46	62752.10
581.62	62803.59
581.78	62658.48
581.94	62733.38
582.10	62761.47
582.26	62988.50
582.42	62871.47
582.58	62609.33
582.74	62724.02
582.90	62834.02
583.06	62777.85
583.22	62606.99
583.38	62796.57
583.54	62583.58
583.70	62480.60
583.86	62698.27
584.02	62684.23
584.18	62782.53
584.34	62908.92
584.50	63093.82
584.66	62932.32
584.82	62632.74
584.98	62869.13
585.14	62761.47
585.30	62782.53
585.46	62929.98
585.62	62852.75
585.78	62869.13
585.94	62869.13
586.10	62866.79
586.26	62897.22
586.42	63009.56
586.58	63037.65
586.74	62719.34
586.90	62674.87
587.06	62780.19
587.22	63086.80
587.38	62995.52
587.54	63222.55
587.70	63290.43
