SpectraSuite Data File
++++++++++++++++++++++++++++++++++++
Date: Thu Oct 24 13:21:35 EDT 2013
User: stostad
Dark Spectrum Present: No
Reference Spectrum Present: No
Number of Sampled Component Spectra: 1
Spectrometers: USB2+H05261
Integration Time (usec): 100000 (USB2+H05261)
Spectra Averaged: 1 (USB2+H05261)
Boxcar Smoothing: 0 (USB2+H05261)
Correct for Electrical Dark: No (USB2+H05261)
Strobe/Lamp Enabled: No (USB2+H05261)
Correct for Detector Non-linearity: No (USB2+H05261)
Correct for Stray Light: No (USB2+H05261)
Number of Pixels in Processed Spectrum: 2048
>>>>>Begin Processed Spectral Data<<<<<
365.73	561.73
365.92	561.73
366.12	561.73
366.32	507.90
366.52	491.51
366.72	524.28
366.91	498.53
367.11	482.15
367.31	496.19
367.51	449.38
367.70	479.81
367.90	493.85
368.10	486.83
368.30	440.02
368.49	472.79
368.69	489.17
368.89	458.74
369.09	463.43
369.28	482.15
369.48	475.13
369.68	498.53
369.87	594.50
370.07	521.94
370.27	580.45
370.47	816.85
370.66	1200.69
370.86	1240.48
371.06	1359.85
371.25	1284.95
371.45	1324.74
371.65	1308.36
371.84	1362.19
372.04	1387.94
372.24	1327.08
372.44	1336.45
372.63	1310.70
372.83	1399.64
373.03	1310.70
373.22	1411.34
373.42	1514.33
373.62	1495.60
373.81	1430.07
374.01	1460.49
374.21	1462.83
374.40	1476.88
374.60	1547.09
374.79	1500.28
374.99	1535.39
375.19	1455.81
375.38	1549.43
375.58	1542.41
375.78	1568.16
375.97	1650.08
376.17	1710.93
376.37	1516.67
376.56	1530.71
376.76	1596.25
376.95	1614.97
377.15	1661.78
377.35	1692.21
377.54	1617.31
377.74	1629.01
377.93	1664.12
378.13	1640.72
378.33	1652.42
378.52	1785.83
378.72	1717.95
378.91	1832.64
379.11	1715.61
379.31	1734.34
379.50	1764.76
379.70	1764.76
379.89	1863.07
380.09	1746.04
380.28	1771.79
380.48	1734.34
380.68	1741.36
380.87	1696.89
381.07	1776.47
381.26	1891.15
381.46	1942.64
381.65	1900.52
381.85	1881.79
382.04	1937.96
382.24	1909.88
382.43	1891.15
382.63	1975.41
382.83	1933.28
383.02	1930.94
383.22	1959.03
383.41	1956.69
383.61	1966.05
383.80	2092.44
384.00	1975.41
384.19	2045.63
384.39	2132.23
384.58	2036.27
384.78	1998.82
384.97	2094.78
385.17	2129.89
385.36	2090.10
385.56	2017.54
385.75	1982.43
385.95	2115.84
386.14	2162.66
386.34	2050.31
386.53	2087.76
386.72	2099.46
386.92	2214.15
387.11	2221.17
387.31	2230.53
387.50	2183.72
387.70	2225.85
387.89	2221.17
388.09	2289.04
388.28	2272.66
388.48	2242.23
388.67	2377.98
388.86	2401.39
389.06	2417.77
389.25	2434.16
389.45	2392.03
389.64	2359.26
389.84	2359.26
390.03	2452.88
390.22	2413.09
390.42	2436.50
390.61	2459.90
390.81	2399.05
391.00	2487.99
391.19	2487.99
391.39	2520.76
391.58	2509.05
391.78	2520.76
391.97	2607.36
392.16	2525.44
392.36	2670.55
392.55	2684.59
392.75	2672.89
392.94	2663.53
393.13	2693.96
393.33	2663.53
393.52	2717.36
393.71	2700.98
393.91	2782.90
394.10	2705.66
394.29	2815.66
394.49	2869.50
394.68	2906.95
394.88	2843.75
395.07	2897.58
395.26	2787.58
395.46	2930.35
395.65	2995.89
395.84	3019.29
396.04	3068.44
396.23	2937.37
396.42	2977.16
396.62	3068.44
396.81	3049.72
397.00	3098.87
397.19	2951.42
397.39	3056.74
397.58	3070.78
397.77	3009.93
397.97	3201.85
398.16	3185.47
398.35	3248.66
398.55	3194.83
398.74	3279.09
398.93	3253.34
399.12	3414.84
399.32	3286.11
399.51	3187.81
399.70	3349.31
399.90	3405.48
400.09	3482.72
400.28	3433.57
400.47	3435.91
400.67	3543.57
400.86	3566.98
401.05	3442.93
401.24	3419.52
401.44	3517.83
401.63	3651.24
401.82	3620.81
402.01	3571.66
402.21	3726.13
402.40	3658.26
402.59	3721.45
402.78	3756.56
402.97	3765.92
403.17	3817.41
403.36	3756.56
403.55	3777.62
403.74	3925.08
403.93	3969.55
404.13	4011.68
404.32	3894.65
404.51	3915.72
404.70	4053.81
404.89	3969.55
405.09	3997.64
405.28	4219.99
405.47	4126.36
405.66	4088.92
405.85	4133.39
406.05	4121.68
406.24	4063.17
406.43	4105.30
406.62	4322.97
406.81	4311.27
407.00	4245.73
407.20	4304.25
407.39	4243.39
407.58	4437.66
407.77	4437.66
407.96	4465.74
408.15	4535.96
408.34	4379.14
408.54	4559.36
408.73	4620.22
408.92	4606.17
409.11	4784.06
409.30	4716.18
409.49	4697.46
409.68	4798.10
409.87	4664.69
410.07	4755.97
410.26	4882.36
410.45	4865.97
410.64	4863.63
410.83	4903.42
411.02	4854.27
411.21	4978.32
411.40	4975.98
411.59	5135.14
411.78	5041.51
411.98	5109.39
412.17	5198.33
412.36	5231.10
412.55	5336.42
412.74	5378.55
412.93	5322.38
413.12	5233.44
413.31	5746.02
413.50	5563.45
413.69	5474.51
413.88	5713.25
414.07	5710.91
414.26	5689.84
414.45	5792.83
414.64	5783.46
414.83	5935.60
415.02	5727.29
415.22	5900.49
415.41	6094.76
415.60	5975.39
415.79	5970.71
415.98	6204.76
416.17	6204.76
416.36	6160.29
416.55	6232.85
416.74	6335.83
416.93	6289.02
417.12	6387.32
417.31	6506.69
417.50	6438.81
417.69	6843.73
417.88	6600.31
418.07	6513.71
418.26	6562.86
418.45	6619.04
418.64	6874.15
418.83	6855.43
419.02	6743.08
419.21	6958.41
419.39	6930.33
419.58	6810.96
419.77	6916.28
419.96	7023.95
420.15	7082.46
420.34	7110.55
420.53	7162.04
420.72	7243.96
420.91	7332.90
421.10	7328.22
421.29	7269.70
421.48	7173.74
421.67	7300.13
421.86	7372.69
422.05	7220.55
422.24	7318.86
422.43	7485.03
422.61	7686.32
422.80	7555.25
422.99	7452.27
423.18	7625.47
423.37	7803.35
423.56	7667.60
423.75	7590.36
423.94	7459.29
424.13	7143.32
424.32	7342.26
424.50	7688.66
424.69	7775.26
424.88	7686.32
425.07	7602.06
425.26	7398.43
425.45	7588.02
425.64	7513.12
425.83	7513.12
426.01	7648.87
426.20	7735.47
426.39	7857.18
426.58	7793.98
426.77	7934.42
426.96	7728.45
427.15	7845.48
427.33	7896.97
427.52	7763.56
427.71	8004.63
427.90	7850.16
428.09	8205.92
428.28	8208.26
428.46	8278.47
428.65	8016.33
428.84	8386.14
429.03	8425.93
429.22	8088.89
429.40	8283.16
429.59	8484.44
429.78	7978.89
429.97	7934.42
430.16	8311.24
430.34	8739.56
430.53	8573.38
430.72	8655.30
430.91	8592.11
431.10	8482.10
431.28	8760.63
431.47	8762.97
431.66	8784.03
431.85	8730.20
432.03	9116.39
432.22	9034.47
432.41	9022.77
432.60	9090.64
432.79	9118.73
432.97	9160.86
433.16	9165.54
433.35	9142.13
433.54	9273.20
433.72	9341.08
433.91	9184.26
434.10	9327.03
434.28	9303.63
434.47	9472.15
434.66	9355.12
434.85	9462.79
435.03	9734.29
435.22	9525.98
435.41	10080.69
435.59	9762.37
435.78	9877.06
435.97	9886.42
436.16	9951.96
436.34	9521.30
436.53	9727.27
436.72	10061.96
436.90	9694.50
437.09	9891.10
437.28	9923.87
437.46	10129.84
437.65	9973.02
437.84	10083.03
438.02	10190.69
438.21	10080.69
438.40	10354.53
438.58	10647.10
438.77	10719.65
438.96	10469.22
439.14	10747.74
439.33	10874.13
439.52	11014.56
439.70	10939.66
439.89	11075.42
440.08	10977.11
440.26	11021.58
440.45	11274.36
440.63	11147.97
440.82	11592.67
441.01	11536.50
441.19	11602.04
441.38	11655.87
441.57	11688.64
441.75	11763.53
441.94	12273.77
442.12	12077.16
442.31	12196.53
442.50	11960.14
442.68	12173.13
442.87	12191.85
443.05	12610.81
443.24	12318.24
443.43	12400.16
443.61	12472.71
443.80	12774.64
443.98	12224.62
444.17	11929.71
444.35	12367.39
444.54	12610.81
444.73	12629.53
444.91	12608.47
445.10	12760.60
445.28	12767.62
445.47	12386.12
445.65	12603.78
445.84	12720.81
446.02	13132.75
446.21	12779.32
446.39	12828.48
446.58	12926.78
446.77	12823.80
446.95	12393.14
447.14	12835.50
447.32	12957.21
447.51	12877.63
447.69	12800.39
447.88	12837.84
448.06	12908.05
448.25	12744.22
448.43	13067.21
448.62	13041.46
448.80	12875.29
448.99	13032.10
449.17	13256.79
449.36	13064.87
449.54	13427.65
449.73	13366.80
449.91	13483.83
450.10	13678.09
450.28	13806.82
450.46	13902.78
450.65	13872.36
450.83	13799.80
451.02	13661.71
451.20	13818.52
451.39	13783.41
451.57	13942.57
451.76	13841.93
451.94	13902.78
452.13	14228.12
452.31	14111.09
452.49	13965.98
452.68	14403.66
452.86	14017.47
453.05	14244.50
453.23	14452.81
453.42	14174.28
453.60	14029.17
453.78	14679.84
453.97	14513.66
454.15	14403.66
454.34	14480.89
454.52	14686.86
454.70	14668.14
454.89	14558.13
455.07	14857.72
455.26	14745.38
455.44	15042.62
455.62	15115.18
455.81	14860.06
455.99	15370.30
456.17	15176.03
456.36	15337.53
456.54	15531.80
456.73	15632.44
456.91	15796.28
457.09	15927.35
457.28	16126.29
457.46	15800.96
457.64	16037.35
457.83	15943.73
458.01	15758.83
458.19	16456.31
458.38	15901.60
458.56	16152.04
458.74	16027.99
458.93	16294.81
459.11	16128.63
459.29	16638.87
459.48	16493.76
459.66	16252.68
459.84	16655.25
460.03	17102.29
460.21	16842.50
460.39	16524.18
460.57	16975.91
460.76	16966.54
460.94	17076.55
461.12	16947.82
461.31	17200.60
461.49	17020.38
461.67	17109.32
461.85	17554.02
462.04	16905.69
462.22	17577.42
462.40	17886.37
462.59	17418.27
462.77	17231.02
462.95	17549.34
463.13	17942.55
463.32	17483.80
463.50	17989.36
463.68	18090.00
463.86	17942.55
464.05	17308.26
464.23	17671.04
464.41	18078.30
464.59	17837.22
464.78	18485.55
464.96	18375.55
465.14	18047.87
465.32	18302.99
465.50	18464.49
465.69	18572.15
465.87	18623.64
466.05	18492.57
466.23	18518.32
466.41	18581.51
466.60	18984.09
466.78	18911.53
466.96	18277.24
467.14	18984.09
467.32	18764.07
467.51	18939.62
467.69	18633.00
467.87	19007.49
468.05	19002.81
468.23	18778.12
468.41	18937.27
468.60	19061.32
468.78	19330.48
468.96	19131.54
469.14	19461.55
469.32	19924.98
469.50	19080.05
469.69	19662.84
469.87	19634.75
470.05	19744.76
470.23	20170.74
470.41	20191.80
470.59	20257.34
470.77	19756.46
470.95	20203.50
471.14	20542.88
471.32	20056.05
471.50	20688.00
471.68	20514.80
471.86	20645.87
472.04	20826.09
472.22	21266.11
472.40	21235.68
472.58	20875.24
472.77	21259.09
472.95	21694.43
473.13	21694.43
473.31	21514.20
473.49	21497.82
473.67	21652.30
473.85	21741.24
474.03	22171.89
474.21	22085.30
474.39	22328.71
474.57	22113.38
474.75	22705.54
474.93	22876.40
475.12	22679.79
475.30	22895.12
475.48	22892.78
475.66	23204.07
475.84	23147.90
476.02	23393.65
476.20	23555.15
476.38	23803.25
476.56	24381.36
476.74	24212.84
476.92	24219.86
477.10	24151.99
477.28	24556.90
477.46	24725.42
477.64	24624.78
477.82	25219.27
478.00	25542.27
478.18	25701.42
478.36	25942.50
478.54	25958.88
478.72	26609.55
478.90	26544.02
479.08	26607.21
479.26	27328.10
479.44	26859.99
479.62	27541.08
479.80	27594.92
479.98	27644.07
480.16	28622.41
480.34	27894.50
480.52	28629.43
480.70	28027.92
480.88	28322.82
481.06	28727.74
481.24	28994.56
481.41	29209.89
481.59	29352.66
481.77	30024.39
481.95	29816.08
482.13	30113.33
482.31	30155.46
482.49	30820.17
482.67	30487.82
482.85	30965.29
483.03	31335.09
483.21	31927.25
483.39	31908.52
483.57	31929.59
483.74	32128.53
483.92	32596.64
484.10	32224.50
484.28	32992.19
484.46	33436.89
484.64	34375.45
484.82	33046.02
485.00	34185.86
485.18	34506.52
485.35	35068.25
485.53	34653.97
485.71	34969.94
485.89	35772.75
486.07	35384.22
486.25	35864.03
486.43	36549.81
486.61	36348.52
486.78	36898.55
486.96	37027.28
487.14	37408.78
487.32	37184.09
487.50	37783.27
487.68	37972.85
487.85	38960.56
488.03	39136.10
488.21	39328.02
488.39	39297.59
488.57	39646.33
488.75	40060.61
488.92	40119.12
489.10	40737.02
489.28	40517.01
489.46	41221.52
489.64	41036.61
489.81	41687.28
489.99	41830.05
490.17	41853.46
490.35	42534.56
490.53	42871.59
490.70	42625.84
490.88	43044.79
491.06	43440.34
491.24	43688.44
491.41	43665.03
491.59	43885.04
491.77	44306.34
491.95	44865.73
492.13	45148.93
492.30	45158.30
492.48	45059.99
492.66	45305.75
492.84	45546.82
493.01	45928.33
493.19	46089.83
493.37	46244.30
493.54	46536.87
493.72	47016.68
493.90	47042.43
494.08	47264.78
494.25	47920.13
494.43	47571.39
494.61	48196.31
494.79	48687.82
494.96	48210.35
495.14	48289.93
495.32	48999.12
495.49	49375.94
495.67	49345.51
495.85	49764.47
496.02	49539.78
496.20	50054.70
496.38	49949.37
496.55	50288.75
496.73	50962.82
496.91	50901.97
497.09	50946.44
497.26	51566.68
497.44	50995.59
497.62	51276.46
497.79	52179.90
497.97	51714.14
498.14	52463.11
498.32	52502.90
498.50	52310.97
498.67	52556.73
498.85	52481.83
499.03	52767.38
499.20	52776.74
499.38	53078.67
499.56	53401.66
499.73	53635.72
499.91	53378.26
500.08	53680.19
500.26	53794.87
500.44	53684.87
500.61	54209.15
500.79	54108.50
500.97	54354.26
501.14	54604.70
501.32	54335.54
501.49	54777.90
501.67	54700.66
501.84	55042.38
502.02	54897.27
502.20	55002.59
502.37	55255.37
502.55	55171.11
502.72	55192.17
502.90	55274.09
503.07	55292.82
503.25	55611.13
503.43	55547.93
503.60	55973.91
503.78	55814.76
503.95	55552.62
504.13	56116.68
504.30	56217.33
504.48	56285.20
504.65	56451.38
504.83	56594.15
505.01	56720.54
505.18	56289.88
505.36	56982.68
505.53	56629.26
505.71	56905.44
505.88	57022.47
506.06	56795.44
506.23	57165.24
506.41	57226.10
506.58	57181.63
506.76	57193.33
506.93	57523.35
507.11	57733.99
507.28	57778.46
507.46	57523.35
507.63	58099.12
507.81	57883.79
507.98	57813.57
508.16	57860.38
508.33	58089.76
508.50	58321.47
508.68	58347.21
508.85	58698.30
509.03	58382.32
509.20	58466.58
509.38	58618.72
509.55	58663.19
509.73	58829.37
509.90	59004.91
510.08	58831.71
510.25	58946.39
510.42	59084.48
510.60	59166.40
510.77	59353.65
510.95	59517.48
511.12	59269.39
511.30	59463.65
511.47	59470.67
511.64	59662.60
511.82	59772.60
511.99	59554.93
512.17	59877.93
512.34	60023.04
512.51	59938.78
512.69	60186.88
512.86	60023.04
513.04	60294.54
513.21	60317.95
513.38	60207.94
513.56	60409.23
513.73	60317.95
513.90	60360.08
514.08	60577.75
514.25	60753.29
514.43	60680.73
514.60	60633.92
514.77	60645.62
514.95	61038.83
515.12	60781.37
515.29	61057.56
515.47	61036.49
515.64	61455.45
515.81	61155.86
515.99	61331.40
516.16	61298.63
516.33	61186.28
516.51	61673.12
516.68	61382.89
516.85	61462.47
517.03	61612.26
517.20	61865.04
517.37	61619.28
517.54	61605.24
517.72	61797.16
517.89	61848.66
518.06	61766.74
518.24	62082.71
518.41	62061.64
518.58	62052.28
518.75	62089.73
518.93	62017.17
519.10	62087.39
519.27	62232.50
519.45	62482.94
519.62	62363.57
519.79	62489.96
519.96	62473.58
520.14	62623.37
520.31	62382.30
520.48	62693.59
520.65	62602.31
520.83	63089.14
521.00	62885.51
521.17	63032.97
521.34	62972.11
521.52	63016.58
521.69	63119.57
521.86	63119.57
522.03	63189.78
522.20	63276.38
522.38	63650.87
522.55	63487.03
522.72	63433.20
522.89	63477.67
523.07	63573.63
523.24	63496.39
523.41	63496.39
523.58	63451.92
523.75	63725.77
523.92	63821.73
524.10	63702.36
524.27	63870.88
524.44	63788.96
524.61	63983.22
524.78	63929.39
524.96	64006.63
525.13	63950.46
525.30	64186.85
525.47	64338.99
525.64	64203.24
525.81	64069.82
525.98	64331.96
526.16	64163.45
526.33	64322.60
526.50	64411.54
526.67	64409.20
526.84	64516.87
527.01	64559.00
527.18	64610.49
527.36	64788.37
527.53	64676.02
527.70	64877.31
527.87	64697.09
528.04	64774.33
528.21	64926.46
528.38	64914.76
528.55	65183.92
528.72	64949.87
528.89	64881.99
529.07	64870.29
529.24	64846.88
529.41	65066.89
529.58	65038.81
529.75	65102.00
529.92	65343.08
530.09	65286.90
530.26	65233.07
530.43	65415.63
530.60	65396.91
530.77	65314.99
530.94	65525.64
531.11	65535.00
531.28	65523.30
531.46	65535.00
531.63	65474.15
531.80	65535.00
531.97	65535.00
532.14	65535.00
532.31	65535.00
532.48	65535.00
532.65	65535.00
532.82	65535.00
532.99	65535.00
533.16	65535.00
533.33	65535.00
533.50	65535.00
533.67	65535.00
533.84	65535.00
534.01	65535.00
534.18	65535.00
534.35	65535.00
534.52	65535.00
534.69	65535.00
534.86	65535.00
535.03	65535.00
535.20	65535.00
535.37	65535.00
535.54	65535.00
535.71	65535.00
535.88	65535.00
536.05	65535.00
536.22	65535.00
536.38	65535.00
536.55	65535.00
536.72	65535.00
536.89	65535.00
537.06	65535.00
537.23	65535.00
537.40	65535.00
537.57	65535.00
537.74	65535.00
537.91	65535.00
538.08	65535.00
538.25	65535.00
538.42	65535.00
538.59	65535.00
538.75	65535.00
538.92	65535.00
539.09	65535.00
539.26	65535.00
539.43	65535.00
539.60	65535.00
539.77	65535.00
539.94	65535.00
540.11	65535.00
540.28	65535.00
540.44	65535.00
540.61	65535.00
540.78	65535.00
540.95	65535.00
541.12	65535.00
541.29	65535.00
541.46	65535.00
541.62	65535.00
541.79	65535.00
541.96	65535.00
542.13	65535.00
542.30	65535.00
542.47	65535.00
542.63	65535.00
542.80	65535.00
542.97	65535.00
543.14	65535.00
543.31	65535.00
543.48	65535.00
543.64	65535.00
543.81	65535.00
543.98	65535.00
544.15	65535.00
544.32	65535.00
544.48	65535.00
544.65	65535.00
544.82	65535.00
544.99	65535.00
545.16	65535.00
545.32	65535.00
545.49	65535.00
545.66	65535.00
545.83	65535.00
546.00	65535.00
546.16	65535.00
546.33	65535.00
546.50	65535.00
546.67	65535.00
546.83	65535.00
547.00	65535.00
547.17	65535.00
547.34	65535.00
547.50	65535.00
547.67	65535.00
547.84	65535.00
548.00	65535.00
548.17	65535.00
548.34	65535.00
548.51	65535.00
548.67	65535.00
548.84	65535.00
549.01	65535.00
549.18	65535.00
549.34	65535.00
549.51	65535.00
549.68	65535.00
549.84	65535.00
550.01	65535.00
550.18	65535.00
550.34	65535.00
550.51	65535.00
550.68	65535.00
550.84	65535.00
551.01	65535.00
551.18	65535.00
551.34	65535.00
551.51	65535.00
551.68	65535.00
551.84	65535.00
552.01	65535.00
552.18	65535.00
552.34	65535.00
552.51	65535.00
552.68	65535.00
552.84	65535.00
553.01	65535.00
553.18	65535.00
553.34	65535.00
553.51	65535.00
553.67	65535.00
553.84	65535.00
554.01	65535.00
554.17	65535.00
554.34	65535.00
554.51	65535.00
554.67	65535.00
554.84	65535.00
555.00	65535.00
555.17	65535.00
555.33	65535.00
555.50	65535.00
555.67	65535.00
555.83	65535.00
556.00	65535.00
556.16	65535.00
556.33	65535.00
556.50	65535.00
556.66	65535.00
556.83	65535.00
556.99	65535.00
557.16	65535.00
557.32	65535.00
557.49	65535.00
557.65	65535.00
557.82	65535.00
557.98	65535.00
558.15	65535.00
558.32	65535.00
558.48	65535.00
558.65	65535.00
558.81	65535.00
558.98	65535.00
559.14	65535.00
559.31	65535.00
559.47	65535.00
559.64	65535.00
559.80	65535.00
559.97	65535.00
560.13	65535.00
560.30	65535.00
560.46	65535.00
560.63	65535.00
560.79	65535.00
560.96	65535.00
561.12	65535.00
561.29	65535.00
561.45	65535.00
561.61	65535.00
561.78	65535.00
561.94	65535.00
562.11	65535.00
562.27	65535.00
562.44	65535.00
562.60	65535.00
562.77	65535.00
562.93	65535.00
563.10	65535.00
563.26	65535.00
563.42	65535.00
563.59	65535.00
563.75	65535.00
563.92	65535.00
564.08	65535.00
564.24	65535.00
564.41	65535.00
564.57	65535.00
564.74	65535.00
564.90	65535.00
565.07	65535.00
565.23	65535.00
565.39	65535.00
565.56	65535.00
565.72	65535.00
565.88	65535.00
566.05	65535.00
566.21	65535.00
566.38	65535.00
566.54	65535.00
566.70	65535.00
566.87	65535.00
567.03	65535.00
567.19	65535.00
567.36	65535.00
567.52	65535.00
567.68	65535.00
567.85	65535.00
568.01	65535.00
568.17	65535.00
568.34	65535.00
568.50	65535.00
568.66	65535.00
568.83	65535.00
568.99	65535.00
569.15	65535.00
569.32	65535.00
569.48	65535.00
569.64	65535.00
569.81	65535.00
569.97	65535.00
570.13	65535.00
570.30	65535.00
570.46	65535.00
570.62	65535.00
570.78	65535.00
570.95	65535.00
571.11	65535.00
571.27	65535.00
571.43	65535.00
571.60	65535.00
571.76	65535.00
571.92	65535.00
572.09	65535.00
572.25	65535.00
572.41	65535.00
572.57	65535.00
572.74	65535.00
572.90	65535.00
573.06	65535.00
573.22	65535.00
573.38	65535.00
573.55	65535.00
573.71	65535.00
573.87	65535.00
574.03	65535.00
574.20	65535.00
574.36	65535.00
574.52	65535.00
574.68	65535.00
574.84	65535.00
575.01	65535.00
575.17	65535.00
575.33	65535.00
575.49	65535.00
575.65	65535.00
575.82	65535.00
575.98	65535.00
576.14	65535.00
576.30	65535.00
576.46	65535.00
576.62	65535.00
576.79	65535.00
576.95	65535.00
577.11	65535.00
577.27	65535.00
577.43	65535.00
577.59	65535.00
577.75	65535.00
577.92	65535.00
578.08	65535.00
578.24	65535.00
578.40	65535.00
578.56	65535.00
578.72	65535.00
578.88	65535.00
579.04	65535.00
579.21	65535.00
579.37	65535.00
579.53	65535.00
579.69	65535.00
579.85	65535.00
580.01	65535.00
580.17	65535.00
580.33	65535.00
580.49	65535.00
580.65	65535.00
580.82	65535.00
580.98	65535.00
581.14	65535.00
581.30	65535.00
581.46	65535.00
581.62	65535.00
581.78	65535.00
581.94	65535.00
582.10	65535.00
582.26	65535.00
582.42	65535.00
582.58	65535.00
582.74	65535.00
582.90	65535.00
583.06	65535.00
583.22	65535.00
583.38	65535.00
583.54	65535.00
583.70	65535.00
583.86	65535.00
584.02	65535.00
584.18	65535.00
584.34	65535.00
584.50	65535.00
584.66	65535.00
584.82	65535.00
584.98	65535.00
585.14	65535.00
585.30	65535.00
585.46	65535.00
585.62	65535.00
585.78	65535.00
585.94	65535.00
586.10	65535.00
586.26	65535.00
586.42	65535.00
586.58	65535.00
586.74	65535.00
586.90	65535.00
