SpectraSuite Data File
++++++++++++++++++++++++++++++++++++
Date: Thu Oct 24 13:21:38 EDT 2013
User: stostad
Dark Spectrum Present: No
Reference Spectrum Present: No
Number of Sampled Component Spectra: 1
Spectrometers: USB2+H05261
Integration Time (usec): 100000 (USB2+H05261)
Spectra Averaged: 1 (USB2+H05261)
Boxcar Smoothing: 0 (USB2+H05261)
Correct for Electrical Dark: No (USB2+H05261)
Strobe/Lamp Enabled: No (USB2+H05261)
Correct for Detector Non-linearity: No (USB2+H05261)
Correct for Stray Light: No (USB2+H05261)
Number of Pixels in Processed Spectrum: 2048
>>>>>Begin Processed Spectral Data<<<<<
365.73	517.26
365.92	517.26
366.12	517.26
366.32	524.28
366.52	475.13
366.72	484.49
366.91	440.02
367.11	463.43
367.31	533.64
367.51	454.06
367.70	475.13
367.90	435.34
368.10	514.92
368.30	486.83
368.49	500.87
368.69	486.83
368.89	468.11
369.09	486.83
369.28	451.72
369.48	475.13
369.68	503.22
369.87	517.26
370.07	535.98
370.27	547.69
370.47	741.95
370.66	1228.78
370.86	1191.33
371.06	1270.91
371.25	1280.27
371.45	1273.25
371.65	1275.59
371.84	1280.27
372.04	1308.36
372.24	1317.72
372.44	1289.64
372.63	1423.05
372.83	1409.00
373.03	1385.60
373.22	1390.28
373.42	1364.53
373.62	1392.62
373.81	1462.83
374.01	1394.96
374.21	1495.60
374.40	1416.02
374.60	1514.33
374.79	1528.37
374.99	1432.41
375.19	1483.90
375.38	1451.13
375.58	1514.33
375.78	1579.86
375.97	1589.22
376.17	1530.71
376.37	1547.09
376.56	1640.72
376.76	1493.26
376.95	1607.95
377.15	1640.72
377.35	1544.75
377.54	1610.29
377.74	1652.42
377.93	1631.35
378.13	1610.29
378.33	1654.76
378.52	1717.95
378.72	1607.95
378.91	1666.46
379.11	1579.86
379.31	1680.50
379.50	1654.76
379.70	1760.08
379.89	1790.51
380.09	1732.00
380.28	1724.97
380.48	1710.93
380.68	1867.75
380.87	1895.83
381.07	1727.32
381.26	1834.98
381.46	1746.04
381.65	1877.11
381.85	1846.68
382.04	1874.77
382.24	1954.35
382.43	1827.96
382.63	1891.15
382.83	1825.62
383.02	1944.99
383.22	1970.73
383.41	1914.56
383.61	1973.07
383.80	2029.24
384.00	1881.79
384.19	1968.39
384.39	2019.88
384.58	2047.97
384.78	1879.45
384.97	2019.88
385.17	1944.99
385.36	2050.31
385.56	2113.50
385.75	2106.48
385.95	2059.67
386.14	2066.69
386.34	2064.35
386.53	2059.67
386.72	2143.93
386.92	2062.01
387.11	2155.63
387.31	2104.14
387.50	2108.82
387.70	2193.08
387.89	2183.72
388.09	2258.62
388.28	2209.47
388.48	2190.74
388.67	2193.08
388.86	2284.36
389.06	2385.01
389.25	2312.45
389.45	2317.13
389.64	2307.77
389.84	2445.86
390.03	2324.15
390.22	2359.26
390.42	2377.98
390.61	2422.45
390.81	2331.17
391.00	2436.50
391.19	2417.77
391.39	2471.61
391.58	2513.74
391.78	2443.52
391.97	2476.29
392.16	2452.88
392.36	2469.27
392.55	2429.48
392.75	2708.00
392.94	2480.97
393.13	2588.63
393.33	2593.31
393.52	2649.49
393.71	2768.85
393.91	2609.70
394.10	2743.11
394.29	2717.36
394.49	2754.81
394.68	2595.65
394.88	2745.45
395.07	2708.00
395.26	2782.90
395.46	2729.06
395.65	2953.76
395.84	2902.26
396.04	3021.63
396.23	2925.67
396.42	2869.50
396.62	2974.82
396.81	2928.01
397.00	2932.69
397.19	2946.73
397.39	2979.50
397.58	3124.62
397.77	3110.57
397.97	3112.91
398.16	3084.83
398.35	3098.87
398.55	3124.62
398.74	3122.27
398.93	3239.30
399.12	3190.15
399.32	3155.04
399.51	3220.58
399.70	3274.41
399.90	3243.98
400.09	3300.16
400.28	3339.94
400.47	3286.11
400.67	3269.73
400.86	3400.80
401.05	3379.73
401.24	3361.01
401.44	3475.70
401.63	3405.48
401.82	3442.93
402.01	3440.59
402.21	3400.80
402.40	3438.25
402.59	3468.67
402.78	3569.32
402.97	3536.55
403.17	3772.94
403.36	3634.85
403.55	3595.06
403.74	3812.73
403.93	3751.88
404.13	3812.73
404.32	3960.19
404.51	3850.18
404.70	3908.69
404.89	3948.48
405.09	4133.39
405.28	3871.25
405.47	3880.61
405.66	4025.72
405.85	3995.29
406.05	3983.59
406.24	3990.61
406.43	4063.17
406.62	4133.39
406.81	4224.67
407.00	4023.38
407.20	4065.51
407.39	4067.85
407.58	4372.12
407.77	4400.21
407.96	4339.35
408.15	4264.46
408.34	4245.73
408.54	4308.93
408.73	4489.15
408.92	4496.17
409.11	4610.86
409.30	4622.56
409.49	4458.72
409.68	4465.74
409.87	4613.20
410.07	4681.07
410.26	4734.90
410.45	4800.44
410.64	4718.52
410.83	4751.29
411.02	4709.16
411.21	4858.95
411.40	4868.31
411.59	4877.68
411.78	4882.36
411.98	4917.47
412.17	4990.02
412.36	5228.76
412.55	5125.77
412.74	5268.55
412.93	5233.44
413.12	5291.95
413.31	5411.32
413.50	5242.80
413.69	5291.95
413.88	5331.74
414.07	5380.89
414.26	5495.58
414.45	5467.49
414.64	5518.98
414.83	5710.91
415.02	5654.73
415.22	5619.63
415.41	5783.46
415.60	5760.06
415.79	5959.00
415.98	5984.75
416.17	6064.33
416.36	5933.26
416.55	5987.09
416.74	6148.59
416.93	6066.67
417.12	6230.51
417.31	6356.90
417.50	6387.32
417.69	6267.95
417.88	6328.81
418.07	6387.32
418.26	6525.41
418.45	6406.05
418.64	6635.42
418.83	6644.78
419.02	6642.44
419.21	6679.89
419.39	6700.95
419.58	6649.46
419.77	6509.03
419.96	6724.36
420.15	6766.49
420.34	6970.12
420.53	6806.28
420.72	7000.54
420.91	7021.61
421.10	6853.09
421.29	7035.65
421.48	6899.90
421.67	6998.20
421.86	7054.37
422.05	6972.46
422.24	7073.10
422.43	7229.91
422.61	7145.66
422.80	7328.22
422.99	7239.28
423.18	7115.23
423.37	7391.41
423.56	7253.32
423.75	7288.43
423.94	7045.01
424.13	6827.34
424.32	6988.84
424.50	7250.98
424.69	7480.35
424.88	7403.11
425.07	7407.80
425.26	7227.57
425.45	7262.68
425.64	7328.22
425.83	7377.37
426.01	7414.82
426.20	7445.24
426.39	7480.35
426.58	7566.95
426.77	7330.56
426.96	7578.65
427.15	7386.73
427.33	7461.63
427.52	7583.34
427.71	7815.05
427.90	7691.00
428.09	7595.04
428.28	7903.99
428.46	7756.54
428.65	7913.35
428.84	8177.83
429.03	8060.80
429.22	7847.82
429.40	7936.76
429.59	8283.16
429.78	7911.01
429.97	7700.36
430.16	7887.61
430.34	8189.53
430.53	8189.53
430.72	8273.79
430.91	8409.54
431.10	8114.64
431.28	8498.49
431.47	8482.10
431.66	8503.17
431.85	8461.04
432.03	8554.66
432.22	8828.50
432.41	8727.86
432.60	8582.74
432.79	8837.86
432.97	8812.12
433.16	8912.76
433.35	8854.25
433.54	8777.01
433.72	8840.20
433.91	8741.90
434.10	9226.39
434.28	8891.70
434.47	9074.26
434.66	9109.36
434.85	9226.39
435.03	9348.10
435.22	9312.99
435.41	9926.21
435.59	9614.92
435.78	9467.47
435.97	9474.49
436.16	9507.26
436.34	9315.33
436.53	9687.48
436.72	9504.92
436.90	9364.48
437.09	9741.31
437.28	9598.54
437.46	9708.54
437.65	9701.52
437.84	10005.79
438.02	9958.98
438.21	9921.53
438.40	9802.16
438.58	10298.36
438.77	10380.28
438.96	10324.10
439.14	10492.62
439.33	10600.29
439.52	10607.31
439.70	10626.03
439.89	10651.78
440.08	10750.08
440.26	10619.01
440.45	10698.59
440.63	10834.34
440.82	11164.36
441.01	10934.98
441.19	11192.44
441.38	11206.48
441.57	11227.55
441.75	11227.55
441.94	11637.14
442.12	11375.00
442.31	11700.34
442.50	11700.34
442.68	11700.34
442.87	11728.42
443.05	11899.28
443.24	11967.16
443.43	11882.90
443.61	11822.05
443.80	12348.67
443.98	11658.21
444.17	11548.20
444.35	11733.11
444.54	12208.23
444.73	12091.21
444.91	12231.64
445.10	12212.92
445.28	12208.23
445.47	12030.35
445.65	12121.63
445.84	12477.40
446.02	12507.82
446.21	12390.80
446.39	12194.19
446.58	12556.97
446.77	12248.02
446.95	12163.76
447.14	12304.20
447.32	12404.84
447.51	12531.23
447.69	12458.67
447.88	12540.59
448.06	12404.84
448.25	12301.86
448.43	12805.07
448.62	12629.53
448.80	12615.49
448.99	12746.56
449.17	12957.21
449.36	12290.15
449.54	13020.40
449.73	13057.85
449.91	12908.05
450.10	13076.57
450.28	13188.92
450.46	13373.82
450.65	13275.52
450.83	13249.77
451.02	13238.07
451.20	13462.76
451.39	13111.68
451.57	13460.42
451.76	13151.47
451.94	13165.51
452.13	13635.96
452.31	13881.72
452.49	13420.63
452.68	13895.76
452.86	13603.19
453.05	13750.65
453.23	14005.77
453.42	13752.99
453.60	13673.41
453.78	13961.30
453.97	14015.13
454.15	13699.16
454.34	13891.08
454.52	13872.36
454.70	14303.01
454.89	14305.35
455.07	14469.19
455.26	14326.42
455.44	14317.06
455.62	14553.45
455.81	14586.22
455.99	14869.42
456.17	14569.83
456.36	14848.36
456.54	14813.25
456.73	14934.96
456.91	15496.69
457.09	15272.00
457.28	15080.07
457.46	15318.81
457.64	15384.34
457.83	15473.28
458.01	15264.97
458.19	15822.02
458.38	15782.23
458.56	15623.08
458.74	15866.49
458.93	15941.39
459.11	15946.07
459.29	15887.56
459.48	15815.00
459.66	15880.53
459.84	16037.35
460.03	16381.41
460.21	16283.11
460.39	15915.64
460.57	16198.85
460.76	16283.11
460.94	16463.33
461.12	16493.76
461.31	16568.65
461.49	16479.71
461.67	16453.97
461.85	16746.53
462.04	16657.59
462.22	17165.49
462.40	17238.05
462.59	16734.83
462.77	16695.04
462.95	17193.58
463.13	16971.22
463.32	17193.58
463.50	17436.99
463.68	17266.13
463.86	17619.55
464.05	17266.13
464.23	17378.48
464.41	17167.83
464.59	17111.66
464.78	17729.56
464.96	17572.74
465.14	17427.63
465.32	17722.54
465.50	17633.60
465.69	17755.30
465.87	17855.95
466.05	18082.98
466.23	17884.03
466.41	18148.51
466.60	18090.00
466.78	18043.19
466.96	17743.60
467.14	18118.09
467.32	18164.90
467.51	18602.58
467.69	17937.87
467.87	18326.39
468.05	18625.98
468.23	18317.03
468.41	18143.83
468.60	18546.40
468.78	18574.49
468.96	18487.89
469.14	18806.20
469.32	19140.90
469.50	18787.48
469.69	19220.48
469.87	19564.54
470.05	19227.50
470.23	19124.52
470.41	19662.84
470.59	19466.24
470.77	19379.64
470.95	19541.13
471.14	20311.17
471.32	19431.13
471.50	20168.40
471.68	19791.57
471.86	19810.29
472.04	20631.82
472.22	20559.27
472.40	20166.06
472.58	20482.03
472.77	20657.57
472.95	20945.45
473.13	21198.23
473.31	20716.08
473.49	21266.11
473.67	21013.33
473.85	20643.52
474.03	21600.80
474.21	21238.02
474.39	21614.85
474.57	21649.96
474.75	22134.45
474.93	22129.77
475.12	22017.42
475.30	22136.79
475.48	22209.34
475.66	22352.12
475.84	22455.10
476.02	22534.68
476.20	22876.40
476.38	23246.20
476.56	23559.83
476.74	23798.57
476.92	23646.43
477.10	23601.96
477.28	23838.36
477.46	24173.05
477.64	23915.59
477.82	24596.69
478.00	24959.47
478.18	24723.08
478.36	25146.72
478.54	25345.66
478.72	25467.37
478.90	25549.29
479.08	25551.63
479.26	26511.25
479.44	26153.15
479.62	26349.75
479.80	26822.54
479.98	26553.38
480.16	27604.28
480.34	26979.36
480.52	27618.32
480.70	27658.11
480.88	27454.48
481.06	28203.46
481.24	27892.16
481.41	28748.80
481.59	28666.88
481.77	28582.62
481.95	29226.27
482.13	29319.89
482.31	28837.74
482.49	29895.66
482.67	30010.35
482.85	30251.42
483.03	30347.39
483.21	30679.74
483.39	31299.98
483.57	30829.54
483.74	30941.88
483.92	31704.90
484.10	31922.57
484.28	32367.27
484.46	32472.59
484.64	33139.65
484.82	32451.53
485.00	33165.39
485.18	33343.27
485.35	33928.41
485.53	33649.88
485.71	34555.67
485.89	34778.02
486.07	34527.58
486.25	34497.16
486.43	34595.46
486.61	35086.97
486.78	35482.52
486.96	35878.07
487.14	36231.49
487.32	36381.29
487.50	36493.63
487.68	37233.24
487.85	37563.26
488.03	37844.12
488.21	38183.50
488.39	37977.53
488.57	38728.84
488.75	38728.84
488.92	38911.41
489.10	39232.06
489.28	39402.92
489.46	40261.90
489.64	39840.60
489.81	40453.82
489.99	40715.96
490.17	40793.20
490.35	41689.62
490.53	41757.50
490.70	42036.02
490.88	41614.72
491.06	42103.90
491.24	41865.16
491.41	42581.37
491.59	42808.40
491.77	42904.36
491.95	43695.46
492.13	43367.79
492.30	44069.95
492.48	43751.63
492.66	44046.54
492.84	44465.50
493.01	44861.05
493.19	45186.38
493.37	45530.44
493.54	45661.51
493.72	46054.72
493.90	46033.66
494.08	46213.88
494.25	46461.97
494.43	46756.88
494.61	47508.19
494.79	47042.43
494.96	47339.68
495.14	47856.93
495.32	47800.76
495.49	47756.29
495.67	48303.98
495.85	48699.53
496.02	48596.54
496.20	48825.92
496.38	48980.39
496.55	49221.47
496.73	49902.56
496.91	49825.32
497.09	49965.76
497.26	49731.70
497.44	50042.99
497.62	50443.23
497.79	51140.71
497.97	50862.18
498.14	51496.47
498.32	51416.89
498.50	51093.89
498.67	51826.48
498.85	51793.71
499.03	51842.87
499.20	52079.26
499.38	52069.90
499.56	52491.19
499.73	52570.77
499.91	52783.76
500.08	52741.63
500.26	52732.27
500.44	52954.62
500.61	53298.68
500.79	53048.24
500.97	53242.51
501.14	53584.22
501.32	53602.95
501.49	53932.96
501.67	54211.49
501.84	54127.23
502.02	54075.74
502.20	54372.99
502.37	54209.15
502.55	54445.54
502.72	54155.32
502.90	54508.74
503.07	54438.52
503.25	54808.32
503.43	54752.15
503.60	54932.37
503.78	55124.30
503.95	55107.91
504.13	55470.70
504.30	55398.14
504.48	55302.18
504.65	55627.51
504.83	55821.78
505.01	55866.25
505.18	55667.30
505.36	56095.62
505.53	55985.61
505.71	56069.87
505.88	56526.28
506.06	56062.85
506.23	56423.29
506.41	56329.67
506.58	56470.11
506.76	56718.20
506.93	56673.73
507.11	56708.84
507.28	56816.50
507.46	56846.93
507.63	57024.81
507.81	57111.41
507.98	57029.49
508.16	57497.60
508.33	57553.77
508.50	57558.45
508.68	57689.52
508.85	57846.34
509.03	57614.63
509.20	57832.30
509.38	58012.52
509.55	58019.54
509.73	58101.46
509.90	58260.62
510.08	58464.24
510.25	58188.06
510.42	58461.90
510.60	58454.88
510.77	58394.03
510.95	58712.34
511.12	58576.59
511.30	58805.96
511.47	58932.35
511.64	58784.90
511.82	59000.22
511.99	58932.35
512.17	59091.51
512.34	59166.40
512.51	59683.66
512.69	59606.42
512.86	59601.74
513.04	59702.38
513.21	59674.30
513.38	59583.02
513.56	59770.26
513.73	59618.13
513.90	59992.61
514.08	59959.84
514.25	60034.74
514.43	60060.49
514.60	59828.77
514.77	60233.69
514.95	60376.46
515.12	60198.58
515.29	60399.86
515.47	60612.85
515.64	60736.90
515.81	60456.04
515.99	60732.22
516.16	60692.43
516.33	60811.80
516.51	60987.34
516.68	60711.16
516.85	60891.38
517.03	61099.68
517.20	61244.80
517.37	61048.19
517.54	61144.16
517.72	61113.73
517.89	61221.39
518.06	61387.57
518.24	61336.08
518.41	61406.30
518.58	61488.21
518.75	61359.48
518.93	61457.79
519.10	61373.53
519.27	61710.56
519.45	61858.02
519.62	61829.93
519.79	62031.22
519.96	61895.47
520.14	62024.20
520.31	61689.50
520.48	61886.10
520.65	61944.62
520.83	62248.89
521.00	62337.83
521.17	62354.21
521.34	62417.41
521.52	62443.15
521.69	62333.15
521.86	62564.86
522.03	62518.05
522.20	62623.37
522.38	62983.82
522.55	62866.79
522.72	63114.89
522.89	62894.88
523.07	63039.99
523.24	62780.19
523.41	63135.95
523.58	63047.01
523.75	63316.17
523.92	63281.06
524.10	63316.17
524.27	63400.43
524.44	63463.63
524.61	63353.62
524.78	63276.38
524.96	63398.09
525.13	63330.22
525.30	63632.14
525.47	63845.13
525.64	63489.37
525.81	63590.01
525.98	63660.23
526.16	63594.70
526.33	63721.08
526.50	63854.50
526.67	63835.77
526.84	64048.76
527.01	63910.67
527.18	64025.35
527.36	64126.00
527.53	64090.89
527.70	64341.33
527.87	64299.20
528.04	64200.89
528.21	64432.61
528.38	64392.82
528.55	64315.58
528.72	64250.05
528.89	64353.03
529.07	64505.16
529.24	64378.78
529.41	64767.30
529.58	64881.99
529.75	64664.32
529.92	64757.94
530.09	64811.77
530.26	64907.74
530.43	64741.56
530.60	64769.64
530.77	64757.94
530.94	64844.54
531.11	65010.72
531.28	65094.98
531.46	65020.08
531.63	65029.44
531.80	65123.07
531.97	65134.77
532.14	65109.02
532.31	65083.28
532.48	65172.22
532.65	65504.57
532.82	65457.76
532.99	65490.53
533.16	65324.35
533.33	65422.65
533.50	65535.00
533.67	65476.49
533.84	65509.25
534.01	65392.23
534.18	65535.00
534.35	65535.00
534.52	65535.00
534.69	65535.00
534.86	65535.00
535.03	65520.96
535.20	65535.00
535.37	65535.00
535.54	65535.00
535.71	65535.00
535.88	65535.00
536.05	65535.00
536.22	65535.00
536.38	65535.00
536.55	65535.00
536.72	65535.00
536.89	65535.00
537.06	65535.00
537.23	65535.00
537.40	65535.00
537.57	65535.00
537.74	65535.00
537.91	65535.00
538.08	65535.00
538.25	65535.00
538.42	65535.00
538.59	65535.00
538.75	65535.00
538.92	65535.00
539.09	65535.00
539.26	65535.00
539.43	65535.00
539.60	65535.00
539.77	65535.00
539.94	65535.00
540.11	65535.00
540.28	65535.00
540.44	65535.00
540.61	65535.00
540.78	65535.00
540.95	65535.00
541.12	65535.00
541.29	65535.00
541.46	65535.00
541.62	65535.00
541.79	65535.00
541.96	65535.00
542.13	65535.00
542.30	65535.00
542.47	65535.00
542.63	65535.00
542.80	65535.00
542.97	65535.00
543.14	65535.00
543.31	65535.00
543.48	65535.00
543.64	65535.00
543.81	65535.00
543.98	65535.00
544.15	65535.00
544.32	65535.00
544.48	65535.00
544.65	65535.00
544.82	65535.00
544.99	65535.00
545.16	65535.00
545.32	65535.00
545.49	65535.00
545.66	65535.00
545.83	65535.00
546.00	65535.00
546.16	65535.00
546.33	65535.00
546.50	65535.00
546.67	65535.00
546.83	65535.00
547.00	65535.00
547.17	65535.00
547.34	65535.00
547.50	65535.00
547.67	65535.00
547.84	65535.00
548.00	65535.00
548.17	65535.00
548.34	65535.00
548.51	65535.00
548.67	65535.00
548.84	65535.00
549.01	65535.00
549.18	65535.00
549.34	65535.00
549.51	65535.00
549.68	65535.00
549.84	65535.00
550.01	65535.00
550.18	65535.00
550.34	65535.00
550.51	65535.00
550.68	65535.00
550.84	65535.00
551.01	65535.00
551.18	65535.00
551.34	65535.00
551.51	65535.00
551.68	65535.00
551.84	65535.00
552.01	65535.00
552.18	65535.00
552.34	65535.00
552.51	65535.00
552.68	65535.00
552.84	65535.00
553.01	65535.00
553.18	65535.00
553.34	65535.00
553.51	65535.00
553.67	65535.00
553.84	65535.00
554.01	65535.00
554.17	65535.00
554.34	65535.00
554.51	65535.00
554.67	65535.00
554.84	65535.00
555.00	65535.00
555.17	65535.00
555.33	65535.00
555.50	65535.00
555.67	65535.00
555.83	65535.00
556.00	65535.00
556.16	65535.00
556.33	65535.00
556.50	65535.00
556.66	65535.00
556.83	65535.00
556.99	65535.00
557.16	65535.00
557.32	65535.00
557.49	65535.00
557.65	65535.00
557.82	65535.00
557.98	65535.00
558.15	65535.00
558.32	65535.00
558.48	65535.00
558.65	65535.00
558.81	65535.00
558.98	65535.00
559.14	65535.00
559.31	65535.00
559.47	65535.00
559.64	65535.00
559.80	65535.00
559.97	65535.00
560.13	65535.00
560.30	65535.00
560.46	65535.00
560.63	65535.00
560.79	65535.00
560.96	65535.00
561.12	65535.00
561.29	65535.00
561.45	65535.00
561.61	65535.00
561.78	65535.00
561.94	65535.00
562.11	65535.00
562.27	65535.00
562.44	65535.00
562.60	65535.00
562.77	65535.00
562.93	65535.00
563.10	65535.00
563.26	65535.00
563.42	65535.00
563.59	65535.00
563.75	65535.00
563.92	65535.00
564.08	65535.00
564.24	65535.00
564.41	65535.00
564.57	65535.00
564.74	65535.00
564.90	65535.00
565.07	65535.00
565.23	65535.00
565.39	65535.00
565.56	65535.00
565.72	65535.00
565.88	65535.00
566.05	65535.00
566.21	65535.00
566.38	65535.00
566.54	65535.00
566.70	65535.00
566.87	65535.00
567.03	65535.00
567.19	65535.00
567.36	65535.00
567.52	65535.00
567.68	65535.00
567.85	65535.00
568.01	65535.00
568.17	65535.00
568.34	65535.00
568.50	65535.00
568.66	65535.00
568.83	65535.00
568.99	65535.00
569.15	65535.00
569.32	65535.00
569.48	65535.00
569.64	65535.00
569.81	65535.00
569.97	65535.00
570.13	65535.00
570.30	65535.00
570.46	65535.00
570.62	65535.00
570.78	65535.00
570.95	65535.00
571.11	65535.00
571.27	65535.00
571.43	65535.00
571.60	65535.00
571.76	65535.00
571.92	65535.00
572.09	65535.00
572.25	65535.00
572.41	65535.00
572.57	65535.00
572.74	65535.00
572.90	65535.00
573.06	65535.00
573.22	65535.00
573.38	65535.00
573.55	65535.00
573.71	65535.00
573.87	65535.00
574.03	65535.00
574.20	65535.00
574.36	65535.00
574.52	65535.00
574.68	65535.00
574.84	65535.00
575.01	65535.00
575.17	65535.00
575.33	65535.00
575.49	65535.00
575.65	65535.00
575.82	65535.00
575.98	65535.00
576.14	65535.00
576.30	65535.00
576.46	65535.00
576.62	65535.00
576.79	65535.00
576.95	65535.00
577.11	65535.00
577.27	65535.00
577.43	65535.00
577.59	65535.00
577.75	65535.00
577.92	65535.00
578.08	65535.00
578.24	65535.00
578.40	65535.00
578.56	65535.00
578.72	65535.00
578.88	65535.00
579.04	65535.00
579.21	65535.00
579.37	65535.00
579.53	65535.00
579.69	65535.00
579.85	65535.00
580.01	65535.00
580.17	65535.00
580.33	65535.00
580.49	65535.00
580.65	65535.00
580.82	65535.00
580.98	65535.00
581.14	65535.00
581.30	65535.00
581.46	65535.00
581.62	65535.00
581.78	65535.00
581.94	65535.00
582.10	65535.00
582.26	65535.00
582.42	65535.00
582.58	65535.00
582.74	65535.00
582.90	65535.00
583.06	65535.00
583.22	65535.00
583.38	65535.00
583.54	65535.00
583.70	65535.00
583.86	65535.00
584.02	65535.00
584.18	65535.00
584.34	65535.00
584.50	65535.00
584.66	65535.00
584.82	65535.00
584.98	65535.00
585.14	65535.00
585.30	65535.00
585.46	65535.00
585.62	65535.00
585.78	65535.00
585.94	65535.00
586.10	65535.00
586.26	65535.00
586.42	65535.00
586.58	65535.00
586.74	65535.00
586.90	65535.00
587.06	65535.00
