SpectraSuite Data File
++++++++++++++++++++++++++++++++++++
Date: Thu Oct 24 13:21:31 EDT 2013
User: stostad
Dark Spectrum Present: No
Reference Spectrum Present: No
Number of Sampled Component Spectra: 1
Spectrometers: USB2+H05261
Integration Time (usec): 100000 (USB2+H05261)
Spectra Averaged: 1 (USB2+H05261)
Boxcar Smoothing: 0 (USB2+H05261)
Correct for Electrical Dark: No (USB2+H05261)
Strobe/Lamp Enabled: No (USB2+H05261)
Correct for Detector Non-linearity: No (USB2+H05261)
Correct for Stray Light: No (USB2+H05261)
Number of Pixels in Processed Spectrum: 2048
>>>>>Begin Processed Spectral Data<<<<<
365.73	566.41
365.92	566.41
366.12	566.41
366.32	451.72
366.52	510.24
366.72	496.19
366.91	507.90
367.11	505.56
367.31	411.93
367.51	418.96
367.70	463.43
367.90	482.15
368.10	421.30
368.30	442.36
368.49	447.04
368.69	458.74
368.89	489.17
369.09	475.13
369.28	503.22
369.48	538.32
369.68	543.00
369.87	624.92
370.07	571.09
370.27	547.69
370.47	720.88
370.66	1123.46
370.86	1198.35
371.06	1235.80
371.25	1224.10
371.45	1196.01
371.65	1146.86
371.84	1221.76
372.04	1217.08
372.24	1200.69
372.44	1149.20
372.63	1254.53
372.83	1231.12
373.03	1362.19
373.22	1303.68
373.42	1205.38
373.62	1252.19
373.81	1315.38
374.01	1390.28
374.21	1350.49
374.40	1270.91
374.60	1376.24
374.79	1336.45
374.99	1331.76
375.19	1348.15
375.38	1427.73
375.58	1460.49
375.78	1409.00
375.97	1401.98
376.17	1394.96
376.37	1416.02
376.56	1423.05
376.76	1530.71
376.95	1493.26
377.15	1430.07
377.35	1465.18
377.54	1521.35
377.74	1460.49
377.93	1481.56
378.13	1453.47
378.33	1507.30
378.52	1488.58
378.72	1577.52
378.91	1549.43
379.11	1544.75
379.31	1598.59
379.50	1547.09
379.70	1650.08
379.89	1610.29
380.09	1619.65
380.28	1603.27
380.48	1514.33
380.68	1713.27
380.87	1661.78
381.07	1678.16
381.26	1657.10
381.46	1689.87
381.65	1682.85
381.85	1715.61
382.04	1621.99
382.24	1788.17
382.43	1729.66
382.63	1739.02
382.83	1680.50
383.02	1743.70
383.22	1671.14
383.41	1762.42
383.61	1717.95
383.80	1783.49
384.00	1806.89
384.19	1867.75
384.39	1830.30
384.58	1769.44
384.78	1769.44
384.97	1851.36
385.17	1837.32
385.36	1806.89
385.56	1783.49
385.75	1825.62
385.95	1949.67
386.14	1884.13
386.34	1867.75
386.53	1863.07
386.72	1933.28
386.92	1842.00
387.11	1947.33
387.31	1935.62
387.50	2005.84
387.70	1930.94
387.89	1963.71
388.09	2040.95
388.28	2059.67
388.48	1987.11
388.67	2017.54
388.86	2127.55
389.06	2085.42
389.25	2113.50
389.45	2022.22
389.64	2073.71
389.84	2054.99
390.03	2190.74
390.22	2176.70
390.42	2099.46
390.61	2036.27
390.81	2195.42
391.00	2118.18
391.19	2176.70
391.39	2307.77
391.58	2284.36
391.78	2317.13
391.97	2298.41
392.16	2228.19
392.36	2331.17
392.55	2289.04
392.75	2434.16
392.94	2298.41
393.13	2328.83
393.33	2223.51
393.52	2310.11
393.71	2417.77
393.91	2469.27
394.10	2387.35
394.29	2504.37
394.49	2441.18
394.68	2532.46
394.88	2427.14
395.07	2436.50
395.26	2546.50
395.46	2457.56
395.65	2499.69
395.84	2597.99
396.04	2649.49
396.23	2675.23
396.42	2698.64
396.62	2766.51
396.81	2656.51
397.00	2658.85
397.19	2752.47
397.39	2670.55
397.58	2738.43
397.77	2785.24
397.97	2785.24
398.16	2647.15
398.35	2717.36
398.55	2736.09
398.74	2801.62
398.93	2944.39
399.12	2902.26
399.32	2890.56
399.51	2881.20
399.70	3005.25
399.90	2939.71
400.09	2897.58
400.28	3002.91
400.47	3073.12
400.67	3075.46
400.86	2984.18
401.05	3059.08
401.24	2963.12
401.44	3138.66
401.63	3251.00
401.82	3070.78
402.01	3159.72
402.21	3145.68
402.40	3255.69
402.59	3159.72
402.78	3180.79
402.97	3225.26
403.17	3361.01
403.36	3332.92
403.55	3449.95
403.74	3323.56
403.93	3471.01
404.13	3428.88
404.32	3480.38
404.51	3356.33
404.70	3508.46
404.89	3496.76
405.09	3576.34
405.28	3639.53
405.47	3578.68
405.66	3597.40
405.85	3604.42
406.05	3676.98
406.24	3646.55
406.43	3651.24
406.62	3707.41
406.81	3700.39
407.00	3794.01
407.20	3709.75
407.39	3803.37
407.58	3695.71
407.77	3791.67
407.96	3838.48
408.15	3915.72
408.34	3887.63
408.54	3899.33
408.73	3918.06
408.92	3948.48
409.11	3875.93
409.30	4191.90
409.49	4238.71
409.68	4077.21
409.87	4191.90
410.07	4297.22
410.26	4252.75
410.45	4231.69
410.64	4318.29
410.83	4273.82
411.02	4447.02
411.21	4432.97
411.40	4355.74
411.59	4489.15
411.78	4542.98
411.98	4573.41
412.17	4662.35
412.36	4606.17
412.55	4657.67
412.74	4816.82
412.93	4954.91
413.12	4615.54
413.31	4870.65
413.50	4898.74
413.69	5020.45
413.88	5008.75
414.07	4887.04
414.26	5032.15
414.45	5111.73
414.64	5165.56
414.83	5186.63
415.02	5247.48
415.22	5322.38
415.41	5350.46
415.60	5401.96
415.79	5441.75
415.98	5411.32
416.17	5533.03
416.36	5366.85
416.55	5540.05
416.74	5619.63
416.93	5547.07
417.12	5647.71
417.31	5603.24
417.50	5605.58
417.69	5799.85
417.88	6111.14
418.07	5912.19
418.26	5980.07
418.45	5968.37
418.64	6171.99
418.83	5863.04
419.02	6108.80
419.21	6141.57
419.39	6244.55
419.58	5947.30
419.77	6104.12
419.96	6120.50
420.15	6169.65
420.34	6312.42
420.53	6326.47
420.72	6436.47
420.91	6347.53
421.10	6593.29
421.29	6560.52
421.48	6387.32
421.67	6490.31
421.86	6450.52
422.05	6516.05
422.24	6525.41
422.43	6616.69
422.61	6597.97
422.80	6609.67
422.99	6532.44
423.18	6682.23
423.37	6850.75
423.56	6574.56
423.75	6712.66
423.94	6558.18
424.13	6176.67
424.32	6354.55
424.50	6700.95
424.69	7073.10
424.88	6946.71
425.07	6586.27
425.26	6670.53
425.45	6761.81
425.64	6726.70
425.83	6677.55
426.01	6820.32
426.20	6675.21
426.39	6836.70
426.58	6787.55
426.77	6761.81
426.96	6995.86
427.15	6869.47
427.33	7145.66
427.52	6930.33
427.71	7232.26
427.90	6850.75
428.09	7101.19
428.28	7236.94
428.46	7124.59
428.65	7129.27
428.84	7382.05
429.03	7194.81
429.22	7169.06
429.40	7339.92
429.59	7246.30
429.78	7171.40
429.97	7028.63
430.16	7447.58
430.34	7508.44
430.53	7616.10
430.72	7662.91
430.91	7709.72
431.10	7527.16
431.28	7854.84
431.47	7810.37
431.66	7791.64
431.85	7709.72
432.03	7985.91
432.22	7929.74
432.41	7911.01
432.60	7742.49
432.79	7826.75
432.97	7995.27
433.16	7882.92
433.35	7948.46
433.54	8037.40
433.72	8212.94
433.91	8320.60
434.10	8397.84
434.28	7985.91
434.47	8386.14
434.66	8318.26
434.85	8339.33
435.03	8582.74
435.22	8395.50
435.41	8961.91
435.59	8791.05
435.78	8638.92
435.97	8917.44
436.16	8741.90
436.34	8699.77
436.53	8538.27
436.72	8901.06
436.90	8500.83
437.09	8861.27
437.28	8601.47
437.46	8727.86
437.65	8915.10
437.84	8950.21
438.02	8889.35
438.21	8971.27
438.40	8889.35
438.58	9163.20
438.77	9369.16
438.96	9310.65
439.14	9488.53
439.33	9415.98
439.52	9582.15
439.70	9692.16
439.89	9832.59
440.08	9591.52
440.26	9898.13
440.45	9933.23
440.63	9909.83
440.82	10176.65
441.01	10036.22
441.19	10010.47
441.38	10342.83
441.57	10094.73
441.75	10300.70
441.94	10572.20
442.12	10501.98
442.31	10691.57
442.50	10588.58
442.68	10684.55
442.87	10478.58
443.05	10729.02
443.24	10986.47
443.43	10794.55
443.61	10953.71
443.80	11115.20
443.98	10700.93
444.17	10340.49
444.35	10724.33
444.54	11000.52
444.73	10899.87
444.91	11098.82
445.10	10916.26
445.28	11129.25
445.47	11021.58
445.65	10693.91
445.84	11222.87
446.02	11250.96
446.21	11094.14
446.39	11173.72
446.58	11236.91
446.77	11073.07
446.95	10848.38
447.14	11061.37
447.32	11272.02
447.51	11265.00
447.69	11199.46
447.88	11199.46
448.06	11176.06
448.25	11267.34
448.43	11328.19
448.62	11335.21
448.80	11304.79
448.99	11534.16
449.17	11590.33
449.36	11421.81
449.54	11552.88
449.73	11765.87
449.91	11950.78
450.10	11590.33
450.28	11976.52
450.46	12166.10
450.65	11831.41
450.83	12081.85
451.02	12114.61
451.20	12182.49
451.39	11997.59
451.57	12348.67
451.76	12105.25
451.94	12126.32
452.13	12278.45
452.31	12334.62
452.49	12028.01
452.68	12414.20
452.86	12212.92
453.05	12601.44
453.23	12624.85
453.42	12374.41
453.60	12311.22
453.78	12505.48
453.97	12259.73
454.15	12575.70
454.34	12549.95
454.52	13109.34
454.70	12657.62
454.89	12807.41
455.07	12774.64
455.26	12641.23
455.44	13209.98
455.62	13231.05
455.81	13186.58
455.99	13277.86
456.17	13231.05
456.36	13249.77
456.54	13387.86
456.73	13518.93
456.91	13928.53
457.09	13682.77
457.28	13776.39
457.46	13692.13
457.64	13961.30
457.83	13898.10
458.01	13778.73
458.19	14207.05
458.38	13776.39
458.56	14090.02
458.74	14335.78
458.93	14214.07
459.11	14272.59
459.29	14445.79
459.48	14424.72
459.66	14537.07
459.84	14647.07
460.03	14712.61
460.21	14391.95
460.39	14183.65
460.57	14665.80
460.76	14759.42
460.94	14628.35
461.12	14640.05
461.31	14712.61
461.49	14857.72
461.67	14787.50
461.85	15276.68
462.04	14860.06
462.22	15545.84
462.40	15398.38
462.59	15269.66
462.77	15129.22
462.95	15288.38
463.13	15405.41
463.32	15157.31
463.50	15358.60
463.68	15609.03
463.86	15515.41
464.05	15426.47
464.23	15501.37
464.41	15688.61
464.59	15569.24
464.78	16173.10
464.96	15934.37
465.14	15564.56
465.32	15779.89
465.50	15882.88
465.69	16095.86
465.87	16147.36
466.05	16060.76
466.23	16137.99
466.41	15758.83
466.60	16521.84
466.78	16166.08
466.96	16063.10
467.14	16379.07
467.32	16365.03
467.51	16444.60
467.69	16287.79
467.87	16308.85
468.05	16753.55
468.23	16428.22
468.41	16711.42
468.60	16542.91
468.78	16840.15
468.96	16580.36
469.14	16723.13
469.32	17249.75
469.50	16596.74
469.69	16816.75
469.87	17088.25
470.05	17294.22
470.23	17483.80
470.41	17282.52
470.59	17741.26
470.77	17493.16
470.95	17406.56
471.14	17804.46
471.32	17357.41
471.50	17956.59
471.68	17879.35
471.86	17834.88
472.04	18157.88
472.22	18298.31
472.40	18146.17
472.58	18244.48
472.77	18300.65
472.95	18551.09
473.13	19150.26
473.31	18342.78
473.49	18691.52
473.67	18682.16
473.85	18857.70
474.03	19520.07
474.21	19152.60
474.39	19360.91
474.57	19346.87
474.75	19714.33
474.93	19754.12
475.12	19545.81
475.30	20002.22
475.48	19875.83
475.66	20063.07
475.84	19962.43
476.02	20039.67
476.20	20566.29
476.38	20568.63
476.56	21329.30
476.74	21111.63
476.92	21034.39
477.10	21034.39
477.28	21378.45
477.46	21191.21
477.64	21729.53
477.82	21720.17
478.00	22611.92
478.18	22232.75
478.36	22141.47
478.54	22658.73
478.72	22607.23
478.90	22817.88
479.08	23047.26
479.26	23379.61
479.44	23529.41
479.62	23852.40
479.80	23515.36
479.98	24046.66
480.16	24720.74
480.34	24357.96
480.52	24629.46
480.70	24528.81
480.88	24194.12
481.06	24788.61
481.24	24718.40
481.41	25441.62
481.59	25605.46
481.77	25867.60
481.95	25942.50
482.13	26293.58
482.31	25951.86
482.49	26890.41
482.67	26707.85
482.85	26572.10
483.03	27154.90
483.21	27241.50
483.39	27798.54
483.57	27309.37
483.74	28030.26
483.92	28198.77
484.10	27971.74
484.28	28577.94
484.46	29116.26
484.64	29333.93
484.82	28629.43
485.00	29230.95
485.18	29855.87
485.35	30195.25
485.53	29996.31
485.71	30611.87
485.89	30822.51
486.07	30471.43
486.25	30991.03
486.43	31222.75
486.61	31482.55
486.78	31749.37
486.96	32044.27
487.14	32428.12
487.32	32222.16
487.50	32428.12
487.68	32938.36
487.85	33684.99
488.03	33677.97
488.21	33755.21
488.39	33862.87
488.57	34129.69
488.75	34171.82
488.92	34422.26
489.10	35185.27
489.28	34899.73
489.46	35725.94
489.64	35711.89
489.81	36112.13
489.99	36322.77
490.17	36442.14
490.35	36643.43
490.53	37202.82
490.70	37823.06
490.88	37383.04
491.06	37944.76
491.24	37404.10
491.41	37734.12
491.59	38239.67
491.77	38321.59
491.95	38550.96
492.13	39037.80
492.30	39260.15
492.48	39302.28
492.66	39658.04
492.84	39929.54
493.01	40264.24
493.19	40156.57
493.37	40783.83
493.54	40608.29
493.72	40882.14
493.90	40957.03
494.08	41551.53
494.25	41989.21
494.43	41727.07
494.61	41900.27
494.79	41935.38
494.96	42206.88
495.14	42457.32
495.32	43379.49
495.49	43161.82
495.67	43599.50
495.85	43856.96
496.02	43838.23
496.20	44301.66
496.38	44304.00
496.55	44182.29
496.73	45577.25
496.91	44776.79
497.09	45017.86
497.26	45172.34
497.44	45492.99
497.62	45722.37
497.79	46160.05
497.97	45989.19
498.14	46314.52
498.32	46887.95
498.50	46834.12
498.67	47213.29
498.85	46667.94
499.03	47147.75
499.20	47487.13
499.38	47674.37
499.56	47650.97
499.73	47835.87
499.91	47962.26
500.08	48282.91
500.26	47997.37
500.44	48264.19
500.61	48376.53
500.79	48435.05
500.97	48949.96
501.14	49504.67
501.32	49090.40
501.49	48903.15
501.67	49242.53
501.84	49773.83
502.02	49923.63
502.20	49883.84
502.37	49951.71
502.55	49975.12
502.72	49930.65
502.90	50279.39
503.07	50508.76
503.25	50948.78
503.43	50438.54
503.60	51011.98
503.78	51257.73
503.95	50707.71
504.13	50897.29
504.30	51304.54
504.48	51035.38
504.65	51554.98
504.83	52163.52
505.01	51941.17
505.18	51482.42
505.36	52020.75
505.53	52013.73
505.71	52243.10
505.88	52086.28
506.06	52334.38
506.23	52502.90
506.41	52528.64
506.58	52783.76
506.76	52992.07
506.93	53045.90
507.11	52905.47
507.28	53216.76
507.46	53099.73
507.63	53015.47
507.81	53680.19
507.98	53298.68
508.16	53457.84
508.33	53460.18
508.50	53811.26
508.68	54064.03
508.85	54129.57
509.03	54136.59
509.20	54178.72
509.38	54380.01
509.55	54478.31
509.73	54583.63
509.90	54583.63
510.08	54719.38
510.25	54677.25
510.42	54759.17
510.60	54794.28
510.77	54953.44
510.95	54897.27
511.12	54883.22
511.30	54972.16
511.47	55316.22
511.64	55753.90
511.82	55732.84
511.99	55526.87
512.17	55730.50
512.34	55583.04
512.51	55997.32
512.69	56214.99
512.86	55976.25
513.04	56467.76
513.21	56264.14
513.38	56229.03
513.56	56191.58
513.73	56383.51
513.90	56619.90
514.08	56587.13
514.25	56659.69
514.43	56884.38
514.60	56619.90
514.77	56575.43
514.95	56818.84
515.12	56830.55
515.29	56970.98
515.47	56994.39
515.64	57347.81
515.81	57195.67
515.99	57036.51
516.16	57422.70
516.33	57186.31
516.51	57478.88
516.68	57399.30
516.85	57605.26
517.03	57701.23
517.20	57762.08
517.37	57549.09
517.54	57804.21
517.72	57708.25
517.89	57764.42
518.06	58218.49
518.24	57958.69
518.41	58085.07
518.58	58010.18
518.75	58019.54
518.93	58218.49
519.10	58075.71
519.27	58401.05
519.45	58515.73
519.62	58532.12
519.79	58340.19
519.96	58702.98
520.14	58724.04
520.31	58511.05
520.48	58873.84
520.65	58731.06
520.83	58986.18
521.00	59098.53
521.17	58852.77
521.34	58876.18
521.52	59171.08
521.69	58869.15
521.86	59075.12
522.03	59215.55
522.20	59236.62
522.38	59604.08
522.55	59578.34
522.72	59531.53
522.89	59480.03
523.07	59749.20
523.24	59489.40
523.41	59859.20
523.58	59604.08
523.75	59842.82
523.92	59915.37
524.10	60032.40
524.27	60065.17
524.44	59934.10
524.61	60018.36
524.78	60233.69
524.96	60207.94
525.13	60289.86
525.30	60275.82
525.47	60582.43
525.64	60420.93
525.81	60350.71
525.98	60540.30
526.16	60350.71
526.33	60486.46
526.50	60734.56
526.67	60666.69
526.84	60753.29
527.01	60720.52
527.18	60626.90
527.36	60718.18
527.53	60837.54
527.70	60919.46
527.87	61076.28
528.04	60786.05
528.21	61130.11
528.38	61144.16
528.55	61270.54
528.72	61179.26
528.89	61174.58
529.07	61050.53
529.24	60954.57
529.41	61326.72
529.58	61499.92
529.75	61481.19
529.92	61478.85
530.09	61265.86
530.26	61284.59
530.43	61478.85
530.60	61368.85
530.77	61436.72
530.94	61883.76
531.11	61869.72
531.28	61858.02
531.46	61642.69
531.63	61769.08
531.80	61722.27
531.97	61923.55
532.14	62047.60
532.31	61951.64
532.48	62120.16
532.65	62094.41
532.82	62038.24
532.99	62085.05
533.16	62094.41
533.33	62202.08
533.50	62284.00
533.67	62234.84
533.84	62049.94
534.01	62166.97
534.18	62302.72
534.35	62433.79
534.52	62501.67
534.69	62482.94
534.86	62482.94
535.03	62241.87
535.20	62621.03
535.37	62745.08
535.54	62885.51
535.71	62735.72
535.88	62850.41
536.05	62731.04
536.22	62667.84
536.38	62754.44
536.55	62855.09
536.72	62904.24
536.89	62845.72
537.06	62981.48
537.23	63128.93
537.40	63032.97
537.57	63021.26
537.74	62948.71
537.91	63365.32
538.08	63093.82
538.25	63063.39
538.42	63119.57
538.59	63440.22
538.75	63208.51
538.92	63501.07
539.09	63409.79
539.26	63302.13
539.43	63428.52
539.60	63341.92
539.77	63451.92
539.94	63826.41
540.11	63676.61
540.28	63777.26
540.44	63678.96
540.61	63671.93
540.78	63618.10
540.95	63721.08
541.12	63795.98
541.29	63671.93
541.46	63962.16
541.62	63950.46
541.79	64044.08
541.96	63744.49
542.13	63831.09
542.30	63969.18
542.47	63880.24
542.63	64182.17
542.80	64126.00
542.97	64343.67
543.14	64561.34
543.31	64280.47
543.48	64390.48
543.64	64654.96
543.81	64423.25
543.98	64519.21
544.15	64374.09
544.32	64575.38
544.48	64706.45
544.65	64580.06
544.82	64687.73
544.99	64549.63
545.16	64500.48
545.32	64495.80
545.49	65087.96
545.66	64921.78
545.83	64970.93
546.00	65020.08
546.16	64935.82
546.33	64933.48
546.50	64676.02
546.67	64788.37
546.83	64645.60
547.00	64821.14
547.17	64596.45
547.34	64769.64
547.50	64842.20
547.67	65197.96
547.84	65001.36
548.00	65204.98
548.17	65113.70
548.34	65183.92
548.51	65223.71
548.67	65214.35
548.84	65036.47
549.01	65282.22
549.18	65188.60
549.34	65462.44
549.51	65413.29
549.68	65350.10
549.84	65387.55
550.01	65279.88
550.18	65123.07
550.34	65109.02
550.51	65347.76
550.68	65502.23
550.84	65312.65
551.01	65535.00
551.18	65333.71
551.34	65535.00
551.51	65289.24
551.68	65504.57
551.84	65361.80
552.01	65535.00
552.18	65530.32
552.34	65413.29
552.51	65535.00
552.68	65535.00
552.84	65535.00
553.01	65535.00
553.18	65535.00
553.34	65535.00
553.51	65450.74
553.67	65535.00
553.84	65535.00
554.01	65535.00
554.17	65535.00
554.34	65535.00
554.51	65535.00
554.67	65535.00
554.84	65535.00
555.00	65535.00
555.17	65535.00
555.33	65535.00
555.50	65535.00
555.67	65535.00
555.83	65535.00
556.00	65535.00
556.16	65535.00
556.33	65535.00
556.50	65535.00
556.66	65535.00
556.83	65535.00
556.99	65535.00
557.16	65535.00
557.32	65535.00
557.49	65535.00
557.65	65535.00
557.82	65535.00
557.98	65535.00
558.15	65535.00
558.32	65535.00
558.48	65535.00
558.65	65535.00
558.81	65535.00
558.98	65535.00
559.14	65535.00
559.31	65535.00
559.47	65535.00
559.64	65535.00
559.80	65535.00
559.97	65535.00
560.13	65535.00
560.30	65535.00
560.46	65535.00
560.63	65535.00
560.79	65535.00
560.96	65535.00
561.12	65535.00
561.29	65535.00
561.45	65535.00
561.61	65535.00
561.78	65535.00
561.94	65535.00
562.11	65535.00
562.27	65535.00
562.44	65535.00
562.60	65535.00
562.77	65535.00
562.93	65535.00
563.10	65535.00
563.26	65535.00
563.42	65535.00
563.59	65535.00
563.75	65535.00
563.92	65535.00
564.08	65535.00
564.24	65535.00
564.41	65535.00
564.57	65535.00
564.74	65535.00
564.90	65535.00
565.07	65535.00
565.23	65535.00
565.39	65535.00
565.56	65535.00
565.72	65535.00
565.88	65535.00
566.05	65535.00
566.21	65535.00
566.38	65535.00
566.54	65535.00
566.70	65535.00
566.87	65535.00
567.03	65535.00
567.19	65535.00
567.36	65535.00
567.52	65535.00
567.68	65535.00
567.85	65535.00
568.01	65535.00
568.17	65535.00
568.34	65535.00
568.50	65535.00
568.66	65535.00
568.83	65535.00
568.99	65535.00
569.15	65535.00
569.32	65535.00
569.48	65535.00
569.64	65535.00
569.81	65535.00
569.97	65535.00
570.13	65535.00
570.30	65535.00
570.46	65535.00
570.62	65535.00
570.78	65535.00
570.95	65535.00
571.11	65535.00
571.27	65535.00
571.43	65535.00
571.60	65535.00
571.76	65535.00
571.92	65535.00
572.09	65535.00
572.25	65535.00
572.41	65535.00
572.57	65535.00
572.74	65535.00
572.90	65535.00
573.06	65535.00
573.22	65535.00
573.38	65535.00
573.55	65535.00
573.71	65535.00
573.87	65535.00
574.03	65535.00
574.20	65535.00
574.36	65535.00
574.52	65535.00
574.68	65535.00
574.84	65535.00
575.01	65535.00
575.17	65535.00
575.33	65535.00
575.49	65535.00
575.65	65535.00
575.82	65535.00
575.98	65535.00
576.14	65535.00
576.30	65535.00
576.46	65535.00
576.62	65535.00
576.79	65535.00
576.95	65535.00
577.11	65535.00
577.27	65535.00
577.43	65535.00
577.59	65535.00
577.75	65535.00
577.92	65535.00
578.08	65535.00
578.24	65535.00
578.40	65535.00
578.56	65535.00
578.72	65535.00
578.88	65535.00
579.04	65535.00
579.21	65535.00
579.37	65535.00
579.53	65535.00
579.69	65535.00
579.85	65535.00
580.01	65535.00
580.17	65535.00
580.33	65535.00
580.49	65535.00
580.65	65535.00
580.82	65535.00
580.98	65535.00
581.14	65535.00
581.30	65535.00
581.46	65535.00
581.62	65535.00
581.78	65535.00
581.94	65535.00
582.10	65535.00
582.26	65535.00
582.42	65535.00
582.58	65535.00
582.74	65535.00
582.90	65535.00
583.06	65535.00
583.22	65535.00
583.38	65535.00
583.54	65535.00
583.70	65535.00
583.86	65535.00
584.02	65535.00
584.18	65535.00
584.34	65535.00
584.50	65535.00
584.66	65535.00
584.82	65535.00
584.98	65535.00
585.14	65535.00
585.30	65535.00
585.46	65535.00
585.62	65535.00
585.78	65535.00
585.94	65535.00
586.10	65535.00
586.26	65535.00
586.42	65535.00
586.58	65535.00
586.74	65535.00
586.90	65535.00
587.06	65535.00
