SpectraSuite Data File
++++++++++++++++++++++++++++++++++++
Date: Thu Oct 24 13:21:24 EDT 2013
User: stostad
Dark Spectrum Present: No
Reference Spectrum Present: No
Number of Sampled Component Spectra: 1
Spectrometers: USB2+H05261
Integration Time (usec): 100000 (USB2+H05261)
Spectra Averaged: 1 (USB2+H05261)
Boxcar Smoothing: 0 (USB2+H05261)
Correct for Electrical Dark: No (USB2+H05261)
Strobe/Lamp Enabled: No (USB2+H05261)
Correct for Detector Non-linearity: No (USB2+H05261)
Correct for Stray Light: No (USB2+H05261)
Number of Pixels in Processed Spectrum: 2048
>>>>>Begin Processed Spectral Data<<<<<
365.73	550.03
365.92	550.03
366.12	550.03
366.32	447.04
366.52	489.17
366.72	442.36
366.91	458.74
367.11	493.85
367.31	528.96
367.51	479.81
367.70	521.94
367.90	433.00
368.10	437.68
368.30	447.04
368.49	486.83
368.69	493.85
368.89	447.04
369.09	440.02
369.28	514.92
369.48	463.43
369.68	545.34
369.87	503.22
370.07	470.45
370.27	568.75
370.47	692.80
370.66	919.83
370.86	910.47
371.06	1008.77
371.25	936.21
371.45	964.30
371.65	961.96
371.84	877.70
372.04	1001.75
372.24	1006.43
372.44	990.05
372.63	1027.50
372.83	1076.65
373.03	1107.07
373.22	1102.39
373.42	1057.92
373.62	1053.24
373.81	1025.15
374.01	1123.46
374.21	1139.84
374.40	1062.60
374.60	1125.80
374.79	1069.62
374.99	1132.82
375.19	1142.18
375.38	1078.99
375.58	1093.03
375.78	1153.88
375.97	1137.50
376.17	1118.78
376.37	1186.65
376.56	1153.88
376.76	1097.71
376.95	1116.44
377.15	1205.38
377.35	1181.97
377.54	1191.33
377.74	1188.99
377.93	1207.72
378.13	1165.59
378.33	1151.54
378.52	1252.19
378.72	1259.21
378.91	1121.12
379.11	1245.16
379.31	1210.06
379.50	1167.93
379.70	1174.95
379.89	1261.55
380.09	1217.08
380.28	1226.44
380.48	1266.23
380.68	1245.16
380.87	1303.68
381.07	1301.34
381.26	1275.59
381.46	1308.36
381.65	1291.98
381.85	1249.85
382.04	1303.68
382.24	1390.28
382.43	1287.29
382.63	1282.61
382.83	1266.23
383.02	1397.30
383.22	1467.52
383.41	1383.26
383.61	1266.23
383.80	1406.66
384.00	1352.83
384.19	1362.19
384.39	1448.79
384.58	1406.66
384.78	1376.24
384.97	1366.87
385.17	1502.62
385.36	1507.30
385.56	1479.22
385.75	1469.86
385.95	1462.83
386.14	1519.01
386.34	1425.39
386.53	1441.77
386.72	1474.54
386.92	1453.47
387.11	1432.41
387.31	1528.37
387.50	1476.88
387.70	1481.56
387.89	1425.39
388.09	1469.86
388.28	1486.24
388.48	1521.35
388.67	1554.12
388.86	1535.39
389.06	1556.46
389.25	1636.03
389.45	1617.31
389.64	1551.78
389.84	1664.12
390.03	1795.19
390.22	1645.40
390.42	1619.65
390.61	1582.20
390.81	1673.48
391.00	1710.93
391.19	1673.48
391.39	1626.67
391.58	1750.72
391.78	1708.59
391.97	1722.63
392.16	1675.82
392.36	1650.08
392.55	1729.66
392.75	1701.57
392.94	1776.47
393.13	1689.87
393.33	1753.06
393.52	1788.17
393.71	1722.63
393.91	1755.40
394.10	1724.97
394.29	1844.34
394.49	1834.98
394.68	1785.83
394.88	1886.47
395.07	1886.47
395.26	1954.35
395.46	1837.32
395.65	1933.28
395.84	1937.96
396.04	2050.31
396.23	1935.62
396.42	1961.37
396.62	2033.93
396.81	1984.77
397.00	2064.35
397.19	2064.35
397.39	1968.39
397.58	2024.56
397.77	2022.22
397.97	2106.48
398.16	2045.63
398.35	2113.50
398.55	2062.01
398.74	2064.35
398.93	2085.42
399.12	2071.37
399.32	2183.72
399.51	2150.95
399.70	2202.44
399.90	2188.40
400.09	2087.76
400.28	2197.76
400.47	2275.00
400.67	2249.25
400.86	2359.26
401.05	2319.47
401.24	2303.09
401.44	2340.54
401.63	2335.85
401.82	2363.94
402.01	2314.79
402.21	2396.71
402.40	2436.50
402.59	2415.43
402.78	2422.45
402.97	2417.77
403.17	2417.77
403.36	2361.60
403.55	2462.24
403.74	2516.08
403.93	2504.37
404.13	2654.17
404.32	2520.76
404.51	2553.52
404.70	2607.36
404.89	2654.17
405.09	2569.91
405.28	2565.23
405.47	2754.81
405.66	2612.04
405.85	2780.56
406.05	2712.68
406.24	2710.34
406.43	2743.11
406.62	2860.13
406.81	2785.24
407.00	2698.64
407.20	2757.15
407.39	2750.13
407.58	2827.37
407.77	2899.92
407.96	2890.56
408.15	2883.54
408.34	2867.16
408.54	2942.05
408.73	3030.99
408.92	2970.14
409.11	2923.33
409.30	2956.10
409.49	2963.12
409.68	2951.42
409.87	3030.99
410.07	3101.21
410.26	2953.76
410.45	3082.49
410.64	3173.77
410.83	3199.51
411.02	3077.80
411.21	3272.07
411.40	3201.85
411.59	3265.05
411.78	3288.45
411.98	3342.28
412.17	3506.12
412.36	3496.76
412.55	3417.18
412.74	3513.14
412.93	3440.59
413.12	3384.41
413.31	3616.13
413.50	3503.78
413.69	3452.29
413.88	3693.37
414.07	3616.13
414.26	3712.09
414.45	3744.86
414.64	3779.97
414.83	3756.56
415.02	3859.54
415.22	3826.78
415.41	3866.56
415.60	3808.05
415.79	3967.21
415.98	4074.87
416.17	3878.27
416.36	3974.23
416.55	4072.53
416.74	4131.05
416.93	4028.06
417.12	4175.52
417.31	4042.11
417.50	4142.75
417.69	4280.84
417.88	4222.33
418.07	4283.18
418.26	4280.84
418.45	4227.01
418.64	4437.66
418.83	4297.22
419.02	4449.36
419.21	4503.19
419.39	4386.16
419.58	4465.74
419.77	4369.78
419.96	4627.24
420.15	4451.70
420.34	4524.26
420.53	4491.49
420.72	4596.81
420.91	4575.75
421.10	4847.25
421.29	4678.73
421.48	4589.79
421.67	4807.46
421.86	4748.95
422.05	4681.07
422.24	4671.71
422.43	4798.10
422.61	4779.37
422.80	4971.30
422.99	4823.84
423.18	4873.00
423.37	4868.31
423.56	4889.38
423.75	4830.87
423.94	4645.96
424.13	4606.17
424.32	4718.52
424.50	4952.57
424.69	4983.00
424.88	4940.87
425.07	4954.91
425.26	4863.63
425.45	4896.40
425.64	4901.08
425.83	4952.57
426.01	5090.67
426.20	4985.34
426.39	4980.66
426.58	4999.38
426.77	5032.15
426.96	5090.67
427.15	4971.30
427.33	5067.26
427.52	5146.84
427.71	5057.90
427.90	4983.00
428.09	5341.10
428.28	5207.69
428.46	5219.39
428.65	5114.07
428.84	5467.49
429.03	5432.38
429.22	5331.74
429.40	5336.42
429.59	5500.26
429.78	5102.37
429.97	5111.73
430.16	5359.83
430.34	5514.30
430.53	5507.28
430.72	5462.81
430.91	5423.02
431.10	5343.44
431.28	5483.88
431.47	5750.70
431.66	5809.21
431.85	5430.04
432.03	5633.67
432.22	5715.59
432.41	5661.76
432.60	5626.65
432.79	5928.58
432.97	5900.49
433.16	5935.60
433.35	5860.70
433.54	5919.21
433.72	5895.81
433.91	5755.38
434.10	6106.46
434.28	5935.60
434.47	5912.19
434.66	5916.87
434.85	6132.20
435.03	6218.80
435.22	6244.55
435.41	6434.13
435.59	6331.15
435.78	6305.40
435.97	6352.21
436.16	6157.95
436.34	6263.27
436.53	6286.68
436.72	6349.87
436.90	6312.42
437.09	6431.79
437.28	6186.04
437.46	6422.43
437.65	6415.41
437.84	6516.05
438.02	6520.73
438.21	6441.15
438.40	6438.81
438.58	6684.57
438.77	6808.62
438.96	6567.54
439.14	6761.81
439.33	6970.12
439.52	6953.73
439.70	6927.99
439.89	6993.52
440.08	6998.20
440.26	7115.23
440.45	7070.76
440.63	7119.91
440.82	7229.91
441.01	7183.10
441.19	7391.41
441.38	7204.17
441.57	7265.02
441.75	7386.73
441.94	7672.28
442.12	7463.97
442.31	7754.19
442.50	7634.83
442.68	7581.00
442.87	7695.68
443.05	7777.60
443.24	7742.49
443.43	7798.66
443.61	7751.85
443.80	8070.17
443.98	7758.88
444.17	7541.21
444.35	7913.35
444.54	7969.52
444.73	7992.93
444.91	7770.58
445.10	7962.50
445.28	7960.16
445.47	7985.91
445.65	7866.54
445.84	8088.89
446.02	8182.51
446.21	7999.95
446.39	8044.42
446.58	8107.62
446.77	8009.31
446.95	7779.94
447.14	8035.06
447.32	8135.70
447.51	8009.31
447.69	8091.23
447.88	8056.12
448.06	7934.42
448.25	8189.53
448.43	8168.47
448.62	8177.83
448.80	7976.55
448.99	8156.77
449.17	8456.36
449.36	8098.25
449.54	8196.56
449.73	8439.97
449.91	8439.97
450.10	8477.42
450.28	8486.78
450.46	8636.58
450.65	8662.32
450.83	8477.42
451.02	8620.19
451.20	8760.63
451.39	8571.04
451.57	8704.45
451.76	8737.22
451.94	8844.88
452.13	8851.91
452.31	8919.78
452.49	9006.38
452.68	8833.18
452.86	8912.76
453.05	8990.00
453.23	8898.72
453.42	8879.99
453.60	9036.81
453.78	8959.57
453.97	8830.84
454.15	8954.89
454.34	9015.74
454.52	9118.73
454.70	9034.47
454.89	9172.56
455.07	9179.58
455.26	9282.56
455.44	9406.61
455.62	9305.97
455.81	9441.72
455.99	9369.16
456.17	9444.06
456.36	9408.95
456.54	9469.81
456.73	9781.10
456.91	9975.36
457.09	9753.01
457.28	9909.83
457.46	9745.99
457.64	9891.10
457.83	9820.89
458.01	9783.44
458.19	10045.58
458.38	9914.51
458.56	10160.27
458.74	9909.83
458.93	9980.04
459.11	10291.34
459.29	10157.92
459.48	10256.23
459.66	10094.73
459.84	10246.87
460.03	10317.08
460.21	10530.07
460.39	10274.95
460.57	10487.94
460.76	10541.77
460.94	10600.29
461.12	10747.74
461.31	10642.42
461.49	10377.94
461.67	10478.58
461.85	10607.31
462.04	10621.35
462.22	10977.11
462.40	10902.22
462.59	10459.85
462.77	10710.29
462.95	10775.83
463.13	10775.83
463.32	10822.64
463.50	10981.79
463.68	11215.85
463.86	11122.23
464.05	10649.44
464.23	10911.58
464.41	11019.24
464.59	10953.71
464.78	11480.33
464.96	11133.93
465.14	10972.43
465.32	11272.02
465.50	11314.15
465.69	11335.21
465.87	11587.99
466.05	11197.12
466.23	11323.51
466.41	11365.64
466.60	11660.55
466.78	11325.85
466.96	11239.25
467.14	11470.97
467.32	11487.35
467.51	11728.42
467.69	11410.11
467.87	11662.89
468.05	11927.37
468.23	11506.07
468.41	11470.97
468.60	11714.38
468.78	12051.42
468.96	11580.97
469.14	11981.20
469.32	11976.52
469.50	11864.18
469.69	12013.97
469.87	12016.31
470.05	12177.81
470.23	12301.86
470.41	12210.57
470.59	12231.64
470.77	12318.24
470.95	12402.50
471.14	12620.17
471.32	12414.20
471.50	12643.57
471.68	12453.99
471.86	12627.19
472.04	12594.42
472.22	12910.40
472.40	12510.16
472.58	12933.80
472.77	12989.97
472.95	12999.34
473.13	13626.60
473.31	13085.94
473.49	13184.24
473.67	13160.83
473.85	13387.86
474.03	13490.85
474.21	13654.69
474.39	13764.69
474.57	13610.22
474.75	13650.00
474.93	13898.10
475.12	13802.14
475.30	14094.71
475.48	13687.45
475.66	13973.00
475.84	14284.29
476.02	14307.69
476.20	14274.93
476.38	14354.51
476.56	14827.29
476.74	14525.36
476.92	14759.42
477.10	14651.75
477.28	15000.49
477.46	15152.63
477.64	15014.54
477.82	15527.11
478.00	15730.74
478.18	15529.45
478.36	15480.30
478.54	15936.71
478.72	16084.16
478.90	16060.76
479.08	16287.79
479.26	16360.34
479.44	16444.60
479.62	16411.84
479.80	16697.38
479.98	16814.41
480.16	17043.78
480.34	16816.75
480.52	17102.29
480.70	17200.60
480.88	16889.31
481.06	17238.05
481.24	17092.93
481.41	17331.67
481.59	17877.01
481.77	18108.72
481.95	18059.57
482.13	18394.27
482.31	18061.91
482.49	18714.92
482.67	18689.18
482.85	18827.27
483.03	19117.50
483.21	19122.18
483.39	19501.34
483.57	19260.27
483.74	19459.21
483.92	19875.83
484.10	19604.33
484.28	20280.74
484.46	20315.85
484.64	20734.81
484.82	20257.34
485.00	20437.56
485.18	20800.34
485.35	20945.45
485.53	21125.68
485.71	21399.52
485.89	21329.30
486.07	21577.40
486.25	21425.26
486.43	21713.15
486.61	21975.29
486.78	22108.70
486.96	22401.27
487.14	22827.24
487.32	22457.44
487.50	22785.12
487.68	22778.09
487.85	23618.35
488.03	23421.74
488.21	23618.35
488.39	23690.90
488.57	23955.38
488.75	24133.26
488.92	24259.65
489.10	25015.65
489.28	24568.60
489.46	24826.06
489.64	24926.71
489.81	25207.57
489.99	25549.29
490.17	25766.96
490.35	25549.29
490.53	25855.90
490.70	26162.51
490.88	25867.60
491.06	26654.02
491.24	26228.04
491.41	26618.91
491.59	26796.79
491.77	26909.14
491.95	27459.16
492.13	27639.39
492.30	27307.03
492.48	27351.50
492.66	27480.23
492.84	27772.80
493.01	28627.09
493.19	28369.63
493.37	28683.27
493.54	28645.82
493.72	28723.05
493.90	28790.93
494.08	29221.59
494.25	29303.51
494.43	29394.79
494.61	29324.57
494.79	29546.92
494.96	29823.11
495.14	29813.74
495.32	30370.79
495.49	30331.00
495.67	30754.64
495.85	30665.70
496.02	30831.88
496.20	31110.40
496.38	31175.94
496.55	31496.59
496.73	31578.51
496.91	31409.99
497.09	31812.56
497.26	32034.91
497.44	31861.71
497.62	32194.07
497.79	32830.69
497.97	32573.24
498.14	32978.15
498.32	32868.14
498.50	32748.78
498.67	33553.92
498.85	33237.95
499.03	33511.79
499.20	33956.49
499.38	33656.90
499.56	34103.95
499.73	34010.32
499.91	34007.98
500.08	34031.39
500.26	34106.29
500.44	34478.43
500.61	34799.08
500.79	35119.74
500.97	35019.10
501.14	35154.85
501.32	35246.13
501.49	35414.65
501.67	35140.80
501.84	35817.22
502.02	35728.28
502.20	36030.21
502.37	36257.24
502.55	35784.45
502.72	36123.83
502.90	35927.22
503.07	36072.34
503.25	36545.12
503.43	36603.64
503.60	36947.70
503.78	36877.48
503.95	36568.53
504.13	36608.32
504.30	36924.29
504.48	37106.85
504.65	37385.38
504.83	37675.60
505.01	38007.96
505.18	37574.96
505.36	37996.26
505.53	37930.72
505.71	38155.41
505.88	38162.43
506.06	38052.43
506.23	38377.76
506.41	38164.78
506.58	38660.97
506.76	38480.75
506.93	39002.69
507.11	38892.68
507.28	39239.08
507.46	38969.92
507.63	39358.45
507.81	39222.70
507.98	39339.72
508.16	39339.72
508.33	39239.08
508.50	39707.19
508.68	39838.26
508.85	40100.40
509.03	40238.49
509.20	39913.16
509.38	40404.67
509.55	40477.22
509.73	40627.02
509.90	40697.24
510.08	40809.58
510.25	41174.70
510.42	40987.46
510.60	41270.67
510.77	41036.61
510.95	41401.74
511.12	41408.76
511.30	41509.40
511.47	41766.86
511.64	41427.48
511.82	41874.52
511.99	41490.68
512.17	42061.77
512.34	42150.71
512.51	42293.48
512.69	42410.51
512.86	43051.81
513.04	42693.71
513.21	42529.87
513.38	42738.18
513.56	42693.71
513.73	43035.43
513.90	43054.15
514.08	43075.22
514.25	43569.07
514.43	43550.35
514.60	44030.16
514.77	43512.90
514.95	43543.33
515.12	43543.33
515.29	43761.00
515.47	44093.35
515.64	44369.54
515.81	44282.94
515.99	44622.31
516.16	44486.56
516.33	44594.23
516.51	45003.82
516.68	44587.21
516.85	45090.42
517.03	45120.85
517.20	45305.75
517.37	45113.83
517.54	44762.75
517.72	45029.57
517.89	45303.41
518.06	45553.85
518.24	45961.10
518.41	44926.58
518.58	45537.46
518.75	45352.56
518.93	45631.08
519.10	45806.62
519.27	45881.52
519.45	46270.05
519.62	46380.06
519.79	46103.87
519.96	46553.26
520.14	46265.37
520.31	46021.95
520.48	46337.93
520.65	46813.05
520.83	47140.73
521.00	47213.29
521.17	46742.84
521.34	47112.64
521.52	46885.61
521.69	47187.54
521.86	47297.55
522.03	47084.56
522.20	47428.62
522.38	47805.44
522.55	48147.16
522.72	47363.08
522.89	47320.95
523.07	48250.14
523.24	47501.17
523.41	48048.86
523.58	47672.03
523.75	48236.10
523.92	47826.51
524.10	48388.24
524.27	48453.77
524.44	48172.91
524.61	48512.28
524.78	48615.27
524.96	48882.09
525.13	49169.97
525.30	49249.55
525.47	49277.64
525.64	48804.85
525.81	49261.26
525.98	48891.45
526.16	48905.49
526.33	48926.56
526.50	49642.76
526.67	49184.02
526.84	49624.04
527.01	49769.15
527.18	49551.48
527.36	49893.20
527.53	49783.19
527.70	49951.71
527.87	50450.25
528.04	50129.59
528.21	50178.75
528.38	50206.83
528.55	50351.94
528.72	49956.39
528.89	50213.85
529.07	50239.60
529.24	49996.18
529.41	50808.35
529.58	50550.89
529.75	50796.65
529.92	50665.58
530.09	50401.10
530.26	50901.97
530.43	50916.01
530.60	50265.34
530.77	50625.79
530.94	51033.04
531.11	51054.11
531.28	50967.51
531.46	50997.93
531.63	50887.93
531.80	50927.72
531.97	50990.91
532.14	51093.89
532.31	50967.51
532.48	51475.40
532.65	51723.50
532.82	51323.27
532.99	51517.53
533.16	51320.93
533.33	51676.69
533.50	51948.19
533.67	51629.88
533.84	51452.00
534.01	51709.46
534.18	51859.25
534.35	52079.26
534.52	51629.88
534.69	52048.83
534.86	51992.66
535.03	51716.48
535.20	52156.50
535.37	52610.56
535.54	52622.26
535.71	52357.78
535.88	52409.28
536.05	52243.10
536.22	52278.21
536.38	52404.59
536.55	52790.78
536.72	52650.35
536.89	52617.58
537.06	52875.04
537.23	53088.03
537.40	53045.90
537.57	52903.13
537.74	52736.95
537.91	53186.33
538.08	53022.50
538.25	52741.63
538.42	52961.64
538.59	53354.85
538.75	52959.30
538.92	52879.72
539.09	53228.46
539.26	52928.87
539.43	53338.47
539.60	53256.55
539.77	53265.91
539.94	53972.75
540.11	53787.85
540.28	53677.85
540.44	53387.62
540.61	53710.61
540.78	53748.06
540.95	53577.20
541.12	53530.39
541.29	53680.19
541.46	53939.99
541.62	54138.93
541.79	54174.04
541.96	53654.44
542.13	53951.69
542.30	53928.28
542.47	54328.52
542.63	54026.59
542.80	54148.29
542.97	54649.17
543.14	54726.41
543.31	54482.99
543.48	54529.80
543.64	54852.80
543.81	54564.91
543.98	54735.77
544.15	54677.25
544.32	54873.86
544.48	54958.12
544.65	54721.72
544.82	54873.86
544.99	54873.86
545.16	55154.72
545.32	55166.43
545.49	55407.50
545.66	55489.42
545.83	55550.27
546.00	55470.70
546.16	55316.22
546.33	55215.58
546.50	55210.90
546.67	55168.77
546.83	54885.56
547.00	54944.08
547.17	54953.44
547.34	55227.28
547.50	55260.05
547.67	55636.87
547.84	55686.03
548.00	55758.58
548.17	56069.87
548.34	55599.43
548.51	55627.51
548.67	55721.13
548.84	55547.93
549.01	55903.70
549.18	55702.41
549.34	55796.03
549.51	55522.19
549.68	55629.85
549.84	56034.77
550.01	55594.74
550.18	55444.95
550.34	55648.58
550.51	55730.50
550.68	56069.87
550.84	55730.50
551.01	56156.47
551.18	56062.85
551.34	56034.77
551.51	56060.51
551.68	56189.24
551.84	56112.00
552.01	55934.12
552.18	56067.53
552.34	56126.05
552.51	56053.49
552.68	56324.99
552.84	56334.35
553.01	56479.47
553.18	56306.27
553.34	56409.25
553.51	56231.37
553.67	56207.97
553.84	56743.95
554.01	56530.96
554.17	56191.58
554.34	56584.79
554.51	56406.91
554.67	56324.99
554.84	56442.02
555.00	56261.80
555.17	56259.46
555.33	56467.76
555.50	56647.99
555.67	56486.49
555.83	56638.62
556.00	56694.80
556.16	56832.89
556.33	56989.70
556.50	56612.88
556.66	56577.77
556.83	56479.47
556.99	57008.43
557.16	56889.06
557.32	57001.41
557.49	57221.42
557.65	56872.68
557.82	57109.07
557.98	56910.13
558.15	56821.19
558.32	56898.42
558.48	56743.95
558.65	56935.87
558.81	57190.99
558.98	57169.93
559.14	57160.56
559.31	56968.64
559.47	57127.80
559.64	57193.33
559.80	57008.43
559.97	56994.39
560.13	56786.08
560.30	57263.55
560.46	57343.12
560.63	57286.95
560.79	57446.11
560.96	57516.32
561.12	57214.40
561.29	57357.17
561.45	57403.98
561.61	57127.80
561.78	57488.24
561.94	57364.19
562.11	57675.48
562.27	57509.30
562.44	57584.20
562.60	57623.99
562.77	57668.46
562.93	57528.03
563.10	57647.39
563.26	57303.34
563.42	57712.93
563.59	57546.75
563.75	57389.94
563.92	57605.26
564.08	57790.17
564.24	57565.48
564.41	57455.47
564.57	57408.66
564.74	57532.71
564.90	57619.31
565.07	57668.46
565.23	57930.60
565.39	58049.97
565.56	57939.96
565.72	57975.07
565.88	57757.40
566.05	57605.26
566.21	57638.03
566.38	57411.00
566.54	57724.63
566.70	57911.88
566.87	57764.42
567.03	57748.04
567.19	58213.80
567.36	57867.40
567.52	57804.21
567.68	57986.77
567.85	57928.26
568.01	57961.03
568.17	57883.79
568.34	57942.30
568.50	58068.69
568.66	57841.66
568.83	57982.09
568.99	57965.71
569.15	57909.53
569.32	58103.80
569.48	57696.55
569.64	57968.05
569.81	57881.45
569.97	57841.66
570.13	58115.50
570.30	57944.64
570.46	58080.39
570.62	58024.22
570.78	58127.20
570.95	57818.25
571.11	58262.96
571.27	58232.53
571.43	58024.22
571.60	58162.31
571.76	58052.31
571.92	58054.65
572.09	58197.42
572.25	58096.78
572.41	58164.65
572.57	58365.94
572.74	58232.53
572.90	58162.31
573.06	58171.67
573.22	58052.31
573.38	58253.59
573.55	58211.46
573.71	58365.94
573.87	58209.12
574.03	58293.38
574.20	58260.62
574.36	58307.43
574.52	58213.80
574.68	58190.40
574.84	58335.51
575.01	58314.45
575.17	58396.37
575.33	58213.80
575.49	58237.21
575.65	58281.68
575.82	58447.86
575.98	58286.36
576.14	58412.75
576.30	58597.65
576.46	58288.70
576.62	58351.90
576.79	58333.17
576.95	58061.67
577.11	58152.95
577.27	58431.47
577.43	58475.94
577.59	58375.30
577.75	58382.32
577.92	58646.80
578.08	58333.17
578.24	58506.37
578.40	58279.34
578.56	58419.77
578.72	58429.13
578.88	58656.17
579.04	58621.06
579.21	58417.43
579.37	58639.78
579.53	58520.41
579.69	58401.05
579.85	58508.71
580.01	58763.83
580.17	58532.12
580.33	58588.29
580.49	58546.16
580.65	58658.51
580.82	58777.87
580.98	58691.27
581.14	58656.17
581.30	58534.46
581.46	58560.20
581.62	58326.15
581.78	58546.16
581.94	58632.76
582.10	58291.04
582.26	58726.38
582.42	58518.07
582.58	58574.25
582.74	58504.03
582.90	58841.07
583.06	58625.74
583.22	58618.72
583.38	58639.78
583.54	58422.11
583.70	58515.73
583.86	58543.82
584.02	58518.07
584.18	58869.15
584.34	58567.23
584.50	58754.47
584.66	58756.81
584.82	58717.02
584.98	58536.80
585.14	58436.16
585.30	58508.71
585.46	58541.48
585.62	58468.92
585.78	58763.83
585.94	58789.58
586.10	58747.45
586.26	58717.02
586.42	58859.79
586.58	58766.17
586.74	58808.30
586.90	58700.64
587.06	58546.16
587.22	58822.34
587.38	58604.67
587.54	59077.46
587.70	59206.19
587.86	58901.92
588.02	58698.30
588.18	58733.40
