SpectraSuite Data File
++++++++++++++++++++++++++++++++++++
Date: Thu Oct 24 13:21:27 EDT 2013
User: stostad
Dark Spectrum Present: No
Reference Spectrum Present: No
Number of Sampled Component Spectra: 1
Spectrometers: USB2+H05261
Integration Time (usec): 100000 (USB2+H05261)
Spectra Averaged: 1 (USB2+H05261)
Boxcar Smoothing: 0 (USB2+H05261)
Correct for Electrical Dark: No (USB2+H05261)
Strobe/Lamp Enabled: No (USB2+H05261)
Correct for Detector Non-linearity: No (USB2+H05261)
Correct for Stray Light: No (USB2+H05261)
Number of Pixels in Processed Spectrum: 2048
>>>>>Begin Processed Spectral Data<<<<<
365.73	552.37
365.92	552.37
366.12	552.37
366.32	411.93
366.52	465.77
366.72	491.51
366.91	470.45
367.11	409.59
367.31	475.13
367.51	451.72
367.70	407.25
367.90	456.40
368.10	456.40
368.30	444.70
368.49	538.32
368.69	447.04
368.89	461.09
369.09	519.60
369.28	507.90
369.48	451.72
369.68	505.56
369.87	514.92
370.07	564.07
370.27	554.71
370.47	683.44
370.66	905.79
370.86	964.30
371.06	1008.77
371.25	1078.99
371.45	1025.15
371.65	1048.56
371.84	1008.77
372.04	994.73
372.24	1107.07
372.44	1064.94
372.63	1029.84
372.83	1170.27
373.03	1064.94
373.22	1128.14
373.42	1170.27
373.62	1090.69
373.81	1153.88
374.01	1191.33
374.21	1160.91
374.40	1146.86
374.60	1156.22
374.79	1128.14
374.99	1181.97
375.19	1090.69
375.38	1252.19
375.58	1226.44
375.78	1196.01
375.97	1212.40
376.17	1184.31
376.37	1287.29
376.56	1245.16
376.76	1247.51
376.95	1252.19
377.15	1350.49
377.35	1235.80
377.54	1284.95
377.74	1179.63
377.93	1245.16
378.13	1259.21
378.33	1359.85
378.52	1289.64
378.72	1249.85
378.91	1341.13
379.11	1299.00
379.31	1291.98
379.50	1303.68
379.70	1373.89
379.89	1406.66
380.09	1301.34
380.28	1282.61
380.48	1348.15
380.68	1343.47
380.87	1303.68
381.07	1303.68
381.26	1362.19
381.46	1418.36
381.65	1385.60
381.85	1453.47
382.04	1430.07
382.24	1418.36
382.43	1394.96
382.63	1444.11
382.83	1413.68
383.02	1423.05
383.22	1427.73
383.41	1479.22
383.61	1514.33
383.80	1427.73
384.00	1404.32
384.19	1446.45
384.39	1476.88
384.58	1540.07
384.78	1504.96
384.97	1523.69
385.17	1521.35
385.36	1612.63
385.56	1455.81
385.75	1565.82
385.95	1507.30
386.14	1603.27
386.34	1425.39
386.53	1540.07
386.72	1605.61
386.92	1596.25
387.11	1589.22
387.31	1605.61
387.50	1619.65
387.70	1629.01
387.89	1685.19
388.09	1633.69
388.28	1673.48
388.48	1713.27
388.67	1710.93
388.86	1720.29
389.06	1629.01
389.25	1739.02
389.45	1741.36
389.64	1685.19
389.84	1743.70
390.03	1710.93
390.22	1743.70
390.42	1753.06
390.61	1727.32
390.81	1809.23
391.00	1881.79
391.19	1884.13
391.39	1898.17
391.58	1863.07
391.78	1802.21
391.97	1886.47
392.16	1893.49
392.36	1900.52
392.55	1842.00
392.75	1884.13
392.94	1888.81
393.13	1907.54
393.33	1888.81
393.52	1947.33
393.71	1830.30
393.91	1912.22
394.10	2015.20
394.29	2045.63
394.49	1968.39
394.68	2092.44
394.88	2026.90
395.07	2015.20
395.26	2043.29
395.46	2031.58
395.65	2071.37
395.84	2052.65
396.04	2125.21
396.23	2174.36
396.42	2122.87
396.62	2160.31
396.81	2165.00
397.00	2153.29
397.19	2202.44
397.39	2125.21
397.58	2167.34
397.77	2200.10
397.97	2291.38
398.16	2209.47
398.35	2263.30
398.55	2242.23
398.74	2394.37
398.93	2373.30
399.12	2370.96
399.32	2293.72
399.51	2331.17
399.70	2518.42
399.90	2305.43
400.09	2289.04
400.28	2420.11
400.47	2377.98
400.67	2450.54
400.86	2345.22
401.05	2455.22
401.24	2436.50
401.44	2532.46
401.63	2605.02
401.82	2499.69
402.01	2541.82
402.21	2492.67
402.40	2581.61
402.59	2593.31
402.78	2597.99
402.97	2661.19
403.17	2614.38
403.36	2693.96
403.55	2637.78
403.74	2724.38
403.93	2722.04
404.13	2853.11
404.32	2801.62
404.51	2825.03
404.70	2836.73
404.89	2729.06
405.09	2911.63
405.28	2796.94
405.47	2888.22
405.66	2932.69
405.85	2899.92
406.05	3000.57
406.24	2935.03
406.43	2958.44
406.62	3035.67
406.81	3061.42
407.00	3063.76
407.20	2920.99
407.39	3063.76
407.58	3096.53
407.77	3145.68
407.96	3246.32
408.15	3066.10
408.34	3105.89
408.54	3183.13
408.73	3148.02
408.92	3262.71
409.11	3246.32
409.30	3304.84
409.49	3286.11
409.68	3346.97
409.87	3393.78
410.07	3447.61
410.26	3389.10
410.45	3272.07
410.64	3417.18
410.83	3520.17
411.02	3529.53
411.21	3590.38
411.40	3538.89
411.59	3674.64
411.78	3527.19
411.98	3712.09
412.17	3592.72
412.36	3859.54
412.55	3768.26
412.74	3918.06
412.93	3805.71
413.12	3768.26
413.31	4065.51
413.50	3885.29
413.69	3880.61
413.88	3976.57
414.07	4042.11
414.26	4016.36
414.45	4067.85
414.64	4145.09
414.83	4201.26
415.02	4135.73
415.22	4280.84
415.41	4283.18
415.60	4278.50
415.79	4327.65
415.98	4341.69
416.17	4372.12
416.36	4482.13
416.55	4386.16
416.74	4458.72
416.93	4535.96
417.12	4411.91
417.31	4592.13
417.50	4514.89
417.69	4697.46
417.88	4732.56
418.07	4760.65
418.26	4765.33
418.45	4816.82
418.64	4774.69
418.83	4814.48
419.02	4814.48
419.21	4945.55
419.39	5057.90
419.58	4980.66
419.77	4812.14
419.96	5039.17
420.15	5102.37
420.34	5022.79
420.53	4924.49
420.72	5137.48
420.91	5018.11
421.10	5137.48
421.29	5263.86
421.48	5160.88
421.67	5172.58
421.86	5245.14
422.05	5219.39
422.24	5338.76
422.43	5308.34
422.61	5376.21
422.80	5355.15
422.99	5469.83
423.18	5282.59
423.37	5514.30
423.56	5341.10
423.75	5263.86
423.94	5179.61
424.13	5118.75
424.32	5123.43
424.50	5266.21
424.69	5434.72
424.88	5373.87
425.07	5413.66
425.26	5298.97
425.45	5476.85
425.64	5308.34
425.83	5303.65
426.01	5483.88
426.20	5502.60
426.39	5408.98
426.58	5364.51
426.77	5425.36
426.96	5577.50
427.15	5437.06
427.33	5605.58
427.52	5448.77
427.71	5818.57
427.90	5582.18
428.09	5650.05
428.28	5731.97
428.46	5708.57
428.65	5893.47
428.84	6038.58
429.03	5860.70
429.22	5685.16
429.40	5851.34
429.59	5753.04
429.78	5790.49
429.97	5521.32
430.16	5994.11
430.34	6195.40
430.53	6012.84
430.72	6176.67
430.91	6047.94
431.10	5912.19
431.28	6244.55
431.47	6153.27
431.66	6270.30
431.85	6052.63
432.03	6160.29
432.22	6392.00
432.41	6490.31
432.60	6296.04
432.79	6211.78
432.97	6291.36
433.16	6361.58
433.35	6380.30
433.54	6502.01
433.72	6450.52
433.91	6544.14
434.10	6604.99
434.28	6492.65
434.47	6576.91
434.66	6539.46
434.85	6806.28
435.03	6792.23
435.22	6782.87
435.41	7094.16
435.59	7136.29
435.78	7091.82
435.97	6848.41
436.16	7016.93
436.34	6995.86
436.53	7033.31
436.72	7241.62
436.90	7056.72
437.09	7005.22
437.28	6925.65
437.46	6925.65
437.65	7052.03
437.84	7133.95
438.02	7117.57
438.21	7215.87
438.40	7173.74
438.58	7403.11
438.77	7260.34
438.96	7379.71
439.14	7515.46
439.33	7517.80
439.52	7375.03
439.70	7604.40
439.89	7756.54
440.08	7712.07
440.26	7791.64
440.45	7847.82
440.63	7768.24
440.82	8180.17
441.01	7983.57
441.19	8051.44
441.38	8074.85
441.57	8175.49
441.75	8159.11
441.94	8372.10
442.12	8477.42
442.31	8397.84
442.50	8479.76
442.68	8379.12
442.87	8397.84
443.05	8760.63
443.24	8755.94
443.43	8528.91
443.61	8596.79
443.80	8812.12
443.98	8613.17
444.17	8156.77
444.35	8704.45
444.54	8699.77
444.73	8819.14
444.91	8636.58
445.10	8854.25
445.28	9046.17
445.47	8592.11
445.65	8704.45
445.84	8898.72
446.02	8826.16
446.21	8868.29
446.39	8868.29
446.58	8903.40
446.77	8975.95
446.95	8739.56
447.14	8985.32
447.32	8887.01
447.51	8894.04
447.69	8901.06
447.88	8875.31
448.06	8688.07
448.25	8915.10
448.43	8971.27
448.62	9011.06
448.80	8980.64
448.99	9174.90
449.17	9156.18
449.36	9043.83
449.54	9387.89
449.73	9401.93
449.91	9497.89
450.10	9404.27
450.28	9554.07
450.46	9235.75
450.65	9329.38
450.83	9305.97
451.02	9291.93
451.20	9540.02
451.39	9603.22
451.57	9745.99
451.76	9437.04
451.94	9612.58
452.13	9652.37
452.31	9535.34
452.49	9706.20
452.68	9692.16
452.86	9863.02
453.05	9893.44
453.23	9900.47
453.42	9865.36
453.60	9797.48
453.78	10022.17
453.97	9837.27
454.15	9886.42
454.34	9966.00
454.52	9856.00
454.70	10010.47
454.89	10125.16
455.07	10129.84
455.26	10066.64
455.44	10331.12
455.62	10384.96
455.81	10347.51
455.99	10363.89
456.17	10338.15
456.36	10518.37
456.54	10642.42
456.73	10817.96
456.91	10787.53
457.09	10672.84
457.28	11152.65
457.46	10663.48
457.64	10946.69
457.83	10810.93
458.01	10726.68
458.19	11131.59
458.38	10916.26
458.56	11087.12
458.74	11110.52
458.93	11201.80
459.11	11279.04
459.29	11456.92
459.48	11169.04
459.66	11112.86
459.84	11098.82
460.03	11651.19
460.21	11412.45
460.39	11435.86
460.57	11639.48
460.76	11564.59
460.94	11569.27
461.12	11889.92
461.31	11683.95
461.49	11421.81
461.67	11754.17
461.85	11688.64
462.04	11534.16
462.22	12093.55
462.40	12016.31
462.59	11822.05
462.77	12084.19
462.95	12070.14
463.13	11903.96
463.32	11985.88
463.50	12156.74
463.68	12102.91
463.86	12322.92
464.05	12088.87
464.23	12042.06
464.41	12152.06
464.59	12170.79
464.78	12498.46
464.96	12556.97
465.14	12271.43
465.32	12456.33
465.50	12704.43
465.69	12554.63
465.87	12704.43
466.05	12362.71
466.23	12622.51
466.41	12556.97
466.60	12676.34
466.78	12505.48
466.96	12835.50
467.14	12641.23
467.32	13050.83
467.51	12856.56
467.69	12711.45
467.87	12793.37
468.05	13282.54
468.23	12894.01
468.41	13036.78
468.60	13179.56
468.78	13116.36
468.96	13008.70
469.14	13088.28
469.32	13472.12
469.50	13273.18
469.69	13383.18
469.87	13659.37
470.05	13633.62
470.23	13514.25
470.41	13490.85
470.59	13715.54
470.77	13429.99
470.95	13458.08
471.14	14197.69
471.32	13432.33
471.50	13937.89
471.68	13870.01
471.86	14106.41
472.04	14185.99
472.22	14642.39
472.40	14045.55
472.58	14157.90
472.77	14457.49
472.95	14487.92
473.13	15028.58
473.31	14504.30
473.49	14637.71
473.67	14537.07
473.85	14684.52
474.03	15040.28
474.21	15232.21
474.39	15103.48
474.57	15059.01
474.75	15463.92
474.93	15286.04
475.12	15508.39
475.30	15456.90
475.48	15616.05
475.66	15880.53
475.84	15501.37
476.02	15702.65
476.20	15777.55
476.38	16170.76
476.56	16248.00
476.74	16166.08
476.92	16212.89
477.10	16561.63
477.28	16510.14
477.46	16788.66
477.64	16844.84
477.82	17224.00
478.00	17446.35
478.18	17289.54
478.36	17343.37
478.54	17671.04
478.72	17727.22
478.90	17846.58
479.08	17919.14
479.26	17947.23
479.44	18277.24
479.62	18288.95
479.80	18492.57
479.98	18562.79
480.16	18944.30
480.34	18668.11
480.52	19016.85
480.70	19339.85
480.88	19131.54
481.06	19154.94
481.24	19239.20
481.41	19697.95
481.59	19578.58
481.77	19859.45
481.95	20285.42
482.13	20320.53
482.31	20210.53
482.49	20772.25
482.67	20730.12
482.85	21050.78
483.03	20964.18
483.21	21146.74
483.39	21579.74
483.57	21233.34
483.74	21701.45
483.92	21642.93
484.10	21734.21
484.28	22185.94
484.46	22665.75
484.64	23030.87
484.82	22604.89
485.00	22883.42
485.18	22993.42
485.35	23580.90
485.53	23604.30
485.71	23676.86
485.89	24067.73
486.07	23807.93
486.25	23997.51
486.43	24231.57
486.61	24627.12
486.78	24800.32
486.96	24926.71
487.14	25797.38
487.32	25406.52
487.50	25263.74
487.68	25535.24
487.85	26029.10
488.03	26160.17
488.21	26300.60
488.39	26232.72
488.57	26459.76
488.75	26551.04
488.92	26852.97
489.10	27016.80
489.28	27339.80
489.46	27803.22
489.64	27674.49
489.81	28692.63
489.99	28184.73
490.17	28166.01
490.35	28790.93
490.53	28636.45
490.70	29043.71
490.88	28933.70
491.06	29521.18
491.24	29029.66
491.41	29589.05
491.59	30068.86
491.77	30295.89
491.95	30307.60
492.13	30162.48
492.30	30742.94
492.48	30401.22
492.66	30778.04
492.84	31182.96
493.01	31110.40
493.19	31550.42
493.37	31646.38
493.54	31847.67
493.72	31828.95
493.90	31791.50
494.08	32290.03
494.25	32444.51
494.43	32636.43
494.61	32718.35
494.79	33369.02
494.96	32931.34
495.14	33460.30
495.32	33661.58
495.49	34059.48
495.67	33795.00
495.85	34106.29
496.02	34246.72
496.20	34522.90
496.38	34539.29
496.55	34483.11
496.73	35702.53
496.91	35206.34
497.09	35522.31
497.26	35793.81
497.44	35428.69
497.62	35976.37
497.79	36418.74
497.97	36222.13
498.14	36931.31
498.32	37226.22
498.50	36685.56
498.67	37251.97
498.85	36615.34
499.03	37106.85
499.20	37425.17
499.38	37764.54
499.56	37687.31
499.73	37809.01
499.91	37720.07
500.08	38096.90
500.26	37708.37
500.44	38045.41
500.61	38593.09
500.79	38492.45
500.97	38684.37
501.14	39555.05
501.32	38979.28
501.49	38990.98
501.67	39330.36
501.84	40009.12
502.02	39852.30
502.20	39758.68
502.37	40055.93
502.55	39758.68
502.72	39908.47
502.90	40271.26
503.07	40208.06
503.25	40175.30
503.43	40072.31
503.60	40959.38
503.78	40753.41
503.95	40545.10
504.13	40748.73
504.30	40889.16
504.48	41132.57
504.65	41722.39
504.83	41801.97
505.01	41656.85
505.18	41404.08
505.36	42396.46
505.53	41904.95
505.71	42052.41
505.88	42277.10
506.06	42518.17
506.23	42176.45
506.41	42749.88
506.58	42436.25
506.76	42721.80
506.93	43143.09
507.11	43540.99
507.28	43452.05
507.46	43863.98
507.63	43555.03
507.81	44697.21
507.98	43271.82
508.16	43313.95
508.33	43571.41
508.50	44175.27
508.68	44247.83
508.85	44336.77
509.03	44069.95
509.20	44322.72
509.38	44722.96
509.55	44928.92
509.73	45177.02
509.90	45593.64
510.08	45588.95
510.25	45521.08
510.42	45507.04
510.60	45448.52
510.77	45282.34
510.95	45677.90
511.12	45619.38
511.30	46061.74
511.47	46635.17
511.64	46157.70
511.82	46417.50
511.99	46021.95
512.17	46410.48
512.34	46841.14
512.51	46906.68
512.69	47180.52
512.86	46862.21
513.04	47372.44
513.21	47430.96
513.38	47152.43
513.56	47353.72
513.73	46918.38
513.90	47772.67
514.08	47377.12
514.25	47812.46
514.43	47772.67
514.60	48032.47
514.77	48025.45
514.95	48526.33
515.12	48037.16
515.29	48177.59
515.47	48680.80
515.64	48989.75
515.81	48601.22
515.99	48835.28
516.16	48849.32
516.33	48985.07
516.51	48949.96
516.68	48952.30
516.85	49010.82
517.03	49333.81
517.20	49773.83
517.37	49219.13
517.54	49574.89
517.72	49602.97
517.89	49668.51
518.06	49549.14
518.24	49771.49
518.41	49804.26
518.58	49652.12
518.75	49668.51
518.93	49975.12
519.10	50073.42
519.27	49832.35
519.45	50164.70
519.62	50773.24
519.79	50487.70
519.96	50541.53
520.14	50714.73
520.31	50466.63
520.48	50885.59
520.65	50775.58
520.83	51334.97
521.00	51250.71
521.17	51000.27
521.34	51229.65
521.52	51377.10
521.69	51489.45
521.86	51323.27
522.03	51236.67
522.20	51639.24
522.38	51695.41
522.55	52215.01
522.72	51966.91
522.89	51756.27
523.07	52039.47
523.24	52037.13
523.41	52074.58
523.58	52252.46
523.75	52320.34
523.92	52378.85
524.10	52449.06
524.27	52519.28
524.44	52825.89
524.61	52484.17
524.78	52666.73
524.96	52701.84
525.13	52575.45
525.30	53109.10
525.47	53059.94
525.64	53125.48
525.81	52956.96
525.98	52875.04
526.16	53036.54
526.33	53343.15
526.50	53331.45
526.67	53380.60
526.84	53542.10
527.01	53504.65
527.18	53518.69
527.36	53624.01
527.53	53521.03
527.70	54073.40
527.87	53734.02
528.04	53689.55
528.21	54260.64
528.38	53813.60
528.55	54080.42
528.72	53649.76
528.89	53977.43
529.07	54110.85
529.24	53764.45
529.41	54120.21
529.58	54291.07
529.75	54424.48
529.92	54410.43
530.09	54375.33
530.26	54087.44
530.43	54181.06
530.60	54258.30
530.77	54347.24
530.94	54653.85
531.11	54443.20
531.28	54859.82
531.46	54618.74
531.63	54747.47
531.80	54679.60
531.97	54871.52
532.14	54735.77
532.31	54948.76
532.48	55136.00
532.65	55194.51
532.82	55152.38
532.99	55168.77
533.16	55093.87
533.33	55063.44
533.50	55414.52
533.67	55304.52
533.84	55281.11
534.01	55341.97
534.18	55433.25
534.35	55641.56
534.52	55522.19
534.69	55671.98
534.86	55697.73
535.03	55597.09
535.20	55725.81
535.37	55833.48
535.54	56104.98
535.71	55721.13
535.88	55924.76
536.05	55987.95
536.22	55798.37
536.38	55955.19
536.55	56016.04
536.72	56453.72
536.89	56222.01
537.06	56030.08
537.23	56488.83
537.40	56217.33
537.57	56067.53
537.74	56238.39
537.91	56308.61
538.08	56404.57
538.25	56245.41
538.42	56437.34
538.59	56687.78
538.75	56395.21
538.92	56587.13
539.09	56631.60
539.26	56512.23
539.43	56575.43
539.60	56683.09
539.77	56793.10
539.94	57155.88
540.11	57008.43
540.28	57088.01
540.44	56673.73
540.61	56985.02
540.78	56985.02
540.95	57024.81
541.12	57102.05
541.29	57066.94
541.46	57256.53
541.62	57322.06
541.79	57251.84
541.96	57265.89
542.13	57312.70
542.30	57352.49
542.47	57212.06
542.63	57343.12
542.80	57572.50
542.97	57808.89
543.14	57911.88
543.31	57909.53
543.48	57680.16
543.64	57829.96
543.81	57832.30
543.98	57815.91
544.15	58080.39
544.32	57865.06
544.48	57993.79
544.65	58078.05
544.82	58152.95
544.99	57755.06
545.16	58134.23
545.32	58298.06
545.49	58361.26
545.66	58365.94
545.83	58511.05
546.00	58440.84
546.16	58595.31
546.33	58518.07
546.50	58225.51
546.67	58291.04
546.83	57993.79
547.00	58113.16
547.17	58089.76
547.34	58269.98
547.50	58274.66
547.67	58583.61
547.84	58777.87
548.00	58824.68
548.17	58794.26
548.34	58775.53
548.51	58632.76
548.67	58731.06
548.84	58630.42
549.01	58466.58
549.18	58630.42
549.34	58639.78
549.51	58829.37
549.68	58941.71
549.84	58756.81
550.01	58632.76
550.18	58644.46
550.34	58951.07
550.51	58831.71
550.68	58843.41
550.84	58946.39
551.01	59089.16
551.18	58850.43
551.34	58894.90
551.51	58904.26
551.68	59121.93
551.84	58770.85
552.01	59124.27
552.18	59316.20
552.34	58930.01
552.51	59257.68
552.68	59037.67
552.84	59437.90
553.01	59440.24
553.18	59388.75
553.34	59327.90
553.51	59227.26
553.67	59313.86
553.84	59669.62
554.01	59620.47
554.17	59344.28
554.34	59744.51
554.51	59353.65
554.67	59463.65
554.84	59248.32
555.00	59451.95
555.17	59288.11
555.33	59519.82
555.50	59728.13
555.67	59587.70
555.83	59620.47
556.00	59824.09
556.16	59936.44
556.33	59606.42
556.50	59458.97
556.66	59716.43
556.83	59634.51
556.99	59798.35
557.16	59824.09
557.32	59929.42
557.49	60137.72
557.65	59901.33
557.82	59929.42
557.98	59632.17
558.15	59812.39
558.32	59891.97
558.48	59758.56
558.65	60156.45
558.81	59887.29
558.98	59985.59
559.14	60030.06
559.31	60097.94
559.47	59973.89
559.64	60046.44
559.80	60144.75
559.97	60154.11
560.13	60104.96
560.30	60020.70
560.46	60229.01
560.63	60093.25
560.79	60282.84
560.96	60505.19
561.12	60301.56
561.29	60261.77
561.45	60240.71
561.61	60212.62
561.78	60362.42
561.94	60514.55
562.11	60451.36
562.27	60470.08
562.44	60631.58
562.60	60484.12
562.77	60521.57
562.93	60229.01
563.10	60537.96
563.26	60236.03
563.42	60484.12
563.59	60479.44
563.75	60486.46
563.92	60626.90
564.08	60566.04
564.24	60631.58
564.41	60453.70
564.57	60416.25
564.74	60397.52
564.90	60491.15
565.07	60753.29
565.23	60533.28
565.39	60636.26
565.56	60856.27
565.72	60683.07
565.88	60465.40
566.05	60734.56
566.21	60563.70
566.38	60516.89
566.54	60657.32
566.70	60498.17
566.87	60879.67
567.03	60867.97
567.19	61200.33
567.36	60877.33
567.52	60654.98
567.68	60956.91
567.85	60734.56
568.01	60973.30
568.17	60666.69
568.34	60797.76
568.50	60914.78
568.66	60739.24
568.83	61034.15
568.99	60816.48
569.15	60837.54
569.32	60795.42
569.48	60507.53
569.64	60708.82
569.81	60767.33
569.97	60598.81
570.13	61095.00
570.30	60870.31
570.46	61066.92
570.62	61078.62
570.78	60879.67
570.95	60809.46
571.11	60889.04
571.27	60980.32
571.43	60685.41
571.60	60956.91
571.76	61029.47
571.92	61059.90
572.09	61169.90
572.25	61080.96
572.41	61078.62
572.57	60963.93
572.74	61237.78
572.90	61013.08
573.06	61146.50
573.22	60828.18
573.38	60975.64
573.55	61197.99
573.71	61340.76
573.87	61137.13
574.03	60928.83
574.20	61151.18
574.36	61062.24
574.52	61174.58
574.68	61057.56
574.84	61263.52
575.01	61190.97
575.17	61258.84
575.33	61172.24
575.49	61059.90
575.65	61172.24
575.82	61151.18
575.98	61087.98
576.14	61375.87
576.30	61364.17
576.46	61235.44
576.62	60982.66
576.79	60814.14
576.95	61169.90
577.11	61188.63
577.27	61298.63
577.43	61071.60
577.59	61207.35
577.75	61300.97
577.92	61062.24
578.08	61132.45
578.24	61130.11
578.40	61322.04
578.56	61387.57
578.72	61310.33
578.88	61418.00
579.04	61579.49
579.21	61469.49
579.37	61483.53
579.53	61469.49
579.69	61209.69
579.85	61247.14
580.01	61495.24
580.17	61410.98
580.33	61544.39
580.49	61441.40
580.65	61537.36
580.82	61378.21
580.98	61237.78
581.14	61506.94
581.30	61495.24
581.46	61254.16
581.62	61193.31
581.78	61212.03
581.94	61307.99
582.10	61249.48
582.26	61432.04
582.42	61598.22
582.58	61242.46
582.74	61366.51
582.90	61539.71
583.06	61361.82
583.22	61432.04
583.38	61305.65
583.54	61214.37
583.70	61378.21
583.86	61518.64
584.02	61188.63
584.18	61579.49
584.34	61535.02
584.50	61502.26
584.66	61315.01
584.82	61214.37
584.98	61441.40
585.14	61439.06
585.30	61439.06
585.46	61420.34
585.62	61392.25
585.78	61633.33
585.94	61574.81
586.10	61595.88
586.26	61525.66
586.42	61703.54
586.58	61530.34
586.74	61427.36
586.90	61338.42
587.06	61457.79
587.22	61670.78
587.38	61446.08
587.54	61860.36
587.70	61916.53
587.86	61848.66
