SpectraSuite Data File
++++++++++++++++++++++++++++++++++++
Date: Thu Oct 24 13:21:29 EDT 2013
User: stostad
Dark Spectrum Present: No
Reference Spectrum Present: No
Number of Sampled Component Spectra: 1
Spectrometers: USB2+H05261
Integration Time (usec): 100000 (USB2+H05261)
Spectra Averaged: 1 (USB2+H05261)
Boxcar Smoothing: 0 (USB2+H05261)
Correct for Electrical Dark: No (USB2+H05261)
Strobe/Lamp Enabled: No (USB2+H05261)
Correct for Detector Non-linearity: No (USB2+H05261)
Correct for Stray Light: No (USB2+H05261)
Number of Pixels in Processed Spectrum: 2048
>>>>>Begin Processed Spectral Data<<<<<
365.73	610.88
365.92	610.88
366.12	610.88
366.32	458.74
366.52	521.94
366.72	496.19
366.91	409.59
367.11	482.15
367.31	491.51
367.51	482.15
367.70	447.04
367.90	507.90
368.10	421.30
368.30	421.30
368.49	461.09
368.69	482.15
368.89	479.81
369.09	573.43
369.28	510.24
369.48	425.98
369.68	479.81
369.87	524.28
370.07	496.19
370.27	550.03
370.47	709.18
370.66	1008.77
370.86	1078.99
371.06	1114.10
371.25	1114.10
371.45	1111.75
371.65	1074.31
371.84	1078.99
372.04	1142.18
372.24	1196.01
372.44	1146.86
372.63	1205.38
372.83	1146.86
373.03	1196.01
373.22	1299.00
373.42	1217.08
373.62	1191.33
373.81	1205.38
374.01	1303.68
374.21	1221.76
374.40	1235.80
374.60	1313.04
374.79	1224.10
374.99	1249.85
375.19	1282.61
375.38	1291.98
375.58	1238.14
375.78	1289.64
375.97	1299.00
376.17	1303.68
376.37	1282.61
376.56	1434.75
376.76	1275.59
376.95	1341.13
377.15	1338.79
377.35	1364.53
377.54	1341.13
377.74	1380.92
377.93	1345.81
378.13	1376.24
378.33	1416.02
378.52	1371.55
378.72	1399.64
378.91	1441.77
379.11	1380.92
379.31	1399.64
379.50	1434.75
379.70	1427.73
379.89	1495.60
380.09	1458.15
380.28	1544.75
380.48	1570.50
380.68	1509.65
380.87	1521.35
381.07	1490.92
381.26	1519.01
381.46	1579.86
381.65	1530.71
381.85	1507.30
382.04	1497.94
382.24	1607.95
382.43	1565.82
382.63	1526.03
382.83	1568.16
383.02	1591.56
383.22	1605.61
383.41	1657.10
383.61	1605.61
383.80	1703.91
384.00	1561.14
384.19	1645.40
384.39	1652.42
384.58	1692.21
384.78	1732.00
384.97	1687.53
385.17	1715.61
385.36	1762.42
385.56	1603.27
385.75	1732.00
385.95	1717.95
386.14	1753.06
386.34	1734.34
386.53	1710.93
386.72	1680.50
386.92	1785.83
387.11	1790.51
387.31	1727.32
387.50	1806.89
387.70	1767.10
387.89	1753.06
388.09	1832.64
388.28	1764.76
388.48	1839.66
388.67	1867.75
388.86	1956.69
389.06	1872.43
389.25	1907.54
389.45	1916.90
389.64	1834.98
389.84	1959.03
390.03	2031.58
390.22	1919.24
390.42	2019.88
390.61	1895.83
390.81	1952.01
391.00	1991.80
391.19	1954.35
391.39	1994.14
391.58	2076.06
391.78	2078.40
391.97	2031.58
392.16	2045.63
392.36	2076.06
392.55	2111.16
392.75	2111.16
392.94	2157.97
393.13	2136.91
393.33	2111.16
393.52	2235.21
393.71	2207.13
393.91	2165.00
394.10	2211.81
394.29	2267.98
394.49	2225.85
394.68	2216.49
394.88	2188.40
395.07	2251.60
395.26	2282.02
395.46	2310.11
395.65	2298.41
395.84	2413.09
396.04	2319.47
396.23	2471.61
396.42	2300.75
396.62	2478.63
396.81	2438.84
397.00	2499.69
397.19	2452.88
397.39	2448.20
397.58	2450.54
397.77	2509.05
397.97	2492.67
398.16	2352.24
398.35	2562.89
398.55	2583.95
398.74	2602.68
398.93	2612.04
399.12	2560.55
399.32	2525.44
399.51	2609.70
399.70	2651.83
399.90	2553.52
400.09	2668.21
400.28	2705.66
400.47	2764.17
400.67	2764.17
400.86	2689.28
401.05	2822.69
401.24	2810.98
401.44	2911.63
401.63	2794.60
401.82	2911.63
402.01	2827.37
402.21	2733.75
402.40	2939.71
402.59	3054.40
402.78	2888.22
402.97	3021.63
403.17	3016.95
403.36	3016.95
403.55	3016.95
403.74	3110.57
403.93	3112.91
404.13	3220.58
404.32	3178.45
404.51	3201.85
404.70	3082.49
404.89	3267.39
405.09	3190.15
405.28	3173.77
405.47	3297.81
405.66	3318.88
405.85	3410.16
406.05	3307.18
406.24	3358.67
406.43	3440.59
406.62	3356.33
406.81	3447.61
407.00	3424.20
407.20	3375.05
407.39	3461.65
407.58	3414.84
407.77	3604.42
407.96	3534.21
408.15	3538.89
408.34	3487.40
408.54	3688.68
408.73	3705.07
408.92	3550.59
409.11	3662.94
409.30	3588.04
409.49	3679.32
409.68	3772.94
409.87	3768.26
410.07	3859.54
410.26	3887.63
410.45	3899.33
410.64	3810.39
410.83	3915.72
411.02	3967.21
411.21	3974.23
411.40	4037.42
411.59	4060.83
411.78	4037.42
411.98	4044.45
412.17	4074.87
412.36	4236.37
412.55	4238.71
412.74	4334.67
412.93	4196.58
413.12	4248.07
413.31	4568.73
413.50	4381.48
413.69	4400.21
413.88	4526.60
414.07	4524.26
414.26	4533.62
414.45	4718.52
414.64	4559.36
414.83	4631.92
415.02	4725.54
415.22	4770.01
415.41	4779.37
415.60	4732.56
415.79	4882.36
415.98	4971.30
416.17	4905.76
416.36	4910.44
416.55	4933.85
416.74	4990.02
416.93	4975.98
417.12	5139.82
417.31	5203.01
417.50	5135.14
417.69	5186.63
417.88	5282.59
418.07	5249.82
418.26	5355.15
418.45	5364.51
418.64	5526.00
418.83	5533.03
419.02	5453.45
419.21	5540.05
419.39	5504.94
419.58	5556.43
419.77	5556.43
419.96	5614.95
420.15	5579.84
420.34	5617.29
420.53	5596.22
420.72	5783.46
420.91	5617.29
421.10	5767.08
421.29	5738.99
421.48	5636.01
421.67	5619.63
421.86	5753.04
422.05	5830.27
422.24	5947.30
422.43	6029.22
422.61	6111.14
422.80	5973.05
422.99	6118.16
423.18	6047.94
423.37	6335.83
423.56	6052.63
423.75	6106.46
423.94	5944.96
424.13	5650.05
424.32	5734.31
424.50	5987.09
424.69	6228.17
424.88	6076.03
425.07	6047.94
425.26	6033.90
425.45	5963.68
425.64	5909.85
425.83	5926.24
426.01	6204.76
426.20	6174.33
426.39	6356.90
426.58	6054.97
426.77	6150.93
426.96	6384.98
427.15	6164.97
427.33	6352.21
427.52	6260.93
427.71	6490.31
427.90	6150.93
428.09	6347.53
428.28	6583.93
428.46	6485.62
428.65	6530.09
428.84	6539.46
429.03	6647.12
429.22	6572.22
429.40	6750.10
429.59	6518.39
429.78	6396.68
429.97	6218.80
430.16	6682.23
430.34	6841.39
430.53	7047.35
430.72	6956.07
430.91	6806.28
431.10	6867.13
431.28	6834.36
431.47	6963.09
431.66	7098.84
431.85	6925.65
432.03	7033.31
432.22	7215.87
432.41	7339.92
432.60	7183.10
432.79	7138.63
432.97	7393.75
433.16	7309.49
433.35	7115.23
433.54	7407.80
433.72	7370.35
433.91	7339.92
434.10	7403.11
434.28	7391.41
434.47	7482.69
434.66	7569.29
434.85	7466.31
435.03	7756.54
435.22	7838.45
435.41	8100.59
435.59	7744.83
435.78	7850.16
435.97	7779.94
436.16	7768.24
436.34	7749.51
436.53	7911.01
436.72	8018.68
436.90	7840.79
437.09	7939.10
437.28	7798.66
437.46	7815.05
437.65	7969.52
437.84	8121.66
438.02	7887.61
438.21	8074.85
438.40	7920.37
438.58	8297.20
438.77	8510.19
438.96	8294.86
439.14	8512.53
439.33	8437.63
439.52	8634.24
439.70	8531.25
439.89	8645.94
440.08	8762.97
440.26	8826.16
440.45	8657.64
440.63	8877.65
440.82	9156.18
441.01	8957.23
441.19	9170.22
441.38	9186.60
441.57	9280.22
441.75	9179.58
441.94	9509.60
442.12	9584.49
442.31	9654.71
442.50	9568.11
442.68	9535.34
442.87	9696.84
443.05	9682.80
443.24	9769.40
443.43	9729.61
443.61	9619.60
443.80	10127.50
443.98	9612.58
444.17	9315.33
444.35	9645.35
444.54	9905.15
444.73	9678.12
444.91	9839.61
445.10	10139.20
445.28	10010.47
445.47	9736.63
445.65	9937.91
445.84	10040.90
446.02	10111.11
446.21	10019.83
446.39	9987.07
446.58	10277.29
446.77	10349.85
446.95	9666.41
447.14	9954.30
447.32	10244.52
447.51	9966.00
447.69	9947.28
447.88	10272.61
448.06	10174.31
448.25	10132.18
448.43	10253.89
448.62	10132.18
448.80	10305.38
448.99	10253.89
449.17	10078.35
449.36	10150.90
449.54	10541.77
449.73	10764.12
449.91	10623.69
450.10	10572.20
450.28	10881.15
450.46	10813.28
450.65	10644.76
450.83	10567.52
451.02	10700.93
451.20	10970.09
451.39	10754.76
451.57	10813.28
451.76	10663.48
451.94	11019.24
452.13	11171.38
452.31	11152.65
452.49	11009.88
452.68	11096.48
452.86	11290.74
453.05	11246.27
453.23	11236.91
453.42	11019.24
453.60	11087.12
453.78	11309.47
453.97	11250.96
454.15	11185.42
454.34	11283.72
454.52	11611.40
454.70	11164.36
454.89	11499.05
455.07	11515.44
455.26	11541.18
455.44	11826.73
455.62	11847.79
455.81	11786.94
455.99	11955.46
456.17	12009.29
456.36	11719.06
456.54	12025.67
456.73	12056.10
456.91	12589.74
457.09	12280.79
457.28	12468.03
457.46	12238.66
457.64	12517.18
457.83	12416.54
458.01	12386.12
458.19	12924.44
458.38	12554.63
458.56	12496.12
458.74	12772.30
458.93	12940.82
459.11	12889.33
459.29	12802.73
459.48	12826.14
459.66	12772.30
459.84	12643.57
460.03	13114.02
460.21	12924.44
460.39	13240.41
460.57	13062.53
460.76	13179.56
460.94	13673.41
461.12	13193.60
461.31	13289.56
461.49	13408.93
461.67	13366.80
461.85	13565.74
462.04	13444.04
462.22	13769.37
462.40	13788.10
462.59	13640.64
462.77	13535.32
462.95	14012.79
463.13	13912.14
463.32	13846.61
463.50	13738.94
463.68	13853.63
463.86	13958.96
464.05	13752.99
464.23	13633.62
464.41	13968.32
464.59	13930.87
464.78	14457.49
464.96	14022.15
465.14	13870.01
465.32	14015.13
465.50	14113.43
465.69	14235.14
465.87	14389.61
466.05	14263.22
466.23	14431.74
466.41	14277.27
466.60	14602.60
466.78	14300.67
466.96	14492.60
467.14	14773.46
467.32	14487.92
467.51	14661.12
467.69	14310.04
467.87	14860.06
468.05	15019.22
468.23	14642.39
468.41	14609.62
468.60	14738.35
468.78	15026.24
468.96	14986.45
469.14	15183.06
469.32	15243.91
469.50	14937.30
469.69	15318.81
469.87	15309.44
470.05	15269.66
470.23	15672.23
470.41	15555.20
470.59	15693.29
470.77	15442.85
470.95	15637.12
471.14	16255.02
471.32	15686.27
471.50	16013.95
471.68	16093.52
471.86	16226.93
472.04	16194.17
472.22	16498.44
472.40	16072.46
472.58	16004.58
472.77	16575.67
472.95	16636.53
473.13	17022.72
473.31	16311.19
473.49	16802.71
473.67	16535.88
473.85	17027.40
474.03	17355.07
474.21	17224.00
474.39	17472.10
474.57	17467.42
474.75	17488.48
474.93	17607.85
475.12	17755.30
475.30	17752.96
475.48	17837.22
475.66	17837.22
475.84	17881.69
476.02	18085.32
476.20	18174.26
476.38	18647.05
476.56	19021.53
476.74	18808.54
476.92	18696.20
477.10	18508.96
477.28	19030.90
477.46	19218.14
477.64	18998.13
477.82	19424.11
478.00	19791.57
478.18	19882.85
478.36	19948.39
478.54	20053.71
478.72	20315.85
478.90	20528.84
479.08	20774.60
479.26	20856.51
479.44	20957.16
479.62	21228.66
479.80	21371.43
479.98	21497.82
480.16	22017.42
480.34	21598.46
480.52	22214.02
480.70	21895.71
480.88	21724.85
481.06	22305.31
481.24	22375.52
481.41	22703.20
481.59	23042.57
481.77	22951.29
481.95	22843.63
482.13	23300.03
482.31	22834.27
482.49	23456.85
482.67	23494.30
482.85	24191.78
483.03	24631.80
483.21	24381.36
483.39	24870.53
483.57	24694.99
483.74	25076.50
483.92	24994.58
484.10	25273.10
484.28	25497.80
484.46	25411.20
484.64	26377.84
484.82	25867.60
485.00	26181.23
485.18	26773.39
485.35	26700.83
485.53	26581.46
485.71	27314.05
485.89	27779.82
486.07	27377.25
486.25	27445.12
486.43	27819.61
486.61	28121.54
486.78	28088.77
486.96	28996.90
487.14	28809.65
487.32	28701.99
487.50	29039.03
487.68	29570.33
487.85	29607.78
488.03	30022.05
488.21	30197.59
488.39	30192.91
488.57	30548.67
488.75	30953.58
488.92	30979.33
489.10	31716.60
489.28	31309.35
489.46	32341.52
489.64	31758.73
489.81	32652.81
489.99	32470.25
490.17	32481.95
490.35	32863.46
490.53	33027.30
490.70	33085.81
490.88	33123.26
491.06	34066.50
491.24	33703.71
491.41	33968.19
491.59	34380.13
491.77	34277.15
491.95	34616.52
492.13	35091.65
492.30	34878.66
492.48	35426.35
492.66	35213.36
492.84	35440.39
493.01	35950.63
493.19	35864.03
493.37	36341.50
493.54	36360.22
493.72	36362.56
493.90	36608.32
494.08	37050.68
494.25	37242.60
494.43	37493.04
494.61	37743.48
494.79	38117.96
494.96	37837.10
495.14	38202.22
495.32	38436.28
495.49	38689.06
495.67	38855.23
495.85	39133.76
496.02	39063.54
496.20	39768.04
496.38	39683.78
496.55	39854.64
496.73	41111.51
496.91	40580.21
497.09	40437.44
497.26	40474.88
497.44	40762.77
497.62	40804.90
497.79	41598.34
497.97	41488.34
498.14	42373.06
498.32	41996.23
498.50	42274.76
498.67	41890.91
498.85	42099.22
499.03	42941.81
499.20	42857.55
499.38	42878.61
499.56	43253.10
499.73	43306.93
499.91	43271.82
500.08	43810.15
500.26	43653.33
500.44	43782.06
500.61	44299.32
500.79	44018.46
500.97	44179.95
501.14	44800.19
501.32	44538.05
501.49	44612.95
501.67	44975.73
501.84	45242.56
502.02	45488.31
502.20	45280.00
502.37	45457.88
502.55	45380.65
502.72	45282.34
502.90	45558.53
503.07	45858.12
503.25	46476.02
503.43	45933.01
503.60	46354.31
503.78	46600.07
503.95	45925.99
504.13	46649.22
504.30	46494.74
504.48	46328.56
504.65	47168.82
504.83	47014.34
505.01	47297.55
505.18	47459.04
505.36	47746.93
505.53	47358.40
505.71	47889.70
505.88	48013.75
506.06	48067.58
506.23	48451.43
506.41	48257.17
506.58	48250.14
506.76	48353.13
506.93	48610.59
507.11	48711.23
507.28	49095.08
507.46	49207.42
507.63	49034.22
507.81	49279.98
507.98	48849.32
508.16	49191.04
508.33	49429.77
508.50	49708.30
508.68	50110.87
508.85	50064.06
509.03	50167.04
509.20	50167.04
509.38	50665.58
509.55	50429.18
509.73	50323.86
509.90	50864.52
510.08	50513.44
510.25	50763.88
510.42	50747.50
510.60	51133.68
510.77	50873.88
510.95	51536.26
511.12	50955.80
511.30	51452.00
511.47	51936.49
511.64	51606.47
511.82	51866.27
511.99	51931.81
512.17	52060.54
512.34	51877.97
512.51	52112.03
512.69	52486.51
512.86	52554.39
513.04	52666.73
513.21	52645.67
513.38	52287.57
513.56	52704.18
513.73	52355.44
513.90	52830.57
514.08	52828.23
514.25	53261.23
514.43	52917.17
514.60	53317.40
514.77	53132.50
514.95	53450.81
515.12	53223.78
515.29	53169.95
515.47	53829.98
515.64	53958.71
515.81	53932.96
515.99	53645.08
516.16	53961.05
516.33	53790.19
516.51	54089.78
516.68	54227.87
516.85	54368.30
517.03	54438.52
517.20	54546.18
517.37	54138.93
517.54	54284.04
517.72	54415.11
517.89	54372.99
518.06	54747.47
518.24	54611.72
518.41	54714.70
518.58	54677.25
518.75	54391.71
518.93	54831.73
519.10	54805.98
519.27	54883.22
519.45	55316.22
519.62	55276.43
519.79	55178.13
519.96	55306.86
520.14	55283.45
520.31	55082.17
520.48	55456.65
520.65	55477.72
520.83	55526.87
521.00	55866.25
521.17	55569.00
521.34	55973.91
521.52	55763.26
521.69	55987.95
521.86	55997.32
522.03	55971.57
522.20	56179.88
522.38	56369.46
522.55	56575.43
522.72	56451.38
522.89	56360.10
523.07	56507.55
523.24	56266.48
523.41	56521.60
523.58	56449.04
523.75	56598.83
523.92	56605.86
524.10	57031.83
524.27	56802.46
524.44	56879.70
524.61	57052.90
524.78	56849.27
524.96	57120.77
525.13	57176.95
525.30	57153.54
525.47	57579.52
525.64	57345.47
525.81	57258.87
525.98	57350.15
526.16	57293.97
526.33	57284.61
526.50	57588.88
526.67	57499.94
526.84	57748.04
527.01	57764.42
527.18	57762.08
527.36	57705.91
527.53	57745.70
527.70	57939.96
527.87	58103.80
528.04	58052.31
528.21	58326.15
528.38	58169.33
528.55	58108.48
528.72	58127.20
528.89	57932.94
529.07	58040.60
529.24	57862.72
529.41	58358.92
529.58	58541.48
529.75	58330.83
529.92	58211.46
530.09	58422.11
530.26	58269.98
530.43	58614.04
530.60	58185.72
530.77	58405.73
530.94	58789.58
531.11	58878.52
531.28	58904.26
531.46	58766.17
531.63	58796.60
531.80	58787.24
531.97	58887.88
532.14	58904.26
532.31	58721.70
532.48	58915.96
532.65	59079.80
532.82	59196.83
532.99	59075.12
533.16	59091.51
533.33	59157.04
533.50	59341.94
533.67	59344.28
533.84	59325.56
534.01	59299.81
534.18	59374.71
534.35	59763.24
534.52	59437.90
534.69	59709.41
534.86	59482.37
535.03	59313.86
535.20	59604.08
535.37	59767.92
535.54	60048.78
535.71	59587.70
535.88	59793.67
536.05	59615.79
536.22	59774.94
536.38	59716.43
536.55	59964.52
536.72	59966.87
536.89	59849.84
537.06	60009.00
537.23	60261.77
537.40	60179.85
537.57	59976.23
537.74	60149.43
537.91	60259.43
538.08	60144.75
538.25	60027.72
538.42	60254.75
538.59	60509.87
538.75	60315.61
538.92	60423.27
539.09	60659.66
539.26	60418.59
539.43	60224.32
539.60	60643.28
539.77	60640.94
539.94	60633.92
540.11	60816.48
540.28	60566.04
540.44	60769.67
540.61	60846.91
540.78	60788.39
540.95	60619.88
541.12	60544.98
541.29	60690.09
541.46	61034.15
541.62	60959.25
541.79	61111.39
541.96	60863.29
542.13	60917.12
542.30	60886.70
542.47	61127.77
542.63	61073.94
542.80	61233.10
542.97	61434.38
543.14	61495.24
543.31	61474.17
543.48	61462.47
543.64	61638.01
543.81	61691.84
543.98	61630.99
544.15	61478.85
544.32	61654.39
544.48	61820.57
544.65	61804.19
544.82	61759.72
544.99	61544.39
545.16	61832.27
545.32	61619.28
545.49	61872.06
545.66	62225.48
545.83	61942.28
546.00	62199.74
546.16	61895.47
546.33	62007.81
546.50	61923.55
546.67	61996.11
546.83	61745.67
547.00	61872.06
547.17	61745.67
547.34	61867.38
547.50	61853.34
547.67	62412.73
547.84	62150.59
548.00	62197.40
548.17	62340.17
548.34	62302.72
548.51	62459.54
548.67	62211.44
548.84	62326.13
549.01	62162.29
549.18	62284.00
549.34	62473.58
549.51	62365.91
549.68	62501.67
549.84	62419.75
550.01	62342.51
550.18	62272.29
550.34	62452.51
550.51	62328.47
550.68	62494.64
550.84	62293.36
551.01	62731.04
551.18	62656.14
551.34	62496.98
551.51	62693.59
551.68	62616.35
551.84	62546.14
552.01	62618.69
552.18	62637.42
552.34	62681.89
552.51	62897.22
552.68	62791.89
552.84	62976.79
553.01	63126.59
553.18	62677.21
553.34	62979.14
553.51	62747.42
553.67	62869.13
553.84	63208.51
554.01	63362.98
554.17	63196.80
554.34	62944.03
554.51	63128.93
554.67	63131.27
554.84	63082.12
555.00	62934.66
555.17	62983.82
555.33	63285.75
555.50	62918.28
555.67	63189.78
555.83	63187.44
556.00	63339.58
556.16	63472.99
556.33	63470.65
556.50	63138.29
556.66	63215.53
556.83	63149.99
556.99	63606.40
557.16	63648.53
557.32	63512.78
557.49	63664.91
557.65	63217.87
557.82	63491.71
557.98	63475.33
558.15	63409.79
558.32	63510.44
558.48	63365.32
558.65	63709.38
558.81	63505.76
558.98	63587.67
559.14	63601.72
559.31	63732.79
559.47	63468.31
559.64	63653.21
559.80	63606.40
559.97	63772.58
560.13	63674.27
560.30	63540.86
560.46	63898.97
560.63	63669.59
560.79	63964.50
560.96	64023.01
561.12	63758.53
561.29	63681.30
561.45	63753.85
561.61	63849.81
561.78	63840.45
561.94	63997.27
562.11	63955.14
562.27	64079.19
562.44	64023.01
562.60	64172.81
562.77	64170.47
562.93	63985.57
563.10	63828.75
563.26	63840.45
563.42	64179.83
563.59	64081.53
563.75	63950.46
563.92	64252.39
564.08	64104.93
564.24	64191.53
564.41	64137.70
564.57	63971.52
564.74	63929.39
564.90	64048.76
565.07	64217.28
565.23	64182.17
565.39	64329.62
565.56	64540.27
565.72	64336.65
565.88	64161.11
566.05	64259.41
566.21	64165.79
566.38	64039.40
566.54	64104.93
566.70	64364.73
566.87	64430.27
567.03	64346.01
567.19	64404.52
567.36	64437.29
567.52	64418.56
567.68	64430.27
567.85	64308.56
568.01	64381.12
568.17	64205.58
568.34	64355.37
568.50	64516.87
568.66	64346.01
568.83	64514.53
568.99	64301.54
569.15	64441.97
569.32	64619.85
569.48	64282.81
569.64	64299.20
569.81	64264.09
569.97	64296.86
570.13	64467.72
570.30	64385.80
570.46	64392.82
570.62	64371.75
570.78	64257.07
570.95	64360.05
571.11	64690.07
571.27	64420.90
571.43	64434.95
571.60	64460.69
571.76	64549.63
571.92	64441.97
572.09	64444.31
572.25	64460.69
572.41	64624.53
572.57	64437.29
572.74	64661.98
572.90	64664.32
573.06	64633.89
573.22	64669.00
573.38	64589.42
573.55	64722.83
573.71	64788.37
573.87	64704.11
574.03	64697.09
574.20	64657.30
574.36	64896.03
574.52	64596.45
574.68	64629.21
574.84	64825.82
575.01	64835.18
575.17	64734.54
575.33	64750.92
575.49	64734.54
575.65	65013.06
575.82	64959.23
575.98	64573.04
576.14	64828.16
576.30	64889.01
576.46	64860.93
576.62	64551.98
576.79	64771.99
576.95	64537.93
577.11	64816.46
577.27	65066.89
577.43	64851.56
577.59	64828.16
577.75	64629.21
577.92	64870.29
578.08	64678.36
578.24	64760.28
578.40	65066.89
578.56	64853.90
578.72	64814.12
578.88	65027.10
579.04	64973.27
579.21	65036.47
579.37	64919.44
579.53	65113.70
579.69	64678.36
579.85	64938.16
580.01	64980.29
580.17	64800.07
580.33	64793.05
580.49	64844.54
580.65	64898.37
580.82	64954.55
580.98	65106.68
581.14	65221.37
581.30	65003.70
581.46	65034.13
581.62	64837.52
581.78	64917.10
581.94	64947.53
582.10	64837.52
582.26	65022.42
582.42	65076.26
582.58	64907.74
582.74	64938.16
582.90	65186.26
583.06	64942.84
583.22	65127.75
583.38	65148.81
583.54	64898.37
583.70	64942.84
583.86	64996.68
584.02	64856.24
584.18	65144.13
584.34	65043.49
584.50	65162.85
584.66	64956.89
584.82	64924.12
584.98	65062.21
585.14	64837.52
585.30	64996.68
585.46	65022.42
585.62	64896.03
585.78	65200.30
585.94	64970.93
586.10	65298.61
586.26	65226.05
586.42	65045.83
586.58	65022.42
586.74	65017.74
586.90	65092.64
587.06	65179.24
587.22	65368.82
587.38	65083.28
