SpectraSuite Data File
++++++++++++++++++++++++++++++++++++
Date: Thu Oct 24 13:21:14 EDT 2013
User: stostad
Dark Spectrum Present: No
Reference Spectrum Present: No
Number of Sampled Component Spectra: 1
Spectrometers: USB2+H05261
Integration Time (usec): 100000 (USB2+H05261)
Spectra Averaged: 1 (USB2+H05261)
Boxcar Smoothing: 0 (USB2+H05261)
Correct for Electrical Dark: No (USB2+H05261)
Strobe/Lamp Enabled: No (USB2+H05261)
Correct for Detector Non-linearity: No (USB2+H05261)
Correct for Stray Light: No (USB2+H05261)
Number of Pixels in Processed Spectrum: 2048
>>>>>Begin Processed Spectral Data<<<<<
365.73	575.77
365.92	575.77
366.12	575.77
366.32	512.58
366.52	440.02
366.72	561.73
366.91	519.60
367.11	456.40
367.31	486.83
367.51	421.30
367.70	458.74
367.90	528.96
368.10	514.92
368.30	428.32
368.49	425.98
368.69	421.30
368.89	458.74
369.09	496.19
369.28	489.17
369.48	491.51
369.68	465.77
369.87	540.66
370.07	479.81
370.27	566.41
370.47	521.94
370.66	704.50
370.86	690.46
371.06	697.48
371.25	734.93
371.45	713.86
371.65	725.57
371.84	713.86
372.04	692.80
372.24	683.44
372.44	716.20
372.63	713.86
372.83	718.54
373.03	788.76
373.22	795.78
373.42	763.01
373.62	763.01
373.81	730.25
374.01	788.76
374.21	791.10
374.40	851.96
374.60	823.87
374.79	805.14
374.99	772.38
375.19	767.70
375.38	868.34
375.58	795.78
375.78	807.48
375.97	823.87
376.17	826.21
376.37	746.63
376.56	842.59
376.76	828.55
376.95	774.72
377.15	844.93
377.35	758.33
377.54	830.89
377.74	744.29
377.93	795.78
378.13	798.12
378.33	835.57
378.52	800.46
378.72	784.08
378.91	793.44
379.11	763.01
379.31	851.96
379.50	858.98
379.70	875.36
379.89	856.64
380.09	858.98
380.28	873.02
380.48	823.87
380.68	861.32
380.87	840.25
381.07	854.30
381.26	868.34
381.46	849.61
381.65	873.02
381.85	880.04
382.04	847.27
382.24	877.70
382.43	917.49
382.63	830.89
382.83	828.55
383.02	884.72
383.22	910.47
383.41	805.14
383.61	954.94
383.80	858.98
384.00	889.40
384.19	880.04
384.39	917.49
384.58	929.19
384.78	938.55
384.97	882.38
385.17	887.06
385.36	908.13
385.56	903.45
385.75	931.53
385.95	924.51
386.14	929.19
386.34	854.30
386.53	912.81
386.72	943.24
386.92	959.62
387.11	950.26
387.31	940.90
387.50	884.72
387.70	840.25
387.89	905.79
388.09	952.60
388.28	868.34
388.48	959.62
388.67	910.47
388.86	950.26
389.06	985.37
389.25	980.68
389.45	966.64
389.64	954.94
389.84	990.05
390.03	999.41
390.22	973.66
390.42	983.02
390.61	976.00
390.81	966.64
391.00	968.98
391.19	961.96
391.39	1006.43
391.58	978.34
391.78	1011.11
391.97	1039.20
392.16	1088.35
392.36	1036.86
392.55	1029.84
392.75	1015.79
392.94	997.07
393.13	1043.88
393.33	1078.99
393.52	1053.24
393.71	1102.39
393.91	1029.84
394.10	1069.62
394.29	1034.52
394.49	1013.45
394.68	1090.69
394.88	1086.01
395.07	1043.88
395.26	1086.01
395.46	1025.15
395.65	1083.67
395.84	1198.35
396.04	1069.62
396.23	1050.90
396.42	1160.91
396.62	1111.75
396.81	1125.80
397.00	1118.78
397.19	1139.84
397.39	1104.73
397.58	1118.78
397.77	1128.14
397.97	1146.86
398.16	1214.74
398.35	1100.05
398.55	1123.46
398.74	1128.14
398.93	1217.08
399.12	1188.99
399.32	1149.20
399.51	1170.27
399.70	1165.59
399.90	1198.35
400.09	1181.97
400.28	1259.21
400.47	1172.61
400.67	1156.22
400.86	1313.04
401.05	1233.46
401.24	1313.04
401.44	1231.12
401.63	1299.00
401.82	1203.04
402.01	1254.53
402.21	1245.16
402.40	1196.01
402.59	1160.91
402.78	1324.74
402.97	1224.10
403.17	1306.02
403.36	1263.89
403.55	1376.24
403.74	1322.40
403.93	1284.95
404.13	1406.66
404.32	1373.89
404.51	1373.89
404.70	1453.47
404.89	1362.19
405.09	1460.49
405.28	1383.26
405.47	1444.11
405.66	1345.81
405.85	1458.15
406.05	1383.26
406.24	1390.28
406.43	1483.90
406.62	1479.22
406.81	1460.49
407.00	1357.51
407.20	1406.66
407.39	1430.07
407.58	1493.26
407.77	1483.90
407.96	1533.05
408.15	1521.35
408.34	1547.09
408.54	1476.88
408.73	1540.07
408.92	1540.07
409.11	1579.86
409.30	1596.25
409.49	1493.26
409.68	1582.20
409.87	1584.54
410.07	1600.93
410.26	1495.60
410.45	1589.22
410.64	1671.14
410.83	1722.63
411.02	1617.31
411.21	1701.57
411.40	1638.38
411.59	1687.53
411.78	1661.78
411.98	1746.04
412.17	1727.32
412.36	1692.21
412.55	1741.36
412.74	1830.30
412.93	1839.66
413.12	1710.93
413.31	1795.19
413.50	1788.17
413.69	1879.45
413.88	1795.19
414.07	1844.34
414.26	1769.44
414.45	1837.32
414.64	1877.11
414.83	1877.11
415.02	1942.64
415.22	1877.11
415.41	1909.88
415.60	1907.54
415.79	1902.86
415.98	1905.20
416.17	1930.94
416.36	1914.56
416.55	1886.47
416.74	1984.77
416.93	1977.75
417.12	1975.41
417.31	1968.39
417.50	1998.82
417.69	2165.00
417.88	2115.84
418.07	2017.54
418.26	2062.01
418.45	2150.95
418.64	2197.76
418.83	2019.88
419.02	2111.16
419.21	2221.17
419.39	2188.40
419.58	2022.22
419.77	2010.52
419.96	2181.38
420.15	2179.04
420.34	2256.28
420.53	2195.42
420.72	2162.66
420.91	2260.96
421.10	2172.02
421.29	2340.54
421.48	2188.40
421.67	2167.34
421.86	2253.94
422.05	2267.98
422.24	2249.25
422.43	2347.56
422.61	2307.77
422.80	2256.28
422.99	2246.91
423.18	2279.68
423.37	2356.92
423.56	2345.22
423.75	2275.00
423.94	2235.21
424.13	2239.89
424.32	2310.11
424.50	2382.67
424.69	2370.96
424.88	2368.62
425.07	2314.79
425.26	2319.47
425.45	2319.47
425.64	2326.49
425.83	2296.07
426.01	2340.54
426.20	2462.24
426.39	2307.77
426.58	2333.51
426.77	2246.91
426.96	2356.92
427.15	2279.68
427.33	2438.84
427.52	2452.88
427.71	2349.90
427.90	2413.09
428.09	2352.24
428.28	2331.17
428.46	2553.52
428.65	2434.16
428.84	2532.46
429.03	2457.56
429.22	2612.04
429.40	2436.50
429.59	2462.24
429.78	2443.52
429.97	2443.52
430.16	2588.63
430.34	2565.23
430.53	2539.48
430.72	2541.82
430.91	2654.17
431.10	2544.16
431.28	2605.02
431.47	2597.99
431.66	2663.53
431.85	2558.21
432.03	2731.41
432.22	2691.62
432.41	2752.47
432.60	2663.53
432.79	2803.96
432.97	2757.15
433.16	2682.25
433.35	2586.29
433.54	2715.02
433.72	2726.72
433.91	2747.79
434.10	2825.03
434.28	2729.06
434.47	2806.30
434.66	2796.94
434.85	2827.37
435.03	2836.73
435.22	3066.10
435.41	3192.49
435.59	3112.91
435.78	2995.89
435.97	3019.29
436.16	2995.89
436.34	2930.35
436.53	2846.09
436.72	2984.18
436.90	2902.26
437.09	2892.90
437.28	2803.96
437.46	2857.79
437.65	2897.58
437.84	3038.02
438.02	2956.10
438.21	3002.91
438.40	2892.90
438.58	3042.70
438.77	3077.80
438.96	2986.52
439.14	3073.12
439.33	3108.23
439.52	3180.79
439.70	3049.72
439.89	3061.42
440.08	3192.49
440.26	3171.43
440.45	3075.46
440.63	3155.04
440.82	3279.09
441.01	3204.19
441.19	3197.17
441.38	3239.30
441.57	3262.71
441.75	3454.63
441.94	3253.34
442.12	3337.60
442.31	3431.23
442.50	3351.65
442.68	3414.84
442.87	3496.76
443.05	3332.92
443.24	3475.70
443.43	3452.29
443.61	3459.31
443.80	3548.25
443.98	3365.69
444.17	3384.41
444.35	3445.27
444.54	3377.39
444.73	3485.06
444.91	3510.80
445.10	3417.18
445.28	3513.14
445.47	3529.53
445.65	3375.05
445.84	3576.34
446.02	3585.70
446.21	3494.42
446.39	3557.61
446.58	3482.72
446.77	3499.10
446.95	3459.31
447.14	3508.46
447.32	3609.11
447.51	3602.08
447.69	3536.55
447.88	3674.64
448.06	3576.34
448.25	3611.45
448.43	3581.02
448.62	3709.75
448.80	3602.08
448.99	3655.92
449.17	3719.11
449.36	3679.32
449.54	3768.26
449.73	3691.02
449.91	3684.00
450.10	3639.53
450.28	3763.58
450.46	3761.24
450.65	3794.01
450.83	3796.35
451.02	3730.81
451.20	3779.97
451.39	3829.12
451.57	3712.09
451.76	3688.68
451.94	3684.00
452.13	3894.65
452.31	3744.86
452.49	3662.94
452.68	3880.61
452.86	3786.99
453.05	3967.21
453.23	3946.14
453.42	3847.84
453.60	3824.44
453.78	3868.91
453.97	3840.82
454.15	3899.33
454.34	3857.20
454.52	4042.11
454.70	3990.61
454.89	3953.16
455.07	3978.91
455.26	4002.32
455.44	3967.21
455.62	4037.42
455.81	4109.98
455.99	4058.49
456.17	4095.94
456.36	4074.87
456.54	4067.85
456.73	4184.88
456.91	4152.11
457.09	4154.45
457.28	4255.09
457.46	4304.25
457.64	4217.65
457.83	4196.58
458.01	4095.94
458.19	4440.00
458.38	4255.09
458.56	4236.37
458.74	4301.90
458.93	4362.76
459.11	4219.99
459.29	4292.54
459.48	4372.12
459.66	4407.23
459.84	4360.42
460.03	4507.87
460.21	4372.12
460.39	4229.35
460.57	4238.71
460.76	4306.59
460.94	4376.80
461.12	4353.40
461.31	4395.53
461.49	4528.94
461.67	4425.95
461.85	4578.09
462.04	4329.99
462.22	4791.08
462.40	4706.82
462.59	4496.17
462.77	4578.09
462.95	4573.41
463.13	4685.75
463.32	4631.92
463.50	4521.92
463.68	4585.11
463.86	4669.37
464.05	4550.00
464.23	4629.58
464.41	4709.16
464.59	4690.43
464.78	4767.67
464.96	4638.94
465.14	4727.88
465.32	4683.41
465.50	4720.86
465.69	4865.97
465.87	4791.08
466.05	4732.56
466.23	4781.71
466.41	4931.51
466.60	4889.38
466.78	4908.10
466.96	4723.20
467.14	4711.50
467.32	4805.12
467.51	4652.98
467.69	4737.24
467.87	4978.32
468.05	4863.63
468.23	4968.96
468.41	4877.68
468.60	4924.49
468.78	4741.93
468.96	4919.81
469.14	4922.15
469.32	5013.43
469.50	4936.19
469.69	5153.86
469.87	5078.96
470.05	4959.60
470.23	5060.24
470.41	5116.41
470.59	5191.31
470.77	5151.52
470.95	5233.44
471.14	5254.50
471.32	5057.90
471.50	5224.08
471.68	5252.16
471.86	5277.91
472.04	5259.18
472.22	5479.19
472.40	5301.31
472.58	5284.93
472.77	5376.21
472.95	5383.23
473.13	5528.35
473.31	5355.15
473.49	5423.02
473.67	5495.58
473.85	5469.83
474.03	5554.09
474.21	5652.39
474.39	5589.20
474.57	5654.73
474.75	5631.33
474.93	5497.92
475.12	5593.88
475.30	5755.38
475.48	5692.18
475.66	5776.44
475.84	5668.78
476.02	5942.62
476.20	5834.96
476.38	5839.64
476.56	5970.71
476.74	6057.31
476.92	6099.44
477.10	6012.84
477.28	5956.66
477.46	6099.44
477.64	6064.33
477.82	6328.81
478.00	6375.62
478.18	6279.66
478.36	6181.35
478.54	6317.11
478.72	6445.84
478.90	6408.39
479.08	6581.59
479.26	6434.13
479.44	6612.01
479.62	6597.97
479.80	6541.80
479.98	6878.83
480.16	6846.07
480.34	6825.00
480.52	6855.43
480.70	6801.60
480.88	6799.26
481.06	6827.34
481.24	7005.22
481.41	7091.82
481.59	7213.53
481.77	7194.81
481.95	7105.87
482.13	7330.56
482.31	7204.17
482.49	7314.17
482.67	7435.88
482.85	7531.84
483.03	7463.97
483.21	7524.82
483.39	7559.93
483.57	7585.68
483.74	7672.28
483.92	7667.60
484.10	7592.70
484.28	7887.61
484.46	8063.15
484.64	8088.89
484.82	7983.57
485.00	8154.43
485.18	8217.62
485.35	8238.69
485.53	8416.57
485.71	8421.25
485.89	8351.03
486.07	8449.33
486.25	8603.81
486.43	8435.29
486.61	8774.67
486.78	8664.66
486.96	8741.90
487.14	8954.89
487.32	8887.01
487.50	8961.91
487.68	9088.30
487.85	8978.30
488.03	9242.78
488.21	9191.28
488.39	9238.09
488.57	9210.01
488.75	9472.15
488.92	9558.75
489.10	9481.51
489.28	9605.56
489.46	9797.48
489.64	9664.07
489.81	9837.27
489.99	9937.91
490.17	10038.56
490.35	10188.35
490.53	10284.31
490.70	10017.49
490.88	10270.27
491.06	10235.16
491.24	10200.05
491.41	10370.91
491.59	10494.96
491.77	10462.19
491.95	10661.14
492.13	10506.66
492.30	10637.73
492.48	10623.69
492.66	10607.31
492.84	10726.68
493.01	10789.87
493.19	10853.06
493.37	10724.33
493.54	11007.54
493.72	11044.99
493.90	11105.84
494.08	11382.03
494.25	11346.92
494.43	11440.54
494.61	11517.78
494.79	11346.92
494.96	11475.65
495.14	11552.88
495.32	11627.78
495.49	11723.74
495.67	11576.29
495.85	11688.64
496.02	11679.27
496.20	11852.47
496.38	11854.81
496.55	12121.63
496.73	12194.19
496.91	12074.82
497.09	12210.57
497.26	12372.07
497.44	12287.81
497.62	12046.74
497.79	12479.74
497.97	12297.17
498.14	12456.33
498.32	12732.51
498.50	12657.62
498.67	12650.60
498.85	12486.76
499.03	12489.10
499.20	12713.79
499.38	12748.90
499.56	12849.54
499.73	12669.32
499.91	12915.08
500.08	12833.16
500.26	12912.74
500.44	13062.53
500.61	13123.38
500.79	13050.83
500.97	13315.31
501.14	13249.77
501.32	13165.51
501.49	13207.64
501.67	13343.39
501.84	13586.81
502.02	13392.55
502.20	13621.92
502.37	13525.96
502.55	13483.83
502.72	13563.40
502.90	13682.77
503.07	13612.56
503.25	13682.77
503.43	13715.54
503.60	13832.57
503.78	13881.72
503.95	13891.08
504.13	13722.56
504.30	14017.47
504.48	14094.71
504.65	14036.19
504.83	14040.87
505.01	14188.33
505.18	13907.46
505.36	14368.55
505.53	14108.75
505.71	14326.42
505.88	14178.97
506.06	14267.91
506.23	14438.76
506.41	14396.64
506.58	14387.27
506.76	14551.11
506.93	14459.83
507.11	14576.86
507.28	15077.73
507.46	14656.43
507.63	14925.60
507.81	14843.68
507.98	14630.69
508.16	14583.88
508.33	14939.64
508.50	14857.72
508.68	14953.68
508.85	15241.57
509.03	15089.43
509.20	15274.34
509.38	15346.89
509.55	15393.70
509.73	15513.07
509.90	15800.96
510.08	15185.40
510.25	15466.26
510.42	15435.83
510.60	15262.63
510.77	15723.72
510.95	15882.88
511.12	15747.12
511.30	15669.89
511.47	15822.02
511.64	15737.76
511.82	15882.88
511.99	15871.17
512.17	15751.81
512.34	15950.75
512.51	16137.99
512.69	16198.85
512.86	15941.39
513.04	16180.12
513.21	15908.62
513.38	16327.58
513.56	16299.49
513.73	16294.81
513.90	16535.88
514.08	16367.37
514.25	16477.37
514.43	16236.30
514.60	16409.50
514.77	16428.22
514.95	16697.38
515.12	16367.37
515.29	16308.85
515.47	16774.62
515.64	16805.05
515.81	16762.92
515.99	16966.54
516.16	16760.58
516.33	16772.28
516.51	16889.31
516.68	16830.79
516.85	16940.80
517.03	17090.59
517.20	17092.93
517.37	16884.62
517.54	17055.48
517.72	17006.33
517.89	16964.20
518.06	17102.29
518.24	17057.82
518.41	17252.09
518.58	17254.43
518.75	16945.48
518.93	17186.55
519.10	17352.73
519.27	17256.77
519.45	17547.00
519.62	17284.86
519.79	17254.43
519.96	17479.12
520.14	17390.18
520.31	17451.03
520.48	17652.32
520.65	17425.29
520.83	17846.58
521.00	17767.01
521.17	17820.84
521.34	17762.33
521.52	17834.88
521.69	17858.29
521.86	17593.81
522.03	17991.70
522.20	17846.58
522.38	18253.84
522.55	18228.09
522.72	17905.10
522.89	17989.36
523.07	18185.96
523.24	17940.21
523.41	18040.85
523.58	18160.22
523.75	18288.95
523.92	18171.92
524.10	18317.03
524.27	18555.77
524.44	18302.99
524.61	18345.12
524.78	18490.23
524.96	18270.22
525.13	18483.21
525.30	18651.73
525.47	18700.88
525.64	18576.83
525.81	18890.46
525.98	18630.66
526.16	18939.62
526.33	18649.39
526.50	19227.50
526.67	18707.90
526.84	18602.58
527.01	18841.31
527.18	18726.63
527.36	18862.38
527.53	18904.51
527.70	18883.44
527.87	19026.21
528.04	18946.64
528.21	19161.97
528.38	19070.68
528.55	19220.48
528.72	19199.41
528.89	18984.09
529.07	19262.61
529.24	18939.62
529.41	19154.94
529.58	19466.24
529.75	19349.21
529.92	19276.65
530.09	19356.23
530.26	19321.12
530.43	19264.95
530.60	19424.11
530.77	19367.93
530.94	19461.55
531.11	19386.66
531.28	19646.46
531.46	19599.65
531.63	19564.54
531.80	19470.92
531.97	19456.87
532.14	19648.80
532.31	19496.66
532.48	19749.44
532.65	19857.10
532.82	19716.67
532.99	19634.75
533.16	19747.10
533.33	19859.45
533.50	19819.66
533.67	19690.93
533.84	19793.91
534.01	19810.29
534.18	19733.06
534.35	20004.56
534.52	20119.24
534.69	20315.85
534.86	20130.95
535.03	19744.76
535.20	20037.33
535.37	20168.40
535.54	20046.69
535.71	20100.52
535.88	20601.40
536.05	19983.49
536.22	20240.95
536.38	20250.32
536.55	20208.19
536.72	20671.61
536.89	20482.03
537.06	20664.59
537.23	20463.30
537.40	20355.64
537.57	20725.44
537.74	20577.99
537.91	20683.31
538.08	20664.59
538.25	20287.76
538.42	20854.17
538.59	20877.58
538.75	20390.75
538.92	20692.68
539.09	20807.36
539.26	20814.38
539.43	20577.99
539.60	20938.43
539.77	20996.95
539.94	21120.99
540.11	21041.42
540.28	21254.40
540.44	21458.03
540.61	20943.11
540.78	20929.07
540.95	21380.79
541.12	21064.82
541.29	21336.32
541.46	21647.61
541.62	21287.17
541.79	21633.57
541.96	21406.54
542.13	21170.15
542.30	21399.52
542.47	21633.57
542.63	21263.77
542.80	21479.10
542.97	21963.59
543.14	21947.20
543.31	21858.26
543.48	21968.27
543.64	22129.77
543.81	21979.97
543.98	21884.01
544.15	21689.74
544.32	21745.92
544.48	21982.31
544.65	22148.49
544.82	21996.35
544.99	22136.79
545.16	21956.57
545.32	22377.86
545.49	22661.07
545.66	22963.00
545.83	23047.26
546.00	22820.22
546.16	22691.49
546.33	22658.73
546.50	22436.38
546.67	22288.92
546.83	21891.03
547.00	22148.49
547.17	21816.13
547.34	21869.97
547.50	22043.17
547.67	22375.52
547.84	21977.63
548.00	22487.87
548.17	22419.99
548.34	22188.28
548.51	22223.39
548.67	22141.47
548.84	22284.24
549.01	22375.52
549.18	22415.31
549.34	22738.30
549.51	22253.81
549.68	22160.19
549.84	22260.84
550.01	22476.16
550.18	22010.40
550.34	22291.26
550.51	22611.92
550.68	22274.88
550.84	22059.55
551.01	22354.46
551.18	22537.02
551.34	22160.19
551.51	21956.57
551.68	22434.03
551.84	22176.58
552.01	22106.36
552.18	22382.54
552.34	22204.66
552.51	22562.76
552.68	22530.00
552.84	22595.53
553.01	22387.22
553.18	22546.38
553.34	22581.49
553.51	22359.14
553.67	22380.20
553.84	22625.96
554.01	22504.25
554.17	22515.95
554.34	22483.19
554.51	22373.18
554.67	22551.06
554.84	22602.55
555.00	22443.40
555.17	22604.89
555.33	22555.74
555.50	22485.53
555.67	22375.52
555.83	22721.92
556.00	22775.75
556.16	22745.33
556.33	22883.42
556.50	22995.76
556.66	22595.53
556.83	22700.86
556.99	22810.86
557.16	22855.33
557.32	23040.23
557.49	22757.03
557.65	22848.31
557.82	22834.27
557.98	23033.21
558.15	22640.00
558.32	22965.34
558.48	23082.36
558.65	22934.91
558.81	22965.34
558.98	22789.80
559.14	23105.77
559.31	22696.17
559.47	22963.00
559.64	22712.56
559.80	22979.38
559.97	22995.76
560.13	23028.53
560.30	23077.68
560.46	22658.73
560.63	23400.68
560.79	23309.40
560.96	23351.52
561.12	23056.62
561.29	23321.10
561.45	22918.53
561.61	23330.46
561.78	23058.96
561.94	23311.74
562.11	23372.59
562.27	23304.71
562.44	23077.68
562.60	23061.30
562.77	23054.28
562.93	23061.30
563.10	23517.70
563.26	22745.33
563.42	23246.20
563.59	22801.50
563.75	23297.69
563.92	23325.78
564.08	23297.69
564.24	23548.13
564.41	23101.09
564.57	22927.89
564.74	23236.84
564.90	22911.50
565.07	23433.44
565.23	23524.72
565.39	23185.35
565.56	23309.40
565.72	23276.63
565.88	23459.19
566.05	23229.82
566.21	22960.66
566.38	23173.64
566.54	23283.65
566.70	23379.61
566.87	23501.32
567.03	23239.18
567.19	23730.69
567.36	23506.00
567.52	23061.30
567.68	23454.51
567.85	23236.84
568.01	23147.90
568.17	23201.73
568.34	23421.74
568.50	23470.89
568.66	23463.87
568.83	23424.08
568.99	23381.95
569.15	23386.63
569.32	23709.63
569.48	23587.92
569.64	23559.83
569.81	23159.60
569.97	23433.44
570.13	23232.16
570.30	23300.03
570.46	23412.38
570.62	23335.14
570.78	23309.40
570.95	23475.57
571.11	23552.81
571.27	23342.16
571.43	23461.53
571.60	23913.25
571.76	23665.16
571.92	23625.37
572.09	23381.95
572.25	23344.50
572.41	23672.18
572.57	23793.89
572.74	23384.29
572.90	23150.24
573.06	23527.06
573.22	23590.26
573.38	23515.36
573.55	23683.88
573.71	23391.31
573.87	23749.42
574.03	23651.11
574.20	23711.97
574.36	23597.28
574.52	23623.03
574.68	23571.54
574.84	23590.26
575.01	23435.78
575.17	23468.55
575.33	23424.08
575.49	23466.21
575.65	23634.73
575.82	23454.51
575.98	23379.61
576.14	23826.65
576.30	23730.69
576.46	23318.76
576.62	23967.09
576.79	23955.38
576.95	23679.20
577.11	23782.18
577.27	23391.31
577.43	23784.52
577.59	23613.66
577.75	23786.86
577.92	23484.94
578.08	23536.43
578.24	23396.00
578.40	23819.63
578.56	23864.10
578.72	23976.45
578.88	24287.74
579.04	23920.28
579.21	24285.40
579.37	23772.82
579.53	23728.35
579.69	23960.06
579.85	23950.70
580.01	23821.97
580.17	23957.72
580.33	23515.36
580.49	24084.11
580.65	24098.16
580.82	23709.63
580.98	23843.04
581.14	23587.92
581.30	23487.28
581.46	23461.53
581.62	23332.80
581.78	23775.16
581.94	23737.71
582.10	23690.90
582.26	23782.18
582.42	23679.20
582.58	23962.40
582.74	23775.16
582.90	24044.32
583.06	23875.80
583.22	23473.23
583.38	23754.10
583.54	23688.56
583.70	23992.83
583.86	23676.86
584.02	23672.18
584.18	23997.51
584.34	23903.89
584.50	23520.04
584.66	23714.31
584.82	23330.46
584.98	23981.13
585.14	23737.71
585.30	23784.52
585.46	23793.89
585.62	23819.63
585.78	23749.42
585.94	23693.24
586.10	23763.46
586.26	24025.60
586.42	23798.57
586.58	24018.58
586.74	23922.62
586.90	23866.44
587.06	23777.50
587.22	23976.45
587.38	23796.23
587.54	23880.49
587.70	23988.15
587.86	24034.96
588.02	23967.09
588.18	24093.47
588.34	23990.49
588.49	23749.42
588.65	23616.01
588.81	23836.02
588.97	23524.72
589.13	23482.59
589.29	23847.72
589.45	23908.57
589.61	24013.90
589.77	24159.01
589.93	23782.18
590.08	23889.85
590.24	23868.78
590.40	23995.17
590.56	23903.89
590.72	23812.61
590.88	23915.59
