SpectraSuite Data File
++++++++++++++++++++++++++++++++++++
Date: Thu Oct 24 13:21:03 EDT 2013
User: stostad
Dark Spectrum Present: No
Reference Spectrum Present: No
Number of Sampled Component Spectra: 1
Spectrometers: USB2+H05261
Integration Time (usec): 100000 (USB2+H05261)
Spectra Averaged: 1 (USB2+H05261)
Boxcar Smoothing: 0 (USB2+H05261)
Correct for Electrical Dark: No (USB2+H05261)
Strobe/Lamp Enabled: No (USB2+H05261)
Correct for Detector Non-linearity: No (USB2+H05261)
Correct for Stray Light: No (USB2+H05261)
Number of Pixels in Processed Spectrum: 2048
>>>>>Begin Processed Spectral Data<<<<<
365.73	594.50
365.92	594.50
366.12	594.50
366.32	512.58
366.52	519.60
366.72	526.62
366.91	531.30
367.11	397.89
367.31	404.91
367.51	374.49
367.70	470.45
367.90	496.19
368.10	447.04
368.30	435.34
368.49	381.51
368.69	486.83
368.89	543.00
369.09	447.04
369.28	479.81
369.48	557.05
369.68	561.73
369.87	521.94
370.07	514.92
370.27	535.98
370.47	477.47
370.66	608.54
370.86	496.19
371.06	603.86
371.25	692.80
371.45	498.53
371.65	545.34
371.84	575.77
372.04	585.13
372.24	533.64
372.44	643.65
372.63	566.41
372.83	599.18
373.03	589.82
373.22	589.82
373.42	596.84
373.62	645.99
373.81	601.52
374.01	655.35
374.21	608.54
374.40	606.20
374.60	627.26
374.79	547.69
374.99	624.92
375.19	667.05
375.38	660.03
375.58	653.01
375.78	685.78
375.97	641.31
376.17	631.94
376.37	582.79
376.56	685.78
376.76	629.60
376.95	564.07
377.15	608.54
377.35	695.14
377.54	582.79
377.74	589.82
377.93	610.88
378.13	608.54
378.33	725.57
378.52	645.99
378.72	744.29
378.91	617.90
379.11	585.13
379.31	643.65
379.50	650.67
379.70	627.26
379.89	615.56
380.09	617.90
380.28	610.88
380.48	578.11
380.68	535.98
380.87	641.31
381.07	554.71
381.26	587.47
381.46	608.54
381.65	664.71
381.85	678.76
382.04	617.90
382.24	496.19
382.43	608.54
382.63	627.26
382.83	594.50
383.02	622.58
383.22	620.24
383.41	645.99
383.61	575.77
383.80	648.33
384.00	674.07
384.19	624.92
384.39	617.90
384.58	547.69
384.78	592.16
384.97	592.16
385.17	660.03
385.36	610.88
385.56	610.88
385.75	554.71
385.95	617.90
386.14	601.52
386.34	622.58
386.53	557.05
386.72	648.33
386.92	631.94
387.11	634.29
387.31	585.13
387.50	589.82
387.70	582.79
387.89	613.22
388.09	622.58
388.28	631.94
388.48	578.11
388.67	636.63
388.86	610.88
389.06	636.63
389.25	596.84
389.45	695.14
389.64	559.39
389.84	650.67
390.03	631.94
390.22	599.18
390.42	627.26
390.61	648.33
390.81	631.94
391.00	655.35
391.19	617.90
391.39	655.35
391.58	596.84
391.78	564.07
391.97	568.75
392.16	594.50
392.36	615.56
392.55	615.56
392.75	627.26
392.94	613.22
393.13	599.18
393.33	655.35
393.52	571.09
393.71	678.76
393.91	650.67
394.10	631.94
394.29	601.52
394.49	592.16
394.68	587.47
394.88	685.78
395.07	596.84
395.26	582.79
395.46	608.54
395.65	627.26
395.84	638.97
396.04	653.01
396.23	610.88
396.42	599.18
396.62	622.58
396.81	657.69
397.00	660.03
397.19	667.05
397.39	608.54
397.58	568.75
397.77	564.07
397.97	580.45
398.16	596.84
398.35	533.64
398.55	688.12
398.74	587.47
398.93	575.77
399.12	582.79
399.32	676.41
399.51	683.44
399.70	603.86
399.90	660.03
400.09	615.56
400.28	641.31
400.47	634.29
400.67	589.82
400.86	589.82
401.05	660.03
401.24	599.18
401.44	695.14
401.63	718.54
401.82	624.92
402.01	657.69
402.21	615.56
402.40	627.26
402.59	587.47
402.78	575.77
402.97	585.13
403.17	641.31
403.36	533.64
403.55	580.45
403.74	622.58
403.93	608.54
404.13	636.63
404.32	655.35
404.51	734.93
404.70	744.29
404.89	648.33
405.09	608.54
405.28	645.99
405.47	617.90
405.66	589.82
405.85	667.05
406.05	690.46
406.24	624.92
406.43	725.57
406.62	650.67
406.81	657.69
407.00	674.07
407.20	660.03
407.39	629.60
407.58	662.37
407.77	617.90
407.96	645.99
408.15	648.33
408.34	631.94
408.54	606.20
408.73	610.88
408.92	678.76
409.11	697.48
409.30	624.92
409.49	636.63
409.68	608.54
409.87	695.14
410.07	608.54
410.26	610.88
410.45	573.43
410.64	613.22
410.83	617.90
411.02	540.66
411.21	622.58
411.40	655.35
411.59	653.01
411.78	613.22
411.98	608.54
412.17	631.94
412.36	573.43
412.55	629.60
412.74	643.65
412.93	669.39
413.12	624.92
413.31	592.16
413.50	624.92
413.69	636.63
413.88	641.31
414.07	627.26
414.26	664.71
414.45	608.54
414.64	641.31
414.83	650.67
415.02	655.35
415.22	620.24
415.41	669.39
415.60	627.26
415.79	641.31
415.98	681.10
416.17	561.73
416.36	566.41
416.55	617.90
416.74	650.67
416.93	610.88
417.12	622.58
417.31	638.97
417.50	636.63
417.69	704.50
417.88	587.47
418.07	601.52
418.26	634.29
418.45	596.84
418.64	653.01
418.83	667.05
419.02	557.05
419.21	592.16
419.39	594.50
419.58	580.45
419.77	643.65
419.96	627.26
420.15	667.05
420.34	683.44
420.53	662.37
420.72	634.29
420.91	657.69
421.10	603.86
421.29	617.90
421.48	641.31
421.67	601.52
421.86	655.35
422.05	650.67
422.24	624.92
422.43	662.37
422.61	620.24
422.80	622.58
422.99	638.97
423.18	660.03
423.37	667.05
423.56	624.92
423.75	648.33
423.94	568.75
424.13	638.97
424.32	589.82
424.50	662.37
424.69	601.52
424.88	653.01
425.07	573.43
425.26	592.16
425.45	624.92
425.64	613.22
425.83	627.26
426.01	615.56
426.20	610.88
426.39	638.97
426.58	608.54
426.77	627.26
426.96	599.18
427.15	596.84
427.33	669.39
427.52	613.22
427.71	606.20
427.90	578.11
428.09	629.60
428.28	622.58
428.46	592.16
428.65	641.31
428.84	624.92
429.03	753.65
429.22	660.03
429.40	575.77
429.59	674.07
429.78	662.37
429.97	636.63
430.16	617.90
430.34	615.56
430.53	674.07
430.72	596.84
430.91	669.39
431.10	631.94
431.28	667.05
431.47	709.18
431.66	650.67
431.85	575.77
432.03	603.86
432.22	676.41
432.41	578.11
432.60	638.97
432.79	629.60
432.97	627.26
433.16	620.24
433.35	634.29
433.54	622.58
433.72	690.46
433.91	624.92
434.10	683.44
434.28	669.39
434.47	631.94
434.66	655.35
434.85	720.88
435.03	755.99
435.22	898.77
435.41	1032.18
435.59	1015.79
435.78	884.72
435.97	837.91
436.16	812.17
436.34	751.31
436.53	695.14
436.72	683.44
436.90	690.46
437.09	631.94
437.28	655.35
437.46	718.54
437.65	643.65
437.84	624.92
438.02	678.76
438.21	676.41
438.40	580.45
438.58	664.71
438.77	627.26
438.96	580.45
439.14	660.03
439.33	589.82
439.52	585.13
439.70	669.39
439.89	655.35
440.08	629.60
440.26	582.79
440.45	592.16
440.63	660.03
440.82	627.26
441.01	669.39
441.19	648.33
441.38	674.07
441.57	559.39
441.75	674.07
441.94	648.33
442.12	601.52
442.31	599.18
442.50	690.46
442.68	620.24
442.87	648.33
443.05	671.73
443.24	653.01
443.43	622.58
443.61	629.60
443.80	711.52
443.98	596.84
444.17	674.07
444.35	638.97
444.54	610.88
444.73	631.94
444.91	662.37
445.10	643.65
445.28	650.67
445.47	622.58
445.65	660.03
445.84	615.56
446.02	645.99
446.21	643.65
446.39	629.60
446.58	641.31
446.77	683.44
446.95	634.29
447.14	690.46
447.32	594.50
447.51	610.88
447.69	662.37
447.88	695.14
448.06	634.29
448.25	629.60
448.43	664.71
448.62	631.94
448.80	634.29
448.99	758.33
449.17	599.18
449.36	641.31
449.54	636.63
449.73	596.84
449.91	594.50
450.10	692.80
450.28	706.84
450.46	599.18
450.65	690.46
450.83	585.13
451.02	622.58
451.20	650.67
451.39	613.22
451.57	552.37
451.76	667.05
451.94	606.20
452.13	688.12
452.31	622.58
452.49	620.24
452.68	657.69
452.86	657.69
453.05	676.41
453.23	638.97
453.42	620.24
453.60	627.26
453.78	610.88
453.97	627.26
454.15	601.52
454.34	627.26
454.52	713.86
454.70	699.82
454.89	650.67
455.07	676.41
455.26	629.60
455.44	641.31
455.62	540.66
455.81	655.35
455.99	624.92
456.17	683.44
456.36	643.65
456.54	624.92
456.73	613.22
456.91	622.58
457.09	638.97
457.28	655.35
457.46	613.22
457.64	594.50
457.83	629.60
458.01	660.03
458.19	657.69
458.38	662.37
458.56	669.39
458.74	662.37
458.93	676.41
459.11	641.31
459.29	737.27
459.48	622.58
459.66	571.09
459.84	638.97
460.03	660.03
460.21	667.05
460.39	674.07
460.57	699.82
460.76	669.39
460.94	596.84
461.12	711.52
461.31	674.07
461.49	585.13
461.67	643.65
461.85	589.82
462.04	603.86
462.22	901.11
462.40	683.44
462.59	688.12
462.77	653.01
462.95	653.01
463.13	608.54
463.32	622.58
463.50	683.44
463.68	622.58
463.86	617.90
464.05	636.63
464.23	690.46
464.41	634.29
464.59	631.94
464.78	582.79
464.96	634.29
465.14	641.31
465.32	674.07
465.50	638.97
465.69	601.52
465.87	751.31
466.05	660.03
466.23	648.33
466.41	657.69
466.60	585.13
466.78	653.01
466.96	608.54
467.14	678.76
467.32	737.27
467.51	688.12
467.69	711.52
467.87	667.05
468.05	629.60
468.23	657.69
468.41	660.03
468.60	723.23
468.78	653.01
468.96	697.48
469.14	704.50
469.32	608.54
469.50	552.37
469.69	685.78
469.87	601.52
470.05	683.44
470.23	664.71
470.41	643.65
470.59	667.05
470.77	674.07
470.95	620.24
471.14	653.01
471.32	596.84
471.50	676.41
471.68	695.14
471.86	627.26
472.04	617.90
472.22	634.29
472.40	650.67
472.58	650.67
472.77	671.73
472.95	617.90
473.13	671.73
473.31	648.33
473.49	615.56
473.67	643.65
473.85	695.14
474.03	674.07
474.21	660.03
474.39	643.65
474.57	641.31
474.75	643.65
474.93	615.56
475.12	594.50
475.30	641.31
475.48	643.65
475.66	571.09
475.84	711.52
476.02	655.35
476.20	664.71
476.38	636.63
476.56	627.26
476.74	650.67
476.92	695.14
477.10	580.45
477.28	697.48
477.46	620.24
477.64	641.31
477.82	634.29
478.00	650.67
478.18	723.23
478.36	601.52
478.54	683.44
478.72	629.60
478.90	648.33
479.08	655.35
479.26	641.31
479.44	631.94
479.62	657.69
479.80	624.92
479.98	631.94
480.16	657.69
480.34	631.94
480.52	643.65
480.70	638.97
480.88	655.35
481.06	678.76
481.24	650.67
481.41	624.92
481.59	641.31
481.77	678.76
481.95	634.29
482.13	660.03
482.31	629.60
482.49	622.58
482.67	653.01
482.85	678.76
483.03	706.84
483.21	653.01
483.39	631.94
483.57	676.41
483.74	723.23
483.92	720.88
484.10	627.26
484.28	631.94
484.46	662.37
484.64	699.82
484.82	709.18
485.00	596.84
485.18	676.41
485.35	699.82
485.53	660.03
485.71	704.50
485.89	660.03
486.07	613.22
486.25	732.59
486.43	697.48
486.61	709.18
486.78	781.74
486.96	657.69
487.14	688.12
487.32	723.23
487.50	699.82
487.68	730.25
487.85	688.12
488.03	669.39
488.21	695.14
488.39	669.39
488.57	713.86
488.75	692.80
488.92	741.95
489.10	697.48
489.28	704.50
489.46	748.97
489.64	692.80
489.81	676.41
489.99	711.52
490.17	641.31
490.35	692.80
490.53	685.78
490.70	657.69
490.88	678.76
491.06	730.25
491.24	737.27
491.41	760.67
491.59	667.05
491.77	713.86
491.95	660.03
492.13	683.44
492.30	638.97
492.48	711.52
492.66	662.37
492.84	667.05
493.01	645.99
493.19	585.13
493.37	704.50
493.54	746.63
493.72	744.29
493.90	690.46
494.08	674.07
494.25	683.44
494.43	660.03
494.61	718.54
494.79	660.03
494.96	645.99
495.14	669.39
495.32	758.33
495.49	709.18
495.67	699.82
495.85	723.23
496.02	636.63
496.20	692.80
496.38	667.05
496.55	671.73
496.73	589.82
496.91	629.60
497.09	697.48
497.26	674.07
497.44	662.37
497.62	685.78
497.79	678.76
497.97	653.01
498.14	725.57
498.32	645.99
498.50	695.14
498.67	660.03
498.85	702.16
499.03	648.33
499.20	664.71
499.38	615.56
499.56	622.58
499.73	676.41
499.91	631.94
500.08	697.48
500.26	641.31
500.44	648.33
500.61	641.31
500.79	608.54
500.97	690.46
501.14	634.29
501.32	638.97
501.49	645.99
501.67	608.54
501.84	660.03
502.02	711.52
502.20	650.67
502.37	674.07
502.55	648.33
502.72	660.03
502.90	622.58
503.07	657.69
503.25	678.76
503.43	559.39
503.60	587.47
503.78	592.16
503.95	650.67
504.13	606.20
504.30	634.29
504.48	667.05
504.65	571.09
504.83	636.63
505.01	592.16
505.18	575.77
505.36	678.76
505.53	603.86
505.71	617.90
505.88	697.48
506.06	662.37
506.23	610.88
506.41	559.39
506.58	660.03
506.76	622.58
506.93	692.80
507.11	657.69
507.28	627.26
507.46	599.18
507.63	676.41
507.81	582.79
507.98	688.12
508.16	596.84
508.33	706.84
508.50	671.73
508.68	664.71
508.85	655.35
509.03	627.26
509.20	662.37
509.38	650.67
509.55	638.97
509.73	676.41
509.90	758.33
510.08	676.41
510.25	683.44
510.42	622.58
510.60	622.58
510.77	662.37
510.95	660.03
511.12	643.65
511.30	704.50
511.47	606.20
511.64	667.05
511.82	641.31
511.99	629.60
512.17	688.12
512.34	692.80
512.51	699.82
512.69	585.13
512.86	650.67
513.04	704.50
513.21	610.88
513.38	589.82
513.56	650.67
513.73	559.39
513.90	599.18
514.08	613.22
514.25	676.41
514.43	685.78
514.60	662.37
514.77	706.84
514.95	690.46
515.12	629.60
515.29	643.65
515.47	645.99
515.64	634.29
515.81	697.48
515.99	606.20
516.16	580.45
516.33	578.11
516.51	615.56
516.68	660.03
516.85	596.84
517.03	606.20
517.20	641.31
517.37	638.97
517.54	699.82
517.72	634.29
517.89	681.10
518.06	688.12
518.24	667.05
518.41	706.84
518.58	681.10
518.75	594.50
518.93	657.69
519.10	660.03
519.27	589.82
519.45	664.71
519.62	667.05
519.79	681.10
519.96	617.90
520.14	730.25
520.31	667.05
520.48	585.13
520.65	596.84
520.83	657.69
521.00	638.97
521.17	653.01
521.34	702.16
521.52	594.50
521.69	695.14
521.86	592.16
522.03	629.60
522.20	678.76
522.38	667.05
522.55	664.71
522.72	615.56
522.89	636.63
523.07	725.57
523.24	650.67
523.41	634.29
523.58	653.01
523.75	592.16
523.92	631.94
524.10	582.79
524.27	690.46
524.44	653.01
524.61	648.33
524.78	667.05
524.96	631.94
525.13	645.99
525.30	674.07
525.47	615.56
525.64	678.76
525.81	681.10
525.98	643.65
526.16	627.26
526.33	662.37
526.50	578.11
526.67	615.56
526.84	638.97
527.01	631.94
527.18	697.48
527.36	681.10
527.53	624.92
527.70	674.07
527.87	685.78
528.04	713.86
528.21	620.24
528.38	695.14
528.55	688.12
528.72	627.26
528.89	650.67
529.07	610.88
529.24	657.69
529.41	634.29
529.58	645.99
529.75	620.24
529.92	720.88
530.09	634.29
530.26	662.37
530.43	575.77
530.60	629.60
530.77	681.10
530.94	674.07
531.11	723.23
531.28	554.71
531.46	660.03
531.63	664.71
531.80	779.40
531.97	655.35
532.14	589.82
532.31	674.07
532.48	716.20
532.65	709.18
532.82	601.52
532.99	660.03
533.16	681.10
533.33	655.35
533.50	695.14
533.67	664.71
533.84	676.41
534.01	706.84
534.18	697.48
534.35	657.69
534.52	655.35
534.69	662.37
534.86	645.99
535.03	695.14
535.20	627.26
535.37	727.91
535.54	692.80
535.71	678.76
535.88	697.48
536.05	683.44
536.22	676.41
536.38	624.92
536.55	631.94
536.72	695.14
536.89	725.57
537.06	704.50
537.23	777.06
537.40	723.23
537.57	660.03
537.74	805.14
537.91	786.42
538.08	779.40
538.25	751.31
538.42	692.80
538.59	791.10
538.75	779.40
538.92	744.29
539.09	788.76
539.26	791.10
539.43	835.57
539.60	716.20
539.77	847.27
539.94	823.87
540.11	816.85
540.28	870.68
540.44	894.08
540.61	940.90
540.78	1011.11
540.95	1043.88
541.12	1146.86
541.29	1165.59
541.46	1200.69
541.62	1261.55
541.79	1205.38
541.96	1207.72
542.13	1214.74
542.30	1170.27
542.47	1177.29
542.63	1139.84
542.80	1118.78
542.97	1256.87
543.14	1135.16
543.31	1142.18
543.48	1135.16
543.64	1132.82
543.81	1060.26
543.98	1132.82
544.15	1135.16
544.32	1069.62
544.48	1217.08
544.65	1177.29
544.82	1076.65
544.99	1142.18
545.16	1167.93
545.32	1231.12
545.49	1500.28
545.66	1797.53
545.83	1975.41
546.00	1842.00
546.16	1490.92
546.33	1336.45
546.50	1238.14
546.67	1097.71
546.83	1046.22
547.00	978.34
547.17	976.00
547.34	908.13
547.50	1013.45
547.67	870.68
547.84	894.08
548.00	863.66
548.17	926.85
548.34	898.77
548.51	908.13
548.67	826.21
548.84	877.70
549.01	816.85
549.18	821.53
549.34	807.48
549.51	821.53
549.68	870.68
549.84	819.19
550.01	828.55
550.18	849.61
550.34	919.83
550.51	777.06
550.68	730.25
550.84	826.21
551.01	713.86
551.18	725.57
551.34	786.42
551.51	767.70
551.68	777.06
551.84	730.25
552.01	685.78
552.18	718.54
552.34	744.29
552.51	697.48
552.68	805.14
552.84	716.20
553.01	739.61
553.18	802.80
553.34	720.88
553.51	678.76
553.67	676.41
553.84	702.16
554.01	702.16
554.17	713.86
554.34	739.61
554.51	676.41
554.67	760.67
554.84	692.80
555.00	688.12
555.17	718.54
555.33	645.99
555.50	657.69
555.67	671.73
555.83	641.31
556.00	671.73
556.16	784.08
556.33	690.46
556.50	681.10
556.66	690.46
556.83	657.69
556.99	601.52
557.16	744.29
557.32	620.24
557.49	690.46
557.65	571.09
557.82	653.01
557.98	697.48
558.15	669.39
558.32	671.73
558.48	634.29
558.65	690.46
558.81	627.26
558.98	662.37
559.14	669.39
559.31	641.31
559.47	610.88
559.64	615.56
559.80	664.71
559.97	660.03
560.13	657.69
560.30	699.82
560.46	631.94
560.63	638.97
560.79	730.25
560.96	667.05
561.12	627.26
561.29	660.03
561.45	645.99
561.61	683.44
561.78	688.12
561.94	737.27
562.11	622.58
562.27	650.67
562.44	704.50
562.60	631.94
562.77	643.65
562.93	688.12
563.10	603.86
563.26	650.67
563.42	634.29
563.59	603.86
563.75	601.52
563.92	683.44
564.08	678.76
564.24	657.69
564.41	648.33
564.57	650.67
564.74	683.44
564.90	695.14
565.07	683.44
565.23	615.56
565.39	660.03
565.56	662.37
565.72	606.20
565.88	638.97
566.05	720.88
566.21	678.76
566.38	660.03
566.54	610.88
566.70	620.24
566.87	641.31
567.03	561.73
567.19	636.63
567.36	669.39
567.52	557.05
567.68	671.73
567.85	702.16
568.01	641.31
568.17	643.65
568.34	645.99
568.50	648.33
568.66	624.92
568.83	692.80
568.99	662.37
569.15	664.71
569.32	685.78
569.48	608.54
569.64	620.24
569.81	683.44
569.97	608.54
570.13	547.69
570.30	622.58
570.46	699.82
570.62	645.99
570.78	678.76
570.95	657.69
571.11	685.78
571.27	683.44
571.43	669.39
571.60	695.14
571.76	629.60
571.92	657.69
572.09	671.73
572.25	671.73
572.41	678.76
572.57	608.54
572.74	713.86
572.90	674.07
573.06	620.24
573.22	643.65
573.38	704.50
573.55	699.82
573.71	629.60
573.87	671.73
574.03	688.12
574.20	606.20
574.36	676.41
574.52	692.80
574.68	617.90
574.84	674.07
575.01	660.03
575.17	720.88
575.33	711.52
575.49	648.33
575.65	671.73
575.82	730.25
575.98	662.37
576.14	664.71
576.30	755.99
576.46	842.59
576.62	880.04
576.79	887.06
576.95	880.04
577.11	737.27
577.27	739.61
577.43	730.25
577.59	791.10
577.75	683.44
577.92	690.46
578.08	603.86
578.24	704.50
578.40	727.91
578.56	791.10
578.72	854.30
578.88	924.51
579.04	873.02
579.21	746.63
579.37	791.10
579.53	744.29
579.69	765.36
579.85	676.41
580.01	795.78
580.17	765.36
580.33	760.67
580.49	746.63
580.65	723.23
580.82	690.46
580.98	718.54
581.14	737.27
581.30	807.48
581.46	774.72
581.62	720.88
581.78	751.31
581.94	695.14
582.10	739.61
582.26	734.93
582.42	643.65
582.58	709.18
582.74	723.23
582.90	720.88
583.06	805.14
583.22	699.82
583.38	800.46
583.54	821.53
583.70	793.44
583.86	826.21
584.02	795.78
584.18	746.63
584.34	774.72
584.50	772.38
584.66	781.74
584.82	774.72
584.98	732.59
585.14	746.63
585.30	774.72
585.46	753.65
585.62	711.52
585.78	835.57
585.94	730.25
586.10	786.42
586.26	718.54
586.42	777.06
586.58	809.83
586.74	770.04
586.90	854.30
587.06	833.23
587.22	826.21
587.38	770.04
587.54	805.14
587.70	828.55
587.86	791.10
588.02	755.99
588.18	791.10
588.34	676.41
588.49	758.33
588.65	781.74
588.81	760.67
588.97	765.36
589.13	690.46
589.29	730.25
589.45	727.91
589.61	699.82
589.77	739.61
589.93	718.54
590.08	669.39
590.24	720.88
590.40	695.14
590.56	730.25
590.72	667.05
590.88	629.60
591.04	655.35
591.20	746.63
591.35	699.82
591.51	709.18
591.67	692.80
591.83	706.84
591.99	720.88
592.15	695.14
592.31	770.04
592.46	777.06
592.62	758.33
592.78	779.40
592.94	739.61
593.10	798.12
593.26	788.76
593.41	741.95
593.57	758.33
593.73	791.10
593.89	823.87
594.05	704.50
594.20	727.91
594.36	746.63
594.52	674.07
594.68	688.12
594.84	688.12
594.99	763.01
595.15	704.50
595.31	688.12
595.47	688.12
595.62	688.12
595.78	653.01
595.94	634.29
596.10	667.05
596.25	629.60
596.41	624.92
596.57	669.39
596.73	676.41
596.88	744.29
597.04	685.78
597.20	624.92
597.36	627.26
597.51	697.48
597.67	648.33
597.83	713.86
597.99	667.05
598.14	685.78
598.30	667.05
598.46	774.72
598.61	732.59
598.77	697.48
598.93	753.65
599.09	765.36
599.24	690.46
599.40	760.67
599.56	823.87
599.71	702.16
599.87	741.95
600.03	690.46
600.18	699.82
600.34	674.07
600.50	695.14
600.65	741.95
600.81	718.54
600.97	627.26
601.12	734.93
601.28	671.73
601.44	648.33
601.59	650.67
601.75	662.37
601.91	638.97
602.06	718.54
602.22	683.44
602.37	734.93
602.53	704.50
602.69	690.46
602.84	622.58
603.00	622.58
603.16	685.78
603.31	748.97
603.47	643.65
603.62	688.12
603.78	627.26
603.94	655.35
604.09	732.59
604.25	692.80
604.40	706.84
604.56	610.88
604.71	664.71
604.87	667.05
605.03	603.86
605.18	692.80
605.34	713.86
605.49	739.61
605.65	622.58
605.80	627.26
605.96	727.91
606.12	606.20
606.27	786.42
606.43	594.50
606.58	690.46
606.74	716.20
606.89	664.71
607.05	741.95
607.20	753.65
607.36	669.39
607.51	753.65
607.67	697.48
607.82	702.16
607.98	784.08
608.13	753.65
608.29	741.95
608.44	753.65
608.60	748.97
608.75	748.97
608.91	821.53
609.06	847.27
609.22	828.55
609.37	877.70
609.53	870.68
609.68	896.43
609.84	908.13
