SpectraSuite Data File
++++++++++++++++++++++++++++++++++++
Date: Thu Oct 24 13:21:29 EDT 2013
User: stostad
Dark Spectrum Present: No
Reference Spectrum Present: No
Number of Sampled Component Spectra: 1
Spectrometers: USB2+H05261
Integration Time (usec): 100000 (USB2+H05261)
Spectra Averaged: 1 (USB2+H05261)
Boxcar Smoothing: 0 (USB2+H05261)
Correct for Electrical Dark: No (USB2+H05261)
Strobe/Lamp Enabled: No (USB2+H05261)
Correct for Detector Non-linearity: No (USB2+H05261)
Correct for Stray Light: No (USB2+H05261)
Number of Pixels in Processed Spectrum: 2048
>>>>>Begin Processed Spectral Data<<<<<
365.73	514.92
365.92	514.92
366.12	514.92
366.32	475.13
366.52	514.92
366.72	479.81
366.91	524.28
367.11	430.66
367.31	482.15
367.51	491.51
367.70	503.22
367.90	425.98
368.10	404.91
368.30	463.43
368.49	498.53
368.69	479.81
368.89	451.72
369.09	447.04
369.28	425.98
369.48	505.56
369.68	514.92
369.87	479.81
370.07	512.58
370.27	533.64
370.47	676.41
370.66	952.60
370.86	1041.54
371.06	997.07
371.25	1071.97
371.45	999.41
371.65	1123.46
371.84	1055.58
372.04	1130.48
372.24	1151.54
372.44	1004.09
372.63	1235.80
372.83	1167.93
373.03	1196.01
373.22	1064.94
373.42	1214.74
373.62	1158.57
373.81	1242.82
374.01	1348.15
374.21	1205.38
374.40	1210.06
374.60	1205.38
374.79	1324.74
374.99	1247.51
375.19	1252.19
375.38	1270.91
375.58	1327.08
375.78	1261.55
375.97	1256.87
376.17	1324.74
376.37	1240.48
376.56	1287.29
376.76	1277.93
376.95	1301.34
377.15	1261.55
377.35	1338.79
377.54	1378.58
377.74	1397.30
377.93	1362.19
378.13	1324.74
378.33	1345.81
378.52	1430.07
378.72	1394.96
378.91	1493.26
379.11	1481.56
379.31	1483.90
379.50	1425.39
379.70	1439.43
379.89	1453.47
380.09	1481.56
380.28	1451.13
380.48	1458.15
380.68	1420.71
380.87	1469.86
381.07	1483.90
381.26	1493.26
381.46	1526.03
381.65	1446.45
381.85	1493.26
382.04	1434.75
382.24	1439.43
382.43	1540.07
382.63	1526.03
382.83	1572.84
383.02	1521.35
383.22	1579.86
383.41	1563.48
383.61	1607.95
383.80	1575.18
384.00	1607.95
384.19	1540.07
384.39	1710.93
384.58	1589.22
384.78	1565.82
384.97	1666.46
385.17	1685.19
385.36	1680.50
385.56	1645.40
385.75	1687.53
385.95	1661.78
386.14	1727.32
386.34	1703.91
386.53	1769.44
386.72	1834.98
386.92	1762.42
387.11	1748.38
387.31	1748.38
387.50	1809.23
387.70	1792.85
387.89	1746.04
388.09	1818.60
388.28	1832.64
388.48	1806.89
388.67	1776.47
388.86	1926.26
389.06	1820.94
389.25	1858.39
389.45	1898.17
389.64	1809.23
389.84	1989.46
390.03	1895.83
390.22	1886.47
390.42	1905.20
390.61	1891.15
390.81	1930.94
391.00	1956.69
391.19	2022.22
391.39	1996.48
391.58	2036.27
391.78	2024.56
391.97	1980.09
392.16	2080.74
392.36	2054.99
392.55	2076.06
392.75	2097.12
392.94	2083.08
393.13	2104.14
393.33	2143.93
393.52	2172.02
393.71	2146.27
393.91	2204.78
394.10	2181.38
394.29	2174.36
394.49	2237.55
394.68	2265.64
394.88	2246.91
395.07	2380.32
395.26	2225.85
395.46	2237.55
395.65	2380.32
395.84	2319.47
396.04	2387.35
396.23	2319.47
396.42	2363.94
396.62	2298.41
396.81	2399.05
397.00	2340.54
397.19	2452.88
397.39	2340.54
397.58	2399.05
397.77	2382.67
397.97	2441.18
398.16	2473.95
398.35	2614.38
398.55	2539.48
398.74	2537.14
398.93	2609.70
399.12	2560.55
399.32	2544.16
399.51	2597.99
399.70	2787.58
399.90	2663.53
400.09	2684.59
400.28	2733.75
400.47	2789.92
400.67	2822.69
400.86	2719.70
401.05	2675.23
401.24	2796.94
401.44	2752.47
401.63	2836.73
401.82	2782.90
402.01	2747.79
402.21	2801.62
402.40	2888.22
402.59	2942.05
402.78	2923.33
402.97	2904.60
403.17	3026.31
403.36	3014.61
403.55	2958.44
403.74	2918.65
403.93	3124.62
404.13	3126.96
404.32	3098.87
404.51	3068.44
404.70	3192.49
404.89	3225.26
405.09	3246.32
405.28	3204.19
405.47	3276.75
405.66	3124.62
405.85	3300.16
406.05	3234.62
406.24	3236.96
406.43	3281.43
406.62	3293.13
406.81	3475.70
407.00	3262.71
407.20	3403.14
407.39	3344.63
407.58	3531.87
407.77	3414.84
407.96	3461.65
408.15	3442.93
408.34	3466.33
408.54	3515.48
408.73	3463.99
408.92	3520.17
409.11	3611.45
409.30	3482.72
409.49	3658.26
409.68	3676.98
409.87	3770.60
410.07	3719.11
410.26	3854.86
410.45	3831.46
410.64	3845.50
410.83	3852.52
411.02	3936.78
411.21	4042.11
411.40	3978.91
411.59	4032.74
411.78	3997.64
411.98	4046.79
412.17	4060.83
412.36	4016.36
412.55	4170.83
412.74	4105.30
412.93	4142.75
413.12	4180.20
413.31	4348.72
413.50	4390.84
413.69	4325.31
413.88	4432.97
414.07	4500.85
414.26	4447.02
414.45	4669.37
414.64	4568.73
414.83	4615.54
415.02	4601.49
415.22	4678.73
415.41	4660.01
415.60	4816.82
415.79	4807.46
415.98	4798.10
416.17	5006.41
416.36	4777.03
416.55	4844.91
416.74	4957.25
416.93	4910.44
417.12	5008.75
417.31	5076.62
417.50	4971.30
417.69	5118.75
417.88	5055.56
418.07	5195.99
418.26	5270.89
418.45	5263.86
418.64	5427.70
418.83	5359.83
419.02	5263.86
419.21	5474.51
419.39	5488.56
419.58	5256.84
419.77	5338.76
419.96	5633.67
420.15	5572.82
420.34	5472.17
420.53	5628.99
420.72	5692.18
420.91	5762.40
421.10	5720.27
421.29	5678.14
421.48	5603.24
421.67	5790.49
421.86	5715.59
422.05	5687.50
422.24	5804.53
422.43	5809.21
422.61	5830.27
422.80	6045.60
422.99	5905.17
423.18	5839.64
423.37	6045.60
423.56	6073.69
423.75	5823.25
423.94	5874.74
424.13	5528.35
424.32	5713.25
424.50	5980.07
424.69	6036.24
424.88	6108.80
425.07	6061.99
425.26	5954.32
425.45	5998.79
425.64	5926.24
425.83	6052.63
426.01	5912.19
426.20	6150.93
426.39	6202.42
426.58	5989.43
426.77	6033.90
426.96	6235.19
427.15	6026.88
427.33	6160.29
427.52	6195.40
427.71	6277.32
427.90	6195.40
428.09	6452.86
428.28	6345.19
428.46	6455.20
428.65	6490.31
428.84	6459.88
429.03	6450.52
429.22	6431.79
429.40	6623.72
429.59	6429.45
429.78	6382.64
429.97	6389.66
430.16	6539.46
430.34	6733.72
430.53	6885.86
430.72	6729.04
430.91	6799.26
431.10	6548.82
431.28	6740.74
431.47	7110.55
431.66	6986.50
431.85	6815.64
432.03	7019.27
432.22	7068.42
432.41	7040.33
432.60	6981.82
432.79	6979.48
432.97	7222.89
433.16	7157.36
433.35	7112.89
433.54	7213.53
433.72	7414.82
433.91	7204.17
434.10	7339.92
434.28	7398.43
434.47	7253.32
434.66	7435.88
434.85	7604.40
435.03	7489.71
435.22	7641.85
435.41	7899.31
435.59	7702.70
435.78	7761.22
435.97	7611.42
436.16	7627.81
436.34	7700.36
436.53	7545.89
436.72	7805.69
436.90	7698.02
437.09	7829.09
437.28	7447.58
437.46	7836.11
437.65	7920.37
437.84	7946.12
438.02	8056.12
438.21	8173.15
438.40	7660.57
438.58	8180.17
438.77	8152.09
438.96	8100.59
439.14	8344.01
439.33	8463.38
439.52	8496.14
439.70	8482.10
439.89	8559.34
440.08	8617.85
440.26	8542.96
440.45	8549.98
440.63	8844.88
440.82	8943.19
441.01	8854.25
441.19	8912.76
441.38	9015.74
441.57	9069.58
441.75	9128.09
441.94	9336.40
442.12	9348.10
442.31	9352.78
442.50	9500.23
442.68	9231.07
442.87	9467.47
443.05	9589.17
443.24	9598.54
443.43	9610.24
443.61	9607.90
443.80	9856.00
443.98	9521.30
444.17	9231.07
444.35	9563.43
444.54	9930.89
444.73	9715.56
444.91	9610.24
445.10	9750.67
445.28	9909.83
445.47	9628.96
445.65	9788.12
445.84	9893.44
446.02	9823.23
446.21	9783.44
446.39	9755.35
446.58	9951.96
446.77	9968.34
446.95	9771.74
447.14	9834.93
447.32	10005.79
447.51	9832.59
447.69	10043.24
447.88	10050.26
448.06	9954.30
448.25	10167.29
448.43	9912.17
448.62	10031.54
448.80	10029.20
448.99	9989.41
449.17	10354.53
449.36	10019.83
449.54	10284.31
449.73	10394.32
449.91	10661.14
450.10	10478.58
450.28	10417.72
450.46	10452.83
450.65	10532.41
450.83	10745.40
451.02	10509.01
451.20	10916.26
451.39	10658.80
451.57	10824.98
451.76	10675.18
451.94	10906.90
452.13	11009.88
452.31	10855.40
452.49	10942.00
452.68	10782.85
452.86	11066.05
453.05	10993.50
453.23	11164.36
453.42	10874.13
453.60	10759.44
453.78	11243.93
453.97	10979.45
454.15	11009.88
454.34	10843.70
454.52	11360.96
454.70	11286.06
454.89	11215.85
455.07	11424.15
455.26	11515.44
455.44	11894.60
455.62	11653.53
455.81	11485.01
455.99	11749.49
456.17	11796.30
456.36	11613.74
456.54	11826.73
456.73	12053.76
456.91	12086.53
457.09	12028.01
457.28	12348.67
457.46	11864.18
457.64	12329.94
457.83	12208.23
458.01	12060.78
458.19	12624.85
458.38	12285.47
458.56	12489.10
458.74	12510.16
458.93	12332.28
459.11	12496.12
459.29	12620.17
459.48	12650.60
459.66	12329.94
459.84	12650.60
460.03	13081.25
460.21	12774.64
460.39	12695.07
460.57	12858.90
460.76	12915.08
460.94	12959.55
461.12	13156.15
461.31	13153.81
461.49	13174.88
461.67	13114.02
461.85	13270.84
462.04	13036.78
462.22	13497.87
462.40	13851.29
462.59	13490.85
462.77	13226.37
462.95	13458.08
463.13	13254.45
463.32	13432.33
463.50	13664.05
463.68	13451.06
463.86	13762.35
464.05	13561.06
464.23	13621.92
464.41	13745.97
464.59	13584.47
464.78	14017.47
464.96	13657.03
465.14	13710.86
465.32	13928.53
465.50	14153.22
465.69	14185.99
465.87	14244.50
466.05	13984.70
466.23	14054.92
466.41	14188.33
466.60	14270.25
466.78	14272.59
466.96	14090.02
467.14	14075.98
467.32	14232.80
467.51	14684.52
467.69	14064.28
467.87	14628.35
468.05	15005.17
468.23	14478.55
468.41	14349.82
468.60	14771.12
468.78	14700.90
468.96	14843.68
469.14	15002.83
469.32	15009.86
469.50	14518.34
469.69	14946.66
469.87	15213.48
470.05	15075.39
470.23	15208.80
470.41	15349.23
470.59	15382.00
470.77	15192.42
470.95	15353.91
471.14	16023.31
471.32	15241.57
471.50	15882.88
471.68	15810.32
471.86	15920.32
472.04	15763.51
472.22	15953.09
472.40	15957.77
472.58	16194.17
472.77	16170.76
472.95	16313.53
473.13	16842.50
473.31	16329.92
473.49	16491.41
473.67	16203.53
473.85	16620.14
474.03	16713.77
474.21	16800.37
474.39	16975.91
474.57	17020.38
474.75	17043.78
474.93	17266.13
475.12	17570.40
475.30	17605.51
475.48	17518.91
475.66	17600.83
475.84	17441.67
476.02	17965.95
476.20	17692.11
476.38	17996.38
476.56	18803.86
476.74	18405.97
476.92	18611.94
477.10	18361.50
477.28	18801.52
477.46	18948.98
477.64	18691.52
477.82	19403.04
478.00	19634.75
478.18	19618.37
478.36	19742.42
478.54	19609.01
478.72	19798.59
478.90	20233.93
479.08	20365.00
479.26	20535.86
479.44	20638.84
479.62	21081.21
479.80	20774.60
479.98	21008.65
480.16	21570.38
480.34	21413.56
480.52	21415.90
480.70	21532.93
480.88	21228.66
481.06	21607.83
481.24	21893.37
481.41	22260.84
481.59	22621.28
481.77	22609.58
481.95	22824.90
482.13	22822.56
482.31	22824.90
482.49	23573.88
482.67	23337.48
482.85	23513.02
483.03	23608.98
483.21	24301.78
483.39	24484.34
483.57	24341.57
483.74	24638.82
483.92	24608.39
484.10	24788.61
484.28	25142.03
484.46	25649.93
484.64	25816.11
484.82	25383.11
485.00	25685.04
485.18	26099.31
485.35	26373.16
485.53	26417.63
485.71	26665.72
485.89	26838.92
486.07	27218.09
486.25	27178.30
486.43	27452.14
486.61	27520.02
486.78	28243.24
486.96	28128.56
487.14	28512.41
487.32	28655.18
487.50	28711.35
487.68	28863.49
487.85	29699.06
488.03	29720.12
488.21	29834.81
488.39	29699.06
488.57	29921.41
488.75	30307.60
488.92	30569.74
489.10	31077.63
489.28	30415.26
489.46	31557.44
489.64	31049.55
489.81	31878.10
489.99	31859.37
490.17	31945.97
490.35	32493.66
490.53	32718.35
490.70	32748.78
490.88	32472.59
491.06	33095.18
491.24	32811.97
491.41	33582.01
491.59	33783.29
491.77	33851.17
491.95	34328.64
492.13	34183.52
492.30	34569.71
492.48	34623.54
492.66	34923.13
492.84	34983.99
493.01	35468.48
493.19	35503.59
493.37	35454.44
493.54	35433.37
493.72	35934.24
493.90	36135.53
494.08	36533.42
494.25	36924.29
494.43	37022.59
494.61	37109.19
494.79	37205.16
494.96	36912.59
495.14	37443.89
495.32	38178.82
495.49	37998.60
495.67	38148.39
495.85	38309.89
496.02	38555.64
496.20	39220.36
496.38	39105.67
496.55	39257.81
496.73	40142.53
496.91	39658.04
497.09	39721.23
497.26	39983.37
497.44	40250.19
497.62	40135.51
497.79	40722.98
497.97	40439.78
498.14	41525.78
498.32	40889.16
498.50	41401.74
498.67	41923.68
498.85	41488.34
499.03	41993.89
499.20	41937.72
499.38	41844.10
499.56	42485.40
499.73	42642.22
499.91	42614.13
500.08	43065.86
500.26	42773.29
500.44	43220.33
500.61	43154.80
500.79	43456.73
500.97	43363.11
501.14	44037.18
501.32	43875.68
501.49	43962.28
501.67	43957.60
501.84	44353.15
502.02	44282.94
502.20	44535.71
502.37	44481.88
502.55	44776.79
502.72	44882.11
502.90	45104.46
503.07	44992.12
503.25	45088.08
503.43	45471.93
503.60	45872.16
503.78	45647.47
503.95	45722.37
504.13	46059.40
504.30	46431.55
504.48	46073.45
504.65	46569.64
504.83	46550.91
505.01	46880.93
505.18	46590.70
505.36	46976.89
505.53	46806.03
505.71	47430.96
505.88	47491.81
506.06	47065.83
506.23	47487.13
506.41	47351.38
506.58	47576.07
506.76	47409.89
506.93	48325.04
507.11	47988.00
507.28	48257.17
507.46	48231.42
507.63	48514.62
507.81	48671.44
507.98	47971.62
508.16	48383.55
508.33	48676.12
508.50	48872.73
508.68	49191.04
508.85	49794.90
509.03	49354.88
509.20	49511.69
509.38	49752.77
509.55	49673.19
509.73	49818.30
509.90	50234.92
510.08	50047.68
510.25	49972.78
510.42	50047.68
510.60	50365.99
510.77	50445.57
510.95	50808.35
511.12	50475.99
511.30	50997.93
511.47	51290.50
511.64	51112.62
511.82	51419.23
511.99	51068.15
512.17	51068.15
512.34	51332.63
512.51	51833.50
512.69	51482.42
512.86	51767.97
513.04	52142.45
513.21	52034.79
513.38	51828.82
513.56	51753.93
513.73	51782.01
513.90	52430.34
514.08	52428.00
514.25	52746.31
514.43	52680.78
514.60	52921.85
514.77	52498.22
514.95	52919.51
515.12	52673.76
515.29	52755.68
515.47	52985.05
515.64	53420.39
515.81	52945.26
515.99	53270.59
516.16	53478.90
516.33	53256.55
516.51	53523.37
516.68	53420.39
516.85	53567.84
517.03	53689.55
517.20	53600.61
517.37	53783.17
517.54	53619.33
517.72	53888.49
517.89	54157.66
518.06	54026.59
518.24	54021.90
518.41	54244.26
518.58	54024.25
518.75	54148.29
518.93	54251.28
519.10	54145.95
519.27	54450.22
519.45	54532.14
519.62	54649.17
519.79	54705.34
519.96	54857.48
520.14	54906.63
520.31	54546.18
520.48	54986.21
520.65	54850.45
520.83	55267.07
521.00	55360.69
521.17	55117.28
521.34	55248.35
521.52	55402.82
521.69	55299.84
521.86	55337.29
522.03	55620.49
522.20	55730.50
522.38	55824.12
522.55	56112.00
522.72	55826.46
522.89	55917.74
523.07	56154.13
523.24	55835.82
523.41	56039.45
523.58	56011.36
523.75	56151.79
523.92	56179.88
524.10	56463.08
524.27	56411.59
524.44	56292.22
524.61	56479.47
524.78	56516.92
524.96	56488.83
525.13	56554.36
525.30	56921.83
525.47	56921.83
525.64	56587.13
525.81	56760.33
525.98	56956.94
526.16	56636.28
526.33	56795.44
526.50	57190.99
526.67	57055.24
526.84	57022.47
527.01	56968.64
527.18	57289.29
527.36	57308.02
527.53	57312.70
527.70	57687.18
527.87	57710.59
528.04	57504.62
528.21	57626.33
528.38	57593.56
528.55	57759.74
528.72	57418.02
528.89	57635.69
529.07	57535.05
529.24	57359.51
529.41	57717.61
529.58	57874.43
529.75	57771.44
529.92	58120.18
530.09	57965.71
530.26	58019.54
530.43	58040.60
530.60	57907.19
530.77	57755.06
530.94	58244.23
531.11	58323.81
531.28	58429.13
531.46	58209.12
531.63	58312.11
531.80	58349.56
531.97	58438.50
532.14	58344.87
532.31	58578.93
532.48	58721.70
532.65	58838.73
532.82	58623.40
532.99	58674.89
533.16	58805.96
533.33	58555.52
533.50	58677.23
533.67	58922.99
533.84	58763.83
534.01	58810.64
534.18	59126.61
534.35	59292.79
534.52	59161.72
534.69	59121.93
534.86	59096.19
535.03	58717.02
535.20	59320.88
535.37	59248.32
535.54	59503.44
535.71	59166.40
535.88	59430.88
536.05	59473.01
536.22	59353.65
536.38	59487.06
536.55	59409.82
536.72	59426.20
536.89	59578.34
537.06	59519.82
537.23	59477.69
537.40	59898.99
537.57	59723.45
537.74	59622.81
537.91	59697.70
538.08	59856.86
538.25	59751.54
538.42	59966.87
538.59	60062.83
538.75	59835.80
538.92	59994.95
539.09	59931.76
539.26	59796.01
539.43	59812.39
539.60	59945.80
539.77	60306.24
539.94	60303.90
540.11	60423.27
540.28	60371.78
540.44	60418.59
540.61	60210.28
540.78	60165.81
540.95	60189.22
541.12	60198.58
541.29	60233.69
541.46	60493.49
541.62	60552.00
541.79	60743.92
541.96	60247.73
542.13	60654.98
542.30	60587.11
542.47	60669.03
542.63	60617.53
542.80	60612.85
542.97	61022.45
543.14	61263.52
543.31	61153.52
543.48	61073.94
543.64	61151.18
543.81	61083.30
543.98	61092.66
544.15	61249.48
544.32	61183.94
544.48	61422.68
544.65	61333.74
544.82	61516.30
544.99	61169.90
545.16	61389.91
545.32	61347.78
545.49	61450.77
545.66	61586.52
545.83	61600.56
546.00	61862.70
546.16	61535.02
546.33	61588.86
546.50	61279.91
546.67	61609.92
546.83	61212.03
547.00	61490.55
547.17	61291.61
547.34	61446.08
547.50	61687.16
547.67	61855.68
547.84	61729.29
548.00	61935.26
548.17	61972.70
548.34	61806.53
548.51	61989.09
548.67	61862.70
548.84	61794.82
549.01	62007.81
549.18	62017.17
549.34	62054.62
549.51	62096.75
549.68	62171.65
549.84	62138.88
550.01	61918.87
550.18	61890.79
550.34	61968.02
550.51	62188.03
550.68	62162.29
550.84	61986.75
551.01	62258.25
551.18	62124.84
551.34	62007.81
551.51	62054.62
551.68	62480.60
551.84	62138.88
552.01	62068.67
552.18	62211.44
552.34	62092.07
552.51	62436.13
552.68	62213.78
552.84	62494.64
553.01	62614.01
553.18	62609.33
553.34	62482.94
553.51	62335.49
553.67	62403.36
553.84	62543.80
554.01	62782.53
554.17	62777.85
554.34	62684.23
554.51	62695.93
554.67	62660.82
554.84	62726.36
555.00	62429.11
555.17	62230.16
555.33	62688.91
555.50	62646.78
555.67	62595.29
555.83	62726.36
556.00	62960.41
556.16	62862.11
556.33	62857.43
556.50	62817.64
556.66	63154.68
556.83	62892.54
556.99	63035.31
557.16	63135.95
557.32	63142.97
557.49	63154.68
557.65	63018.92
557.82	62880.83
557.98	63098.50
558.15	63147.65
558.32	62925.30
558.48	63175.74
558.65	63285.75
558.81	63311.49
558.98	63194.46
559.14	63161.70
559.31	63491.71
559.47	63107.86
559.64	63299.79
559.80	63051.69
559.97	63241.28
560.13	63168.72
560.30	63323.19
560.46	63531.50
560.63	63437.88
560.79	63501.07
560.96	63587.67
561.12	63339.58
561.29	63316.17
561.45	63269.36
561.61	63304.47
561.78	63472.99
561.94	63437.88
562.11	63468.31
562.27	63608.74
562.44	63566.61
562.60	63718.74
562.77	63554.91
562.93	63400.43
563.10	63632.14
563.26	63407.45
563.42	63927.05
563.59	63613.42
563.75	63711.72
563.92	63582.99
564.08	63716.40
564.24	63632.14
564.41	63639.17
564.57	63739.81
564.74	63620.44
564.90	63739.81
565.07	63730.45
565.23	63908.33
565.39	63810.03
565.56	63910.67
565.72	64027.70
565.88	63777.26
566.05	63882.58
566.21	63744.49
566.38	63784.28
566.54	63749.17
566.70	63992.59
566.87	64008.97
567.03	63767.90
567.19	64147.06
567.36	64093.23
567.52	63814.71
567.68	63971.52
567.85	63980.88
568.01	63973.86
568.17	63927.05
568.34	63929.39
568.50	63880.24
568.66	64055.78
568.83	64114.29
568.99	64060.46
569.15	63943.44
569.32	63910.67
569.48	63931.73
569.64	64093.23
569.81	63934.07
569.97	63828.75
570.13	63936.41
570.30	64011.31
570.46	64161.11
570.62	63929.39
570.78	63987.91
570.95	63955.14
571.11	64156.42
571.27	63894.28
571.43	63948.12
571.60	64193.87
571.76	64006.63
571.92	64046.42
572.09	64292.18
572.25	64317.92
572.41	64161.11
572.57	64210.26
572.74	64331.96
572.90	64081.53
573.06	64114.29
573.22	64240.68
573.38	64207.92
573.55	64338.99
573.71	64542.61
573.87	64301.54
574.03	64140.04
574.20	64252.39
574.36	64383.46
574.52	64357.71
574.68	64200.89
574.84	64383.46
575.01	64341.33
575.17	64427.93
575.33	64238.34
575.49	64219.62
575.65	64542.61
575.82	64561.34
575.98	64317.92
576.14	64411.54
576.30	64575.38
576.46	64186.85
576.62	64126.00
576.79	64446.65
576.95	64210.26
577.11	64310.90
577.27	64608.15
577.43	64589.42
577.59	64296.86
577.75	64369.41
577.92	64362.39
578.08	64402.18
578.24	64409.20
578.40	64495.80
578.56	64334.31
578.72	64392.82
578.88	64636.23
579.04	64594.10
579.21	64544.95
579.37	64601.13
579.53	64647.94
579.69	64441.97
579.85	64451.33
580.01	64491.12
580.17	64519.21
580.33	64437.29
580.49	64425.59
580.65	64591.76
580.82	64570.70
580.98	64652.62
581.14	64584.74
581.30	64659.64
581.46	64465.38
581.62	64596.45
581.78	64346.01
581.94	64601.13
582.10	64292.18
582.26	64589.42
582.42	64446.65
582.58	64601.13
582.74	64687.73
582.90	64615.17
583.06	64718.15
583.22	64364.73
583.38	64388.14
583.54	64514.53
583.70	64336.65
583.86	64638.57
584.02	64598.79
584.18	64654.96
584.34	64619.85
584.50	64811.77
584.66	64549.63
584.82	64561.34
584.98	64498.14
585.14	64601.13
585.30	64484.10
585.46	64584.74
585.62	64519.21
585.78	64722.83
585.94	64814.12
586.10	64821.14
586.26	64664.32
586.42	64893.69
586.58	64811.77
586.74	64502.82
586.90	64526.23
587.06	64741.56
587.22	64788.37
587.38	64540.27
587.54	64921.78
