SpectraSuite Data File
++++++++++++++++++++++++++++++++++++
Date: Thu Oct 24 13:21:20 EDT 2013
User: stostad
Dark Spectrum Present: No
Reference Spectrum Present: No
Number of Sampled Component Spectra: 1
Spectrometers: USB2+H05261
Integration Time (usec): 100000 (USB2+H05261)
Spectra Averaged: 1 (USB2+H05261)
Boxcar Smoothing: 0 (USB2+H05261)
Correct for Electrical Dark: No (USB2+H05261)
Strobe/Lamp Enabled: No (USB2+H05261)
Correct for Detector Non-linearity: No (USB2+H05261)
Correct for Stray Light: No (USB2+H05261)
Number of Pixels in Processed Spectrum: 2048
>>>>>Begin Processed Spectral Data<<<<<
365.73	578.11
365.92	578.11
366.12	578.11
366.32	475.13
366.52	484.49
366.72	472.79
366.91	493.85
367.11	463.43
367.31	461.09
367.51	449.38
367.70	404.91
367.90	461.09
368.10	458.74
368.30	465.77
368.49	472.79
368.69	491.51
368.89	489.17
369.09	433.00
369.28	468.11
369.48	447.04
369.68	601.52
369.87	554.71
370.07	510.24
370.27	587.47
370.47	657.69
370.66	779.40
370.86	844.93
371.06	823.87
371.25	833.23
371.45	889.40
371.65	903.45
371.84	912.81
372.04	917.49
372.24	912.81
372.44	964.30
372.63	919.83
372.83	891.74
373.03	905.79
373.22	917.49
373.42	940.90
373.62	983.02
373.81	973.66
374.01	929.19
374.21	976.00
374.40	1067.28
374.60	1090.69
374.79	1008.77
374.99	964.30
375.19	936.21
375.38	973.66
375.58	1043.88
375.78	1076.65
375.97	919.83
376.17	990.05
376.37	1022.81
376.56	990.05
376.76	1067.28
376.95	1029.84
377.15	1036.86
377.35	1050.90
377.54	1046.22
377.74	1036.86
377.93	961.96
378.13	1029.84
378.33	1118.78
378.52	1013.45
378.72	1029.84
378.91	1069.62
379.11	1095.37
379.31	1067.28
379.50	1069.62
379.70	1053.24
379.89	1067.28
380.09	1095.37
380.28	1165.59
380.48	1144.52
380.68	1111.75
380.87	1015.79
381.07	1074.31
381.26	1114.10
381.46	1181.97
381.65	1043.88
381.85	1214.74
382.04	1121.12
382.24	1156.22
382.43	1146.86
382.63	1102.39
382.83	1146.86
383.02	1214.74
383.22	1196.01
383.41	1172.61
383.61	1226.44
383.80	1163.25
384.00	1163.25
384.19	1217.08
384.39	1160.91
384.58	1184.31
384.78	1153.88
384.97	1179.63
385.17	1228.78
385.36	1205.38
385.56	1256.87
385.75	1181.97
385.95	1247.51
386.14	1268.57
386.34	1219.42
386.53	1238.14
386.72	1174.95
386.92	1289.64
387.11	1212.40
387.31	1296.66
387.50	1291.98
387.70	1348.15
387.89	1270.91
388.09	1299.00
388.28	1301.34
388.48	1310.70
388.67	1299.00
388.86	1270.91
389.06	1357.51
389.25	1301.34
389.45	1327.08
389.64	1296.66
389.84	1345.81
390.03	1385.60
390.22	1437.09
390.42	1352.83
390.61	1399.64
390.81	1378.58
391.00	1357.51
391.19	1329.42
391.39	1430.07
391.58	1458.15
391.78	1348.15
391.97	1441.77
392.16	1427.73
392.36	1369.21
392.55	1467.52
392.75	1434.75
392.94	1430.07
393.13	1472.20
393.33	1540.07
393.52	1469.86
393.71	1469.86
393.91	1526.03
394.10	1495.60
394.29	1486.24
394.49	1535.39
394.68	1523.69
394.88	1612.63
395.07	1500.28
395.26	1600.93
395.46	1554.12
395.65	1504.96
395.84	1586.88
396.04	1664.12
396.23	1579.86
396.42	1661.78
396.62	1584.54
396.81	1636.03
397.00	1624.33
397.19	1591.56
397.39	1605.61
397.58	1586.88
397.77	1633.69
397.97	1724.97
398.16	1659.44
398.35	1774.13
398.55	1664.12
398.74	1767.10
398.93	1799.87
399.12	1764.76
399.32	1741.36
399.51	1760.08
399.70	1739.02
399.90	1858.39
400.09	1776.47
400.28	1888.81
400.47	1851.36
400.67	1774.13
400.86	1877.11
401.05	1886.47
401.24	1844.34
401.44	1902.86
401.63	1923.92
401.82	1872.43
402.01	1937.96
402.21	1942.64
402.40	2029.24
402.59	1933.28
402.78	1872.43
402.97	2019.88
403.17	1994.14
403.36	1952.01
403.55	1944.99
403.74	2012.86
403.93	2033.93
404.13	2132.23
404.32	2094.78
404.51	2066.69
404.70	2115.84
404.89	2094.78
405.09	2157.97
405.28	2113.50
405.47	2216.49
405.66	2211.81
405.85	2200.10
406.05	2174.36
406.24	2153.29
406.43	2303.09
406.62	2221.17
406.81	2223.51
407.00	2197.76
407.20	2209.47
407.39	2267.98
407.58	2394.37
407.77	2286.70
407.96	2359.26
408.15	2415.43
408.34	2298.41
408.54	2394.37
408.73	2476.29
408.92	2469.27
409.11	2565.23
409.30	2389.69
409.49	2532.46
409.68	2466.92
409.87	2466.92
410.07	2574.59
410.26	2473.95
410.45	2480.97
410.64	2527.78
410.83	2576.93
411.02	2705.66
411.21	2640.12
411.40	2633.10
411.59	2668.21
411.78	2740.77
411.98	2808.64
412.17	2724.38
412.36	2754.81
412.55	2825.03
412.74	2726.72
412.93	2890.56
413.12	2829.71
413.31	2988.86
413.50	2944.39
413.69	2836.73
413.88	3068.44
414.07	3012.27
414.26	2885.88
414.45	3082.49
414.64	3026.31
414.83	3145.68
415.02	3047.38
415.22	3180.79
415.41	3138.66
415.60	3225.26
415.79	3236.96
415.98	3232.28
416.17	3269.73
416.36	3314.20
416.55	3208.87
416.74	3283.77
416.93	3297.81
417.12	3384.41
417.31	3375.05
417.50	3311.86
417.69	3426.54
417.88	3468.67
418.07	3342.28
418.26	3461.65
418.45	3494.42
418.64	3588.04
418.83	3529.53
419.02	3630.17
419.21	3672.30
419.39	3508.46
419.58	3555.27
419.77	3585.70
419.96	3672.30
420.15	3646.55
420.34	3740.18
420.53	3836.14
420.72	3716.77
420.91	3763.58
421.10	3758.90
421.29	3885.29
421.48	3669.96
421.67	3538.89
421.86	3723.79
422.05	3749.54
422.24	3784.65
422.43	3777.62
422.61	4039.76
422.80	3925.08
422.99	3995.29
423.18	3777.62
423.37	3922.74
423.56	3901.67
423.75	3950.82
423.94	3878.27
424.13	3651.24
424.32	3868.91
424.50	4007.00
424.69	3934.44
424.88	3960.19
425.07	3866.56
425.26	3880.61
425.45	3824.44
425.64	4060.83
425.83	3934.44
426.01	4037.42
426.20	4105.30
426.39	4002.32
426.58	3992.95
426.77	3974.23
426.96	3971.89
427.15	4072.53
427.33	4037.42
427.52	4100.62
427.71	4117.00
427.90	4131.05
428.09	4198.92
428.28	4161.47
428.46	4255.09
428.65	4142.75
428.84	4299.56
429.03	4381.48
429.22	4184.88
429.40	4311.27
429.59	4234.03
429.78	4224.67
429.97	4264.46
430.16	4299.56
430.34	4414.25
430.53	4465.74
430.72	4395.53
430.91	4468.08
431.10	4329.99
431.28	4582.77
431.47	4575.75
431.66	4627.24
431.85	4304.25
432.03	4533.62
432.22	4662.35
432.41	4629.58
432.60	4510.21
432.79	4674.05
432.97	4498.51
433.16	4634.26
433.35	4531.28
433.54	4697.46
433.72	4706.82
433.91	4702.14
434.10	4695.11
434.28	4589.79
434.47	4788.74
434.66	4830.87
434.85	4992.36
435.03	5025.13
435.22	5083.64
435.41	5188.97
435.59	5270.89
435.78	5116.41
435.97	5158.54
436.16	5022.79
436.34	5039.17
436.53	5027.47
436.72	5139.82
436.90	4938.53
437.09	5177.26
437.28	4973.64
437.46	5088.32
437.65	5149.18
437.84	5160.88
438.02	5130.45
438.21	5303.65
438.40	5224.08
438.58	5404.30
438.77	5397.28
438.96	5247.48
439.14	5408.98
439.33	5565.79
439.52	5476.85
439.70	5504.94
439.89	5563.45
440.08	5689.84
440.26	5703.89
440.45	5476.85
440.63	5624.31
440.82	5783.46
441.01	5624.31
441.19	5762.40
441.38	6076.03
441.57	5830.27
441.75	5898.15
441.94	6171.99
442.12	5949.64
442.31	5928.58
442.50	6054.97
442.68	5940.28
442.87	6097.10
443.05	6193.06
443.24	6083.05
443.43	6260.93
443.61	5994.11
443.80	6272.64
443.98	6104.12
444.17	5996.45
444.35	6195.40
444.54	6317.11
444.73	6202.42
444.91	6415.41
445.10	6277.32
445.28	6274.98
445.47	6129.86
445.65	6218.80
445.84	6406.05
446.02	6558.18
446.21	6270.30
446.39	6431.79
446.58	6567.54
446.77	6478.60
446.95	6305.40
447.14	6565.20
447.32	6513.71
447.51	6422.43
447.69	6174.33
447.88	6431.79
448.06	6462.22
448.25	6457.54
448.43	6417.75
448.62	6525.41
448.80	6471.58
448.99	6410.73
449.17	6651.80
449.36	6532.44
449.54	6637.76
449.73	6782.87
449.91	6817.98
450.10	6846.07
450.28	6757.13
450.46	6677.55
450.65	6775.85
450.83	6899.90
451.02	6619.04
451.20	6815.64
451.39	6740.74
451.57	6829.68
451.76	6764.15
451.94	6778.19
452.13	7082.46
452.31	6836.70
452.49	6939.69
452.68	7052.03
452.86	7192.47
453.05	7073.10
453.23	6993.52
453.42	7056.72
453.60	7077.78
453.78	7192.47
453.97	7016.93
454.15	6979.48
454.34	7002.88
454.52	7389.07
454.70	7279.07
454.89	7246.30
455.07	7243.96
455.26	7356.30
455.44	7356.30
455.62	7496.74
455.81	7494.40
455.99	7501.42
456.17	7473.33
456.36	7552.91
456.54	7723.77
456.73	7726.11
456.91	7763.56
457.09	7595.04
457.28	7908.67
457.46	7651.21
457.64	7758.88
457.83	7726.11
458.01	7714.41
458.19	7953.14
458.38	7796.32
458.56	8016.33
458.74	7985.91
458.93	7913.35
459.11	7995.27
459.29	7894.63
459.48	8063.15
459.66	8107.62
459.84	8056.12
460.03	8159.11
460.21	8147.40
460.39	8140.38
460.57	8114.64
460.76	8259.75
460.94	8287.84
461.12	8339.33
461.31	8124.00
461.49	8219.96
461.67	8353.37
461.85	8423.59
462.04	8262.09
462.22	8702.11
462.40	8362.73
462.59	8585.08
462.77	8393.16
462.95	8435.29
463.13	8404.86
463.32	8461.04
463.50	8854.25
463.68	8620.19
463.86	8589.77
464.05	8617.85
464.23	8678.71
464.41	8711.47
464.59	8629.56
464.78	8730.20
464.96	8744.24
465.14	8854.25
465.32	8769.99
465.50	8781.69
465.69	8758.28
465.87	8889.35
466.05	8652.96
466.23	8915.10
466.41	8910.42
466.60	9249.80
466.78	8982.98
466.96	9107.02
467.14	8854.25
467.32	9268.52
467.51	8964.25
467.69	8931.48
467.87	8943.19
468.05	9296.61
468.23	8999.36
468.41	9284.91
468.60	9235.75
468.78	9235.75
468.96	9357.46
469.14	9434.70
469.32	9446.40
469.50	9240.44
469.69	9322.35
469.87	9584.49
470.05	9633.64
470.23	9565.77
470.41	9713.22
470.59	9652.37
470.77	9549.39
470.95	9493.21
471.14	9989.41
471.32	9755.35
471.50	9813.87
471.68	9837.27
471.86	10010.47
472.04	9963.66
472.22	10080.69
472.40	9949.62
472.58	10190.69
472.77	10129.84
472.95	10068.98
473.13	10373.25
473.31	10272.61
473.49	10277.29
473.67	10396.66
473.85	10436.45
474.03	10677.52
474.21	10698.59
474.39	10567.52
474.57	10527.73
474.75	10841.36
474.93	10930.30
475.12	11005.20
475.30	10848.38
475.48	10778.17
475.66	11122.23
475.84	10848.38
476.02	10958.39
476.20	11089.46
476.38	11206.48
476.56	11562.25
476.74	11351.60
476.92	11410.11
477.10	11552.88
477.28	11761.19
477.46	11796.30
477.64	11871.20
477.82	11740.13
478.00	12053.76
478.18	12107.59
478.36	12170.79
478.54	12524.21
478.72	12334.62
478.90	12404.84
479.08	12566.34
479.26	12676.34
479.44	12711.45
479.62	12812.09
479.80	12891.67
479.98	12751.24
480.16	13334.03
480.34	13191.26
480.52	13411.27
480.70	13444.04
480.88	13067.21
481.06	13460.42
481.24	13575.11
481.41	13752.99
481.59	13738.94
481.77	13987.04
481.95	13977.68
482.13	14197.69
482.31	14071.30
482.49	14413.02
482.67	14427.06
482.85	14588.56
483.03	14740.69
483.21	14857.72
483.39	14958.36
483.57	15066.03
483.74	15126.88
483.92	15356.25
484.10	15566.90
484.28	15536.48
484.46	15669.89
484.64	15936.71
484.82	15868.83
485.00	15864.15
485.18	16299.49
485.35	16421.20
485.53	16610.78
485.71	16493.76
485.89	16793.34
486.07	16556.95
486.25	16807.39
486.43	16800.37
486.61	17074.21
486.78	17109.32
486.96	17341.03
487.14	17467.42
487.32	17750.62
487.50	17649.98
487.68	17635.94
487.85	18078.30
488.03	18099.36
488.21	18319.37
488.39	18038.51
488.57	18539.38
488.75	18633.00
488.92	18766.42
489.10	18977.06
489.28	19005.15
489.46	19271.97
489.64	19269.63
489.81	19639.44
489.99	19578.58
490.17	19770.51
490.35	19772.85
490.53	20147.33
490.70	20292.44
490.88	20255.00
491.06	20407.13
491.24	20205.84
491.41	20739.49
491.59	20730.12
491.77	21083.55
491.95	20917.37
492.13	21387.82
492.30	21291.85
492.48	21341.00
492.66	21214.62
492.84	21612.51
493.01	21661.66
493.19	21694.43
493.37	22092.32
493.54	21869.97
493.72	22094.66
493.90	22384.88
494.08	22450.42
494.25	22530.00
494.43	22522.98
494.61	22635.32
494.79	22710.22
494.96	22855.33
495.14	23152.58
495.32	23274.29
495.49	23487.28
495.67	23309.40
495.85	23747.08
496.02	23740.05
496.20	24205.82
496.38	23967.09
496.55	24013.90
496.73	24814.36
496.91	24716.06
497.09	24615.41
497.26	24587.33
497.44	24568.60
497.62	24861.17
497.79	25135.01
497.97	25212.25
498.14	25364.39
498.32	25429.92
498.50	25474.39
498.67	25525.88
498.85	25373.75
499.03	25895.69
499.20	25811.43
499.38	25970.58
499.56	26513.59
499.73	26199.96
499.91	26302.94
500.08	26366.13
500.26	26499.55
500.44	26459.76
500.61	26754.66
500.79	26787.43
500.97	26965.31
501.14	27145.53
501.32	27374.91
501.49	27154.90
501.67	27580.87
501.84	27459.16
502.02	27702.58
502.20	27208.73
502.37	28009.19
502.55	27693.22
502.72	27651.09
502.90	28109.83
503.07	27885.14
503.25	28163.67
503.43	27955.36
503.60	28273.67
503.78	28418.78
503.95	28479.64
504.13	28348.57
504.30	28716.03
504.48	28643.48
504.65	28858.81
504.83	28851.78
505.01	29137.33
505.18	29029.66
505.36	29247.33
505.53	29294.14
505.71	29390.11
505.88	29315.21
506.06	29453.30
506.23	29659.27
506.41	29371.38
506.58	29476.71
506.76	29593.73
506.93	30272.49
507.11	29769.27
507.28	30455.05
507.46	30433.99
507.63	30607.19
507.81	30326.32
507.98	29855.87
508.16	30384.83
508.33	30242.06
508.50	30600.16
508.68	30850.60
508.85	31119.76
509.03	31182.96
509.20	30810.81
509.38	31236.79
509.55	31536.38
509.73	31934.27
509.90	31606.59
510.08	31648.72
510.25	31225.09
510.42	31756.39
510.60	31599.57
510.77	32098.11
510.95	32081.72
511.12	32051.30
511.30	32435.14
511.47	32203.43
511.64	32376.63
511.82	32664.52
511.99	32629.41
512.17	32044.27
512.34	32744.09
512.51	32833.04
512.69	32725.37
512.86	33120.92
513.04	33343.27
513.21	33031.98
513.38	33165.39
513.56	33537.54
513.73	33401.79
513.90	33493.07
514.08	33399.44
514.25	33937.77
514.43	33951.81
514.60	33677.97
514.77	33902.66
514.95	33816.06
515.12	33820.74
515.29	33874.57
515.47	34029.05
515.64	34646.95
515.81	33961.17
515.99	34536.94
516.16	34426.94
516.33	34448.00
516.51	34892.71
516.68	34412.90
516.85	34717.17
517.03	34965.26
517.20	34675.04
517.37	34789.72
517.54	34930.16
517.72	34738.23
517.89	34859.94
518.06	35159.53
518.24	36020.84
518.41	35306.98
518.58	35353.79
518.75	35681.47
518.93	35608.91
519.10	35412.31
519.27	35641.68
519.45	35913.18
519.62	36107.44
519.79	36130.85
519.96	36018.50
520.14	36212.77
520.31	35550.40
520.48	36112.13
520.65	36411.71
520.83	36519.38
521.00	36825.99
521.17	36449.16
521.34	36596.62
521.52	36781.52
521.69	36556.83
521.86	36748.75
522.03	36678.54
522.20	36903.23
522.38	37376.01
522.55	37350.27
522.72	37165.37
522.89	36605.98
523.07	37244.94
523.24	37240.26
523.41	37696.67
523.58	37134.94
523.75	38148.39
523.92	37589.00
524.10	38014.98
524.27	37701.35
524.44	38153.07
524.61	37853.48
524.78	38022.00
524.96	38064.13
525.13	38305.21
525.30	38220.95
525.47	38799.06
525.64	38440.96
525.81	38293.50
525.98	38911.41
526.16	37942.42
526.33	38721.82
526.50	38597.77
526.67	38759.27
526.84	39093.97
527.01	39241.42
527.18	38873.96
527.36	39185.25
527.53	39241.42
527.70	39707.19
527.87	38995.67
528.04	39143.12
528.21	39772.72
528.38	39564.42
528.55	39761.02
528.72	39402.92
528.89	39393.56
529.07	39452.07
529.24	39613.57
529.41	39903.79
529.58	39519.95
529.75	39800.81
529.92	39632.29
530.09	40257.21
530.26	40123.80
530.43	39744.64
530.60	39782.09
530.77	40053.59
530.94	40130.83
531.11	40652.76
531.28	40477.22
531.46	40968.74
531.63	40514.67
531.80	40608.29
531.97	40563.82
532.14	40830.65
532.31	40318.07
532.48	40762.77
532.65	41003.85
532.82	40577.87
532.99	40994.48
533.16	41062.36
533.33	41329.18
533.50	41104.49
533.67	41500.04
533.84	41357.27
534.01	41174.70
534.18	41352.58
534.35	41710.69
534.52	41347.90
534.69	41500.04
534.86	41624.09
535.03	41390.03
535.20	41851.12
535.37	41588.98
535.54	42064.11
535.71	41888.57
535.88	42089.85
536.05	42462.00
536.22	42597.75
536.38	42146.03
536.55	42064.11
536.72	41897.93
536.89	42183.48
537.06	42398.80
537.23	42597.75
537.40	42581.37
537.57	42314.55
537.74	42499.45
537.91	42574.34
538.08	42670.31
538.25	42206.88
538.42	42644.56
538.59	43112.67
538.75	42682.01
538.92	42536.90
539.09	43147.78
539.26	42588.39
539.43	43037.77
539.60	43171.18
539.77	43161.82
539.94	43714.19
540.11	43667.37
540.28	43232.04
540.44	43564.39
540.61	43707.16
540.78	43445.02
540.95	43662.69
541.12	43618.22
541.29	43377.15
541.46	43606.52
541.62	44086.33
541.79	43910.79
541.96	43643.97
542.13	43505.88
542.30	43920.15
542.47	44093.35
542.63	44243.15
542.80	44018.46
542.97	44828.28
543.14	44861.05
543.31	44643.38
543.48	44519.33
543.64	44793.17
543.81	44701.89
543.98	44488.90
544.15	44704.23
544.32	44912.54
544.48	45265.96
544.65	45088.08
544.82	45017.86
544.99	44481.88
545.16	44924.24
545.32	45064.67
545.49	45485.97
545.66	45731.73
545.83	45771.52
546.00	45771.52
546.16	46005.57
546.33	45652.15
546.50	45015.52
546.67	45390.01
546.83	45291.71
547.00	45155.96
547.17	45177.02
547.34	45556.19
547.50	44973.39
547.67	45823.01
547.84	45694.28
548.00	46003.23
548.17	45961.10
548.34	45460.23
548.51	46024.29
548.67	45790.24
548.84	46061.74
549.01	45928.33
549.18	45675.55
549.34	45844.07
549.51	46092.17
549.68	46024.29
549.84	46270.05
550.01	45937.69
550.18	45841.73
550.34	45970.46
550.51	45511.72
550.68	46050.04
550.84	45876.84
551.01	45773.86
551.18	46019.61
551.34	45617.04
551.51	45483.63
551.68	46632.83
551.84	46096.85
552.01	45982.16
552.18	46281.75
552.34	46408.14
552.51	46712.41
552.68	46836.46
552.84	46827.10
553.01	46522.83
553.18	46869.23
553.34	46394.10
553.51	46508.79
553.67	46794.33
553.84	47072.85
554.01	47274.14
554.17	47107.96
554.34	46934.76
554.51	47000.30
554.67	46878.59
554.84	46789.65
555.00	46670.28
555.17	46497.08
555.33	47026.04
555.50	47049.45
555.67	47246.05
555.83	46948.81
556.00	47012.00
556.16	47608.84
556.33	47201.58
556.50	47166.48
556.66	47239.03
556.83	46588.36
556.99	47522.24
557.16	47648.63
557.32	47819.49
557.49	47985.66
557.65	47388.83
557.82	47447.34
557.98	47320.95
558.15	47004.98
558.32	47592.45
558.48	47157.11
558.65	47498.83
558.81	48030.13
558.98	47784.38
559.14	47650.97
559.31	47683.73
559.47	47358.40
559.64	47945.87
559.80	47903.74
559.97	47356.06
560.13	47901.40
560.30	47629.90
560.46	48030.13
560.63	47805.44
560.79	48069.92
560.96	48086.31
561.12	47512.88
561.29	48170.57
561.45	47908.43
561.61	48179.93
561.78	47948.21
561.94	47662.67
562.11	48425.68
562.27	48449.09
562.44	48353.13
562.60	48233.76
562.77	48603.56
562.93	47665.01
563.10	48554.41
563.26	47803.10
563.42	48177.59
563.59	48488.88
563.75	48418.66
563.92	48825.92
564.08	48224.40
564.24	48362.49
564.41	48406.96
564.57	48636.33
564.74	48378.87
564.90	48470.15
565.07	48336.74
565.23	48725.27
565.39	48477.18
565.56	48814.21
565.72	48327.38
565.88	48793.15
566.05	48842.30
566.21	48236.10
566.38	48336.74
566.54	48713.57
566.70	48772.08
566.87	48809.53
567.03	48662.08
567.19	48896.13
567.36	48978.05
567.52	48793.15
567.68	48678.46
567.85	48713.57
568.01	48870.39
568.17	48687.82
568.34	48882.09
568.50	48619.95
568.66	48664.42
568.83	49186.36
568.99	48795.49
569.15	48842.30
569.32	48919.54
569.48	48659.74
569.64	48790.81
569.81	49081.03
569.97	48348.45
570.13	48783.79
570.30	48856.34
570.46	48968.69
570.62	48903.15
570.78	48472.49
570.95	48638.67
571.11	49265.94
571.27	48638.67
571.43	48800.17
571.60	48545.05
571.76	48926.56
571.92	49109.12
572.09	49329.13
572.25	49258.91
572.41	49413.39
572.57	49006.14
572.74	49464.88
572.90	48531.01
573.06	49279.98
573.22	48554.41
573.38	48926.56
573.55	48917.20
573.71	49411.05
573.87	49368.92
574.03	48978.05
574.20	49397.01
574.36	49457.86
574.52	49476.58
574.68	48872.73
574.84	49177.00
575.01	49528.08
575.17	49317.43
575.33	49265.94
575.49	49162.95
575.65	49436.80
575.82	49605.31
575.98	49331.47
576.14	49336.15
576.30	49565.52
576.46	49319.77
576.62	49357.22
576.79	49499.99
576.95	49287.00
577.11	49347.86
577.27	49652.12
577.43	49401.69
577.59	49422.75
577.75	49696.59
577.92	48928.90
578.08	49148.91
578.24	49591.27
578.40	49425.09
578.56	49649.78
578.72	49144.23
578.88	49694.25
579.04	49518.71
579.21	49308.07
579.37	50136.62
579.53	49951.71
579.69	49233.17
579.85	49738.72
580.01	49610.00
580.17	49752.77
580.33	49347.86
580.49	49560.84
580.65	49565.52
580.82	49427.43
580.98	49429.77
581.14	49471.90
581.30	49858.09
581.46	49329.13
581.62	49270.62
581.78	49542.12
581.94	49345.51
582.10	49179.34
582.26	49860.43
582.42	49778.51
582.58	49324.45
582.74	49586.59
582.90	49092.74
583.06	49794.90
583.22	49748.09
583.38	49469.56
583.54	49294.02
583.70	49228.49
583.86	49659.15
584.02	49544.46
584.18	49684.89
584.34	49696.59
584.50	49525.74
584.66	49343.17
584.82	49492.97
584.98	49443.82
585.14	49420.41
585.30	49673.19
585.46	49635.74
585.62	49270.62
585.78	49820.64
585.94	49656.81
586.10	50082.78
586.26	49897.88
586.42	50150.66
586.58	49911.92
586.74	49745.75
586.90	49624.04
587.06	49628.72
587.22	50237.26
587.38	49902.56
587.54	50192.79
587.70	50391.73
587.86	50052.36
588.02	49904.90
588.18	50377.69
588.34	50047.68
588.49	49972.78
588.65	49701.28
588.81	49694.25
588.97	49935.33
589.13	49944.69
