SpectraSuite Data File
++++++++++++++++++++++++++++++++++++
Date: Thu Oct 24 13:21:33 EDT 2013
User: stostad
Dark Spectrum Present: No
Reference Spectrum Present: No
Number of Sampled Component Spectra: 1
Spectrometers: USB2+H05261
Integration Time (usec): 100000 (USB2+H05261)
Spectra Averaged: 1 (USB2+H05261)
Boxcar Smoothing: 0 (USB2+H05261)
Correct for Electrical Dark: No (USB2+H05261)
Strobe/Lamp Enabled: No (USB2+H05261)
Correct for Detector Non-linearity: No (USB2+H05261)
Correct for Stray Light: No (USB2+H05261)
Number of Pixels in Processed Spectrum: 2048
>>>>>Begin Processed Spectral Data<<<<<
365.73	603.86
365.92	603.86
366.12	603.86
366.32	470.45
366.52	519.60
366.72	491.51
366.91	440.02
367.11	409.59
367.31	402.57
367.51	442.36
367.70	472.79
367.90	561.73
368.10	428.32
368.30	493.85
368.49	493.85
368.69	496.19
368.89	496.19
369.09	540.66
369.28	503.22
369.48	524.28
369.68	512.58
369.87	505.56
370.07	540.66
370.27	521.94
370.47	674.07
370.66	1144.52
370.86	1252.19
371.06	1263.89
371.25	1310.70
371.45	1275.59
371.65	1205.38
371.84	1301.34
372.04	1296.66
372.24	1188.99
372.44	1287.29
372.63	1338.79
372.83	1397.30
373.03	1392.62
373.22	1430.07
373.42	1446.45
373.62	1406.66
373.81	1369.21
374.01	1462.83
374.21	1427.73
374.40	1437.09
374.60	1535.39
374.79	1420.71
374.99	1441.77
375.19	1392.62
375.38	1490.92
375.58	1497.94
375.78	1462.83
375.97	1598.59
376.17	1483.90
376.37	1565.82
376.56	1483.90
376.76	1568.16
376.95	1542.41
377.15	1511.99
377.35	1551.78
377.54	1605.61
377.74	1647.74
377.93	1671.14
378.13	1603.27
378.33	1675.82
378.52	1575.18
378.72	1556.46
378.91	1659.44
379.11	1586.88
379.31	1668.80
379.50	1734.34
379.70	1722.63
379.89	1764.76
380.09	1696.89
380.28	1647.74
380.48	1727.32
380.68	1643.06
380.87	1795.19
381.07	1678.16
381.26	1809.23
381.46	1795.19
381.65	1741.36
381.85	1907.54
382.04	1785.83
382.24	1842.00
382.43	1851.36
382.63	1891.15
382.83	1940.30
383.02	1870.09
383.22	1900.52
383.41	1930.94
383.61	1886.47
383.80	1970.73
384.00	1900.52
384.19	1956.69
384.39	1980.09
384.58	2010.52
384.78	1839.66
384.97	1982.43
385.17	1923.92
385.36	2026.90
385.56	2043.29
385.75	1935.62
385.95	1942.64
386.14	1996.48
386.34	2012.86
386.53	2069.03
386.72	2073.71
386.92	2193.08
387.11	2132.23
387.31	2165.00
387.50	2157.97
387.70	2165.00
387.89	2190.74
388.09	2200.10
388.28	2148.61
388.48	2197.76
388.67	2277.34
388.86	2279.68
389.06	2272.66
389.25	2258.62
389.45	2289.04
389.64	2230.53
389.84	2356.92
390.03	2377.98
390.22	2352.24
390.42	2305.43
390.61	2396.71
390.81	2303.09
391.00	2298.41
391.19	2445.86
391.39	2427.14
391.58	2408.41
391.78	2464.58
391.97	2513.74
392.16	2480.97
392.36	2630.76
392.55	2532.46
392.75	2576.93
392.94	2602.68
393.13	2525.44
393.33	2487.99
393.52	2689.28
393.71	2612.04
393.91	2565.23
394.10	2644.81
394.29	2583.95
394.49	2499.69
394.68	2775.88
394.88	2637.78
395.07	2722.04
395.26	2780.56
395.46	2665.87
395.65	2827.37
395.84	2974.82
396.04	2897.58
396.23	2799.28
396.42	2825.03
396.62	2906.95
396.81	2843.75
397.00	2846.09
397.19	2953.76
397.39	3014.61
397.58	3021.63
397.77	2988.86
397.97	3033.33
398.16	3033.33
398.35	3030.99
398.55	3021.63
398.74	3080.14
398.93	3197.17
399.12	3157.38
399.32	3122.27
399.51	3143.34
399.70	3276.75
399.90	3096.53
400.09	3222.92
400.28	3368.03
400.47	3239.30
400.67	3248.66
400.86	3412.50
401.05	3353.99
401.24	3400.80
401.44	3417.18
401.63	3384.41
401.82	3529.53
402.01	3569.32
402.21	3541.23
402.40	3562.30
402.59	3543.57
402.78	3613.79
402.97	3765.92
403.17	3679.32
403.36	3527.19
403.55	3672.30
403.74	3805.71
403.93	3791.67
404.13	3794.01
404.32	3796.35
404.51	3822.09
404.70	3864.22
404.89	3892.31
405.09	3941.46
405.28	3822.09
405.47	3957.85
405.66	3922.74
405.85	3889.97
406.05	4007.00
406.24	4025.72
406.43	4086.58
406.62	4145.09
406.81	4149.77
407.00	4039.76
407.20	3957.85
407.39	4088.92
407.58	4142.75
407.77	4297.22
407.96	4458.72
408.15	4500.85
408.34	4131.05
408.54	4372.12
408.73	4334.67
408.92	4369.78
409.11	4421.27
409.30	4388.50
409.49	4528.94
409.68	4648.30
409.87	4585.11
410.07	4643.62
410.26	4720.86
410.45	4725.54
410.64	4578.09
410.83	4732.56
411.02	4762.99
411.21	4760.65
411.40	4814.48
411.59	5055.56
411.78	4901.08
411.98	4891.72
412.17	5240.46
412.36	5123.43
412.55	5097.69
412.74	5219.39
412.93	5088.32
413.12	5078.96
413.31	5310.68
413.50	5280.25
413.69	5284.93
413.88	5425.36
414.07	5425.36
414.26	5408.98
414.45	5502.60
414.64	5542.39
414.83	5610.26
415.02	5589.20
415.22	5804.53
415.41	5746.02
415.60	5713.25
415.79	5968.37
415.98	5870.06
416.17	5834.96
416.36	5951.98
416.55	5961.34
416.74	6047.94
416.93	6066.67
417.12	6148.59
417.31	6078.37
417.50	6263.27
417.69	6349.87
417.88	6356.90
418.07	6459.88
418.26	6408.39
418.45	6335.83
418.64	6502.01
418.83	6621.38
419.02	6562.86
419.21	6628.40
419.39	6766.49
419.58	6633.08
419.77	6724.36
419.96	6815.64
420.15	6885.86
420.34	6738.40
420.53	6825.00
420.72	6974.80
420.91	6853.09
421.10	7000.54
421.29	7131.61
421.48	6874.15
421.67	7258.00
421.86	7166.72
422.05	7026.29
422.24	6984.16
422.43	7239.28
422.61	7171.40
422.80	7283.75
422.99	7194.81
423.18	7213.53
423.37	7440.56
423.56	7461.63
423.75	7183.10
423.94	7063.74
424.13	6829.68
424.32	6923.30
424.50	7332.90
424.69	7470.99
424.88	7386.73
425.07	7297.79
425.26	7133.95
425.45	7281.41
425.64	7234.60
425.83	7176.08
426.01	7606.74
426.20	7599.72
426.39	7524.82
426.58	7513.12
426.77	7353.96
426.96	7445.24
427.15	7548.23
427.33	7735.47
427.52	7337.58
427.71	7754.19
427.90	7592.70
428.09	7875.90
428.28	7866.54
428.46	7915.69
428.65	7667.60
428.84	8023.36
429.03	7920.37
429.22	8002.29
429.40	8131.02
429.59	8079.53
429.78	7681.64
429.97	7836.11
430.16	8093.57
430.34	8381.46
430.53	8177.83
430.72	8191.88
430.91	8147.40
431.10	8112.30
431.28	8482.10
431.47	8545.30
431.66	8411.89
431.85	8507.85
432.03	8762.97
432.22	8667.00
432.41	8575.72
432.60	8676.37
432.79	8830.84
432.97	8844.88
433.16	8812.12
433.35	9025.11
433.54	8898.72
433.72	9109.36
433.91	8917.44
434.10	9221.71
434.28	9069.58
434.47	9078.94
434.66	9287.25
434.85	9320.01
435.03	9240.44
435.22	9242.78
435.41	9507.26
435.59	9621.94
435.78	9540.02
435.97	9514.28
436.16	9408.95
436.34	9301.29
436.53	9589.17
436.72	9694.50
436.90	9362.14
437.09	9650.03
437.28	9404.27
437.46	9612.58
437.65	9701.52
437.84	9888.76
438.02	9640.67
438.21	9797.48
438.40	9926.21
438.58	10024.51
438.77	10068.98
438.96	10162.61
439.14	10413.04
439.33	10366.23
439.52	10434.11
439.70	10602.63
439.89	10707.95
440.08	10714.97
440.26	10773.49
440.45	10614.33
440.63	11005.20
440.82	11112.86
441.01	10890.51
441.19	10963.07
441.38	11159.67
441.57	11159.67
441.75	11295.43
441.94	11548.20
442.12	11454.58
442.31	11709.70
442.50	11705.02
442.68	11522.46
442.87	11705.02
443.05	12025.67
443.24	11969.50
443.43	11808.00
443.61	11976.52
443.80	12116.95
443.98	11686.29
444.17	11616.08
444.35	11955.46
444.54	12142.70
444.73	11920.35
444.91	12077.16
445.10	12109.93
445.28	12201.21
445.47	11859.49
445.65	12119.29
445.84	12259.73
446.02	12458.67
446.21	12383.77
446.39	12142.70
446.58	12156.74
446.77	12449.31
446.95	11866.52
447.14	12435.27
447.32	12571.02
447.51	12304.20
447.69	12248.02
447.88	12201.21
448.06	12589.74
448.25	12496.12
448.43	12571.02
448.62	12568.68
448.80	12540.59
448.99	12606.13
449.17	12901.03
449.36	12730.17
449.54	13186.58
449.73	13029.76
449.91	13050.83
450.10	13013.38
450.28	13102.32
450.46	13039.12
450.65	13004.02
450.83	12882.31
451.02	13179.56
451.20	13444.04
451.39	13334.03
451.57	13376.16
451.76	13123.38
451.94	13301.26
452.13	13376.16
452.31	13284.88
452.49	13437.02
452.68	13736.60
452.86	13596.17
453.05	13558.72
453.23	13701.50
453.42	13661.71
453.60	13537.66
453.78	13860.65
453.97	13701.50
454.15	13509.57
454.34	13666.39
454.52	14080.66
454.70	14008.11
454.89	14005.77
455.07	14094.71
455.26	14003.43
455.44	14398.98
455.62	14324.08
455.81	14485.58
455.99	14745.38
456.17	14424.72
456.36	14197.69
456.54	14541.75
456.73	14796.87
456.91	15204.12
457.09	15108.16
457.28	15185.40
457.46	14899.85
457.64	15276.68
457.83	15484.98
458.01	15028.58
458.19	15435.83
458.38	15316.47
458.56	15625.42
458.74	15445.20
458.93	15480.30
459.11	15564.56
459.29	15494.35
459.48	15679.25
459.66	15697.97
459.84	15789.25
460.03	16123.95
460.21	15903.94
460.39	16002.24
460.57	15875.85
460.76	15941.39
460.94	16215.23
461.12	16077.14
461.31	16212.89
461.49	16269.06
461.67	16269.06
461.85	16741.85
462.04	16334.60
462.22	16861.22
462.40	17170.17
462.59	16807.39
462.77	16884.62
462.95	16706.74
463.13	16870.58
463.32	16966.54
463.50	17123.36
463.68	17238.05
463.86	17254.43
464.05	16723.13
464.23	17179.53
464.41	17163.15
464.59	17062.51
464.78	17474.44
464.96	17472.10
465.14	17139.74
465.32	17420.61
465.50	17631.26
465.69	17724.88
465.87	17649.98
466.05	17516.57
466.23	17869.99
466.41	17668.70
466.60	18094.68
466.78	17767.01
466.96	17769.35
467.14	17902.76
467.32	17699.13
467.51	18387.25
467.69	17708.49
467.87	18326.39
468.05	18405.97
468.23	18127.45
468.41	18026.81
468.60	17958.93
468.78	18387.25
468.96	18314.69
469.14	18579.17
469.32	18867.06
469.50	18246.82
469.69	18930.25
469.87	19271.97
470.05	19047.28
470.23	19161.97
470.41	19178.35
470.59	19363.25
470.77	19035.58
470.95	19051.96
471.14	19761.14
471.32	19035.58
471.50	19845.40
471.68	19850.08
471.86	19901.58
472.04	19936.68
472.22	20311.17
472.40	20084.14
472.58	19960.09
472.77	20229.25
472.95	20596.71
473.13	20875.24
473.31	20233.93
473.49	20475.01
473.67	20568.63
473.85	20924.39
474.03	20833.11
474.21	21315.26
474.39	21596.12
474.57	21516.54
474.75	21502.50
474.93	21584.42
475.12	21930.82
475.30	21975.29
475.48	21921.46
475.66	22087.64
475.84	21806.77
476.02	22197.64
476.20	22319.35
476.38	22691.49
476.56	23211.09
476.74	23325.78
476.92	23065.98
477.10	23058.96
477.28	23463.87
477.46	23480.25
477.64	23798.57
477.82	24049.00
478.00	24486.68
478.18	24372.00
478.36	24973.52
478.54	25015.65
478.72	24926.71
478.90	25406.52
479.08	25549.29
479.26	25525.88
479.44	25867.60
479.62	25792.70
479.80	26164.85
479.98	26508.91
480.16	26944.25
480.34	26541.68
480.52	26993.40
480.70	26984.04
480.88	26654.02
481.06	27143.19
481.24	27505.98
481.41	27828.97
481.59	28184.73
481.77	28486.66
481.95	28666.88
482.13	28872.85
482.31	29048.39
482.49	29418.19
482.67	29144.35
482.85	29603.10
483.03	29834.81
483.21	30080.56
483.39	30616.55
483.57	30579.10
483.74	30754.64
483.92	30899.75
484.10	30780.39
484.28	31667.45
484.46	31892.14
484.64	32112.15
484.82	32175.34
485.00	32465.57
485.18	32957.08
485.35	33111.56
485.53	33141.99
485.71	33806.70
485.89	34623.54
486.07	33771.59
486.25	33970.54
486.43	34457.37
486.61	34979.31
486.78	34878.66
486.96	35173.57
487.14	35548.06
487.32	35592.53
487.50	36062.97
487.68	36411.71
487.85	36488.95
488.03	36959.40
488.21	37404.10
488.39	37488.36
488.57	37940.08
488.75	37991.58
488.92	38263.08
489.10	38749.91
489.28	38623.52
489.46	38932.47
489.64	38937.15
489.81	39800.81
489.99	39955.29
490.17	40231.47
490.35	40332.11
490.53	40861.07
490.70	40847.03
490.88	41022.57
491.06	41380.67
491.24	41553.87
491.41	41593.66
491.59	42354.33
491.77	42497.11
491.95	42925.42
492.13	42649.24
492.30	42808.40
492.48	43189.91
492.66	43374.81
492.84	43395.87
493.01	43997.39
493.19	43948.24
493.37	44484.22
493.54	44505.29
493.72	44783.81
493.90	45050.63
494.08	45593.64
494.25	45778.54
494.43	45951.74
494.61	46131.96
494.79	45951.74
494.96	46330.90
495.14	46944.12
495.32	47124.35
495.49	47510.53
495.67	47676.71
495.85	47913.11
496.02	47901.40
496.20	48048.86
496.38	48076.94
496.55	48406.96
496.73	49450.84
496.91	49551.48
497.09	49191.04
497.26	49476.58
497.44	49223.81
497.62	49160.61
497.79	50501.74
497.97	50094.49
498.14	50782.60
498.32	50574.30
498.50	50813.03
498.67	50923.04
498.85	50967.51
499.03	51320.93
499.20	51409.87
499.38	51655.62
499.56	51730.52
499.73	51873.29
499.91	51959.89
500.08	52144.80
500.26	51700.09
500.44	52142.45
500.61	52296.93
500.79	52406.94
500.97	52516.94
501.14	52800.15
501.32	53097.39
501.49	52736.95
501.67	53062.29
501.84	53490.60
502.02	53394.64
502.20	53668.48
502.37	53862.75
502.55	53425.07
502.72	53806.58
502.90	53918.92
503.07	53876.79
503.25	54190.42
503.43	53694.23
503.60	54398.73
503.78	54550.87
503.95	54342.56
504.13	54410.43
504.30	54630.44
504.48	54663.21
504.65	54880.88
504.83	55402.82
505.01	55295.16
505.18	55185.15
505.36	55650.92
505.53	55196.85
505.71	55313.88
505.88	55559.64
506.06	55473.04
506.23	55599.43
506.41	55702.41
506.58	55941.14
506.76	55697.73
506.93	56310.95
507.11	56205.62
507.28	56324.99
507.46	56453.72
507.63	56376.48
507.81	56444.36
507.98	56261.80
508.16	56310.95
508.33	56603.52
508.50	56814.16
508.68	57001.41
508.85	57207.37
509.03	57071.62
509.20	57130.14
509.38	57539.73
509.55	57380.57
509.73	57483.56
509.90	57846.34
510.08	57799.53
510.25	57869.75
510.42	57773.78
510.60	57801.87
510.77	57851.02
510.95	58082.73
511.12	57911.88
511.30	58204.44
511.47	58443.18
511.64	58333.17
511.82	58443.18
511.99	58066.35
512.17	58497.01
512.34	58426.79
512.51	58717.02
512.69	58836.39
512.86	58871.49
513.04	59119.59
513.21	58859.79
513.38	59061.08
513.56	58820.00
513.73	58801.28
513.90	59234.28
514.08	59117.25
514.25	59386.41
514.43	59257.68
514.60	59231.94
514.77	59367.69
514.95	59674.30
515.12	59355.99
515.29	59494.08
515.47	59753.88
515.64	60121.34
515.81	59917.71
515.99	59934.10
516.16	60170.49
516.33	59882.61
516.51	60245.39
516.68	60119.00
516.85	60294.54
517.03	60495.83
517.20	60535.62
517.37	60374.12
517.54	60484.12
517.72	60406.89
517.89	60654.98
518.06	60800.10
518.24	60781.37
518.41	60669.03
518.58	60828.18
518.75	60711.16
518.93	61001.38
519.10	60858.61
519.27	61113.73
519.45	60982.66
519.62	61258.84
519.79	61207.35
519.96	61137.13
520.14	61378.21
520.31	61022.45
520.48	61109.05
520.65	61324.38
520.83	61560.77
521.00	61645.03
521.17	61623.96
521.34	61602.90
521.52	61783.12
521.69	61656.73
521.86	61771.42
522.03	61937.60
522.20	62131.86
522.38	62129.52
522.55	62239.53
522.72	62078.03
522.89	62012.49
523.07	62356.55
523.24	62239.53
523.41	62239.53
523.58	62202.08
523.75	62394.00
523.92	62368.26
524.10	62391.66
524.27	62752.10
524.44	62560.18
524.61	62752.10
524.78	62679.55
524.96	62623.37
525.13	62742.74
525.30	63096.16
525.47	63112.55
525.64	63096.16
525.81	62869.13
525.98	62953.39
526.16	63220.21
526.33	62997.86
526.50	63252.98
526.67	63182.76
526.84	63381.71
527.01	63206.17
527.18	63276.38
527.36	63337.24
527.53	63440.22
527.70	63463.63
527.87	63599.38
528.04	63613.42
528.21	63660.23
528.38	63557.25
528.55	63957.48
528.72	63489.37
528.89	63625.12
529.07	63519.80
529.24	63732.79
529.41	63826.41
529.58	63927.05
529.75	63913.01
529.92	64051.10
530.09	64011.31
530.26	63870.88
530.43	64013.65
530.60	63927.05
530.77	64062.80
530.94	64254.73
531.11	64257.07
531.28	64203.24
531.46	64294.52
531.63	64364.73
531.80	64301.54
531.97	64336.65
532.14	64582.40
532.31	64434.95
532.48	64507.50
532.65	64598.79
532.82	64549.63
532.99	64704.11
533.16	64498.14
533.33	64605.81
533.50	64790.71
533.67	64657.30
533.84	64568.36
534.01	64783.69
534.18	64767.30
534.35	65092.64
534.52	65043.49
534.69	65020.08
534.86	65052.85
535.03	64811.77
535.20	65226.05
535.37	65214.35
535.54	65345.42
535.71	65200.30
535.88	65272.86
536.05	65169.88
536.22	65249.45
536.38	65378.18
536.55	65345.42
536.72	65396.91
536.89	65413.29
537.06	65354.78
537.23	65535.00
537.40	65535.00
537.57	65535.00
537.74	65359.46
537.91	65535.00
538.08	65535.00
538.25	65535.00
538.42	65535.00
538.59	65535.00
538.75	65535.00
538.92	65535.00
539.09	65535.00
539.26	65535.00
539.43	65535.00
539.60	65535.00
539.77	65535.00
539.94	65535.00
540.11	65535.00
540.28	65535.00
540.44	65535.00
540.61	65535.00
540.78	65535.00
540.95	65535.00
541.12	65535.00
541.29	65535.00
541.46	65535.00
541.62	65535.00
541.79	65535.00
541.96	65535.00
542.13	65535.00
542.30	65535.00
542.47	65535.00
542.63	65535.00
542.80	65535.00
542.97	65535.00
543.14	65535.00
543.31	65535.00
543.48	65535.00
543.64	65535.00
543.81	65535.00
543.98	65535.00
544.15	65535.00
544.32	65535.00
544.48	65535.00
544.65	65535.00
544.82	65535.00
544.99	65535.00
545.16	65535.00
545.32	65535.00
545.49	65535.00
545.66	65535.00
545.83	65535.00
546.00	65535.00
546.16	65535.00
546.33	65535.00
546.50	65535.00
546.67	65535.00
546.83	65535.00
547.00	65535.00
547.17	65535.00
547.34	65535.00
547.50	65535.00
547.67	65535.00
547.84	65535.00
548.00	65535.00
548.17	65535.00
548.34	65535.00
548.51	65535.00
548.67	65535.00
548.84	65535.00
549.01	65535.00
549.18	65535.00
549.34	65535.00
549.51	65535.00
549.68	65535.00
549.84	65535.00
550.01	65535.00
550.18	65535.00
550.34	65535.00
550.51	65535.00
550.68	65535.00
550.84	65535.00
551.01	65535.00
551.18	65535.00
551.34	65535.00
551.51	65535.00
551.68	65535.00
551.84	65535.00
552.01	65535.00
552.18	65535.00
552.34	65535.00
552.51	65535.00
552.68	65535.00
552.84	65535.00
553.01	65535.00
553.18	65535.00
553.34	65535.00
553.51	65535.00
553.67	65535.00
553.84	65535.00
554.01	65535.00
554.17	65535.00
554.34	65535.00
554.51	65535.00
554.67	65535.00
554.84	65535.00
555.00	65535.00
555.17	65535.00
555.33	65535.00
555.50	65535.00
555.67	65535.00
555.83	65535.00
556.00	65535.00
556.16	65535.00
556.33	65535.00
556.50	65535.00
556.66	65535.00
556.83	65535.00
556.99	65535.00
557.16	65535.00
557.32	65535.00
557.49	65535.00
557.65	65535.00
557.82	65535.00
557.98	65535.00
558.15	65535.00
558.32	65535.00
558.48	65535.00
558.65	65535.00
558.81	65535.00
558.98	65535.00
559.14	65535.00
559.31	65535.00
559.47	65535.00
559.64	65535.00
559.80	65535.00
559.97	65535.00
560.13	65535.00
560.30	65535.00
560.46	65535.00
560.63	65535.00
560.79	65535.00
560.96	65535.00
561.12	65535.00
561.29	65535.00
561.45	65535.00
561.61	65535.00
561.78	65535.00
561.94	65535.00
562.11	65535.00
562.27	65535.00
562.44	65535.00
562.60	65535.00
562.77	65535.00
562.93	65535.00
563.10	65535.00
563.26	65535.00
563.42	65535.00
563.59	65535.00
563.75	65535.00
563.92	65535.00
564.08	65535.00
564.24	65535.00
564.41	65535.00
564.57	65535.00
564.74	65535.00
564.90	65535.00
565.07	65535.00
565.23	65535.00
565.39	65535.00
565.56	65535.00
565.72	65535.00
565.88	65535.00
566.05	65535.00
566.21	65535.00
566.38	65535.00
566.54	65535.00
566.70	65535.00
566.87	65535.00
567.03	65535.00
567.19	65535.00
567.36	65535.00
567.52	65535.00
567.68	65535.00
567.85	65535.00
568.01	65535.00
568.17	65535.00
568.34	65535.00
568.50	65535.00
568.66	65535.00
568.83	65535.00
568.99	65535.00
569.15	65535.00
569.32	65535.00
569.48	65535.00
569.64	65535.00
569.81	65535.00
569.97	65535.00
570.13	65535.00
570.30	65535.00
570.46	65535.00
570.62	65535.00
570.78	65535.00
570.95	65535.00
571.11	65535.00
571.27	65535.00
571.43	65535.00
571.60	65535.00
571.76	65535.00
571.92	65535.00
572.09	65535.00
572.25	65535.00
572.41	65535.00
572.57	65535.00
572.74	65535.00
572.90	65535.00
573.06	65535.00
573.22	65535.00
573.38	65535.00
573.55	65535.00
573.71	65535.00
573.87	65535.00
574.03	65535.00
574.20	65535.00
574.36	65535.00
574.52	65535.00
574.68	65535.00
574.84	65535.00
575.01	65535.00
575.17	65535.00
575.33	65535.00
575.49	65535.00
575.65	65535.00
575.82	65535.00
575.98	65535.00
576.14	65535.00
576.30	65535.00
576.46	65535.00
576.62	65535.00
576.79	65535.00
576.95	65535.00
577.11	65535.00
577.27	65535.00
577.43	65535.00
577.59	65535.00
577.75	65535.00
577.92	65535.00
578.08	65535.00
578.24	65535.00
578.40	65535.00
578.56	65535.00
578.72	65535.00
578.88	65535.00
579.04	65535.00
579.21	65535.00
579.37	65535.00
579.53	65535.00
579.69	65535.00
579.85	65535.00
580.01	65535.00
580.17	65535.00
580.33	65535.00
580.49	65535.00
580.65	65535.00
580.82	65535.00
580.98	65535.00
581.14	65535.00
581.30	65535.00
581.46	65535.00
581.62	65535.00
581.78	65535.00
581.94	65535.00
582.10	65535.00
582.26	65535.00
582.42	65535.00
582.58	65535.00
582.74	65535.00
582.90	65535.00
583.06	65535.00
583.22	65535.00
583.38	65535.00
583.54	65535.00
583.70	65535.00
583.86	65535.00
584.02	65535.00
584.18	65535.00
584.34	65535.00
584.50	65535.00
584.66	65535.00
584.82	65535.00
584.98	65535.00
585.14	65535.00
585.30	65535.00
585.46	65535.00
585.62	65535.00
585.78	65535.00
585.94	65535.00
586.10	65535.00
586.26	65535.00
586.42	65535.00
586.58	65535.00
586.74	65535.00
586.90	65535.00
587.06	65535.00
