SpectraSuite Data File
++++++++++++++++++++++++++++++++++++
Date: Thu Oct 24 13:21:07 EDT 2013
User: stostad
Dark Spectrum Present: No
Reference Spectrum Present: No
Number of Sampled Component Spectra: 1
Spectrometers: USB2+H05261
Integration Time (usec): 100000 (USB2+H05261)
Spectra Averaged: 1 (USB2+H05261)
Boxcar Smoothing: 0 (USB2+H05261)
Correct for Electrical Dark: No (USB2+H05261)
Strobe/Lamp Enabled: No (USB2+H05261)
Correct for Detector Non-linearity: No (USB2+H05261)
Correct for Stray Light: No (USB2+H05261)
Number of Pixels in Processed Spectrum: 2048
>>>>>Begin Processed Spectral Data<<<<<
365.73	540.66
365.92	540.66
366.12	540.66
366.32	503.22
366.52	458.74
366.72	510.24
366.91	435.34
367.11	486.83
367.31	512.58
367.51	421.30
367.70	461.09
367.90	468.11
368.10	477.47
368.30	425.98
368.49	470.45
368.69	428.32
368.89	433.00
369.09	538.32
369.28	521.94
369.48	463.43
369.68	554.71
369.87	517.26
370.07	521.94
370.27	580.45
370.47	638.97
370.66	695.14
370.86	671.73
371.06	695.14
371.25	746.63
371.45	739.61
371.65	678.76
371.84	725.57
372.04	744.29
372.24	781.74
372.44	798.12
372.63	807.48
372.83	851.96
373.03	765.36
373.22	753.65
373.42	847.27
373.62	706.84
373.81	812.17
374.01	816.85
374.21	816.85
374.40	777.06
374.60	875.36
374.79	877.70
374.99	830.89
375.19	809.83
375.38	821.53
375.58	856.64
375.78	826.21
375.97	868.34
376.17	866.00
376.37	788.76
376.56	840.25
376.76	840.25
376.95	807.48
377.15	807.48
377.35	807.48
377.54	861.32
377.74	833.23
377.93	795.78
378.13	905.79
378.33	842.59
378.52	793.44
378.72	830.89
378.91	840.25
379.11	800.46
379.31	842.59
379.50	858.98
379.70	800.46
379.89	833.23
380.09	877.70
380.28	851.96
380.48	833.23
380.68	842.59
380.87	720.88
381.07	835.57
381.26	819.19
381.46	849.61
381.65	837.91
381.85	807.48
382.04	772.38
382.24	856.64
382.43	854.30
382.63	854.30
382.83	915.15
383.02	875.36
383.22	877.70
383.41	919.83
383.61	908.13
383.80	866.00
384.00	833.23
384.19	905.79
384.39	866.00
384.58	873.02
384.78	826.21
384.97	910.47
385.17	891.74
385.36	908.13
385.56	821.53
385.75	828.55
385.95	947.92
386.14	929.19
386.34	894.08
386.53	912.81
386.72	945.58
386.92	915.15
387.11	887.06
387.31	973.66
387.50	882.38
387.70	842.59
387.89	957.28
388.09	931.53
388.28	961.96
388.48	959.62
388.67	915.15
388.86	952.60
389.06	882.38
389.25	964.30
389.45	957.28
389.64	1043.88
389.84	997.07
390.03	1036.86
390.22	973.66
390.42	987.71
390.61	1004.09
390.81	964.30
391.00	922.17
391.19	952.60
391.39	1006.43
391.58	1004.09
391.78	952.60
391.97	992.39
392.16	1013.45
392.36	1029.84
392.55	1048.56
392.75	1034.52
392.94	1104.73
393.13	1041.54
393.33	1057.92
393.52	1048.56
393.71	1025.15
393.91	947.92
394.10	990.05
394.29	1013.45
394.49	1062.60
394.68	1039.20
394.88	1048.56
395.07	1043.88
395.26	1109.41
395.46	1076.65
395.65	1067.28
395.84	1081.33
396.04	1160.91
396.23	1132.82
396.42	1046.22
396.62	1078.99
396.81	1139.84
397.00	1121.12
397.19	1090.69
397.39	1064.94
397.58	1139.84
397.77	1198.35
397.97	1146.86
398.16	1205.38
398.35	1210.06
398.55	1198.35
398.74	1203.04
398.93	1184.31
399.12	1174.95
399.32	1196.01
399.51	1132.82
399.70	1270.91
399.90	1205.38
400.09	1224.10
400.28	1221.76
400.47	1100.05
400.67	1252.19
400.86	1146.86
401.05	1275.59
401.24	1315.38
401.44	1226.44
401.63	1266.23
401.82	1151.54
402.01	1249.85
402.21	1270.91
402.40	1294.32
402.59	1280.27
402.78	1221.76
402.97	1240.48
403.17	1306.02
403.36	1322.40
403.55	1308.36
403.74	1371.55
403.93	1425.39
404.13	1383.26
404.32	1338.79
404.51	1399.64
404.70	1462.83
404.89	1373.89
405.09	1357.51
405.28	1329.42
405.47	1371.55
405.66	1394.96
405.85	1343.47
406.05	1308.36
406.24	1425.39
406.43	1455.81
406.62	1444.11
406.81	1451.13
407.00	1399.64
407.20	1439.43
407.39	1427.73
407.58	1540.07
407.77	1526.03
407.96	1507.30
408.15	1537.73
408.34	1416.02
408.54	1535.39
408.73	1458.15
408.92	1455.81
409.11	1507.30
409.30	1493.26
409.49	1593.90
409.68	1535.39
409.87	1598.59
410.07	1621.99
410.26	1643.06
410.45	1624.33
410.64	1577.52
410.83	1626.67
411.02	1666.46
411.21	1647.74
411.40	1643.06
411.59	1703.91
411.78	1762.42
411.98	1624.33
412.17	1774.13
412.36	1748.38
412.55	1706.25
412.74	1774.13
412.93	1776.47
413.12	1739.02
413.31	1811.57
413.50	1750.72
413.69	1760.08
413.88	1792.85
414.07	1834.98
414.26	1891.15
414.45	1884.13
414.64	1799.87
414.83	1909.88
415.02	1935.62
415.22	1900.52
415.41	1923.92
415.60	1867.75
415.79	1923.92
415.98	1933.28
416.17	2001.16
416.36	2050.31
416.55	1989.46
416.74	2052.65
416.93	1966.05
417.12	2087.76
417.31	1933.28
417.50	1912.22
417.69	2019.88
417.88	2012.86
418.07	2143.93
418.26	2150.95
418.45	2090.10
418.64	2087.76
418.83	2136.91
419.02	2162.66
419.21	2108.82
419.39	2108.82
419.58	2097.12
419.77	2059.67
419.96	2181.38
420.15	2260.96
420.34	2202.44
420.53	2197.76
420.72	2209.47
420.91	2260.96
421.10	2207.13
421.29	2188.40
421.48	2078.40
421.67	2284.36
421.86	2097.12
422.05	2317.13
422.24	2256.28
422.43	2392.03
422.61	2232.87
422.80	2204.78
422.99	2225.85
423.18	2307.77
423.37	2321.81
423.56	2193.08
423.75	2275.00
423.94	2211.81
424.13	2118.18
424.32	2195.42
424.50	2265.64
424.69	2293.72
424.88	2349.90
425.07	2317.13
425.26	2310.11
425.45	2282.02
425.64	2225.85
425.83	2300.75
426.01	2331.17
426.20	2338.20
426.39	2307.77
426.58	2335.85
426.77	2305.43
426.96	2345.22
427.15	2282.02
427.33	2450.54
427.52	2277.34
427.71	2356.92
427.90	2275.00
428.09	2441.18
428.28	2464.58
428.46	2487.99
428.65	2380.32
428.84	2576.93
429.03	2586.29
429.22	2403.73
429.40	2485.65
429.59	2480.97
429.78	2509.05
429.97	2382.67
430.16	2396.71
430.34	2448.20
430.53	2509.05
430.72	2506.71
430.91	2410.75
431.10	2509.05
431.28	2588.63
431.47	2555.86
431.66	2560.55
431.85	2530.12
432.03	2656.51
432.22	2738.43
432.41	2661.19
432.60	2661.19
432.79	2661.19
432.97	2647.15
433.16	2649.49
433.35	2576.93
433.54	2682.25
433.72	2717.36
433.91	2750.13
434.10	2644.81
434.28	2644.81
434.47	2754.81
434.66	2813.32
434.85	2745.45
435.03	2960.78
435.22	3056.74
435.41	3190.15
435.59	3187.81
435.78	3108.23
435.97	3033.33
436.16	2988.86
436.34	2752.47
436.53	2726.72
436.72	2827.37
436.90	2860.13
437.09	2937.37
437.28	2839.07
437.46	2836.73
437.65	2867.16
437.84	2939.71
438.02	3005.25
438.21	2771.19
438.40	2885.88
438.58	2857.79
438.77	2906.95
438.96	3087.17
439.14	2991.20
439.33	3021.63
439.52	3082.49
439.70	3159.72
439.89	3126.96
440.08	3066.10
440.26	3148.02
440.45	3080.14
440.63	3208.87
440.82	3295.47
441.01	3225.26
441.19	3335.26
441.38	3236.96
441.57	3316.54
441.75	3290.79
441.94	3269.73
442.12	3288.45
442.31	3290.79
442.50	3375.05
442.68	3353.99
442.87	3363.35
443.05	3379.73
443.24	3473.36
443.43	3325.90
443.61	3379.73
443.80	3433.57
443.98	3419.52
444.17	3302.50
444.35	3442.93
444.54	3468.67
444.73	3510.80
444.91	3442.93
445.10	3562.30
445.28	3412.50
445.47	3487.40
445.65	3513.14
445.84	3456.97
446.02	3613.79
446.21	3543.57
446.39	3524.85
446.58	3412.50
446.77	3487.40
446.95	3522.51
447.14	3499.10
447.32	3510.80
447.51	3555.27
447.69	3496.76
447.88	3515.48
448.06	3634.85
448.25	3494.42
448.43	3585.70
448.62	3536.55
448.80	3529.53
448.99	3541.23
449.17	3531.87
449.36	3520.17
449.54	3693.37
449.73	3674.64
449.91	3705.07
450.10	3653.58
450.28	3632.51
450.46	3737.84
450.65	3840.82
450.83	3604.42
451.02	3740.18
451.20	3735.50
451.39	3758.90
451.57	3698.05
451.76	3761.24
451.94	3691.02
452.13	3826.78
452.31	3885.29
452.49	3801.03
452.68	3866.56
452.86	3726.13
453.05	3836.14
453.23	3758.90
453.42	3756.56
453.60	3882.95
453.78	3906.35
453.97	3786.99
454.15	3889.97
454.34	3861.88
454.52	3866.56
454.70	3974.23
454.89	3857.20
455.07	3882.95
455.26	4128.70
455.44	3967.21
455.62	3868.91
455.81	3927.42
455.99	3976.57
456.17	4077.21
456.36	4100.62
456.54	4166.15
456.73	4098.28
456.91	4114.66
457.09	4049.13
457.28	4177.86
457.46	4166.15
457.64	4217.65
457.83	4353.40
458.01	4224.67
458.19	4227.01
458.38	4266.80
458.56	4177.86
458.74	4198.92
458.93	4252.75
459.11	4311.27
459.29	4290.20
459.48	4262.12
459.66	4351.06
459.84	4304.25
460.03	4278.50
460.21	4402.55
460.39	4386.16
460.57	4423.61
460.76	4348.72
460.94	4341.69
461.12	4437.66
461.31	4411.91
461.49	4348.72
461.67	4432.97
461.85	4540.64
462.04	4381.48
462.22	4903.42
462.40	4648.30
462.59	4542.98
462.77	4547.66
462.95	4636.60
463.13	4521.92
463.32	4465.74
463.50	4606.17
463.68	4610.86
463.86	4788.74
464.05	4638.94
464.23	4561.70
464.41	4671.71
464.59	4505.53
464.78	4669.37
464.96	4891.72
465.14	4652.98
465.32	4734.90
465.50	4788.74
465.69	4643.62
465.87	4711.50
466.05	4674.05
466.23	4720.86
466.41	4631.92
466.60	4713.84
466.78	4688.09
466.96	4842.57
467.14	4718.52
467.32	4922.15
467.51	4875.34
467.69	4833.21
467.87	5027.47
468.05	4912.78
468.23	4819.16
468.41	4959.60
468.60	4968.96
468.78	4887.04
468.96	4957.25
469.14	5004.07
469.32	5001.72
469.50	4903.42
469.69	4882.36
469.87	5130.45
470.05	5027.47
470.23	5170.24
470.41	4968.96
470.59	4978.32
470.77	5027.47
470.95	5193.65
471.14	5228.76
471.32	5090.67
471.50	5144.50
471.68	5200.67
471.86	5149.18
472.04	5210.03
472.22	5320.04
472.40	5186.63
472.58	5322.38
472.77	5298.97
472.95	5383.23
473.13	5366.85
473.31	5252.16
473.49	5310.68
473.67	5397.28
473.85	5500.26
474.03	5563.45
474.21	5406.64
474.39	5455.79
474.57	5537.71
474.75	5626.65
474.93	5687.50
475.12	5624.31
475.30	5631.33
475.48	5600.90
475.66	5666.44
475.84	5757.72
476.02	5788.14
476.20	5717.93
476.38	5809.21
476.56	5973.05
476.74	6001.13
476.92	5989.43
477.10	5806.87
477.28	6038.58
477.46	6134.54
477.64	5905.17
477.82	6333.49
478.00	6303.06
478.18	6242.21
478.36	6319.45
478.54	6359.24
478.72	6534.78
478.90	6455.20
479.08	6626.06
479.26	6436.47
479.44	6722.02
479.62	6733.72
479.80	6663.51
479.98	6722.02
480.16	6960.75
480.34	6677.55
480.52	6832.02
480.70	6825.00
480.88	6993.52
481.06	6862.45
481.24	6909.26
481.41	7030.97
481.59	7056.72
481.77	7150.34
481.95	7353.96
482.13	7332.90
482.31	7304.81
482.49	7426.52
482.67	7206.51
482.85	7536.52
483.03	7653.55
483.21	7536.52
483.39	7634.83
483.57	7667.60
483.74	7665.25
483.92	7892.29
484.10	7885.26
484.28	7955.48
484.46	8112.30
484.64	8100.59
484.82	7953.14
485.00	8238.69
485.18	8236.35
485.35	8234.00
485.53	8051.44
485.71	8189.53
485.89	8477.42
486.07	8423.59
486.25	8538.27
486.43	8610.83
486.61	8587.43
486.78	8535.93
486.96	8709.13
487.14	8826.16
487.32	8828.50
487.50	9034.47
487.68	9142.13
487.85	9249.80
488.03	9179.58
488.21	9427.68
488.39	9270.86
488.57	9298.95
488.75	9336.40
488.92	9451.08
489.10	9490.87
489.28	9694.50
489.46	9715.56
489.64	9528.32
489.81	9907.49
489.99	9776.42
490.17	9888.76
490.35	10319.42
490.53	10085.37
490.70	10263.25
490.88	10050.26
491.06	10267.93
491.24	10490.28
491.41	10415.38
491.59	10263.25
491.77	10326.44
491.95	10480.92
492.13	10565.18
492.30	10740.72
492.48	10616.67
492.66	10836.68
492.84	10668.16
493.01	10794.55
493.19	10920.94
493.37	10855.40
493.54	10911.58
493.72	11063.71
493.90	10827.32
494.08	11328.19
494.25	11080.10
494.43	11290.74
494.61	11468.62
494.79	11503.73
494.96	11389.05
495.14	11454.58
495.32	11529.48
495.49	11817.36
495.67	11702.68
495.85	11712.04
496.02	11838.43
496.20	11749.49
496.38	11812.68
496.55	11822.05
496.73	11995.25
496.91	12020.99
497.09	12315.90
497.26	12074.82
497.44	12238.66
497.62	12088.87
497.79	12568.68
497.97	12365.05
498.14	12746.56
498.32	12528.89
498.50	12688.04
498.67	12528.89
498.85	12657.62
499.03	12776.98
499.20	12788.69
499.38	12891.67
499.56	12816.77
499.73	12931.46
499.91	13069.55
500.08	12936.14
500.26	12980.61
500.44	13043.81
500.61	13013.38
500.79	13109.34
500.97	13418.29
501.14	13406.59
501.32	13376.16
501.49	13542.34
501.67	13357.44
501.84	13371.48
502.02	13640.64
502.20	13631.28
502.37	13544.68
502.55	13481.49
502.72	13678.09
502.90	13745.97
503.07	13444.04
503.25	13762.35
503.43	13949.59
503.60	13947.25
503.78	13891.08
503.95	13806.82
504.13	13888.74
504.30	13790.44
504.48	13898.10
504.65	14141.52
504.83	14352.16
505.01	14560.47
505.18	14473.87
505.36	14499.62
505.53	14310.04
505.71	14429.40
505.88	14389.61
506.06	14274.93
506.23	14380.25
506.41	14408.34
506.58	14480.89
506.76	14504.30
506.93	14436.42
507.11	14836.66
507.28	14902.19
507.46	14616.65
507.63	14892.83
507.81	14590.90
507.98	14492.60
508.16	14663.46
508.33	14941.98
508.50	15257.95
508.68	15087.09
508.85	15201.78
509.03	15171.35
509.20	15173.69
509.38	15152.63
509.55	15325.83
509.73	15578.61
509.90	15346.89
510.08	15470.94
510.25	15370.30
510.42	15536.48
510.60	15606.69
510.77	15410.09
510.95	15550.52
511.12	15456.90
511.30	15712.02
511.47	15969.48
511.64	15695.63
511.82	16030.33
511.99	15917.98
512.17	15775.21
512.34	15946.07
512.51	16315.87
512.69	16161.40
512.86	16210.55
513.04	16222.25
513.21	16252.68
513.38	15999.90
513.56	16149.70
513.73	16238.64
513.90	16276.09
514.08	16393.11
514.25	16545.25
514.43	16308.85
514.60	16465.67
514.77	16540.57
514.95	16563.97
515.12	16472.69
515.29	16690.36
515.47	16966.54
515.64	16723.13
515.81	16947.82
515.99	16788.66
516.16	16779.30
516.33	16875.26
516.51	16950.16
516.68	16879.94
516.85	16856.54
517.03	17039.10
517.20	17085.91
517.37	16975.91
517.54	17151.45
517.72	16996.97
517.89	17104.64
518.06	17036.76
518.24	17415.93
518.41	17146.76
518.58	17179.53
518.75	17319.96
518.93	17280.18
519.10	17287.20
519.27	17355.07
519.45	17408.90
519.62	17635.94
519.79	17628.92
519.96	17598.49
520.14	17341.03
520.31	17451.03
520.48	17717.86
520.65	17511.89
520.83	17933.18
521.00	17968.29
521.17	17783.39
521.34	17659.34
521.52	18003.40
521.69	17764.67
521.86	17907.44
522.03	17987.02
522.20	18235.11
522.38	18024.47
522.55	18160.22
522.72	18087.66
522.89	18155.54
523.07	18031.49
523.24	18008.08
523.41	18328.74
523.58	18169.58
523.75	18405.97
523.92	18473.85
524.10	18466.83
524.27	18703.22
524.44	18314.69
524.61	18471.51
524.78	18792.16
524.96	18534.70
525.13	18960.68
525.30	18661.09
525.47	18567.47
525.64	19101.11
525.81	18714.92
525.98	18614.28
526.16	18548.75
526.33	18361.50
526.50	19096.43
526.67	18621.30
526.84	18967.70
527.01	19084.73
527.18	18991.11
527.36	19136.22
527.53	19051.96
527.70	19222.82
527.87	18876.42
528.04	19164.31
528.21	19204.10
528.38	19166.65
528.55	19353.89
528.72	19173.67
528.89	19183.03
529.07	19152.60
529.24	18970.04
529.41	18906.85
529.58	19288.35
529.75	19356.23
529.92	19543.47
530.09	19328.14
530.26	19403.04
530.43	19435.81
530.60	19424.11
530.77	19346.87
530.94	19613.69
531.11	19630.07
531.28	19695.61
531.46	19655.82
531.63	19833.70
531.80	19592.62
531.97	19819.66
532.14	19564.54
532.31	19737.74
532.48	19995.20
532.65	19704.97
532.82	19770.51
532.99	19711.99
533.16	19861.79
533.33	19852.42
533.50	20233.93
533.67	19880.51
533.84	19747.10
534.01	20023.28
534.18	19887.53
534.35	20397.77
534.52	19866.47
534.69	20463.30
534.86	20343.94
535.03	19920.30
535.20	19960.09
535.37	20308.83
535.54	20339.26
535.71	20381.38
535.88	20446.92
536.05	20718.42
536.22	20313.51
536.38	20325.21
536.55	20252.66
536.72	20205.84
536.89	20723.10
537.06	20503.09
537.23	20786.30
537.40	20521.82
537.57	20608.42
537.74	20629.48
537.91	20704.38
538.08	20842.47
538.25	20919.71
538.42	20837.79
538.59	20835.45
538.75	20601.40
538.92	21188.87
539.09	20875.24
539.26	20739.49
539.43	20659.91
539.60	21095.25
539.77	20748.85
539.94	21336.32
540.11	21135.04
540.28	21273.13
540.44	21378.45
540.61	21151.42
540.78	21142.06
540.95	21301.22
541.12	21371.43
541.29	21486.12
541.46	21685.06
541.62	21598.46
541.79	21865.28
541.96	21736.56
542.13	21832.52
542.30	21867.63
542.47	21965.93
542.63	21916.78
542.80	21994.01
542.97	21982.31
543.14	22501.91
543.31	22225.73
543.48	22118.06
543.64	22258.49
543.81	21848.90
543.98	21961.25
544.15	21797.41
544.32	22221.05
544.48	22272.54
544.65	22230.41
544.82	22129.77
544.99	22125.08
545.16	22258.49
545.32	22483.19
545.49	22822.56
545.66	23126.83
545.83	23447.49
546.00	23276.63
546.16	23080.02
546.33	22649.36
546.50	22644.68
546.67	22260.84
546.83	21958.91
547.00	22286.58
547.17	22279.56
547.34	22267.86
547.50	22057.21
547.67	22501.91
547.84	22478.50
548.00	22625.96
548.17	22731.28
548.34	22471.48
548.51	22581.49
548.67	22471.48
548.84	22614.26
549.01	22401.27
549.18	22602.55
549.34	22705.54
549.51	22616.60
549.68	22647.02
549.84	22497.23
550.01	22274.88
550.18	22389.56
550.34	21998.70
550.51	22682.13
550.68	22808.52
550.84	22508.93
551.01	22424.67
551.18	22675.11
551.34	22251.47
551.51	22522.98
551.68	22494.89
551.84	22511.27
552.01	22324.03
552.18	22941.93
552.34	22520.63
552.51	22623.62
552.68	22555.74
552.84	22780.43
553.01	22834.27
553.18	22909.16
553.34	22757.03
553.51	22801.50
553.67	23164.28
553.84	23168.96
554.01	22841.29
554.17	22876.40
554.34	22822.56
554.51	22724.26
554.67	23168.96
554.84	23030.87
555.00	22714.90
555.17	23101.09
555.33	22991.08
555.50	22984.06
555.67	22937.25
555.83	23117.47
556.00	23021.51
556.16	23267.27
556.33	23089.38
556.50	22700.86
556.66	22883.42
556.83	23056.62
556.99	23030.87
557.16	23007.47
557.32	23131.51
557.49	23147.90
557.65	22885.76
557.82	23398.34
557.98	22986.40
558.15	23070.66
558.32	23253.22
558.48	22925.55
558.65	23424.08
558.81	23349.18
558.98	23098.75
559.14	23175.98
559.31	23124.49
559.47	23496.64
559.64	23398.34
559.80	23520.04
559.97	23283.65
560.13	23187.69
560.30	23197.05
560.46	23129.17
560.63	23393.65
560.79	23693.24
560.96	23672.18
561.12	23419.40
561.29	23374.93
561.45	23377.27
561.61	23538.77
561.78	23627.71
561.94	23426.42
562.11	23613.66
562.27	23676.86
562.44	23592.60
562.60	23557.49
562.77	23742.39
562.93	23213.43
563.10	23644.09
563.26	23316.42
563.42	23302.37
563.59	23978.79
563.75	23496.64
563.92	23992.83
564.08	23770.48
564.24	23564.51
564.41	23529.41
564.57	23424.08
564.74	23814.95
564.90	23506.00
565.07	23608.98
565.23	23903.89
565.39	23821.97
565.56	23927.30
565.72	23435.78
565.88	23953.04
566.05	23489.62
566.21	23489.62
566.38	23559.83
566.54	23740.05
566.70	23718.99
566.87	23758.78
567.03	23618.35
567.19	24058.37
567.36	23510.68
567.52	23864.10
567.68	23850.06
567.85	23396.00
568.01	23805.59
568.17	23669.84
568.34	24177.73
568.50	23868.78
568.66	23899.21
568.83	23557.49
568.99	23534.09
569.15	23751.76
569.32	23939.00
569.48	23749.42
569.64	23861.76
569.81	23410.04
569.97	23733.03
570.13	23903.89
570.30	23655.79
570.46	24121.56
570.62	23882.83
570.78	23957.72
570.95	23473.23
571.11	24217.52
571.27	23880.49
571.43	24102.84
571.60	23728.35
571.76	24095.82
571.92	23775.16
572.09	23580.90
572.25	24041.98
572.41	24407.11
572.57	23866.44
572.74	24109.86
572.90	24198.80
573.06	24182.42
573.22	23908.57
573.38	23983.47
573.55	24077.09
573.71	24119.22
573.87	24151.99
574.03	24121.56
574.20	24013.90
574.36	24044.32
574.52	23700.26
574.68	23969.43
574.84	24133.26
575.01	23969.43
575.17	24119.22
575.33	24243.27
575.49	24177.73
575.65	24086.45
575.82	24154.33
575.98	23992.83
576.14	24112.20
576.30	24474.98
576.46	24109.86
576.62	24123.90
576.79	23929.64
576.95	24011.56
577.11	24254.97
577.27	24144.97
577.43	24161.35
577.59	23915.59
577.75	24009.22
577.92	24105.18
578.08	23946.02
578.24	24112.20
578.40	24247.95
578.56	24095.82
578.72	24205.82
578.88	24301.78
579.04	24416.47
579.21	24170.71
579.37	24336.89
579.53	24493.71
579.69	23791.55
579.85	24072.41
580.01	24217.52
580.17	24147.31
580.33	23737.71
580.49	24114.54
580.65	24360.30
580.82	24081.77
580.98	23924.96
581.14	24187.10
581.30	24105.18
581.46	24276.04
581.62	23990.49
581.78	24297.10
581.94	23838.36
582.10	23917.93
582.26	24432.85
582.42	24383.70
582.58	24170.71
582.74	24170.71
582.90	24056.03
583.06	24180.07
583.22	24245.61
583.38	24425.83
583.54	24287.74
583.70	24016.24
583.86	24133.26
584.02	24093.47
584.18	24208.16
584.34	24093.47
584.50	24025.60
584.66	24229.23
584.82	24201.14
584.98	24266.67
585.14	24058.37
585.30	24463.28
585.46	24201.14
585.62	24182.42
585.78	24395.40
585.94	24299.44
586.10	24231.57
586.26	24439.87
586.42	24161.35
586.58	24013.90
586.74	24161.35
586.90	24294.76
587.06	24086.45
587.22	24491.37
587.38	24231.57
587.54	24524.13
587.70	24489.03
587.86	24552.22
588.02	24367.32
588.18	24521.79
588.34	24514.77
588.49	24524.13
588.65	24243.27
588.81	24404.77
588.97	24772.23
589.13	24418.81
589.29	24339.23
589.45	24105.18
589.61	24114.54
589.77	24606.05
589.93	24400.08
590.08	24493.71
590.24	24636.48
590.40	24269.01
590.56	24709.04
590.72	24453.92
590.88	24205.82
