SpectraSuite Data File
++++++++++++++++++++++++++++++++++++
Date: Thu Oct 24 13:20:58 EDT 2013
User: stostad
Dark Spectrum Present: No
Reference Spectrum Present: No
Number of Sampled Component Spectra: 1
Spectrometers: USB2+H05261
Integration Time (usec): 100000 (USB2+H05261)
Spectra Averaged: 1 (USB2+H05261)
Boxcar Smoothing: 0 (USB2+H05261)
Correct for Electrical Dark: No (USB2+H05261)
Strobe/Lamp Enabled: No (USB2+H05261)
Correct for Detector Non-linearity: No (USB2+H05261)
Correct for Stray Light: No (USB2+H05261)
Number of Pixels in Processed Spectrum: 2048
>>>>>Begin Processed Spectral Data<<<<<
365.73	615.56
365.92	615.56
366.12	615.56
366.32	475.13
366.52	458.74
366.72	458.74
366.91	461.09
367.11	449.38
367.31	493.85
367.51	566.41
367.70	543.00
367.90	470.45
368.10	500.87
368.30	489.17
368.49	486.83
368.69	477.47
368.89	458.74
369.09	526.62
369.28	540.66
369.48	447.04
369.68	496.19
369.87	526.62
370.07	472.79
370.27	517.26
370.47	468.11
370.66	585.13
370.86	587.47
371.06	622.58
371.25	573.43
371.45	629.60
371.65	615.56
371.84	561.73
372.04	613.22
372.24	685.78
372.44	660.03
372.63	634.29
372.83	617.90
373.03	648.33
373.22	643.65
373.42	573.43
373.62	592.16
373.81	631.94
374.01	655.35
374.21	709.18
374.40	627.26
374.60	557.05
374.79	627.26
374.99	596.84
375.19	685.78
375.38	638.97
375.58	641.31
375.78	582.79
375.97	662.37
376.17	753.65
376.37	564.07
376.56	615.56
376.76	662.37
376.95	634.29
377.15	669.39
377.35	592.16
377.54	634.29
377.74	528.96
377.93	645.99
378.13	631.94
378.33	589.82
378.52	608.54
378.72	615.56
378.91	615.56
379.11	692.80
379.31	573.43
379.50	582.79
379.70	678.76
379.89	615.56
380.09	599.18
380.28	594.50
380.48	631.94
380.68	521.94
380.87	561.73
381.07	575.77
381.26	622.58
381.46	608.54
381.65	627.26
381.85	624.92
382.04	575.77
382.24	596.84
382.43	582.79
382.63	650.67
382.83	571.09
383.02	629.60
383.22	634.29
383.41	636.63
383.61	610.88
383.80	697.48
384.00	564.07
384.19	613.22
384.39	638.97
384.58	580.45
384.78	676.41
384.97	653.01
385.17	601.52
385.36	664.71
385.56	631.94
385.75	615.56
385.95	669.39
386.14	631.94
386.34	564.07
386.53	613.22
386.72	622.58
386.92	526.62
387.11	636.63
387.31	674.07
387.50	608.54
387.70	535.98
387.89	587.47
388.09	613.22
388.28	645.99
388.48	638.97
388.67	683.44
388.86	580.45
389.06	610.88
389.25	629.60
389.45	629.60
389.64	631.94
389.84	648.33
390.03	653.01
390.22	608.54
390.42	552.37
390.61	627.26
390.81	624.92
391.00	615.56
391.19	620.24
391.39	645.99
391.58	610.88
391.78	678.76
391.97	631.94
392.16	603.86
392.36	629.60
392.55	620.24
392.75	634.29
392.94	613.22
393.13	599.18
393.33	690.46
393.52	575.77
393.71	645.99
393.91	615.56
394.10	575.77
394.29	627.26
394.49	650.67
394.68	641.31
394.88	643.65
395.07	620.24
395.26	622.58
395.46	578.11
395.65	580.45
395.84	627.26
396.04	613.22
396.23	608.54
396.42	561.73
396.62	655.35
396.81	596.84
397.00	582.79
397.19	603.86
397.39	624.92
397.58	685.78
397.77	629.60
397.97	697.48
398.16	594.50
398.35	638.97
398.55	622.58
398.74	737.27
398.93	624.92
399.12	615.56
399.32	613.22
399.51	641.31
399.70	643.65
399.90	641.31
400.09	521.94
400.28	543.00
400.47	603.86
400.67	627.26
400.86	575.77
401.05	645.99
401.24	657.69
401.44	566.41
401.63	557.05
401.82	657.69
402.01	622.58
402.21	636.63
402.40	615.56
402.59	608.54
402.78	667.05
402.97	631.94
403.17	650.67
403.36	636.63
403.55	587.47
403.74	674.07
403.93	594.50
404.13	674.07
404.32	760.67
404.51	622.58
404.70	699.82
404.89	706.84
405.09	667.05
405.28	676.41
405.47	662.37
405.66	622.58
405.85	638.97
406.05	655.35
406.24	582.79
406.43	631.94
406.62	643.65
406.81	702.16
407.00	683.44
407.20	636.63
407.39	519.60
407.58	594.50
407.77	660.03
407.96	634.29
408.15	692.80
408.34	685.78
408.54	648.33
408.73	517.26
408.92	636.63
409.11	667.05
409.30	608.54
409.49	641.31
409.68	671.73
409.87	627.26
410.07	653.01
410.26	608.54
410.45	615.56
410.64	638.97
410.83	573.43
411.02	599.18
411.21	664.71
411.40	594.50
411.59	648.33
411.78	660.03
411.98	636.63
412.17	631.94
412.36	685.78
412.55	599.18
412.74	664.71
412.93	627.26
413.12	641.31
413.31	711.52
413.50	634.29
413.69	645.99
413.88	688.12
414.07	627.26
414.26	592.16
414.45	664.71
414.64	587.47
414.83	624.92
415.02	622.58
415.22	557.05
415.41	601.52
415.60	645.99
415.79	578.11
415.98	622.58
416.17	580.45
416.36	648.33
416.55	561.73
416.74	606.20
416.93	613.22
417.12	589.82
417.31	624.92
417.50	566.41
417.69	615.56
417.88	620.24
418.07	620.24
418.26	587.47
418.45	664.71
418.64	653.01
418.83	681.10
419.02	627.26
419.21	582.79
419.39	645.99
419.58	622.58
419.77	713.86
419.96	674.07
420.15	648.33
420.34	561.73
420.53	606.20
420.72	648.33
420.91	613.22
421.10	638.97
421.29	585.13
421.48	653.01
421.67	657.69
421.86	629.60
422.05	688.12
422.24	655.35
422.43	638.97
422.61	617.90
422.80	709.18
422.99	582.79
423.18	669.39
423.37	702.16
423.56	596.84
423.75	653.01
423.94	732.59
424.13	589.82
424.32	650.67
424.50	716.20
424.69	662.37
424.88	643.65
425.07	699.82
425.26	746.63
425.45	704.50
425.64	573.43
425.83	634.29
426.01	631.94
426.20	627.26
426.39	664.71
426.58	697.48
426.77	692.80
426.96	713.86
427.15	688.12
427.33	615.56
427.52	624.92
427.71	585.13
427.90	613.22
428.09	655.35
428.28	678.76
428.46	641.31
428.65	622.58
428.84	578.11
429.03	683.44
429.22	653.01
429.40	699.82
429.59	622.58
429.78	592.16
429.97	571.09
430.16	589.82
430.34	610.88
430.53	624.92
430.72	641.31
430.91	620.24
431.10	650.67
431.28	650.67
431.47	699.82
431.66	629.60
431.85	655.35
432.03	627.26
432.22	657.69
432.41	669.39
432.60	540.66
432.79	603.86
432.97	571.09
433.16	617.90
433.35	662.37
433.54	671.73
433.72	702.16
433.91	608.54
434.10	613.22
434.28	671.73
434.47	657.69
434.66	681.10
434.85	744.29
435.03	835.57
435.22	1034.52
435.41	1107.07
435.59	1062.60
435.78	945.58
435.97	819.19
436.16	793.44
436.34	667.05
436.53	638.97
436.72	685.78
436.90	641.31
437.09	727.91
437.28	657.69
437.46	678.76
437.65	559.39
437.84	620.24
438.02	634.29
438.21	627.26
438.40	627.26
438.58	671.73
438.77	692.80
438.96	688.12
439.14	638.97
439.33	676.41
439.52	606.20
439.70	648.33
439.89	660.03
440.08	641.31
440.26	655.35
440.45	648.33
440.63	650.67
440.82	676.41
441.01	732.59
441.19	617.90
441.38	627.26
441.57	606.20
441.75	643.65
441.94	643.65
442.12	601.52
442.31	685.78
442.50	613.22
442.68	697.48
442.87	617.90
443.05	631.94
443.24	723.23
443.43	678.76
443.61	692.80
443.80	662.37
443.98	627.26
444.17	631.94
444.35	669.39
444.54	627.26
444.73	634.29
444.91	692.80
445.10	620.24
445.28	667.05
445.47	641.31
445.65	674.07
445.84	631.94
446.02	629.60
446.21	660.03
446.39	601.52
446.58	638.97
446.77	671.73
446.95	683.44
447.14	603.86
447.32	603.86
447.51	601.52
447.69	599.18
447.88	622.58
448.06	645.99
448.25	620.24
448.43	660.03
448.62	657.69
448.80	650.67
448.99	596.84
449.17	599.18
449.36	573.43
449.54	645.99
449.73	671.73
449.91	683.44
450.10	603.86
450.28	662.37
450.46	592.16
450.65	655.35
450.83	596.84
451.02	606.20
451.20	622.58
451.39	624.92
451.57	664.71
451.76	622.58
451.94	660.03
452.13	669.39
452.31	699.82
452.49	641.31
452.68	699.82
452.86	655.35
453.05	660.03
453.23	592.16
453.42	664.71
453.60	678.76
453.78	617.90
453.97	606.20
454.15	631.94
454.34	638.97
454.52	650.67
454.70	655.35
454.89	631.94
455.07	587.47
455.26	636.63
455.44	594.50
455.62	596.84
455.81	631.94
455.99	622.58
456.17	636.63
456.36	690.46
456.54	603.86
456.73	608.54
456.91	655.35
457.09	645.99
457.28	678.76
457.46	594.50
457.64	669.39
457.83	655.35
458.01	585.13
458.19	643.65
458.38	645.99
458.56	613.22
458.74	631.94
458.93	669.39
459.11	688.12
459.29	594.50
459.48	636.63
459.66	681.10
459.84	608.54
460.03	739.61
460.21	638.97
460.39	592.16
460.57	676.41
460.76	629.60
460.94	622.58
461.12	648.33
461.31	709.18
461.49	650.67
461.67	657.69
461.85	622.58
462.04	608.54
462.22	961.96
462.40	655.35
462.59	599.18
462.77	664.71
462.95	676.41
463.13	608.54
463.32	636.63
463.50	589.82
463.68	589.82
463.86	685.78
464.05	601.52
464.23	704.50
464.41	638.97
464.59	664.71
464.78	657.69
464.96	629.60
465.14	627.26
465.32	608.54
465.50	580.45
465.69	645.99
465.87	685.78
466.05	624.92
466.23	678.76
466.41	723.23
466.60	634.29
466.78	699.82
466.96	683.44
467.14	685.78
467.32	671.73
467.51	629.60
467.69	667.05
467.87	706.84
468.05	613.22
468.23	681.10
468.41	634.29
468.60	650.67
468.78	695.14
468.96	599.18
469.14	671.73
469.32	674.07
469.50	638.97
469.69	641.31
469.87	620.24
470.05	704.50
470.23	641.31
470.41	699.82
470.59	582.79
470.77	690.46
470.95	620.24
471.14	685.78
471.32	667.05
471.50	617.90
471.68	627.26
471.86	627.26
472.04	641.31
472.22	678.76
472.40	662.37
472.58	620.24
472.77	573.43
472.95	664.71
473.13	634.29
473.31	676.41
473.49	624.92
473.67	613.22
473.85	669.39
474.03	643.65
474.21	667.05
474.39	606.20
474.57	660.03
474.75	629.60
474.93	582.79
475.12	596.84
475.30	669.39
475.48	690.46
475.66	624.92
475.84	601.52
476.02	521.94
476.20	627.26
476.38	599.18
476.56	674.07
476.74	734.93
476.92	613.22
477.10	660.03
477.28	613.22
477.46	674.07
477.64	741.95
477.82	620.24
478.00	657.69
478.18	648.33
478.36	568.75
478.54	636.63
478.72	631.94
478.90	660.03
479.08	671.73
479.26	662.37
479.44	610.88
479.62	667.05
479.80	608.54
479.98	685.78
480.16	608.54
480.34	688.12
480.52	589.82
480.70	692.80
480.88	594.50
481.06	657.69
481.24	613.22
481.41	671.73
481.59	606.20
481.77	580.45
481.95	603.86
482.13	704.50
482.31	674.07
482.49	674.07
482.67	650.67
482.85	667.05
483.03	627.26
483.21	662.37
483.39	662.37
483.57	664.71
483.74	734.93
483.92	674.07
484.10	723.23
484.28	695.14
484.46	760.67
484.64	720.88
484.82	643.65
485.00	674.07
485.18	748.97
485.35	685.78
485.53	702.16
485.71	774.72
485.89	734.93
486.07	706.84
486.25	758.33
486.43	732.59
486.61	746.63
486.78	741.95
486.96	667.05
487.14	741.95
487.32	690.46
487.50	737.27
487.68	737.27
487.85	699.82
488.03	716.20
488.21	835.57
488.39	725.57
488.57	713.86
488.75	711.52
488.92	760.67
489.10	660.03
489.28	739.61
489.46	723.23
489.64	660.03
489.81	643.65
489.99	800.46
490.17	692.80
490.35	791.10
490.53	683.44
490.70	716.20
490.88	664.71
491.06	734.93
491.24	765.36
491.41	774.72
491.59	699.82
491.77	676.41
491.95	634.29
492.13	683.44
492.30	732.59
492.48	688.12
492.66	664.71
492.84	643.65
493.01	709.18
493.19	669.39
493.37	660.03
493.54	758.33
493.72	702.16
493.90	662.37
494.08	681.10
494.25	650.67
494.43	674.07
494.61	634.29
494.79	685.78
494.96	692.80
495.14	727.91
495.32	711.52
495.49	699.82
495.67	697.48
495.85	645.99
496.02	662.37
496.20	697.48
496.38	718.54
496.55	657.69
496.73	692.80
496.91	667.05
497.09	664.71
497.26	627.26
497.44	638.97
497.62	737.27
497.79	669.39
497.97	690.46
498.14	702.16
498.32	634.29
498.50	744.29
498.67	720.88
498.85	688.12
499.03	608.54
499.20	629.60
499.38	676.41
499.56	620.24
499.73	629.60
499.91	662.37
500.08	664.71
500.26	692.80
500.44	688.12
500.61	667.05
500.79	627.26
500.97	653.01
501.14	709.18
501.32	617.90
501.49	653.01
501.67	678.76
501.84	718.54
502.02	648.33
502.20	683.44
502.37	650.67
502.55	667.05
502.72	578.11
502.90	709.18
503.07	681.10
503.25	606.20
503.43	554.71
503.60	603.86
503.78	662.37
503.95	606.20
504.13	681.10
504.30	615.56
504.48	648.33
504.65	620.24
504.83	650.67
505.01	610.88
505.18	690.46
505.36	699.82
505.53	662.37
505.71	571.09
505.88	599.18
506.06	645.99
506.23	629.60
506.41	610.88
506.58	624.92
506.76	634.29
506.93	664.71
507.11	667.05
507.28	678.76
507.46	648.33
507.63	641.31
507.81	720.88
507.98	634.29
508.16	624.92
508.33	650.67
508.50	678.76
508.68	655.35
508.85	608.54
509.03	709.18
509.20	622.58
509.38	678.76
509.55	631.94
509.73	645.99
509.90	634.29
510.08	650.67
510.25	662.37
510.42	657.69
510.60	795.78
510.77	634.29
510.95	695.14
511.12	662.37
511.30	648.33
511.47	660.03
511.64	645.99
511.82	627.26
511.99	737.27
512.17	737.27
512.34	627.26
512.51	622.58
512.69	641.31
512.86	706.84
513.04	688.12
513.21	664.71
513.38	617.90
513.56	723.23
513.73	662.37
513.90	617.90
514.08	634.29
514.25	603.86
514.43	629.60
514.60	653.01
514.77	643.65
514.95	664.71
515.12	599.18
515.29	624.92
515.47	711.52
515.64	617.90
515.81	671.73
515.99	653.01
516.16	678.76
516.33	676.41
516.51	699.82
516.68	613.22
516.85	685.78
517.03	678.76
517.20	634.29
517.37	655.35
517.54	615.56
517.72	664.71
517.89	629.60
518.06	657.69
518.24	674.07
518.41	638.97
518.58	667.05
518.75	741.95
518.93	610.88
519.10	678.76
519.27	620.24
519.45	610.88
519.62	608.54
519.79	589.82
519.96	564.07
520.14	613.22
520.31	683.44
520.48	702.16
520.65	582.79
520.83	599.18
521.00	678.76
521.17	685.78
521.34	753.65
521.52	643.65
521.69	688.12
521.86	608.54
522.03	643.65
522.20	685.78
522.38	681.10
522.55	629.60
522.72	573.43
522.89	645.99
523.07	727.91
523.24	645.99
523.41	603.86
523.58	657.69
523.75	601.52
523.92	648.33
524.10	676.41
524.27	636.63
524.44	667.05
524.61	660.03
524.78	641.31
524.96	674.07
525.13	709.18
525.30	653.01
525.47	674.07
525.64	655.35
525.81	601.52
525.98	610.88
526.16	627.26
526.33	641.31
526.50	627.26
526.67	662.37
526.84	636.63
527.01	655.35
527.18	613.22
527.36	608.54
527.53	629.60
527.70	662.37
527.87	641.31
528.04	678.76
528.21	631.94
528.38	585.13
528.55	653.01
528.72	662.37
528.89	662.37
529.07	638.97
529.24	615.56
529.41	681.10
529.58	631.94
529.75	601.52
529.92	650.67
530.09	631.94
530.26	641.31
530.43	730.25
530.60	688.12
530.77	695.14
530.94	617.90
531.11	620.24
531.28	629.60
531.46	641.31
531.63	711.52
531.80	688.12
531.97	660.03
532.14	695.14
532.31	702.16
532.48	711.52
532.65	657.69
532.82	713.86
532.99	653.01
533.16	678.76
533.33	648.33
533.50	713.86
533.67	681.10
533.84	725.57
534.01	683.44
534.18	650.67
534.35	685.78
534.52	718.54
534.69	669.39
534.86	592.16
535.03	629.60
535.20	634.29
535.37	713.86
535.54	697.48
535.71	772.38
535.88	653.01
536.05	664.71
536.22	744.29
536.38	685.78
536.55	617.90
536.72	692.80
536.89	695.14
537.06	706.84
537.23	662.37
537.40	697.48
537.57	732.59
537.74	858.98
537.91	823.87
538.08	702.16
538.25	748.97
538.42	760.67
538.59	758.33
538.75	809.83
538.92	866.00
539.09	748.97
539.26	777.06
539.43	770.04
539.60	816.85
539.77	816.85
539.94	922.17
540.11	910.47
540.28	922.17
540.44	954.94
540.61	980.68
540.78	1039.20
540.95	1078.99
541.12	1130.48
541.29	1142.18
541.46	1320.06
541.62	1306.02
541.79	1303.68
541.96	1242.82
542.13	1245.16
542.30	1306.02
542.47	1181.97
542.63	1203.04
542.80	1266.23
542.97	1240.48
543.14	1212.40
543.31	1125.80
543.48	1114.10
543.64	1170.27
543.81	1228.78
543.98	1217.08
544.15	1196.01
544.32	1207.72
544.48	1214.74
544.65	1240.48
544.82	1123.46
544.99	1172.61
545.16	1146.86
545.32	1240.48
545.49	1451.13
545.66	1947.33
545.83	2242.23
546.00	1966.05
546.16	1664.12
546.33	1467.52
546.50	1301.34
546.67	1240.48
546.83	1153.88
547.00	1043.88
547.17	945.58
547.34	924.51
547.50	959.62
547.67	1006.43
547.84	866.00
548.00	992.39
548.17	844.93
548.34	931.53
548.51	922.17
548.67	938.55
548.84	929.19
549.01	915.15
549.18	858.98
549.34	880.04
549.51	851.96
549.68	863.66
549.84	851.96
550.01	842.59
550.18	882.38
550.34	828.55
550.51	807.48
550.68	795.78
550.84	800.46
551.01	814.51
551.18	777.06
551.34	821.53
551.51	732.59
551.68	830.89
551.84	793.44
552.01	746.63
552.18	809.83
552.34	695.14
552.51	791.10
552.68	777.06
552.84	734.93
553.01	835.57
553.18	795.78
553.34	758.33
553.51	713.86
553.67	837.91
553.84	777.06
554.01	751.31
554.17	770.04
554.34	748.97
554.51	650.67
554.67	669.39
554.84	678.76
555.00	655.35
555.17	695.14
555.33	718.54
555.50	664.71
555.67	683.44
555.83	641.31
556.00	713.86
556.16	751.31
556.33	777.06
556.50	648.33
556.66	711.52
556.83	739.61
556.99	685.78
557.16	688.12
557.32	678.76
557.49	683.44
557.65	662.37
557.82	678.76
557.98	741.95
558.15	657.69
558.32	685.78
558.48	629.60
558.65	699.82
558.81	716.20
558.98	622.58
559.14	617.90
559.31	660.03
559.47	690.46
559.64	622.58
559.80	685.78
559.97	664.71
560.13	709.18
560.30	606.20
560.46	697.48
560.63	634.29
560.79	688.12
560.96	732.59
561.12	692.80
561.29	718.54
561.45	706.84
561.61	676.41
561.78	678.76
561.94	660.03
562.11	645.99
562.27	683.44
562.44	690.46
562.60	671.73
562.77	702.16
562.93	692.80
563.10	589.82
563.26	671.73
563.42	634.29
563.59	697.48
563.75	613.22
563.92	638.97
564.08	653.01
564.24	638.97
564.41	641.31
564.57	645.99
564.74	667.05
564.90	685.78
565.07	641.31
565.23	678.76
565.39	638.97
565.56	711.52
565.72	603.86
565.88	645.99
566.05	681.10
566.21	713.86
566.38	561.73
566.54	547.69
566.70	669.39
566.87	645.99
567.03	610.88
567.19	638.97
567.36	603.86
567.52	697.48
567.68	725.57
567.85	678.76
568.01	610.88
568.17	634.29
568.34	653.01
568.50	711.52
568.66	643.65
568.83	706.84
568.99	664.71
569.15	638.97
569.32	631.94
569.48	685.78
569.64	671.73
569.81	641.31
569.97	688.12
570.13	713.86
570.30	657.69
570.46	592.16
570.62	681.10
570.78	606.20
570.95	629.60
571.11	657.69
571.27	667.05
571.43	645.99
571.60	641.31
571.76	713.86
571.92	641.31
572.09	674.07
572.25	702.16
572.41	629.60
572.57	603.86
572.74	704.50
572.90	580.45
573.06	657.69
573.22	697.48
573.38	669.39
573.55	697.48
573.71	683.44
573.87	667.05
574.03	613.22
574.20	676.41
574.36	622.58
574.52	688.12
574.68	655.35
574.84	777.06
575.01	657.69
575.17	638.97
575.33	671.73
575.49	627.26
575.65	606.20
575.82	702.16
575.98	739.61
576.14	685.78
576.30	638.97
576.46	763.01
576.62	889.40
576.79	908.13
576.95	851.96
577.11	772.38
577.27	784.08
577.43	748.97
577.59	758.33
577.75	732.59
577.92	655.35
578.08	685.78
578.24	674.07
578.40	816.85
578.56	751.31
578.72	938.55
578.88	851.96
579.04	891.74
579.21	809.83
579.37	833.23
579.53	732.59
579.69	725.57
579.85	718.54
580.01	779.40
580.17	816.85
580.33	748.97
580.49	678.76
580.65	732.59
580.82	739.61
580.98	704.50
581.14	765.36
581.30	758.33
581.46	716.20
581.62	713.86
581.78	744.29
581.94	723.23
582.10	784.08
582.26	760.67
582.42	702.16
582.58	765.36
582.74	800.46
582.90	772.38
583.06	753.65
583.22	767.70
583.38	781.74
583.54	763.01
583.70	770.04
583.86	828.55
584.02	734.93
584.18	851.96
584.34	734.93
584.50	791.10
584.66	669.39
584.82	779.40
584.98	774.72
585.14	805.14
585.30	786.42
585.46	760.67
585.62	774.72
585.78	706.84
585.94	772.38
586.10	758.33
586.26	737.27
586.42	779.40
586.58	854.30
586.74	819.19
586.90	849.61
587.06	844.93
587.22	863.66
587.38	919.83
587.54	835.57
587.70	809.83
587.86	861.32
588.02	842.59
588.18	798.12
588.34	751.31
588.49	704.50
588.65	800.46
588.81	744.29
588.97	706.84
589.13	727.91
589.29	753.65
589.45	709.18
589.61	697.48
589.77	746.63
589.93	753.65
590.08	713.86
590.24	706.84
590.40	734.93
590.56	746.63
590.72	791.10
590.88	723.23
591.04	835.57
591.20	777.06
591.35	753.65
591.51	725.57
591.67	704.50
591.83	734.93
591.99	709.18
592.15	741.95
592.31	777.06
592.46	800.46
592.62	819.19
592.78	779.40
592.94	812.17
593.10	734.93
593.26	873.02
593.41	842.59
593.57	695.14
593.73	779.40
593.89	847.27
594.05	788.76
594.20	704.50
594.36	704.50
594.52	725.57
594.68	683.44
594.84	685.78
594.99	702.16
595.15	667.05
595.31	669.39
595.47	774.72
595.62	725.57
595.78	725.57
595.94	741.95
596.10	723.23
596.25	669.39
596.41	692.80
596.57	704.50
596.73	725.57
596.88	671.73
597.04	755.99
597.20	648.33
597.36	702.16
597.51	683.44
597.67	648.33
597.83	676.41
597.99	772.38
598.14	753.65
598.30	688.12
598.46	699.82
598.61	748.97
598.77	702.16
598.93	753.65
599.09	753.65
599.24	699.82
599.40	786.42
599.56	690.46
599.71	739.61
599.87	676.41
600.03	732.59
600.18	753.65
600.34	741.95
600.50	765.36
600.65	695.14
600.81	713.86
600.97	692.80
601.12	671.73
601.28	713.86
601.44	753.65
601.59	657.69
601.75	671.73
601.91	737.27
602.06	697.48
602.22	732.59
602.37	741.95
602.53	718.54
602.69	667.05
602.84	685.78
603.00	674.07
603.16	674.07
603.31	702.16
603.47	725.57
603.62	720.88
603.78	725.57
603.94	667.05
604.09	636.63
604.25	688.12
604.40	678.76
604.56	697.48
604.71	690.46
604.87	774.72
605.03	599.18
605.18	702.16
605.34	660.03
605.49	685.78
605.65	624.92
605.80	655.35
605.96	664.71
606.12	697.48
606.27	634.29
606.43	718.54
606.58	770.04
606.74	727.91
606.89	741.95
607.05	763.01
607.20	699.82
607.36	711.52
607.51	678.76
607.67	725.57
607.82	725.57
607.98	746.63
608.13	795.78
608.29	676.41
608.44	828.55
608.60	786.42
608.75	758.33
608.91	821.53
609.06	748.97
609.22	842.59
609.37	826.21
609.53	856.64
609.68	933.87
609.84	922.17
