SpectraSuite Data File
++++++++++++++++++++++++++++++++++++
Date: Thu Oct 24 13:21:28 EDT 2013
User: stostad
Dark Spectrum Present: No
Reference Spectrum Present: No
Number of Sampled Component Spectra: 1
Spectrometers: USB2+H05261
Integration Time (usec): 100000 (USB2+H05261)
Spectra Averaged: 1 (USB2+H05261)
Boxcar Smoothing: 0 (USB2+H05261)
Correct for Electrical Dark: No (USB2+H05261)
Strobe/Lamp Enabled: No (USB2+H05261)
Correct for Detector Non-linearity: No (USB2+H05261)
Correct for Stray Light: No (USB2+H05261)
Number of Pixels in Processed Spectrum: 2048
>>>>>Begin Processed Spectral Data<<<<<
365.73	613.22
365.92	613.22
366.12	613.22
366.32	475.13
366.52	440.02
366.72	521.94
366.91	458.74
367.11	489.17
367.31	433.00
367.51	416.62
367.70	486.83
367.90	440.02
368.10	496.19
368.30	489.17
368.49	447.04
368.69	451.72
368.89	472.79
369.09	526.62
369.28	454.06
369.48	477.47
369.68	547.69
369.87	472.79
370.07	531.30
370.27	564.07
370.47	678.76
370.66	990.05
370.86	971.32
371.06	1055.58
371.25	1074.31
371.45	1029.84
371.65	1015.79
371.84	1029.84
372.04	1060.26
372.24	1064.94
372.44	1071.97
372.63	1153.88
372.83	1116.44
373.03	1128.14
373.22	1008.77
373.42	1107.07
373.62	1203.04
373.81	1219.42
374.01	1226.44
374.21	1174.95
374.40	1130.48
374.60	1203.04
374.79	1118.78
374.99	1179.63
375.19	1172.61
375.38	1301.34
375.58	1301.34
375.78	1306.02
375.97	1174.95
376.17	1238.14
376.37	1238.14
376.56	1273.25
376.76	1308.36
376.95	1181.97
377.15	1303.68
377.35	1284.95
377.54	1266.23
377.74	1338.79
377.93	1214.74
378.13	1259.21
378.33	1315.38
378.52	1364.53
378.72	1329.42
378.91	1308.36
379.11	1282.61
379.31	1306.02
379.50	1331.76
379.70	1359.85
379.89	1448.79
380.09	1327.08
380.28	1327.08
380.48	1348.15
380.68	1247.51
380.87	1277.93
381.07	1483.90
381.26	1378.58
381.46	1476.88
381.65	1444.11
381.85	1462.83
382.04	1385.60
382.24	1453.47
382.43	1394.96
382.63	1453.47
382.83	1476.88
383.02	1544.75
383.22	1591.56
383.41	1549.43
383.61	1504.96
383.80	1465.18
384.00	1542.41
384.19	1448.79
384.39	1474.54
384.58	1474.54
384.78	1540.07
384.97	1629.01
385.17	1579.86
385.36	1453.47
385.56	1542.41
385.75	1584.54
385.95	1582.20
386.14	1593.90
386.34	1575.18
386.53	1593.90
386.72	1605.61
386.92	1614.97
387.11	1643.06
387.31	1699.23
387.50	1638.38
387.70	1549.43
387.89	1680.50
388.09	1666.46
388.28	1736.68
388.48	1657.10
388.67	1682.85
388.86	1771.79
389.06	1729.66
389.25	1870.09
389.45	1748.38
389.64	1760.08
389.84	1736.68
390.03	1827.96
390.22	1820.94
390.42	1713.27
390.61	1774.13
390.81	1837.32
391.00	1802.21
391.19	1816.26
391.39	1865.41
391.58	1902.86
391.78	1837.32
391.97	1956.69
392.16	1919.24
392.36	1968.39
392.55	2024.56
392.75	1928.60
392.94	1996.48
393.13	1968.39
393.33	1872.43
393.52	2045.63
393.71	1933.28
393.91	2001.16
394.10	1947.33
394.29	1970.73
394.49	1984.77
394.68	2033.93
394.88	2057.33
395.07	2010.52
395.26	2125.21
395.46	2113.50
395.65	2174.36
395.84	2090.10
396.04	2211.81
396.23	2071.37
396.42	2169.68
396.62	2225.85
396.81	2216.49
397.00	2244.57
397.19	2300.75
397.39	2331.17
397.58	2317.13
397.77	2209.47
397.97	2258.62
398.16	2235.21
398.35	2284.36
398.55	2333.51
398.74	2340.54
398.93	2396.71
399.12	2359.26
399.32	2335.85
399.51	2373.30
399.70	2373.30
399.90	2410.75
400.09	2382.67
400.28	2525.44
400.47	2480.97
400.67	2464.58
400.86	2497.35
401.05	2609.70
401.24	2518.42
401.44	2490.33
401.63	2590.97
401.82	2665.87
402.01	2551.18
402.21	2647.15
402.40	2647.15
402.59	2647.15
402.78	2614.38
402.97	2752.47
403.17	2766.51
403.36	2651.83
403.55	2766.51
403.74	2834.39
403.93	2995.89
404.13	2874.18
404.32	2810.98
404.51	2796.94
404.70	2890.56
404.89	2881.20
405.09	2890.56
405.28	2995.89
405.47	2902.26
405.66	2946.73
405.85	3035.67
406.05	3035.67
406.24	3038.02
406.43	3045.04
406.62	3215.90
406.81	3211.22
407.00	3077.80
407.20	3049.72
407.39	3215.90
407.58	3197.17
407.77	3122.27
407.96	3290.79
408.15	3204.19
408.34	3288.45
408.54	3337.60
408.73	3272.07
408.92	3311.86
409.11	3314.20
409.30	3353.99
409.49	3501.44
409.68	3393.78
409.87	3487.40
410.07	3489.74
410.26	3508.46
410.45	3471.01
410.64	3496.76
410.83	3646.55
411.02	3566.98
411.21	3595.06
411.40	3735.50
411.59	3665.28
411.78	3644.21
411.98	3840.82
412.17	3822.09
412.36	3894.65
412.55	3831.46
412.74	4030.40
412.93	3852.52
413.12	3833.80
413.31	4060.83
413.50	3955.51
413.69	4009.34
413.88	4102.96
414.07	4208.28
414.26	4124.02
414.45	4212.96
414.64	4215.30
414.83	4311.27
415.02	4318.29
415.22	4259.78
415.41	4332.33
415.60	4531.28
415.79	4503.19
415.98	4484.47
416.17	4550.00
416.36	4526.60
416.55	4484.47
416.74	4655.33
416.93	4608.51
417.12	4807.46
417.31	4692.77
417.50	4814.48
417.69	4837.89
417.88	4814.48
418.07	4704.48
418.26	4898.74
418.45	4896.40
418.64	5153.86
418.83	5022.79
419.02	5081.30
419.21	5142.16
419.39	5132.79
419.58	5034.49
419.77	4901.08
419.96	5036.83
420.15	5151.52
420.34	5249.82
420.53	5090.67
420.72	5151.52
420.91	5181.95
421.10	5118.75
421.29	5371.53
421.48	5123.43
421.67	5284.93
421.86	5504.94
422.05	5378.55
422.24	5294.29
422.43	5289.61
422.61	5392.59
422.80	5514.30
422.99	5399.62
423.18	5320.04
423.37	5547.07
423.56	5401.96
423.75	5605.58
423.94	5406.64
424.13	5123.43
424.32	5334.08
424.50	5565.79
424.69	5579.84
424.88	5584.52
425.07	5624.31
425.26	5556.43
425.45	5579.84
425.64	5488.56
425.83	5549.41
426.01	5533.03
426.20	5678.14
426.39	5591.54
426.58	5444.09
426.77	5619.63
426.96	5717.93
427.15	5577.50
427.33	5792.83
427.52	5769.42
427.71	5774.10
427.90	5762.40
428.09	5877.09
428.28	5968.37
428.46	5949.64
428.65	5860.70
428.84	5980.07
429.03	5944.96
429.22	5750.70
429.40	5951.98
429.59	6071.35
429.78	5863.04
429.97	5750.70
430.16	6076.03
430.34	6164.97
430.53	6209.44
430.72	6279.66
430.91	6148.59
431.10	6069.01
431.28	6415.41
431.47	6324.13
431.66	6399.02
431.85	6321.79
432.03	6511.37
432.22	6443.49
432.41	6541.80
432.60	6527.75
432.79	6471.58
432.97	6686.91
433.16	6663.51
433.35	6724.36
433.54	6551.16
433.72	6775.85
433.91	6693.93
434.10	6871.81
434.28	6492.65
434.47	6820.32
434.66	6764.15
434.85	6913.94
435.03	7236.94
435.22	6972.46
435.41	7393.75
435.59	7096.50
435.78	7129.27
435.97	7236.94
436.16	7068.42
436.34	7063.74
436.53	7028.63
436.72	7157.36
436.90	7140.97
437.09	7269.70
437.28	7087.14
437.46	7269.70
437.65	7351.62
437.84	7375.03
438.02	7339.92
438.21	7342.26
438.40	7227.57
438.58	7456.95
438.77	7639.51
438.96	7604.40
439.14	7662.91
439.33	7822.07
439.52	7705.04
439.70	7796.32
439.89	7995.27
440.08	7955.48
440.26	8135.70
440.45	8086.55
440.63	8102.93
440.82	8219.96
441.01	8271.45
441.19	8102.93
441.38	8423.59
441.57	8266.77
441.75	8514.87
441.94	8634.24
442.12	8622.53
442.31	8774.67
442.50	8695.09
442.68	8681.05
442.87	8634.24
443.05	8755.94
443.24	8938.51
443.43	8758.28
443.61	8833.18
443.80	9181.92
443.98	8746.58
444.17	8531.25
444.35	8898.72
444.54	9085.96
444.73	8971.27
444.91	9025.11
445.10	8980.64
445.28	9027.45
445.47	9011.06
445.65	8863.61
445.84	8908.08
446.02	9287.25
446.21	9097.66
446.39	8945.53
446.58	9334.06
446.77	9142.13
446.95	8954.89
447.14	9146.81
447.32	9174.90
447.51	9179.58
447.69	9078.94
447.88	9322.35
448.06	9322.35
448.25	9025.11
448.43	9240.44
448.62	9289.59
448.80	9303.63
448.99	9432.36
449.17	9584.49
449.36	9495.55
449.54	9568.11
449.73	9769.40
449.91	9654.71
450.10	9764.72
450.28	9563.43
450.46	9888.76
450.65	9612.58
450.83	9617.26
451.02	9668.75
451.20	9816.21
451.39	9678.12
451.57	10068.98
451.76	9757.69
451.94	9708.54
452.13	10127.50
452.31	9998.77
452.49	10015.15
452.68	10333.47
452.86	10033.88
453.05	10258.57
453.23	10038.56
453.42	10153.24
453.60	9977.70
453.78	10326.44
453.97	10143.88
454.15	10106.43
454.34	9987.07
454.52	10450.49
454.70	10389.64
454.89	10490.28
455.07	10501.98
455.26	10558.16
455.44	10707.95
455.62	10773.49
455.81	10420.06
455.99	10771.15
456.17	10813.28
456.36	10658.80
456.54	10920.94
456.73	11239.25
456.91	11150.31
457.09	11019.24
457.28	11042.65
457.46	11154.99
457.64	11332.87
457.83	11133.93
458.01	11066.05
458.19	11597.35
458.38	11398.41
458.56	11587.99
458.74	11391.39
458.93	11440.54
459.11	11557.57
459.29	11557.57
459.48	11524.80
459.66	11485.01
459.84	11812.68
460.03	11838.43
460.21	11808.00
460.39	11714.38
460.57	11929.71
460.76	11906.31
460.94	12006.95
461.12	12140.36
461.31	11913.33
461.49	11847.79
461.67	11978.86
461.85	12231.64
462.04	12126.32
462.22	12634.21
462.40	12645.91
462.59	12079.50
462.77	12285.47
462.95	12418.88
463.13	12320.58
463.32	12552.29
463.50	12620.17
463.68	12538.25
463.86	12723.15
464.05	12294.83
464.23	12681.02
464.41	12489.10
464.59	12374.41
464.78	12791.03
464.96	12842.52
465.14	12664.64
465.32	12755.92
465.50	12999.34
465.69	13132.75
465.87	12884.65
466.05	12758.26
466.23	12917.42
466.41	12975.93
466.60	13406.59
466.78	12961.89
466.96	13057.85
467.14	13053.17
467.32	13287.22
467.51	13317.65
467.69	13062.53
467.87	13282.54
468.05	13474.46
468.23	13071.89
468.41	13219.35
468.60	13521.27
468.78	13633.62
468.96	13380.84
469.14	13760.01
469.32	13968.32
469.50	13535.32
469.69	13682.77
469.87	13898.10
470.05	13783.41
470.23	14050.24
470.41	13975.34
470.59	14235.14
470.77	14001.08
470.95	13830.23
471.14	14265.57
471.32	14073.64
471.50	14380.25
471.68	14303.01
471.86	14642.39
472.04	14506.64
472.22	14934.96
472.40	14731.33
472.58	14590.90
472.77	14759.42
472.95	15019.22
473.13	15297.74
473.31	14857.72
473.49	15087.09
473.67	15108.16
473.85	15229.87
474.03	15639.46
474.21	15541.16
474.39	15641.80
474.57	15810.32
474.75	15789.25
474.93	15798.62
475.12	15765.85
475.30	16081.82
475.48	15838.41
475.66	16224.59
475.84	15723.72
476.02	16470.35
476.20	16666.95
476.38	16664.61
476.56	16992.29
476.74	16999.31
476.92	16872.92
477.10	17027.40
477.28	17078.89
477.46	16950.16
477.64	17191.23
477.82	17518.91
478.00	18010.42
478.18	17858.29
478.36	17930.84
478.54	18085.32
478.72	18169.58
478.90	18644.71
479.08	18726.63
479.26	18995.79
479.44	18963.02
479.62	18892.80
479.80	18796.84
479.98	19274.31
480.16	19707.31
480.34	19290.70
480.52	19623.05
480.70	19920.30
480.88	19295.38
481.06	19948.39
481.24	19985.83
481.41	20374.36
481.59	20521.82
481.77	20655.23
481.95	20695.02
482.13	20634.16
482.31	20751.19
482.49	21465.05
482.67	21521.23
482.85	21685.06
483.03	21795.07
483.21	21841.88
483.39	21769.32
483.57	22129.77
483.74	22422.33
483.92	22815.54
484.10	22366.16
484.28	23239.18
484.46	23285.99
484.64	23543.45
484.82	23194.71
485.00	23517.70
485.18	24240.93
485.35	24563.92
485.53	24107.52
485.71	24779.25
485.89	24711.38
486.07	24252.63
486.25	24706.70
486.43	24737.12
486.61	25490.77
486.78	25422.90
486.96	25724.83
487.14	26106.34
487.32	26160.17
487.50	25996.33
487.68	26515.93
487.85	26881.05
488.03	26740.62
488.21	27393.63
488.39	27206.39
488.57	27536.40
488.75	27772.80
488.92	27894.50
489.10	28491.34
489.28	28208.14
489.46	28980.51
489.64	28381.34
489.81	28989.88
489.99	29060.09
490.17	29284.78
490.35	29912.05
490.53	29806.72
490.70	30199.93
490.88	30096.95
491.06	30115.67
491.24	30125.04
491.41	30260.79
491.59	31145.51
491.77	31000.40
491.95	31477.86
492.13	31409.99
492.30	32034.91
492.48	31447.44
492.66	31971.72
492.84	31819.58
493.01	32601.32
493.19	32456.21
493.37	32643.45
493.54	33139.65
493.72	33212.20
493.90	32776.86
494.08	33455.62
494.25	33921.38
494.43	33771.59
494.61	33677.97
494.79	33937.77
494.96	33947.13
495.14	34497.16
495.32	34572.05
495.49	34855.26
495.67	35208.68
495.85	35316.34
496.02	35201.66
496.20	35299.96
496.38	35702.53
496.55	35747.00
496.73	37027.28
496.91	36027.87
497.09	36697.26
497.26	36472.57
497.44	36772.16
497.62	36594.28
497.79	37617.09
497.97	37048.34
498.14	37792.63
498.32	38326.27
498.50	38113.28
498.67	38548.62
498.85	38436.28
499.03	38160.09
499.20	38789.70
499.38	38557.99
499.56	39178.23
499.73	38948.85
499.91	38969.92
500.08	39386.54
500.26	39526.97
500.44	39353.77
500.61	39976.35
500.79	40467.86
500.97	40102.74
501.14	40313.39
501.32	40737.02
501.49	40463.18
501.67	40612.98
501.84	40704.26
502.02	40692.55
502.20	40554.46
502.37	40950.01
502.55	40718.30
502.72	41038.95
502.90	41542.17
503.07	41352.58
503.25	41710.69
503.43	41844.10
503.60	41993.89
503.78	41755.16
503.95	42103.90
504.13	42139.00
504.30	42602.43
504.48	42494.77
504.65	42597.75
504.83	43115.01
505.01	43269.48
505.18	43086.92
505.36	43510.56
505.53	43536.30
505.71	43512.90
505.88	43768.02
506.06	43299.91
506.23	43913.13
506.41	43723.55
506.58	44224.42
506.76	43826.53
506.93	44304.00
507.11	44435.07
507.28	44655.08
507.46	44531.03
507.63	44676.15
507.81	45193.40
507.98	44336.77
508.16	44505.29
508.33	45146.59
508.50	45127.87
508.68	45834.71
508.85	45656.83
509.03	45811.31
509.20	45460.23
509.38	46031.32
509.55	46000.89
509.73	46529.85
509.90	46700.71
510.08	46885.61
510.25	46712.41
510.42	46597.73
510.60	47075.19
510.77	46721.77
510.95	47220.31
511.12	46752.20
511.30	47021.36
511.47	47784.38
511.64	47480.11
511.82	48016.09
511.99	47496.49
512.17	47477.77
512.34	47901.40
512.51	48275.89
512.69	48383.55
512.86	48439.73
513.04	48589.52
513.21	48540.37
513.38	48491.22
513.56	48734.63
513.73	48657.40
513.90	48680.80
514.08	48584.84
514.25	49097.42
514.43	49464.88
514.60	49186.36
514.77	49605.31
514.95	49422.75
515.12	49177.00
515.29	49591.27
515.47	50003.20
515.64	49935.33
515.81	49464.88
515.99	49958.73
516.16	50131.93
516.33	50164.70
516.51	50408.12
516.68	50319.18
516.85	50616.43
517.03	50759.20
517.20	50948.78
517.37	50349.60
517.54	50518.12
517.72	50504.08
517.89	50504.08
518.06	50890.27
518.24	50892.61
518.41	50834.10
518.58	51159.43
518.75	51143.05
518.93	51143.05
519.10	51023.68
519.27	51660.30
519.45	51594.77
519.62	51636.90
519.79	51765.63
519.96	51845.21
520.14	51662.64
520.31	51412.21
520.48	51868.61
520.65	52271.18
520.83	52559.07
521.00	52135.43
521.17	52191.61
521.34	52205.65
521.52	52350.76
521.69	52395.23
521.86	52566.09
522.03	52753.33
522.20	52720.57
522.38	53062.29
522.55	52608.22
522.72	52811.85
522.89	52973.34
523.07	52919.51
523.24	53240.17
523.41	53476.56
523.58	52844.62
523.75	53528.05
523.92	53478.90
524.10	53586.57
524.27	53719.98
524.44	53574.86
524.61	53897.86
524.78	53886.15
524.96	53624.01
525.13	53626.35
525.30	54300.43
525.47	54251.28
525.64	54253.62
525.81	54227.87
525.98	54078.08
526.16	54162.34
526.33	54082.76
526.50	54621.08
526.67	54223.19
526.84	54417.46
527.01	54656.19
527.18	54822.37
527.36	54756.83
527.53	54438.52
527.70	54937.05
527.87	54721.72
528.04	54864.50
528.21	55128.98
528.38	54892.58
528.55	55021.31
528.72	54934.71
528.89	55157.06
529.07	55047.06
529.24	54843.43
529.41	55508.14
529.58	55377.08
529.75	55344.31
529.92	55227.28
530.09	55437.93
530.26	55463.67
530.43	55318.56
530.60	55367.71
530.77	55473.04
530.94	55849.86
531.11	55707.09
531.28	55803.05
531.46	55739.86
531.63	55997.32
531.80	55889.65
531.97	55660.28
532.14	55772.63
532.31	55964.55
532.48	56130.73
532.65	56322.65
532.82	55828.80
532.99	56039.45
533.16	56062.85
533.33	56053.49
533.50	56296.91
533.67	56034.77
533.84	56090.94
534.01	56282.86
534.18	56514.58
534.35	56762.67
534.52	56484.15
534.69	56498.19
534.86	56655.01
535.03	56371.80
535.20	56566.07
535.37	56652.67
535.54	57099.71
535.71	57045.88
535.88	56708.84
536.05	57036.51
536.22	56746.29
536.38	57092.69
536.55	57052.90
536.72	57015.45
536.89	57228.44
537.06	57169.93
537.23	57331.42
537.40	57350.15
537.57	57247.16
537.74	57319.72
537.91	57481.22
538.08	57247.16
538.25	57085.67
538.42	57467.17
538.59	57645.05
538.75	57378.23
538.92	57474.20
539.09	57443.77
539.26	57340.78
539.43	57478.88
539.60	57614.63
539.77	57614.63
539.94	57780.81
540.11	57776.12
540.28	58202.10
540.44	58152.95
540.61	57916.56
540.78	57904.85
540.95	57902.51
541.12	57783.15
541.29	57904.85
541.46	58174.02
541.62	58248.91
541.79	58316.79
541.96	58129.54
542.13	58192.74
542.30	58127.20
542.47	58265.30
542.63	58209.12
542.80	58454.88
542.97	58590.63
543.14	58922.99
543.31	58791.92
543.48	58599.99
543.64	58759.15
543.81	59058.74
543.98	58768.51
544.15	58599.99
544.32	58780.21
544.48	59075.12
544.65	58679.57
544.82	58908.94
544.99	58972.14
545.16	59119.59
545.32	58904.26
545.49	59264.70
545.66	59454.29
545.83	59409.82
546.00	59374.71
546.16	59316.20
546.33	59072.78
546.50	59077.46
546.67	59245.98
546.83	58899.58
547.00	59337.26
547.17	59063.42
547.34	59042.35
547.50	59281.09
547.67	59641.53
547.84	59526.84
548.00	59545.57
548.17	59557.27
548.34	59477.69
548.51	59510.46
548.67	59304.49
548.84	59538.55
549.01	59655.57
549.18	59657.91
549.34	59648.55
549.51	59695.36
549.68	59873.24
549.84	59702.38
550.01	59716.43
550.18	59599.40
550.34	59690.68
550.51	59604.08
550.68	59765.58
550.84	59718.77
551.01	59931.76
551.18	59732.81
551.34	59875.58
551.51	59962.18
551.68	59842.82
551.84	59805.37
552.01	59901.33
552.18	59868.56
552.34	59873.24
552.51	60172.83
552.68	60088.57
552.84	60079.21
553.01	60409.23
553.18	60179.85
553.34	60147.09
553.51	60182.19
553.67	60210.28
553.84	60413.91
554.01	60285.18
554.17	60432.63
554.34	60484.12
554.51	60488.80
554.67	60528.59
554.84	60273.48
555.00	60271.14
555.17	60282.84
555.33	60491.15
555.50	60439.65
555.67	60317.95
555.83	60432.63
556.00	60610.51
556.16	60615.19
556.33	60608.17
556.50	60306.24
556.66	60327.31
556.83	60369.44
556.99	60694.77
557.16	60673.71
557.32	60811.80
557.49	60795.42
557.65	60624.56
557.82	60456.04
557.98	60617.53
558.15	60821.16
558.32	60837.54
558.48	60608.17
558.65	60811.80
558.81	60757.97
558.98	61080.96
559.14	60921.80
559.31	60821.16
559.47	60823.50
559.64	61209.69
559.80	61059.90
559.97	60982.66
560.13	60797.76
560.30	60774.35
560.46	61130.11
560.63	61139.47
560.79	61123.09
560.96	61354.80
561.12	60889.04
561.29	61085.64
561.45	61240.12
561.61	61104.37
561.78	61085.64
561.94	61165.22
562.11	61560.77
562.27	61359.48
562.44	61427.36
562.60	61254.16
562.77	61357.14
562.93	61155.86
563.10	61357.14
563.26	61151.18
563.42	61537.36
563.59	61307.99
563.75	61258.84
563.92	61418.00
564.08	61432.04
564.24	61469.49
564.41	61235.44
564.57	61205.01
564.74	61216.71
564.90	61600.56
565.07	61420.34
565.23	61530.34
565.39	61549.07
565.56	61916.53
565.72	61661.41
565.88	61490.55
566.05	61446.08
566.21	61542.05
566.38	61333.74
566.54	61394.59
566.70	61453.11
566.87	61846.32
567.03	61640.35
567.19	61930.58
567.36	61726.95
567.52	61602.90
567.68	61630.99
567.85	61476.51
568.01	61616.94
568.17	61783.12
568.34	61783.12
568.50	61832.27
568.66	61626.31
568.83	61776.10
568.99	61750.35
569.15	61762.06
569.32	61806.53
569.48	61621.62
569.64	61619.28
569.81	61623.96
569.97	61586.52
570.13	61694.18
570.30	61759.72
570.46	61813.55
570.62	61726.95
570.78	61535.02
570.95	61787.80
571.11	61701.20
571.27	61595.88
571.43	61469.49
571.60	61939.94
571.76	61874.40
571.92	62031.22
572.09	61813.55
572.25	62134.20
572.41	62082.71
572.57	62113.14
572.74	62059.30
572.90	61729.29
573.06	61958.66
573.22	61776.10
573.38	61872.06
573.55	61811.21
573.71	62019.52
573.87	61949.30
574.03	61874.40
574.20	62007.81
574.36	62056.96
574.52	62017.17
574.68	61968.02
574.84	62003.13
575.01	61977.39
575.17	62087.39
575.33	61785.46
575.49	61874.40
575.65	61993.77
575.82	62150.59
575.98	61998.45
576.14	62265.27
576.30	62204.42
576.46	62120.16
576.62	61848.66
576.79	62033.56
576.95	62007.81
577.11	62173.99
577.27	62106.12
577.43	62080.37
577.59	62218.46
577.75	61839.29
577.92	61942.28
578.08	62218.46
578.24	62012.49
578.40	61998.45
578.56	62071.01
578.72	62073.35
578.88	62389.32
579.04	62269.95
579.21	62052.28
579.37	62216.12
579.53	62417.41
579.69	62000.79
579.85	62244.21
580.01	62293.36
580.17	62241.87
580.33	62176.33
580.49	62382.30
580.65	62351.87
580.82	62447.83
580.98	62298.04
581.14	62129.52
581.30	62335.49
581.46	62300.38
581.62	62211.44
581.78	62115.48
581.94	62265.27
582.10	62330.81
582.26	62326.13
582.42	62073.35
582.58	62436.13
582.74	62244.21
582.90	62260.59
583.06	62197.40
583.22	62372.94
583.38	62480.60
583.54	62309.74
583.70	62232.50
583.86	62337.83
584.02	62162.29
584.18	62176.33
584.34	62251.23
584.50	62445.49
584.66	62478.26
584.82	62328.47
584.98	62143.56
585.14	62265.27
585.30	62253.57
585.46	62464.22
585.62	62220.80
585.78	62389.32
585.94	62017.17
586.10	62368.26
586.26	62410.38
586.42	62475.92
586.58	62190.37
586.74	62307.40
586.90	62279.31
587.06	62365.91
587.22	62468.90
587.38	62466.56
587.54	62539.11
587.70	62700.61
