SpectraSuite Data File
++++++++++++++++++++++++++++++++++++
Date: Thu Oct 24 13:21:20 EDT 2013
User: stostad
Dark Spectrum Present: No
Reference Spectrum Present: No
Number of Sampled Component Spectra: 1
Spectrometers: USB2+H05261
Integration Time (usec): 100000 (USB2+H05261)
Spectra Averaged: 1 (USB2+H05261)
Boxcar Smoothing: 0 (USB2+H05261)
Correct for Electrical Dark: No (USB2+H05261)
Strobe/Lamp Enabled: No (USB2+H05261)
Correct for Detector Non-linearity: No (USB2+H05261)
Correct for Stray Light: No (USB2+H05261)
Number of Pixels in Processed Spectrum: 2048
>>>>>Begin Processed Spectral Data<<<<<
365.73	566.41
365.92	566.41
366.12	566.41
366.32	479.81
366.52	463.43
366.72	512.58
366.91	440.02
367.11	472.79
367.31	491.51
367.51	491.51
367.70	447.04
367.90	512.58
368.10	491.51
368.30	447.04
368.49	390.87
368.69	409.59
368.89	468.11
369.09	440.02
369.28	521.94
369.48	486.83
369.68	477.47
369.87	477.47
370.07	514.92
370.27	578.11
370.47	631.94
370.66	826.21
370.86	833.23
371.06	835.57
371.25	870.68
371.45	910.47
371.65	931.53
371.84	912.81
372.04	908.13
372.24	924.51
372.44	959.62
372.63	919.83
372.83	924.51
373.03	917.49
373.22	940.90
373.42	971.32
373.62	940.90
373.81	978.34
374.01	971.32
374.21	1057.92
374.40	1036.86
374.60	1011.11
374.79	1074.31
374.99	1027.50
375.19	1062.60
375.38	1022.81
375.58	1060.26
375.78	1013.45
375.97	1104.73
376.17	1135.16
376.37	1062.60
376.56	1048.56
376.76	994.73
376.95	1020.47
377.15	1116.44
377.35	1083.67
377.54	1104.73
377.74	1015.79
377.93	1102.39
378.13	1043.88
378.33	1057.92
378.52	1074.31
378.72	1196.01
378.91	1121.12
379.11	1102.39
379.31	1081.33
379.50	1097.71
379.70	1158.57
379.89	1160.91
380.09	1078.99
380.28	1104.73
380.48	1041.54
380.68	1078.99
380.87	1163.25
381.07	1111.75
381.26	1156.22
381.46	1095.37
381.65	1172.61
381.85	1247.51
382.04	1198.35
382.24	1179.63
382.43	1238.14
382.63	1268.57
382.83	1263.89
383.02	1118.78
383.22	1221.76
383.41	1177.29
383.61	1193.67
383.80	1188.99
384.00	1266.23
384.19	1139.84
384.39	1273.25
384.58	1219.42
384.78	1233.46
384.97	1287.29
385.17	1254.53
385.36	1231.12
385.56	1277.93
385.75	1352.83
385.95	1214.74
386.14	1287.29
386.34	1240.48
386.53	1219.42
386.72	1249.85
386.92	1331.76
387.11	1310.70
387.31	1231.12
387.50	1287.29
387.70	1338.79
387.89	1268.57
388.09	1329.42
388.28	1313.04
388.48	1291.98
388.67	1366.87
388.86	1420.71
389.06	1301.34
389.25	1474.54
389.45	1369.21
389.64	1469.86
389.84	1448.79
390.03	1444.11
390.22	1434.75
390.42	1462.83
390.61	1465.18
390.81	1416.02
391.00	1479.22
391.19	1472.20
391.39	1502.62
391.58	1441.77
391.78	1406.66
391.97	1476.88
392.16	1467.52
392.36	1455.81
392.55	1479.22
392.75	1603.27
392.94	1481.56
393.13	1469.86
393.33	1502.62
393.52	1565.82
393.71	1577.52
393.91	1547.09
394.10	1596.25
394.29	1605.61
394.49	1584.54
394.68	1678.16
394.88	1570.50
395.07	1664.12
395.26	1713.27
395.46	1703.91
395.65	1746.04
395.84	1668.80
396.04	1694.55
396.23	1617.31
396.42	1748.38
396.62	1673.48
396.81	1673.48
397.00	1816.26
397.19	1743.70
397.39	1706.25
397.58	1771.79
397.77	1764.76
397.97	1837.32
398.16	1818.60
398.35	1778.81
398.55	1825.62
398.74	1823.28
398.93	1877.11
399.12	1872.43
399.32	1891.15
399.51	1923.92
399.70	1900.52
399.90	1944.99
400.09	1944.99
400.28	1977.75
400.47	1879.45
400.67	1874.77
400.86	1870.09
401.05	1989.46
401.24	1935.62
401.44	2022.22
401.63	2045.63
401.82	2026.90
402.01	1954.35
402.21	2047.97
402.40	2001.16
402.59	2033.93
402.78	2127.55
402.97	2136.91
403.17	2125.21
403.36	2087.76
403.55	2150.95
403.74	2214.15
403.93	2214.15
404.13	2129.89
404.32	2211.81
404.51	2277.34
404.70	2366.28
404.89	2324.15
405.09	2216.49
405.28	2256.28
405.47	2319.47
405.66	2363.94
405.85	2267.98
406.05	2296.07
406.24	2326.49
406.43	2310.11
406.62	2403.73
406.81	2523.10
407.00	2298.41
407.20	2401.39
407.39	2445.86
407.58	2476.29
407.77	2555.86
407.96	2630.76
408.15	2600.34
408.34	2420.11
408.54	2616.72
408.73	2530.12
408.92	2567.57
409.11	2583.95
409.30	2614.38
409.49	2647.15
409.68	2607.36
409.87	2717.36
410.07	2675.23
410.26	2663.53
410.45	2717.36
410.64	2754.81
410.83	2827.37
411.02	2820.35
411.21	2810.98
411.40	2876.52
411.59	2857.79
411.78	2799.28
411.98	2836.73
412.17	2944.39
412.36	2925.67
412.55	3005.25
412.74	3206.53
412.93	2928.01
413.12	2981.84
413.31	2995.89
413.50	3061.42
413.69	3136.32
413.88	3108.23
414.07	3162.06
414.26	3185.47
414.45	3218.24
414.64	3377.39
414.83	3281.43
415.02	3192.49
415.22	3513.14
415.41	3393.78
415.60	3318.88
415.79	3297.81
415.98	3515.48
416.17	3508.46
416.36	3510.80
416.55	3531.87
416.74	3569.32
416.93	3449.95
417.12	3662.94
417.31	3564.64
417.50	3644.21
417.69	3751.88
417.88	3805.71
418.07	3637.19
418.26	3707.41
418.45	3747.20
418.64	3782.31
418.83	3747.20
419.02	3850.18
419.21	3868.91
419.39	3927.42
419.58	3758.90
419.77	3742.52
419.96	4004.66
420.15	3960.19
420.34	3969.55
420.53	3889.97
420.72	3995.29
420.91	3971.89
421.10	3981.25
421.29	4102.96
421.48	3997.64
421.67	4088.92
421.86	4194.24
422.05	4088.92
422.24	4077.21
422.43	4166.15
422.61	4271.48
422.80	4203.60
422.99	4163.81
423.18	4243.39
423.37	4212.96
423.56	4105.30
423.75	4203.60
423.94	4112.32
424.13	3936.78
424.32	4135.73
424.50	4168.49
424.69	4306.59
424.88	4184.88
425.07	4224.67
425.26	4074.87
425.45	4117.00
425.64	4159.13
425.83	4058.49
426.01	4346.37
426.20	4346.37
426.39	4294.88
426.58	4283.18
426.77	4241.05
426.96	4222.33
427.15	4355.74
427.33	4435.32
427.52	4341.69
427.71	4435.32
427.90	4421.27
428.09	4461.06
428.28	4465.74
428.46	4535.96
428.65	4528.94
428.84	4697.46
429.03	4830.87
429.22	4374.46
429.40	4557.02
429.59	4514.89
429.78	4486.81
429.97	4411.91
430.16	4624.90
430.34	4711.50
430.53	4786.40
430.72	4737.24
430.91	4798.10
431.10	4725.54
431.28	4767.67
431.47	4999.38
431.66	4905.76
431.85	4842.57
432.03	5029.81
432.22	5008.75
432.41	4926.83
432.60	4997.04
432.79	4968.96
432.97	5116.41
433.16	4971.30
433.35	4983.00
433.54	5095.35
433.72	5144.50
433.91	5088.32
434.10	5266.21
434.28	5256.84
434.47	5076.62
434.66	5266.21
434.85	5263.86
435.03	5282.59
435.22	5408.98
435.41	5589.20
435.59	5652.39
435.78	5502.60
435.97	5523.66
436.16	5458.13
436.34	5453.45
436.53	5460.47
436.72	5589.20
436.90	5507.28
437.09	5535.37
437.28	5371.53
437.46	5455.79
437.65	5596.22
437.84	5572.82
438.02	5638.35
438.21	5628.99
438.40	5631.33
438.58	5886.45
438.77	5849.00
438.96	5722.61
439.14	5980.07
439.33	6015.18
439.52	5954.32
439.70	6040.92
439.89	6069.01
440.08	6003.47
440.26	6122.84
440.45	5968.37
440.63	6066.67
440.82	6216.46
441.01	6160.29
441.19	6356.90
441.38	6207.10
441.57	6396.68
441.75	6492.65
441.94	6574.56
442.12	6502.01
442.31	6532.44
442.50	6656.48
442.68	6593.29
442.87	6569.88
443.05	6595.63
443.24	6780.53
443.43	6754.79
443.61	6633.08
443.80	6764.15
443.98	6829.68
444.17	6424.77
444.35	6764.15
444.54	6860.11
444.73	6850.75
444.91	7033.31
445.10	6785.21
445.28	6572.22
445.47	6675.21
445.65	6878.83
445.84	6862.45
446.02	7030.97
446.21	6836.70
446.39	6820.32
446.58	6906.92
446.77	6822.66
446.95	6764.15
447.14	6986.50
447.32	7033.31
447.51	6897.56
447.69	6979.48
447.88	6967.77
448.06	7037.99
448.25	6885.86
448.43	6806.28
448.62	7124.59
448.80	7042.67
448.99	6862.45
449.17	7148.00
449.36	7056.72
449.54	7087.14
449.73	7297.79
449.91	7255.66
450.10	7346.94
450.28	7449.93
450.46	7262.68
450.65	7604.40
450.83	7246.30
451.02	7419.50
451.20	7573.97
451.39	7417.16
451.57	7468.65
451.76	7370.35
451.94	7454.61
452.13	7541.21
452.31	7375.03
452.49	7602.06
452.68	7583.34
452.86	7506.10
453.05	7630.15
453.23	7595.04
453.42	7691.00
453.60	7527.16
453.78	7728.45
453.97	7602.06
454.15	7707.38
454.34	7543.55
454.52	7803.35
454.70	7819.73
454.89	7737.81
455.07	7805.69
455.26	7918.03
455.44	7946.12
455.62	8095.91
455.81	7953.14
455.99	8011.65
456.17	8166.13
456.36	8084.21
456.54	8365.07
456.73	8203.58
456.91	8194.22
457.09	8287.84
457.28	8683.39
457.46	8360.39
457.64	8519.55
457.83	8486.78
458.01	8519.55
458.19	8599.13
458.38	8601.47
458.56	8393.16
458.74	8606.15
458.93	8559.34
459.11	8638.92
459.29	8615.51
459.48	8620.19
459.66	8734.88
459.84	8706.79
460.03	9100.00
460.21	8765.31
460.39	8774.67
460.57	8737.22
460.76	8978.30
460.94	9118.73
461.12	9064.89
461.31	8968.93
461.49	8910.42
461.67	8868.29
461.85	9097.66
462.04	8938.51
462.22	9441.72
462.40	9095.32
462.59	9212.35
462.77	9132.77
462.95	9327.03
463.13	9301.29
463.32	9259.16
463.50	9448.74
463.68	9273.20
463.86	9504.92
464.05	9153.84
464.23	9107.02
464.41	9394.91
464.59	9427.68
464.78	9635.99
464.96	9502.58
465.14	9516.62
465.32	9671.09
465.50	9582.15
465.69	9521.30
465.87	9437.04
466.05	9547.05
466.23	9633.64
466.41	9600.88
466.60	9884.08
466.78	9788.12
466.96	9720.24
467.14	9848.97
467.32	10038.56
467.51	10167.29
467.69	9652.37
467.87	10022.17
468.05	10064.30
468.23	9736.63
468.41	9844.29
468.60	9776.42
468.78	10061.96
468.96	10134.52
469.14	10108.77
469.32	10174.31
469.50	9998.77
469.69	10342.83
469.87	10537.09
470.05	10279.63
470.23	10567.52
470.41	10396.66
470.59	10532.41
470.77	10263.25
470.95	10410.70
471.14	10881.15
471.32	10314.74
471.50	10731.36
471.68	10815.62
471.86	10806.25
472.04	10698.59
472.22	11044.99
472.40	10953.71
472.58	10972.43
472.77	10839.02
472.95	10956.05
473.13	11133.93
473.31	11044.99
473.49	11066.05
473.67	11194.78
473.85	11232.23
474.03	11480.33
474.21	11618.42
474.39	11595.01
474.57	11667.57
474.75	11576.29
474.93	11681.61
475.12	11864.18
475.30	11590.33
475.48	11864.18
475.66	11836.09
475.84	11967.16
476.02	12105.25
476.20	12233.98
476.38	12189.51
476.56	12542.93
476.74	12517.18
476.92	12702.09
477.10	12128.66
477.28	12622.51
477.46	12872.95
477.64	13074.23
477.82	12971.25
478.00	13317.65
478.18	12980.61
478.36	13317.65
478.54	13305.95
478.72	13277.86
478.90	13401.91
479.08	13540.00
479.26	13743.63
479.44	13841.93
479.62	14017.47
479.80	13958.96
479.98	14305.35
480.16	14506.64
480.34	14129.81
480.52	14635.37
480.70	14642.39
480.88	14328.76
481.06	14649.41
481.24	14923.26
481.41	14743.03
481.59	15199.44
481.77	15248.59
481.95	15391.36
482.13	15587.97
482.31	15527.11
482.49	15784.57
482.67	15789.25
482.85	15697.97
483.03	16180.12
483.21	16278.43
483.39	16343.96
483.57	16145.02
483.74	16510.14
483.92	16826.11
484.10	16505.46
484.28	16795.68
484.46	17202.94
484.64	17465.08
484.82	17221.66
485.00	17418.27
485.18	17865.31
485.35	17996.38
485.53	17951.91
485.71	17888.71
485.89	18298.31
486.07	17998.72
486.25	18190.64
486.43	18349.80
486.61	18354.48
486.78	18897.49
486.96	19021.53
487.14	19274.31
487.32	18888.12
487.50	19332.82
487.68	19442.83
487.85	19817.32
488.03	19999.88
488.21	20283.08
488.39	20088.82
488.57	20067.75
488.75	20589.69
488.92	20725.44
489.10	20505.43
489.28	20697.36
489.46	21317.60
489.64	20936.09
489.81	21518.89
489.99	21284.83
490.17	21453.35
490.35	21680.38
490.53	22015.08
490.70	21879.33
490.88	22139.13
491.06	22335.73
491.24	22146.15
491.41	22427.01
491.59	22944.27
491.77	22890.44
491.95	23063.64
492.13	22977.04
492.30	23068.32
492.48	23206.41
492.66	22981.72
492.84	23585.58
493.01	23648.77
493.19	24212.84
493.37	23620.69
493.54	23742.39
493.72	24474.98
493.90	24175.39
494.08	24474.98
494.25	25032.03
494.43	24643.50
494.61	24823.72
494.79	25294.17
494.96	24844.79
495.14	25303.53
495.32	25219.27
495.49	25420.56
495.67	25635.89
495.85	26284.22
496.02	25759.94
496.20	26368.48
496.38	26249.11
496.55	26370.82
496.73	26607.21
496.91	26644.66
497.09	26551.04
497.26	26796.79
497.44	26831.90
497.62	26948.93
497.79	27346.82
497.97	27454.48
498.14	27725.99
498.32	27672.15
498.50	27725.99
498.67	28416.44
498.85	27953.02
499.03	27721.30
499.20	28311.12
499.38	28528.79
499.56	28931.36
499.73	28875.19
499.91	28732.42
500.08	28783.91
500.26	28905.62
500.44	28711.35
500.61	28919.66
500.79	29373.72
500.97	29350.32
501.14	29685.01
501.32	29802.04
501.49	29399.47
501.67	29879.28
501.84	29986.94
502.02	30415.26
502.20	29979.92
502.37	30185.89
502.55	30209.29
502.72	30230.36
502.90	30415.26
503.07	30705.49
503.25	30511.22
503.43	30876.35
503.60	30962.95
503.78	30946.56
503.95	30913.80
504.13	31005.08
504.30	31061.25
504.48	31227.43
504.65	31503.61
504.83	31688.51
505.01	31662.77
505.18	31604.25
505.36	31665.11
505.53	31981.08
505.71	31885.12
505.88	32156.62
506.06	32472.59
506.23	32690.26
506.41	32268.97
506.58	32362.59
506.76	32575.58
506.93	32631.75
507.11	32615.37
507.28	32835.38
507.46	32678.56
507.63	33369.02
507.81	33429.87
507.98	32891.55
508.16	33036.66
508.33	33251.99
508.50	33317.53
508.68	33813.72
508.85	33841.81
509.03	34019.69
509.20	33607.75
509.38	34429.28
509.55	34132.03
509.73	34195.23
509.90	34565.03
510.08	34164.80
510.25	34415.24
510.42	34712.49
510.60	34618.86
510.77	34806.11
510.95	35335.07
511.12	34572.05
511.30	35164.21
511.47	35243.79
511.64	35166.55
511.82	35749.34
511.99	35241.45
512.17	35255.49
512.34	35849.99
512.51	36133.19
512.69	35831.26
512.86	36048.93
513.04	36374.27
513.21	35871.05
513.38	35950.63
513.56	35952.97
513.73	36233.83
513.90	36348.52
514.08	36444.48
514.25	36718.32
514.43	36910.25
514.60	36760.45
514.77	36444.48
514.95	36643.43
515.12	36931.31
515.29	37069.40
515.47	37596.03
515.64	37673.26
515.81	37816.04
515.99	37792.63
516.16	37741.14
516.33	37865.19
516.51	38213.93
516.68	37638.15
516.85	38082.86
517.03	38492.45
517.20	38419.89
517.37	38223.29
517.54	38553.30
517.72	38244.35
517.89	38717.14
518.06	38244.35
518.24	38473.73
518.41	38822.47
518.58	38895.02
518.75	38347.34
518.93	38918.43
519.10	39129.08
519.27	39466.11
519.45	38803.74
519.62	39091.63
519.79	38916.09
519.96	39330.36
520.14	39405.26
520.31	39234.40
520.48	39681.44
520.65	39466.11
520.83	39828.90
521.00	39838.26
521.17	39538.67
521.34	39938.90
521.52	39768.04
521.69	39845.28
521.86	40257.21
522.03	40224.45
522.20	40664.47
522.38	40823.62
522.55	40935.97
522.72	40746.39
522.89	40692.55
523.07	40708.94
523.24	40823.62
523.41	41118.53
523.58	40795.54
523.75	41308.11
523.92	41137.26
524.10	41401.74
524.27	41586.64
524.44	41530.47
524.61	41474.29
524.78	41219.17
524.96	41544.51
525.13	42113.26
525.30	42305.18
525.47	41745.80
525.64	41787.92
525.81	41867.50
525.98	42492.43
526.16	41827.71
526.33	42359.02
526.50	42660.94
526.67	42078.15
526.84	42628.18
527.01	42295.82
527.18	42782.65
527.36	42469.02
527.53	42784.99
527.70	43096.28
527.87	43393.53
528.04	42689.03
528.21	42871.59
528.38	42897.34
528.55	43402.89
528.72	43201.61
528.89	43248.42
529.07	43054.15
529.24	42909.04
529.41	43049.47
529.58	43903.77
529.75	43384.17
529.92	43548.01
530.09	43693.12
530.26	43496.52
530.43	43655.67
530.60	43288.21
530.77	43814.83
530.94	44018.46
531.11	44388.26
531.28	44435.07
531.46	43728.23
531.63	44257.19
531.80	43838.23
531.97	44266.55
532.14	44397.62
532.31	44385.92
532.48	44367.20
532.65	44980.42
532.82	44257.19
532.99	44701.89
533.16	44619.97
533.33	44893.82
533.50	45123.19
533.67	44928.92
533.84	44418.69
534.01	45282.34
534.18	45029.57
534.35	45560.87
534.52	45125.53
534.69	45422.78
534.86	45186.38
535.03	45104.46
535.20	45237.87
535.37	45408.73
535.54	45813.65
535.71	45490.65
535.88	45495.33
536.05	45619.38
536.22	45720.02
536.38	46054.72
536.55	45497.67
536.72	45996.21
536.89	45837.05
537.06	46438.57
537.23	46169.41
537.40	46012.59
537.57	46342.61
537.74	46155.36
537.91	46103.87
538.08	45638.11
538.25	45933.01
538.42	46248.99
538.59	46501.76
538.75	46064.08
538.92	46681.98
539.09	46953.49
539.26	46649.22
539.43	46464.32
539.60	46939.44
539.77	46712.41
539.94	47220.31
540.11	47222.65
540.28	47309.25
540.44	47751.61
540.61	47655.65
540.78	46829.44
540.95	46745.18
541.12	46761.56
541.29	47168.82
541.46	47936.51
541.62	47849.91
541.79	47714.16
541.96	47681.39
542.13	47569.05
542.30	47838.21
542.47	47597.13
542.63	48191.63
542.80	47351.38
542.97	48229.08
543.14	48388.24
543.31	48266.53
543.48	48374.19
543.64	48474.84
543.81	48280.57
543.98	48402.28
544.15	48643.35
544.32	48919.54
544.48	48470.15
544.65	48694.85
544.82	48884.43
544.99	48596.54
545.16	48680.80
545.32	48662.08
545.49	48942.94
545.66	49507.01
545.83	49607.65
546.00	49537.44
546.16	48900.81
546.33	49083.37
546.50	48758.04
546.67	48919.54
546.83	48575.48
547.00	48968.69
547.17	48802.51
547.34	48875.07
547.50	49155.93
547.67	49640.42
547.84	49282.32
548.00	49265.94
548.17	49588.93
548.34	49441.48
548.51	49769.15
548.67	49507.01
548.84	49705.96
549.01	49287.00
549.18	49450.84
549.34	49614.68
549.51	49710.64
549.68	49925.97
549.84	49614.68
550.01	49996.18
550.18	49516.37
550.34	49593.61
550.51	49631.06
550.68	49797.24
550.84	49991.50
551.01	49879.16
551.18	49612.34
551.34	49937.67
551.51	49432.11
551.68	50288.75
551.84	50143.64
552.01	49771.49
552.18	49928.31
552.34	49984.48
552.51	50562.59
552.68	50148.32
552.84	50487.70
553.01	50447.91
553.18	50321.52
553.34	50309.82
553.51	50024.27
553.67	50749.84
553.84	50630.47
554.01	50974.53
554.17	50777.92
554.34	50904.31
554.51	50571.96
554.67	50588.34
554.84	50646.85
555.00	50380.03
555.17	50473.65
555.33	50672.60
555.50	50960.48
555.67	50639.83
555.83	51009.64
556.00	50742.81
556.16	50944.10
556.33	51082.19
556.50	50883.25
556.66	50703.03
556.83	50199.81
556.99	50876.22
557.16	51063.47
557.32	51248.37
557.49	51070.49
557.65	50937.08
557.82	51332.63
557.98	50813.03
558.15	50714.73
558.32	51145.39
558.48	50756.86
558.65	51129.00
558.81	51253.05
558.98	51239.01
559.14	51622.86
559.31	51313.90
559.47	51337.31
559.64	51433.27
559.80	51194.54
559.97	51171.13
560.13	51292.84
560.30	51271.78
560.46	51557.32
560.63	51480.08
560.79	51587.75
560.96	51966.91
561.12	51391.14
561.29	51388.80
561.45	51723.50
561.61	51117.30
561.78	51442.63
561.94	51604.13
562.11	51847.55
562.27	51885.00
562.44	51917.76
562.60	51873.29
562.77	51540.94
562.93	51711.80
563.10	51831.16
563.26	51482.42
563.42	51952.87
563.59	52018.41
563.75	51770.31
563.92	51723.50
564.08	51826.48
564.24	52102.67
564.41	51915.42
564.57	51927.13
564.74	51622.86
564.90	52109.69
565.07	51966.91
565.23	52151.82
565.39	52306.29
565.56	52069.90
565.72	51779.67
565.88	52200.97
566.05	52313.31
566.21	51473.06
566.38	51739.88
566.54	51999.68
566.70	51931.81
566.87	52659.71
567.03	52217.35
567.19	52416.30
567.36	52648.01
567.52	52154.16
567.68	52406.94
567.85	52184.58
568.01	52149.48
568.17	52308.63
568.34	52067.56
568.50	52519.28
568.66	52584.82
568.83	52526.30
568.99	52552.05
569.15	52423.32
569.32	52420.98
569.48	51962.23
569.64	52376.51
569.81	52383.53
569.97	52065.22
570.13	52130.75
570.30	52186.92
570.46	52500.56
570.62	52280.55
570.78	52430.34
570.95	52413.96
571.11	52762.70
571.27	52229.05
571.43	52200.97
571.60	52325.02
571.76	52266.50
571.92	52575.45
572.09	52704.18
572.25	52596.52
572.41	52676.10
572.57	52898.45
572.74	52619.92
572.90	52257.14
573.06	52374.17
573.22	52589.50
573.38	52521.62
573.55	52362.46
573.71	52746.31
573.87	52479.49
574.03	52413.96
574.20	52538.01
574.36	52507.58
574.52	52708.86
574.68	52612.90
574.84	52861.00
575.01	52622.26
575.17	52898.45
575.33	52528.64
575.49	52495.88
575.65	52821.21
575.82	53240.17
575.98	52612.90
576.14	53088.03
576.30	52898.45
576.46	52523.96
576.62	52523.96
576.79	52308.63
576.95	52825.89
577.11	52816.53
577.27	52823.55
577.43	52999.09
577.59	52765.04
577.75	53038.88
577.92	52638.65
578.08	52828.23
578.24	52921.85
578.40	52945.26
578.56	53258.89
578.72	52949.94
578.88	53165.27
579.04	53057.60
579.21	53003.77
579.37	52844.62
579.53	53027.18
579.69	52584.82
579.85	52648.01
580.01	53057.60
580.17	52868.02
580.33	53006.11
580.49	52940.58
580.65	52877.38
580.82	53043.56
580.98	53277.61
581.14	52816.53
581.30	53179.31
581.46	52598.86
581.62	52879.72
581.78	53120.80
581.94	53022.50
582.10	52720.57
582.26	52797.80
582.42	52980.37
582.58	52938.24
582.74	52978.03
582.90	52804.83
583.06	52673.76
583.22	52903.13
583.38	53015.47
583.54	52743.97
583.70	52942.92
583.86	52973.34
584.02	52954.62
584.18	53059.94
584.34	53340.81
584.50	53013.13
584.66	53263.57
584.82	52802.49
584.98	52861.00
585.14	52821.21
585.30	52935.90
585.46	53052.92
585.62	52975.69
585.78	53504.65
585.94	53109.10
586.10	53235.48
586.26	53272.93
586.42	53209.74
586.58	52973.34
586.74	53008.45
586.90	53076.33
587.06	53113.78
587.22	53183.99
587.38	53022.50
587.54	53436.77
587.70	53518.69
587.86	53462.52
588.02	53387.62
588.18	53139.52
588.34	53511.67
588.49	53146.54
588.65	53064.63
588.81	52982.71
