SpectraSuite Data File
++++++++++++++++++++++++++++++++++++
Date: Thu Oct 24 13:21:36 EDT 2013
User: stostad
Dark Spectrum Present: No
Reference Spectrum Present: No
Number of Sampled Component Spectra: 1
Spectrometers: USB2+H05261
Integration Time (usec): 100000 (USB2+H05261)
Spectra Averaged: 1 (USB2+H05261)
Boxcar Smoothing: 0 (USB2+H05261)
Correct for Electrical Dark: No (USB2+H05261)
Strobe/Lamp Enabled: No (USB2+H05261)
Correct for Detector Non-linearity: No (USB2+H05261)
Correct for Stray Light: No (USB2+H05261)
Number of Pixels in Processed Spectrum: 2048
>>>>>Begin Processed Spectral Data<<<<<
365.73	524.28
365.92	524.28
366.12	524.28
366.32	463.43
366.52	489.17
366.72	512.58
366.91	505.56
367.11	442.36
367.31	456.40
367.51	477.47
367.70	437.68
367.90	493.85
368.10	454.06
368.30	482.15
368.49	491.51
368.69	475.13
368.89	468.11
369.09	428.32
369.28	533.64
369.48	552.37
369.68	512.58
369.87	486.83
370.07	566.41
370.27	564.07
370.47	718.54
370.66	1212.40
370.86	1116.44
371.06	1256.87
371.25	1301.34
371.45	1210.06
371.65	1247.51
371.84	1303.68
372.04	1233.46
372.24	1343.47
372.44	1329.42
372.63	1238.14
372.83	1458.15
373.03	1352.83
373.22	1348.15
373.42	1327.08
373.62	1437.09
373.81	1317.72
374.01	1394.96
374.21	1434.75
374.40	1481.56
374.60	1453.47
374.79	1472.20
374.99	1462.83
375.19	1495.60
375.38	1418.36
375.58	1430.07
375.78	1544.75
375.97	1589.22
376.17	1561.14
376.37	1568.16
376.56	1526.03
376.76	1540.07
376.95	1528.37
377.15	1612.63
377.35	1659.44
377.54	1640.72
377.74	1605.61
377.93	1589.22
378.13	1565.82
378.33	1629.01
378.52	1584.54
378.72	1621.99
378.91	1741.36
379.11	1654.76
379.31	1661.78
379.50	1610.29
379.70	1689.87
379.89	1788.17
380.09	1713.27
380.28	1806.89
380.48	1708.59
380.68	1710.93
380.87	1682.85
381.07	1715.61
381.26	1771.79
381.46	1856.04
381.65	1755.40
381.85	1820.94
382.04	1820.94
382.24	1863.07
382.43	1921.58
382.63	1900.52
382.83	1982.43
383.02	1952.01
383.22	1916.90
383.41	1989.46
383.61	1865.41
383.80	1942.64
384.00	1914.56
384.19	1923.92
384.39	2078.40
384.58	2066.69
384.78	2031.58
384.97	1980.09
385.17	2024.56
385.36	2003.50
385.56	1907.54
385.75	2115.84
385.95	2054.99
386.14	2080.74
386.34	2106.48
386.53	2078.40
386.72	2106.48
386.92	2078.40
387.11	2165.00
387.31	2097.12
387.50	2179.04
387.70	2172.02
387.89	2279.68
388.09	2249.25
388.28	2289.04
388.48	2235.21
388.67	2305.43
388.86	2260.96
389.06	2253.94
389.25	2263.30
389.45	2354.58
389.64	2300.75
389.84	2319.47
390.03	2272.66
390.22	2324.15
390.42	2352.24
390.61	2354.58
390.81	2478.63
391.00	2331.17
391.19	2354.58
391.39	2497.35
391.58	2466.92
391.78	2485.65
391.97	2408.41
392.16	2490.33
392.36	2544.16
392.55	2590.97
392.75	2637.78
392.94	2466.92
393.13	2588.63
393.33	2583.95
393.52	2581.61
393.71	2668.21
393.91	2635.44
394.10	2698.64
394.29	2717.36
394.49	2693.96
394.68	2787.58
394.88	2799.28
395.07	2846.09
395.26	2843.75
395.46	2785.24
395.65	2808.64
395.84	2888.22
396.04	2871.84
396.23	2881.20
396.42	2902.26
396.62	2928.01
396.81	2972.48
397.00	2930.35
397.19	2867.16
397.39	3007.59
397.58	3075.46
397.77	3070.78
397.97	3103.55
398.16	3056.74
398.35	3094.19
398.55	3145.68
398.74	3119.93
398.93	3213.56
399.12	3101.21
399.32	3166.74
399.51	3239.30
399.70	3201.85
399.90	3293.13
400.09	3283.77
400.28	3274.41
400.47	3239.30
400.67	3417.18
400.86	3461.65
401.05	3449.95
401.24	3466.33
401.44	3389.10
401.63	3351.65
401.82	3447.61
402.01	3531.87
402.21	3527.19
402.40	3545.91
402.59	3613.79
402.78	3679.32
402.97	3592.72
403.17	3833.80
403.36	3630.17
403.55	3602.08
403.74	3712.09
403.93	3822.09
404.13	3756.56
404.32	3786.99
404.51	3932.10
404.70	3854.86
404.89	3948.48
405.09	3789.33
405.28	3925.08
405.47	3934.44
405.66	4025.72
405.85	3957.85
406.05	3920.40
406.24	4021.04
406.43	4102.96
406.62	4189.56
406.81	4273.82
407.00	4182.54
407.20	4053.81
407.39	4203.60
407.58	4222.33
407.77	4273.82
407.96	4196.58
408.15	4278.50
408.34	4198.92
408.54	4252.75
408.73	4339.35
408.92	4407.23
409.11	4329.99
409.30	4322.97
409.49	4575.75
409.68	4411.91
409.87	4634.26
410.07	4540.64
410.26	4751.29
410.45	4610.86
410.64	4842.57
410.83	4709.16
411.02	4908.10
411.21	4947.89
411.40	4667.03
411.59	4858.95
411.78	5004.07
411.98	4908.10
412.17	4830.87
412.36	5090.67
412.55	5081.30
412.74	5132.79
412.93	5195.99
413.12	5022.79
413.31	5298.97
413.50	5132.79
413.69	5158.54
413.88	5472.17
414.07	5397.28
414.26	5430.04
414.45	5607.92
414.64	5528.35
414.83	5551.75
415.02	5570.48
415.22	5746.02
415.41	5614.95
415.60	5902.83
415.79	5811.55
415.98	6017.52
416.17	5809.21
416.36	6010.50
416.55	5870.06
416.74	6111.14
416.93	5956.66
417.12	6031.56
417.31	6143.91
417.50	6153.27
417.69	6445.84
417.88	6483.28
418.07	6174.33
418.26	6438.81
418.45	6410.73
418.64	6436.47
418.83	6567.54
419.02	6583.93
419.21	6754.79
419.39	6586.27
419.58	6717.34
419.77	6586.27
419.96	6677.55
420.15	6775.85
420.34	6799.26
420.53	6792.23
420.72	6944.37
420.91	6817.98
421.10	6946.71
421.29	7028.63
421.48	6897.56
421.67	7035.65
421.86	6923.30
422.05	7037.99
422.24	7171.40
422.43	7236.94
422.61	7190.13
422.80	7281.41
422.99	7332.90
423.18	7370.35
423.37	7295.45
423.56	7236.94
423.75	7225.23
423.94	7145.66
424.13	6853.09
424.32	7005.22
424.50	7335.24
424.69	7424.18
424.88	7417.16
425.07	7122.25
425.26	7262.68
425.45	7260.34
425.64	7428.86
425.83	7342.26
426.01	7391.41
426.20	7375.03
426.39	7482.69
426.58	7403.11
426.77	7503.76
426.96	7480.35
427.15	7503.76
427.33	7634.83
427.52	7590.36
427.71	7735.47
427.90	7529.50
428.09	7793.98
428.28	7819.73
428.46	7826.75
428.65	7784.62
428.84	7880.58
429.03	7943.78
429.22	7889.95
429.40	8049.10
429.59	7974.21
429.78	7922.71
429.97	7784.62
430.16	8079.53
430.34	8112.30
430.53	8098.25
430.72	8187.19
430.91	8028.04
431.10	8198.90
431.28	8360.39
431.47	8617.85
431.66	8610.83
431.85	8395.50
432.03	8627.21
432.22	8587.43
432.41	8589.77
432.60	8507.85
432.79	8690.41
432.97	8863.61
433.16	8882.33
433.35	8739.56
433.54	8765.31
433.72	9020.42
433.91	8938.51
434.10	9018.08
434.28	8917.44
434.47	8905.74
434.66	9088.30
434.85	9296.61
435.03	9341.08
435.22	9432.36
435.41	9699.18
435.59	9345.76
435.78	9628.96
435.97	9488.53
436.16	9355.12
436.34	9303.63
436.53	9462.79
436.72	9547.05
436.90	9355.12
437.09	9631.30
437.28	9401.93
437.46	9664.07
437.65	9769.40
437.84	9750.67
438.02	9811.53
438.21	9987.07
438.40	9724.93
438.58	10125.16
438.77	10263.25
438.96	10113.45
439.14	10237.50
439.33	10373.25
439.52	10441.13
439.70	10588.58
439.89	10778.17
440.08	10717.31
440.26	10726.68
440.45	10698.59
440.63	10668.16
440.82	11026.26
441.01	11040.31
441.19	11302.45
441.38	11145.63
441.57	11152.65
441.75	11180.74
441.94	11332.87
442.12	11262.66
442.31	11461.60
442.50	11623.10
442.68	11536.50
442.87	11634.80
443.05	11730.76
443.24	12009.29
443.43	11690.98
443.61	11777.58
443.80	12287.81
443.98	11772.89
444.17	11564.59
444.35	11854.81
444.54	12114.61
444.73	11894.60
444.91	12013.97
445.10	12262.07
445.28	11992.90
445.47	12086.53
445.65	12126.32
445.84	12152.06
446.02	12238.66
446.21	12105.25
446.39	12074.82
446.58	12355.69
446.77	12119.29
446.95	12123.98
447.14	12219.94
447.32	12442.29
447.51	12517.18
447.69	12297.17
447.88	12482.08
448.06	12484.42
448.25	12358.03
448.43	12500.80
448.62	12671.66
448.80	12369.73
448.99	12603.78
449.17	12737.20
449.36	12549.95
449.54	12791.03
449.73	13025.08
449.91	13130.41
450.10	13177.22
450.28	13240.41
450.46	13067.21
450.65	13081.25
450.83	13130.41
451.02	13198.28
451.20	13493.19
451.39	13198.28
451.57	13280.20
451.76	13064.87
451.94	13589.15
452.13	13699.16
452.31	13390.20
452.49	13453.40
452.68	13598.51
452.86	13785.76
453.05	13507.23
453.23	13717.88
453.42	13846.61
453.60	13687.45
453.78	13914.48
453.97	13462.76
454.15	13771.71
454.34	13642.98
454.52	13832.57
454.70	14139.18
454.89	13825.54
455.07	14232.80
455.26	14185.99
455.44	14410.68
455.62	14380.25
455.81	14539.41
455.99	14434.08
456.17	14494.94
456.36	14438.76
456.54	14754.74
456.73	14864.74
456.91	15012.20
457.09	15042.62
457.28	15386.68
457.46	14728.99
457.64	15047.30
457.83	15154.97
458.01	15311.78
458.19	15648.82
458.38	15328.17
458.56	15365.62
458.74	15541.16
458.93	15602.01
459.11	15468.60
459.29	15672.23
459.48	15866.49
459.66	15700.31
459.84	15679.25
460.03	15843.09
460.21	15981.18
460.39	15660.52
460.57	15915.64
460.76	16149.70
460.94	16114.59
461.12	16201.19
461.31	16086.50
461.49	16100.55
461.67	16269.06
461.85	16517.16
462.04	16847.18
462.22	16898.67
462.40	16908.03
462.59	16901.01
462.77	16755.90
462.95	17060.16
463.13	16938.46
463.32	16884.62
463.50	16978.25
463.68	17209.96
463.86	16924.41
464.05	16872.92
464.23	16933.78
464.41	17050.80
464.59	16861.22
464.78	17600.83
464.96	17362.09
465.14	17259.11
465.32	17432.31
465.50	17479.12
465.69	17790.41
465.87	17715.51
466.05	17872.33
466.23	17654.66
466.41	17762.33
466.60	18008.08
466.78	17944.89
466.96	17919.14
467.14	17972.97
467.32	18190.64
467.51	18059.57
467.69	17764.67
467.87	17877.01
468.05	18417.68
468.23	17797.43
468.41	18246.82
468.60	18200.01
468.78	18565.13
468.96	18361.50
469.14	18939.62
469.32	19054.30
469.50	18492.57
469.69	18740.67
469.87	18899.83
470.05	18944.30
470.23	18970.04
470.41	19194.73
470.59	19330.48
470.77	19264.95
470.95	19403.04
471.14	19688.59
471.32	19234.52
471.50	19786.89
471.68	19768.16
471.86	19700.29
472.04	19880.51
472.22	20451.60
472.40	20144.99
472.58	20067.75
472.77	20664.59
472.95	20575.65
473.13	20879.92
473.31	20231.59
473.49	20737.15
473.67	20460.96
473.85	21039.08
474.03	20875.24
474.21	21195.89
474.39	21610.17
474.57	21261.43
474.75	21619.53
474.93	21888.69
475.12	21635.91
475.30	22092.32
475.48	22029.12
475.66	22010.40
475.84	22122.74
476.02	22623.62
476.20	22363.82
476.38	22773.41
476.56	23271.95
476.74	23459.19
476.92	22829.59
477.10	22829.59
477.28	23772.82
477.46	23840.70
477.64	23805.59
477.82	24376.68
478.00	24657.54
478.18	24432.85
478.36	24882.24
478.54	24802.66
478.72	24947.77
478.90	25390.13
479.08	25652.27
479.26	25956.54
479.44	26024.42
479.62	26038.46
479.80	26267.83
479.98	26654.02
480.16	26747.64
480.34	27019.14
480.52	26991.06
480.70	27442.78
480.88	26991.06
481.06	27374.91
481.24	27424.06
481.41	28144.94
481.59	28144.94
481.77	28467.94
481.95	28519.43
482.13	28947.75
482.31	28847.10
482.49	29465.00
482.67	29792.68
482.85	30066.52
483.03	30305.26
483.21	30518.25
483.39	30644.63
483.57	30338.02
483.74	30349.73
483.92	30960.61
484.10	31058.91
484.28	31835.97
484.46	32098.11
484.64	32594.30
484.82	32360.25
485.00	32767.50
485.18	33387.74
485.35	33591.37
485.53	33582.01
485.71	33848.83
485.89	34560.35
486.07	33935.43
486.25	34000.96
486.43	34476.09
486.61	34724.19
486.78	35192.30
486.96	35323.36
487.14	35931.90
487.32	36027.87
487.50	36306.39
487.68	36538.10
487.85	36943.02
488.03	37219.20
488.21	37640.50
488.39	37708.37
488.57	37811.35
488.75	37947.11
488.92	38581.39
489.10	38841.19
489.28	39009.71
489.46	39395.90
489.64	38866.94
489.81	40067.63
489.99	39744.64
490.17	40425.73
490.35	40917.25
490.53	41099.81
490.70	41787.92
490.88	41123.21
491.06	41434.50
491.24	41975.17
491.41	41940.06
491.59	42253.69
491.77	42447.96
491.95	42838.83
492.13	43374.81
492.30	43409.92
492.48	43136.07
492.66	43807.81
492.84	43964.62
493.01	44191.65
493.19	45059.99
493.37	44992.12
493.54	44933.60
493.72	45202.77
493.90	45263.62
494.08	45834.71
494.25	46349.63
494.43	46047.70
494.61	46721.77
494.79	46829.44
494.96	46609.43
495.14	46995.62
495.32	47482.45
495.49	47749.27
495.67	47669.69
495.85	47868.64
496.02	48137.80
496.20	48722.93
496.38	48781.45
496.55	48711.23
496.73	49471.90
496.91	49195.72
497.09	49610.00
497.26	49916.61
497.44	49647.44
497.62	50103.85
497.79	50686.64
497.97	50522.80
498.14	50670.26
498.32	50990.91
498.50	50791.97
498.67	51508.17
498.85	50820.05
499.03	51459.02
499.20	51559.66
499.38	51880.31
499.56	51772.65
499.73	51840.53
499.91	52076.92
500.08	52554.39
500.26	52055.85
500.44	52322.68
500.61	52673.76
500.79	52697.16
500.97	52659.71
501.14	53265.91
501.32	53198.04
501.49	53193.36
501.67	53499.97
501.84	53549.12
502.02	53460.18
502.20	53783.17
502.37	53631.04
502.55	53947.01
502.72	53670.82
502.90	54038.29
503.07	54108.50
503.25	54251.28
503.43	54232.55
503.60	54789.60
503.78	54672.57
503.95	54457.24
504.13	54827.05
504.30	54747.47
504.48	55000.25
504.65	55161.75
504.83	55370.05
505.01	55398.14
505.18	55494.10
505.36	55821.78
505.53	55386.44
505.71	55604.11
505.88	55814.76
506.06	55679.00
506.23	55931.78
506.41	55826.46
506.58	56161.15
506.76	55962.21
506.93	56336.69
507.11	56137.75
507.28	56570.75
507.46	56549.68
507.63	56708.84
507.81	56830.55
507.98	56647.99
508.16	56875.02
508.33	56905.44
508.50	57055.24
508.68	57343.12
508.85	57216.74
509.03	57455.47
509.20	57223.76
509.38	57680.16
509.55	57724.63
509.73	57818.25
509.90	57675.48
510.08	57801.87
510.25	58031.24
510.42	57829.96
510.60	58171.67
510.77	58262.96
510.95	58305.09
511.12	58176.36
511.30	58267.64
511.47	58693.61
511.64	58419.77
511.82	58749.79
511.99	58583.61
512.17	58808.30
512.34	58630.42
512.51	59035.33
512.69	59222.58
512.86	59089.16
513.04	59281.09
513.21	59037.67
513.38	59248.32
513.56	59526.84
513.73	59339.60
513.90	59384.07
514.08	59372.37
514.25	59662.60
514.43	59913.03
514.60	59496.42
514.77	59920.05
514.95	59817.07
515.12	59657.91
515.29	59845.16
515.47	60278.16
515.64	60191.56
515.81	60034.74
515.99	60130.70
516.16	60315.61
516.33	60224.32
516.51	60486.46
516.68	60589.45
516.85	60570.72
517.03	60786.05
517.20	60853.93
517.37	60500.51
517.54	60676.05
517.72	60624.56
517.89	60741.58
518.06	60970.96
518.24	61080.96
518.41	60882.02
518.58	60877.33
518.75	60863.29
518.93	61130.11
519.10	61057.56
519.27	61183.94
519.45	61319.70
519.62	61591.20
519.79	61544.39
519.96	61469.49
520.14	61670.78
520.31	61446.08
520.48	61783.12
520.65	61841.63
520.83	62040.58
521.00	61949.30
521.17	62078.03
521.34	61673.12
521.52	61909.51
521.69	62040.58
521.86	61998.45
522.03	62143.56
522.20	62265.27
522.38	62447.83
522.55	62349.53
522.72	62354.21
522.89	62230.16
523.07	62496.98
523.24	62248.89
523.41	62440.81
523.58	62450.17
523.75	62731.04
523.92	62707.63
524.10	62812.96
524.27	62887.85
524.44	62656.14
524.61	62897.22
524.78	62965.09
524.96	62972.11
525.13	63124.25
525.30	63210.85
525.47	63302.13
525.64	63173.40
525.81	63185.10
525.98	63313.83
526.16	63206.17
526.33	63400.43
526.50	63613.42
526.67	63327.87
526.84	63559.59
527.01	63615.76
527.18	63702.36
527.36	63683.64
527.53	63669.59
527.70	63744.49
527.87	63798.32
528.04	63791.30
528.21	64144.72
528.38	63824.07
528.55	64107.27
528.72	63927.05
528.89	63987.91
529.07	63767.90
529.24	64243.02
529.41	64060.46
529.58	64245.36
529.75	64439.63
529.92	64467.72
530.09	64130.68
530.26	64259.41
530.43	64357.71
530.60	64097.91
530.77	64186.85
530.94	64470.06
531.11	64432.61
531.28	64533.25
531.46	64488.78
531.63	64647.94
531.80	64561.34
531.97	64537.93
532.14	64734.54
532.31	64720.49
532.48	64928.80
532.65	65008.38
532.82	64881.99
532.99	64959.23
533.16	64774.33
533.33	65071.57
533.50	64989.66
533.67	64966.25
533.84	65045.83
534.01	65148.81
534.18	65062.21
534.35	65359.46
534.52	65204.98
534.69	65378.18
534.86	65279.88
535.03	65102.00
535.20	65338.40
535.37	65535.00
535.54	65535.00
535.71	65476.49
535.88	65535.00
536.05	65535.00
536.22	65535.00
536.38	65535.00
536.55	65535.00
536.72	65535.00
536.89	65535.00
537.06	65535.00
537.23	65535.00
537.40	65535.00
537.57	65535.00
537.74	65535.00
537.91	65535.00
538.08	65535.00
538.25	65535.00
538.42	65535.00
538.59	65535.00
538.75	65535.00
538.92	65535.00
539.09	65535.00
539.26	65535.00
539.43	65535.00
539.60	65535.00
539.77	65535.00
539.94	65535.00
540.11	65535.00
540.28	65535.00
540.44	65535.00
540.61	65535.00
540.78	65535.00
540.95	65535.00
541.12	65535.00
541.29	65535.00
541.46	65535.00
541.62	65535.00
541.79	65535.00
541.96	65535.00
542.13	65535.00
542.30	65535.00
542.47	65535.00
542.63	65535.00
542.80	65535.00
542.97	65535.00
543.14	65535.00
543.31	65535.00
543.48	65535.00
543.64	65535.00
543.81	65535.00
543.98	65535.00
544.15	65535.00
544.32	65535.00
544.48	65535.00
544.65	65535.00
544.82	65535.00
544.99	65535.00
545.16	65535.00
545.32	65535.00
545.49	65535.00
545.66	65535.00
545.83	65535.00
546.00	65535.00
546.16	65535.00
546.33	65535.00
546.50	65535.00
546.67	65535.00
546.83	65535.00
547.00	65535.00
547.17	65535.00
547.34	65535.00
547.50	65535.00
547.67	65535.00
547.84	65535.00
548.00	65535.00
548.17	65535.00
548.34	65535.00
548.51	65535.00
548.67	65535.00
548.84	65535.00
549.01	65535.00
549.18	65535.00
549.34	65535.00
549.51	65535.00
549.68	65535.00
549.84	65535.00
550.01	65535.00
550.18	65535.00
550.34	65535.00
550.51	65535.00
550.68	65535.00
550.84	65535.00
551.01	65535.00
551.18	65535.00
551.34	65535.00
551.51	65535.00
551.68	65535.00
551.84	65535.00
552.01	65535.00
552.18	65535.00
552.34	65535.00
552.51	65535.00
552.68	65535.00
552.84	65535.00
553.01	65535.00
553.18	65535.00
553.34	65535.00
553.51	65535.00
553.67	65535.00
553.84	65535.00
554.01	65535.00
554.17	65535.00
554.34	65535.00
554.51	65535.00
554.67	65535.00
554.84	65535.00
555.00	65535.00
555.17	65535.00
555.33	65535.00
555.50	65535.00
555.67	65535.00
555.83	65535.00
556.00	65535.00
556.16	65535.00
556.33	65535.00
556.50	65535.00
556.66	65535.00
556.83	65535.00
556.99	65535.00
557.16	65535.00
557.32	65535.00
557.49	65535.00
557.65	65535.00
557.82	65535.00
557.98	65535.00
558.15	65535.00
558.32	65535.00
558.48	65535.00
558.65	65535.00
558.81	65535.00
558.98	65535.00
559.14	65535.00
559.31	65535.00
559.47	65535.00
559.64	65535.00
559.80	65535.00
559.97	65535.00
560.13	65535.00
560.30	65535.00
560.46	65535.00
560.63	65535.00
560.79	65535.00
560.96	65535.00
561.12	65535.00
561.29	65535.00
561.45	65535.00
561.61	65535.00
561.78	65535.00
561.94	65535.00
562.11	65535.00
562.27	65535.00
562.44	65535.00
562.60	65535.00
562.77	65535.00
562.93	65535.00
563.10	65535.00
563.26	65535.00
563.42	65535.00
563.59	65535.00
563.75	65535.00
563.92	65535.00
564.08	65535.00
564.24	65535.00
564.41	65535.00
564.57	65535.00
564.74	65535.00
564.90	65535.00
565.07	65535.00
565.23	65535.00
565.39	65535.00
565.56	65535.00
565.72	65535.00
565.88	65535.00
566.05	65535.00
566.21	65535.00
566.38	65535.00
566.54	65535.00
566.70	65535.00
566.87	65535.00
567.03	65535.00
567.19	65535.00
567.36	65535.00
567.52	65535.00
567.68	65535.00
567.85	65535.00
568.01	65535.00
568.17	65535.00
568.34	65535.00
568.50	65535.00
568.66	65535.00
568.83	65535.00
568.99	65535.00
569.15	65535.00
569.32	65535.00
569.48	65535.00
569.64	65535.00
569.81	65535.00
569.97	65535.00
570.13	65535.00
570.30	65535.00
570.46	65535.00
570.62	65535.00
570.78	65535.00
570.95	65535.00
571.11	65535.00
571.27	65535.00
571.43	65535.00
571.60	65535.00
571.76	65535.00
571.92	65535.00
572.09	65535.00
572.25	65535.00
572.41	65535.00
572.57	65535.00
572.74	65535.00
572.90	65535.00
573.06	65535.00
573.22	65535.00
573.38	65535.00
573.55	65535.00
573.71	65535.00
573.87	65535.00
574.03	65535.00
574.20	65535.00
574.36	65535.00
574.52	65535.00
574.68	65535.00
574.84	65535.00
575.01	65535.00
575.17	65535.00
575.33	65535.00
575.49	65535.00
575.65	65535.00
575.82	65535.00
575.98	65535.00
576.14	65535.00
576.30	65535.00
576.46	65535.00
576.62	65535.00
576.79	65535.00
576.95	65535.00
577.11	65535.00
577.27	65535.00
577.43	65535.00
577.59	65535.00
577.75	65535.00
577.92	65535.00
578.08	65535.00
578.24	65535.00
578.40	65535.00
578.56	65535.00
578.72	65535.00
578.88	65535.00
579.04	65535.00
579.21	65535.00
579.37	65535.00
579.53	65535.00
579.69	65535.00
579.85	65535.00
580.01	65535.00
580.17	65535.00
580.33	65535.00
580.49	65535.00
580.65	65535.00
580.82	65535.00
580.98	65535.00
581.14	65535.00
581.30	65535.00
581.46	65535.00
581.62	65535.00
581.78	65535.00
581.94	65535.00
582.10	65535.00
582.26	65535.00
582.42	65535.00
582.58	65535.00
582.74	65535.00
582.90	65535.00
583.06	65535.00
583.22	65535.00
583.38	65535.00
583.54	65535.00
583.70	65535.00
583.86	65535.00
584.02	65535.00
584.18	65535.00
584.34	65535.00
584.50	65535.00
584.66	65535.00
584.82	65535.00
584.98	65535.00
585.14	65535.00
585.30	65535.00
585.46	65535.00
585.62	65535.00
585.78	65535.00
585.94	65535.00
586.10	65535.00
586.26	65535.00
586.42	65535.00
586.58	65535.00
586.74	65535.00
586.90	65535.00
587.06	65535.00
