SpectraSuite Data File
++++++++++++++++++++++++++++++++++++
Date: Thu Oct 24 13:21:07 EDT 2013
User: stostad
Dark Spectrum Present: No
Reference Spectrum Present: No
Number of Sampled Component Spectra: 1
Spectrometers: USB2+H05261
Integration Time (usec): 100000 (USB2+H05261)
Spectra Averaged: 1 (USB2+H05261)
Boxcar Smoothing: 0 (USB2+H05261)
Correct for Electrical Dark: No (USB2+H05261)
Strobe/Lamp Enabled: No (USB2+H05261)
Correct for Detector Non-linearity: No (USB2+H05261)
Correct for Stray Light: No (USB2+H05261)
Number of Pixels in Processed Spectrum: 2048
>>>>>Begin Processed Spectral Data<<<<<
365.73	578.11
365.92	578.11
366.12	578.11
366.32	524.28
366.52	472.79
366.72	521.94
366.91	503.22
367.11	379.17
367.31	505.56
367.51	486.83
367.70	423.64
367.90	442.36
368.10	451.72
368.30	404.91
368.49	468.11
368.69	400.23
368.89	414.27
369.09	465.77
369.28	519.60
369.48	454.06
369.68	535.98
369.87	479.81
370.07	573.43
370.27	512.58
370.47	543.00
370.66	671.73
370.86	610.88
371.06	725.57
371.25	720.88
371.45	699.82
371.65	697.48
371.84	683.44
372.04	662.37
372.24	833.23
372.44	732.59
372.63	814.51
372.83	770.04
373.03	828.55
373.22	741.95
373.42	858.98
373.62	802.80
373.81	802.80
374.01	870.68
374.21	755.99
374.40	833.23
374.60	763.01
374.79	763.01
374.99	903.45
375.19	800.46
375.38	800.46
375.58	840.25
375.78	873.02
375.97	814.51
376.17	880.04
376.37	812.17
376.56	863.66
376.76	835.57
376.95	854.30
377.15	823.87
377.35	851.96
377.54	784.08
377.74	828.55
377.93	882.38
378.13	814.51
378.33	861.32
378.52	809.83
378.72	842.59
378.91	772.38
379.11	748.97
379.31	861.32
379.50	847.27
379.70	908.13
379.89	842.59
380.09	840.25
380.28	840.25
380.48	819.19
380.68	828.55
380.87	861.32
381.07	863.66
381.26	901.11
381.46	842.59
381.65	856.64
381.85	837.91
382.04	837.91
382.24	894.08
382.43	945.58
382.63	854.30
382.83	856.64
383.02	919.83
383.22	880.04
383.41	856.64
383.61	894.08
383.80	924.51
384.00	922.17
384.19	880.04
384.39	830.89
384.58	980.68
384.78	863.66
384.97	903.45
385.17	964.30
385.36	828.55
385.56	882.38
385.75	912.81
385.95	959.62
386.14	908.13
386.34	854.30
386.53	964.30
386.72	985.37
386.92	971.32
387.11	926.85
387.31	954.94
387.50	919.83
387.70	926.85
387.89	971.32
388.09	929.19
388.28	901.11
388.48	1046.22
388.67	894.08
388.86	978.34
389.06	976.00
389.25	1008.77
389.45	1008.77
389.64	866.00
389.84	952.60
390.03	976.00
390.22	929.19
390.42	999.41
390.61	1074.31
390.81	971.32
391.00	990.05
391.19	990.05
391.39	1048.56
391.58	1088.35
391.78	1027.50
391.97	1034.52
392.16	1022.81
392.36	1064.94
392.55	1062.60
392.75	1076.65
392.94	1029.84
393.13	1027.50
393.33	1034.52
393.52	1032.18
393.71	1025.15
393.91	1048.56
394.10	1090.69
394.29	959.62
394.49	1125.80
394.68	1057.92
394.88	1097.71
395.07	1144.52
395.26	1179.63
395.46	1071.97
395.65	1114.10
395.84	1139.84
396.04	1093.03
396.23	1146.86
396.42	1151.54
396.62	1188.99
396.81	1111.75
397.00	1137.50
397.19	1083.67
397.39	1104.73
397.58	1163.25
397.77	1158.57
397.97	1167.93
398.16	1186.65
398.35	1174.95
398.55	1128.14
398.74	1170.27
398.93	1252.19
399.12	1284.95
399.32	1200.69
399.51	1196.01
399.70	1277.93
399.90	1207.72
400.09	1226.44
400.28	1193.67
400.47	1210.06
400.67	1224.10
400.86	1254.53
401.05	1282.61
401.24	1245.16
401.44	1238.14
401.63	1291.98
401.82	1254.53
402.01	1238.14
402.21	1313.04
402.40	1233.46
402.59	1247.51
402.78	1268.57
402.97	1291.98
403.17	1273.25
403.36	1331.76
403.55	1348.15
403.74	1355.17
403.93	1406.66
404.13	1430.07
404.32	1423.05
404.51	1390.28
404.70	1359.85
404.89	1364.53
405.09	1458.15
405.28	1315.38
405.47	1378.58
405.66	1416.02
405.85	1432.41
406.05	1392.62
406.24	1355.17
406.43	1418.36
406.62	1404.32
406.81	1390.28
407.00	1385.60
407.20	1460.49
407.39	1521.35
407.58	1537.73
407.77	1486.24
407.96	1488.58
408.15	1423.05
408.34	1493.26
408.54	1568.16
408.73	1535.39
408.92	1511.99
409.11	1460.49
409.30	1563.48
409.49	1603.27
409.68	1575.18
409.87	1486.24
410.07	1631.35
410.26	1612.63
410.45	1488.58
410.64	1586.88
410.83	1713.27
411.02	1675.82
411.21	1638.38
411.40	1666.46
411.59	1666.46
411.78	1659.44
411.98	1626.67
412.17	1708.59
412.36	1666.46
412.55	1696.89
412.74	1799.87
412.93	1771.79
413.12	1732.00
413.31	1849.02
413.50	1727.32
413.69	1757.74
413.88	1753.06
414.07	1827.96
414.26	1856.04
414.45	1769.44
414.64	1856.04
414.83	1813.92
415.02	1874.77
415.22	1895.83
415.41	1987.11
415.60	1961.37
415.79	1874.77
415.98	1980.09
416.17	1888.81
416.36	1984.77
416.55	1987.11
416.74	2026.90
416.93	1959.03
417.12	1919.24
417.31	2010.52
417.50	2076.06
417.69	2064.35
417.88	2104.14
418.07	2033.93
418.26	2045.63
418.45	2118.18
418.64	2083.08
418.83	2073.71
419.02	2101.80
419.21	2125.21
419.39	2094.78
419.58	2136.91
419.77	2148.61
419.96	2106.48
420.15	2214.15
420.34	2118.18
420.53	2181.38
420.72	2167.34
420.91	2214.15
421.10	2141.59
421.29	2202.44
421.48	2167.34
421.67	2148.61
421.86	2202.44
422.05	2153.29
422.24	2125.21
422.43	2289.04
422.61	2296.07
422.80	2188.40
422.99	2333.51
423.18	2303.09
423.37	2366.28
423.56	2282.02
423.75	2270.32
423.94	2193.08
424.13	2157.97
424.32	2272.66
424.50	2272.66
424.69	2225.85
424.88	2359.26
425.07	2186.06
425.26	2235.21
425.45	2392.03
425.64	2230.53
425.83	2455.22
426.01	2249.25
426.20	2333.51
426.39	2214.15
426.58	2207.13
426.77	2263.30
426.96	2392.03
427.15	2270.32
427.33	2232.87
427.52	2258.62
427.71	2354.58
427.90	2366.28
428.09	2457.56
428.28	2424.80
428.46	2499.69
428.65	2345.22
428.84	2354.58
429.03	2438.84
429.22	2462.24
429.40	2387.35
429.59	2420.11
429.78	2361.60
429.97	2438.84
430.16	2424.80
430.34	2469.27
430.53	2497.35
430.72	2424.80
430.91	2445.86
431.10	2485.65
431.28	2490.33
431.47	2635.44
431.66	2487.99
431.85	2658.85
432.03	2590.97
432.22	2616.72
432.41	2689.28
432.60	2558.21
432.79	2619.06
432.97	2619.06
433.16	2644.81
433.35	2583.95
433.54	2757.15
433.72	2731.41
433.91	2750.13
434.10	2717.36
434.28	2731.41
434.47	2686.94
434.66	2832.05
434.85	2754.81
435.03	2897.58
435.22	3094.19
435.41	3295.47
435.59	3126.96
435.78	3068.44
435.97	2979.50
436.16	2904.60
436.34	2867.16
436.53	2909.29
436.72	2902.26
436.90	2825.03
437.09	2862.48
437.28	2827.37
437.46	2829.71
437.65	2803.96
437.84	2874.18
438.02	2883.54
438.21	2787.58
438.40	2862.48
438.58	2977.16
438.77	3030.99
438.96	3056.74
439.14	3021.63
439.33	3124.62
439.52	3023.97
439.70	2942.05
439.89	3063.76
440.08	3110.57
440.26	3075.46
440.45	3129.30
440.63	3171.43
440.82	3194.83
441.01	3164.40
441.19	3108.23
441.38	3141.00
441.57	3133.98
441.75	3251.00
441.94	3389.10
442.12	3213.56
442.31	3400.80
442.50	3386.76
442.68	3382.07
442.87	3396.12
443.05	3307.18
443.24	3318.88
443.43	3361.01
443.61	3421.86
443.80	3482.72
443.98	3300.16
444.17	3325.90
444.35	3349.31
444.54	3440.59
444.73	3543.57
444.91	3454.63
445.10	3456.97
445.28	3466.33
445.47	3361.01
445.65	3410.16
445.84	3503.78
446.02	3562.30
446.21	3482.72
446.39	3433.57
446.58	3501.44
446.77	3356.33
446.95	3463.99
447.14	3438.25
447.32	3637.19
447.51	3651.24
447.69	3529.53
447.88	3494.42
448.06	3581.02
448.25	3585.70
448.43	3625.49
448.62	3515.48
448.80	3510.80
448.99	3541.23
449.17	3595.06
449.36	3496.76
449.54	3676.98
449.73	3627.83
449.91	3653.58
450.10	3665.28
450.28	3756.56
450.46	3808.05
450.65	3779.97
450.83	3712.09
451.02	3698.05
451.20	3763.58
451.39	3578.68
451.57	3632.51
451.76	3691.02
451.94	3705.07
452.13	3796.35
452.31	3719.11
452.49	3822.09
452.68	3730.81
452.86	3882.95
453.05	3854.86
453.23	3885.29
453.42	3789.33
453.60	3822.09
453.78	3861.88
453.97	3805.71
454.15	3812.73
454.34	3859.54
454.52	3925.08
454.70	3871.25
454.89	3978.91
455.07	3819.75
455.26	3948.48
455.44	3859.54
455.62	3913.38
455.81	3925.08
455.99	4091.26
456.17	4004.66
456.36	3999.98
456.54	3985.93
456.73	4044.45
456.91	4105.30
457.09	4079.55
457.28	4243.39
457.46	4086.58
457.64	4140.41
457.83	4201.26
458.01	4191.90
458.19	4355.74
458.38	4135.73
458.56	4180.20
458.74	4119.34
458.93	4362.76
459.11	4187.22
459.29	4100.62
459.48	4194.24
459.66	4311.27
459.84	4348.72
460.03	4248.07
460.21	4400.21
460.39	4383.82
460.57	4442.34
460.76	4304.25
460.94	4456.38
461.12	4477.44
461.31	4358.08
461.49	4402.55
461.67	4409.57
461.85	4461.06
462.04	4432.97
462.22	4851.93
462.40	4524.26
462.59	4613.20
462.77	4486.81
462.95	4692.77
463.13	4571.07
463.32	4397.87
463.50	4566.39
463.68	4620.22
463.86	4531.28
464.05	4582.77
464.23	4538.30
464.41	4676.39
464.59	4685.75
464.78	4709.16
464.96	4774.69
465.14	4587.45
465.32	4688.09
465.50	4795.76
465.69	4800.44
465.87	4741.93
466.05	4755.97
466.23	4760.65
466.41	4727.88
466.60	4821.50
466.78	4599.15
466.96	4606.17
467.14	4730.22
467.32	4877.68
467.51	4786.40
467.69	4833.21
467.87	4861.29
468.05	4739.58
468.23	4755.97
468.41	4826.18
468.60	4755.97
468.78	4870.65
468.96	4887.04
469.14	4870.65
469.32	4938.53
469.50	4905.76
469.69	5018.11
469.87	4997.04
470.05	5167.90
470.23	5123.43
470.41	5083.64
470.59	5132.79
470.77	5095.35
470.95	5022.79
471.14	5263.86
471.32	5093.01
471.50	5125.77
471.68	5022.79
471.86	5048.54
472.04	5252.16
472.22	5200.67
472.40	5242.80
472.58	5240.46
472.77	5322.38
472.95	5385.57
473.13	5444.09
473.31	5366.85
473.49	5488.56
473.67	5413.66
473.85	5448.77
474.03	5488.56
474.21	5572.82
474.39	5451.11
474.57	5439.40
474.75	5715.59
474.93	5540.05
475.12	5673.46
475.30	5650.05
475.48	5533.03
475.66	5816.23
475.84	5729.63
476.02	5776.44
476.20	5701.54
476.38	5781.12
476.56	6008.16
476.74	6132.20
476.92	5942.62
477.10	6050.28
477.28	5980.07
477.46	5987.09
477.64	6127.52
477.82	6101.78
478.00	6338.17
478.18	6120.50
478.36	6286.68
478.54	6403.71
478.72	6436.47
478.90	6422.43
479.08	6588.61
479.26	6490.31
479.44	6686.91
479.62	6532.44
479.80	6504.35
479.98	6715.00
480.16	6806.28
480.34	6527.75
480.52	6778.19
480.70	6827.34
480.88	6649.46
481.06	6806.28
481.24	6843.73
481.41	6935.01
481.59	7073.10
481.77	7110.55
481.95	7122.25
482.13	7187.79
482.31	7061.40
482.49	7440.56
482.67	7489.71
482.85	7300.13
483.03	7534.18
483.21	7489.71
483.39	7599.72
483.57	7625.47
483.74	7445.24
483.92	7772.92
484.10	7756.54
484.28	7632.49
484.46	8109.96
484.64	7992.93
484.82	7922.71
485.00	8182.51
485.18	8201.24
485.35	8241.03
485.53	8238.69
485.71	8367.42
485.89	8463.38
486.07	8557.00
486.25	8393.16
486.43	8524.23
486.61	8580.40
486.78	8678.71
486.96	8587.43
487.14	8842.54
487.32	8695.09
487.50	9034.47
487.68	9132.77
487.85	9057.87
488.03	9060.21
488.21	9165.54
488.39	9296.61
488.57	9240.44
488.75	9371.50
488.92	9462.79
489.10	9437.04
489.28	9551.73
489.46	9582.15
489.64	9511.94
489.81	9769.40
489.99	9755.35
490.17	9830.25
490.35	9769.40
490.53	10008.13
490.70	10017.49
490.88	9933.23
491.06	10214.10
491.24	9998.77
491.41	10195.37
491.59	10228.14
491.77	10202.40
491.95	10464.54
492.13	10457.51
492.30	10462.19
492.48	10506.66
492.66	10438.79
492.84	10665.82
493.01	10586.24
493.19	10834.34
493.37	10743.06
493.54	11023.92
493.72	11108.18
493.90	10953.71
494.08	10843.70
494.25	11119.89
494.43	11220.53
494.61	11012.22
494.79	11290.74
494.96	11363.30
495.14	11295.43
495.32	11566.93
495.49	11470.97
495.67	11508.41
495.85	11639.48
496.02	11503.73
496.20	11775.24
496.38	11854.81
496.55	11868.86
496.73	11932.05
496.91	11948.43
497.09	11955.46
497.26	11988.22
497.44	12233.98
497.62	12006.95
497.79	12334.62
497.97	12163.76
498.14	12313.56
498.32	12421.22
498.50	12645.91
498.67	12788.69
498.85	12556.97
499.03	12791.03
499.20	12627.19
499.38	12762.94
499.56	12725.49
499.73	12929.12
499.91	13067.21
500.08	12844.86
500.26	12828.48
500.44	13254.45
500.61	12975.93
500.79	12992.31
500.97	13050.83
501.14	13322.33
501.32	13121.04
501.49	13284.88
501.67	13394.89
501.84	13422.97
502.02	13359.78
502.20	13493.19
502.37	13263.82
502.55	13479.15
502.72	13453.40
502.90	13537.66
503.07	13638.30
503.25	13507.23
503.43	13486.17
503.60	13612.56
503.78	13781.07
503.95	13727.24
504.13	13621.92
504.30	13827.88
504.48	13905.12
504.65	13951.93
504.83	14080.66
505.01	14176.62
505.18	14052.58
505.36	14342.80
505.53	14181.31
505.71	14244.50
505.88	14424.72
506.06	14181.31
506.23	14668.14
506.41	14487.92
506.58	14553.45
506.76	14497.28
506.93	14637.71
507.11	14401.32
507.28	14604.94
507.46	14761.76
507.63	14878.79
507.81	14878.79
507.98	14600.26
508.16	14752.40
508.33	14604.94
508.50	14958.36
508.68	15030.92
508.85	15042.62
509.03	14862.40
509.20	15183.06
509.38	15215.82
509.55	15328.17
509.73	15035.60
509.90	15482.64
510.08	15489.67
510.25	15470.94
510.42	15487.32
510.60	15438.17
510.77	15417.11
510.95	15459.24
511.12	15676.91
511.30	15817.34
511.47	15674.57
511.64	15580.95
511.82	15761.17
511.99	15695.63
512.17	15779.89
512.34	16128.63
512.51	16107.57
512.69	16013.95
512.86	15932.03
513.04	16102.89
513.21	15990.54
513.38	16177.78
513.56	16046.71
513.73	16046.71
513.90	16299.49
514.08	16215.23
514.25	16430.56
514.43	16360.34
514.60	16423.54
514.77	16442.26
514.95	16446.94
515.12	16641.21
515.29	16601.42
515.47	16379.07
515.64	16985.27
515.81	16512.48
515.99	16727.81
516.16	16823.77
516.33	16926.75
516.51	16940.80
516.68	17069.53
516.85	16671.64
517.03	16931.44
517.20	16940.80
517.37	17043.78
517.54	17114.00
517.72	16786.32
517.89	16992.29
518.06	16879.94
518.24	17247.41
518.41	17174.85
518.58	17118.68
518.75	17060.16
518.93	17523.59
519.10	17296.56
519.27	17362.09
519.45	17245.07
519.62	17441.67
519.79	17139.74
519.96	17261.45
520.14	17427.63
520.31	17128.04
520.48	17717.86
520.65	17303.58
520.83	17802.11
521.00	17544.66
521.17	17638.28
521.34	17511.89
521.52	17853.61
521.69	17621.89
521.86	17865.31
522.03	17958.93
522.20	18019.78
522.38	17816.16
522.55	18125.11
522.72	17762.33
522.89	18026.81
523.07	18092.34
523.24	18075.96
523.41	17687.43
523.58	18127.45
523.75	18260.86
523.92	18352.14
524.10	18043.19
524.27	18204.69
524.44	18370.86
524.61	18057.23
524.78	18375.55
524.96	18443.42
525.13	18630.66
525.30	18693.86
525.47	18761.73
525.64	18574.49
525.81	18686.84
525.98	18305.33
526.16	18691.52
526.33	18796.84
526.50	19030.90
526.67	18738.33
526.84	18579.17
527.01	18824.93
527.18	19033.24
527.36	18848.33
527.53	18712.58
527.70	19101.11
527.87	18986.43
528.04	18991.11
528.21	19133.88
528.38	18988.77
528.55	19129.20
528.72	19241.54
528.89	19026.21
529.07	19040.26
529.24	18944.30
529.41	19241.54
529.58	19293.04
529.75	19241.54
529.92	19325.80
530.09	19520.07
530.26	19276.65
530.43	19225.16
530.60	19302.40
530.77	19353.89
530.94	19796.25
531.11	19555.18
531.28	19442.83
531.46	19564.54
531.63	19599.65
531.80	19534.11
531.97	19499.00
532.14	19896.89
532.31	19412.40
532.48	19770.51
532.65	19814.98
532.82	19859.45
532.99	19690.93
533.16	19751.78
533.33	19772.85
533.50	19924.98
533.67	19744.76
533.84	19726.04
534.01	19765.82
534.18	19955.41
534.35	20292.44
534.52	20287.76
534.69	20070.09
534.86	19990.52
535.03	20154.35
535.20	20144.99
535.37	20147.33
535.54	20432.88
535.71	20266.70
535.88	20311.17
536.05	20528.84
536.22	20283.08
536.38	20585.01
536.55	20507.77
536.72	20409.47
536.89	20533.52
537.06	20482.03
537.23	20348.62
537.40	20758.21
537.57	20306.49
537.74	20641.18
537.91	20397.77
538.08	20971.20
538.25	20299.47
538.42	20587.35
538.59	20688.00
538.75	20802.68
538.92	20753.53
539.09	20657.57
539.26	20343.94
539.43	20758.21
539.60	20535.86
539.77	20573.31
539.94	21025.03
540.11	21231.00
540.28	21188.87
540.44	21120.99
540.61	21266.11
540.78	20982.90
540.95	21542.29
541.12	21212.28
541.29	21348.03
541.46	21432.29
541.62	21530.59
541.79	21720.17
541.96	21418.24
542.13	21521.23
542.30	21666.34
542.47	21675.70
542.63	21727.19
542.80	21816.13
542.97	21785.71
543.14	22059.55
543.31	21781.03
543.48	21809.11
543.64	21858.26
543.81	21731.87
543.98	22078.27
544.15	22143.81
544.32	21701.45
544.48	22415.31
544.65	21827.84
544.82	22228.07
544.99	21783.37
545.16	21961.25
545.32	21884.01
545.49	22520.63
545.66	22843.63
545.83	23178.33
546.00	22953.63
546.16	22721.92
546.33	22522.98
546.50	22499.57
546.67	22291.26
546.83	21757.62
547.00	22113.38
547.17	21790.39
547.34	22118.06
547.50	22171.89
547.67	22354.46
547.84	22382.54
548.00	22724.26
548.17	22455.10
548.34	22412.97
548.51	22066.57
548.67	22604.89
548.84	22249.13
549.01	22279.56
549.18	22499.57
549.34	22272.54
549.51	22497.23
549.68	22396.59
549.84	22298.28
550.01	22405.95
550.18	22349.78
550.34	22113.38
550.51	22326.37
550.68	22506.59
550.84	22207.00
551.01	22609.58
551.18	22031.46
551.34	21933.16
551.51	22291.26
551.68	22436.38
551.84	22441.06
552.01	22160.19
552.18	22476.16
552.34	22649.36
552.51	22843.63
552.68	22319.35
552.84	22532.34
553.01	22616.60
553.18	23087.04
553.34	22691.49
553.51	22396.59
553.67	22644.68
553.84	23098.75
554.01	23166.62
554.17	22768.73
554.34	23063.64
554.51	22424.67
554.67	22836.61
554.84	22654.05
555.00	22525.32
555.17	22679.79
555.33	22750.01
555.50	22726.60
555.67	22841.29
555.83	22698.52
556.00	22625.96
556.16	23040.23
556.33	22899.80
556.50	22665.75
556.66	22719.58
556.83	22897.46
556.99	23026.19
557.16	22883.42
557.32	23063.64
557.49	22632.98
557.65	22625.96
557.82	22979.38
557.98	22874.06
558.15	22946.61
558.32	23283.65
558.48	22902.14
558.65	23140.88
558.81	23274.29
558.98	22946.61
559.14	22867.03
559.31	23152.58
559.47	23101.09
559.64	22794.48
559.80	23417.06
559.97	23026.19
560.13	23035.55
560.30	22794.48
560.46	23161.94
560.63	23360.89
560.79	23304.71
560.96	23267.27
561.12	23019.17
561.29	23538.77
561.45	23253.22
561.61	23400.68
561.78	23620.69
561.94	23358.55
562.11	23552.81
562.27	23484.94
562.44	23199.39
562.60	23522.38
562.77	23342.16
562.93	23026.19
563.10	23548.13
563.26	23381.95
563.42	23246.20
563.59	23400.68
563.75	23311.74
563.92	23541.11
564.08	23480.25
564.24	23166.62
564.41	23344.50
564.57	23227.48
564.74	23379.61
564.90	23484.94
565.07	23431.10
565.23	23531.75
565.39	23253.22
565.56	23814.95
565.72	23744.73
565.88	23711.97
566.05	23278.97
566.21	23185.35
566.38	23328.12
566.54	23370.25
566.70	23550.47
566.87	23538.77
567.03	23414.72
567.19	23756.44
567.36	23529.41
567.52	23363.23
567.68	23709.63
567.85	23634.73
568.01	23508.34
568.17	23271.95
568.34	23611.32
568.50	23517.70
568.66	23531.75
568.83	23559.83
568.99	23555.15
569.15	23637.07
569.32	23672.18
569.48	23269.61
569.64	23718.99
569.81	23477.91
569.97	23679.20
570.13	23405.36
570.30	23632.39
570.46	23487.28
570.62	23714.31
570.78	23768.14
570.95	23819.63
571.11	23803.25
571.27	24027.94
571.43	23751.76
571.60	23487.28
571.76	23702.61
571.92	23667.50
572.09	23756.44
572.25	23971.77
572.41	24002.19
572.57	23864.10
572.74	23948.36
572.90	23887.51
573.06	23976.45
573.22	23644.09
573.38	23798.57
573.55	23587.92
573.71	24088.79
573.87	23817.29
574.03	23824.31
574.20	24128.58
574.36	23955.38
574.52	23887.51
574.68	23927.30
574.84	23840.70
575.01	23613.66
575.17	23978.79
575.33	23850.06
575.49	23936.66
575.65	23838.36
575.82	23667.50
575.98	24107.52
576.14	23866.44
576.30	24023.26
576.46	23880.49
576.62	23997.51
576.79	24229.23
576.95	23988.15
577.11	24034.96
577.27	23985.81
577.43	24161.35
577.59	23964.75
577.75	24189.44
577.92	23791.55
578.08	24006.87
578.24	23955.38
578.40	24058.37
578.56	24381.36
578.72	24091.13
578.88	24407.11
579.04	24215.18
579.21	23800.91
579.37	23936.66
579.53	24224.54
579.69	23845.38
579.85	24137.94
580.01	23784.52
580.17	24161.35
580.33	23711.97
580.49	23868.78
580.65	24226.89
580.82	23995.17
580.98	23929.64
581.14	23847.72
581.30	23953.04
581.46	24049.00
581.62	23805.59
581.78	23857.08
581.94	23625.37
582.10	24027.94
582.26	24039.64
582.42	24306.46
582.58	24119.22
582.74	23819.63
582.90	24257.31
583.06	24259.65
583.22	24049.00
583.38	24348.59
583.54	24025.60
583.70	24271.36
583.86	24137.94
584.02	23985.81
584.18	24091.13
584.34	23990.49
584.50	24313.48
584.66	24133.26
584.82	23625.37
584.98	24243.27
585.14	23929.64
585.30	24067.73
585.46	24247.95
585.62	24070.07
585.78	24002.19
585.94	23763.46
586.10	24116.88
586.26	24053.69
586.42	24032.62
586.58	24261.99
586.74	24060.71
586.90	23873.46
587.06	24290.08
587.22	24367.32
587.38	23901.55
587.54	24154.33
587.70	24556.90
587.86	23871.12
588.02	24088.79
588.18	24177.73
588.34	24381.36
588.49	24444.56
588.65	24088.79
588.81	24224.54
588.97	24367.32
589.13	23805.59
589.29	24023.26
589.45	23833.68
589.61	24367.32
589.77	24402.43
589.93	24404.77
590.08	24341.57
590.24	24659.88
590.40	24306.46
590.56	24563.92
590.72	24140.29
590.88	23777.50
