SpectraSuite Data File
++++++++++++++++++++++++++++++++++++
Date: Thu Oct 24 13:21:13 EDT 2013
User: stostad
Dark Spectrum Present: No
Reference Spectrum Present: No
Number of Sampled Component Spectra: 1
Spectrometers: USB2+H05261
Integration Time (usec): 100000 (USB2+H05261)
Spectra Averaged: 1 (USB2+H05261)
Boxcar Smoothing: 0 (USB2+H05261)
Correct for Electrical Dark: No (USB2+H05261)
Strobe/Lamp Enabled: No (USB2+H05261)
Correct for Detector Non-linearity: No (USB2+H05261)
Correct for Stray Light: No (USB2+H05261)
Number of Pixels in Processed Spectrum: 2048
>>>>>Begin Processed Spectral Data<<<<<
365.73	547.69
365.92	547.69
366.12	547.69
366.32	531.30
366.52	440.02
366.72	465.77
366.91	454.06
367.11	479.81
367.31	465.77
367.51	484.49
367.70	447.04
367.90	428.32
368.10	433.00
368.30	444.70
368.49	440.02
368.69	510.24
368.89	512.58
369.09	475.13
369.28	505.56
369.48	423.64
369.68	510.24
369.87	559.39
370.07	526.62
370.27	550.03
370.47	638.97
370.66	641.31
370.86	716.20
371.06	657.69
371.25	709.18
371.45	634.29
371.65	681.10
371.84	770.04
372.04	748.97
372.24	706.84
372.44	732.59
372.63	723.23
372.83	767.70
373.03	737.27
373.22	697.48
373.42	779.40
373.62	809.83
373.81	755.99
374.01	816.85
374.21	823.87
374.40	746.63
374.60	727.91
374.79	744.29
374.99	821.53
375.19	774.72
375.38	833.23
375.58	723.23
375.78	870.68
375.97	774.72
376.17	821.53
376.37	814.51
376.56	765.36
376.76	770.04
376.95	802.80
377.15	777.06
377.35	751.31
377.54	753.65
377.74	758.33
377.93	777.06
378.13	739.61
378.33	819.19
378.52	826.21
378.72	849.61
378.91	823.87
379.11	765.36
379.31	819.19
379.50	873.02
379.70	833.23
379.89	840.25
380.09	805.14
380.28	807.48
380.48	791.10
380.68	767.70
380.87	713.86
381.07	847.27
381.26	840.25
381.46	819.19
381.65	805.14
381.85	844.93
382.04	849.61
382.24	910.47
382.43	802.80
382.63	830.89
382.83	837.91
383.02	870.68
383.22	786.42
383.41	898.77
383.61	842.59
383.80	863.66
384.00	866.00
384.19	851.96
384.39	882.38
384.58	854.30
384.78	842.59
384.97	875.36
385.17	809.83
385.36	919.83
385.56	912.81
385.75	821.53
385.95	833.23
386.14	880.04
386.34	877.70
386.53	882.38
386.72	880.04
386.92	875.36
387.11	931.53
387.31	873.02
387.50	884.72
387.70	870.68
387.89	842.59
388.09	891.74
388.28	814.51
388.48	894.08
388.67	915.15
388.86	901.11
389.06	875.36
389.25	903.45
389.45	919.83
389.64	957.28
389.84	952.60
390.03	887.06
390.22	922.17
390.42	919.83
390.61	929.19
390.81	964.30
391.00	1025.15
391.19	954.94
391.39	976.00
391.58	952.60
391.78	912.81
391.97	992.39
392.16	919.83
392.36	992.39
392.55	992.39
392.75	926.85
392.94	1001.75
393.13	922.17
393.33	1008.77
393.52	983.02
393.71	966.64
393.91	978.34
394.10	1057.92
394.29	1039.20
394.49	943.24
394.68	1036.86
394.88	1050.90
395.07	1064.94
395.26	990.05
395.46	990.05
395.65	1057.92
395.84	1046.22
396.04	1050.90
396.23	1006.43
396.42	1086.01
396.62	1149.20
396.81	1083.67
397.00	1013.45
397.19	1062.60
397.39	1057.92
397.58	1069.62
397.77	1060.26
397.97	1055.58
398.16	1111.75
398.35	1086.01
398.55	994.73
398.74	1041.54
398.93	1109.41
399.12	1100.05
399.32	1093.03
399.51	1128.14
399.70	1132.82
399.90	1212.40
400.09	1139.84
400.28	1186.65
400.47	1086.01
400.67	1100.05
400.86	1118.78
401.05	1167.93
401.24	1069.62
401.44	1217.08
401.63	1203.04
401.82	1181.97
402.01	1165.59
402.21	1219.42
402.40	1224.10
402.59	1240.48
402.78	1214.74
402.97	1228.78
403.17	1217.08
403.36	1203.04
403.55	1310.70
403.74	1249.85
403.93	1362.19
404.13	1348.15
404.32	1296.66
404.51	1308.36
404.70	1317.72
404.89	1263.89
405.09	1306.02
405.28	1221.76
405.47	1254.53
405.66	1291.98
405.85	1289.64
406.05	1289.64
406.24	1390.28
406.43	1240.48
406.62	1327.08
406.81	1390.28
407.00	1357.51
407.20	1331.76
407.39	1390.28
407.58	1430.07
407.77	1458.15
407.96	1474.54
408.15	1399.64
408.34	1451.13
408.54	1486.24
408.73	1432.41
408.92	1465.18
409.11	1439.43
409.30	1537.73
409.49	1455.81
409.68	1439.43
409.87	1551.78
410.07	1572.84
410.26	1488.58
410.45	1486.24
410.64	1467.52
410.83	1596.25
411.02	1502.62
411.21	1652.42
411.40	1504.96
411.59	1589.22
411.78	1561.14
411.98	1486.24
412.17	1589.22
412.36	1631.35
412.55	1652.42
412.74	1636.03
412.93	1607.95
413.12	1638.38
413.31	1671.14
413.50	1701.57
413.69	1610.29
413.88	1748.38
414.07	1710.93
414.26	1790.51
414.45	1727.32
414.64	1750.72
414.83	1715.61
415.02	1797.53
415.22	1722.63
415.41	1746.04
415.60	1678.16
415.79	1844.34
415.98	1783.49
416.17	1816.26
416.36	1811.57
416.55	1874.77
416.74	1860.73
416.93	1860.73
417.12	1928.60
417.31	1806.89
417.50	1914.56
417.69	2022.22
417.88	1921.58
418.07	1970.73
418.26	1923.92
418.45	1933.28
418.64	2022.22
418.83	2012.86
419.02	1973.07
419.21	2059.67
419.39	2036.27
419.58	2012.86
419.77	2005.84
419.96	2024.56
420.15	2031.58
420.34	2071.37
420.53	2031.58
420.72	2064.35
420.91	2038.61
421.10	2031.58
421.29	2073.71
421.48	2054.99
421.67	2012.86
421.86	2085.42
422.05	2069.03
422.24	1987.11
422.43	1977.75
422.61	2092.44
422.80	2141.59
422.99	2083.08
423.18	2120.53
423.37	2153.29
423.56	2094.78
423.75	2111.16
423.94	2043.29
424.13	2026.90
424.32	2045.63
424.50	2172.02
424.69	2253.94
424.88	2139.25
425.07	2179.04
425.26	2195.42
425.45	2190.74
425.64	2225.85
425.83	2235.21
426.01	2141.59
426.20	2179.04
426.39	2143.93
426.58	2221.17
426.77	2127.55
426.96	2136.91
427.15	2148.61
427.33	2160.31
427.52	2272.66
427.71	2235.21
427.90	2211.81
428.09	2244.57
428.28	2239.89
428.46	2237.55
428.65	2328.83
428.84	2321.81
429.03	2218.83
429.22	2202.44
429.40	2345.22
429.59	2265.64
429.78	2424.80
429.97	2246.91
430.16	2242.23
430.34	2284.36
430.53	2448.20
430.72	2291.38
430.91	2387.35
431.10	2279.68
431.28	2345.22
431.47	2317.13
431.66	2366.28
431.85	2253.94
432.03	2406.07
432.22	2401.39
432.41	2410.75
432.60	2487.99
432.79	2399.05
432.97	2422.45
433.16	2534.80
433.35	2385.01
433.54	2387.35
433.72	2644.81
433.91	2464.58
434.10	2527.78
434.28	2448.20
434.47	2450.54
434.66	2548.84
434.85	2605.02
435.03	2661.19
435.22	2888.22
435.41	3038.02
435.59	2958.44
435.78	2848.43
435.97	2715.02
436.16	2661.19
436.34	2633.10
436.53	2696.30
436.72	2689.28
436.90	2705.66
437.09	2658.85
437.28	2586.29
437.46	2649.49
437.65	2619.06
437.84	2731.41
438.02	2750.13
438.21	2644.81
438.40	2647.15
438.58	2839.07
438.77	2715.02
438.96	2757.15
439.14	2789.92
439.33	2696.30
439.52	2909.29
439.70	2794.60
439.89	2920.99
440.08	2860.13
440.26	2935.03
440.45	2874.18
440.63	2897.58
440.82	3042.70
441.01	2825.03
441.19	2963.12
441.38	3023.97
441.57	2963.12
441.75	3019.29
441.94	3023.97
442.12	3054.40
442.31	3023.97
442.50	3061.42
442.68	3059.08
442.87	3063.76
443.05	3075.46
443.24	3143.34
443.43	3222.92
443.61	3110.57
443.80	3173.77
443.98	3073.12
444.17	3073.12
444.35	3091.85
444.54	3169.09
444.73	3192.49
444.91	3222.92
445.10	3225.26
445.28	3199.51
445.47	3201.85
445.65	3148.02
445.84	3201.85
446.02	3262.71
446.21	3251.00
446.39	3194.83
446.58	3262.71
446.77	3265.05
446.95	3101.21
447.14	3229.94
447.32	3346.97
447.51	3122.27
447.69	3225.26
447.88	3194.83
448.06	3164.40
448.25	3225.26
448.43	3222.92
448.62	3260.37
448.80	3192.49
448.99	3227.60
449.17	3265.05
449.36	3300.16
449.54	3424.20
449.73	3325.90
449.91	3323.56
450.10	3286.11
450.28	3377.39
450.46	3321.22
450.65	3358.67
450.83	3365.69
451.02	3281.43
451.20	3410.16
451.39	3346.97
451.57	3396.12
451.76	3279.09
451.94	3426.54
452.13	3375.05
452.31	3459.31
452.49	3557.61
452.68	3403.14
452.86	3466.33
453.05	3543.57
453.23	3513.14
453.42	3482.72
453.60	3508.46
453.78	3555.27
453.97	3529.53
454.15	3559.95
454.34	3574.00
454.52	3524.85
454.70	3543.57
454.89	3545.91
455.07	3550.59
455.26	3592.72
455.44	3541.23
455.62	3641.87
455.81	3585.70
455.99	3695.71
456.17	3637.19
456.36	3588.04
456.54	3630.17
456.73	3751.88
456.91	3815.07
457.09	3775.28
457.28	3922.74
457.46	3716.77
457.64	3803.37
457.83	3836.14
458.01	3707.41
458.19	4037.42
458.38	3698.05
458.56	3740.18
458.74	3885.29
458.93	3836.14
459.11	3906.35
459.29	3843.16
459.48	3810.39
459.66	3920.40
459.84	3962.53
460.03	4037.42
460.21	4131.05
460.39	4018.70
460.57	3971.89
460.76	3892.31
460.94	4086.58
461.12	4074.87
461.31	3896.99
461.49	3988.27
461.67	4021.04
461.85	4042.11
462.04	3971.89
462.22	4332.33
462.40	4191.90
462.59	4161.47
462.77	4042.11
462.95	4243.39
463.13	4105.30
463.32	4217.65
463.50	4093.60
463.68	4304.25
463.86	4140.41
464.05	4100.62
464.23	4119.34
464.41	4140.41
464.59	4229.35
464.78	4259.78
464.96	4168.49
465.14	4152.11
465.32	4212.96
465.50	4227.01
465.69	4390.84
465.87	4198.92
466.05	4264.46
466.23	4273.82
466.41	4149.77
466.60	4362.76
466.78	4248.07
466.96	4259.78
467.14	4376.80
467.32	4418.93
467.51	4311.27
467.69	4318.29
467.87	4351.06
468.05	4531.28
468.23	4416.59
468.41	4358.08
468.60	4341.69
468.78	4610.86
468.96	4318.29
469.14	4496.17
469.32	4571.07
469.50	4486.81
469.69	4379.14
469.87	4498.51
470.05	4365.10
470.23	4606.17
470.41	4557.02
470.59	4587.45
470.77	4669.37
470.95	4545.32
471.14	4580.43
471.32	4432.97
471.50	4676.39
471.68	4702.14
471.86	4835.55
472.04	4662.35
472.22	4732.56
472.40	4709.16
472.58	4753.63
472.77	4830.87
472.95	4791.08
473.13	4875.34
473.31	4931.51
473.49	4741.93
473.67	4854.27
473.85	4887.04
474.03	5111.73
474.21	4933.85
474.39	5195.99
474.57	5039.17
474.75	5015.77
474.93	5022.79
475.12	5043.85
475.30	5203.01
475.48	5055.56
475.66	5083.64
475.84	5207.69
476.02	5139.82
476.20	5394.93
476.38	5259.18
476.56	5224.08
476.74	5383.23
476.92	5313.02
477.10	5310.68
477.28	5486.22
477.46	5390.25
477.64	5476.85
477.82	5577.50
478.00	5675.80
478.18	5533.03
478.36	5678.14
478.54	5685.16
478.72	5710.91
478.90	5823.25
479.08	5797.51
479.26	5849.00
479.44	5926.24
479.62	5919.21
479.80	5919.21
479.98	5949.64
480.16	6225.82
480.34	6024.54
480.52	5987.09
480.70	6071.35
480.88	6012.84
481.06	6087.73
481.24	6171.99
481.41	6296.04
481.59	6403.71
481.77	6438.81
481.95	6420.09
482.13	6490.31
482.31	6497.33
482.49	6588.61
482.67	6640.10
482.85	6829.68
483.03	6576.91
483.21	6642.44
483.39	6806.28
483.57	6911.60
483.74	6860.11
483.92	6998.20
484.10	6935.01
484.28	7122.25
484.46	7166.72
484.64	7248.64
484.82	7169.06
485.00	7229.91
485.18	7342.26
485.35	7461.63
485.53	7330.56
485.71	7407.80
485.89	7524.82
486.07	7475.67
486.25	7541.21
486.43	7679.30
486.61	7754.19
486.78	7868.88
486.96	7733.13
487.14	8058.46
487.32	8053.78
487.50	8025.70
487.68	7875.90
487.85	8074.85
488.03	8002.29
488.21	8376.78
488.39	8292.52
488.57	8442.31
488.75	8411.89
488.92	8505.51
489.10	8650.62
489.28	8657.64
489.46	8613.17
489.64	8655.30
489.81	8718.50
489.99	8648.28
490.17	8844.88
490.35	9078.94
490.53	8908.08
490.70	8800.41
490.88	8992.34
491.06	9067.24
491.24	9139.79
491.41	9128.09
491.59	9102.34
491.77	9027.45
491.95	9249.80
492.13	9277.88
492.30	9472.15
492.48	9343.42
492.66	9401.93
492.84	9415.98
493.01	9659.39
493.19	9692.16
493.37	9792.80
493.54	9708.54
493.72	9881.74
493.90	9750.67
494.08	9645.35
494.25	10057.28
494.43	10045.58
494.61	10139.20
494.79	10141.54
494.96	10068.98
495.14	9958.98
495.32	10415.38
495.49	10356.87
495.67	10377.94
495.85	10326.44
496.02	10483.26
496.20	10576.88
496.38	10504.32
496.55	10740.72
496.73	10862.43
496.91	10689.23
497.09	10637.73
497.26	10956.05
497.44	10731.36
497.62	10815.62
497.79	10958.39
497.97	10752.42
498.14	11176.06
498.32	11227.55
498.50	11105.84
498.67	11225.21
498.85	11162.01
499.03	11290.74
499.20	11007.54
499.38	11265.00
499.56	11417.13
499.73	11164.36
499.91	11522.46
500.08	11623.10
500.26	11461.60
500.44	11606.72
500.61	11758.85
500.79	11379.68
500.97	11751.83
501.14	11932.05
501.32	11826.73
501.49	11784.60
501.67	11709.70
501.84	11880.56
502.02	11920.35
502.20	11838.43
502.37	11953.12
502.55	12114.61
502.72	11903.96
502.90	11899.28
503.07	12435.27
503.25	12023.33
503.43	12098.23
503.60	12187.17
503.78	12332.28
503.95	12201.21
504.13	12201.21
504.30	12393.14
504.48	12388.46
504.65	12533.57
504.83	12526.55
505.01	12610.81
505.18	12362.71
505.36	12741.88
505.53	12615.49
505.71	12575.70
505.88	12732.51
506.06	12498.46
506.23	12734.85
506.41	12535.91
506.58	12697.41
506.76	12737.20
506.93	12802.73
507.11	12723.15
507.28	13078.91
507.46	13029.76
507.63	13099.98
507.81	13036.78
507.98	13081.25
508.16	13018.06
508.33	13078.91
508.50	12982.95
508.68	13167.85
508.85	13184.24
509.03	13198.28
509.20	13144.45
509.38	13331.69
509.55	13610.22
509.73	13535.32
509.90	13472.12
510.08	13537.66
510.25	13680.43
510.42	13483.83
510.60	13722.56
510.77	13680.43
510.95	13799.80
511.12	13708.52
511.30	13804.48
511.47	13902.78
511.64	14085.34
511.82	13640.64
511.99	13706.18
512.17	13846.61
512.34	14054.92
512.51	13916.83
512.69	14246.84
512.86	14150.88
513.04	14373.23
513.21	14099.39
513.38	14244.50
513.56	14356.85
513.73	14246.84
513.90	14148.54
514.08	14455.15
514.25	14445.79
514.43	14345.14
514.60	14281.95
514.77	14221.10
514.95	14691.54
515.12	14572.18
515.29	14485.58
515.47	14738.35
515.64	14820.27
515.81	14705.59
515.99	14525.36
516.16	14586.22
516.33	14885.81
516.51	14693.88
516.68	14979.43
516.85	14841.34
517.03	14916.23
517.20	14871.76
517.37	14675.16
517.54	15077.73
517.72	15098.80
517.89	14785.16
518.06	15346.89
518.24	15075.39
518.41	15080.07
518.58	15068.37
518.75	15087.09
518.93	15206.46
519.10	15068.37
519.27	15061.35
519.45	15391.36
519.62	15576.27
519.79	15580.95
519.96	15484.98
520.14	15255.61
520.31	15159.65
520.48	15257.95
520.65	15456.90
520.83	15534.14
521.00	15590.31
521.17	15686.27
521.34	15538.82
521.52	15611.37
521.69	15676.91
521.86	15679.25
522.03	15772.87
522.20	15796.28
522.38	15679.25
522.55	15634.78
522.72	15665.21
522.89	15653.50
523.07	15913.30
523.24	15903.94
523.41	15922.66
523.58	15838.41
523.75	16435.24
523.92	16009.26
524.10	16210.55
524.27	16208.21
524.44	15988.20
524.61	16325.24
524.78	15999.90
524.96	15976.50
525.13	16400.13
525.30	16388.43
525.47	16329.92
525.64	16414.18
525.81	16341.62
525.98	16367.37
526.16	16191.83
526.33	16458.65
526.50	16465.67
526.67	16325.24
526.84	16730.15
527.01	16507.80
527.18	16678.66
527.36	16383.75
527.53	16505.46
527.70	16769.94
527.87	16652.91
528.04	16627.17
528.21	16634.19
528.38	16975.91
528.55	16793.34
528.72	16650.57
528.89	16774.62
529.07	16772.28
529.24	16507.80
529.41	16718.45
529.58	16697.38
529.75	16755.90
529.92	16795.68
530.09	16957.18
530.26	16908.03
530.43	16826.11
530.60	16774.62
530.77	16893.99
530.94	16947.82
531.11	16854.20
531.28	16931.44
531.46	17123.36
531.63	17106.98
531.80	17053.14
531.97	17240.39
532.14	17135.06
532.31	17315.28
532.48	17462.74
532.65	17434.65
532.82	17324.65
532.99	17144.42
533.16	17359.75
533.33	17411.25
533.50	17642.96
533.67	17612.53
533.84	17193.58
534.01	17415.93
534.18	17392.52
534.35	17811.48
534.52	17755.30
534.69	17343.37
534.86	17680.41
535.03	17495.50
535.20	17722.54
535.37	17589.13
535.54	17575.08
535.71	17671.04
535.88	17738.92
536.05	17532.95
536.22	17823.18
536.38	17961.27
536.55	18146.17
536.72	17834.88
536.89	17827.86
537.06	18274.90
537.23	18361.50
537.40	18113.41
537.57	18122.77
537.74	18104.04
537.91	18033.83
538.08	17956.59
538.25	17846.58
538.42	18033.83
538.59	18497.25
538.75	18029.15
538.92	18190.64
539.09	18155.54
539.26	18347.46
539.43	18373.21
539.60	18094.68
539.77	18260.86
539.94	18546.40
540.11	18539.38
540.28	18588.53
540.44	18396.61
540.61	18604.92
540.78	18452.78
540.95	18497.25
541.12	18913.87
541.29	18918.55
541.46	19187.71
541.62	18820.25
541.79	18731.31
541.96	19278.99
542.13	18988.77
542.30	18771.10
542.47	18813.23
542.63	18864.72
542.80	18974.72
542.97	19180.69
543.14	19480.28
543.31	19040.26
543.48	19201.76
543.64	19225.16
543.81	19023.87
543.98	19328.14
544.15	19386.66
544.32	19264.95
544.48	19456.87
544.65	19229.84
544.82	19386.66
544.99	19482.62
545.16	19601.99
545.32	19367.93
545.49	19920.30
545.66	20292.44
545.83	20428.20
546.00	20137.97
546.16	20088.82
546.33	19562.20
546.50	19386.66
546.67	19550.49
546.83	19365.59
547.00	19190.05
547.17	19166.65
547.34	19016.85
547.50	19620.71
547.67	19695.61
547.84	19140.90
548.00	19651.14
548.17	19681.56
548.34	19208.78
548.51	19679.22
548.67	19311.76
548.84	19604.33
549.01	19016.85
549.18	19531.77
549.34	19374.95
549.51	19255.59
549.68	19405.38
549.84	19381.98
550.01	19211.12
550.18	19740.08
550.34	19513.05
550.51	19290.70
550.68	19562.20
550.84	19215.80
551.01	19765.82
551.18	19211.12
551.34	19288.35
551.51	19496.66
551.68	19473.26
551.84	19660.50
552.01	19594.96
552.18	19400.70
552.34	19688.59
552.51	19969.45
552.68	19737.74
552.84	19484.96
553.01	19470.92
553.18	19513.05
553.34	19800.93
553.51	19407.72
553.67	19847.74
553.84	19590.28
554.01	19784.55
554.17	20140.31
554.34	19850.08
554.51	19660.50
554.67	19751.78
554.84	19819.66
555.00	19653.48
555.17	19117.50
555.33	19611.35
555.50	19714.33
555.67	19901.58
555.83	19747.10
556.00	19658.16
556.16	20219.89
556.33	20056.05
556.50	19901.58
556.66	19580.92
556.83	19873.49
556.99	20027.96
557.16	19822.00
557.32	20060.73
557.49	20156.69
557.65	19833.70
557.82	19826.68
557.98	19667.52
558.15	20201.16
558.32	19819.66
558.48	19864.13
558.65	20292.44
558.81	19693.27
558.98	19964.77
559.14	20095.84
559.31	19850.08
559.47	19873.49
559.64	19859.45
559.80	19826.68
559.97	20039.67
560.13	19971.79
560.30	20025.62
560.46	20247.97
560.63	19955.41
560.79	20556.93
560.96	20020.94
561.12	20187.12
561.29	20037.33
561.45	20365.00
561.61	20037.33
561.78	20470.33
561.94	20460.96
562.11	20570.97
562.27	20334.57
562.44	20004.56
562.60	20240.95
562.77	20255.00
562.93	20142.65
563.10	20357.98
563.26	19899.23
563.42	20034.99
563.59	20182.44
563.75	19988.18
563.92	20472.67
564.08	20042.01
564.24	20634.16
564.41	20245.63
564.57	20203.50
564.74	20423.51
564.90	20444.58
565.07	20322.87
565.23	20236.27
565.39	20140.31
565.56	20524.16
565.72	20400.11
565.88	20362.66
566.05	20020.94
566.21	20144.99
566.38	20191.80
566.54	20299.47
566.70	20690.34
566.87	20446.92
567.03	20456.28
567.19	20535.86
567.36	20442.24
567.52	20243.29
567.68	20259.68
567.85	20107.54
568.01	20596.71
568.17	20369.68
568.34	20355.64
568.50	20182.44
568.66	20451.60
568.83	20379.04
568.99	20219.89
569.15	20463.30
569.32	20299.47
569.48	20456.28
569.64	20524.16
569.81	20088.82
569.97	20299.47
570.13	20402.45
570.30	20077.12
570.46	20805.02
570.62	20376.70
570.78	20236.27
570.95	20037.33
571.11	20350.96
571.27	20535.86
571.43	20603.74
571.60	20467.98
571.76	20107.54
571.92	20318.19
572.09	20329.89
572.25	20423.51
572.41	20559.27
572.57	20341.60
572.74	20648.21
572.90	20414.15
573.06	20657.57
573.22	20400.11
573.38	20563.95
573.55	20643.52
573.71	20652.89
573.87	20446.92
574.03	20877.58
574.20	20767.57
574.36	20238.61
574.52	20444.58
574.68	20547.56
574.84	20418.83
575.01	20561.61
575.17	20568.63
575.33	20538.20
575.49	20470.33
575.65	20580.33
575.82	20634.16
575.98	20666.93
576.14	20383.73
576.30	20900.98
576.46	20498.41
576.62	20652.89
576.79	20671.61
576.95	20774.60
577.11	20734.81
577.27	20772.25
577.43	20702.04
577.59	20592.03
577.75	20795.66
577.92	20491.39
578.08	20645.87
578.24	20631.82
578.40	20404.79
578.56	20959.50
578.72	20526.50
578.88	21043.76
579.04	20954.82
579.21	20739.49
579.37	20762.89
579.53	20765.23
579.69	20629.48
579.85	20702.04
580.01	20959.50
580.17	20994.61
580.33	20840.13
580.49	20844.81
580.65	20559.27
580.82	20805.02
580.98	20570.97
581.14	20357.98
581.30	20755.87
581.46	20460.96
581.62	20634.16
581.78	20437.56
581.94	20348.62
582.10	20496.07
582.26	20980.56
582.42	20842.47
582.58	20533.52
582.74	20475.01
582.90	20716.08
583.06	20528.84
583.22	20688.00
583.38	20786.30
583.54	20526.50
583.70	20549.90
583.86	20395.43
584.02	20390.75
584.18	20774.60
584.34	20673.95
584.50	20786.30
584.66	20304.15
584.82	20631.82
584.98	20753.53
585.14	20638.84
585.30	20767.57
585.46	20465.64
585.62	20315.85
585.78	20816.72
585.94	20678.63
586.10	20868.22
586.26	20760.55
586.42	20610.76
586.58	20807.36
586.74	20517.14
586.90	20688.00
587.06	20734.81
587.22	20688.00
587.38	20908.01
587.54	20840.13
587.70	21315.26
587.86	20816.72
588.02	20910.35
588.18	20922.05
588.34	20577.99
588.49	20720.76
588.65	20800.34
588.81	21027.37
588.97	20503.09
589.13	20519.48
589.29	20807.36
589.45	20751.19
589.61	21064.82
589.77	20900.98
589.93	20617.78
590.08	20828.43
590.24	20798.00
590.40	20854.17
590.56	20900.98
590.72	20535.86
590.88	20496.07
591.04	20879.92
591.20	20938.43
