SpectraSuite Data File
++++++++++++++++++++++++++++++++++++
Date: Thu Oct 24 13:21:23 EDT 2013
User: stostad
Dark Spectrum Present: No
Reference Spectrum Present: No
Number of Sampled Component Spectra: 1
Spectrometers: USB2+H05261
Integration Time (usec): 100000 (USB2+H05261)
Spectra Averaged: 1 (USB2+H05261)
Boxcar Smoothing: 0 (USB2+H05261)
Correct for Electrical Dark: No (USB2+H05261)
Strobe/Lamp Enabled: No (USB2+H05261)
Correct for Detector Non-linearity: No (USB2+H05261)
Correct for Stray Light: No (USB2+H05261)
Number of Pixels in Processed Spectrum: 2048
>>>>>Begin Processed Spectral Data<<<<<
365.73	580.45
365.92	580.45
366.12	580.45
366.32	472.79
366.52	461.09
366.72	491.51
366.91	458.74
367.11	411.93
367.31	510.24
367.51	442.36
367.70	477.47
367.90	486.83
368.10	465.77
368.30	540.66
368.49	386.19
368.69	540.66
368.89	383.85
369.09	528.96
369.28	451.72
369.48	519.60
369.68	535.98
369.87	559.39
370.07	533.64
370.27	545.34
370.47	681.10
370.66	880.04
370.86	926.85
371.06	999.41
371.25	1006.43
371.45	992.39
371.65	940.90
371.84	936.21
372.04	915.15
372.24	987.71
372.44	987.71
372.63	1097.71
372.83	1006.43
373.03	1064.94
373.22	1078.99
373.42	1067.28
373.62	1050.90
373.81	1121.12
374.01	1118.78
374.21	1137.50
374.40	1074.31
374.60	1118.78
374.79	1158.57
374.99	1191.33
375.19	1109.41
375.38	1135.16
375.58	1100.05
375.78	1170.27
375.97	1123.46
376.17	1193.67
376.37	1116.44
376.56	1128.14
376.76	1116.44
376.95	1144.52
377.15	1196.01
377.35	1303.68
377.54	1238.14
377.74	1165.59
377.93	1151.54
378.13	1231.12
378.33	1186.65
378.52	1196.01
378.72	1247.51
378.91	1198.35
379.11	1270.91
379.31	1310.70
379.50	1263.89
379.70	1254.53
379.89	1291.98
380.09	1275.59
380.28	1313.04
380.48	1280.27
380.68	1186.65
380.87	1277.93
381.07	1289.64
381.26	1327.08
381.46	1291.98
381.65	1378.58
381.85	1409.00
382.04	1343.47
382.24	1401.98
382.43	1348.15
382.63	1427.73
382.83	1350.49
383.02	1369.21
383.22	1369.21
383.41	1376.24
383.61	1411.34
383.80	1444.11
384.00	1423.05
384.19	1404.32
384.39	1315.38
384.58	1432.41
384.78	1479.22
384.97	1451.13
385.17	1472.20
385.36	1420.71
385.56	1409.00
385.75	1495.60
385.95	1434.75
386.14	1444.11
386.34	1418.36
386.53	1537.73
386.72	1502.62
386.92	1413.68
387.11	1472.20
387.31	1420.71
387.50	1467.52
387.70	1537.73
387.89	1612.63
388.09	1533.05
388.28	1540.07
388.48	1511.99
388.67	1547.09
388.86	1561.14
389.06	1680.50
389.25	1596.25
389.45	1652.42
389.64	1619.65
389.84	1565.82
390.03	1612.63
390.22	1661.78
390.42	1619.65
390.61	1589.22
390.81	1720.29
391.00	1666.46
391.19	1729.66
391.39	1748.38
391.58	1654.76
391.78	1748.38
391.97	1743.70
392.16	1699.23
392.36	1764.76
392.55	1785.83
392.75	1797.53
392.94	1750.72
393.13	1788.17
393.33	1748.38
393.52	1849.02
393.71	1769.44
393.91	1732.00
394.10	1902.86
394.29	1811.57
394.49	1849.02
394.68	1952.01
394.88	1834.98
395.07	1921.58
395.26	1956.69
395.46	1919.24
395.65	1968.39
395.84	1942.64
396.04	2026.90
396.23	1963.71
396.42	1928.60
396.62	2047.97
396.81	1998.82
397.00	2038.61
397.19	2132.23
397.39	2010.52
397.58	2008.18
397.77	2108.82
397.97	2078.40
398.16	2125.21
398.35	2111.16
398.55	2101.80
398.74	2057.33
398.93	2153.29
399.12	2160.31
399.32	2071.37
399.51	2207.13
399.70	2186.06
399.90	2272.66
400.09	2150.95
400.28	2165.00
400.47	2310.11
400.67	2331.17
400.86	2326.49
401.05	2267.98
401.24	2282.02
401.44	2490.33
401.63	2457.56
401.82	2368.62
402.01	2282.02
402.21	2335.85
402.40	2448.20
402.59	2314.79
402.78	2499.69
402.97	2438.84
403.17	2539.48
403.36	2518.42
403.55	2473.95
403.74	2670.55
403.93	2572.25
404.13	2612.04
404.32	2649.49
404.51	2609.70
404.70	2698.64
404.89	2642.46
405.09	2642.46
405.28	2693.96
405.47	2754.81
405.66	2684.59
405.85	2609.70
406.05	2661.19
406.24	2724.38
406.43	2700.98
406.62	2747.79
406.81	2834.39
407.00	2736.09
407.20	2822.69
407.39	2818.00
407.58	2768.85
407.77	2813.32
407.96	2913.97
408.15	2899.92
408.34	2928.01
408.54	2970.14
408.73	2937.37
408.92	3066.10
409.11	3000.57
409.30	3042.70
409.49	3077.80
409.68	3030.99
409.87	3063.76
410.07	3159.72
410.26	3213.56
410.45	3103.55
410.64	3232.28
410.83	3218.24
411.02	3351.65
411.21	3293.13
411.40	3309.52
411.59	3407.82
411.78	3328.24
411.98	3375.05
412.17	3379.73
412.36	3407.82
412.55	3478.04
412.74	3651.24
412.93	3487.40
413.12	3433.57
413.31	3637.19
413.50	3454.63
413.69	3644.21
413.88	3669.96
414.07	3646.55
414.26	3641.87
414.45	3700.39
414.64	3936.78
414.83	3934.44
415.02	3960.19
415.22	3801.03
415.41	4030.40
415.60	4037.42
415.79	3997.64
415.98	4004.66
416.17	4107.64
416.36	4030.40
416.55	4060.83
416.74	4109.98
416.93	4140.41
417.12	4294.88
417.31	4215.30
417.50	4248.07
417.69	4325.31
417.88	4334.67
418.07	4269.14
418.26	4376.80
418.45	4587.45
418.64	4400.21
418.83	4372.12
419.02	4617.88
419.21	4678.73
419.39	4442.34
419.58	4456.38
419.77	4524.26
419.96	4643.62
420.15	4594.47
420.34	4582.77
420.53	4697.46
420.72	4725.54
420.91	4629.58
421.10	4739.58
421.29	4744.27
421.48	4720.86
421.67	4788.74
421.86	4781.71
422.05	4828.53
422.24	4779.37
422.43	4910.44
422.61	4999.38
422.80	4891.72
422.99	4922.15
423.18	4898.74
423.37	5050.88
423.56	4945.55
423.75	4990.02
423.94	4889.38
424.13	4688.09
424.32	4713.84
424.50	4992.36
424.69	5050.88
424.88	4847.25
425.07	4793.42
425.26	4980.66
425.45	5025.13
425.64	4784.06
425.83	5102.37
426.01	5067.26
426.20	4919.81
426.39	5181.95
426.58	5018.11
426.77	4938.53
426.96	5076.62
427.15	5069.60
427.33	5149.18
427.52	5104.71
427.71	4997.04
427.90	5184.29
428.09	5366.85
428.28	5256.84
428.46	5287.27
428.65	5289.61
428.84	5401.96
429.03	5413.66
429.22	5238.12
429.40	5483.88
429.59	5390.25
429.78	5373.87
429.97	5310.68
430.16	5497.92
430.34	5621.97
430.53	5680.48
430.72	5610.26
430.91	5500.26
431.10	5528.35
431.28	5621.97
431.47	5685.16
431.66	5657.07
431.85	5753.04
432.03	5907.51
432.22	5872.40
432.41	5839.64
432.60	5853.68
432.79	5933.26
432.97	5991.77
433.16	5982.41
433.35	5839.64
433.54	6010.50
433.72	6078.37
433.91	5846.66
434.10	5959.00
434.28	5907.51
434.47	6204.76
434.66	6134.54
434.85	6033.90
435.03	6326.47
435.22	6438.81
435.41	6485.62
435.59	6326.47
435.78	6424.77
435.97	6516.05
436.16	6438.81
436.34	6176.67
436.53	6375.62
436.72	6396.68
436.90	6258.59
437.09	6448.18
437.28	6445.84
437.46	6546.48
437.65	6401.37
437.84	6661.16
438.02	6539.46
438.21	6445.84
438.40	6658.82
438.58	6927.99
438.77	6754.79
438.96	6736.06
439.14	6965.43
439.33	7016.93
439.52	7159.70
439.70	7164.38
439.89	7220.55
440.08	7047.35
440.26	7225.23
440.45	7119.91
440.63	7311.83
440.82	7365.67
441.01	7339.92
441.19	7339.92
441.38	7473.33
441.57	7496.74
441.75	7620.78
441.94	7709.72
442.12	7513.12
442.31	7597.38
442.50	7854.84
442.68	7716.75
442.87	7906.33
443.05	7920.37
443.24	7915.69
443.43	7978.89
443.61	8028.04
443.80	8196.56
443.98	7639.51
444.17	7744.83
444.35	7976.55
444.54	8243.37
444.73	8049.10
444.91	8037.40
445.10	7960.16
445.28	7873.56
445.47	7885.26
445.65	7995.27
445.84	8135.70
446.02	8177.83
446.21	8142.72
446.39	8067.83
446.58	8308.90
446.77	8318.26
446.95	8081.87
447.14	8205.92
447.32	8259.75
447.51	8032.72
447.69	8219.96
447.88	8425.93
448.06	8210.60
448.25	8273.79
448.43	8121.66
448.62	8231.66
448.80	8121.66
448.99	8353.37
449.17	8339.33
449.36	8514.87
449.54	8542.96
449.73	8732.54
449.91	8664.66
450.10	8521.89
450.28	8915.10
450.46	8762.97
450.65	8706.79
450.83	8620.19
451.02	8650.62
451.20	8959.57
451.39	8702.11
451.57	8882.33
451.76	8727.86
451.94	8767.65
452.13	8769.99
452.31	9172.56
452.49	8931.48
452.68	8879.99
452.86	9167.88
453.05	9027.45
453.23	9146.81
453.42	9046.17
453.60	9153.84
453.78	9170.22
453.97	8966.59
454.15	9160.86
454.34	8947.87
454.52	9249.80
454.70	9331.72
454.89	9053.19
455.07	9434.70
455.26	9533.00
455.44	9551.73
455.62	9518.96
455.81	9399.59
455.99	9528.32
456.17	9628.96
456.36	9385.55
456.54	9624.28
456.73	9703.86
456.91	9928.55
457.09	9949.62
457.28	10024.51
457.46	10064.30
457.64	9935.57
457.83	10054.94
458.01	10155.58
458.19	10359.21
458.38	9860.68
458.56	10164.95
458.74	10298.36
458.93	10188.35
459.11	10272.61
459.29	10200.05
459.48	10150.90
459.66	10286.65
459.84	10441.13
460.03	10560.50
460.21	10422.41
460.39	10501.98
460.57	10534.75
460.76	10457.51
460.94	10726.68
461.12	10721.99
461.31	10799.23
461.49	10721.99
461.67	10824.98
461.85	10834.34
462.04	10710.29
462.22	11211.17
462.40	11012.22
462.59	10974.77
462.77	10944.34
462.95	10972.43
463.13	10834.34
463.32	11007.54
463.50	11171.38
463.68	11243.93
463.86	11246.27
464.05	10974.77
464.23	10977.11
464.41	11279.04
464.59	11147.97
464.78	11562.25
464.96	11459.26
465.14	11185.42
465.32	11449.90
465.50	11520.12
465.69	11382.03
465.87	11470.97
466.05	11515.44
466.23	11353.94
466.41	11634.80
466.60	11824.39
466.78	11693.32
466.96	11566.93
467.14	11651.19
467.32	12049.08
467.51	11843.11
467.69	11571.61
467.87	11840.77
468.05	11889.92
468.23	11918.01
468.41	11592.67
468.60	12046.74
468.78	12128.66
468.96	12105.25
469.14	12114.61
469.32	12479.74
469.50	12035.03
469.69	12058.44
469.87	12245.68
470.05	12521.87
470.23	12655.28
470.41	12456.33
470.59	12580.38
470.77	12456.33
470.95	12716.13
471.14	12849.54
471.32	12482.08
471.50	12879.97
471.68	12924.44
471.86	12744.22
472.04	12912.74
472.22	13322.33
472.40	13231.05
472.58	13064.87
472.77	13394.89
472.95	13177.22
473.13	13661.71
473.31	13502.55
473.49	13586.81
473.67	13273.18
473.85	13280.20
474.03	13930.87
474.21	13687.45
474.39	13767.03
474.57	13797.46
474.75	13961.30
474.93	14230.46
475.12	14188.33
475.30	14249.18
475.48	14190.67
475.66	14190.67
475.84	14193.01
476.02	14445.79
476.20	14623.67
476.38	14988.79
476.56	15187.74
476.74	15042.62
476.92	14934.96
477.10	14867.08
477.28	15531.80
477.46	15412.43
477.64	15180.71
477.82	15686.27
478.00	15768.19
478.18	16037.35
478.36	15866.49
478.54	16325.24
478.72	16126.29
478.90	16180.12
479.08	16636.53
479.26	16926.75
479.44	16709.08
479.62	16954.84
479.80	17039.10
479.98	17284.86
480.16	17703.81
480.34	17233.36
480.52	17259.11
480.70	17493.16
480.88	17624.23
481.06	17554.02
481.24	17771.69
481.41	18120.43
481.59	18242.14
481.77	18251.50
481.95	18394.27
482.13	18534.70
482.31	18373.21
482.49	18953.66
482.67	19019.19
482.85	19077.71
483.03	19307.08
483.21	19468.58
483.39	19840.72
483.57	19489.64
483.74	19812.63
483.92	20114.56
484.10	19992.86
484.28	20606.08
484.46	20622.46
484.64	21338.66
484.82	20938.43
485.00	21006.31
485.18	21249.72
485.35	21647.61
485.53	21436.97
485.71	21600.80
485.89	22010.40
486.07	21830.18
486.25	21944.86
486.43	22211.68
486.61	22345.09
486.78	22565.10
486.96	22878.74
487.14	22986.40
487.32	22869.37
487.50	23550.47
487.68	23391.31
487.85	23821.97
488.03	23929.64
488.21	24130.92
488.39	24341.57
488.57	24280.72
488.75	24655.20
488.92	24671.59
489.10	24690.31
489.28	25088.20
489.46	25462.69
489.64	25462.69
489.81	25844.20
489.99	25436.94
490.17	26071.23
490.35	26272.51
490.53	26476.14
490.70	26361.45
490.88	26686.79
491.06	26803.82
491.24	26979.36
491.41	26874.03
491.59	27445.12
491.77	27688.54
491.95	27840.67
492.13	27765.78
492.30	27826.63
492.48	27924.93
492.66	28491.34
492.84	28706.67
493.01	28599.01
493.19	28781.57
493.37	28879.87
493.54	28671.56
493.72	29666.29
493.90	29280.10
494.08	29649.91
494.25	30132.06
494.43	29858.21
494.61	30022.05
494.79	30429.30
494.96	29921.41
495.14	30721.87
495.32	31133.81
495.49	30883.37
495.67	30838.90
495.85	31484.89
496.02	31297.64
496.20	31683.83
496.38	31550.42
496.55	32091.09
496.73	32744.09
496.91	32168.32
497.09	32678.56
497.26	32158.96
497.44	32863.46
497.62	32662.18
497.79	33415.83
497.97	33179.43
498.14	33509.45
498.32	33329.23
498.50	33600.73
498.67	33951.81
498.85	33869.89
499.03	34122.67
499.20	34476.09
499.38	34459.71
499.56	34590.78
499.73	34817.81
499.91	34693.76
500.08	34974.63
500.26	34319.28
500.44	35084.63
500.61	35342.09
500.79	35803.17
500.97	35381.88
501.14	36357.88
501.32	35833.60
501.49	35868.71
501.67	36163.62
501.84	36481.93
502.02	36217.45
502.20	36184.68
502.37	36301.71
502.55	36598.96
502.72	36631.72
502.90	36643.43
503.07	36692.58
503.25	37099.83
503.43	37200.47
503.60	37216.86
503.78	37427.51
503.95	37233.24
504.13	37914.34
504.30	37338.57
504.48	37928.38
504.65	38253.72
504.83	38223.29
505.01	38852.89
505.18	38691.40
505.36	38768.63
505.53	38447.98
505.71	38550.96
505.88	39173.55
506.06	38422.23
506.23	39145.46
506.41	38932.47
506.58	39489.52
506.76	39070.56
506.93	39669.74
507.11	39590.16
507.28	39480.16
507.46	40027.84
507.63	39526.97
507.81	40189.34
507.98	39992.73
508.16	39880.39
508.33	40238.49
508.50	40903.20
508.68	40844.69
508.85	40699.58
509.03	40767.45
509.20	40828.30
509.38	41605.36
509.55	41298.75
509.73	41064.70
509.90	42038.36
510.08	41422.80
510.25	41172.36
510.42	41989.21
510.60	42036.02
510.77	42068.79
510.95	42490.09
511.12	42038.36
511.30	42373.06
511.47	42337.95
511.64	42679.67
511.82	42742.86
511.99	42487.74
512.17	42803.72
512.34	42948.83
512.51	43487.15
512.69	43203.95
512.86	43580.78
513.04	43423.96
513.21	43430.98
513.38	43782.06
513.56	43470.77
513.73	43370.13
513.90	44388.26
514.08	43793.76
514.25	44318.04
514.43	44137.82
514.60	44226.76
514.77	44360.17
514.95	44582.52
515.12	44287.62
515.29	44666.78
515.47	44603.59
515.64	45076.38
515.81	44809.56
515.99	45118.51
516.16	45083.40
516.33	45104.46
516.51	45701.30
516.68	45485.97
516.85	45570.23
517.03	45902.59
517.20	45865.14
517.37	45656.83
517.54	45965.78
517.72	46153.02
517.89	45979.82
518.06	46487.72
518.24	45921.31
518.41	46237.28
518.58	46419.84
518.75	46361.33
518.93	46185.79
519.10	46480.70
519.27	46689.01
519.45	46906.68
519.62	46848.16
519.79	47489.47
519.96	47098.60
520.14	47047.11
520.31	46864.55
520.48	47547.98
520.65	47435.64
520.83	47522.24
521.00	48013.75
521.17	47632.24
521.34	47957.58
521.52	47742.25
521.69	47592.45
521.86	47894.38
522.03	47856.93
522.20	48004.39
522.38	48308.66
522.55	48655.06
522.72	48325.04
522.89	48484.20
523.07	48996.77
523.24	48322.70
523.41	48893.79
523.58	48374.19
523.75	48884.43
523.92	48573.14
524.10	48999.12
524.27	49258.91
524.44	49408.71
524.61	49645.10
524.78	49111.46
524.96	49343.17
525.13	49729.36
525.30	49785.54
525.47	50115.55
525.64	50003.20
525.81	49902.56
525.98	49989.16
526.16	49478.92
526.33	49518.71
526.50	50115.55
526.67	50087.46
526.84	50475.99
527.01	50415.14
527.18	50595.36
527.36	50548.55
527.53	50770.90
527.70	50803.67
527.87	51047.08
528.04	50501.74
528.21	51309.22
528.38	50761.54
528.55	51026.02
528.72	50810.69
528.89	51489.45
529.07	50866.86
529.24	50770.90
529.41	50939.42
529.58	51501.15
529.75	51330.29
529.92	51693.07
530.09	51447.32
530.26	51220.28
530.43	51435.61
530.60	51381.78
530.77	51622.86
530.94	52025.43
531.11	51363.06
531.28	51807.76
531.46	51697.75
531.63	51915.42
531.80	52030.11
531.97	51906.06
532.14	51774.99
532.31	51938.83
532.48	52289.91
532.65	52428.00
532.82	52100.32
532.99	52158.84
533.16	52119.05
533.33	52275.87
533.50	52502.90
533.67	52868.02
533.84	52512.26
534.01	52650.35
534.18	52648.01
534.35	52844.62
534.52	52842.27
534.69	52912.49
534.86	52664.39
535.03	52538.01
535.20	52694.82
535.37	53099.73
535.54	53118.46
535.71	52952.28
535.88	53340.81
536.05	53024.84
536.22	53181.65
536.38	53219.10
536.55	53176.97
536.72	52750.99
536.89	53392.30
537.06	53593.59
537.23	53902.54
537.40	53525.71
537.57	53502.31
537.74	53254.21
537.91	54005.52
538.08	53528.05
538.25	53624.01
538.42	53876.79
538.59	54042.97
538.75	53605.29
538.92	54057.01
539.09	53851.05
539.26	54019.56
539.43	53902.54
539.60	54319.15
539.77	53921.26
539.94	54244.26
540.11	54258.30
540.28	54401.07
540.44	54209.15
540.61	54389.37
540.78	54335.54
540.95	54295.75
541.12	54506.40
541.29	54375.33
541.46	54873.86
541.62	54712.36
541.79	54864.50
541.96	54480.65
542.13	54518.10
542.30	54593.00
542.47	54864.50
542.63	54742.79
542.80	55042.38
542.97	55288.13
543.14	55515.17
543.31	55061.10
543.48	55325.58
543.64	55423.89
543.81	55442.61
543.98	55171.11
544.15	55440.27
544.32	55569.00
544.48	55875.61
544.65	55590.06
544.82	55430.91
544.99	55454.31
545.16	55475.38
545.32	55686.03
545.49	55887.31
545.66	56004.34
545.83	55819.44
546.00	56156.47
546.16	55824.12
546.33	56046.47
546.50	55524.53
546.67	55793.69
546.83	55463.67
547.00	55599.43
547.17	55660.28
547.34	55697.73
547.50	55983.27
547.67	56465.42
547.84	56126.05
548.00	56346.06
548.17	56240.73
548.34	56058.17
548.51	56427.98
548.67	56175.20
548.84	56336.69
549.01	56479.47
549.18	56350.74
549.34	56119.02
549.51	56320.31
549.68	56493.51
549.84	56523.94
550.01	56528.62
550.18	56229.03
550.34	56229.03
550.51	56350.74
550.68	56472.45
550.84	56378.82
551.01	56715.86
551.18	56411.59
551.34	56189.24
551.51	56437.34
551.68	56650.33
551.84	56540.32
552.01	56446.70
552.18	56603.52
552.34	56533.30
552.51	57036.51
552.68	56788.42
552.84	56903.10
553.01	56872.68
553.18	56870.34
553.34	56926.51
553.51	56739.27
553.67	56736.93
553.84	57158.22
554.01	57308.02
554.17	57020.13
554.34	57125.46
554.51	56898.42
554.67	57200.35
554.84	57066.94
555.00	56828.21
555.17	56921.83
555.33	56947.57
555.50	57024.81
555.67	57172.27
555.83	57169.93
556.00	57233.12
556.16	57394.62
556.33	57155.88
556.50	57151.20
556.66	57258.87
556.83	57179.29
556.99	57502.28
557.16	57261.21
557.32	57808.89
557.49	57670.80
557.65	57263.55
557.82	57425.04
557.98	57528.03
558.15	57530.37
558.32	57567.82
558.48	57125.46
558.65	57560.79
558.81	57738.68
558.98	57673.14
559.14	57762.08
559.31	57432.07
559.47	57703.57
559.64	57794.85
559.80	57888.47
559.97	57776.12
560.13	57640.37
560.30	57663.78
560.46	57853.36
560.63	57759.74
560.79	58117.84
560.96	57923.58
561.12	57834.64
561.29	57680.16
561.45	57778.46
561.61	57855.70
561.78	57757.40
561.94	57851.02
562.11	58122.52
562.27	57942.30
562.44	58159.97
562.60	57942.30
562.77	58195.08
562.93	57923.58
563.10	58206.78
563.26	57766.76
563.42	58117.84
563.59	58038.26
563.75	58314.45
563.92	58145.93
564.08	58028.90
564.24	58288.70
564.41	57975.07
564.57	58176.36
564.74	58129.54
564.90	58150.61
565.07	58363.60
565.23	58255.93
565.39	58314.45
565.56	58525.10
565.72	58461.90
565.88	58550.84
566.05	58333.17
566.21	58300.40
566.38	58089.76
566.54	58143.59
566.70	58532.12
566.87	58749.79
567.03	58241.89
567.19	58674.89
567.36	58827.02
567.52	58529.78
567.68	58342.53
567.85	58485.31
568.01	58452.54
568.17	58489.99
568.34	58419.77
568.50	58672.55
568.66	58534.46
568.83	58679.57
568.99	58677.23
569.15	58541.48
569.32	58653.82
569.48	58464.24
569.64	58370.62
569.81	58412.75
569.97	58480.63
570.13	58419.77
570.30	58560.20
570.46	58740.42
570.62	58710.00
570.78	58726.38
570.95	58433.81
571.11	58817.66
571.27	58464.24
571.43	58710.00
571.60	58609.35
571.76	58770.85
571.92	58876.18
572.09	58911.28
572.25	58756.81
572.41	58621.06
572.57	58859.79
572.74	58960.44
572.90	58803.62
573.06	59014.27
573.22	58782.55
573.38	58508.71
573.55	58892.56
573.71	59047.04
573.87	59030.65
574.03	58745.11
574.20	58897.24
574.36	58829.37
574.52	58864.47
574.68	58735.74
574.84	58918.31
575.01	58922.99
575.17	58789.58
575.33	58733.40
575.49	58913.62
575.65	59049.38
575.82	59150.02
575.98	58859.79
576.14	59147.68
576.30	59124.27
576.46	58906.60
576.62	58775.53
576.79	58873.84
576.95	58653.82
577.11	59166.40
577.27	59135.98
577.43	59044.69
577.59	58939.37
577.75	59040.01
577.92	58841.07
578.08	58894.90
578.24	58632.76
578.40	58901.92
578.56	58993.20
578.72	58869.15
578.88	59082.14
579.04	59164.06
579.21	59147.68
579.37	59304.49
579.53	59147.68
579.69	58798.94
579.85	58948.73
580.01	59096.19
580.17	59049.38
580.33	59278.75
580.49	59105.55
580.65	59339.60
580.82	59168.74
580.98	59117.25
581.14	59283.43
581.30	59199.17
581.46	59093.85
581.62	59037.67
581.78	58906.60
581.94	59269.39
582.10	58658.51
582.26	59077.46
582.42	59147.68
582.58	58962.78
582.74	59091.51
582.90	59182.79
583.06	59096.19
583.22	59082.14
583.38	59091.51
583.54	59103.21
583.70	59070.44
583.86	59143.00
584.02	59311.52
584.18	59316.20
584.34	59245.98
584.50	59311.52
584.66	59140.66
584.82	59040.01
584.98	59185.13
585.14	59290.45
585.30	59131.29
585.46	59353.65
585.62	58930.01
585.78	59117.25
585.94	59086.82
586.10	59114.91
586.26	59213.21
586.42	59316.20
586.58	59313.86
586.74	59351.30
586.90	59213.21
587.06	59203.85
587.22	59217.89
587.38	59199.17
587.54	59487.06
587.70	59739.83
587.86	59355.99
588.02	59604.08
588.18	59433.22
