SpectraSuite Data File
++++++++++++++++++++++++++++++++++++
Date: Thu Oct 24 13:21:09 EDT 2013
User: stostad
Dark Spectrum Present: No
Reference Spectrum Present: No
Number of Sampled Component Spectra: 1
Spectrometers: USB2+H05261
Integration Time (usec): 100000 (USB2+H05261)
Spectra Averaged: 1 (USB2+H05261)
Boxcar Smoothing: 0 (USB2+H05261)
Correct for Electrical Dark: No (USB2+H05261)
Strobe/Lamp Enabled: No (USB2+H05261)
Correct for Detector Non-linearity: No (USB2+H05261)
Correct for Stray Light: No (USB2+H05261)
Number of Pixels in Processed Spectrum: 2048
>>>>>Begin Processed Spectral Data<<<<<
365.73	543.00
365.92	543.00
366.12	543.00
366.32	449.38
366.52	486.83
366.72	416.62
366.91	475.13
367.11	416.62
367.31	503.22
367.51	468.11
367.70	421.30
367.90	477.47
368.10	435.34
368.30	444.70
368.49	430.66
368.69	465.77
368.89	486.83
369.09	521.94
369.28	468.11
369.48	425.98
369.68	503.22
369.87	543.00
370.07	587.47
370.27	564.07
370.47	526.62
370.66	699.82
370.86	674.07
371.06	716.20
371.25	814.51
371.45	812.17
371.65	774.72
371.84	734.93
372.04	711.52
372.24	744.29
372.44	692.80
372.63	727.91
372.83	760.67
373.03	739.61
373.22	795.78
373.42	774.72
373.62	826.21
373.81	791.10
374.01	882.38
374.21	894.08
374.40	856.64
374.60	861.32
374.79	760.67
374.99	812.17
375.19	866.00
375.38	767.70
375.58	840.25
375.78	849.61
375.97	823.87
376.17	873.02
376.37	788.76
376.56	851.96
376.76	800.46
376.95	870.68
377.15	851.96
377.35	800.46
377.54	844.93
377.74	798.12
377.93	840.25
378.13	800.46
378.33	908.13
378.52	847.27
378.72	866.00
378.91	781.74
379.11	840.25
379.31	844.93
379.50	840.25
379.70	854.30
379.89	877.70
380.09	861.32
380.28	873.02
380.48	849.61
380.68	830.89
380.87	847.27
381.07	849.61
381.26	959.62
381.46	905.79
381.65	889.40
381.85	844.93
382.04	781.74
382.24	858.98
382.43	884.72
382.63	858.98
382.83	905.79
383.02	919.83
383.22	898.77
383.41	903.45
383.61	917.49
383.80	959.62
384.00	1001.75
384.19	898.77
384.39	887.06
384.58	891.74
384.78	931.53
384.97	919.83
385.17	936.21
385.36	896.43
385.56	940.90
385.75	861.32
385.95	915.15
386.14	976.00
386.34	842.59
386.53	851.96
386.72	966.64
386.92	1004.09
387.11	919.83
387.31	980.68
387.50	1001.75
387.70	870.68
387.89	922.17
388.09	866.00
388.28	894.08
388.48	999.41
388.67	898.77
388.86	1027.50
389.06	968.98
389.25	943.24
389.45	957.28
389.64	1053.24
389.84	992.39
390.03	947.92
390.22	987.71
390.42	1104.73
390.61	1006.43
390.81	1029.84
391.00	931.53
391.19	1004.09
391.39	952.60
391.58	1011.11
391.78	1013.45
391.97	957.28
392.16	1008.77
392.36	1034.52
392.55	1060.26
392.75	976.00
392.94	1069.62
393.13	966.64
393.33	978.34
393.52	1048.56
393.71	1034.52
393.91	1086.01
394.10	1128.14
394.29	1055.58
394.49	1107.07
394.68	1139.84
394.88	1076.65
395.07	1097.71
395.26	1048.56
395.46	1153.88
395.65	1109.41
395.84	1069.62
396.04	1203.04
396.23	1263.89
396.42	1137.50
396.62	1167.93
396.81	1219.42
397.00	1090.69
397.19	1177.29
397.39	1097.71
397.58	1128.14
397.77	1130.48
397.97	1123.46
398.16	1158.57
398.35	1198.35
398.55	1128.14
398.74	1165.59
398.93	1221.76
399.12	1179.63
399.32	1174.95
399.51	1158.57
399.70	1233.46
399.90	1210.06
400.09	1149.20
400.28	1186.65
400.47	1291.98
400.67	1294.32
400.86	1203.04
401.05	1273.25
401.24	1188.99
401.44	1299.00
401.63	1184.31
401.82	1291.98
402.01	1224.10
402.21	1322.40
402.40	1320.06
402.59	1191.33
402.78	1310.70
402.97	1235.80
403.17	1252.19
403.36	1355.17
403.55	1369.21
403.74	1434.75
403.93	1350.49
404.13	1355.17
404.32	1458.15
404.51	1369.21
404.70	1474.54
404.89	1380.92
405.09	1451.13
405.28	1448.79
405.47	1359.85
405.66	1404.32
405.85	1427.73
406.05	1430.07
406.24	1465.18
406.43	1446.45
406.62	1495.60
406.81	1514.33
407.00	1448.79
407.20	1511.99
407.39	1497.94
407.58	1507.30
407.77	1432.41
407.96	1582.20
408.15	1584.54
408.34	1486.24
408.54	1558.80
408.73	1605.61
408.92	1544.75
409.11	1540.07
409.30	1570.50
409.49	1673.48
409.68	1612.63
409.87	1605.61
410.07	1659.44
410.26	1643.06
410.45	1664.12
410.64	1739.02
410.83	1685.19
411.02	1593.90
411.21	1703.91
411.40	1673.48
411.59	1626.67
411.78	1717.95
411.98	1696.89
412.17	1666.46
412.36	1673.48
412.55	1736.68
412.74	1717.95
412.93	1767.10
413.12	1856.04
413.31	1820.94
413.50	1830.30
413.69	1760.08
413.88	1879.45
414.07	1916.90
414.26	1851.36
414.45	1970.73
414.64	1865.41
414.83	1832.64
415.02	1888.81
415.22	1963.71
415.41	1952.01
415.60	1891.15
415.79	2029.24
415.98	2076.06
416.17	2003.50
416.36	1975.41
416.55	1984.77
416.74	2066.69
416.93	1991.80
417.12	2001.16
417.31	2071.37
417.50	2071.37
417.69	2024.56
417.88	2026.90
418.07	2136.91
418.26	2122.87
418.45	2160.31
418.64	2207.13
418.83	2200.10
419.02	2204.78
419.21	2165.00
419.39	2244.57
419.58	2193.08
419.77	2146.27
419.96	2235.21
420.15	2228.19
420.34	2139.25
420.53	2216.49
420.72	2251.60
420.91	2265.64
421.10	2232.87
421.29	2291.38
421.48	2303.09
421.67	2307.77
421.86	2335.85
422.05	2202.44
422.24	2282.02
422.43	2314.79
422.61	2237.55
422.80	2300.75
422.99	2284.36
423.18	2300.75
423.37	2335.85
423.56	2319.47
423.75	2207.13
423.94	2209.47
424.13	2162.66
424.32	2293.72
424.50	2459.90
424.69	2424.80
424.88	2415.43
425.07	2345.22
425.26	2408.41
425.45	2335.85
425.64	2380.32
425.83	2361.60
426.01	2382.67
426.20	2326.49
426.39	2415.43
426.58	2338.20
426.77	2321.81
426.96	2340.54
427.15	2359.26
427.33	2429.48
427.52	2356.92
427.71	2408.41
427.90	2392.03
428.09	2483.31
428.28	2427.14
428.46	2581.61
428.65	2530.12
428.84	2490.33
429.03	2597.99
429.22	2445.86
429.40	2448.20
429.59	2539.48
429.78	2520.76
429.97	2499.69
430.16	2403.73
430.34	2597.99
430.53	2700.98
430.72	2626.08
430.91	2569.91
431.10	2619.06
431.28	2602.68
431.47	2691.62
431.66	2686.94
431.85	2628.42
432.03	2700.98
432.22	2693.96
432.41	2752.47
432.60	2712.68
432.79	2773.53
432.97	2700.98
433.16	2787.58
433.35	2726.72
433.54	2761.83
433.72	2710.34
433.91	2696.30
434.10	2750.13
434.28	2818.00
434.47	2836.73
434.66	2885.88
434.85	2965.46
435.03	2881.20
435.22	3234.62
435.41	3276.75
435.59	3133.98
435.78	3206.53
435.97	3019.29
436.16	3068.44
436.34	2981.84
436.53	2920.99
436.72	3012.27
436.90	2960.78
437.09	3047.38
437.28	2818.00
437.46	2860.13
437.65	2918.65
437.84	3101.21
438.02	3019.29
438.21	2951.42
438.40	2897.58
438.58	3105.89
438.77	3073.12
438.96	3096.53
439.14	3068.44
439.33	3173.77
439.52	3070.78
439.70	3101.21
439.89	3211.22
440.08	3190.15
440.26	3105.89
440.45	3124.62
440.63	3229.94
440.82	3232.28
441.01	3281.43
441.19	3344.63
441.38	3375.05
441.57	3243.98
441.75	3461.65
441.94	3510.80
442.12	3323.56
442.31	3379.73
442.50	3389.10
442.68	3471.01
442.87	3499.10
443.05	3445.27
443.24	3508.46
443.43	3412.50
443.61	3555.27
443.80	3562.30
443.98	3438.25
444.17	3412.50
444.35	3566.98
444.54	3618.47
444.73	3543.57
444.91	3508.46
445.10	3531.87
445.28	3609.11
445.47	3494.42
445.65	3562.30
445.84	3463.99
446.02	3684.00
446.21	3651.24
446.39	3494.42
446.58	3581.02
446.77	3634.85
446.95	3475.70
447.14	3639.53
447.32	3669.96
447.51	3662.94
447.69	3625.49
447.88	3564.64
448.06	3658.26
448.25	3576.34
448.43	3545.91
448.62	3674.64
448.80	3660.60
448.99	3740.18
449.17	3581.02
449.36	3723.79
449.54	3641.87
449.73	3604.42
449.91	3719.11
450.10	3756.56
450.28	3822.09
450.46	3810.39
450.65	3880.61
450.83	3770.60
451.02	3737.84
451.20	3798.69
451.39	3932.10
451.57	3852.52
451.76	3854.86
451.94	3730.81
452.13	3791.67
452.31	3808.05
452.49	3777.62
452.68	3803.37
452.86	3904.01
453.05	3789.33
453.23	3915.72
453.42	4030.40
453.60	3861.88
453.78	3960.19
453.97	4046.79
454.15	3899.33
454.34	3899.33
454.52	4009.34
454.70	4091.26
454.89	4081.89
455.07	4014.02
455.26	4049.13
455.44	4107.64
455.62	4004.66
455.81	4175.52
455.99	4184.88
456.17	4147.43
456.36	4177.86
456.54	4276.16
456.73	4168.49
456.91	4273.82
457.09	4236.37
457.28	4376.80
457.46	4198.92
457.64	4400.21
457.83	4241.05
458.01	4257.43
458.19	4416.59
458.38	4358.08
458.56	4418.93
458.74	4283.18
458.93	4322.97
459.11	4461.06
459.29	4365.10
459.48	4339.35
459.66	4334.67
459.84	4498.51
460.03	4550.00
460.21	4545.32
460.39	4559.36
460.57	4512.55
460.76	4531.28
460.94	4650.64
461.12	4608.51
461.31	4519.57
461.49	4475.10
461.67	4566.39
461.85	4631.92
462.04	4706.82
462.22	4835.55
462.40	4638.94
462.59	4596.81
462.77	4662.35
462.95	4594.47
463.13	4596.81
463.32	4566.39
463.50	4669.37
463.68	4830.87
463.86	4706.82
464.05	4596.81
464.23	4559.36
464.41	4746.61
464.59	4798.10
464.78	4830.87
464.96	4826.18
465.14	4615.54
465.32	4737.24
465.50	4795.76
465.69	4854.27
465.87	4940.87
466.05	4835.55
466.23	4875.34
466.41	4896.40
466.60	5078.96
466.78	4898.74
466.96	4959.60
467.14	4772.35
467.32	4875.34
467.51	5041.51
467.69	5013.43
467.87	5004.07
468.05	4985.34
468.23	5036.83
468.41	4978.32
468.60	4894.06
468.78	5083.64
468.96	5001.72
469.14	4957.25
469.32	5078.96
469.50	4959.60
469.69	5188.97
469.87	5242.80
470.05	5221.74
470.23	5195.99
470.41	5153.86
470.59	5160.88
470.77	5338.76
470.95	5399.62
471.14	5287.27
471.32	5324.72
471.50	5413.66
471.68	5486.22
471.86	5378.55
472.04	5420.68
472.22	5406.64
472.40	5350.46
472.58	5268.55
472.77	5376.21
472.95	5600.90
473.13	5645.37
473.31	5383.23
473.49	5486.22
473.67	5462.81
473.85	5547.07
474.03	5825.59
474.21	5603.24
474.39	5633.67
474.57	5760.06
474.75	5991.77
474.93	5877.09
475.12	5806.87
475.30	5818.57
475.48	5722.61
475.66	5912.19
475.84	5834.96
476.02	5710.91
476.20	5956.66
476.38	6003.47
476.56	6347.53
476.74	6167.31
476.92	6073.69
477.10	5930.92
477.28	6216.46
477.46	6169.65
477.64	6251.57
477.82	6452.86
478.00	6441.15
478.18	6527.75
478.36	6415.41
478.54	6494.99
478.72	6668.19
478.90	6633.08
479.08	6668.19
479.26	6696.27
479.44	6621.38
479.62	6918.62
479.80	6916.28
479.98	7112.89
480.16	7229.91
480.34	6743.08
480.52	7049.69
480.70	7026.29
480.88	6909.26
481.06	7101.19
481.24	7187.79
481.41	7253.32
481.59	7243.96
481.77	7335.24
481.95	7293.11
482.13	7494.40
482.31	7351.62
482.49	7566.95
482.67	7571.63
482.85	7475.67
483.03	7864.20
483.21	7826.75
483.39	7705.04
483.57	7936.76
483.74	7911.01
483.92	7887.61
484.10	7918.03
484.28	7995.27
484.46	8142.72
484.64	8269.11
484.82	7941.44
485.00	8184.85
485.18	8489.12
485.35	8549.98
485.53	8542.96
485.71	8482.10
485.89	8772.33
486.07	8725.52
486.25	8727.86
486.43	8858.93
486.61	8711.47
486.78	9111.71
486.96	8999.36
487.14	8950.21
487.32	9123.41
487.50	9252.14
487.68	9221.71
487.85	9366.82
488.03	9397.25
488.21	9624.28
488.39	9586.83
488.57	9753.01
488.75	9834.93
488.92	9856.00
489.10	9767.06
489.28	9926.21
489.46	10040.90
489.64	10003.45
489.81	10001.11
489.99	10064.30
490.17	10148.56
490.35	10359.21
490.53	10235.16
490.70	10469.22
490.88	10406.02
491.06	10403.68
491.24	10595.61
491.41	10497.30
491.59	10754.76
491.77	10590.92
491.95	10654.12
492.13	10841.36
492.30	10829.66
492.48	10705.61
492.66	11009.88
492.84	10944.34
493.01	11227.55
493.19	11019.24
493.37	11316.49
493.54	11012.22
493.72	11459.26
493.90	11321.17
494.08	11398.41
494.25	11536.50
494.43	11590.33
494.61	11726.08
494.79	11555.22
494.96	11595.01
495.14	11672.25
495.32	11927.37
495.49	12009.29
495.67	12058.44
495.85	11822.05
496.02	12006.95
496.20	12229.30
496.38	12484.42
496.55	12184.83
496.73	12592.08
496.91	12400.16
497.09	12386.12
497.26	12599.10
497.44	12652.94
497.62	12758.26
497.79	12800.39
497.97	12814.43
498.14	12996.99
498.32	12776.98
498.50	13027.42
498.67	13076.57
498.85	13151.47
499.03	13050.83
499.20	13174.88
499.38	13217.01
499.56	13434.68
499.73	13240.41
499.91	13270.84
500.08	13465.10
500.26	13429.99
500.44	13334.03
500.61	13460.42
500.79	13476.80
500.97	13371.48
501.14	13792.78
501.32	13818.52
501.49	13748.31
501.67	13600.85
501.84	13884.06
502.02	13930.87
502.20	13919.17
502.37	14024.49
502.55	13900.44
502.72	13860.65
502.90	14249.18
503.07	14331.10
503.25	14099.39
503.43	14246.84
503.60	14293.65
503.78	14204.71
503.95	14277.27
504.13	14279.61
504.30	14518.34
504.48	14476.21
504.65	14476.21
504.83	14752.40
505.01	14682.18
505.18	14761.76
505.36	14913.89
505.53	14839.00
505.71	14647.07
505.88	14698.56
506.06	14876.44
506.23	15215.82
506.41	15089.43
506.58	14902.19
506.76	14986.45
506.93	15084.75
507.11	14960.70
507.28	15328.17
507.46	15374.98
507.63	15290.72
507.81	15379.66
507.98	15337.53
508.16	15321.15
508.33	15318.81
508.50	15676.91
508.68	15566.90
508.85	15578.61
509.03	15873.51
509.20	15784.57
509.38	16035.01
509.55	15988.20
509.73	15866.49
509.90	15946.07
510.08	15913.30
510.25	16074.80
510.42	16292.47
510.60	16130.97
510.77	16180.12
510.95	16056.08
511.12	16114.59
511.30	16116.93
511.47	16250.34
511.64	16458.65
511.82	16329.92
511.99	16521.84
512.17	16292.47
512.34	16360.34
512.51	16563.97
512.69	16468.01
512.86	16732.49
513.04	16741.85
513.21	16493.76
513.38	16805.05
513.56	16692.70
513.73	16720.79
513.90	16758.24
514.08	16809.73
514.25	17109.32
514.43	17039.10
514.60	16751.21
514.77	16926.75
514.95	17123.36
515.12	16779.30
515.29	16884.62
515.47	17130.38
515.64	17624.23
515.81	17268.47
515.99	17497.84
516.16	17422.95
516.33	17305.92
516.51	17462.74
516.68	17605.51
516.85	17469.76
517.03	17425.29
517.20	17642.96
517.37	17612.53
517.54	17535.29
517.72	17586.79
517.89	17633.60
518.06	17661.68
518.24	17928.50
518.41	17472.10
518.58	17717.86
518.75	17640.62
518.93	17837.22
519.10	17649.98
519.27	17921.48
519.45	17750.62
519.62	18171.92
519.79	18024.47
519.96	17947.23
520.14	17715.51
520.31	18022.12
520.48	18207.03
520.65	18324.05
520.83	18515.98
521.00	18494.91
521.17	18424.70
521.34	18555.77
521.52	18370.86
521.69	18293.63
521.86	18691.52
522.03	18544.06
522.20	18689.18
522.38	18665.77
522.55	18607.26
522.72	18841.31
522.89	18394.27
523.07	19016.85
523.24	18677.48
523.41	18885.78
523.58	18757.05
523.75	18860.04
523.92	18867.06
524.10	18815.57
524.27	18939.62
524.44	18984.09
524.61	19061.32
524.78	19124.52
524.96	18991.11
525.13	19178.35
525.30	19058.98
525.47	19445.17
525.64	19374.95
525.81	19365.59
525.98	19414.74
526.16	19356.23
526.33	19775.19
526.50	19342.19
526.67	19183.03
526.84	19522.41
527.01	19747.10
527.18	19321.12
527.36	19756.46
527.53	19566.88
527.70	19934.34
527.87	19803.27
528.04	19763.48
528.21	19756.46
528.38	19829.02
528.55	19819.66
528.72	19534.11
528.89	19571.56
529.07	19913.28
529.24	19812.63
529.41	20194.14
529.58	20079.46
529.75	20116.90
529.92	20037.33
530.09	20243.29
530.26	20025.62
530.43	20042.01
530.60	19932.00
530.77	20166.06
530.94	20365.00
531.11	20119.24
531.28	19988.18
531.46	20421.17
531.63	20212.87
531.80	20329.89
531.97	20386.07
532.14	20599.05
532.31	20453.94
532.48	20217.55
532.65	20596.71
532.82	20730.12
532.99	20746.51
533.16	20734.81
533.33	20627.14
533.50	20528.84
533.67	20524.16
533.84	20779.28
534.01	20620.12
534.18	21027.37
534.35	20870.56
534.52	20798.00
534.69	20683.31
534.86	20933.75
535.03	20456.28
535.20	20982.90
535.37	21102.27
535.54	20905.66
535.71	20933.75
535.88	20985.24
536.05	20985.24
536.22	21109.29
536.38	21289.51
536.55	21376.11
536.72	21228.66
536.89	20973.54
537.06	21525.91
537.23	21460.37
537.40	21469.73
537.57	21235.68
537.74	21696.77
537.91	21610.17
538.08	21273.13
538.25	21146.74
538.42	20999.29
538.59	21598.46
538.75	21394.84
538.92	21743.58
539.09	21544.63
539.26	21427.60
539.43	21420.58
539.60	21338.66
539.77	21715.49
539.94	21764.64
540.11	22094.66
540.28	21846.56
540.44	22036.14
540.61	21654.64
540.78	22153.17
540.95	21940.18
541.12	22092.32
541.29	22291.26
541.46	22476.16
541.62	22377.86
541.79	22569.79
541.96	22307.65
542.13	22302.96
542.30	22508.93
542.47	22361.48
542.63	22438.72
542.80	22471.48
542.97	22845.97
543.14	22932.57
543.31	22604.89
543.48	22560.42
543.64	23108.11
543.81	22951.29
543.98	22960.66
544.15	22511.27
544.32	23335.14
544.48	23012.15
544.65	22698.52
544.82	23042.57
544.99	22860.01
545.16	22740.64
545.32	23002.78
545.49	23573.88
545.66	23976.45
545.83	23896.87
546.00	23447.49
546.16	23541.11
546.33	23754.10
546.50	23051.94
546.67	22958.31
546.83	22710.22
547.00	22719.58
547.17	22937.25
547.34	22792.14
547.50	23096.41
547.67	23271.95
547.84	23278.97
548.00	22984.06
548.17	23215.77
548.34	23030.87
548.51	23379.61
548.67	23372.59
548.84	23005.13
549.01	23103.43
549.18	23143.22
549.34	23267.27
549.51	23480.25
549.68	23227.48
549.84	22890.44
550.01	23218.11
550.18	22871.72
550.34	23080.02
550.51	23388.97
550.68	23295.35
550.84	23091.73
551.01	23704.95
551.18	23381.95
551.34	23190.03
551.51	23112.79
551.68	23063.64
551.84	23103.43
552.01	23398.34
552.18	23232.16
552.34	23267.27
552.51	23557.49
552.68	23140.88
552.84	23503.66
553.01	23688.56
553.18	23777.50
553.34	23887.51
553.51	23630.05
553.67	23740.05
553.84	23669.84
554.01	23735.37
554.17	23473.23
554.34	23314.08
554.51	23637.07
554.67	23414.72
554.84	23548.13
555.00	23538.77
555.17	23323.44
555.33	23412.38
555.50	23396.00
555.67	23793.89
555.83	23775.16
556.00	23714.31
556.16	24095.82
556.33	24025.60
556.50	23599.62
556.66	23779.84
556.83	23440.47
556.99	23733.03
557.16	23892.19
557.32	23761.12
557.49	23878.15
557.65	23335.14
557.82	23800.91
557.98	23861.76
558.15	23906.23
558.32	23864.10
558.48	23695.58
558.65	23899.21
558.81	23800.91
558.98	24254.97
559.14	23807.93
559.31	23639.41
559.47	23852.40
559.64	24285.40
559.80	23992.83
559.97	24098.16
560.13	23852.40
560.30	24027.94
560.46	23887.51
560.63	24271.36
560.79	24357.96
560.96	24166.03
561.12	24072.41
561.29	24013.90
561.45	24348.59
561.61	24205.82
561.78	24285.40
561.94	24187.10
562.11	24402.43
562.27	24353.27
562.44	24034.96
562.60	24367.32
562.77	24301.78
562.93	24320.51
563.10	24409.45
563.26	24306.46
563.42	24437.53
563.59	24191.78
563.75	24334.55
563.92	24545.20
564.08	24402.43
564.24	24568.60
564.41	23915.59
564.57	23971.77
564.74	24194.12
564.90	24308.80
565.07	24662.22
565.23	24329.87
565.39	24301.78
565.56	24432.85
565.72	24318.17
565.88	24318.17
566.05	24456.26
566.21	24320.51
566.38	24524.13
566.54	24531.15
566.70	24613.07
566.87	24425.83
567.03	24739.46
567.19	25050.75
567.36	24510.09
567.52	24400.08
567.68	24545.20
567.85	24348.59
568.01	24435.19
568.17	24709.04
568.34	24645.84
568.50	24664.57
568.66	24360.30
568.83	24779.25
568.99	24592.01
569.15	24730.10
569.32	24203.48
569.48	24463.28
569.64	24648.18
569.81	24610.73
569.97	24535.84
570.13	24470.30
570.30	24573.28
570.46	24680.95
570.62	24177.73
570.78	24404.77
570.95	24577.97
571.11	24711.38
571.27	24849.47
571.43	24393.06
571.60	24421.15
571.76	24545.20
571.92	24699.67
572.09	24856.49
572.25	24858.83
572.41	24713.72
572.57	24905.64
572.74	24849.47
572.90	24498.39
573.06	24926.71
573.22	24362.64
573.38	24592.01
573.55	24463.28
573.71	24755.85
573.87	24980.54
574.03	24805.00
574.20	24613.07
574.36	24390.72
574.52	24718.40
574.68	24582.65
574.84	24510.09
575.01	24737.12
575.17	24683.29
575.33	24751.17
575.49	24678.61
575.65	24886.92
575.82	24985.22
575.98	24875.21
576.14	24987.56
576.30	24847.13
576.46	24954.79
576.62	24893.94
576.79	25048.41
576.95	24833.08
577.11	24919.68
577.27	24779.25
577.43	25003.94
577.59	24870.53
577.75	24910.32
577.92	24573.28
578.08	25109.27
578.24	24673.93
578.40	24950.11
578.56	24964.15
578.72	25509.50
578.88	25062.46
579.04	25298.85
579.21	25116.29
579.37	24907.98
579.53	25238.00
579.69	25025.01
579.85	24830.74
580.01	25010.96
580.17	25034.37
580.33	24907.98
580.49	24821.38
580.65	25050.75
580.82	25008.62
580.98	25025.01
581.14	24776.91
581.30	24753.51
581.46	24865.85
581.62	24788.61
581.78	24510.09
581.94	24758.19
582.10	25020.33
582.26	24907.98
582.42	24655.20
582.58	24807.34
582.74	24987.56
582.90	24762.87
583.06	24779.25
583.22	24812.02
583.38	24980.54
583.54	25020.33
583.70	25301.19
583.86	25151.40
584.02	24718.40
584.18	25076.50
584.34	25254.38
584.50	24994.58
584.66	25064.80
584.82	25006.28
584.98	24987.56
585.14	24870.53
585.30	25085.86
585.46	24793.29
585.62	25172.46
585.78	25177.14
585.94	25294.17
586.10	25329.28
586.26	24851.81
586.42	25123.31
586.58	25661.63
586.74	25156.08
586.90	25333.96
587.06	25219.27
587.22	25631.21
587.38	25275.45
587.54	25694.40
587.70	25230.98
587.86	25331.62
588.02	25385.45
588.18	25420.56
588.34	25460.35
588.49	25029.69
588.65	25249.70
588.81	25048.41
588.97	24856.49
589.13	24992.24
589.29	25050.75
589.45	25401.83
589.61	25010.96
589.77	25762.28
589.93	25336.30
590.08	25371.41
590.24	25207.57
590.40	25088.20
590.56	25132.67
590.72	24816.70
