SpectraSuite Data File
++++++++++++++++++++++++++++++++++++
Date: Thu Oct 24 13:21:33 EDT 2013
User: stostad
Dark Spectrum Present: No
Reference Spectrum Present: No
Number of Sampled Component Spectra: 1
Spectrometers: USB2+H05261
Integration Time (usec): 100000 (USB2+H05261)
Spectra Averaged: 1 (USB2+H05261)
Boxcar Smoothing: 0 (USB2+H05261)
Correct for Electrical Dark: No (USB2+H05261)
Strobe/Lamp Enabled: No (USB2+H05261)
Correct for Detector Non-linearity: No (USB2+H05261)
Correct for Stray Light: No (USB2+H05261)
Number of Pixels in Processed Spectrum: 2048
>>>>>Begin Processed Spectral Data<<<<<
365.73	627.26
365.92	627.26
366.12	627.26
366.32	540.66
366.52	449.38
366.72	486.83
366.91	486.83
367.11	451.72
367.31	423.64
367.51	414.27
367.70	489.17
367.90	479.81
368.10	454.06
368.30	566.41
368.49	468.11
368.69	533.64
368.89	440.02
369.09	512.58
369.28	461.09
369.48	470.45
369.68	500.87
369.87	552.37
370.07	470.45
370.27	505.56
370.47	725.57
370.66	1210.06
370.86	1186.65
371.06	1245.16
371.25	1146.86
371.45	1116.44
371.65	1277.93
371.84	1219.42
372.04	1322.40
372.24	1263.89
372.44	1329.42
372.63	1313.04
372.83	1310.70
373.03	1430.07
373.22	1392.62
373.42	1387.94
373.62	1383.26
373.81	1448.79
374.01	1451.13
374.21	1451.13
374.40	1406.66
374.60	1448.79
374.79	1444.11
374.99	1465.18
375.19	1411.34
375.38	1575.18
375.58	1521.35
375.78	1488.58
375.97	1511.99
376.17	1544.75
376.37	1516.67
376.56	1549.43
376.76	1460.49
376.95	1537.73
377.15	1561.14
377.35	1591.56
377.54	1495.60
377.74	1521.35
377.93	1626.67
378.13	1652.42
378.33	1593.90
378.52	1596.25
378.72	1586.88
378.91	1586.88
379.11	1666.46
379.31	1727.32
379.50	1650.08
379.70	1741.36
379.89	1734.34
380.09	1706.25
380.28	1724.97
380.48	1760.08
380.68	1661.78
380.87	1750.72
381.07	1776.47
381.26	1701.57
381.46	1870.09
381.65	1760.08
381.85	1844.34
382.04	1774.13
382.24	1748.38
382.43	1980.09
382.63	1832.64
382.83	1905.20
383.02	1940.30
383.22	1806.89
383.41	1867.75
383.61	1907.54
383.80	1898.17
384.00	1921.58
384.19	1987.11
384.39	1980.09
384.58	1895.83
384.78	1870.09
384.97	1966.05
385.17	1919.24
385.36	1968.39
385.56	2099.46
385.75	2036.27
385.95	2017.54
386.14	2094.78
386.34	1956.69
386.53	2106.48
386.72	2080.74
386.92	2113.50
387.11	2090.10
387.31	2113.50
387.50	2017.54
387.70	2115.84
387.89	2200.10
388.09	2141.59
388.28	2169.68
388.48	2115.84
388.67	2279.68
388.86	2207.13
389.06	2335.85
389.25	2237.55
389.45	2392.03
389.64	2303.09
389.84	2300.75
390.03	2289.04
390.22	2347.56
390.42	2312.45
390.61	2375.64
390.81	2403.73
391.00	2464.58
391.19	2443.52
391.39	2429.48
391.58	2434.16
391.78	2429.48
391.97	2504.37
392.16	2347.56
392.36	2509.05
392.55	2548.84
392.75	2511.39
392.94	2387.35
393.13	2567.57
393.33	2434.16
393.52	2679.91
393.71	2616.72
393.91	2583.95
394.10	2663.53
394.29	2679.91
394.49	2614.38
394.68	2810.98
394.88	2560.55
395.07	2731.41
395.26	2712.68
395.46	2614.38
395.65	2747.79
395.84	2871.84
396.04	2967.80
396.23	2827.37
396.42	2846.09
396.62	2930.35
396.81	2899.92
397.00	2825.03
397.19	2935.03
397.39	2885.88
397.58	2979.50
397.77	2944.39
397.97	3117.59
398.16	3000.57
398.35	2986.52
398.55	3028.65
398.74	3012.27
398.93	3119.93
399.12	3169.09
399.32	3119.93
399.51	3061.42
399.70	3166.74
399.90	3126.96
400.09	3272.07
400.28	3265.05
400.47	3220.58
400.67	3304.84
400.86	3169.09
401.05	3346.97
401.24	3356.33
401.44	3494.42
401.63	3368.03
401.82	3489.74
402.01	3353.99
402.21	3520.17
402.40	3335.26
402.59	3445.27
402.78	3515.48
402.97	3569.32
403.17	3644.21
403.36	3590.38
403.55	3581.02
403.74	3740.18
403.93	3826.78
404.13	3648.90
404.32	3786.99
404.51	3698.05
404.70	3777.62
404.89	3770.60
405.09	3992.95
405.28	3756.56
405.47	3859.54
405.66	4030.40
405.85	3976.57
406.05	3913.38
406.24	3922.74
406.43	3988.27
406.62	4107.64
406.81	4084.23
407.00	4142.75
407.20	3974.23
407.39	4264.46
407.58	4250.41
407.77	4217.65
407.96	4212.96
408.15	4250.41
408.34	4255.09
408.54	4304.25
408.73	4250.41
408.92	4337.01
409.11	4521.92
409.30	4526.60
409.49	4512.55
409.68	4432.97
409.87	4512.55
410.07	4545.32
410.26	4610.86
410.45	4704.48
410.64	4807.46
410.83	4695.11
411.02	4758.31
411.21	5004.07
411.40	4709.16
411.59	4833.21
411.78	4889.38
411.98	4877.68
412.17	4947.89
412.36	5071.94
412.55	5123.43
412.74	5132.79
412.93	5156.20
413.12	5249.82
413.31	5324.72
413.50	5320.04
413.69	5163.22
413.88	5252.16
414.07	5406.64
414.26	5373.87
414.45	5441.75
414.64	5584.52
414.83	5577.50
415.02	5657.07
415.22	5647.71
415.41	5823.25
415.60	5746.02
415.79	5944.96
415.98	5825.59
416.17	5877.09
416.36	5816.23
416.55	6043.26
416.74	6094.76
416.93	6057.31
417.12	6197.74
417.31	6181.35
417.50	6331.15
417.69	6342.85
417.88	6274.98
418.07	6455.20
418.26	6438.81
418.45	6408.39
418.64	6562.86
418.83	6525.41
419.02	6539.46
419.21	6607.33
419.39	6642.44
419.58	6705.63
419.77	6621.38
419.96	6789.89
420.15	6675.21
420.34	6803.94
420.53	6696.27
420.72	6885.86
420.91	7007.56
421.10	6883.52
421.29	7063.74
421.48	6909.26
421.67	7075.44
421.86	7049.69
422.05	7007.56
422.24	6974.80
422.43	7047.35
422.61	7187.79
422.80	7318.86
422.99	7117.57
423.18	7222.89
423.37	7222.89
423.56	7185.44
423.75	7201.83
423.94	7286.09
424.13	6848.41
424.32	6904.58
424.50	7239.28
424.69	7508.44
424.88	7318.86
425.07	7269.70
425.26	7225.23
425.45	7122.25
425.64	7206.51
425.83	7274.38
426.01	7485.03
426.20	7545.89
426.39	7400.77
426.58	7339.92
426.77	7328.22
426.96	7405.46
427.15	7438.22
427.33	7524.82
427.52	7487.37
427.71	7609.08
427.90	7609.08
428.09	7742.49
428.28	7646.53
428.46	7817.39
428.65	7545.89
428.84	8006.97
429.03	7934.42
429.22	7808.03
429.40	7854.84
429.59	7978.89
429.78	7721.43
429.97	7576.31
430.16	8004.63
430.34	8086.55
430.53	8030.38
430.72	8217.62
430.91	8243.37
431.10	8201.24
431.28	8341.67
431.47	8414.23
431.66	8493.80
431.85	8341.67
432.03	8428.27
432.22	8704.45
432.41	8629.56
432.60	8582.74
432.79	8549.98
432.97	8688.07
433.16	8531.25
433.35	8720.84
433.54	8620.19
433.72	9029.79
433.91	8821.48
434.10	9055.53
434.28	8819.14
434.47	8837.86
434.66	9004.04
434.85	9029.79
435.03	9146.81
435.22	9200.65
435.41	9174.90
435.59	9437.04
435.78	9724.93
435.97	9423.00
436.16	9376.19
436.34	9221.71
436.53	9399.59
436.72	9420.66
436.90	9430.02
437.09	9659.39
437.28	9514.28
437.46	9467.47
437.65	9696.84
437.84	9678.12
438.02	9776.42
438.21	9671.09
438.40	9696.84
438.58	10029.20
438.77	10253.89
438.96	10045.58
439.14	10242.18
439.33	10558.16
439.52	10286.65
439.70	10328.78
439.89	10626.03
440.08	10619.01
440.26	10682.20
440.45	10696.25
440.63	10883.49
440.82	11005.20
441.01	10607.31
441.19	10974.77
441.38	11077.76
441.57	11037.97
441.75	11192.44
441.94	11459.26
442.12	11700.34
442.31	11332.87
442.50	11527.14
442.68	11529.48
442.87	11447.56
443.05	11777.58
443.24	12067.80
443.43	11712.04
443.61	11744.81
443.80	11974.18
443.98	11693.32
444.17	11382.03
444.35	11630.12
444.54	11913.33
444.73	12013.97
444.91	12121.63
445.10	12072.48
445.28	12060.78
445.47	12011.63
445.65	11988.22
445.84	12194.19
446.02	12100.57
446.21	12037.38
446.39	12044.40
446.58	12154.40
446.77	12278.45
446.95	12011.63
447.14	11803.32
447.32	12397.82
447.51	12219.94
447.69	12266.75
447.88	12123.98
448.06	12304.20
448.25	12236.32
448.43	12105.25
448.62	12566.34
448.80	12283.13
448.99	12432.93
449.17	12615.49
449.36	12655.28
449.54	12343.99
449.73	12819.11
449.91	12833.16
450.10	12865.92
450.28	12989.97
450.46	12793.37
450.65	13137.43
450.83	12973.59
451.02	12812.09
451.20	13088.28
451.39	13479.15
451.57	13195.94
451.76	12926.78
451.94	13181.90
452.13	13446.38
452.31	13561.06
452.49	13324.67
452.68	13502.55
452.86	13633.62
453.05	13504.89
453.23	13532.98
453.42	13572.77
453.60	13521.27
453.78	13771.71
453.97	13561.06
454.15	13736.60
454.34	13628.94
454.52	13844.27
454.70	14001.08
454.89	14178.97
455.07	14157.90
455.26	13912.14
455.44	14267.91
455.62	14471.53
455.81	14361.53
455.99	14256.20
456.17	14363.87
456.36	14527.71
456.54	14546.43
456.73	15005.17
456.91	14934.96
457.09	14965.39
457.28	15276.68
457.46	14834.32
457.64	14951.34
457.83	15054.33
458.01	15255.61
458.19	15295.40
458.38	15358.60
458.56	15309.44
458.74	15529.45
458.93	15815.00
459.11	15768.19
459.29	15311.78
459.48	15468.60
459.66	15517.75
459.84	15651.16
460.03	15777.55
460.21	15880.53
460.39	15831.38
460.57	15929.69
460.76	16067.78
460.94	15953.09
461.12	16004.58
461.31	16252.68
461.49	16049.05
461.67	16201.19
461.85	16308.85
462.04	16402.47
462.22	16882.28
462.40	16992.29
462.59	16652.91
462.77	16648.23
462.95	16692.70
463.13	16617.80
463.32	16561.63
463.50	16924.41
463.68	16947.82
463.86	17022.72
464.05	16681.00
464.23	17022.72
464.41	17202.94
464.59	16994.63
464.78	17500.19
464.96	17504.87
465.14	16938.46
465.32	17331.67
465.50	17605.51
465.69	17422.95
465.87	17556.36
466.05	17387.84
466.23	17408.90
466.41	17542.32
466.60	18174.26
466.78	17598.49
466.96	17341.03
467.14	17778.71
467.32	17755.30
467.51	17944.89
467.69	17832.54
467.87	17977.65
468.05	18129.79
468.23	17994.04
468.41	17884.03
468.60	18246.82
468.78	18263.20
468.96	18190.64
469.14	18061.91
469.32	18855.36
469.50	18164.90
469.69	18450.44
469.87	18691.52
470.05	18836.63
470.23	18808.54
470.41	19159.63
470.59	19260.27
470.77	18848.33
470.95	19288.35
471.14	19459.21
471.32	18799.18
471.50	19140.90
471.68	19751.78
471.86	19829.02
472.04	19737.74
472.22	20266.70
472.40	19644.12
472.58	19850.08
472.77	20212.87
472.95	20402.45
473.13	20807.36
473.31	20140.31
473.49	20489.05
473.67	20034.99
473.85	20830.77
474.03	21149.08
474.21	21177.17
474.39	20996.95
474.57	20805.02
474.75	21364.41
474.93	21799.75
475.12	21708.47
475.30	21542.29
475.48	21855.92
475.66	22101.68
475.84	21781.03
476.02	22094.66
476.20	22326.37
476.38	22616.60
476.56	23040.23
476.74	23173.64
476.92	23030.87
477.10	22686.81
477.28	23356.21
477.46	23543.45
477.64	23679.20
477.82	23482.59
478.00	24430.51
478.18	23903.89
478.36	24421.15
478.54	24741.80
478.72	24856.49
478.90	25067.14
479.08	24996.92
479.26	25443.96
479.44	25577.37
479.62	25869.94
479.80	26328.69
479.98	26225.70
480.16	26897.44
480.34	26136.76
480.52	26962.97
480.70	26937.23
480.88	26398.90
481.06	27243.84
481.24	26916.16
481.41	27323.41
481.59	27880.46
481.77	28011.53
481.95	28224.52
482.13	28266.65
482.31	28655.18
482.49	29146.69
482.67	28776.89
482.85	29177.12
483.03	29429.90
483.21	29692.04
483.39	30265.47
483.57	29818.42
483.74	30445.69
483.92	30611.87
484.10	30466.75
484.28	31496.59
484.46	31920.23
484.64	32009.17
484.82	31374.88
485.00	32329.82
485.18	32591.96
485.35	32961.76
485.53	33043.68
485.71	33273.06
485.89	33963.51
486.07	33490.73
486.25	33830.10
486.43	34473.75
486.61	34366.09
486.78	34401.19
486.96	35129.10
487.14	35702.53
487.32	35332.73
487.50	35220.38
487.68	35929.56
487.85	36893.86
488.03	36954.72
488.21	37153.66
488.39	37207.50
488.57	37125.58
488.75	37701.35
488.92	37593.68
489.10	38078.18
489.28	38398.83
489.46	39079.92
489.64	39005.03
489.81	39906.13
489.99	39489.52
490.17	39693.15
490.35	40512.33
490.53	40582.55
490.70	40760.43
490.88	40437.44
491.06	41041.29
491.24	41132.57
491.41	41392.37
491.59	41495.36
491.77	41764.52
491.95	42403.49
492.13	42604.77
492.30	42733.50
492.48	42721.80
492.66	42990.96
492.84	43372.47
493.01	43915.47
493.19	43878.02
493.37	44362.51
493.54	44158.89
493.72	44629.34
493.90	44493.58
494.08	45256.60
494.25	45670.87
494.43	45153.62
494.61	45481.29
494.79	46155.36
494.96	46113.23
495.14	46513.47
495.32	46944.12
495.49	47271.80
495.67	47164.14
495.85	47510.53
496.02	47079.88
496.20	47480.11
496.38	47910.77
496.55	47859.27
496.73	48926.56
496.91	48769.74
497.09	49017.84
497.26	48746.34
497.44	48926.56
497.62	49408.71
497.79	50061.72
497.97	49710.64
498.14	50349.60
498.32	50272.37
498.50	50052.36
498.67	50740.47
498.85	50555.57
499.03	50965.17
499.20	51159.43
499.38	51248.37
499.56	51297.52
499.73	51512.85
499.91	51262.41
500.08	51938.83
500.26	51679.03
500.44	51887.34
500.61	51969.26
500.79	51964.57
500.97	52329.70
501.14	52851.64
501.32	52215.01
501.49	52580.13
501.67	52924.19
501.84	53160.59
502.02	53338.47
502.20	53186.33
502.37	53303.36
502.55	53371.24
502.72	53457.84
502.90	53567.84
503.07	53310.38
503.25	53829.98
503.43	53822.96
503.60	53675.51
503.78	53865.09
503.95	54382.35
504.13	54482.99
504.30	54515.76
504.48	54152.97
504.65	54349.58
504.83	54808.32
505.01	54887.90
505.18	54684.28
505.36	55058.76
505.53	55147.70
505.71	55269.41
505.88	55386.44
506.06	55400.48
506.23	55824.12
506.41	55489.42
506.58	55468.36
506.76	55683.69
506.93	55824.12
507.11	55707.09
507.28	56123.71
507.46	56219.67
507.63	56203.28
507.81	56273.50
507.98	56009.02
508.16	56245.41
508.33	56488.83
508.50	56612.88
508.68	56582.45
508.85	56886.72
509.03	56795.44
509.20	57045.88
509.38	57233.12
509.55	57116.09
509.73	57455.47
509.90	57614.63
510.08	57378.23
510.25	57434.41
510.42	57450.79
510.60	57418.02
510.77	57626.33
510.95	57954.00
511.12	57759.74
511.30	57790.17
511.47	58045.29
511.64	58049.97
511.82	58035.92
511.99	57858.04
512.17	58199.76
512.34	58298.06
512.51	58501.69
512.69	58747.45
512.86	58583.61
513.04	58815.32
513.21	58759.15
513.38	58681.91
513.56	58878.52
513.73	58937.03
513.90	59009.59
514.08	58934.69
514.25	59253.00
514.43	59159.38
514.60	59093.85
514.77	59302.15
514.95	59297.47
515.12	59227.26
515.29	59606.42
515.47	59554.93
515.64	59838.14
515.81	59681.32
515.99	59910.69
516.16	59840.48
516.33	59849.84
516.51	59875.58
516.68	60051.12
516.85	60079.21
517.03	60327.31
517.20	60317.95
517.37	60128.36
517.54	60193.90
517.72	60212.62
517.89	60427.95
518.06	60418.59
518.24	60753.29
518.41	60514.55
518.58	60603.49
518.75	60493.49
518.93	60549.66
519.10	60458.38
519.27	60570.72
519.45	60842.23
519.62	61057.56
519.79	60786.05
519.96	60973.30
520.14	61109.05
520.31	60853.93
520.48	61038.83
520.65	61130.11
520.83	61272.88
521.00	61387.57
521.17	61401.61
521.34	61450.77
521.52	61530.34
521.69	61338.42
521.86	61455.45
522.03	61773.76
522.20	61748.01
522.38	61888.45
522.55	61740.99
522.72	62042.92
522.89	61773.76
523.07	62066.33
523.24	61946.96
523.41	61991.43
523.58	61907.17
523.75	62298.04
523.92	62157.61
524.10	62305.06
524.27	62511.03
524.44	62370.60
524.61	62454.86
524.78	62368.26
524.96	62410.38
525.13	62433.79
525.30	62665.50
525.47	62862.11
525.64	62693.59
525.81	62838.70
525.98	62817.64
526.16	62810.62
526.33	62733.38
526.50	63023.61
526.67	62899.56
526.84	63047.01
527.01	62946.37
527.18	63077.44
527.36	63091.48
527.53	63061.05
527.70	63360.64
527.87	63447.24
528.04	63271.70
528.21	63440.22
528.38	63238.93
528.55	63414.47
528.72	63323.19
528.89	63461.29
529.07	63482.35
529.24	63355.96
529.41	63554.91
529.58	63735.13
529.75	63681.30
529.92	63922.37
530.09	63625.12
530.26	63732.79
530.43	63732.79
530.60	63615.76
530.77	63723.43
530.94	63999.61
531.11	63877.90
531.28	64168.13
531.46	63999.61
531.63	64102.59
531.80	64193.87
531.97	64107.27
532.14	64233.66
532.31	64224.30
532.48	64313.24
532.65	64254.73
532.82	64406.86
532.99	64587.08
533.16	64144.72
533.33	64390.48
533.50	64547.29
533.67	64484.10
533.84	64306.22
534.01	64608.15
534.18	64547.29
534.35	64877.31
534.52	64633.89
534.69	64746.24
534.86	64835.18
535.03	64591.76
535.20	64881.99
535.37	64750.92
535.54	65153.49
535.71	64975.61
535.88	65031.78
536.05	65094.98
536.22	65024.76
536.38	65038.81
536.55	65169.88
536.72	65027.10
536.89	65083.28
537.06	65263.50
537.23	65509.25
537.40	65146.47
537.57	65415.63
537.74	65298.61
537.91	65513.94
538.08	65436.70
538.25	65322.01
538.42	65535.00
538.59	65535.00
538.75	65516.28
538.92	65535.00
539.09	65535.00
539.26	65535.00
539.43	65535.00
539.60	65535.00
539.77	65535.00
539.94	65535.00
540.11	65535.00
540.28	65535.00
540.44	65535.00
540.61	65535.00
540.78	65535.00
540.95	65535.00
541.12	65535.00
541.29	65535.00
541.46	65535.00
541.62	65535.00
541.79	65535.00
541.96	65535.00
542.13	65535.00
542.30	65535.00
542.47	65535.00
542.63	65535.00
542.80	65535.00
542.97	65535.00
543.14	65535.00
543.31	65535.00
543.48	65535.00
543.64	65535.00
543.81	65535.00
543.98	65535.00
544.15	65535.00
544.32	65535.00
544.48	65535.00
544.65	65535.00
544.82	65535.00
544.99	65535.00
545.16	65535.00
545.32	65535.00
545.49	65535.00
545.66	65535.00
545.83	65535.00
546.00	65535.00
546.16	65535.00
546.33	65535.00
546.50	65535.00
546.67	65535.00
546.83	65535.00
547.00	65535.00
547.17	65535.00
547.34	65535.00
547.50	65535.00
547.67	65535.00
547.84	65535.00
548.00	65535.00
548.17	65535.00
548.34	65535.00
548.51	65535.00
548.67	65535.00
548.84	65535.00
549.01	65535.00
549.18	65535.00
549.34	65535.00
549.51	65535.00
549.68	65535.00
549.84	65535.00
550.01	65535.00
550.18	65535.00
550.34	65535.00
550.51	65535.00
550.68	65535.00
550.84	65535.00
551.01	65535.00
551.18	65535.00
551.34	65535.00
551.51	65535.00
551.68	65535.00
551.84	65535.00
552.01	65535.00
552.18	65535.00
552.34	65535.00
552.51	65535.00
552.68	65535.00
552.84	65535.00
553.01	65535.00
553.18	65535.00
553.34	65535.00
553.51	65535.00
553.67	65535.00
553.84	65535.00
554.01	65535.00
554.17	65535.00
554.34	65535.00
554.51	65535.00
554.67	65535.00
554.84	65535.00
555.00	65535.00
555.17	65535.00
555.33	65535.00
555.50	65535.00
555.67	65535.00
555.83	65535.00
556.00	65535.00
556.16	65535.00
556.33	65535.00
556.50	65535.00
556.66	65535.00
556.83	65535.00
556.99	65535.00
557.16	65535.00
557.32	65535.00
557.49	65535.00
557.65	65535.00
557.82	65535.00
557.98	65535.00
558.15	65535.00
558.32	65535.00
558.48	65535.00
558.65	65535.00
558.81	65535.00
558.98	65535.00
559.14	65535.00
559.31	65535.00
559.47	65535.00
559.64	65535.00
559.80	65535.00
559.97	65535.00
560.13	65535.00
560.30	65535.00
560.46	65535.00
560.63	65535.00
560.79	65535.00
560.96	65535.00
561.12	65535.00
561.29	65535.00
561.45	65535.00
561.61	65535.00
561.78	65535.00
561.94	65535.00
562.11	65535.00
562.27	65535.00
562.44	65535.00
562.60	65535.00
562.77	65535.00
562.93	65535.00
563.10	65535.00
563.26	65535.00
563.42	65535.00
563.59	65535.00
563.75	65535.00
563.92	65535.00
564.08	65535.00
564.24	65535.00
564.41	65535.00
564.57	65535.00
564.74	65535.00
564.90	65535.00
565.07	65535.00
565.23	65535.00
565.39	65535.00
565.56	65535.00
565.72	65535.00
565.88	65535.00
566.05	65535.00
566.21	65535.00
566.38	65535.00
566.54	65535.00
566.70	65535.00
566.87	65535.00
567.03	65535.00
567.19	65535.00
567.36	65535.00
567.52	65535.00
567.68	65535.00
567.85	65535.00
568.01	65535.00
568.17	65535.00
568.34	65535.00
568.50	65535.00
568.66	65535.00
568.83	65535.00
568.99	65535.00
569.15	65535.00
569.32	65535.00
569.48	65535.00
569.64	65535.00
569.81	65535.00
569.97	65535.00
570.13	65535.00
570.30	65535.00
570.46	65535.00
570.62	65535.00
570.78	65535.00
570.95	65535.00
571.11	65535.00
571.27	65535.00
571.43	65535.00
571.60	65535.00
571.76	65535.00
571.92	65535.00
572.09	65535.00
572.25	65535.00
572.41	65535.00
572.57	65535.00
572.74	65535.00
572.90	65535.00
573.06	65535.00
573.22	65535.00
573.38	65535.00
573.55	65535.00
573.71	65535.00
573.87	65535.00
574.03	65535.00
574.20	65535.00
574.36	65535.00
574.52	65535.00
574.68	65535.00
574.84	65535.00
575.01	65535.00
575.17	65535.00
575.33	65535.00
575.49	65535.00
575.65	65535.00
575.82	65535.00
575.98	65535.00
576.14	65535.00
576.30	65535.00
576.46	65535.00
576.62	65535.00
576.79	65535.00
576.95	65535.00
577.11	65535.00
577.27	65535.00
577.43	65535.00
577.59	65535.00
577.75	65535.00
577.92	65535.00
578.08	65535.00
578.24	65535.00
578.40	65535.00
578.56	65535.00
578.72	65535.00
578.88	65535.00
579.04	65535.00
579.21	65535.00
579.37	65535.00
579.53	65535.00
579.69	65535.00
579.85	65535.00
580.01	65535.00
580.17	65535.00
580.33	65535.00
580.49	65535.00
580.65	65535.00
580.82	65535.00
580.98	65535.00
581.14	65535.00
581.30	65535.00
581.46	65535.00
581.62	65535.00
581.78	65535.00
581.94	65535.00
582.10	65535.00
582.26	65535.00
582.42	65535.00
582.58	65535.00
582.74	65535.00
582.90	65535.00
583.06	65535.00
583.22	65535.00
583.38	65535.00
583.54	65535.00
583.70	65535.00
583.86	65535.00
584.02	65535.00
584.18	65535.00
584.34	65535.00
584.50	65535.00
584.66	65535.00
584.82	65535.00
584.98	65535.00
585.14	65535.00
585.30	65535.00
585.46	65535.00
585.62	65535.00
585.78	65535.00
585.94	65535.00
586.10	65535.00
586.26	65535.00
586.42	65535.00
586.58	65535.00
586.74	65535.00
586.90	65535.00
587.06	65535.00
