SpectraSuite Data File
++++++++++++++++++++++++++++++++++++
Date: Thu Oct 24 13:21:11 EDT 2013
User: stostad
Dark Spectrum Present: No
Reference Spectrum Present: No
Number of Sampled Component Spectra: 1
Spectrometers: USB2+H05261
Integration Time (usec): 100000 (USB2+H05261)
Spectra Averaged: 1 (USB2+H05261)
Boxcar Smoothing: 0 (USB2+H05261)
Correct for Electrical Dark: No (USB2+H05261)
Strobe/Lamp Enabled: No (USB2+H05261)
Correct for Detector Non-linearity: No (USB2+H05261)
Correct for Stray Light: No (USB2+H05261)
Number of Pixels in Processed Spectrum: 2048
>>>>>Begin Processed Spectral Data<<<<<
365.73	589.82
365.92	589.82
366.12	589.82
366.32	526.62
366.52	388.53
366.72	430.66
366.91	486.83
367.11	458.74
367.31	461.09
367.51	507.90
367.70	465.77
367.90	496.19
368.10	465.77
368.30	484.49
368.49	484.49
368.69	559.39
368.89	484.49
369.09	475.13
369.28	514.92
369.48	510.24
369.68	528.96
369.87	510.24
370.07	493.85
370.27	557.05
370.47	650.67
370.66	641.31
370.86	718.54
371.06	706.84
371.25	746.63
371.45	697.48
371.65	723.23
371.84	669.39
372.04	753.65
372.24	730.25
372.44	755.99
372.63	737.27
372.83	734.93
373.03	748.97
373.22	741.95
373.42	786.42
373.62	788.76
373.81	772.38
374.01	779.40
374.21	858.98
374.40	777.06
374.60	835.57
374.79	788.76
374.99	781.74
375.19	821.53
375.38	882.38
375.58	767.70
375.78	835.57
375.97	835.57
376.17	908.13
376.37	744.29
376.56	830.89
376.76	816.85
376.95	851.96
377.15	868.34
377.35	873.02
377.54	833.23
377.74	858.98
377.93	856.64
378.13	917.49
378.33	901.11
378.52	786.42
378.72	891.74
378.91	727.91
379.11	858.98
379.31	875.36
379.50	777.06
379.70	880.04
379.89	828.55
380.09	798.12
380.28	903.45
380.48	807.48
380.68	840.25
380.87	873.02
381.07	926.85
381.26	915.15
381.46	917.49
381.65	823.87
381.85	870.68
382.04	912.81
382.24	931.53
382.43	856.64
382.63	840.25
382.83	798.12
383.02	835.57
383.22	870.68
383.41	835.57
383.61	802.80
383.80	943.24
384.00	901.11
384.19	919.83
384.39	943.24
384.58	882.38
384.78	849.61
384.97	863.66
385.17	908.13
385.36	936.21
385.56	898.77
385.75	947.92
385.95	929.19
386.14	924.51
386.34	866.00
386.53	905.79
386.72	997.07
386.92	968.98
387.11	875.36
387.31	887.06
387.50	870.68
387.70	1001.75
387.89	933.87
388.09	887.06
388.28	1048.56
388.48	896.43
388.67	938.55
388.86	952.60
389.06	1013.45
389.25	880.04
389.45	910.47
389.64	1001.75
389.84	915.15
390.03	940.90
390.22	1067.28
390.42	952.60
390.61	1053.24
390.81	1039.20
391.00	1027.50
391.19	1067.28
391.39	959.62
391.58	1057.92
391.78	1057.92
391.97	973.66
392.16	1118.78
392.36	1036.86
392.55	1057.92
392.75	1039.20
392.94	976.00
393.13	1100.05
393.33	1060.26
393.52	1078.99
393.71	1039.20
393.91	1057.92
394.10	985.37
394.29	1067.28
394.49	999.41
394.68	1069.62
394.88	1060.26
395.07	1100.05
395.26	1109.41
395.46	1074.31
395.65	1142.18
395.84	1137.50
396.04	1144.52
396.23	1121.12
396.42	1088.35
396.62	1137.50
396.81	1160.91
397.00	1100.05
397.19	1146.86
397.39	1174.95
397.58	1102.39
397.77	1144.52
397.97	1179.63
398.16	1247.51
398.35	1210.06
398.55	1170.27
398.74	1245.16
398.93	1114.10
399.12	1196.01
399.32	1177.29
399.51	1174.95
399.70	1226.44
399.90	1256.87
400.09	1191.33
400.28	1212.40
400.47	1231.12
400.67	1280.27
400.86	1284.95
401.05	1198.35
401.24	1359.85
401.44	1254.53
401.63	1313.04
401.82	1355.17
402.01	1373.89
402.21	1299.00
402.40	1334.11
402.59	1320.06
402.78	1364.53
402.97	1329.42
403.17	1376.24
403.36	1252.19
403.55	1284.95
403.74	1341.13
403.93	1437.09
404.13	1373.89
404.32	1385.60
404.51	1387.94
404.70	1458.15
404.89	1336.45
405.09	1369.21
405.28	1345.81
405.47	1345.81
405.66	1420.71
405.85	1483.90
406.05	1406.66
406.24	1458.15
406.43	1507.30
406.62	1530.71
406.81	1540.07
407.00	1490.92
407.20	1455.81
407.39	1427.73
407.58	1490.92
407.77	1558.80
407.96	1507.30
408.15	1486.24
408.34	1535.39
408.54	1547.09
408.73	1575.18
408.92	1586.88
409.11	1495.60
409.30	1645.40
409.49	1614.97
409.68	1610.29
409.87	1692.21
410.07	1591.56
410.26	1612.63
410.45	1596.25
410.64	1568.16
410.83	1647.74
411.02	1673.48
411.21	1708.59
411.40	1652.42
411.59	1572.84
411.78	1664.12
411.98	1666.46
412.17	1720.29
412.36	1842.00
412.55	1849.02
412.74	1769.44
412.93	1774.13
413.12	1788.17
413.31	1839.66
413.50	1804.55
413.69	1734.34
413.88	1884.13
414.07	1865.41
414.26	1935.62
414.45	1947.33
414.64	1949.67
414.83	1900.52
415.02	1909.88
415.22	2059.67
415.41	1998.82
415.60	1898.17
415.79	1987.11
415.98	2001.16
416.17	2038.61
416.36	2001.16
416.55	2101.80
416.74	1977.75
416.93	2064.35
417.12	2165.00
417.31	2005.84
417.50	1977.75
417.69	2090.10
417.88	2157.97
418.07	2064.35
418.26	2155.63
418.45	2064.35
418.64	2162.66
418.83	2239.89
419.02	2172.02
419.21	2188.40
419.39	2230.53
419.58	2186.06
419.77	2230.53
419.96	2305.43
420.15	2317.13
420.34	2251.60
420.53	2237.55
420.72	2303.09
420.91	2246.91
421.10	2363.94
421.29	2296.07
421.48	2193.08
421.67	2218.83
421.86	2333.51
422.05	2249.25
422.24	2328.83
422.43	2214.15
422.61	2303.09
422.80	2298.41
422.99	2340.54
423.18	2356.92
423.37	2361.60
423.56	2326.49
423.75	2363.94
423.94	2310.11
424.13	2218.83
424.32	2181.38
424.50	2361.60
424.69	2420.11
424.88	2420.11
425.07	2258.62
425.26	2305.43
425.45	2385.01
425.64	2317.13
425.83	2431.82
426.01	2401.39
426.20	2431.82
426.39	2408.41
426.58	2314.79
426.77	2352.24
426.96	2590.97
427.15	2450.54
427.33	2537.14
427.52	2480.97
427.71	2478.63
427.90	2448.20
428.09	2487.99
428.28	2487.99
428.46	2487.99
428.65	2562.89
428.84	2532.46
429.03	2525.44
429.22	2567.57
429.40	2572.25
429.59	2504.37
429.78	2502.03
429.97	2509.05
430.16	2609.70
430.34	2490.33
430.53	2523.10
430.72	2621.40
430.91	2551.18
431.10	2572.25
431.28	2703.32
431.47	2665.87
431.66	2640.12
431.85	2602.68
432.03	2750.13
432.22	2773.53
432.41	2661.19
432.60	2745.45
432.79	2843.75
432.97	2691.62
433.16	2808.64
433.35	2780.56
433.54	2810.98
433.72	2743.11
433.91	2841.41
434.10	2738.43
434.28	2801.62
434.47	2904.60
434.66	2867.16
434.85	2822.69
435.03	2930.35
435.22	3122.27
435.41	3251.00
435.59	3267.39
435.78	3136.32
435.97	2974.82
436.16	3047.38
436.34	3052.06
436.53	2944.39
436.72	3040.36
436.90	2913.97
437.09	2923.33
437.28	3023.97
437.46	2979.50
437.65	2864.82
437.84	3108.23
438.02	2977.16
438.21	2970.14
438.40	3019.29
438.58	3171.43
438.77	3030.99
438.96	3084.83
439.14	3112.91
439.33	3162.06
439.52	3239.30
439.70	3105.89
439.89	3262.71
440.08	3248.66
440.26	3101.21
440.45	3246.32
440.63	3265.05
440.82	3421.86
441.01	3251.00
441.19	3339.94
441.38	3344.63
441.57	3421.86
441.75	3368.03
441.94	3391.44
442.12	3513.14
442.31	3527.19
442.50	3499.10
442.68	3412.50
442.87	3487.40
443.05	3445.27
443.24	3585.70
443.43	3552.93
443.61	3489.74
443.80	3548.25
443.98	3461.65
444.17	3410.16
444.35	3548.25
444.54	3569.32
444.73	3611.45
444.91	3506.12
445.10	3681.66
445.28	3543.57
445.47	3712.09
445.65	3623.15
445.84	3740.18
446.02	3686.34
446.21	3604.42
446.39	3527.19
446.58	3749.54
446.77	3562.30
446.95	3536.55
447.14	3632.51
447.32	3604.42
447.51	3632.51
447.69	3641.87
447.88	3637.19
448.06	3709.75
448.25	3747.20
448.43	3763.58
448.62	3592.72
448.80	3665.28
448.99	3702.73
449.17	3616.13
449.36	3569.32
449.54	3686.34
449.73	3758.90
449.91	3754.22
450.10	3808.05
450.28	3861.88
450.46	3768.26
450.65	3927.42
450.83	3871.25
451.02	3922.74
451.20	3854.86
451.39	3786.99
451.57	3737.84
451.76	3730.81
451.94	3904.01
452.13	3934.44
452.31	3955.51
452.49	3948.48
452.68	3901.67
452.86	3885.29
453.05	3974.23
453.23	4002.32
453.42	4042.11
453.60	3801.03
453.78	4091.26
453.97	3988.27
454.15	3960.19
454.34	3978.91
454.52	4088.92
454.70	4142.75
454.89	4028.06
455.07	4025.72
455.26	4180.20
455.44	3997.64
455.62	4163.81
455.81	4058.49
455.99	4224.67
456.17	4084.23
456.36	4184.88
456.54	4311.27
456.73	4210.62
456.91	4332.33
457.09	4318.29
457.28	4271.48
457.46	4224.67
457.64	4306.59
457.83	4362.76
458.01	4280.84
458.19	4533.62
458.38	4304.25
458.56	4416.59
458.74	4454.04
458.93	4458.72
459.11	4280.84
459.29	4435.32
459.48	4337.01
459.66	4479.79
459.84	4493.83
460.03	4491.49
460.21	4479.79
460.39	4554.68
460.57	4407.23
460.76	4510.21
460.94	4631.92
461.12	4613.20
461.31	4573.41
461.49	4594.47
461.67	4620.22
461.85	4634.26
462.04	4784.06
462.22	4926.83
462.40	4800.44
462.59	4889.38
462.77	4599.15
462.95	4655.33
463.13	4767.67
463.32	4751.29
463.50	4814.48
463.68	4706.82
463.86	4622.56
464.05	4622.56
464.23	4667.03
464.41	4791.08
464.59	4713.84
464.78	4788.74
464.96	4667.03
465.14	4821.50
465.32	4931.51
465.50	4926.83
465.69	4865.97
465.87	4926.83
466.05	5057.90
466.23	4924.49
466.41	4994.70
466.60	4987.68
466.78	4912.78
466.96	4915.12
467.14	4912.78
467.32	5130.45
467.51	5137.48
467.69	5018.11
467.87	4983.00
468.05	4964.28
468.23	4781.71
468.41	5020.45
468.60	4964.28
468.78	4873.00
468.96	4990.02
469.14	5062.58
469.32	5057.90
469.50	4952.57
469.69	5219.39
469.87	5268.55
470.05	5277.91
470.23	5385.57
470.41	5261.52
470.59	5322.38
470.77	5203.01
470.95	5179.61
471.14	5315.36
471.32	5282.59
471.50	5348.12
471.68	5188.97
471.86	5291.95
472.04	5387.91
472.22	5481.53
472.40	5310.68
472.58	5387.91
472.77	5678.14
472.95	5488.56
473.13	5731.97
473.31	5526.00
473.49	5591.54
473.67	5462.81
473.85	5638.35
474.03	5685.16
474.21	5605.58
474.39	5689.84
474.57	5729.63
474.75	5865.38
474.93	5951.98
475.12	5785.80
475.30	5830.27
475.48	5989.43
475.66	5996.45
475.84	5837.30
476.02	5987.09
476.20	6073.69
476.38	6019.86
476.56	6083.05
476.74	6129.86
476.92	6052.63
477.10	6160.29
477.28	6279.66
477.46	6300.72
477.64	6256.25
477.82	6429.45
478.00	6516.05
478.18	6380.30
478.36	6644.78
478.54	6696.27
478.72	6619.04
478.90	6530.09
479.08	6813.30
479.26	6726.70
479.44	6871.81
479.62	6733.72
479.80	6843.73
479.98	6871.81
480.16	6984.16
480.34	6930.33
480.52	7152.68
480.70	7112.89
480.88	6904.58
481.06	7311.83
481.24	7098.84
481.41	7328.22
481.59	7311.83
481.77	7414.82
481.95	7311.83
482.13	7536.52
482.31	7534.18
482.49	7613.76
482.67	7487.37
482.85	7527.16
483.03	7960.16
483.21	7906.33
483.39	7702.70
483.57	7761.22
483.74	8051.44
483.92	7948.46
484.10	8006.97
484.28	8161.45
484.46	8318.26
484.64	8315.92
484.82	8205.92
485.00	8416.57
485.18	8493.80
485.35	8418.91
485.53	8669.34
485.71	8877.65
485.89	8802.75
486.07	8744.24
486.25	8791.05
486.43	8891.70
486.61	8903.40
486.78	8922.12
486.96	9008.72
487.14	9104.68
487.32	9151.49
487.50	9263.84
487.68	9310.65
487.85	9408.95
488.03	9437.04
488.21	9717.90
488.39	9525.98
488.57	9561.09
488.75	9455.76
488.92	9844.29
489.10	10073.67
489.28	9879.40
489.46	10167.29
489.64	9919.19
489.81	10085.37
489.99	10101.75
490.17	10150.90
490.35	10443.47
490.53	10342.83
490.70	10480.92
490.88	10429.43
491.06	10438.79
491.24	10614.33
491.41	10846.04
491.59	11002.86
491.77	10707.95
491.95	10974.77
492.13	10817.96
492.30	10806.25
492.48	11014.56
492.66	10916.26
492.84	11094.14
493.01	11138.61
493.19	10984.13
493.37	11405.43
493.54	11140.95
493.72	11421.81
493.90	11431.18
494.08	11318.83
494.25	11756.51
494.43	11688.64
494.61	11751.83
494.79	11777.58
494.96	11852.47
495.14	11939.07
495.32	11946.09
495.49	12119.29
495.67	12367.39
495.85	12042.06
496.02	12138.02
496.20	12203.55
496.38	12219.94
496.55	12358.03
496.73	12905.71
496.91	12484.42
497.09	12784.01
497.26	12718.47
497.44	12599.10
497.62	12634.21
497.79	12620.17
497.97	12837.84
498.14	12908.05
498.32	12842.52
498.50	13209.98
498.67	13224.03
498.85	13053.17
499.03	13195.94
499.20	13008.70
499.38	13298.92
499.56	13214.66
499.73	13364.46
499.91	13277.86
500.08	13483.83
500.26	13268.50
500.44	13418.29
500.61	13411.27
500.79	13570.43
500.97	13542.34
501.14	13862.99
501.32	13858.31
501.49	13523.62
501.67	13921.51
501.84	13963.64
502.02	14031.51
502.20	14111.09
502.37	14043.21
502.55	14073.64
502.72	13956.61
502.90	14181.31
503.07	14253.86
503.25	14232.80
503.43	14150.88
503.60	14483.24
503.78	14305.35
503.95	14097.05
504.13	14490.26
504.30	14398.98
504.48	14326.42
504.65	14850.70
504.83	14555.79
505.01	14925.60
505.18	14651.75
505.36	14827.29
505.53	14782.82
505.71	14965.39
505.88	14927.94
506.06	14817.93
506.23	15021.56
506.41	15028.58
506.58	15124.54
506.76	14958.36
506.93	15136.24
507.11	15297.74
507.28	15353.91
507.46	15335.19
507.63	15213.48
507.81	15426.47
507.98	15302.42
508.16	15328.17
508.33	15384.34
508.50	15599.67
508.68	15775.21
508.85	15641.80
509.03	15896.92
509.20	15962.45
509.38	15833.72
509.55	15564.56
509.73	16051.39
509.90	15967.13
510.08	15896.92
510.25	16161.40
510.42	16196.51
510.60	15922.66
510.77	16020.97
510.95	15878.19
511.12	16315.87
511.30	16308.85
511.47	16285.45
511.64	16156.72
511.82	16582.70
511.99	16332.26
512.17	16400.13
512.34	16311.19
512.51	16662.27
512.69	16718.45
512.86	16765.26
513.04	16655.25
513.21	16643.55
513.38	16779.30
513.56	17025.06
513.73	16713.77
513.90	16844.84
514.08	16964.20
514.25	16992.29
514.43	17060.16
514.60	17128.04
514.77	17067.19
514.95	17125.70
515.12	17167.83
515.29	16898.67
515.47	17418.27
515.64	17261.45
515.81	17027.40
515.99	17259.11
516.16	17621.89
516.33	17483.80
516.51	17556.36
516.68	17561.04
516.85	17579.76
517.03	17460.40
517.20	17774.03
517.37	17858.29
517.54	17642.96
517.72	17394.86
517.89	17563.38
518.06	17727.22
518.24	17757.64
518.41	17860.63
518.58	17797.43
518.75	17661.68
518.93	17647.64
519.10	17652.32
519.27	18017.44
519.45	18001.06
519.62	18162.56
519.79	18214.05
519.96	18246.82
520.14	18270.22
520.31	17907.44
520.48	18125.11
520.65	18281.92
520.83	18363.84
521.00	18647.05
521.17	18513.64
521.34	18642.37
521.52	18553.43
521.69	18288.95
521.86	18525.34
522.03	18565.13
522.20	18691.52
522.38	18787.48
522.55	18752.37
522.72	18686.84
522.89	18808.54
523.07	18581.51
523.24	18700.88
523.41	19154.94
523.58	18838.97
523.75	19185.37
523.92	19035.58
524.10	18740.67
524.27	18906.85
524.44	18888.12
524.61	19110.47
524.78	19309.42
524.96	19084.73
525.13	19147.92
525.30	19431.13
525.47	19302.40
525.64	19384.32
525.81	19311.76
525.98	19470.92
526.16	19271.97
526.33	19550.49
526.50	19726.04
526.67	19140.90
526.84	19578.58
527.01	19545.81
527.18	19730.72
527.36	19690.93
527.53	19927.32
527.70	19807.95
527.87	19967.11
528.04	19903.92
528.21	20004.56
528.38	19915.62
528.55	19880.51
528.72	19817.32
528.89	19716.67
529.07	19894.55
529.24	19569.22
529.41	20042.01
529.58	19913.28
529.75	19988.18
529.92	20149.67
530.09	19981.15
530.26	19983.49
530.43	19992.86
530.60	20306.49
530.77	20009.24
530.94	20411.81
531.11	20016.26
531.28	20367.34
531.46	20184.78
531.63	20421.17
531.80	20044.35
531.97	20067.75
532.14	20599.05
532.31	20304.15
532.48	20601.40
532.65	20702.04
532.82	20332.23
532.99	20538.20
533.16	20547.56
533.33	20456.28
533.50	21146.74
533.67	20767.57
533.84	20772.25
534.01	20760.55
534.18	20783.96
534.35	21055.46
534.52	20893.96
534.69	20952.48
534.86	20603.74
535.03	20692.68
535.20	20781.62
535.37	20961.84
535.54	21029.71
535.71	20964.18
535.88	20807.36
536.05	21003.97
536.22	21249.72
536.38	21352.71
536.55	21202.91
536.72	21156.10
536.89	21153.76
537.06	21415.90
537.23	21198.23
537.40	21486.12
537.57	21333.98
537.74	21207.59
537.91	21502.50
538.08	21380.79
538.25	21235.68
538.42	21460.37
538.59	21530.59
538.75	21476.76
538.92	21486.12
539.09	21539.95
539.26	21460.37
539.43	21483.78
539.60	21652.30
539.77	21476.76
539.94	21575.06
540.11	22047.85
540.28	21879.33
540.44	22015.08
540.61	21900.39
540.78	21668.68
540.95	22183.60
541.12	22317.01
541.29	22167.21
541.46	22223.39
541.62	22228.07
541.79	22567.45
541.96	22455.10
542.13	22333.39
542.30	22427.01
542.47	22295.94
542.63	22665.75
542.80	22253.81
542.97	22778.09
543.14	22766.39
543.31	22876.40
543.48	22616.60
543.64	22796.82
543.81	23044.91
543.98	22553.40
544.15	23232.16
544.32	22848.31
544.48	23112.79
544.65	22817.88
544.82	23168.96
544.99	22628.30
545.16	23026.19
545.32	22974.70
545.49	23281.31
545.66	23814.95
545.83	23786.86
546.00	23896.87
546.16	23726.01
546.33	23274.29
546.50	23339.82
546.67	23171.30
546.83	22740.64
547.00	22937.25
547.17	23159.60
547.34	22902.14
547.50	23082.36
547.67	23260.24
547.84	23183.01
548.00	22972.36
548.17	23454.51
548.34	22984.06
548.51	23604.30
548.67	23264.92
548.84	23023.85
549.01	23335.14
549.18	23405.36
549.34	23140.88
549.51	23131.51
549.68	23164.28
549.84	23234.50
550.01	23028.53
550.18	23152.58
550.34	22876.40
550.51	23096.41
550.68	23239.18
550.84	22967.68
551.01	23349.18
551.18	22803.84
551.34	23077.68
551.51	23035.55
551.68	23290.67
551.84	23147.90
552.01	23232.16
552.18	23442.81
552.34	23220.45
552.51	23529.41
552.68	23274.29
552.84	23447.49
553.01	23426.42
553.18	23606.64
553.34	23543.45
553.51	23168.96
553.67	23328.12
553.84	23754.10
554.01	23576.22
554.17	23737.71
554.34	23946.02
554.51	23634.73
554.67	23707.29
554.84	23616.01
555.00	23269.61
555.17	23183.01
555.33	23613.66
555.50	23456.85
555.67	23714.31
555.83	23772.82
556.00	23578.56
556.16	23744.73
556.33	23831.33
556.50	23527.06
556.66	23793.89
556.83	23632.39
556.99	24109.86
557.16	24130.92
557.32	23908.57
557.49	23889.85
557.65	23522.38
557.82	23632.39
557.98	23962.40
558.15	23779.84
558.32	23494.30
558.48	23594.94
558.65	24123.90
558.81	23812.61
558.98	23934.32
559.14	24037.30
559.31	23913.25
559.47	23929.64
559.64	24332.21
559.80	23644.09
559.97	24201.14
560.13	23765.80
560.30	23534.09
560.46	23611.32
560.63	24217.52
560.79	24060.71
560.96	23887.51
561.12	23971.77
561.29	24116.88
561.45	24238.59
561.61	23889.85
561.78	24046.66
561.94	24201.14
562.11	24395.40
562.27	24364.98
562.44	24191.78
562.60	24325.19
562.77	24439.87
562.93	24133.26
563.10	24339.23
563.26	23967.09
563.42	24489.03
563.59	24151.99
563.75	24049.00
563.92	24592.01
564.08	24367.32
564.24	24261.99
564.41	24528.81
564.57	24442.21
564.74	24189.44
564.90	24067.73
565.07	24173.05
565.23	24135.60
565.39	24287.74
565.56	24343.91
565.72	24535.84
565.88	24147.31
566.05	24086.45
566.21	24053.69
566.38	24238.59
566.54	24198.80
566.70	24280.72
566.87	24842.45
567.03	24355.61
567.19	24816.70
567.36	24339.23
567.52	24568.60
567.68	24346.25
567.85	24381.36
568.01	24493.71
568.17	24336.89
568.34	24037.30
568.50	24276.04
568.66	24318.17
568.83	24470.30
568.99	24098.16
569.15	24505.41
569.32	24215.18
569.48	24126.24
569.64	24156.67
569.81	24362.64
569.97	24236.25
570.13	24505.41
570.30	24587.33
570.46	24739.46
570.62	24238.59
570.78	24589.67
570.95	24343.91
571.11	24727.76
571.27	24229.23
571.43	24362.64
571.60	24559.24
571.76	24559.24
571.92	24587.33
572.09	24720.74
572.25	24299.44
572.41	24451.58
572.57	24592.01
572.74	24807.34
572.90	24283.06
573.06	24482.00
573.22	24739.46
573.38	24620.10
573.55	24327.53
573.71	24601.37
573.87	24500.73
574.03	24474.98
574.20	24610.73
574.36	24790.95
574.52	24465.62
574.68	24669.25
574.84	24814.36
575.01	24760.53
575.17	24599.03
575.33	24580.31
575.49	24238.59
575.65	25125.65
575.82	24671.59
575.98	24945.43
576.14	24961.81
576.30	24903.30
576.46	25029.69
576.62	24765.21
576.79	25097.56
576.95	24863.51
577.11	24655.20
577.27	24966.49
577.43	24828.40
577.59	24966.49
577.75	24781.59
577.92	24411.79
578.08	24996.92
578.24	24788.61
578.40	25003.94
578.56	24950.11
578.72	25142.03
578.88	24945.43
579.04	24938.41
579.21	24940.75
579.37	25081.18
579.53	24734.78
579.69	24847.13
579.85	24835.42
580.01	24711.38
580.17	25074.16
580.33	24615.41
580.49	24648.18
580.65	25085.86
580.82	24425.83
580.98	24926.71
581.14	24659.88
581.30	24973.52
581.46	24774.57
581.62	24615.41
581.78	24500.73
581.94	24676.27
582.10	24664.57
582.26	25013.31
582.42	24816.70
582.58	24442.21
582.74	24954.79
582.90	24655.20
583.06	25202.89
583.22	24704.35
583.38	24805.00
583.54	24503.07
583.70	24947.77
583.86	24767.55
584.02	24638.82
584.18	25120.97
584.34	25022.67
584.50	24587.33
584.66	24783.93
584.82	24947.77
584.98	24807.34
585.14	24547.54
585.30	25170.12
585.46	25055.43
585.62	24507.75
585.78	24884.58
585.94	24786.27
586.10	24807.34
586.26	24957.13
586.42	25163.10
586.58	24926.71
586.74	24741.80
586.90	25015.65
587.06	24727.76
587.22	25081.18
587.38	24863.51
587.54	24978.20
587.70	25181.82
587.86	24814.36
588.02	25020.33
588.18	25233.32
588.34	25053.09
588.49	24879.89
588.65	24828.40
588.81	25048.41
588.97	25020.33
589.13	24809.68
589.29	24837.76
589.45	25081.18
589.61	25097.56
589.77	25376.09
589.93	25017.99
590.08	25046.07
590.24	25219.27
590.40	24994.58
590.56	25355.02
590.72	24861.17
