SpectraSuite Data File
++++++++++++++++++++++++++++++++++++
Date: Thu Oct 24 13:21:20 EDT 2013
User: stostad
Dark Spectrum Present: No
Reference Spectrum Present: No
Number of Sampled Component Spectra: 1
Spectrometers: USB2+H05261
Integration Time (usec): 100000 (USB2+H05261)
Spectra Averaged: 1 (USB2+H05261)
Boxcar Smoothing: 0 (USB2+H05261)
Correct for Electrical Dark: No (USB2+H05261)
Strobe/Lamp Enabled: No (USB2+H05261)
Correct for Detector Non-linearity: No (USB2+H05261)
Correct for Stray Light: No (USB2+H05261)
Number of Pixels in Processed Spectrum: 2048
>>>>>Begin Processed Spectral Data<<<<<
365.73	622.58
365.92	622.58
366.12	622.58
366.32	550.03
366.52	458.74
366.72	489.17
366.91	440.02
367.11	418.96
367.31	411.93
367.51	496.19
367.70	404.91
367.90	468.11
368.10	423.64
368.30	461.09
368.49	496.19
368.69	482.15
368.89	437.68
369.09	479.81
369.28	519.60
369.48	507.90
369.68	547.69
369.87	564.07
370.07	496.19
370.27	545.34
370.47	613.22
370.66	767.70
370.86	800.46
371.06	861.32
371.25	910.47
371.45	950.26
371.65	929.19
371.84	830.89
372.04	868.34
372.24	908.13
372.44	959.62
372.63	917.49
372.83	851.96
373.03	903.45
373.22	861.32
373.42	868.34
373.62	971.32
373.81	938.55
374.01	1062.60
374.21	1004.09
374.40	964.30
374.60	945.58
374.79	992.39
374.99	1001.75
375.19	966.64
375.38	1004.09
375.58	1004.09
375.78	1011.11
375.97	950.26
376.17	1083.67
376.37	1001.75
376.56	1053.24
376.76	940.90
376.95	1004.09
377.15	1050.90
377.35	1006.43
377.54	1032.18
377.74	1032.18
377.93	1039.20
378.13	954.94
378.33	1076.65
378.52	1053.24
378.72	1086.01
378.91	1074.31
379.11	1053.24
379.31	1015.79
379.50	1121.12
379.70	990.05
379.89	1153.88
380.09	1095.37
380.28	1146.86
380.48	1095.37
380.68	1090.69
380.87	1034.52
381.07	1053.24
381.26	1132.82
381.46	1097.71
381.65	1104.73
381.85	1139.84
382.04	1081.33
382.24	1090.69
382.43	1036.86
382.63	1034.52
382.83	1123.46
383.02	1109.41
383.22	1181.97
383.41	1057.92
383.61	1181.97
383.80	1177.29
384.00	1139.84
384.19	1158.57
384.39	1114.10
384.58	1165.59
384.78	1149.20
384.97	1200.69
385.17	1226.44
385.36	1210.06
385.56	1205.38
385.75	1247.51
385.95	1181.97
386.14	1184.31
386.34	1179.63
386.53	1275.59
386.72	1242.82
386.92	1224.10
387.11	1198.35
387.31	1224.10
387.50	1294.32
387.70	1149.20
387.89	1233.46
388.09	1254.53
388.28	1207.72
388.48	1284.95
388.67	1240.48
388.86	1259.21
389.06	1268.57
389.25	1322.40
389.45	1327.08
389.64	1282.61
389.84	1376.24
390.03	1296.66
390.22	1430.07
390.42	1378.58
390.61	1357.51
390.81	1315.38
391.00	1352.83
391.19	1366.87
391.39	1437.09
391.58	1418.36
391.78	1366.87
391.97	1469.86
392.16	1380.92
392.36	1378.58
392.55	1364.53
392.75	1420.71
392.94	1399.64
393.13	1469.86
393.33	1387.94
393.52	1495.60
393.71	1465.18
393.91	1420.71
394.10	1497.94
394.29	1514.33
394.49	1544.75
394.68	1479.22
394.88	1488.58
395.07	1521.35
395.26	1568.16
395.46	1451.13
395.65	1619.65
395.84	1586.88
396.04	1673.48
396.23	1556.46
396.42	1563.48
396.62	1514.33
396.81	1610.29
397.00	1629.01
397.19	1596.25
397.39	1591.56
397.58	1607.95
397.77	1600.93
397.97	1657.10
398.16	1577.52
398.35	1626.67
398.55	1671.14
398.74	1675.82
398.93	1724.97
399.12	1685.19
399.32	1706.25
399.51	1708.59
399.70	1771.79
399.90	1687.53
400.09	1680.50
400.28	1813.92
400.47	1755.40
400.67	1811.57
400.86	1806.89
401.05	1802.21
401.24	1753.06
401.44	1923.92
401.63	1799.87
401.82	1839.66
402.01	1912.22
402.21	1879.45
402.40	1973.07
402.59	1970.73
402.78	1923.92
402.97	1956.69
403.17	1944.99
403.36	1919.24
403.55	1930.94
403.74	2066.69
403.93	2026.90
404.13	2029.24
404.32	2064.35
404.51	1984.77
404.70	2022.22
404.89	2078.40
405.09	2139.25
405.28	2050.31
405.47	1991.80
405.66	2066.69
405.85	2176.70
406.05	2127.55
406.24	2244.57
406.43	2139.25
406.62	2167.34
406.81	2253.94
407.00	2174.36
407.20	2169.68
407.39	2242.23
407.58	2214.15
407.77	2296.07
407.96	2239.89
408.15	2214.15
408.34	2267.98
408.54	2223.51
408.73	2312.45
408.92	2340.54
409.11	2417.77
409.30	2380.32
409.49	2382.67
409.68	2370.96
409.87	2349.90
410.07	2469.27
410.26	2422.45
410.45	2523.10
410.64	2459.90
410.83	2539.48
411.02	2630.76
411.21	2546.50
411.40	2553.52
411.59	2612.04
411.78	2532.46
411.98	2607.36
412.17	2761.83
412.36	2628.42
412.55	2705.66
412.74	2792.26
412.93	2656.51
413.12	2736.09
413.31	2832.05
413.50	2761.83
413.69	2808.64
413.88	2925.67
414.07	2953.76
414.26	2864.82
414.45	2885.88
414.64	2909.29
414.83	3009.93
415.02	3000.57
415.22	3035.67
415.41	3105.89
415.60	3105.89
415.79	2998.23
415.98	3185.47
416.17	3124.62
416.36	3197.17
416.55	3131.64
416.74	3321.22
416.93	3309.52
417.12	3232.28
417.31	3211.22
417.50	3213.56
417.69	3206.53
417.88	3353.99
418.07	3344.63
418.26	3293.13
418.45	3396.12
418.64	3492.08
418.83	3405.48
419.02	3332.92
419.21	3485.06
419.39	3466.33
419.58	3520.17
419.77	3449.95
419.96	3496.76
420.15	3496.76
420.34	3578.68
420.53	3597.40
420.72	3569.32
420.91	3674.64
421.10	3566.98
421.29	3620.81
421.48	3632.51
421.67	3742.52
421.86	3620.81
422.05	3672.30
422.24	3735.50
422.43	3737.84
422.61	3824.44
422.80	3918.06
422.99	3829.12
423.18	3824.44
423.37	3857.20
423.56	3698.05
423.75	3798.69
423.94	3674.64
424.13	3524.85
424.32	3695.71
424.50	3786.99
424.69	3915.72
424.88	3845.50
425.07	3744.86
425.26	3716.77
425.45	3875.93
425.64	3861.88
425.83	3726.13
426.01	3833.80
426.20	3812.73
426.39	3941.46
426.58	3873.59
426.77	3873.59
426.96	3983.59
427.15	3866.56
427.33	3957.85
427.52	3964.87
427.71	3922.74
427.90	3957.85
428.09	3976.57
428.28	4016.36
428.46	4109.98
428.65	4044.45
428.84	4053.81
429.03	4046.79
429.22	4016.36
429.40	4182.54
429.59	4147.43
429.78	4058.49
429.97	4058.49
430.16	4067.85
430.34	4135.73
430.53	4187.22
430.72	4299.56
430.91	4273.82
431.10	4262.12
431.28	4271.48
431.47	4353.40
431.66	4393.19
431.85	4292.54
432.03	4332.33
432.22	4414.25
432.41	4353.40
432.60	4407.23
432.79	4449.36
432.97	4475.10
433.16	4407.23
433.35	4411.91
433.54	4517.23
433.72	4624.90
433.91	4627.24
434.10	4589.79
434.28	4526.60
434.47	4718.52
434.66	4552.34
434.85	4720.86
435.03	4802.78
435.22	4940.87
435.41	5142.16
435.59	5107.05
435.78	5078.96
435.97	4943.21
436.16	4929.17
436.34	4877.68
436.53	4875.34
436.72	4816.82
436.90	4709.16
437.09	4952.57
437.28	4847.25
437.46	4819.16
437.65	4809.80
437.84	4961.94
438.02	5076.62
438.21	5057.90
438.40	5039.17
438.58	5128.11
438.77	5071.94
438.96	5144.50
439.14	5294.29
439.33	5228.76
439.52	5256.84
439.70	5338.76
439.89	5399.62
440.08	5444.09
440.26	5352.81
440.45	5359.83
440.63	5406.64
440.82	5607.92
441.01	5568.13
441.19	5476.85
441.38	5706.23
441.57	5486.22
441.75	5804.53
441.94	5856.02
442.12	5837.30
442.31	5991.77
442.50	5788.14
442.68	5727.29
442.87	5818.57
443.05	5841.98
443.24	5884.11
443.43	5991.77
443.61	5970.71
443.80	6176.67
443.98	5820.91
444.17	5722.61
444.35	5731.97
444.54	6040.92
444.73	6040.92
444.91	6076.03
445.10	6160.29
445.28	6146.25
445.47	6171.99
445.65	5973.05
445.84	6164.97
446.02	6197.74
446.21	6101.78
446.39	6008.16
446.58	6099.44
446.77	6010.50
446.95	6080.71
447.14	6085.39
447.32	6129.86
447.51	6118.16
447.69	6122.84
447.88	6097.10
448.06	6186.04
448.25	6167.31
448.43	6265.61
448.62	6153.27
448.80	6207.10
448.99	6303.06
449.17	6260.93
449.36	6396.68
449.54	6342.85
449.73	6384.98
449.91	6649.46
450.10	6516.05
450.28	6633.08
450.46	6438.81
450.65	6373.28
450.83	6572.22
451.02	6420.09
451.20	6539.46
451.39	6497.33
451.57	6754.79
451.76	6635.42
451.94	6590.95
452.13	6574.56
452.31	6710.32
452.49	6700.95
452.68	6780.53
452.86	6733.72
453.05	6794.58
453.23	6801.60
453.42	6686.91
453.60	6932.67
453.78	6820.32
453.97	6820.32
454.15	6953.73
454.34	6857.77
454.52	7047.35
454.70	6850.75
454.89	6843.73
455.07	6979.48
455.26	7201.83
455.44	7157.36
455.62	7204.17
455.81	7066.08
455.99	7295.45
456.17	7201.83
456.36	7311.83
456.54	7243.96
456.73	7360.98
456.91	7344.60
457.09	7410.14
457.28	7496.74
457.46	7431.20
457.64	7396.09
457.83	7468.65
458.01	7449.93
458.19	7648.87
458.38	7609.08
458.56	7660.57
458.74	7875.90
458.93	7653.55
459.11	7566.95
459.29	7679.30
459.48	7735.47
459.66	7487.37
459.84	7770.58
460.03	7969.52
460.21	7801.01
460.39	7833.77
460.57	7836.11
460.76	7953.14
460.94	8035.06
461.12	7964.84
461.31	8126.34
461.49	7990.59
461.67	7925.05
461.85	8226.98
462.04	8149.75
462.22	8493.80
462.40	7974.21
462.59	8210.60
462.77	8074.85
462.95	8217.62
463.13	8290.18
463.32	8238.69
463.50	8311.24
463.68	8344.01
463.86	8500.83
464.05	8285.50
464.23	8358.05
464.41	8334.65
464.59	8222.30
464.78	8514.87
464.96	8470.40
465.14	8465.72
465.32	8470.40
465.50	8514.87
465.69	8564.02
465.87	8500.83
466.05	8528.91
466.23	8561.68
466.41	8507.85
466.60	8727.86
466.78	8622.53
466.96	8706.79
467.14	8676.37
467.32	8741.90
467.51	8936.17
467.69	8730.20
467.87	8667.00
468.05	8849.57
468.23	8865.95
468.41	8713.81
468.60	9055.53
468.78	8978.30
468.96	8865.95
469.14	9069.58
469.32	9062.55
469.50	8887.01
469.69	8952.55
469.87	9298.95
470.05	9004.04
470.23	9100.00
470.41	9078.94
470.59	9212.35
470.77	9083.62
470.95	9338.74
471.14	9359.80
471.32	9123.41
471.50	9327.03
471.68	9558.75
471.86	9673.43
472.04	9617.26
472.22	9764.72
472.40	9579.81
472.58	9666.41
472.77	9736.63
472.95	9694.50
473.13	10043.24
473.31	9827.91
473.49	9628.96
473.67	10076.01
473.85	10026.86
474.03	10289.00
474.21	10090.05
474.39	10305.38
474.57	10291.34
474.75	10431.77
474.93	10307.72
475.12	10420.06
475.30	10478.58
475.48	10352.19
475.66	10691.57
475.84	10731.36
476.02	10862.43
476.20	10604.97
476.38	10902.22
476.56	11262.66
476.74	10883.49
476.92	11194.78
477.10	11005.20
477.28	11066.05
477.46	11456.92
477.64	11262.66
477.82	11377.34
478.00	11578.63
478.18	11597.35
478.36	11646.51
478.54	11625.44
478.72	11988.22
478.90	12112.27
479.08	12072.48
479.26	12271.43
479.44	12145.04
479.62	12325.26
479.80	12484.42
479.98	12531.23
480.16	12943.16
480.34	12351.01
480.52	12547.61
480.70	12578.04
480.88	12835.50
481.06	12940.82
481.24	12798.05
481.41	13348.08
481.59	13074.23
481.77	13413.61
481.95	13303.60
482.13	13657.03
482.31	13586.81
482.49	13724.90
482.67	13771.71
482.85	13811.50
483.03	14136.84
483.21	14298.33
483.39	14450.47
483.57	14253.86
483.74	14714.95
483.92	14658.78
484.10	14181.31
484.28	14831.97
484.46	14883.47
484.64	15407.75
484.82	14918.57
485.00	15169.01
485.18	15442.85
485.35	15908.62
485.53	15829.04
485.71	15992.88
485.89	16049.05
486.07	15939.05
486.25	16074.80
486.43	16210.55
486.61	16191.83
486.78	16311.19
486.96	16479.71
487.14	16842.50
487.32	16793.34
487.50	16856.54
487.68	16889.31
487.85	17284.86
488.03	17551.68
488.21	17605.51
488.39	17610.19
488.57	17884.03
488.75	17839.56
488.92	17944.89
489.10	18057.23
489.28	18113.41
489.46	18352.14
489.64	18125.11
489.81	18525.34
489.99	18595.56
490.17	18867.06
490.35	19150.26
490.53	19119.84
490.70	19428.79
490.88	18963.02
491.06	19723.69
491.24	19351.55
491.41	20109.88
491.59	19866.47
491.77	20011.58
491.95	19873.49
492.13	20077.12
492.30	20128.61
492.48	20678.63
492.66	20496.07
492.84	20830.77
493.01	20996.95
493.19	20882.26
493.37	21008.65
493.54	21226.32
493.72	21043.76
493.90	21055.46
494.08	21329.30
494.25	21846.56
494.43	21703.79
494.61	21823.16
494.79	22010.40
494.96	22038.48
495.14	21832.52
495.32	22068.91
495.49	22586.17
495.67	22572.13
495.85	22434.03
496.02	22728.94
496.20	22930.23
496.38	22888.10
496.55	22993.42
496.73	23882.83
496.91	23122.15
497.09	23042.57
497.26	23754.10
497.44	23168.96
497.62	24065.39
497.79	24135.60
497.97	23894.53
498.14	24421.15
498.32	24266.67
498.50	24283.06
498.67	24582.65
498.85	24849.47
499.03	24776.91
499.20	24950.11
499.38	24727.76
499.56	24992.24
499.73	25146.72
499.91	24980.54
500.08	25280.13
500.26	25113.95
500.44	25287.15
500.61	25717.81
500.79	25855.90
500.97	25467.37
501.14	25652.27
501.32	25748.23
501.49	25790.36
501.67	25963.56
501.84	26202.30
502.02	26508.91
502.20	26600.19
502.37	26333.37
502.55	26340.39
502.72	26513.59
502.90	26553.38
503.07	26562.74
503.25	26984.04
503.43	27019.14
503.60	27047.23
503.78	26913.82
503.95	27349.16
504.13	27311.71
504.30	27316.39
504.48	27454.48
504.65	27796.20
504.83	27772.80
505.01	28002.17
505.18	27960.04
505.36	27740.03
505.53	27843.01
505.71	27920.25
505.88	28261.97
506.06	27789.18
506.23	28364.95
506.41	28297.08
506.58	28044.30
506.76	28400.06
506.93	28458.57
507.11	28622.41
507.28	28872.85
507.46	29420.53
507.63	29338.62
507.81	29237.97
507.98	28898.59
508.16	28697.31
508.33	29273.08
508.50	29144.35
508.68	29432.24
508.85	29862.90
509.03	29799.70
509.20	29790.34
509.38	29975.24
509.55	30146.10
509.73	29937.79
509.90	30281.85
510.08	30235.04
510.25	30349.73
510.42	30157.80
510.60	30696.13
510.77	30342.70
510.95	31084.65
511.12	30883.37
511.30	30712.51
511.47	30888.05
511.64	30733.57
511.82	31028.48
511.99	30820.17
512.17	30698.47
512.34	31206.36
512.51	31725.96
512.69	31501.27
512.86	31627.66
513.04	31716.60
513.21	31660.43
513.38	31452.12
513.56	32046.62
513.73	31981.08
513.90	31850.01
514.08	31922.57
514.25	32072.36
514.43	32423.44
514.60	32168.32
514.77	32163.64
514.95	32704.31
515.12	32123.85
515.29	32823.67
515.47	32826.01
515.64	32957.08
515.81	32856.44
515.99	32800.27
516.16	32987.51
516.33	32833.04
516.51	33081.13
516.68	33362.00
516.85	32823.67
517.03	33553.92
517.20	33532.86
517.37	33275.40
517.54	33631.16
517.72	33570.30
517.89	33216.88
518.06	33766.91
518.24	33935.43
518.41	33790.31
518.58	34141.39
518.75	33727.12
518.93	34101.61
519.10	33699.03
519.27	34558.01
519.45	34082.88
519.62	34302.89
519.79	34473.75
519.96	34487.79
520.14	34562.69
520.31	34169.48
520.48	34068.84
520.65	34321.62
520.83	34548.65
521.00	35093.99
521.17	34712.49
521.34	34876.32
521.52	35014.41
521.69	35140.80
521.86	35344.43
522.03	34946.54
522.20	35449.75
522.38	35475.50
522.55	36039.57
522.72	35627.63
522.89	35707.21
523.07	36044.25
523.24	35555.08
523.41	36112.13
523.58	35683.81
523.75	36027.87
523.92	36252.56
524.10	36236.17
524.27	36219.79
524.44	36180.00
524.61	36570.87
524.78	36540.44
524.96	36435.12
525.13	36809.61
525.30	36708.96
525.47	36617.68
525.64	36898.55
525.81	36650.45
525.98	36851.73
526.16	36856.42
526.33	36957.06
526.50	37392.40
526.67	37006.21
526.84	37177.07
527.01	37357.29
527.18	37715.39
527.36	37055.36
527.53	37237.92
527.70	37420.48
527.87	37544.53
528.04	37638.15
528.21	37654.54
528.38	37574.96
528.55	37895.61
528.72	38073.49
528.89	37823.06
529.07	37387.72
529.24	38085.20
529.41	38361.38
529.58	38366.06
529.75	38014.98
529.92	37942.42
530.09	38150.73
530.26	38239.67
530.43	38263.08
530.60	38012.64
530.77	38368.40
530.94	38483.09
531.11	38553.30
531.28	38300.53
531.46	38759.27
531.63	38806.08
531.80	38682.03
531.97	38768.63
532.14	39061.20
532.31	38909.07
532.48	39299.94
532.65	39192.27
532.82	38855.23
532.99	39356.11
533.16	39070.56
533.33	39360.79
533.50	39704.85
533.67	39182.91
533.84	39199.29
534.01	39487.18
534.18	39587.82
534.35	40315.73
534.52	39306.96
534.69	39779.74
534.86	39538.67
535.03	39323.34
535.20	39667.40
535.37	39892.09
535.54	39983.37
535.71	40156.57
535.88	39924.86
536.05	39676.76
536.22	40343.81
536.38	40025.50
536.55	40701.92
536.72	40137.85
536.89	40669.15
537.06	40762.77
537.23	40517.01
537.40	40769.79
537.57	40783.83
537.74	40858.73
537.91	40870.43
538.08	40671.49
538.25	40453.82
538.42	40708.94
538.59	40959.38
538.75	40708.94
538.92	41118.53
539.09	41134.92
539.26	41146.62
539.43	41125.55
539.60	40971.08
539.77	41031.93
539.94	41708.35
540.11	41710.69
540.28	41570.25
540.44	42373.06
540.61	41528.13
540.78	41467.27
540.95	41792.61
541.12	41916.65
541.29	41752.82
541.46	42349.65
541.62	41806.65
541.79	42464.34
541.96	41970.49
542.13	42314.55
542.30	42426.89
542.47	42113.26
542.63	42553.28
542.80	42305.18
542.97	42969.90
543.14	42522.85
543.31	43213.31
543.48	42876.27
543.64	43157.14
543.81	42745.20
543.98	42665.63
544.15	42230.29
544.32	42885.64
544.48	43517.58
544.65	43159.48
544.82	43030.75
544.99	42962.87
545.16	43262.46
545.32	43344.38
545.49	43606.52
545.66	44048.88
545.83	44236.12
546.00	44154.21
546.16	43973.98
546.33	43585.46
546.50	43061.18
546.67	43454.39
546.83	43257.78
547.00	43452.05
547.17	43199.27
547.34	43346.72
547.50	43409.92
547.67	43941.22
547.84	43517.58
548.00	43943.56
548.17	44425.71
548.34	43943.56
548.51	44179.95
548.67	44051.22
548.84	43950.58
549.01	43826.53
549.18	43814.83
549.34	44442.09
549.51	43856.96
549.68	44093.35
549.84	44093.35
550.01	43739.93
550.18	44126.12
550.34	44102.71
550.51	43959.94
550.68	43913.13
550.84	44254.85
551.01	44540.39
551.18	44229.10
551.34	43997.39
551.51	44229.10
551.68	44261.87
551.84	44334.43
552.01	44402.30
552.18	44023.14
552.34	44346.13
552.51	44465.50
552.68	44861.05
552.84	44844.66
553.01	45186.38
553.18	44893.82
553.34	44865.73
553.51	44729.98
553.67	44973.39
553.84	44935.95
554.01	45214.47
554.17	45448.52
554.34	44907.86
554.51	44959.35
554.67	45195.74
554.84	45041.27
555.00	44872.75
555.17	44727.64
555.33	44947.65
555.50	45429.80
555.67	44971.05
555.83	45202.77
556.00	45113.83
556.16	45209.79
556.33	45235.53
556.50	45067.02
556.66	45439.16
556.83	45146.59
556.99	45624.06
557.16	45439.16
557.32	45652.15
557.49	46021.95
557.65	45378.31
557.82	45647.47
557.98	45441.50
558.15	45382.99
558.32	45539.80
558.48	45340.86
558.65	46036.00
558.81	45610.02
558.98	45649.81
559.14	45928.33
559.31	46031.32
559.47	45759.81
559.64	45790.24
559.80	45708.32
559.97	45893.22
560.13	45670.87
560.30	45820.67
560.46	46033.66
560.63	46461.97
560.79	46274.73
560.96	46302.82
561.12	46225.58
561.29	46246.65
561.45	45762.15
561.61	46312.18
561.78	46440.91
561.94	46335.59
562.11	46377.72
562.27	46548.57
562.44	46323.88
562.60	46405.80
562.77	46408.14
562.93	46143.66
563.10	46916.04
563.26	46040.68
563.42	46770.93
563.59	46541.55
563.75	46344.95
563.92	46546.23
564.08	46508.79
564.24	46522.83
564.41	46106.21
564.57	46529.85
564.74	46050.04
564.90	46375.37
565.07	46485.38
565.23	46761.56
565.39	46855.18
565.56	46745.18
565.72	46160.05
565.88	47185.20
566.05	46824.76
566.21	46403.46
566.38	46485.38
566.54	46518.15
566.70	46583.68
566.87	46969.87
567.03	46782.63
567.19	47592.45
567.36	46880.93
567.52	46618.79
567.68	46887.95
567.85	46487.72
568.01	47072.85
568.17	46820.08
568.34	46953.49
568.50	46625.81
568.66	47402.87
568.83	46946.47
568.99	47140.73
569.15	46824.76
569.32	46749.86
569.48	46918.38
569.64	46958.17
569.81	46838.80
569.97	46810.71
570.13	47182.86
570.30	47178.18
570.46	46913.70
570.62	47154.77
570.78	46508.79
570.95	46660.92
571.11	47482.45
571.27	47236.69
571.43	46813.05
571.60	46571.98
571.76	46749.86
571.92	46993.28
572.09	46864.55
572.25	47496.49
572.41	47402.87
572.57	47227.33
572.74	47327.97
572.90	46894.97
573.06	47271.80
573.22	47206.26
573.38	47262.44
573.55	47047.11
573.71	47875.66
573.87	47346.70
574.03	46749.86
574.20	46892.63
574.36	47566.71
574.52	47196.90
574.68	47367.76
574.84	47632.24
575.01	47107.96
575.17	47580.75
575.33	47213.29
575.49	47264.78
575.65	47412.23
575.82	47676.71
575.98	47466.06
576.14	47737.57
576.30	47597.13
576.46	47760.97
576.62	47419.25
576.79	47215.63
576.95	47463.72
577.11	47700.12
577.27	47941.19
577.43	47540.96
577.59	47798.42
577.75	47657.99
577.92	47564.37
578.08	47391.17
578.24	47126.69
578.40	47690.76
578.56	47440.32
578.72	47636.92
578.88	47992.68
579.04	47962.26
579.21	47519.90
579.37	47831.19
579.53	47730.54
579.69	47358.40
579.85	47669.69
580.01	47870.98
580.17	47707.14
580.33	47611.18
580.49	48051.20
580.65	47779.70
580.82	47845.23
580.98	47578.41
581.14	47819.49
581.30	47700.12
581.46	47723.52
581.62	47552.66
581.78	47421.59
581.94	47899.06
582.10	47402.87
582.26	47618.20
582.42	47765.65
582.58	47332.65
582.74	47819.49
582.90	47590.11
583.06	47660.33
583.22	47653.31
583.38	47484.79
583.54	47473.09
583.70	47903.74
583.86	47709.48
584.02	47758.63
584.18	47887.36
584.34	47449.68
584.50	47695.44
584.66	47859.27
584.82	47421.59
584.98	47580.75
585.14	48013.75
585.30	47735.23
585.46	47793.74
585.62	47786.72
585.78	48006.73
585.94	48039.50
586.10	47948.21
586.26	47683.73
586.42	47988.00
586.58	47920.13
586.74	47997.37
586.90	47608.84
587.06	48250.14
587.22	47964.60
587.38	47786.72
587.54	47952.90
587.70	48142.48
587.86	48666.76
588.02	48175.25
588.18	48280.57
588.34	48053.54
588.49	48034.81
588.65	47892.04
588.81	47700.12
588.97	48055.88
589.13	47980.98
