SpectraSuite Data File
++++++++++++++++++++++++++++++++++++
Date: Thu Oct 24 13:21:27 EDT 2013
User: stostad
Dark Spectrum Present: No
Reference Spectrum Present: No
Number of Sampled Component Spectra: 1
Spectrometers: USB2+H05261
Integration Time (usec): 100000 (USB2+H05261)
Spectra Averaged: 1 (USB2+H05261)
Boxcar Smoothing: 0 (USB2+H05261)
Correct for Electrical Dark: No (USB2+H05261)
Strobe/Lamp Enabled: No (USB2+H05261)
Correct for Detector Non-linearity: No (USB2+H05261)
Correct for Stray Light: No (USB2+H05261)
Number of Pixels in Processed Spectrum: 2048
>>>>>Begin Processed Spectral Data<<<<<
365.73	535.98
365.92	535.98
366.12	535.98
366.32	451.72
366.52	500.87
366.72	477.47
366.91	477.47
367.11	468.11
367.31	444.70
367.51	470.45
367.70	472.79
367.90	454.06
368.10	533.64
368.30	440.02
368.49	482.15
368.69	491.51
368.89	489.17
369.09	484.49
369.28	451.72
369.48	482.15
369.68	514.92
369.87	475.13
370.07	486.83
370.27	524.28
370.47	695.14
370.66	931.53
370.86	994.73
371.06	1050.90
371.25	1039.20
371.45	1041.54
371.65	1004.09
371.84	1100.05
372.04	1060.26
372.24	1036.86
372.44	1111.75
372.63	1062.60
372.83	1125.80
373.03	1160.91
373.22	1196.01
373.42	1163.25
373.62	1226.44
373.81	1184.31
374.01	1179.63
374.21	1193.67
374.40	1142.18
374.60	1217.08
374.79	1219.42
374.99	1245.16
375.19	1334.11
375.38	1207.72
375.58	1282.61
375.78	1221.76
375.97	1263.89
376.17	1277.93
376.37	1221.76
376.56	1320.06
376.76	1280.27
376.95	1334.11
377.15	1240.48
377.35	1273.25
377.54	1266.23
377.74	1275.59
377.93	1217.08
378.13	1205.38
378.33	1317.72
378.52	1343.47
378.72	1275.59
378.91	1357.51
379.11	1315.38
379.31	1327.08
379.50	1455.81
379.70	1427.73
379.89	1465.18
380.09	1399.64
380.28	1430.07
380.48	1359.85
380.68	1409.00
380.87	1348.15
381.07	1437.09
381.26	1348.15
381.46	1448.79
381.65	1409.00
381.85	1430.07
382.04	1488.58
382.24	1420.71
382.43	1523.69
382.63	1406.66
382.83	1432.41
383.02	1474.54
383.22	1547.09
383.41	1439.43
383.61	1523.69
383.80	1540.07
384.00	1476.88
384.19	1519.01
384.39	1516.67
384.58	1504.96
384.78	1488.58
384.97	1631.35
385.17	1549.43
385.36	1605.61
385.56	1575.18
385.75	1678.16
385.95	1657.10
386.14	1626.67
386.34	1554.12
386.53	1633.69
386.72	1519.01
386.92	1659.44
387.11	1638.38
387.31	1659.44
387.50	1687.53
387.70	1685.19
387.89	1755.40
388.09	1680.50
388.28	1671.14
388.48	1694.55
388.67	1809.23
388.86	1839.66
389.06	1664.12
389.25	1682.85
389.45	1722.63
389.64	1820.94
389.84	1851.36
390.03	1888.81
390.22	1863.07
390.42	1802.21
390.61	1813.92
390.81	1774.13
391.00	1827.96
391.19	1858.39
391.39	1940.30
391.58	1870.09
391.78	1928.60
391.97	1982.43
392.16	1886.47
392.36	1984.77
392.55	1973.07
392.75	2054.99
392.94	1893.49
393.13	1977.75
393.33	1909.88
393.52	2040.95
393.71	2099.46
393.91	1987.11
394.10	2076.06
394.29	2012.86
394.49	1998.82
394.68	2087.76
394.88	2040.95
395.07	2036.27
395.26	2167.34
395.46	2165.00
395.65	2197.76
395.84	2207.13
396.04	2195.42
396.23	2282.02
396.42	2174.36
396.62	2366.28
396.81	2267.98
397.00	2204.78
397.19	2289.04
397.39	2267.98
397.58	2235.21
397.77	2275.00
397.97	2284.36
398.16	2286.70
398.35	2359.26
398.55	2354.58
398.74	2232.87
398.93	2436.50
399.12	2370.96
399.32	2394.37
399.51	2443.52
399.70	2509.05
399.90	2429.48
400.09	2459.90
400.28	2607.36
400.47	2530.12
400.67	2633.10
400.86	2693.96
401.05	2541.82
401.24	2595.65
401.44	2623.74
401.63	2616.72
401.82	2651.83
402.01	2595.65
402.21	2722.04
402.40	2595.65
402.59	2647.15
402.78	2649.49
402.97	2750.13
403.17	2729.06
403.36	2612.04
403.55	2855.45
403.74	2864.82
403.93	2792.26
404.13	2928.01
404.32	3009.93
404.51	2855.45
404.70	2998.23
404.89	2775.88
405.09	3089.51
405.28	3108.23
405.47	3000.57
405.66	2953.76
405.85	3164.40
406.05	3094.19
406.24	3068.44
406.43	3080.14
406.62	3126.96
406.81	3199.51
407.00	3152.70
407.20	3108.23
407.39	3054.40
407.58	3281.43
407.77	3286.11
407.96	3353.99
408.15	3440.59
408.34	3208.87
408.54	3428.88
408.73	3382.07
408.92	3428.88
409.11	3405.48
409.30	3426.54
409.49	3583.36
409.68	3433.57
409.87	3496.76
410.07	3461.65
410.26	3499.10
410.45	3459.31
410.64	3571.66
410.83	3691.02
411.02	3660.60
411.21	3599.74
411.40	3653.58
411.59	3695.71
411.78	3705.07
411.98	3885.29
412.17	3843.16
412.36	3859.54
412.55	3906.35
412.74	3908.69
412.93	3920.40
413.12	3861.88
413.31	3953.16
413.50	4128.70
413.69	3948.48
413.88	4173.18
414.07	4025.72
414.26	4145.09
414.45	4217.65
414.64	4231.69
414.83	4205.94
415.02	4334.67
415.22	4353.40
415.41	4407.23
415.60	4472.76
415.79	4353.40
415.98	4535.96
416.17	4519.57
416.36	4561.70
416.55	4519.57
416.74	4793.42
416.93	4753.63
417.12	4739.58
417.31	4664.69
417.50	4613.20
417.69	4865.97
417.88	4873.00
418.07	4805.12
418.26	4819.16
418.45	4964.28
418.64	5027.47
418.83	4957.25
419.02	4966.62
419.21	5181.95
419.39	5109.39
419.58	5125.77
419.77	5071.94
419.96	5100.03
420.15	5144.50
420.34	5151.52
420.53	5128.11
420.72	5186.63
420.91	5305.99
421.10	5305.99
421.29	5343.44
421.48	5317.70
421.67	5341.10
421.86	5420.68
422.05	5390.25
422.24	5338.76
422.43	5462.81
422.61	5425.36
422.80	5565.79
422.99	5668.78
423.18	5516.64
423.37	5628.99
423.56	5504.94
423.75	5427.70
423.94	5570.48
424.13	5235.78
424.32	5378.55
424.50	5533.03
424.69	5699.20
424.88	5706.23
425.07	5570.48
425.26	5523.66
425.45	5610.26
425.64	5607.92
425.83	5572.82
426.01	5687.50
426.20	5542.39
426.39	5650.05
426.58	5654.73
426.77	5710.91
426.96	5680.48
427.15	5715.59
427.33	5895.81
427.52	5771.76
427.71	5771.76
427.90	5921.56
428.09	5884.11
428.28	5827.93
428.46	5900.49
428.65	5858.36
428.84	6146.25
429.03	6024.54
429.22	5851.34
429.40	6101.78
429.59	6202.42
429.78	5846.66
429.97	5907.51
430.16	6122.84
430.34	6209.44
430.53	6363.92
430.72	6321.79
430.91	6218.80
431.10	6141.57
431.28	6438.81
431.47	6464.56
431.66	6328.81
431.85	6424.77
432.03	6642.44
432.22	6619.04
432.41	6424.77
432.60	6537.12
432.79	6492.65
432.97	6595.63
433.16	6691.59
433.35	6731.38
433.54	6647.12
433.72	6787.55
433.91	6778.19
434.10	6841.39
434.28	6787.55
434.47	6860.11
434.66	6984.16
434.85	6958.41
435.03	7112.89
435.22	7199.49
435.41	7236.94
435.59	7265.02
435.78	7246.30
435.97	7169.06
436.16	7185.44
436.34	7133.95
436.53	7035.65
436.72	7330.56
436.90	7063.74
437.09	7206.51
437.28	7061.40
437.46	7365.67
437.65	7267.36
437.84	7461.63
438.02	7548.23
438.21	7342.26
438.40	7389.07
438.58	7779.94
438.77	7709.72
438.96	7463.97
439.14	7698.02
439.33	8016.33
439.52	7922.71
439.70	7995.27
439.89	8243.37
440.08	8168.47
440.26	8173.15
440.45	8060.80
440.63	8135.70
440.82	8439.97
441.01	8273.79
441.19	8250.39
441.38	8336.99
441.57	8414.23
441.75	8489.12
441.94	8739.56
442.12	8723.18
442.31	8732.54
442.50	8842.54
442.68	8819.14
442.87	8786.37
443.05	8692.75
443.24	8945.53
443.43	8676.37
443.61	8936.17
443.80	9228.73
443.98	8629.56
444.17	8538.27
444.35	8926.80
444.54	9135.11
444.73	8947.87
444.91	9095.32
445.10	9163.20
445.28	8994.68
445.47	9207.67
445.65	9151.49
445.84	9156.18
446.02	9202.99
446.21	9366.82
446.39	9146.81
446.58	9268.52
446.77	9296.61
446.95	8947.87
447.14	9249.80
447.32	9107.02
447.51	9158.52
447.69	9308.31
447.88	9334.06
448.06	9174.90
448.25	9261.50
448.43	9425.34
448.62	9210.01
448.80	9369.16
448.99	9109.36
449.17	9378.53
449.36	9502.58
449.54	9500.23
449.73	9795.14
449.91	9837.27
450.10	9645.35
450.28	9846.63
450.46	9907.49
450.65	9715.56
450.83	9851.31
451.02	9652.37
451.20	9975.36
451.39	10054.94
451.57	9963.66
451.76	9912.17
451.94	10052.60
452.13	9958.98
452.31	10225.80
452.49	9991.75
452.68	10073.67
452.86	10160.27
453.05	10178.99
453.23	10387.30
453.42	10218.78
453.60	9958.98
453.78	10368.57
453.97	10305.38
454.15	10429.43
454.34	10260.91
454.52	10286.65
454.70	10604.97
454.89	10277.29
455.07	10698.59
455.26	10623.69
455.44	10656.46
455.62	10803.91
455.81	10623.69
455.99	11112.86
456.17	10714.97
456.36	10801.57
456.54	11077.76
456.73	10944.34
456.91	11485.01
457.09	11236.91
457.28	11421.81
457.46	11103.50
457.64	11250.96
457.83	11454.58
458.01	11534.16
458.19	11447.56
458.38	11669.91
458.56	11646.51
458.74	11496.71
458.93	11679.27
459.11	11618.42
459.29	11686.29
459.48	11667.57
459.66	11864.18
459.84	11747.15
460.03	11786.94
460.21	11990.56
460.39	11686.29
460.57	11985.88
460.76	12131.00
460.94	12037.38
461.12	12142.70
461.31	12217.60
461.49	12194.19
461.67	11873.54
461.85	12362.71
462.04	12145.04
462.22	12784.01
462.40	12503.14
462.59	12334.62
462.77	12465.69
462.95	12554.63
463.13	12444.63
463.32	12484.42
463.50	12571.02
463.68	12840.18
463.86	12697.41
464.05	12526.55
464.23	12730.17
464.41	13053.17
464.59	12681.02
464.78	13289.56
464.96	13001.68
465.14	12671.66
465.32	12861.24
465.50	13027.42
465.69	13048.49
465.87	13048.49
466.05	13008.70
466.23	12905.71
466.41	13062.53
466.60	13097.64
466.78	13270.84
466.96	12870.61
467.14	13282.54
467.32	13380.84
467.51	13401.91
467.69	12898.69
467.87	13479.15
468.05	13645.32
468.23	13418.29
468.41	13235.73
468.60	13631.28
468.78	13790.44
468.96	13497.87
469.14	13877.04
469.32	13940.23
469.50	13568.09
469.69	14052.58
469.87	14099.39
470.05	14031.51
470.23	14033.85
470.41	14239.82
470.59	14391.95
470.77	14047.90
470.95	14295.99
471.14	14562.81
471.32	14216.41
471.50	14443.45
471.68	14614.30
471.86	14553.45
472.04	14700.90
472.22	15253.27
472.40	14703.25
472.58	14829.63
472.77	15059.01
472.95	15211.14
473.13	15484.98
473.31	15161.99
473.49	15297.74
473.67	15267.31
473.85	15456.90
474.03	15597.33
474.21	15683.93
474.39	15845.43
474.57	15906.28
474.75	16037.35
474.93	16091.18
475.12	16020.97
475.30	16018.63
475.48	16142.67
475.66	16306.51
475.84	16435.24
476.02	16540.57
476.20	16348.64
476.38	16863.56
476.56	16992.29
476.74	17172.51
476.92	17034.42
477.10	16678.66
477.28	17434.65
477.46	17371.46
477.64	17689.77
477.82	17565.72
478.00	18256.18
478.18	18118.09
478.36	18293.63
478.54	18363.84
478.72	18167.24
478.90	18672.79
479.08	18738.33
479.26	19094.09
479.44	19044.94
479.62	19171.33
479.80	19068.34
479.98	19190.05
480.16	19775.19
480.34	19634.75
480.52	20046.69
480.70	19969.45
480.88	19836.04
481.06	20039.67
481.24	20201.16
481.41	20451.60
481.59	20952.48
481.77	20613.10
481.95	20959.50
482.13	21476.76
482.31	21511.86
482.49	21675.70
482.67	21532.93
482.85	22111.04
483.03	22300.62
483.21	22368.50
483.39	22183.60
483.57	22267.86
483.74	22494.89
483.92	22932.57
484.10	22609.58
484.28	23007.47
484.46	23264.92
484.64	23763.46
484.82	23550.47
485.00	23859.42
485.18	24102.84
485.35	24603.71
485.53	24456.26
485.71	25092.88
485.89	24769.89
486.07	24830.74
486.25	25130.33
486.43	25439.28
486.61	25895.69
486.78	25734.19
486.96	25823.13
487.14	26644.66
487.32	26412.95
487.50	26441.03
487.68	26370.82
487.85	27419.38
488.03	27625.34
488.21	27892.16
488.39	27311.71
488.57	28018.55
488.75	27990.47
488.92	27910.89
489.10	28374.31
489.28	28629.43
489.46	28914.98
489.64	28744.12
489.81	29214.57
489.99	29582.03
490.17	29783.32
490.35	30099.29
490.53	29984.60
490.70	30323.98
490.88	30345.05
491.06	30654.00
491.24	30600.16
491.41	30841.24
491.59	31105.72
491.77	31372.54
491.95	31597.23
492.13	31344.45
492.30	31749.37
492.48	31931.93
492.66	31988.10
492.84	32524.08
493.01	32753.46
493.19	32929.00
493.37	33074.11
493.54	33392.42
493.72	33160.71
493.90	33069.43
494.08	33893.30
494.25	34078.20
494.43	34333.32
494.61	34054.79
494.79	34614.18
494.96	34560.35
495.14	34602.48
495.32	34986.33
495.49	35269.53
495.67	35412.31
495.85	35580.82
496.02	35938.93
496.20	35807.86
496.38	36046.59
496.55	36149.57
496.73	37090.47
496.91	36535.76
497.09	37003.87
497.26	37205.16
497.44	36802.58
497.62	37359.63
497.79	37488.36
497.97	37766.88
498.14	38274.78
498.32	38298.19
498.50	38230.31
498.67	38827.15
498.85	38431.60
499.03	38649.27
499.20	39145.46
499.38	39112.69
499.56	38958.22
499.73	39138.44
499.91	39569.10
500.08	39833.58
500.26	39576.12
500.44	39938.90
500.61	40390.62
500.79	39936.56
500.97	40952.35
501.14	41134.92
501.32	40594.25
501.49	40481.91
501.67	41111.51
501.84	40825.96
502.02	40992.14
502.20	41811.33
502.37	41553.87
502.55	41186.41
502.72	41701.32
502.90	41544.51
503.07	41832.39
503.25	42394.12
503.43	41830.05
503.60	42440.93
503.78	42714.78
503.95	42234.97
504.13	42541.58
504.30	42792.01
504.48	42740.52
504.65	43372.47
504.83	43660.35
505.01	43751.63
505.18	43543.33
505.36	43669.72
505.53	43676.74
505.71	43831.21
505.88	44009.09
506.06	44044.20
506.23	44488.90
506.41	44238.47
506.58	44222.08
506.76	44004.41
506.93	44678.49
507.11	44685.51
507.28	45312.77
507.46	45443.84
507.63	45478.95
507.81	45823.01
507.98	44898.50
508.16	45364.26
508.33	45261.28
508.50	45701.30
508.68	46153.02
508.85	45883.86
509.03	45925.99
509.20	46220.90
509.38	46588.36
509.55	46501.76
509.73	46775.61
509.90	46773.27
510.08	46913.70
510.25	47009.66
510.42	47136.05
510.60	47192.22
510.77	47784.38
510.95	47700.12
511.12	47681.39
511.30	47744.59
511.47	48435.05
511.64	47522.24
511.82	47997.37
511.99	47917.79
512.17	48170.57
512.34	48531.01
512.51	48818.89
512.69	49177.00
512.86	48678.46
513.04	48982.73
513.21	49052.95
513.38	48669.10
513.56	48556.75
513.73	49411.05
513.90	49762.13
514.08	49588.93
514.25	49785.54
514.43	49846.39
514.60	49738.72
514.77	49860.43
514.95	49659.15
515.12	49450.84
515.29	49916.61
515.47	50192.79
515.64	50546.21
515.81	50415.14
515.99	50471.31
516.16	50602.38
516.33	50515.78
516.51	50534.51
516.68	50520.46
516.85	50932.40
517.03	50972.19
517.20	50939.42
517.37	50836.44
517.54	50845.80
517.72	50925.38
517.89	50866.86
518.06	51278.80
518.24	51283.48
518.41	51407.53
518.58	51756.27
518.75	51419.23
518.93	51540.94
519.10	51765.63
519.27	51576.04
519.45	51702.43
519.62	52065.22
519.79	52006.70
519.96	52252.46
520.14	52360.12
520.31	52065.22
520.48	51983.30
520.65	52456.09
520.83	52776.74
521.00	52858.66
521.17	52266.50
521.34	52851.64
521.52	52650.35
521.69	52624.60
521.86	52793.12
522.03	52781.42
522.20	53123.14
522.38	53268.25
522.55	53221.44
522.72	53612.31
522.89	53116.12
523.07	53771.47
523.24	53628.69
523.41	53621.67
523.58	53506.99
523.75	53979.78
523.92	53544.44
524.10	54028.93
524.27	54038.29
524.44	54024.25
524.61	54073.40
524.78	54094.46
524.96	53961.05
525.13	54396.39
525.30	54312.13
525.47	54672.57
525.64	54611.72
525.81	54604.70
525.98	54417.46
526.16	54405.75
526.33	54539.16
526.50	54752.15
526.67	54763.85
526.84	54597.68
527.01	54962.80
527.18	54796.62
527.36	54962.80
527.53	54887.90
527.70	55192.17
527.87	55341.97
528.04	55206.22
528.21	55409.84
528.38	55402.82
528.55	55693.05
528.72	55231.96
528.89	55337.29
529.07	55264.73
529.24	55253.03
529.41	55433.25
529.58	55613.47
529.75	55496.44
529.92	55749.22
530.09	55650.92
530.26	55491.76
530.43	55732.84
530.60	55798.37
530.77	55781.99
530.94	56053.49
531.11	55917.74
531.28	55873.27
531.46	56058.17
531.63	56126.05
531.80	56135.41
531.97	56088.60
532.14	56383.51
532.31	56161.15
532.48	56332.01
532.65	56629.26
532.82	56254.78
532.99	56439.68
533.16	56582.45
533.33	56545.00
533.50	56734.59
533.67	56559.05
533.84	56477.13
534.01	56807.14
534.18	56500.53
534.35	57003.75
534.52	56739.27
534.69	56912.47
534.86	56835.23
535.03	56823.53
535.20	57088.01
535.37	56921.83
535.54	57411.00
535.71	56985.02
535.88	56980.34
536.05	56921.83
536.22	57275.25
536.38	57167.58
536.55	57392.28
536.72	57151.20
536.89	57450.79
537.06	57506.96
537.23	57708.25
537.40	57745.70
537.57	57687.18
537.74	57249.50
537.91	57748.04
538.08	57804.21
538.25	57457.81
538.42	57638.03
538.59	57825.28
538.75	57649.74
538.92	57741.02
539.09	57822.93
539.26	57848.68
539.43	57825.28
539.60	57923.58
539.77	57874.43
539.94	58082.73
540.11	58061.67
540.28	58337.85
540.44	58068.69
540.61	58192.74
540.78	58206.78
540.95	58145.93
541.12	58038.26
541.29	58162.31
541.46	58087.42
541.62	58614.04
541.79	58621.06
541.96	58326.15
542.13	58333.17
542.30	58574.25
542.47	58515.73
542.63	58632.76
542.80	58576.59
542.97	59018.95
543.14	58981.50
543.31	59021.29
543.48	59049.38
543.64	59133.63
543.81	58979.16
543.98	59135.98
544.15	59063.42
544.32	59161.72
544.48	59386.41
544.65	59257.68
544.82	59231.94
544.99	58873.84
545.16	59372.37
545.32	59243.64
545.49	59615.79
545.66	59636.85
545.83	59707.07
546.00	59714.09
546.16	59456.63
546.33	59711.75
546.50	59126.61
546.67	59400.46
546.83	59159.38
547.00	59255.34
547.17	59168.74
547.34	59269.39
547.50	59449.61
547.67	59693.02
547.84	59693.02
548.00	60020.70
548.17	59917.71
548.34	59810.05
548.51	59882.61
548.67	59627.49
548.84	59688.34
549.01	59763.24
549.18	59683.66
549.34	59955.16
549.51	60116.66
549.68	60004.31
549.84	59875.58
550.01	59873.24
550.18	59772.60
550.34	59882.61
550.51	59938.78
550.68	60198.58
550.84	59945.80
551.01	60140.07
551.18	59927.08
551.34	59976.23
551.51	60280.50
551.68	60200.92
551.84	60074.53
552.01	59999.63
552.18	60123.68
552.34	60161.13
552.51	60449.02
552.68	60252.41
552.84	60776.69
553.01	60491.15
553.18	60409.23
553.34	60523.91
553.51	60313.26
553.67	60570.72
553.84	60694.77
554.01	60879.67
554.17	60729.88
554.34	60772.01
554.51	60657.32
554.67	60530.93
554.84	60647.96
555.00	60388.16
555.17	60495.83
555.33	60884.36
555.50	60743.92
555.67	60851.59
555.83	60767.33
556.00	60795.42
556.16	60856.27
556.33	60924.14
556.50	60858.61
556.66	60940.53
556.83	60741.58
556.99	60914.78
557.16	61270.54
557.32	61106.71
557.49	61120.75
557.65	60919.46
557.82	60903.08
557.98	61066.92
558.15	60886.70
558.32	60903.08
558.48	60779.03
558.65	60982.66
558.81	61151.18
558.98	61158.20
559.14	61247.14
559.31	61371.19
559.47	61279.91
559.64	61315.01
559.80	61312.67
559.97	61282.25
560.13	60992.02
560.30	61031.81
560.46	61450.77
560.63	61291.61
560.79	61528.00
560.96	61513.96
561.12	61247.14
561.29	61368.85
561.45	61560.77
561.61	61329.06
561.78	61270.54
561.94	61560.77
562.11	61675.46
562.27	61740.99
562.44	61626.31
562.60	61612.26
562.77	61595.88
562.93	61441.40
563.10	61565.45
563.26	61425.02
563.42	61783.12
563.59	61436.72
563.75	61579.49
563.92	61703.54
564.08	61771.42
564.24	61780.78
564.41	61623.96
564.57	61520.98
564.74	61506.94
564.90	61612.26
565.07	61623.96
565.23	61932.92
565.39	61876.74
565.56	62063.99
565.72	61881.42
565.88	61804.19
566.05	61759.72
566.21	61551.41
566.38	61553.75
566.54	61687.16
566.70	61820.57
566.87	61968.02
567.03	61989.09
567.19	62213.78
567.36	62096.75
567.52	62003.13
567.68	61876.74
567.85	61750.35
568.01	61895.47
568.17	61851.00
568.34	61972.70
568.50	62040.58
568.66	61858.02
568.83	62035.90
568.99	62136.54
569.15	62017.17
569.32	62162.29
569.48	61939.94
569.64	61883.76
569.81	61939.94
569.97	61932.92
570.13	61984.41
570.30	61872.06
570.46	62080.37
570.62	61989.09
570.78	61911.85
570.95	61841.63
571.11	62035.90
571.27	61907.17
571.43	62014.83
571.60	62026.54
571.76	61902.49
571.92	62045.26
572.09	62223.14
572.25	62150.59
572.41	62026.54
572.57	62113.14
572.74	62375.28
572.90	62024.20
573.06	62007.81
573.22	61904.83
573.38	62152.93
573.55	62281.66
573.71	62466.56
573.87	62328.47
574.03	62007.81
574.20	62351.87
574.36	62195.06
574.52	62382.30
574.68	61961.00
574.84	62386.98
575.01	62398.68
575.17	62386.98
575.33	62078.03
575.49	62386.98
575.65	62386.98
575.82	62422.09
575.98	62307.40
576.14	62422.09
576.30	62447.83
576.46	62171.65
576.62	61937.60
576.79	62232.50
576.95	62181.01
577.11	62459.54
577.27	62340.17
577.43	62225.48
577.59	62248.89
577.75	62326.13
577.92	62337.83
578.08	62307.40
578.24	62192.72
578.40	62307.40
578.56	62665.50
578.72	62471.24
578.88	62752.10
579.04	62644.44
579.21	62471.24
579.37	62602.31
579.53	62700.61
579.69	62340.17
579.85	62412.73
580.01	62415.07
580.17	62642.10
580.33	62473.58
580.49	62478.26
580.65	62691.25
580.82	62618.69
580.98	62522.73
581.14	62630.40
581.30	62611.67
581.46	62459.54
581.62	62429.11
581.78	62361.23
581.94	62560.18
582.10	62365.91
582.26	62642.10
582.42	62632.74
582.58	62574.22
582.74	62616.35
582.90	62679.55
583.06	62529.75
583.22	62347.19
583.38	62485.28
583.54	62379.96
583.70	62433.79
583.86	62632.74
584.02	62529.75
584.18	62583.58
584.34	62747.42
584.50	62688.91
584.66	62555.50
584.82	62581.24
584.98	62604.65
585.14	62798.91
585.30	62564.86
585.46	62644.44
585.62	62452.51
585.78	62695.93
585.94	62527.41
586.10	62784.87
586.26	62670.18
586.42	62873.81
586.58	62691.25
586.74	62522.73
586.90	62656.14
587.06	62609.33
587.22	62660.82
587.38	62592.95
587.54	62920.62
587.70	62981.48
