SpectraSuite Data File
++++++++++++++++++++++++++++++++++++
Date: Thu Oct 24 13:21:16 EDT 2013
User: stostad
Dark Spectrum Present: No
Reference Spectrum Present: No
Number of Sampled Component Spectra: 1
Spectrometers: USB2+H05261
Integration Time (usec): 100000 (USB2+H05261)
Spectra Averaged: 1 (USB2+H05261)
Boxcar Smoothing: 0 (USB2+H05261)
Correct for Electrical Dark: No (USB2+H05261)
Strobe/Lamp Enabled: No (USB2+H05261)
Correct for Detector Non-linearity: No (USB2+H05261)
Correct for Stray Light: No (USB2+H05261)
Number of Pixels in Processed Spectrum: 2048
>>>>>Begin Processed Spectral Data<<<<<
365.73	564.07
365.92	564.07
366.12	564.07
366.32	477.47
366.52	484.49
366.72	451.72
366.91	447.04
367.11	519.60
367.31	540.66
367.51	479.81
367.70	463.43
367.90	477.47
368.10	486.83
368.30	468.11
368.49	477.47
368.69	475.13
368.89	547.69
369.09	425.98
369.28	505.56
369.48	564.07
369.68	566.41
369.87	510.24
370.07	454.06
370.27	521.94
370.47	587.47
370.66	777.06
370.86	814.51
371.06	844.93
371.25	861.32
371.45	765.36
371.65	868.34
371.84	772.38
372.04	823.87
372.24	821.53
372.44	861.32
372.63	950.26
372.83	873.02
373.03	931.53
373.22	884.72
373.42	851.96
373.62	889.40
373.81	917.49
374.01	985.37
374.21	931.53
374.40	875.36
374.60	992.39
374.79	903.45
374.99	891.74
375.19	910.47
375.38	922.17
375.58	952.60
375.78	964.30
375.97	919.83
376.17	940.90
376.37	947.92
376.56	901.11
376.76	997.07
376.95	908.13
377.15	866.00
377.35	957.28
377.54	952.60
377.74	936.21
377.93	924.51
378.13	961.96
378.33	973.66
378.52	999.41
378.72	983.02
378.91	990.05
379.11	966.64
379.31	964.30
379.50	954.94
379.70	1027.50
379.89	983.02
380.09	1018.13
380.28	1008.77
380.48	1015.79
380.68	912.81
380.87	1025.15
381.07	976.00
381.26	1064.94
381.46	1029.84
381.65	1029.84
381.85	1060.26
382.04	987.71
382.24	990.05
382.43	959.62
382.63	1041.54
382.83	985.37
383.02	1067.28
383.22	1020.47
383.41	1067.28
383.61	1032.18
383.80	1064.94
384.00	1053.24
384.19	1050.90
384.39	992.39
384.58	1093.03
384.78	1114.10
384.97	1074.31
385.17	983.02
385.36	1057.92
385.56	1111.75
385.75	1064.94
385.95	1015.79
386.14	1093.03
386.34	1074.31
386.53	1181.97
386.72	1156.22
386.92	1200.69
387.11	1128.14
387.31	1121.12
387.50	1170.27
387.70	1076.65
387.89	1111.75
388.09	1100.05
388.28	1130.48
388.48	1179.63
388.67	1186.65
388.86	1029.84
389.06	1170.27
389.25	1160.91
389.45	1142.18
389.64	1118.78
389.84	1282.61
390.03	1158.57
390.22	1160.91
390.42	1217.08
390.61	1184.31
390.81	1242.82
391.00	1153.88
391.19	1268.57
391.39	1263.89
391.58	1268.57
391.78	1188.99
391.97	1193.67
392.16	1233.46
392.36	1228.78
392.55	1228.78
392.75	1320.06
392.94	1317.72
393.13	1282.61
393.33	1352.83
393.52	1343.47
393.71	1310.70
393.91	1313.04
394.10	1329.42
394.29	1334.11
394.49	1345.81
394.68	1392.62
394.88	1371.55
395.07	1397.30
395.26	1350.49
395.46	1380.92
395.65	1409.00
395.84	1420.71
396.04	1420.71
396.23	1409.00
396.42	1467.52
396.62	1458.15
396.81	1469.86
397.00	1420.71
397.19	1338.79
397.39	1495.60
397.58	1516.67
397.77	1308.36
397.97	1462.83
398.16	1511.99
398.35	1509.65
398.55	1526.03
398.74	1523.69
398.93	1476.88
399.12	1542.41
399.32	1572.84
399.51	1476.88
399.70	1504.96
399.90	1509.65
400.09	1519.01
400.28	1565.82
400.47	1619.65
400.67	1530.71
400.86	1554.12
401.05	1598.59
401.24	1624.33
401.44	1556.46
401.63	1708.59
401.82	1626.67
402.01	1687.53
402.21	1612.63
402.40	1685.19
402.59	1689.87
402.78	1638.38
402.97	1694.55
403.17	1710.93
403.36	1743.70
403.55	1696.89
403.74	1671.14
403.93	1816.26
404.13	1755.40
404.32	1785.83
404.51	1837.32
404.70	1863.07
404.89	1781.15
405.09	1853.70
405.28	1874.77
405.47	1811.57
405.66	1921.58
405.85	1877.11
406.05	1893.49
406.24	1912.22
406.43	1888.81
406.62	2017.54
406.81	1987.11
407.00	1907.54
407.20	1870.09
407.39	1881.79
407.58	1961.37
407.77	2001.16
407.96	1968.39
408.15	2047.97
408.34	2015.20
408.54	2015.20
408.73	2157.97
408.92	2083.08
409.11	2172.02
409.30	2097.12
409.49	2097.12
409.68	2186.06
409.87	2218.83
410.07	2193.08
410.26	2282.02
410.45	2209.47
410.64	2237.55
410.83	2298.41
411.02	2251.60
411.21	2211.81
411.40	2211.81
411.59	2286.70
411.78	2221.17
411.98	2256.28
412.17	2347.56
412.36	2382.67
412.55	2401.39
412.74	2457.56
412.93	2424.80
413.12	2335.85
413.31	2413.09
413.50	2399.05
413.69	2434.16
413.88	2567.57
414.07	2504.37
414.26	2546.50
414.45	2572.25
414.64	2583.95
414.83	2635.44
415.02	2738.43
415.22	2696.30
415.41	2644.81
415.60	2693.96
415.79	2796.94
415.98	2771.19
416.17	2700.98
416.36	2808.64
416.55	2649.49
416.74	2792.26
416.93	2778.22
417.12	2829.71
417.31	2953.76
417.50	2850.77
417.69	2981.84
417.88	2759.49
418.07	2944.39
418.26	3070.78
418.45	2937.37
418.64	2920.99
418.83	2965.46
419.02	2897.58
419.21	2984.18
419.39	2974.82
419.58	2972.48
419.77	2916.31
419.96	3091.85
420.15	3164.40
420.34	3098.87
420.53	3073.12
420.72	3197.17
420.91	3129.30
421.10	3148.02
421.29	3234.62
421.48	3073.12
421.67	3138.66
421.86	3187.81
422.05	3035.67
422.24	3192.49
422.43	3220.58
422.61	3251.00
422.80	3260.37
422.99	3293.13
423.18	3358.67
423.37	3337.60
423.56	3300.16
423.75	3169.09
423.94	3038.02
424.13	3066.10
424.32	3248.66
424.50	3246.32
424.69	3297.81
424.88	3382.07
425.07	3197.17
425.26	3213.56
425.45	3236.96
425.64	3220.58
425.83	3337.60
426.01	3365.69
426.20	3330.58
426.39	3356.33
426.58	3311.86
426.77	3389.10
426.96	3391.44
427.15	3358.67
427.33	3328.24
427.52	3375.05
427.71	3389.10
427.90	3506.12
428.09	3419.52
428.28	3524.85
428.46	3421.86
428.65	3576.34
428.84	3686.34
429.03	3637.19
429.22	3461.65
429.40	3510.80
429.59	3517.83
429.78	3485.06
429.97	3440.59
430.16	3611.45
430.34	3695.71
430.53	3782.31
430.72	3613.79
430.91	3714.43
431.10	3562.30
431.28	3775.28
431.47	3761.24
431.66	3789.33
431.85	3815.07
432.03	3859.54
432.22	3967.21
432.41	3831.46
432.60	3815.07
432.79	3887.63
432.97	3990.61
433.16	3838.48
433.35	3920.40
433.54	3960.19
433.72	4018.70
433.91	3918.06
434.10	3983.59
434.28	3812.73
434.47	3866.56
434.66	3927.42
434.85	4117.00
435.03	4142.75
435.22	4248.07
435.41	4442.34
435.59	4414.25
435.78	4367.44
435.97	4227.01
436.16	4210.62
436.34	4173.18
436.53	4203.60
436.72	4219.99
436.90	4119.34
437.09	4222.33
437.28	4079.55
437.46	4238.71
437.65	4273.82
437.84	4337.01
438.02	4428.29
438.21	4297.22
438.40	4318.29
438.58	4318.29
438.77	4458.72
438.96	4395.53
439.14	4465.74
439.33	4500.85
439.52	4596.81
439.70	4557.02
439.89	4603.83
440.08	4704.48
440.26	4514.89
440.45	4550.00
440.63	4636.60
440.82	4755.97
441.01	4664.69
441.19	4800.44
441.38	4873.00
441.57	4915.12
441.75	4772.35
441.94	4856.61
442.12	4983.00
442.31	5210.03
442.50	5034.49
442.68	4924.49
442.87	4800.44
443.05	4905.76
443.24	5116.41
443.43	5085.98
443.61	5020.45
443.80	5275.57
443.98	5057.90
444.17	4940.87
444.35	5006.41
444.54	5097.69
444.73	5203.01
444.91	5104.71
445.10	5226.42
445.28	5195.99
445.47	5100.03
445.65	5015.77
445.84	5219.39
446.02	5404.30
446.21	5273.23
446.39	5076.62
446.58	5364.51
446.77	5341.10
446.95	5128.11
447.14	5380.89
447.32	5308.34
447.51	5380.89
447.69	5186.63
447.88	5305.99
448.06	5392.59
448.25	5249.82
448.43	5329.40
448.62	5423.02
448.80	5390.25
448.99	5434.72
449.17	5401.96
449.36	5228.76
449.54	5329.40
449.73	5626.65
449.91	5589.20
450.10	5469.83
450.28	5584.52
450.46	5724.95
450.65	5514.30
450.83	5565.79
451.02	5652.39
451.20	5610.26
451.39	5729.63
451.57	5797.51
451.76	5701.54
451.94	5617.29
452.13	5540.05
452.31	5930.92
452.49	5675.80
452.68	5703.89
452.86	5715.59
453.05	5823.25
453.23	5638.35
453.42	5706.23
453.60	5708.57
453.78	5888.79
453.97	5694.52
454.15	5980.07
454.34	5755.38
454.52	5879.43
454.70	5973.05
454.89	5902.83
455.07	5856.02
455.26	5944.96
455.44	6010.50
455.62	6085.39
455.81	6164.97
455.99	6143.91
456.17	6143.91
456.36	6202.42
456.54	6214.12
456.73	6328.81
456.91	6387.32
457.09	6345.19
457.28	6384.98
457.46	6305.40
457.64	6494.99
457.83	6251.57
458.01	6356.90
458.19	6455.20
458.38	6487.96
458.56	6314.77
458.74	6530.09
458.93	6373.28
459.11	6661.16
459.29	6661.16
459.48	6406.05
459.66	6455.20
459.84	6487.96
460.03	6689.25
460.21	6796.92
460.39	6623.72
460.57	6579.25
460.76	6754.79
460.94	6661.16
461.12	6733.72
461.31	6771.17
461.49	6672.87
461.67	6705.63
461.85	6869.47
462.04	6956.07
462.22	7115.23
462.40	6855.43
462.59	6817.98
462.77	6829.68
462.95	7150.34
463.13	6874.15
463.32	7000.54
463.50	7052.03
463.68	7087.14
463.86	6927.99
464.05	6794.58
464.23	6965.43
464.41	7166.72
464.59	6792.23
464.78	7136.29
464.96	7164.38
465.14	7187.79
465.32	7232.26
465.50	7197.15
465.69	7295.45
465.87	7197.15
466.05	7232.26
466.23	7328.22
466.41	7356.30
466.60	7328.22
466.78	7199.49
466.96	7339.92
467.14	7180.76
467.32	7384.39
467.51	7602.06
467.69	7489.71
467.87	7461.63
468.05	7382.05
468.23	7346.94
468.41	7456.95
468.60	7356.30
468.78	7506.10
468.96	7566.95
469.14	7695.68
469.32	7698.02
469.50	7588.02
469.69	7585.68
469.87	7808.03
470.05	7693.34
470.23	7911.01
470.41	7854.84
470.59	7829.09
470.77	7784.62
470.95	7826.75
471.14	8060.80
471.32	7843.14
471.50	7985.91
471.68	7920.37
471.86	8063.15
472.04	7915.69
472.22	8437.63
472.40	8037.40
472.58	8189.53
472.77	8187.19
472.95	8124.00
473.13	8533.59
473.31	8196.56
473.49	8332.31
473.67	8184.85
473.85	8344.01
474.03	8575.72
474.21	8613.17
474.39	8872.97
474.57	8634.24
474.75	8758.28
474.93	8826.16
475.12	8734.88
475.30	8875.31
475.48	8744.24
475.66	8922.12
475.84	8912.76
476.02	8919.78
476.20	8910.42
476.38	9210.01
476.56	9308.31
476.74	9137.45
476.92	9224.05
477.10	9397.25
477.28	9418.32
477.46	9420.66
477.64	9598.54
477.82	9607.90
478.00	9785.78
478.18	9760.03
478.36	9902.81
478.54	10052.60
478.72	9900.47
478.90	10024.51
479.08	10120.48
479.26	10132.18
479.44	10296.02
479.62	10560.50
479.80	10469.22
479.98	10277.29
480.16	10630.71
480.34	10621.35
480.52	10796.89
480.70	10916.26
480.88	10604.97
481.06	10862.43
481.24	10860.09
481.41	11047.33
481.59	11073.07
481.77	11613.74
481.95	11227.55
482.13	11566.93
482.31	11403.09
482.49	11658.21
482.67	11248.61
482.85	11698.00
483.03	11929.71
483.21	12093.55
483.39	12116.95
483.57	11918.01
483.74	12168.45
483.92	12318.24
484.10	12369.73
484.28	12313.56
484.46	12926.78
484.64	12695.07
484.82	12549.95
485.00	12711.45
485.18	12849.54
485.35	13245.09
485.53	12926.78
485.71	13235.73
485.89	13420.63
486.07	13289.56
486.25	13528.30
486.43	13404.25
486.61	13853.63
486.78	13680.43
486.96	14080.66
487.14	14012.79
487.32	14127.47
487.50	14228.12
487.68	14068.96
487.85	14562.81
488.03	14679.84
488.21	14794.53
488.39	14710.27
488.57	14883.47
488.75	14930.28
488.92	15138.58
489.10	15122.20
489.28	15321.15
489.46	15403.07
489.64	15382.00
489.81	15538.82
489.99	15782.23
490.17	15681.59
490.35	16159.06
490.53	16009.26
490.70	16252.68
490.88	16137.99
491.06	16444.60
491.24	16173.10
491.41	16641.21
491.59	16758.24
491.77	16559.29
491.95	16711.42
492.13	17001.65
492.30	17062.51
492.48	16835.47
492.66	17083.57
492.84	17013.35
493.01	17432.31
493.19	17495.50
493.37	17341.03
493.54	17563.38
493.72	17631.26
493.90	17600.83
494.08	17965.95
494.25	18113.41
494.43	17900.42
494.61	18228.09
494.79	18581.51
494.96	18225.75
495.14	18398.95
495.32	18677.48
495.49	18710.24
495.67	18892.80
495.85	18956.00
496.02	19211.12
496.20	19117.50
496.38	19243.88
496.55	19351.55
496.73	19365.59
496.91	19541.13
497.09	19754.12
497.26	19840.72
497.44	19899.23
497.62	19754.12
497.79	20056.05
497.97	20252.66
498.14	20088.82
498.32	20205.84
498.50	20376.70
498.67	20205.84
498.85	20549.90
499.03	20311.17
499.20	20847.15
499.38	20627.14
499.56	20807.36
499.73	20837.79
499.91	20966.52
500.08	21263.77
500.26	21074.18
500.44	21312.92
500.61	21649.96
500.79	21366.75
500.97	21200.57
501.14	21509.52
501.32	21736.56
501.49	21563.36
501.67	21891.03
501.84	21839.54
502.02	21699.11
502.20	22155.51
502.37	22590.85
502.55	21792.73
502.72	22249.13
502.90	22279.56
503.07	22267.86
503.25	22436.38
503.43	22321.69
503.60	22691.49
503.78	22473.82
503.95	22501.91
504.13	22363.82
504.30	22892.78
504.48	22686.81
504.65	23246.20
504.83	23225.14
505.01	23489.62
505.18	23000.44
505.36	23227.48
505.53	23377.27
505.71	23396.00
505.88	23651.11
506.06	23110.45
506.23	23768.14
506.41	23515.36
506.58	23697.92
506.76	23618.35
506.93	23976.45
507.11	23498.98
507.28	24161.35
507.46	24283.06
507.63	24327.53
507.81	24297.10
507.98	23922.62
508.16	23854.74
508.33	24231.57
508.50	24292.42
508.68	24568.60
508.85	24584.99
509.03	24510.09
509.20	24662.22
509.38	24809.68
509.55	24952.45
509.73	24952.45
509.90	25378.43
510.08	25483.75
510.25	25287.15
510.42	25310.55
510.60	25486.09
510.77	25509.50
510.95	25530.56
511.12	25537.59
511.30	25682.70
511.47	25858.24
511.64	25830.15
511.82	25895.69
511.99	25603.12
512.17	25771.64
512.34	26026.76
512.51	26284.22
512.69	26253.79
512.86	26457.42
513.04	26162.51
513.21	26305.28
513.38	26265.49
513.56	26682.11
513.73	26405.92
513.90	26651.68
514.08	26906.80
514.25	27173.62
514.43	27267.24
514.60	26904.46
514.77	26639.98
514.95	27138.51
515.12	26813.18
515.29	27070.64
515.47	27665.13
515.64	27520.02
515.81	26946.59
515.99	27281.28
516.16	27688.54
516.33	27725.99
516.51	28086.43
516.68	27754.07
516.85	27857.06
517.03	27983.44
517.20	28112.17
517.37	27957.70
517.54	28140.26
517.72	27875.78
517.89	28123.88
518.06	28030.26
518.24	27964.72
518.41	27868.76
518.58	28285.37
518.75	28257.29
518.93	28175.37
519.10	28081.75
519.27	28369.63
519.45	28554.54
519.62	28828.38
519.79	28648.16
519.96	28701.99
520.14	28683.27
520.31	28561.56
520.48	28938.38
520.65	28959.45
520.83	29195.84
521.00	29270.74
521.17	29177.12
521.34	28837.74
521.52	29277.76
521.69	28795.61
521.86	29383.09
522.03	29420.53
522.20	29446.28
522.38	30143.76
522.55	30181.21
522.72	29778.64
522.89	29593.73
523.07	29867.58
523.24	29750.55
523.41	30181.21
523.58	29869.92
523.75	30033.75
523.92	29947.15
524.10	30146.10
524.27	30532.29
524.44	30515.90
524.61	30370.79
524.78	30288.87
524.96	30494.84
525.13	30733.57
525.30	30539.31
525.47	30988.69
525.64	30794.43
525.81	31030.82
525.98	30838.90
526.16	30574.42
526.33	30822.51
526.50	31232.11
526.67	30782.73
526.84	31199.34
527.01	30859.96
527.18	31012.10
527.36	31407.65
527.53	30899.75
527.70	31318.71
527.87	31236.79
528.04	31377.22
528.21	31351.48
528.38	31782.13
528.55	31424.03
528.72	31613.62
528.89	31407.65
529.07	31194.66
529.24	31487.23
529.41	31688.51
529.58	31695.53
529.75	31828.95
529.92	31641.70
530.09	32072.36
530.26	32072.36
530.43	31992.78
530.60	31952.99
530.77	32451.53
530.94	32474.93
531.11	32121.51
531.28	32332.16
531.46	32505.36
531.63	32563.87
531.80	32285.35
531.97	32388.33
532.14	32552.17
532.31	32273.65
532.48	32706.65
532.65	32713.67
532.82	32767.50
532.99	32788.56
533.16	32903.25
533.33	32943.04
533.50	33221.56
533.67	32769.84
533.84	32994.53
534.01	32912.61
534.18	32959.42
534.35	32931.34
534.52	33383.06
534.69	33329.23
534.86	32921.98
535.03	32856.44
535.20	33184.12
535.37	33383.06
535.54	33846.49
535.71	33326.89
535.88	33263.69
536.05	33635.84
536.22	33612.43
536.38	34036.07
536.55	33811.38
536.72	33724.78
536.89	34047.77
537.06	33912.02
537.23	34188.21
537.40	33780.95
537.57	33996.28
537.74	34192.89
537.91	33795.00
538.08	34253.74
538.25	33713.08
538.42	33710.74
538.59	34560.35
538.75	34206.93
538.92	34450.35
539.09	34436.30
539.26	34160.12
539.43	34307.57
539.60	34230.33
539.77	34520.56
539.94	34855.26
540.11	34941.86
540.28	34609.50
540.44	34967.60
540.61	34593.12
540.78	34906.75
540.95	34705.46
541.12	34876.32
541.29	34771.00
541.46	35519.97
541.62	35384.22
541.79	35379.54
541.96	34888.03
542.13	35323.36
542.30	35330.39
542.47	35110.38
542.63	35475.50
542.80	35737.64
542.97	36385.97
543.14	35861.69
543.31	35866.37
543.48	35704.87
543.64	36243.20
543.81	36025.53
543.98	35885.09
544.15	35901.48
544.32	36194.04
544.48	36566.19
544.65	36285.33
544.82	36313.41
544.99	36060.63
545.16	36182.34
545.32	36189.36
545.49	36362.56
545.66	37071.75
545.83	37303.46
546.00	37237.92
546.16	37249.63
546.33	36809.61
546.50	36526.40
546.67	36751.09
546.83	35964.67
547.00	36374.27
547.17	36477.25
547.34	36811.95
547.50	36481.93
547.67	36849.39
547.84	36505.34
548.00	36776.84
548.17	37340.91
548.34	36872.80
548.51	36800.24
548.67	36945.36
548.84	37074.09
549.01	36533.42
549.18	36980.46
549.34	36875.14
549.51	37083.45
549.68	37216.86
549.84	36940.68
550.01	36935.99
550.18	36917.27
550.34	36783.86
550.51	37081.11
550.68	37095.15
550.84	36758.11
551.01	37233.24
551.18	37237.92
551.34	36959.40
551.51	36779.18
551.68	37216.86
551.84	36992.17
552.01	37261.33
552.18	37572.62
552.34	37146.64
552.51	37560.92
552.68	37532.83
552.84	37221.54
553.01	37813.70
553.18	37057.70
553.34	37287.07
553.51	37397.08
553.67	38031.36
553.84	37886.25
554.01	38038.39
554.17	37745.82
554.34	37860.51
554.51	38094.56
554.67	37961.15
554.84	37738.80
555.00	37773.91
555.17	37635.81
555.33	37904.98
555.50	37631.13
555.67	38150.73
555.83	37738.80
556.00	37589.00
556.16	38195.20
556.33	38204.56
556.50	37830.08
556.66	38057.11
556.83	37928.38
556.99	37890.93
557.16	38604.80
557.32	38089.88
557.49	38958.22
557.65	38258.40
557.82	38057.11
557.98	38190.52
558.15	37888.59
558.32	38078.18
558.48	38368.40
558.65	38548.62
558.81	38415.21
558.98	38438.62
559.14	38244.35
559.31	38742.89
559.47	38653.95
559.64	38209.25
559.80	38541.60
559.97	38967.58
560.13	37869.87
560.30	38274.78
560.46	38513.52
560.63	38670.33
560.79	38539.26
560.96	39229.72
561.12	38787.36
561.29	39012.05
561.45	38340.32
561.61	38810.76
561.78	38560.33
561.94	39232.06
562.11	38714.80
562.27	39122.05
562.44	39026.09
562.60	38869.28
562.77	38721.82
562.93	38532.24
563.10	39047.16
563.26	38983.96
563.42	39175.89
563.59	39133.76
563.75	38756.93
563.92	39157.16
564.08	39026.09
564.24	38969.92
564.41	39459.09
564.57	39192.27
564.74	38607.14
564.90	39054.18
565.07	39021.41
565.23	39449.73
565.39	39021.41
565.56	39484.84
565.72	39091.63
565.88	39063.54
566.05	38932.47
566.21	38852.89
566.38	38967.58
566.54	38562.67
566.70	39452.07
566.87	39349.09
567.03	39643.99
567.19	40287.64
567.36	39264.83
567.52	39445.05
567.68	39704.85
567.85	39590.16
568.01	39779.74
568.17	39498.88
568.34	38960.56
568.50	39562.08
568.66	39686.12
568.83	39728.25
568.99	39601.86
569.15	39229.72
569.32	39679.10
569.48	39225.04
569.64	39594.84
569.81	39721.23
569.97	38979.28
570.13	39674.42
570.30	39353.77
570.46	39473.13
570.62	39463.77
570.78	39367.81
570.95	39089.29
571.11	39636.97
571.27	39730.59
571.43	39023.75
571.60	39505.90
571.76	39285.89
571.92	39452.07
572.09	39253.12
572.25	40224.45
572.41	39772.72
572.57	39969.33
572.74	40369.56
572.90	40048.91
573.06	39702.51
573.22	39498.88
573.38	39810.17
573.55	39250.78
573.71	39805.49
573.87	39906.13
574.03	39655.70
574.20	39838.26
574.36	39856.98
574.52	39938.90
574.68	39643.99
574.84	39936.56
575.01	39842.94
575.17	40065.29
575.33	39423.98
575.49	39803.15
575.65	39999.76
575.82	39669.74
575.98	40091.04
576.14	40289.98
576.30	40198.70
576.46	39915.50
576.62	40119.12
576.79	39643.99
576.95	39789.11
577.11	40229.13
577.27	40254.87
577.43	40081.67
577.59	40175.30
577.75	39807.83
577.92	40006.78
578.08	39920.18
578.24	39943.58
578.40	40449.14
578.56	40098.06
578.72	40313.39
578.88	40423.39
579.04	40168.27
579.21	39938.90
579.37	40334.45
579.53	40119.12
579.69	39669.74
579.85	40100.40
580.01	40084.01
580.17	40142.53
580.33	39966.99
580.49	40566.16
580.65	40182.32
580.82	40390.62
580.98	39948.26
581.14	39536.33
581.30	39828.90
581.46	40184.66
581.62	39875.71
581.78	40133.17
581.94	40018.48
582.10	39676.76
582.26	40079.33
582.42	39765.70
582.58	39889.75
582.74	40266.58
582.90	40203.38
583.06	40231.47
583.22	39456.75
583.38	40528.72
583.54	40016.14
583.70	39924.86
583.86	39782.09
584.02	40074.65
584.18	40397.65
584.34	40212.74
584.50	40032.52
584.66	39737.62
584.82	39688.46
584.98	40179.98
585.14	40076.99
585.30	40509.99
585.46	40126.14
585.62	39807.83
585.78	40811.92
585.94	40039.54
586.10	40573.19
586.26	40065.29
586.42	40650.42
586.58	40671.49
586.74	40055.93
586.90	40208.06
587.06	40257.21
587.22	40526.38
587.38	40289.98
587.54	40556.80
587.70	41024.91
587.86	40486.59
588.02	40472.54
588.18	40659.79
588.34	40304.02
588.49	40713.62
588.65	40360.20
588.81	40025.50
588.97	40751.07
589.13	40327.43
589.29	40488.93
589.45	40612.98
589.61	40334.45
589.77	40994.48
