SpectraSuite Data File
++++++++++++++++++++++++++++++++++++
Date: Thu Oct 24 13:21:27 EDT 2013
User: stostad
Dark Spectrum Present: No
Reference Spectrum Present: No
Number of Sampled Component Spectra: 1
Spectrometers: USB2+H05261
Integration Time (usec): 100000 (USB2+H05261)
Spectra Averaged: 1 (USB2+H05261)
Boxcar Smoothing: 0 (USB2+H05261)
Correct for Electrical Dark: No (USB2+H05261)
Strobe/Lamp Enabled: No (USB2+H05261)
Correct for Detector Non-linearity: No (USB2+H05261)
Correct for Stray Light: No (USB2+H05261)
Number of Pixels in Processed Spectrum: 2048
>>>>>Begin Processed Spectral Data<<<<<
365.73	566.41
365.92	566.41
366.12	566.41
366.32	475.13
366.52	447.04
366.72	463.43
366.91	456.40
367.11	435.34
367.31	507.90
367.51	477.47
367.70	496.19
367.90	428.32
368.10	557.05
368.30	465.77
368.49	486.83
368.69	475.13
368.89	496.19
369.09	491.51
369.28	486.83
369.48	491.51
369.68	524.28
369.87	449.38
370.07	524.28
370.27	484.49
370.47	617.90
370.66	889.40
370.86	952.60
371.06	1034.52
371.25	1090.69
371.45	936.21
371.65	1022.81
371.84	985.37
372.04	1027.50
372.24	1022.81
372.44	1071.97
372.63	1057.92
372.83	1071.97
373.03	1055.58
373.22	1074.31
373.42	1123.46
373.62	1167.93
373.81	1156.22
374.01	1170.27
374.21	1139.84
374.40	1107.07
374.60	1231.12
374.79	1149.20
374.99	1151.54
375.19	1114.10
375.38	1270.91
375.58	1114.10
375.78	1193.67
375.97	1149.20
376.17	1212.40
376.37	1242.82
376.56	1224.10
376.76	1184.31
376.95	1188.99
377.15	1181.97
377.35	1245.16
377.54	1238.14
377.74	1219.42
377.93	1263.89
378.13	1167.93
378.33	1221.76
378.52	1266.23
378.72	1296.66
378.91	1345.81
379.11	1226.44
379.31	1320.06
379.50	1294.32
379.70	1303.68
379.89	1341.13
380.09	1275.59
380.28	1348.15
380.48	1249.85
380.68	1336.45
380.87	1263.89
381.07	1275.59
381.26	1352.83
381.46	1427.73
381.65	1359.85
381.85	1362.19
382.04	1437.09
382.24	1437.09
382.43	1397.30
382.63	1423.05
382.83	1409.00
383.02	1411.34
383.22	1488.58
383.41	1399.64
383.61	1451.13
383.80	1427.73
384.00	1437.09
384.19	1521.35
384.39	1551.78
384.58	1420.71
384.78	1444.11
384.97	1528.37
385.17	1530.71
385.36	1488.58
385.56	1544.75
385.75	1479.22
385.95	1465.18
386.14	1455.81
386.34	1451.13
386.53	1568.16
386.72	1511.99
386.92	1544.75
387.11	1535.39
387.31	1577.52
387.50	1650.08
387.70	1610.29
387.89	1638.38
388.09	1624.33
388.28	1610.29
388.48	1652.42
388.67	1600.93
388.86	1685.19
389.06	1640.72
389.25	1652.42
389.45	1629.01
389.64	1699.23
389.84	1818.60
390.03	1774.13
390.22	1750.72
390.42	1685.19
390.61	1713.27
390.81	1680.50
391.00	1671.14
391.19	1818.60
391.39	1781.15
391.58	1844.34
391.78	1764.76
391.97	1788.17
392.16	1813.92
392.36	1811.57
392.55	1849.02
392.75	1837.32
392.94	1849.02
393.13	1952.01
393.33	1952.01
393.52	1973.07
393.71	1785.83
393.91	1996.48
394.10	1928.60
394.29	1886.47
394.49	1982.43
394.68	2052.65
394.88	1968.39
395.07	2043.29
395.26	1949.67
395.46	2146.27
395.65	1942.64
395.84	2005.84
396.04	2076.06
396.23	2125.21
396.42	2099.46
396.62	2162.66
396.81	2120.53
397.00	2008.18
397.19	2115.84
397.39	2136.91
397.58	2127.55
397.77	2195.42
397.97	2237.55
398.16	2148.61
398.35	2200.10
398.55	2073.71
398.74	2155.63
398.93	2310.11
399.12	2209.47
399.32	2340.54
399.51	2312.45
399.70	2345.22
399.90	2263.30
400.09	2310.11
400.28	2375.64
400.47	2408.41
400.67	2450.54
400.86	2312.45
401.05	2396.71
401.24	2492.67
401.44	2518.42
401.63	2502.03
401.82	2520.76
402.01	2410.75
402.21	2518.42
402.40	2693.96
402.59	2541.82
402.78	2502.03
402.97	2576.93
403.17	2534.80
403.36	2642.46
403.55	2581.61
403.74	2733.75
403.93	2663.53
404.13	2602.68
404.32	2778.22
404.51	2665.87
404.70	2810.98
404.89	2766.51
405.09	2832.05
405.28	2855.45
405.47	2806.30
405.66	2956.10
405.85	2932.69
406.05	2775.88
406.24	2860.13
406.43	2883.54
406.62	2986.52
406.81	3042.70
407.00	2998.23
407.20	2946.73
407.39	2974.82
407.58	3091.85
407.77	3155.04
407.96	3159.72
408.15	3098.87
408.34	3077.80
408.54	3150.36
408.73	3183.13
408.92	3185.47
409.11	3169.09
409.30	3342.28
409.49	3201.85
409.68	3126.96
409.87	3183.13
410.07	3440.59
410.26	3351.65
410.45	3358.67
410.64	3403.14
410.83	3503.78
411.02	3499.10
411.21	3405.48
411.40	3421.86
411.59	3494.42
411.78	3684.00
411.98	3513.14
412.17	3646.55
412.36	3676.98
412.55	3712.09
412.74	3782.31
412.93	3747.20
413.12	3529.53
413.31	3861.88
413.50	3779.97
413.69	3941.46
413.88	3843.16
414.07	3864.22
414.26	4147.43
414.45	4039.76
414.64	4007.00
414.83	4079.55
415.02	4067.85
415.22	4170.83
415.41	4159.13
415.60	4196.58
415.79	4196.58
415.98	4318.29
416.17	4231.69
416.36	4376.80
416.55	4329.99
416.74	4374.46
416.93	4393.19
417.12	4463.40
417.31	4486.81
417.50	4664.69
417.69	4573.41
417.88	4524.26
418.07	4559.36
418.26	4657.67
418.45	4629.58
418.64	4671.71
418.83	4762.99
419.02	4608.51
419.21	4657.67
419.39	4805.12
419.58	4868.31
419.77	4784.06
419.96	4784.06
420.15	4791.08
420.34	4880.02
420.53	4854.27
420.72	4924.49
420.91	5121.09
421.10	5036.83
421.29	5074.28
421.48	4966.62
421.67	4959.60
421.86	5046.20
422.05	4983.00
422.24	5081.30
422.43	5142.16
422.61	5067.26
422.80	4985.34
422.99	5193.65
423.18	5268.55
423.37	5254.50
423.56	5118.75
423.75	5177.26
423.94	4975.98
424.13	4807.46
424.32	5018.11
424.50	5296.63
424.69	5376.21
424.88	5336.42
425.07	5121.09
425.26	5259.18
425.45	5153.86
425.64	5270.89
425.83	5188.97
426.01	5313.02
426.20	5235.78
426.39	5352.81
426.58	5341.10
426.77	5322.38
426.96	5425.36
427.15	5497.92
427.33	5570.48
427.52	5493.24
427.71	5465.15
427.90	5535.37
428.09	5420.68
428.28	5678.14
428.46	5619.63
428.65	5528.35
428.84	5720.27
429.03	5827.93
429.22	5528.35
429.40	5792.83
429.59	5731.97
429.78	5671.12
429.97	5404.30
430.16	5717.93
430.34	6029.22
430.53	5923.90
430.72	5912.19
430.91	5895.81
431.10	5710.91
431.28	5966.03
431.47	6115.82
431.66	6141.57
431.85	5984.75
432.03	6036.24
432.22	6104.12
432.41	6193.06
432.60	6190.72
432.79	6146.25
432.97	6363.92
433.16	6132.20
433.35	6319.45
433.54	6347.53
433.72	6380.30
433.91	6349.87
434.10	6511.37
434.28	6366.26
434.47	6401.37
434.66	6441.15
434.85	6333.49
435.03	6588.61
435.22	6635.42
435.41	6705.63
435.59	6918.62
435.78	6813.30
435.97	6864.79
436.16	6497.33
436.34	6534.78
436.53	6801.60
436.72	7019.27
436.90	6747.76
437.09	6801.60
437.28	6607.33
437.46	6761.81
437.65	6764.15
437.84	6984.16
438.02	7126.93
438.21	7021.61
438.40	6862.45
438.58	7070.76
438.77	7349.28
438.96	7122.25
439.14	7236.94
439.33	7456.95
439.52	7262.68
439.70	7398.43
439.89	7639.51
440.08	7531.84
440.26	7707.38
440.45	7618.44
440.63	7590.36
440.82	7829.09
441.01	7590.36
441.19	7981.23
441.38	7990.59
441.57	7908.67
441.75	7789.30
441.94	8187.19
442.12	8046.76
442.31	8196.56
442.50	8255.07
442.68	8180.17
442.87	8395.50
443.05	8187.19
443.24	8428.27
443.43	8344.01
443.61	8360.39
443.80	8557.00
443.98	8257.41
444.17	8060.80
444.35	8304.22
444.54	8545.30
444.73	8510.19
444.91	8327.63
445.10	8308.90
445.28	8397.84
445.47	8489.12
445.65	8472.74
445.84	8578.06
446.02	8835.52
446.21	8781.69
446.39	8580.40
446.58	8610.83
446.77	8671.68
446.95	8540.61
447.14	8594.45
447.32	8545.30
447.51	8681.05
447.69	8662.32
447.88	8648.28
448.06	8791.05
448.25	8681.05
448.43	8613.17
448.62	8650.62
448.80	8807.44
448.99	8884.67
449.17	8975.95
449.36	8924.46
449.54	8903.40
449.73	9195.96
449.91	8975.95
450.10	9219.37
450.28	9029.79
450.46	9231.07
450.65	9032.13
450.83	8992.34
451.02	9355.12
451.20	9247.46
451.39	9385.55
451.57	9235.75
451.76	9348.10
451.94	9327.03
452.13	9418.32
452.31	9561.09
452.49	9444.06
452.68	9376.19
452.86	9631.30
453.05	9699.18
453.23	9598.54
453.42	9331.72
453.60	9369.16
453.78	9680.46
453.97	9675.77
454.15	9542.36
454.34	9647.69
454.52	9682.80
454.70	9844.29
454.89	9846.63
455.07	10043.24
455.26	10040.90
455.44	10111.11
455.62	9949.62
455.81	10193.03
455.99	10132.18
456.17	10108.77
456.36	10024.51
456.54	10293.68
456.73	10396.66
456.91	10745.40
457.09	10532.41
457.28	10509.01
457.46	10623.69
457.64	10832.00
457.83	10492.62
458.01	10548.79
458.19	10778.17
458.38	10717.31
458.56	10792.21
458.74	11023.92
458.93	10841.36
459.11	10623.69
459.29	10942.00
459.48	10869.45
459.66	10932.64
459.84	11014.56
460.03	11047.33
460.21	11005.20
460.39	11105.84
460.57	11110.52
460.76	11265.00
460.94	11314.15
461.12	11393.73
461.31	11253.30
461.49	11082.44
461.67	11332.87
461.85	11562.25
462.04	11335.21
462.22	11573.95
462.40	11676.93
462.59	11630.12
462.77	11576.29
462.95	11592.67
463.13	11775.24
463.32	11850.13
463.50	11826.73
463.68	11871.20
463.86	11829.07
464.05	11616.08
464.23	11634.80
464.41	12044.40
464.59	11709.70
464.78	12175.47
464.96	12147.38
465.14	11630.12
465.32	11988.22
465.50	12229.30
465.69	12500.80
465.87	12278.45
466.05	12278.45
466.23	12351.01
466.41	12372.07
466.60	12432.93
466.78	12187.17
466.96	12013.97
467.14	12418.88
467.32	12521.87
467.51	12564.00
467.69	12264.41
467.87	12262.07
468.05	12685.70
468.23	12409.52
468.41	12477.40
468.60	12430.59
468.78	12823.80
468.96	12631.87
469.14	12987.63
469.32	13053.17
469.50	12774.64
469.69	12945.50
469.87	13184.24
470.05	13202.96
470.23	13118.70
470.41	13259.13
470.59	13348.08
470.77	13104.66
470.95	13362.12
471.14	13678.09
471.32	13111.68
471.50	13509.57
471.68	13734.26
471.86	13561.06
472.04	13790.44
472.22	14169.60
472.40	13701.50
472.58	13900.44
472.77	14132.15
472.95	14319.40
473.13	14562.81
473.31	14169.60
473.49	14225.78
473.67	14244.50
473.85	14324.08
474.03	14576.86
474.21	14864.74
474.39	14604.94
474.57	14972.41
474.75	14796.87
474.93	14979.43
475.12	15084.75
475.30	15396.04
475.48	15070.71
475.66	15573.92
475.84	15089.43
476.02	15440.51
476.20	15337.53
476.38	15768.19
476.56	16182.46
476.74	15889.90
476.92	15882.88
477.10	15669.89
477.28	16006.92
477.46	16269.06
477.64	16285.45
477.82	16318.22
478.00	17139.74
478.18	16496.10
478.36	17001.65
478.54	17067.19
478.72	17216.98
478.90	17661.68
479.08	17652.32
479.26	17923.82
479.44	17860.63
479.62	18029.15
479.80	17869.99
479.98	18148.51
480.16	18607.26
480.34	18284.26
480.52	18768.76
480.70	18761.73
480.88	18263.20
481.06	18625.98
481.24	18892.80
481.41	18944.30
481.59	19229.84
481.77	19770.51
481.95	19328.14
482.13	19679.22
482.31	19466.24
482.49	20198.82
482.67	20098.18
482.85	20538.20
483.03	20620.12
483.21	20519.48
483.39	20765.23
483.57	20837.79
483.74	20966.52
483.92	21144.40
484.10	21067.16
484.28	21500.16
484.46	21886.35
484.64	22494.89
484.82	22073.59
485.00	22295.94
485.18	22551.06
485.35	23110.45
485.53	22712.56
485.71	23234.50
485.89	23131.51
486.07	23080.02
486.25	23323.44
486.43	23623.03
486.61	23414.72
486.78	23985.81
486.96	24360.30
487.14	24467.96
487.32	24793.29
487.50	24622.44
487.68	24854.15
487.85	24922.02
488.03	25570.35
488.21	25832.49
488.39	25773.98
488.57	25790.36
488.75	26155.49
488.92	26302.94
489.10	26647.00
489.28	26544.02
489.46	26817.86
489.64	26623.59
489.81	27517.68
489.99	27271.92
490.17	27735.35
490.35	27948.34
490.53	27632.36
490.70	28313.46
490.88	28166.01
491.06	28840.08
491.24	28554.54
491.41	28701.99
491.59	29043.71
491.77	29446.28
491.95	29493.09
492.13	29783.32
492.30	29731.83
492.48	29603.10
492.66	29954.18
492.84	30387.18
493.01	30534.63
493.19	30738.26
493.37	30726.55
493.54	30731.23
493.72	31274.24
493.90	31014.44
494.08	31248.49
494.25	31899.16
494.43	31845.33
494.61	32254.92
494.79	32121.51
494.96	32016.19
495.14	32655.15
495.32	32971.13
495.49	33039.00
495.67	32772.18
495.85	33617.11
496.02	33542.22
496.20	33345.61
496.38	33570.30
496.55	33755.21
496.73	34483.11
496.91	34024.37
497.09	34534.60
497.26	34450.35
497.44	34534.60
497.62	34712.49
497.79	35051.86
497.97	35318.68
498.14	35718.92
498.32	35941.27
498.50	35449.75
498.67	36016.16
498.85	36046.59
499.03	36020.84
499.20	36273.62
499.38	36613.00
499.56	36416.40
499.73	36809.61
499.91	36423.42
500.08	37230.90
500.26	36601.30
500.44	37146.64
500.61	37654.54
500.79	37507.08
500.97	37680.28
501.14	37958.81
501.32	38272.44
501.49	37706.03
501.67	38064.13
501.84	38801.40
502.02	38506.49
502.20	38895.02
502.37	39159.50
502.55	38778.00
502.72	38815.44
502.90	38974.60
503.07	39035.45
503.25	39302.28
503.43	39049.50
503.60	39704.85
503.78	39700.17
503.95	39225.04
504.13	39974.01
504.30	40224.45
504.48	39531.65
504.65	40449.14
504.83	40942.99
505.01	40933.63
505.18	40863.41
505.36	41516.42
505.53	40840.01
505.71	41041.29
505.88	41144.28
506.06	40966.40
506.23	41537.49
506.41	41057.68
506.58	41640.47
506.76	41612.38
506.93	41883.89
507.11	41984.53
507.28	42375.40
507.46	42401.14
507.63	42363.70
507.81	42937.13
507.98	41949.42
508.16	42508.81
508.33	42623.50
508.50	42756.91
508.68	43360.76
508.85	43084.58
509.03	43140.75
509.20	43105.65
509.38	43526.94
509.55	43863.98
509.73	44069.95
509.90	43723.55
510.08	43945.90
510.25	43594.82
510.42	44109.74
510.60	44561.46
510.77	44432.73
510.95	45092.76
511.12	44533.37
511.30	44971.05
511.47	45106.80
511.64	45287.03
511.82	45729.39
511.99	45024.89
512.17	45553.85
512.34	45401.71
512.51	46127.28
512.69	45649.81
512.86	45998.55
513.04	46108.55
513.21	45928.33
513.38	45825.35
513.56	46068.76
513.73	46263.03
513.90	46431.55
514.08	46546.23
514.25	47016.68
514.43	47103.28
514.60	46782.63
514.77	46794.33
514.95	47498.83
515.12	46930.08
515.29	46990.94
515.47	47178.18
515.64	47838.21
515.81	47566.71
515.99	47618.20
516.16	47477.77
516.33	47615.86
516.51	48189.29
516.68	47887.36
516.85	48294.61
517.03	48311.00
517.20	48376.53
517.37	48238.44
517.54	48198.65
517.72	48088.65
517.89	48605.91
518.06	48706.55
518.24	48413.98
518.41	48999.12
518.58	48776.76
518.75	48701.87
518.93	48893.79
519.10	48949.96
519.27	48809.53
519.45	49169.97
519.62	49612.34
519.79	49102.10
519.96	49109.12
520.14	49289.34
520.31	49544.46
520.48	49832.35
520.65	50014.91
520.83	50103.85
521.00	49993.84
521.17	50092.15
521.34	50136.62
521.52	50038.31
521.69	50061.72
521.86	49921.29
522.03	50344.92
522.20	50618.77
522.38	50997.93
522.55	50710.05
522.72	51110.28
522.89	50464.29
523.07	51145.39
523.24	50681.96
523.41	51147.73
523.58	50981.55
523.75	51030.70
523.92	51313.90
524.10	51377.10
524.27	51599.45
524.44	51384.12
524.61	51487.10
524.78	51613.49
524.96	51648.60
525.13	52226.71
525.30	52100.32
525.47	52041.81
525.64	52102.67
525.81	52296.93
525.98	51821.80
526.16	52170.54
526.33	52086.28
526.50	52364.81
526.67	52406.94
526.84	52633.97
527.01	52315.65
527.18	52718.23
527.36	52275.87
527.53	52704.18
527.70	52907.81
527.87	53207.40
528.04	52790.78
528.21	53041.22
528.38	52982.71
528.55	53230.80
528.72	53183.99
528.89	52814.19
529.07	52839.93
529.24	52523.96
529.41	53492.94
529.58	53235.48
529.75	53310.38
529.92	53427.41
530.09	53537.41
530.26	53556.14
530.43	53338.47
530.60	53118.46
530.77	53588.91
530.94	53848.71
531.11	53471.88
531.28	53675.51
531.46	53939.99
531.63	53979.78
531.80	53872.11
531.97	54127.23
532.14	54131.91
532.31	54213.83
532.48	54632.78
532.65	54274.68
532.82	53914.24
532.99	54211.49
533.16	53991.48
533.33	54401.07
533.50	54241.92
533.67	54637.47
533.84	54223.19
534.01	54412.77
534.18	54583.63
534.35	54780.24
534.52	54665.55
534.69	54642.15
534.86	54562.57
535.03	54585.97
535.20	54637.47
535.37	55042.38
535.54	55194.51
535.71	54480.65
535.88	54972.16
536.05	55311.54
536.22	54859.82
536.38	54906.63
536.55	55077.49
536.72	55437.93
536.89	55203.88
537.06	55346.65
537.23	55550.27
537.40	55444.95
537.57	55264.73
537.74	55327.92
537.91	55601.77
538.08	55627.51
538.25	55372.39
538.42	55636.87
538.59	55945.83
538.75	55412.18
538.92	55613.47
539.09	55777.31
539.26	55824.12
539.43	55599.43
539.60	55709.43
539.77	55494.10
539.94	55999.66
540.11	56123.71
540.28	56135.41
540.44	55983.27
540.61	56200.94
540.78	55999.66
540.95	55964.55
541.12	55990.30
541.29	56353.08
541.46	56346.06
541.62	56556.70
541.79	56402.23
541.96	56549.68
542.13	56374.14
542.30	56502.87
542.47	56432.66
542.63	56547.34
542.80	56767.35
542.97	56973.32
543.14	57076.30
543.31	56842.25
543.48	57167.58
543.64	56947.57
543.81	56905.44
543.98	57144.18
544.15	57158.22
544.32	57139.50
544.48	57450.79
544.65	57045.88
544.82	57549.09
544.99	56999.07
545.16	57165.24
545.32	57256.53
545.49	57413.34
545.66	57738.68
545.83	57481.22
546.00	57811.23
546.16	57574.84
546.33	57663.78
546.50	57160.56
546.67	57453.13
546.83	57190.99
547.00	57193.33
547.17	57305.68
547.34	57649.74
547.50	57621.65
547.67	57715.27
547.84	57722.29
548.00	57764.42
548.17	58073.37
548.34	57691.86
548.51	57977.41
548.67	57755.06
548.84	57916.56
549.01	57764.42
549.18	57836.98
549.34	57944.64
549.51	57916.56
549.68	57977.41
549.84	57930.60
550.01	58014.86
550.18	57839.32
550.34	57832.30
550.51	57935.28
550.68	58255.93
550.84	57883.79
551.01	58358.92
551.18	58309.77
551.34	57848.68
551.51	58157.63
551.68	58321.47
551.84	58080.39
552.01	58068.69
552.18	58323.81
552.34	58365.94
552.51	58534.46
552.68	58487.65
552.84	58569.57
553.01	58489.99
553.18	58546.16
553.34	58356.58
553.51	58356.58
553.67	58532.12
553.84	58670.21
554.01	58838.73
554.17	58803.62
554.34	58824.68
554.51	58894.90
554.67	58913.62
554.84	58747.45
555.00	58681.91
555.17	58714.68
555.33	58707.66
555.50	58653.82
555.67	58801.28
555.83	58747.45
556.00	58827.02
556.16	58913.62
556.33	58812.98
556.50	58791.92
556.66	58986.18
556.83	58742.77
556.99	59077.46
557.16	59093.85
557.32	59278.75
557.49	59323.22
557.65	58920.65
557.82	58887.88
557.98	59061.08
558.15	59016.61
558.32	59016.61
558.48	59075.12
558.65	59241.30
558.81	59344.28
558.98	59063.42
559.14	59231.94
559.31	59124.27
559.47	59285.77
559.64	59407.48
559.80	59086.82
559.97	59323.22
560.13	59140.66
560.30	59344.28
560.46	59341.94
560.63	59384.07
560.79	59533.87
560.96	59437.90
561.12	59482.37
561.29	59199.17
561.45	59433.22
561.61	59494.08
561.78	59606.42
561.94	59725.79
562.11	59725.79
562.27	59779.62
562.44	59561.95
562.60	59751.54
562.77	59746.86
562.93	59606.42
563.10	59657.91
563.26	59416.84
563.42	59674.30
563.59	59688.34
563.75	59709.41
563.92	59671.96
564.08	59753.88
564.24	59805.37
564.41	59817.07
564.57	59496.42
564.74	59545.57
564.90	59966.87
565.07	59973.89
565.23	59756.22
565.39	59999.63
565.56	60254.75
565.72	59957.50
565.88	59898.99
566.05	59950.48
566.21	59852.18
566.38	59856.86
566.54	59702.38
566.70	59913.03
566.87	60140.07
567.03	59847.50
567.19	60301.56
567.36	60081.55
567.52	59994.95
567.68	60236.03
567.85	59835.80
568.01	59938.78
568.17	59835.80
568.34	59936.44
568.50	60231.35
568.66	60114.32
568.83	60364.76
568.99	59828.77
569.15	60214.96
569.32	60090.91
569.48	59887.29
569.64	60062.83
569.81	59966.87
569.97	59980.91
570.13	60212.62
570.30	60051.12
570.46	60198.58
570.62	60095.60
570.78	60109.64
570.95	59868.56
571.11	60257.09
571.27	60114.32
571.43	60165.81
571.60	60172.83
571.76	60147.09
571.92	60175.17
572.09	60420.93
572.25	60191.56
572.41	60247.73
572.57	60310.92
572.74	60339.01
572.90	60322.63
573.06	60259.43
573.22	60198.58
573.38	60402.21
573.55	60236.03
573.71	60519.23
573.87	60488.80
574.03	60111.98
574.20	60381.14
574.36	60264.11
574.52	60456.04
574.68	60341.35
574.84	60460.72
575.01	60346.03
575.17	60406.89
575.33	60184.54
575.49	60392.84
575.65	60439.65
575.82	60612.85
575.98	60308.58
576.14	60404.55
576.30	60486.46
576.46	60282.84
576.62	60313.26
576.79	60144.75
576.95	60299.22
577.11	60238.37
577.27	60514.55
577.43	60360.08
577.59	60371.78
577.75	60390.50
577.92	60317.95
578.08	60463.06
578.24	60324.97
578.40	60371.78
578.56	60378.80
578.72	60519.23
578.88	60580.09
579.04	60624.56
579.21	60638.60
579.37	60423.27
579.53	60788.39
579.69	60254.75
579.85	60640.94
580.01	60544.98
580.17	60537.96
580.33	60601.15
580.49	60748.60
580.65	60540.30
580.82	60849.25
580.98	60598.81
581.14	60467.74
581.30	60598.81
581.46	60479.44
581.62	60434.97
581.78	60460.72
581.94	60690.09
582.10	60214.96
582.26	60512.21
582.42	60472.42
582.58	60479.44
582.74	60411.57
582.90	60790.73
583.06	60811.80
583.22	60612.85
583.38	60633.92
583.54	60502.85
583.70	60388.16
583.86	60821.16
584.02	60509.87
584.18	60708.82
584.34	60603.49
584.50	60647.96
584.66	60633.92
584.82	60446.68
584.98	60582.43
585.14	60507.53
585.30	60722.86
585.46	60615.19
585.62	60420.93
585.78	60683.07
585.94	60804.78
586.10	60954.57
586.26	60652.64
586.42	60793.07
586.58	60975.64
586.74	60718.18
586.90	60528.59
587.06	60755.63
587.22	60739.24
587.38	60598.81
587.54	60987.34
587.70	61134.79
587.86	60975.64
588.02	61085.64
