SpectraSuite Data File
++++++++++++++++++++++++++++++++++++
Date: Thu Oct 24 13:21:29 EDT 2013
User: stostad
Dark Spectrum Present: No
Reference Spectrum Present: No
Number of Sampled Component Spectra: 1
Spectrometers: USB2+H05261
Integration Time (usec): 100000 (USB2+H05261)
Spectra Averaged: 1 (USB2+H05261)
Boxcar Smoothing: 0 (USB2+H05261)
Correct for Electrical Dark: No (USB2+H05261)
Strobe/Lamp Enabled: No (USB2+H05261)
Correct for Detector Non-linearity: No (USB2+H05261)
Correct for Stray Light: No (USB2+H05261)
Number of Pixels in Processed Spectrum: 2048
>>>>>Begin Processed Spectral Data<<<<<
365.73	571.09
365.92	571.09
366.12	571.09
366.32	528.96
366.52	510.24
366.72	510.24
366.91	491.51
367.11	444.70
367.31	514.92
367.51	470.45
367.70	416.62
367.90	454.06
368.10	456.40
368.30	458.74
368.49	484.49
368.69	498.53
368.89	514.92
369.09	512.58
369.28	571.09
369.48	498.53
369.68	528.96
369.87	479.81
370.07	507.90
370.27	526.62
370.47	711.52
370.66	1008.77
370.86	1025.15
371.06	1149.20
371.25	1050.90
371.45	1039.20
371.65	1111.75
371.84	1111.75
372.04	1062.60
372.24	1109.41
372.44	1196.01
372.63	1156.22
372.83	1170.27
373.03	1163.25
373.22	1165.59
373.42	1252.19
373.62	1170.27
373.81	1128.14
374.01	1259.21
374.21	1270.91
374.40	1296.66
374.60	1268.57
374.79	1273.25
374.99	1263.89
375.19	1284.95
375.38	1198.35
375.58	1324.74
375.78	1380.92
375.97	1345.81
376.17	1413.68
376.37	1385.60
376.56	1352.83
376.76	1294.32
376.95	1287.29
377.15	1455.81
377.35	1378.58
377.54	1341.13
377.74	1394.96
377.93	1467.52
378.13	1413.68
378.33	1474.54
378.52	1409.00
378.72	1394.96
378.91	1521.35
379.11	1479.22
379.31	1448.79
379.50	1434.75
379.70	1617.31
379.89	1483.90
380.09	1439.43
380.28	1554.12
380.48	1509.65
380.68	1516.67
380.87	1474.54
381.07	1556.46
381.26	1603.27
381.46	1544.75
381.65	1570.50
381.85	1493.26
382.04	1572.84
382.24	1584.54
382.43	1633.69
382.63	1600.93
382.83	1570.50
383.02	1598.59
383.22	1591.56
383.41	1626.67
383.61	1572.84
383.80	1647.74
384.00	1605.61
384.19	1621.99
384.39	1715.61
384.58	1748.38
384.78	1746.04
384.97	1666.46
385.17	1671.14
385.36	1657.10
385.56	1739.02
385.75	1722.63
385.95	1767.10
386.14	1722.63
386.34	1795.19
386.53	1778.81
386.72	1717.95
386.92	1837.32
387.11	1764.76
387.31	1799.87
387.50	1813.92
387.70	1792.85
387.89	1863.07
388.09	1907.54
388.28	1856.04
388.48	1860.73
388.67	1865.41
388.86	1909.88
389.06	1895.83
389.25	1987.11
389.45	1872.43
389.64	1856.04
389.84	2054.99
390.03	1982.43
390.22	2008.18
390.42	1973.07
390.61	1933.28
390.81	1959.03
391.00	1970.73
391.19	1966.05
391.39	1909.88
391.58	2052.65
391.78	2052.65
391.97	1977.75
392.16	2064.35
392.36	2106.48
392.55	2132.23
392.75	2176.70
392.94	2183.72
393.13	2167.34
393.33	2267.98
393.52	2277.34
393.71	2174.36
393.91	2277.34
394.10	2200.10
394.29	2174.36
394.49	2200.10
394.68	2195.42
394.88	2282.02
395.07	2298.41
395.26	2328.83
395.46	2286.70
395.65	2249.25
395.84	2312.45
396.04	2499.69
396.23	2377.98
396.42	2413.09
396.62	2476.29
396.81	2441.18
397.00	2476.29
397.19	2473.95
397.39	2473.95
397.58	2504.37
397.77	2441.18
397.97	2602.68
398.16	2523.10
398.35	2544.16
398.55	2647.15
398.74	2605.02
398.93	2768.85
399.12	2497.35
399.32	2703.32
399.51	2689.28
399.70	2715.02
399.90	2682.25
400.09	2754.81
400.28	2696.30
400.47	2726.72
400.67	2775.88
400.86	2693.96
401.05	2750.13
401.24	2869.50
401.44	2888.22
401.63	2981.84
401.82	2895.24
402.01	2792.26
402.21	2960.78
402.40	2984.18
402.59	2906.95
402.78	2986.52
402.97	2956.10
403.17	2986.52
403.36	2885.88
403.55	3155.04
403.74	3148.02
403.93	3166.74
404.13	3080.14
404.32	3131.64
404.51	3126.96
404.70	3164.40
404.89	3199.51
405.09	3321.22
405.28	3152.70
405.47	3290.79
405.66	3276.75
405.85	3215.90
406.05	3201.85
406.24	3421.86
406.43	3391.44
406.62	3454.63
406.81	3489.74
407.00	3382.07
407.20	3421.86
407.39	3417.18
407.58	3574.00
407.77	3632.51
407.96	3562.30
408.15	3541.23
408.34	3611.45
408.54	3641.87
408.73	3606.77
408.92	3655.92
409.11	3723.79
409.30	3702.73
409.49	3719.11
409.68	3770.60
409.87	3714.43
410.07	3875.93
410.26	3817.41
410.45	3913.38
410.64	3782.31
410.83	3843.16
411.02	3824.44
411.21	4124.02
411.40	4028.06
411.59	4198.92
411.78	4107.64
411.98	4044.45
412.17	4205.94
412.36	4332.33
412.55	4278.50
412.74	4290.20
412.93	4262.12
413.12	4320.63
413.31	4568.73
413.50	4468.08
413.69	4444.68
413.88	4554.68
414.07	4503.19
414.26	4585.11
414.45	4627.24
414.64	4620.22
414.83	4575.75
415.02	4994.70
415.22	4718.52
415.41	4748.95
415.60	4777.03
415.79	4875.34
415.98	5029.81
416.17	4854.27
416.36	4887.04
416.55	4964.28
416.74	5055.56
416.93	4983.00
417.12	5200.67
417.31	5329.40
417.50	5296.63
417.69	5338.76
417.88	5331.74
418.07	5268.55
418.26	5298.97
418.45	5322.38
418.64	5486.22
418.83	5460.47
419.02	5521.32
419.21	5593.88
419.39	5600.90
419.58	5448.77
419.77	5621.97
419.96	5760.06
420.15	5682.82
420.34	5708.57
420.53	5652.39
420.72	5724.95
420.91	5776.44
421.10	5738.99
421.29	5874.74
421.48	5797.51
421.67	5851.34
421.86	5912.19
422.05	5893.47
422.24	5795.17
422.43	5919.21
422.61	6031.56
422.80	6129.86
422.99	6083.05
423.18	5991.77
423.37	6071.35
423.56	6132.20
423.75	5994.11
423.94	6115.82
424.13	5755.38
424.32	5912.19
424.50	6181.35
424.69	6251.57
424.88	6141.57
425.07	6113.48
425.26	6090.07
425.45	6099.44
425.64	6141.57
425.83	6256.25
426.01	6033.90
426.20	6197.74
426.39	6193.06
426.58	6188.38
426.77	6167.31
426.96	6253.91
427.15	6204.76
427.33	6211.78
427.52	6303.06
427.71	6366.26
427.90	6286.68
428.09	6389.66
428.28	6642.44
428.46	6487.96
428.65	6579.25
428.84	6722.02
429.03	6715.00
429.22	6537.12
429.40	6509.03
429.59	6757.13
429.78	6527.75
429.97	6548.82
430.16	6656.48
430.34	6846.07
430.53	6876.49
430.72	6736.06
430.91	6836.70
431.10	6930.33
431.28	6920.96
431.47	6937.35
431.66	7148.00
431.85	7197.15
432.03	7246.30
432.22	7330.56
432.41	7337.58
432.60	7255.66
432.79	7180.76
432.97	7307.15
433.16	7438.22
433.35	7393.75
433.54	7328.22
433.72	7489.71
433.91	7485.03
434.10	7564.61
434.28	7382.05
434.47	7531.84
434.66	7433.54
434.85	7548.23
435.03	7826.75
435.22	7747.17
435.41	8013.99
435.59	7903.99
435.78	7929.74
435.97	7915.69
436.16	7801.01
436.34	7775.26
436.53	7995.27
436.72	7892.29
436.90	7960.16
437.09	8107.62
437.28	7845.48
437.46	7997.61
437.65	7939.10
437.84	8161.45
438.02	8051.44
438.21	8234.00
438.40	8091.23
438.58	8547.64
438.77	8482.10
438.96	8395.50
439.14	8718.50
439.33	8592.11
439.52	8610.83
439.70	8709.13
439.89	8889.35
440.08	8828.50
440.26	8894.04
440.45	8793.39
440.63	9001.70
440.82	9228.73
441.01	8950.21
441.19	9301.29
441.38	9273.20
441.57	9390.23
441.75	9516.62
441.94	9380.87
442.12	9537.68
442.31	9593.86
442.50	9771.74
442.68	9605.56
442.87	9785.78
443.05	9830.25
443.24	9830.25
443.43	9790.46
443.61	9921.53
443.80	10090.05
443.98	9699.18
444.17	9586.83
444.35	9792.80
444.54	9977.70
444.73	10059.62
444.91	9771.74
445.10	10026.86
445.28	9884.08
445.47	10090.05
445.65	10008.13
445.84	10202.40
446.02	10108.77
446.21	10076.01
446.39	9980.04
446.58	10195.37
446.77	10260.91
446.95	9975.36
447.14	10258.57
447.32	10331.12
447.51	10209.42
447.69	10253.89
447.88	10125.16
448.06	10195.37
448.25	10324.10
448.43	10403.68
448.62	10462.19
448.80	10190.69
448.99	10352.19
449.17	10483.26
449.36	10324.10
449.54	10640.08
449.73	10611.99
449.91	10813.28
450.10	10813.28
450.28	10881.15
450.46	10911.58
450.65	10766.46
450.83	10918.60
451.02	10780.51
451.20	10967.75
451.39	10855.40
451.57	11035.63
451.76	10984.13
451.94	11002.86
452.13	10965.41
452.31	11147.97
452.49	11173.72
452.68	11087.12
452.86	11154.99
453.05	11246.27
453.23	11389.05
453.42	11332.87
453.60	11162.01
453.78	11250.96
453.97	11351.60
454.15	11353.94
454.34	11342.24
454.52	11527.14
454.70	11793.96
454.89	11700.34
455.07	11592.67
455.26	11506.07
455.44	12152.06
455.62	11892.26
455.81	11875.88
455.99	12013.97
456.17	11894.60
456.36	12023.33
456.54	11974.18
456.73	12318.24
456.91	12603.78
457.09	12388.46
457.28	12688.04
457.46	12369.73
457.64	12610.81
457.83	12662.30
458.01	12470.37
458.19	12688.04
458.38	12879.97
458.56	12732.51
458.74	12704.43
458.93	12849.54
459.11	12800.39
459.29	12826.14
459.48	12791.03
459.66	12901.03
459.84	12886.99
460.03	13111.68
460.21	12919.76
460.39	13350.42
460.57	13099.98
460.76	13238.07
460.94	13322.33
461.12	13357.44
461.31	13273.18
461.49	13530.64
461.67	13298.92
461.85	13624.26
462.04	13345.73
462.22	13888.74
462.40	13900.44
462.59	13947.25
462.77	13762.35
462.95	14073.64
463.13	13717.88
463.32	13844.27
463.50	13989.38
463.68	14120.45
463.86	14029.17
464.05	13881.72
464.23	14017.47
464.41	14389.61
464.59	14038.53
464.78	14523.02
464.96	14403.66
465.14	14054.92
465.32	14211.73
465.50	14424.72
465.69	14347.48
465.87	14398.98
466.05	14249.18
466.23	14431.74
466.41	14621.33
466.60	14857.72
466.78	14499.62
466.96	14459.83
467.14	14661.12
467.32	14696.22
467.51	14651.75
467.69	14675.16
467.87	14972.41
468.05	15103.48
468.23	14766.44
468.41	14473.87
468.60	14869.42
468.78	15389.02
468.96	15112.84
469.14	15150.29
469.32	15531.80
469.50	15044.96
469.69	15161.99
469.87	15435.83
470.05	15838.41
470.23	15611.37
470.41	15831.38
470.59	15878.19
470.77	15702.65
470.95	15798.62
471.14	16222.25
471.32	15578.61
471.50	16018.63
471.68	16126.29
471.86	15847.77
472.04	16107.57
472.22	16755.90
472.40	16208.21
472.58	16453.97
472.77	16945.48
472.95	16844.84
473.13	17123.36
473.31	16727.81
473.49	16896.33
473.67	17001.65
473.85	17043.78
474.03	17579.76
474.21	17359.75
474.39	17446.35
474.57	17493.16
474.75	17914.46
474.93	18050.21
475.12	17827.86
475.30	18160.22
475.48	17907.44
475.66	17965.95
475.84	17799.77
476.02	18001.06
476.20	18230.43
476.38	18595.56
476.56	18735.99
476.74	18965.36
476.92	18799.18
477.10	18724.29
477.28	19218.14
477.46	19365.59
477.64	19309.42
477.82	19646.46
478.00	20013.92
478.18	19796.25
478.36	20294.79
478.54	20255.00
478.72	20336.91
478.90	20695.02
479.08	20980.56
479.26	21156.10
479.44	20975.88
479.62	21336.32
479.80	21352.71
479.98	21659.32
480.16	21921.46
480.34	21610.17
480.52	22251.47
480.70	22052.53
480.88	22052.53
481.06	22375.52
481.24	22452.76
481.41	23047.26
481.59	23164.28
481.77	23307.05
481.95	23321.10
482.13	23346.84
482.31	23157.26
482.49	24266.67
482.67	23871.12
482.85	24238.59
483.03	24655.20
483.21	24744.14
483.39	24877.55
483.57	24687.97
483.74	25013.31
483.92	25703.76
484.10	25406.52
484.28	25947.18
484.46	25816.11
484.64	26644.66
484.82	26178.89
485.00	26419.97
485.18	26757.00
485.35	27229.79
485.53	26967.65
485.71	27714.28
485.89	28063.02
486.07	27583.21
486.25	27922.59
486.43	27892.16
486.61	28121.54
486.78	28606.03
486.96	28926.68
487.14	29474.37
487.32	29310.53
487.50	29352.66
487.68	29757.57
487.85	30277.17
488.03	30534.63
488.21	30532.29
488.39	30340.36
488.57	30857.62
488.75	30761.66
488.92	31194.66
489.10	31707.24
489.28	31676.81
489.46	32367.27
489.64	31648.72
489.81	32428.12
489.99	32428.12
490.17	32772.18
490.35	33387.74
490.53	33464.98
490.70	33684.99
490.88	33631.16
491.06	33818.40
491.24	34007.98
491.41	33972.88
491.59	34609.50
491.77	34906.75
491.95	35103.35
492.13	34967.60
492.30	35274.21
492.48	35241.45
492.66	35772.75
492.84	35861.69
493.01	36388.31
493.19	36280.64
493.37	36362.56
493.54	36397.67
493.72	37031.96
493.90	36755.77
494.08	37207.50
494.25	37560.92
494.43	37823.06
494.61	37874.55
494.79	38267.76
494.96	38291.16
495.14	38520.54
495.32	38941.83
495.49	38794.38
495.67	39548.03
495.85	39789.11
496.02	39636.97
496.20	40062.95
496.38	40119.12
496.55	39974.01
496.73	40844.69
496.91	40648.08
497.09	41160.66
497.26	41188.75
497.44	41043.63
497.62	41432.16
497.79	41387.69
497.97	41647.49
498.14	42511.15
498.32	42663.28
498.50	42682.01
498.67	42763.93
498.85	42469.02
499.03	42768.61
499.20	43353.74
499.38	43461.41
499.56	43571.41
499.73	43658.01
499.91	43971.64
500.08	44397.62
500.26	43662.69
500.44	43878.02
500.61	44416.35
500.79	44191.65
500.97	44524.01
501.14	44975.73
501.32	44832.96
501.49	44762.75
501.67	45357.24
501.84	45151.27
502.02	45373.63
502.20	45975.14
502.37	45670.87
502.55	45750.45
502.72	45883.86
502.90	46244.30
503.07	45820.67
503.25	46347.29
503.43	46188.13
503.60	46906.68
503.78	46571.98
503.95	46649.22
504.13	47063.49
504.30	47278.82
504.48	47290.52
504.65	47435.64
504.83	47686.07
505.01	48215.04
505.18	47847.57
505.36	47892.04
505.53	47772.67
505.71	47980.98
505.88	48566.12
506.06	48032.47
506.23	48739.32
506.41	48601.22
506.58	48769.74
506.76	48889.11
506.93	49418.07
507.11	49003.80
507.28	48989.75
507.46	49188.70
507.63	49673.19
507.81	49848.73
507.98	49338.49
508.16	49485.95
508.33	49956.39
508.50	50171.72
508.68	50300.45
508.85	50358.97
509.03	50274.71
509.20	50686.64
509.38	50422.16
509.55	50452.59
509.73	50679.62
509.90	51203.90
510.08	51077.51
510.25	51089.21
510.42	51599.45
510.60	51304.54
510.77	51491.79
510.95	51803.08
511.12	51737.54
511.30	51924.78
511.47	51803.08
511.64	52184.58
511.82	52231.40
511.99	51669.67
512.17	52044.15
512.34	52460.77
512.51	52664.39
512.69	52685.46
512.86	52687.80
513.04	53169.95
513.21	52767.38
513.38	52762.70
513.56	52933.56
513.73	52865.68
513.90	53399.32
514.08	53298.68
514.25	53317.40
514.43	53539.75
514.60	53296.34
514.77	53401.66
514.95	53490.60
515.12	53708.27
515.29	53567.84
515.47	54204.47
515.64	54351.92
515.81	53923.60
515.99	54211.49
516.16	54167.02
516.33	54162.34
516.51	54295.75
516.68	54398.73
516.85	54440.86
517.03	54513.42
517.20	54784.92
517.37	54614.06
517.54	54628.10
517.72	54637.47
517.89	54466.61
518.06	54726.41
518.24	54946.42
518.41	55028.34
518.58	55147.70
518.75	54997.91
518.93	55136.00
519.10	55004.93
519.27	55480.06
519.45	55451.97
519.62	55475.38
519.79	55356.01
519.96	55470.70
520.14	55519.85
520.31	55360.69
520.48	55650.92
520.65	55786.67
520.83	55891.99
521.00	56156.47
521.17	55983.27
521.34	55863.91
521.52	56151.79
521.69	56086.26
521.86	56203.28
522.03	56224.35
522.20	56346.06
522.38	56399.89
522.55	56486.49
522.72	56582.45
522.89	56687.78
523.07	56844.59
523.24	56844.59
523.41	56774.37
523.58	56839.91
523.75	57169.93
523.92	56961.62
524.10	56797.78
524.27	57373.55
524.44	57080.98
524.61	57057.58
524.78	57329.08
524.96	57284.61
525.13	57366.53
525.30	57595.90
525.47	57698.89
525.64	57432.07
525.81	57764.42
525.98	57586.54
526.16	57422.70
526.33	57586.54
526.50	57846.34
526.67	57366.53
526.84	57909.53
527.01	57829.96
527.18	57918.90
527.36	58014.86
527.53	57996.13
527.70	58316.79
527.87	58335.51
528.04	58220.83
528.21	58567.23
528.38	58520.41
528.55	58312.11
528.72	58157.63
528.89	58298.06
529.07	58288.70
529.24	58382.32
529.41	58583.61
529.58	58635.10
529.75	58534.46
529.92	58740.42
530.09	58707.66
530.26	58604.67
530.43	58504.03
530.60	58733.40
530.77	58864.47
530.94	58944.05
531.11	58808.30
531.28	59025.97
531.46	58815.32
531.63	59004.91
531.80	58993.20
531.97	59002.56
532.14	59143.00
532.31	59018.95
532.48	59229.60
532.65	59363.01
532.82	59262.36
532.99	59344.28
533.16	59159.38
533.33	59269.39
533.50	59765.58
533.67	59503.44
533.84	59519.82
534.01	59765.58
534.18	59583.02
534.35	59861.54
534.52	59594.72
534.69	59854.52
534.86	59592.38
535.03	59437.90
535.20	59868.56
535.37	60053.47
535.54	60121.34
535.71	59784.30
535.88	60137.72
536.05	60102.62
536.22	60137.72
536.38	60217.30
536.55	60320.29
536.72	60236.03
536.89	60116.66
537.06	60505.19
537.23	60460.72
537.40	60488.80
537.57	60411.57
537.74	60133.04
537.91	60292.20
538.08	60432.63
538.25	60371.78
538.42	60416.25
538.59	60610.51
538.75	60472.42
538.92	60619.88
539.09	60549.66
539.26	60507.53
539.43	60402.21
539.60	60732.22
539.77	60535.62
539.94	60851.59
540.11	60989.68
540.28	61048.19
540.44	61172.24
540.61	60811.80
540.78	60764.99
540.95	60977.98
541.12	61041.17
541.29	61120.75
541.46	61132.45
541.62	61457.79
541.79	61284.59
541.96	61134.79
542.13	61193.31
542.30	61083.30
542.47	61085.64
542.63	61275.22
542.80	61469.49
542.97	61577.15
543.14	61853.34
543.31	61656.73
543.48	61815.89
543.64	61790.14
543.81	61893.13
543.98	61659.07
544.15	61764.40
544.32	61886.10
544.48	61764.40
544.65	61982.07
544.82	62031.22
544.99	61829.93
545.16	62031.22
545.32	61935.26
545.49	62019.52
545.66	62183.35
545.83	62312.08
546.00	62415.07
546.16	62496.98
546.33	62284.00
546.50	62143.56
546.67	62433.79
546.83	61785.46
547.00	62173.99
547.17	62145.90
547.34	62159.95
547.50	62293.36
547.67	62504.01
547.84	62543.80
548.00	62518.05
548.17	62707.63
548.34	62475.92
548.51	62391.66
548.67	62340.17
548.84	62602.31
549.01	62466.56
549.18	62625.71
549.34	62595.29
549.51	62768.49
549.68	62606.99
549.84	62560.18
550.01	62623.37
550.18	62466.56
550.34	62635.08
550.51	62628.05
550.68	62822.32
550.84	62513.37
551.01	62789.55
551.18	62632.74
551.34	62555.50
551.51	62798.91
551.68	62831.68
551.84	62810.62
552.01	62759.12
552.18	63018.92
552.34	62937.01
552.51	63086.80
552.68	62988.50
552.84	63215.53
553.01	63168.72
553.18	63227.23
553.34	63180.42
553.51	62922.96
553.67	62913.60
553.84	63332.56
554.01	63393.41
554.17	63283.40
554.34	63323.19
554.51	63339.58
554.67	63440.22
554.84	63323.19
555.00	63178.08
555.17	63072.76
555.33	63344.26
555.50	63180.42
555.67	63468.31
555.83	63449.58
556.00	63489.37
556.16	63634.48
556.33	63552.57
556.50	63320.85
556.66	63428.52
556.83	63140.63
556.99	63625.12
557.16	63887.26
557.32	63814.71
557.49	63821.73
557.65	63728.11
557.82	63636.83
557.98	63519.80
558.15	63613.42
558.32	63693.00
558.48	63685.98
558.65	63903.65
558.81	63774.92
558.98	63774.92
559.14	63730.45
559.31	63838.11
559.47	63875.56
559.64	63833.43
559.80	63898.97
559.97	63957.48
560.13	63924.71
560.30	63943.44
560.46	64224.30
560.63	64058.12
560.79	64217.28
560.96	64193.87
561.12	64060.46
561.29	64034.72
561.45	64039.40
561.61	64191.53
561.78	64011.31
561.94	64322.60
562.11	64163.45
562.27	64409.20
562.44	64364.73
562.60	64343.67
562.77	64179.83
562.93	64151.74
563.10	64395.16
563.26	64004.29
563.42	64350.69
563.59	64189.19
563.75	64353.03
563.92	64507.50
564.08	64203.24
564.24	64294.52
564.41	64226.64
564.57	64109.61
564.74	64470.06
564.90	64329.62
565.07	64236.00
565.23	64474.74
565.39	64343.67
565.56	64697.09
565.72	64441.97
565.88	64444.31
566.05	64376.43
566.21	64320.26
566.38	64446.65
566.54	64322.60
566.70	64437.29
566.87	64603.47
567.03	64540.27
567.19	64671.34
567.36	64760.28
567.52	64505.16
567.68	64594.10
567.85	64446.65
568.01	64542.61
568.17	64563.68
568.34	64601.13
568.50	64479.42
568.66	64568.36
568.83	64779.01
568.99	64493.46
569.15	64800.07
569.32	64491.12
569.48	64629.21
569.64	64498.14
569.81	64694.75
569.97	64645.60
570.13	64720.49
570.30	64619.85
570.46	64577.72
570.62	64617.51
570.78	64633.89
570.95	64633.89
571.11	64750.92
571.27	64722.83
571.43	64479.42
571.60	64638.57
571.76	64821.14
571.92	64697.09
572.09	65001.36
572.25	64973.27
572.41	64912.42
572.57	64821.14
572.74	64989.66
572.90	64718.15
573.06	64839.86
573.22	64825.82
573.38	64842.20
573.55	64800.07
573.71	65094.98
573.87	65038.81
574.03	64612.83
574.20	64980.29
574.36	64760.28
574.52	64891.35
574.68	64889.01
574.84	65015.40
575.01	64968.59
575.17	65031.78
575.33	64832.84
575.49	64938.16
575.65	65153.49
575.82	64970.93
575.98	65076.26
576.14	65017.74
576.30	65038.81
576.46	65031.78
576.62	64839.86
576.79	64900.71
576.95	64781.35
577.11	65024.76
577.27	65050.51
577.43	65048.17
577.59	64959.23
577.75	65087.96
577.92	64928.80
578.08	64931.14
578.24	65015.40
578.40	65057.53
578.56	65048.17
578.72	65073.91
578.88	65230.73
579.04	65329.03
579.21	65141.79
579.37	65202.64
579.53	65322.01
579.69	65048.17
579.85	65031.78
580.01	65055.19
580.17	65118.38
580.33	65001.36
580.49	65062.21
580.65	65130.09
580.82	65169.88
580.98	65083.28
581.14	65193.28
581.30	65422.65
581.46	64947.53
581.62	65118.38
581.78	65036.47
581.94	65251.80
582.10	65219.03
582.26	65221.37
582.42	65066.89
582.58	65226.05
582.74	65195.62
582.90	65251.80
583.06	65237.75
583.22	65094.98
583.38	65118.38
583.54	65083.28
583.70	65043.49
583.86	65336.05
584.02	65214.35
584.18	65403.93
584.34	65223.71
584.50	65261.16
584.66	65284.56
584.82	65055.19
584.98	65345.42
585.14	65195.62
585.30	65073.91
585.46	65125.41
585.62	65214.35
585.78	65460.10
585.94	65069.23
586.10	65272.86
586.26	65310.31
586.42	65535.00
586.58	65441.38
586.74	65134.77
586.90	65118.38
587.06	65212.01
587.22	65469.46
587.38	65251.80
