SpectraSuite Data File
++++++++++++++++++++++++++++++++++++
Date: Thu Oct 24 13:21:36 EDT 2013
User: stostad
Dark Spectrum Present: No
Reference Spectrum Present: No
Number of Sampled Component Spectra: 1
Spectrometers: USB2+H05261
Integration Time (usec): 100000 (USB2+H05261)
Spectra Averaged: 1 (USB2+H05261)
Boxcar Smoothing: 0 (USB2+H05261)
Correct for Electrical Dark: No (USB2+H05261)
Strobe/Lamp Enabled: No (USB2+H05261)
Correct for Detector Non-linearity: No (USB2+H05261)
Correct for Stray Light: No (USB2+H05261)
Number of Pixels in Processed Spectrum: 2048
>>>>>Begin Processed Spectral Data<<<<<
365.73	627.26
365.92	627.26
366.12	627.26
366.32	475.13
366.52	461.09
366.72	468.11
366.91	519.60
367.11	561.73
367.31	484.49
367.51	468.11
367.70	510.24
367.90	425.98
368.10	503.22
368.30	447.04
368.49	498.53
368.69	526.62
368.89	461.09
369.09	575.77
369.28	454.06
369.48	521.94
369.68	484.49
369.87	498.53
370.07	533.64
370.27	528.96
370.47	732.59
370.66	1200.69
370.86	1224.10
371.06	1287.29
371.25	1299.00
371.45	1219.42
371.65	1331.76
371.84	1296.66
372.04	1303.68
372.24	1322.40
372.44	1268.57
372.63	1343.47
372.83	1413.68
373.03	1420.71
373.22	1322.40
373.42	1341.13
373.62	1334.11
373.81	1373.89
374.01	1526.03
374.21	1483.90
374.40	1474.54
374.60	1500.28
374.79	1561.14
374.99	1469.86
375.19	1425.39
375.38	1591.56
375.58	1458.15
375.78	1584.54
375.97	1507.30
376.17	1558.80
376.37	1497.94
376.56	1643.06
376.76	1575.18
376.95	1444.11
377.15	1636.03
377.35	1577.52
377.54	1579.86
377.74	1568.16
377.93	1605.61
378.13	1582.20
378.33	1680.50
378.52	1659.44
378.72	1666.46
378.91	1687.53
379.11	1607.95
379.31	1689.87
379.50	1699.23
379.70	1708.59
379.89	1783.49
380.09	1657.10
380.28	1753.06
380.48	1774.13
380.68	1806.89
380.87	1764.76
381.07	1762.42
381.26	1776.47
381.46	1844.34
381.65	1783.49
381.85	1813.92
382.04	1827.96
382.24	1837.32
382.43	1884.13
382.63	1823.28
382.83	1830.30
383.02	1947.33
383.22	1900.52
383.41	1928.60
383.61	1956.69
383.80	1947.33
384.00	1959.03
384.19	1933.28
384.39	1891.15
384.58	1982.43
384.78	1984.77
384.97	2047.97
385.17	2017.54
385.36	2017.54
385.56	2008.18
385.75	2076.06
385.95	2031.58
386.14	2066.69
386.34	2015.20
386.53	2097.12
386.72	2033.93
386.92	2099.46
387.11	2139.25
387.31	2176.70
387.50	2150.95
387.70	2167.34
387.89	2097.12
388.09	2172.02
388.28	2076.06
388.48	2157.97
388.67	2282.02
388.86	2275.00
389.06	2286.70
389.25	2272.66
389.45	2190.74
389.64	2305.43
389.84	2417.77
390.03	2342.88
390.22	2457.56
390.42	2415.43
390.61	2377.98
390.81	2368.62
391.00	2445.86
391.19	2382.67
391.39	2408.41
391.58	2434.16
391.78	2399.05
391.97	2431.82
392.16	2516.08
392.36	2511.39
392.55	2492.67
392.75	2466.92
392.94	2588.63
393.13	2602.68
393.33	2626.08
393.52	2654.17
393.71	2583.95
393.91	2775.88
394.10	2803.96
394.29	2654.17
394.49	2689.28
394.68	2729.06
394.88	2773.53
395.07	2773.53
395.26	2878.86
395.46	2818.00
395.65	2810.98
395.84	2876.52
396.04	2932.69
396.23	2848.43
396.42	3028.65
396.62	2911.63
396.81	2932.69
397.00	2963.12
397.19	2916.31
397.39	3030.99
397.58	3002.91
397.77	2972.48
397.97	2965.46
398.16	3112.91
398.35	3091.85
398.55	3023.97
398.74	3159.72
398.93	3152.70
399.12	3141.00
399.32	3133.98
399.51	3276.75
399.70	3318.88
399.90	3148.02
400.09	3272.07
400.28	3290.79
400.47	3286.11
400.67	3314.20
400.86	3414.84
401.05	3370.37
401.24	3407.82
401.44	3468.67
401.63	3454.63
401.82	3384.41
402.01	3548.25
402.21	3545.91
402.40	3578.68
402.59	3599.74
402.78	3707.41
402.97	3641.87
403.17	3672.30
403.36	3620.81
403.55	3648.90
403.74	3688.68
403.93	3744.86
404.13	3843.16
404.32	3784.65
404.51	3887.63
404.70	3812.73
404.89	3857.20
405.09	4007.00
405.28	3932.10
405.47	3983.59
405.66	4053.81
405.85	3934.44
406.05	3962.53
406.24	3936.78
406.43	4011.68
406.62	4299.56
406.81	4205.94
407.00	4133.39
407.20	4112.32
407.39	4241.05
407.58	4325.31
407.77	4313.61
407.96	4372.12
408.15	4252.75
408.34	4269.14
408.54	4440.00
408.73	4308.93
408.92	4369.78
409.11	4505.53
409.30	4681.07
409.49	4636.60
409.68	4573.41
409.87	4552.34
410.07	4690.43
410.26	4540.64
410.45	4545.32
410.64	4660.01
410.83	4800.44
411.02	4720.86
411.21	4823.84
411.40	4814.48
411.59	5022.79
411.78	5013.43
411.98	4952.57
412.17	5022.79
412.36	5132.79
412.55	5107.05
412.74	5109.39
412.93	5186.63
413.12	5100.03
413.31	5352.81
413.50	5390.25
413.69	5387.91
413.88	5268.55
414.07	5486.22
414.26	5610.26
414.45	5556.43
414.64	5671.12
414.83	5736.65
415.02	5596.22
415.22	5783.46
415.41	5806.87
415.60	5738.99
415.79	5841.98
415.98	5996.45
416.17	5879.43
416.36	6015.18
416.55	5982.41
416.74	6197.74
416.93	6066.67
417.12	6230.51
417.31	6167.31
417.50	6237.53
417.69	6436.47
417.88	6277.32
418.07	6518.39
418.26	6569.88
418.45	6532.44
418.64	6698.61
418.83	6745.42
419.02	6623.72
419.21	6630.74
419.39	6787.55
419.58	6691.59
419.77	6527.75
419.96	6815.64
420.15	6958.41
420.34	6876.49
420.53	7054.37
420.72	6946.71
420.91	6869.47
421.10	7119.91
421.29	7077.78
421.48	7056.72
421.67	7080.12
421.86	6977.14
422.05	7068.42
422.24	7145.66
422.43	7246.30
422.61	7176.08
422.80	7227.57
422.99	7239.28
423.18	7220.55
423.37	7239.28
423.56	7232.26
423.75	7346.94
423.94	6981.82
424.13	6792.23
424.32	7117.57
424.50	7391.41
424.69	7520.14
424.88	7559.93
425.07	7438.22
425.26	7241.62
425.45	7267.36
425.64	7407.80
425.83	7463.97
426.01	7386.73
426.20	7552.91
426.39	7630.15
426.58	7564.61
426.77	7492.05
426.96	7243.96
427.15	7508.44
427.33	7747.17
427.52	7590.36
427.71	7868.88
427.90	7641.85
428.09	7728.45
428.28	7941.44
428.46	7882.92
428.65	7922.71
428.84	8016.33
429.03	8109.96
429.22	7913.35
429.40	8067.83
429.59	8128.68
429.78	7700.36
429.97	7782.28
430.16	7943.78
430.34	8287.84
430.53	8318.26
430.72	8283.16
430.91	8217.62
431.10	8416.57
431.28	8332.31
431.47	8437.63
431.66	8730.20
431.85	8386.14
432.03	8643.60
432.22	8652.96
432.41	8484.44
432.60	8755.94
432.79	8711.47
432.97	8772.33
433.16	8802.75
433.35	8720.84
433.54	8865.95
433.72	9130.43
433.91	8961.91
434.10	9015.74
434.28	8980.64
434.47	9111.71
434.66	9135.11
434.85	9240.44
435.03	9235.75
435.22	9392.57
435.41	9853.66
435.59	9554.07
435.78	9558.75
435.97	9675.77
436.16	9198.31
436.34	9572.79
436.53	9500.23
436.72	9816.21
436.90	9320.01
437.09	9790.46
437.28	9682.80
437.46	9717.90
437.65	9549.39
437.84	9984.73
438.02	9668.75
438.21	9902.81
438.40	9844.29
438.58	10167.29
438.77	10057.28
438.96	10115.80
439.14	10310.06
439.33	10593.26
439.52	10780.51
439.70	10448.15
439.89	10813.28
440.08	10850.72
440.26	10836.68
440.45	10593.26
440.63	11000.52
440.82	11250.96
441.01	10927.96
441.19	11162.01
441.38	11147.97
441.57	11288.40
441.75	11398.41
441.94	11527.14
442.12	11513.10
442.31	11665.23
442.50	11475.65
442.68	11735.45
442.87	11382.03
443.05	11793.96
443.24	11929.71
443.43	11836.09
443.61	12065.46
443.80	12145.04
443.98	11873.54
444.17	11477.99
444.35	11901.62
444.54	11997.59
444.73	12205.89
444.91	12145.04
445.10	12140.36
445.28	12166.10
445.47	11999.93
445.65	11983.54
445.84	11988.22
446.02	12383.77
446.21	12456.33
446.39	12332.28
446.58	12278.45
446.77	12299.52
446.95	12112.27
447.14	12198.87
447.32	12608.47
447.51	12451.65
447.69	12320.58
447.88	12512.50
448.06	12322.92
448.25	12292.49
448.43	12510.16
448.62	12437.61
448.80	12535.91
448.99	12662.30
449.17	12631.87
449.36	12685.70
449.54	12823.80
449.73	13167.85
449.91	12994.65
450.10	13081.25
450.28	13327.01
450.46	13233.39
450.65	13207.64
450.83	13202.96
451.02	13221.69
451.20	13390.20
451.39	13582.13
451.57	13270.84
451.76	13277.86
451.94	13289.56
452.13	13532.98
452.31	13762.35
452.49	13401.91
452.68	13743.63
452.86	13635.96
453.05	13467.44
453.23	14019.81
453.42	13673.41
453.60	13460.42
453.78	14090.02
453.97	13776.39
454.15	13905.12
454.34	13809.16
454.52	14281.95
454.70	14097.05
454.89	14134.50
455.07	14164.92
455.26	14300.67
455.44	14544.09
455.62	14633.03
455.81	14218.75
455.99	14618.99
456.17	14583.88
456.36	14572.18
456.54	14768.78
456.73	15082.41
456.91	15211.14
457.09	15171.35
457.28	15260.29
457.46	15218.16
457.64	15353.91
457.83	15300.08
458.01	15063.69
458.19	15543.50
458.38	15730.74
458.56	15744.78
458.74	15765.85
458.93	15700.31
459.11	15824.36
459.29	15548.18
459.48	15733.08
459.66	15768.19
459.84	15969.48
460.03	15978.84
460.21	16304.17
460.39	16191.83
460.57	16243.32
460.76	16252.68
460.94	16482.05
461.12	16484.39
461.31	16425.88
461.49	16570.99
461.67	16409.50
461.85	16610.78
462.04	16514.82
462.22	17348.05
462.40	17053.14
462.59	17062.51
462.77	16868.24
462.95	17018.04
463.13	17205.28
463.32	17076.55
463.50	17455.72
463.68	16975.91
463.86	17287.20
464.05	16910.37
464.23	16875.26
464.41	17139.74
464.59	17013.35
464.78	17759.98
464.96	17518.91
465.14	17415.93
465.32	17399.54
465.50	17694.45
465.69	17834.88
465.87	17811.48
466.05	17879.35
466.23	17937.87
466.41	17762.33
466.60	18221.07
466.78	17727.22
466.96	17886.37
467.14	17921.48
467.32	18031.49
467.51	17958.93
467.69	17916.80
467.87	18148.51
468.05	18588.53
468.23	18178.94
468.41	18160.22
468.60	18483.21
468.78	18228.09
468.96	18455.12
469.14	18738.33
469.32	19178.35
469.50	18401.29
469.69	19176.01
469.87	19000.47
470.05	19381.98
470.23	19260.27
470.41	19300.06
470.59	19454.53
470.77	19339.85
470.95	19421.77
471.14	19667.52
471.32	19662.84
471.50	19946.05
471.68	19892.21
471.86	19822.00
472.04	20149.67
472.22	20774.60
472.40	19941.36
472.58	20210.53
472.77	20294.79
472.95	20540.54
473.13	21467.39
473.31	20503.09
473.49	20842.47
473.67	20812.04
473.85	21088.23
474.03	21460.37
474.21	21394.84
474.39	21596.12
474.57	21385.47
474.75	21977.63
474.93	22073.59
475.12	22207.00
475.30	22307.65
475.48	22012.74
475.66	22312.33
475.84	22504.25
476.02	22647.02
476.20	22569.79
476.38	22878.74
476.56	23407.70
476.74	23243.86
476.92	23297.69
477.10	23253.22
477.28	23730.69
477.46	23845.38
477.64	24067.73
477.82	24397.74
478.00	25165.44
478.18	24577.97
478.36	24900.96
478.54	24959.47
478.72	25525.88
478.90	25413.54
479.08	25998.67
479.26	25895.69
479.44	26071.23
479.62	26075.91
479.80	26298.26
479.98	26581.46
480.16	27248.52
480.34	26738.28
480.52	27117.45
480.70	27213.41
480.88	27243.84
481.06	27686.20
481.24	27379.59
481.41	28332.18
481.59	28308.78
481.77	28767.52
481.95	29008.60
482.13	28922.00
482.31	28879.87
482.49	29415.85
482.67	29570.33
482.85	29832.47
483.03	30169.51
483.21	30555.69
483.39	30829.54
483.57	30403.56
483.74	30979.33
483.92	31201.68
484.10	31126.78
484.28	31906.18
484.46	32290.03
484.64	32776.86
484.82	32301.73
485.00	32521.74
485.18	33343.27
485.35	33928.41
485.53	33680.31
485.71	34103.95
485.89	34424.60
486.07	34157.78
486.25	34653.97
486.43	34780.36
486.61	34852.92
486.78	35316.34
486.96	35620.61
487.14	35917.86
487.32	36091.06
487.50	36622.36
487.68	36734.71
487.85	37385.38
488.03	37408.78
488.21	38003.28
488.39	37376.01
488.57	38244.35
488.75	38164.78
488.92	38684.37
489.10	38880.98
489.28	39189.93
489.46	39583.14
489.64	39629.95
489.81	40524.04
489.99	40320.41
490.17	40669.15
490.35	40844.69
490.53	41418.12
490.70	41624.09
490.88	41546.85
491.06	42178.79
491.24	42450.30
491.41	42162.41
491.59	42351.99
491.77	42209.22
491.95	43115.01
492.13	43405.23
492.30	43555.03
492.48	43835.89
492.66	43695.46
492.84	44130.80
493.01	44409.32
493.19	44392.94
493.37	44865.73
493.54	45469.59
493.72	45579.59
493.90	45734.07
494.08	45780.88
494.25	46389.42
494.43	46564.96
494.61	46918.38
494.79	46782.63
494.96	46862.21
495.14	46909.02
495.32	48076.94
495.49	47449.68
495.67	47978.64
495.85	48219.72
496.02	48172.91
496.20	48687.82
496.38	48889.11
496.55	48811.87
496.73	49682.55
496.91	49151.25
497.09	49631.06
497.26	49670.85
497.44	49617.02
497.62	49895.54
497.79	50628.13
497.97	50515.78
498.14	51124.32
498.32	50946.44
498.50	50899.63
498.67	51154.75
498.85	51222.62
499.03	51632.22
499.20	51571.36
499.38	52065.22
499.56	52126.07
499.73	52261.82
499.91	52053.51
500.08	52947.60
500.26	52215.01
500.44	52673.76
500.61	53015.47
500.79	52896.11
500.97	53228.46
501.14	53249.53
501.32	53364.21
501.49	53176.97
501.67	53439.11
501.84	53949.35
502.02	53642.74
502.20	53944.67
502.37	53734.02
502.55	54000.84
502.72	53963.39
502.90	54103.82
503.07	54511.08
503.25	54618.74
503.43	54475.97
503.60	54525.12
503.78	54805.98
503.95	54363.62
504.13	54962.80
504.30	55189.83
504.48	55044.72
504.65	55414.52
504.83	55545.59
505.01	55641.56
505.18	55496.44
505.36	55604.11
505.53	55260.05
505.71	55716.45
505.88	56097.96
506.06	55887.31
506.23	56313.29
506.41	56170.52
506.58	56135.41
506.76	56350.74
506.93	56605.86
507.11	56378.82
507.28	56877.36
507.46	56844.59
507.63	56938.21
507.81	57111.41
507.98	56715.86
508.16	57132.48
508.33	57148.86
508.50	57331.42
508.68	57265.89
508.85	57696.55
509.03	57485.90
509.20	57441.43
509.38	57867.40
509.55	57813.57
509.73	57815.91
509.90	58138.91
510.08	57939.96
510.25	57972.73
510.42	58220.83
510.60	58171.67
510.77	58335.51
510.95	58604.67
511.12	58265.30
511.30	58110.82
511.47	58525.10
511.64	58489.99
511.82	58892.56
511.99	58536.80
512.17	58731.06
512.34	58688.93
512.51	58953.41
512.69	59229.60
512.86	59255.34
513.04	59341.94
513.21	59065.76
513.38	59304.49
513.56	59358.33
513.73	59522.16
513.90	59475.35
514.08	59648.55
514.25	59884.95
514.43	59849.84
514.60	59735.15
514.77	59730.47
514.95	60079.21
515.12	59845.16
515.29	60062.83
515.47	60289.86
515.64	60404.55
515.81	60191.56
515.99	60397.52
516.16	60266.45
516.33	60530.93
516.51	60544.98
516.68	60624.56
516.85	60706.47
517.03	60762.65
517.20	60757.97
517.37	60802.44
517.54	60753.29
517.72	60837.54
517.89	60722.86
518.06	61078.62
518.24	61165.22
518.41	61090.32
518.58	61240.12
518.75	61207.35
518.93	61148.84
519.10	61059.90
519.27	61408.64
519.45	61492.89
519.62	61689.50
519.79	61684.82
519.96	61504.60
520.14	61722.27
520.31	61432.04
520.48	61855.68
520.65	61661.41
520.83	62078.03
521.00	62157.61
521.17	61946.96
521.34	62099.09
521.52	62218.46
521.69	62131.86
521.86	62246.55
522.03	62269.95
522.20	62515.71
522.38	62623.37
522.55	62642.10
522.72	62461.88
522.89	62576.56
523.07	62651.46
523.24	62660.82
523.41	62728.70
523.58	62585.92
523.75	62717.00
523.92	62845.72
524.10	62922.96
524.27	63091.48
524.44	62871.47
524.61	63203.83
524.78	63058.71
524.96	63098.50
525.13	63208.51
525.30	63344.26
525.47	63433.20
525.64	63276.38
525.81	63248.30
525.98	63405.11
526.16	63400.43
526.33	63353.62
526.50	63793.64
526.67	63587.67
526.84	63664.91
527.01	63606.40
527.18	63690.66
527.36	63735.13
527.53	63688.32
527.70	63964.50
527.87	63903.65
528.04	63920.03
528.21	64104.93
528.38	64053.44
528.55	64149.40
528.72	64008.97
528.89	64245.36
529.07	64130.68
529.24	63945.78
529.41	64130.68
529.58	64212.60
529.75	64385.80
529.92	64399.84
530.09	64299.20
530.26	64456.01
530.43	64521.55
530.60	64315.58
530.77	64498.14
530.94	64460.69
531.11	64505.16
531.28	64832.84
531.46	64818.80
531.63	64816.46
531.80	64940.50
531.97	64809.43
532.14	64802.41
532.31	64844.54
532.48	65045.83
532.65	65043.49
532.82	64956.89
532.99	65087.96
533.16	64896.03
533.33	64966.25
533.50	65242.43
533.67	64999.02
533.84	65200.30
534.01	65272.86
534.18	65289.24
534.35	65460.10
534.52	65483.51
534.69	65310.31
534.86	65368.82
535.03	65333.71
535.20	65429.68
535.37	65535.00
535.54	65535.00
535.71	65535.00
535.88	65535.00
536.05	65535.00
536.22	65535.00
536.38	65535.00
536.55	65535.00
536.72	65535.00
536.89	65535.00
537.06	65535.00
537.23	65535.00
537.40	65535.00
537.57	65535.00
537.74	65535.00
537.91	65535.00
538.08	65535.00
538.25	65535.00
538.42	65535.00
538.59	65535.00
538.75	65535.00
538.92	65535.00
539.09	65535.00
539.26	65535.00
539.43	65535.00
539.60	65535.00
539.77	65535.00
539.94	65535.00
540.11	65535.00
540.28	65535.00
540.44	65535.00
540.61	65535.00
540.78	65535.00
540.95	65535.00
541.12	65535.00
541.29	65535.00
541.46	65535.00
541.62	65535.00
541.79	65535.00
541.96	65535.00
542.13	65535.00
542.30	65535.00
542.47	65535.00
542.63	65535.00
542.80	65535.00
542.97	65535.00
543.14	65535.00
543.31	65535.00
543.48	65535.00
543.64	65535.00
543.81	65535.00
543.98	65535.00
544.15	65535.00
544.32	65535.00
544.48	65535.00
544.65	65535.00
544.82	65535.00
544.99	65535.00
545.16	65535.00
545.32	65535.00
545.49	65535.00
545.66	65535.00
545.83	65535.00
546.00	65535.00
546.16	65535.00
546.33	65535.00
546.50	65535.00
546.67	65535.00
546.83	65535.00
547.00	65535.00
547.17	65535.00
547.34	65535.00
547.50	65535.00
547.67	65535.00
547.84	65535.00
548.00	65535.00
548.17	65535.00
548.34	65535.00
548.51	65535.00
548.67	65535.00
548.84	65535.00
549.01	65535.00
549.18	65535.00
549.34	65535.00
549.51	65535.00
549.68	65535.00
549.84	65535.00
550.01	65535.00
550.18	65535.00
550.34	65535.00
550.51	65535.00
550.68	65535.00
550.84	65535.00
551.01	65535.00
551.18	65535.00
551.34	65535.00
551.51	65535.00
551.68	65535.00
551.84	65535.00
552.01	65535.00
552.18	65535.00
552.34	65535.00
552.51	65535.00
552.68	65535.00
552.84	65535.00
553.01	65535.00
553.18	65535.00
553.34	65535.00
553.51	65535.00
553.67	65535.00
553.84	65535.00
554.01	65535.00
554.17	65535.00
554.34	65535.00
554.51	65535.00
554.67	65535.00
554.84	65535.00
555.00	65535.00
555.17	65535.00
555.33	65535.00
555.50	65535.00
555.67	65535.00
555.83	65535.00
556.00	65535.00
556.16	65535.00
556.33	65535.00
556.50	65535.00
556.66	65535.00
556.83	65535.00
556.99	65535.00
557.16	65535.00
557.32	65535.00
557.49	65535.00
557.65	65535.00
557.82	65535.00
557.98	65535.00
558.15	65535.00
558.32	65535.00
558.48	65535.00
558.65	65535.00
558.81	65535.00
558.98	65535.00
559.14	65535.00
559.31	65535.00
559.47	65535.00
559.64	65535.00
559.80	65535.00
559.97	65535.00
560.13	65535.00
560.30	65535.00
560.46	65535.00
560.63	65535.00
560.79	65535.00
560.96	65535.00
561.12	65535.00
561.29	65535.00
561.45	65535.00
561.61	65535.00
561.78	65535.00
561.94	65535.00
562.11	65535.00
562.27	65535.00
562.44	65535.00
562.60	65535.00
562.77	65535.00
562.93	65535.00
563.10	65535.00
563.26	65535.00
563.42	65535.00
563.59	65535.00
563.75	65535.00
563.92	65535.00
564.08	65535.00
564.24	65535.00
564.41	65535.00
564.57	65535.00
564.74	65535.00
564.90	65535.00
565.07	65535.00
565.23	65535.00
565.39	65535.00
565.56	65535.00
565.72	65535.00
565.88	65535.00
566.05	65535.00
566.21	65535.00
566.38	65535.00
566.54	65535.00
566.70	65535.00
566.87	65535.00
567.03	65535.00
567.19	65535.00
567.36	65535.00
567.52	65535.00
567.68	65535.00
567.85	65535.00
568.01	65535.00
568.17	65535.00
568.34	65535.00
568.50	65535.00
568.66	65535.00
568.83	65535.00
568.99	65535.00
569.15	65535.00
569.32	65535.00
569.48	65535.00
569.64	65535.00
569.81	65535.00
569.97	65535.00
570.13	65535.00
570.30	65535.00
570.46	65535.00
570.62	65535.00
570.78	65535.00
570.95	65535.00
571.11	65535.00
571.27	65535.00
571.43	65535.00
571.60	65535.00
571.76	65535.00
571.92	65535.00
572.09	65535.00
572.25	65535.00
572.41	65535.00
572.57	65535.00
572.74	65535.00
572.90	65535.00
573.06	65535.00
573.22	65535.00
573.38	65535.00
573.55	65535.00
573.71	65535.00
573.87	65535.00
574.03	65535.00
574.20	65535.00
574.36	65535.00
574.52	65535.00
574.68	65535.00
574.84	65535.00
575.01	65535.00
575.17	65535.00
575.33	65535.00
575.49	65535.00
575.65	65535.00
575.82	65535.00
575.98	65535.00
576.14	65535.00
576.30	65535.00
576.46	65535.00
576.62	65535.00
576.79	65535.00
576.95	65535.00
577.11	65535.00
577.27	65535.00
577.43	65535.00
577.59	65535.00
577.75	65535.00
577.92	65535.00
578.08	65535.00
578.24	65535.00
578.40	65535.00
578.56	65535.00
578.72	65535.00
578.88	65535.00
579.04	65535.00
579.21	65535.00
579.37	65535.00
579.53	65535.00
579.69	65535.00
579.85	65535.00
580.01	65535.00
580.17	65535.00
580.33	65535.00
580.49	65535.00
580.65	65535.00
580.82	65535.00
580.98	65535.00
581.14	65535.00
581.30	65535.00
581.46	65535.00
581.62	65535.00
581.78	65535.00
581.94	65535.00
582.10	65535.00
582.26	65535.00
582.42	65535.00
582.58	65535.00
582.74	65535.00
582.90	65535.00
583.06	65535.00
583.22	65535.00
583.38	65535.00
583.54	65535.00
583.70	65535.00
583.86	65535.00
584.02	65535.00
584.18	65535.00
584.34	65535.00
584.50	65535.00
584.66	65535.00
584.82	65535.00
584.98	65535.00
585.14	65535.00
585.30	65535.00
585.46	65535.00
585.62	65535.00
585.78	65535.00
585.94	65535.00
586.10	65535.00
586.26	65535.00
586.42	65535.00
586.58	65535.00
586.74	65535.00
586.90	65535.00
587.06	65535.00
