SpectraSuite Data File
++++++++++++++++++++++++++++++++++++
Date: Thu Oct 24 13:21:21 EDT 2013
User: stostad
Dark Spectrum Present: No
Reference Spectrum Present: No
Number of Sampled Component Spectra: 1
Spectrometers: USB2+H05261
Integration Time (usec): 100000 (USB2+H05261)
Spectra Averaged: 1 (USB2+H05261)
Boxcar Smoothing: 0 (USB2+H05261)
Correct for Electrical Dark: No (USB2+H05261)
Strobe/Lamp Enabled: No (USB2+H05261)
Correct for Detector Non-linearity: No (USB2+H05261)
Correct for Stray Light: No (USB2+H05261)
Number of Pixels in Processed Spectrum: 2048
>>>>>Begin Processed Spectral Data<<<<<
365.73	608.54
365.92	608.54
366.12	608.54
366.32	507.90
366.52	470.45
366.72	428.32
366.91	416.62
367.11	470.45
367.31	493.85
367.51	421.30
367.70	491.51
367.90	503.22
368.10	437.68
368.30	472.79
368.49	447.04
368.69	465.77
368.89	444.70
369.09	528.96
369.28	500.87
369.48	505.56
369.68	477.47
369.87	543.00
370.07	564.07
370.27	543.00
370.47	674.07
370.66	866.00
370.86	866.00
371.06	875.36
371.25	933.87
371.45	929.19
371.65	973.66
371.84	936.21
372.04	898.77
372.24	964.30
372.44	910.47
372.63	1025.15
372.83	1020.47
373.03	992.39
373.22	1036.86
373.42	1041.54
373.62	1046.22
373.81	1095.37
374.01	1001.75
374.21	1083.67
374.40	1015.79
374.60	1158.57
374.79	1060.26
374.99	1135.16
375.19	990.05
375.38	1069.62
375.58	1118.78
375.78	1153.88
375.97	1027.50
376.17	1095.37
376.37	1104.73
376.56	1057.92
376.76	1100.05
376.95	1050.90
377.15	1114.10
377.35	1064.94
377.54	1121.12
377.74	1114.10
377.93	1086.01
378.13	1132.82
378.33	1135.16
378.52	1081.33
378.72	1156.22
378.91	1137.50
379.11	1193.67
379.31	1144.52
379.50	1102.39
379.70	1137.50
379.89	1160.91
380.09	1221.76
380.28	1212.40
380.48	1268.57
380.68	1205.38
380.87	1111.75
381.07	1142.18
381.26	1205.38
381.46	1270.91
381.65	1156.22
381.85	1273.25
382.04	1252.19
382.24	1240.48
382.43	1214.74
382.63	1254.53
382.83	1226.44
383.02	1273.25
383.22	1268.57
383.41	1188.99
383.61	1273.25
383.80	1308.36
384.00	1212.40
384.19	1289.64
384.39	1294.32
384.58	1252.19
384.78	1324.74
384.97	1263.89
385.17	1364.53
385.36	1291.98
385.56	1308.36
385.75	1270.91
385.95	1366.87
386.14	1385.60
386.34	1310.70
386.53	1341.13
386.72	1387.94
386.92	1409.00
387.11	1366.87
387.31	1364.53
387.50	1390.28
387.70	1448.79
387.89	1369.21
388.09	1369.21
388.28	1373.89
388.48	1390.28
388.67	1444.11
388.86	1399.64
389.06	1423.05
389.25	1397.30
389.45	1521.35
389.64	1409.00
389.84	1490.92
390.03	1483.90
390.22	1460.49
390.42	1469.86
390.61	1441.77
390.81	1500.28
391.00	1500.28
391.19	1490.92
391.39	1497.94
391.58	1500.28
391.78	1582.20
391.97	1521.35
392.16	1544.75
392.36	1624.33
392.55	1561.14
392.75	1547.09
392.94	1558.80
393.13	1598.59
393.33	1720.29
393.52	1631.35
393.71	1570.50
393.91	1710.93
394.10	1619.65
394.29	1701.57
394.49	1640.72
394.68	1654.76
394.88	1696.89
395.07	1614.97
395.26	1708.59
395.46	1657.10
395.65	1760.08
395.84	1741.36
396.04	1767.10
396.23	1724.97
396.42	1809.23
396.62	1830.30
396.81	1935.62
397.00	1799.87
397.19	1774.13
397.39	1813.92
397.58	1909.88
397.77	1830.30
397.97	1923.92
398.16	1867.75
398.35	1905.20
398.55	1844.34
398.74	1900.52
398.93	1940.30
399.12	1863.07
399.32	1933.28
399.51	1888.81
399.70	1996.48
399.90	2069.03
400.09	1977.75
400.28	2047.97
400.47	2157.97
400.67	2076.06
400.86	2026.90
401.05	2017.54
401.24	2015.20
401.44	1998.82
401.63	2143.93
401.82	2157.97
402.01	2050.31
402.21	2125.21
402.40	2099.46
402.59	2169.68
402.78	2237.55
402.97	2253.94
403.17	2225.85
403.36	2284.36
403.55	2190.74
403.74	2267.98
403.93	2326.49
404.13	2326.49
404.32	2305.43
404.51	2258.62
404.70	2289.04
404.89	2356.92
405.09	2403.73
405.28	2328.83
405.47	2480.97
405.66	2387.35
405.85	2464.58
406.05	2518.42
406.24	2476.29
406.43	2462.24
406.62	2586.29
406.81	2616.72
407.00	2541.82
407.20	2459.90
407.39	2628.42
407.58	2717.36
407.77	2665.87
407.96	2668.21
408.15	2597.99
408.34	2548.84
408.54	2642.46
408.73	2686.94
408.92	2712.68
409.11	2752.47
409.30	2726.72
409.49	2818.00
409.68	2881.20
409.87	2796.94
410.07	2803.96
410.26	2909.29
410.45	2857.79
410.64	2848.43
410.83	2832.05
411.02	3045.04
411.21	3038.02
411.40	2942.05
411.59	3108.23
411.78	3094.19
411.98	3038.02
412.17	3023.97
412.36	3131.64
412.55	3131.64
412.74	3274.41
412.93	3148.02
413.12	3059.08
413.31	3304.84
413.50	3157.38
413.69	3267.39
413.88	3309.52
414.07	3344.63
414.26	3419.52
414.45	3335.26
414.64	3410.16
414.83	3489.74
415.02	3438.25
415.22	3398.46
415.41	3599.74
415.60	3487.40
415.79	3604.42
415.98	3571.66
416.17	3655.92
416.36	3712.09
416.55	3632.51
416.74	3726.13
416.93	3705.07
417.12	3712.09
417.31	3992.95
417.50	3850.18
417.69	3871.25
417.88	3929.76
418.07	3845.50
418.26	3934.44
418.45	3953.16
418.64	4032.74
418.83	4105.30
419.02	3978.91
419.21	3955.51
419.39	4058.49
419.58	4056.15
419.77	4009.34
419.96	4131.05
420.15	4329.99
420.34	4278.50
420.53	4196.58
420.72	4273.82
420.91	4327.65
421.10	4283.18
421.29	4332.33
421.48	4163.81
421.67	4369.78
421.86	4301.90
422.05	4264.46
422.24	4423.61
422.43	4402.55
422.61	4432.97
422.80	4311.27
422.99	4454.04
423.18	4468.08
423.37	4582.77
423.56	4339.35
423.75	4503.19
423.94	4219.99
424.13	4222.33
424.32	4245.73
424.50	4489.15
424.69	4603.83
424.88	4540.64
425.07	4400.21
425.26	4259.78
425.45	4461.06
425.64	4421.27
425.83	4414.25
426.01	4531.28
426.20	4477.44
426.39	4711.50
426.58	4503.19
426.77	4540.64
426.96	4519.57
427.15	4636.60
427.33	4690.43
427.52	4652.98
427.71	4737.24
427.90	4826.18
428.09	4681.07
428.28	4828.53
428.46	4842.57
428.65	4774.69
428.84	4882.36
429.03	4898.74
429.22	4865.97
429.40	4791.08
429.59	4917.47
429.78	4652.98
429.97	4730.22
430.16	4992.36
430.34	5004.07
430.53	5011.09
430.72	4975.98
430.91	5069.60
431.10	5004.07
431.28	5036.83
431.47	5100.03
431.66	5249.82
431.85	5039.17
432.03	5240.46
432.22	5366.85
432.41	5247.48
432.60	5226.42
432.79	5341.10
432.97	5334.08
433.16	5352.81
433.35	5298.97
433.54	5289.61
433.72	5289.61
433.91	5451.11
434.10	5420.68
434.28	5303.65
434.47	5427.70
434.66	5413.66
434.85	5643.03
435.03	5682.82
435.22	5818.57
435.41	5858.36
435.59	5781.12
435.78	5849.00
435.97	5717.93
436.16	5778.78
436.34	5617.29
436.53	5701.54
436.72	5769.42
436.90	5607.92
437.09	5757.72
437.28	5607.92
437.46	5769.42
437.65	5607.92
437.84	5928.58
438.02	5998.79
438.21	5926.24
438.40	5860.70
438.58	6169.65
438.77	6155.61
438.96	5984.75
439.14	6155.61
439.33	6256.25
439.52	6312.42
439.70	6256.25
439.89	6340.51
440.08	6310.08
440.26	6392.00
440.45	6387.32
440.63	6668.19
440.82	6623.72
441.01	6523.07
441.19	6626.06
441.38	6644.78
441.57	6740.74
441.75	6782.87
441.94	6967.77
442.12	6766.49
442.31	6918.62
442.50	6829.68
442.68	6981.82
442.87	6953.73
443.05	7000.54
443.24	7096.50
443.43	6822.66
443.61	7164.38
443.80	7173.74
443.98	7052.03
444.17	6707.98
444.35	7037.99
444.54	7241.62
444.73	7061.40
444.91	7274.38
445.10	7150.34
445.28	7176.08
445.47	7098.84
445.65	7370.35
445.84	7339.92
446.02	7384.39
446.21	7178.42
446.39	7187.79
446.58	7360.98
446.77	7386.73
446.95	7197.15
447.14	7290.77
447.32	7358.64
447.51	7274.38
447.69	7260.34
447.88	7269.70
448.06	7265.02
448.25	7337.58
448.43	7335.24
448.62	7400.77
448.80	7356.30
448.99	7506.10
449.17	7456.95
449.36	7531.84
449.54	7506.10
449.73	7674.62
449.91	7777.60
450.10	7688.66
450.28	7702.70
450.46	8067.83
450.65	7702.70
450.83	7857.18
451.02	7852.50
451.20	7964.84
451.39	8049.10
451.57	8133.36
451.76	7695.68
451.94	7915.69
452.13	7901.65
452.31	7901.65
452.49	7892.29
452.68	8177.83
452.86	7995.27
453.05	8187.19
453.23	7936.76
453.42	8252.73
453.60	8084.21
453.78	8290.18
453.97	8212.94
454.15	8184.85
454.34	7925.05
454.52	8283.16
454.70	8344.01
454.89	8355.71
455.07	8442.31
455.26	8418.91
455.44	8496.14
455.62	8470.40
455.81	8463.38
455.99	8545.30
456.17	8667.00
456.36	8624.87
456.54	8842.54
456.73	8739.56
456.91	8931.48
457.09	8821.48
457.28	9025.11
457.46	8908.08
457.64	8875.31
457.83	8990.00
458.01	9163.20
458.19	9226.39
458.38	8975.95
458.56	8980.64
458.74	9125.75
458.93	9245.12
459.11	9256.82
459.29	9329.38
459.48	9310.65
459.66	9160.86
459.84	9273.20
460.03	9427.68
460.21	9350.44
460.39	9327.03
460.57	9476.83
460.76	9420.66
460.94	9518.96
461.12	9612.58
461.31	9383.21
461.49	9535.34
461.67	9575.13
461.85	9731.95
462.04	9549.39
462.22	10022.17
462.40	9961.32
462.59	9743.65
462.77	9741.31
462.95	9989.41
463.13	9722.59
463.32	9851.31
463.50	9989.41
463.68	10005.79
463.86	10045.58
464.05	9816.21
464.23	9947.28
464.41	10052.60
464.59	9928.55
464.78	10029.20
464.96	10019.83
465.14	10076.01
465.32	10026.86
465.50	10143.88
465.69	10183.67
465.87	10146.22
466.05	10190.69
466.23	10228.14
466.41	10298.36
466.60	10476.24
466.78	10347.51
466.96	10354.53
467.14	10462.19
467.32	10544.11
467.51	10611.99
467.69	10258.57
467.87	10469.22
468.05	10663.48
468.23	10478.58
468.41	10483.26
468.60	10672.84
468.78	10738.38
468.96	10670.50
469.14	10897.53
469.32	10904.56
469.50	10661.14
469.69	11059.03
469.87	10719.65
470.05	11236.91
470.23	10918.60
470.41	11084.78
470.59	11154.99
470.77	11379.68
470.95	11136.27
471.14	11246.27
471.32	11049.67
471.50	11386.71
471.68	11246.27
471.86	11311.81
472.04	11728.42
472.22	11932.05
472.40	11433.52
472.58	11468.62
472.77	11967.16
472.95	11819.71
473.13	12159.08
473.31	11690.98
473.49	11758.85
473.67	11840.77
473.85	11974.18
474.03	12287.81
474.21	12149.72
474.39	12215.26
474.57	12226.96
474.75	12353.35
474.93	12666.98
475.12	12451.65
475.30	12692.73
475.48	12559.31
475.66	12798.05
475.84	12802.73
476.02	13027.42
476.20	12840.18
476.38	13212.32
476.56	13209.98
476.74	13228.71
476.92	13245.09
477.10	13228.71
477.28	13565.74
477.46	13479.15
477.64	13532.98
477.82	13830.23
478.00	13984.70
478.18	14097.05
478.36	14099.39
478.54	14230.46
478.72	14083.00
478.90	14352.16
479.08	14775.80
479.26	14761.76
479.44	14801.55
479.62	14878.79
479.80	14930.28
479.98	15356.25
480.16	15529.45
480.34	15276.68
480.52	15250.93
480.70	15613.71
480.88	15218.16
481.06	15791.59
481.24	15712.02
481.41	15712.02
481.59	16126.29
481.77	16107.57
481.95	16432.90
482.13	16601.42
482.31	16421.20
482.49	16723.13
482.67	16767.60
482.85	16971.22
483.03	17135.06
483.21	17202.94
483.39	17539.97
483.57	17214.64
483.74	17558.70
483.92	17706.15
484.10	17467.42
484.28	17745.94
484.46	18415.34
484.64	18277.24
484.82	18104.04
485.00	18588.53
485.18	18640.03
485.35	19037.92
485.53	19281.33
485.71	19129.20
485.89	19154.94
486.07	19311.76
486.25	19335.17
486.43	19695.61
486.61	19768.16
486.78	19796.25
486.96	20320.53
487.14	20683.31
487.32	20418.83
487.50	20545.22
487.68	20594.37
487.85	21366.75
488.03	21074.18
488.21	21369.09
488.39	21479.10
488.57	21453.35
488.75	21586.76
488.92	21596.12
489.10	21898.05
489.28	22120.40
489.46	22412.97
489.64	22249.13
489.81	22927.89
489.99	22710.22
490.17	23154.92
490.35	23339.82
490.53	23002.78
490.70	23779.84
490.88	23400.68
491.06	24006.87
491.24	23901.55
491.41	24046.66
491.59	24114.54
491.77	24137.94
491.95	24575.62
492.13	24692.65
492.30	24812.02
492.48	24664.57
492.66	24954.79
492.84	24905.64
493.01	24952.45
493.19	25654.61
493.37	25558.65
493.54	25797.38
493.72	26054.84
493.90	25656.95
494.08	26331.03
494.25	26256.13
494.43	26380.18
494.61	26621.25
494.79	26583.80
494.96	26782.75
495.14	27187.66
495.32	27473.21
495.49	27307.03
495.67	27454.48
495.85	27379.59
496.02	27529.38
496.20	27819.61
496.38	27828.97
496.55	28135.58
496.73	28723.05
496.91	28453.89
497.09	28620.07
497.26	28762.84
497.44	28870.51
497.62	28650.50
497.79	29443.94
497.97	29315.21
498.14	29638.20
498.32	29563.31
498.50	29626.50
498.67	30052.48
498.85	29668.63
499.03	30146.10
499.20	30675.06
499.38	30448.03
499.56	30515.90
499.73	30618.89
499.91	30546.33
500.08	30569.74
500.26	30658.68
500.44	30787.41
500.61	31082.31
500.79	31143.17
500.97	31164.23
501.14	31639.36
501.32	31585.53
501.49	31302.32
501.67	31852.35
501.84	32079.38
502.02	31592.55
502.20	32381.31
502.37	32247.90
502.55	32137.90
502.72	32563.87
502.90	32613.02
503.07	32456.21
503.25	32575.58
503.43	32971.13
503.60	32929.00
503.78	32561.53
503.95	32617.71
504.13	32968.79
504.30	33371.36
504.48	33415.83
504.65	33928.41
504.83	34022.03
505.01	33968.19
505.18	33947.13
505.36	34569.71
505.53	34195.23
505.71	33893.30
505.88	34396.51
506.06	34019.69
506.23	34763.98
506.41	34375.45
506.58	34763.98
506.76	34382.47
506.93	34934.84
507.11	34719.51
507.28	35440.39
507.46	35152.51
507.63	35573.80
507.81	35529.33
507.98	35115.06
508.16	35166.55
508.33	35402.94
508.50	35789.13
508.68	36154.26
508.85	36051.27
509.03	36065.31
509.20	36329.80
509.38	36491.29
509.55	36662.15
509.73	36519.38
509.90	36720.66
510.08	37359.63
510.25	37017.91
510.42	36950.04
510.60	37120.90
510.77	37345.59
510.95	37235.58
511.12	37345.59
511.30	37399.42
511.47	38192.86
511.64	37429.85
511.82	37715.39
511.99	37649.86
512.17	38216.27
512.34	37951.79
512.51	38422.23
512.69	38225.63
512.86	38225.63
513.04	38883.32
513.21	38431.60
513.38	38637.56
513.56	38513.52
513.73	38520.54
513.90	39040.14
514.08	39096.31
514.25	39075.24
514.43	38981.62
514.60	39569.10
514.77	39309.30
514.95	39459.09
515.12	38895.02
515.29	39019.07
515.47	40123.80
515.64	39981.03
515.81	39929.54
515.99	39653.36
516.16	40168.27
516.33	40297.00
516.51	40243.17
516.68	40423.39
516.85	40549.78
517.03	40409.35
517.20	40804.90
517.37	40526.38
517.54	40638.72
517.72	40697.24
517.89	41132.57
518.06	40741.71
518.24	40989.80
518.41	41324.50
518.58	41598.34
518.75	40549.78
518.93	41462.59
519.10	41214.49
519.27	41289.39
519.45	41607.70
519.62	42323.91
519.79	41790.27
519.96	41851.12
520.14	41907.29
520.31	42052.41
520.48	41511.74
520.65	42263.05
520.83	42490.09
521.00	42450.30
521.17	42314.55
521.34	42878.61
521.52	42443.27
521.69	42527.53
521.86	42817.76
522.03	42724.14
522.20	42990.96
522.38	43393.53
522.55	43250.76
522.72	43168.84
522.89	43342.04
523.07	43955.26
523.24	42815.42
523.41	43463.75
523.58	43552.69
523.75	43739.93
523.92	43894.41
524.10	44027.82
524.27	43697.80
524.44	44278.25
524.61	44383.58
524.78	43992.71
524.96	43962.28
525.13	44245.49
525.30	44589.55
525.47	44636.36
525.64	44594.23
525.81	44722.96
525.98	44626.99
526.16	44594.23
526.33	44549.76
526.50	45048.29
526.67	44662.10
526.84	45069.36
527.01	45111.49
527.18	45401.71
527.36	45205.11
527.53	45125.53
527.70	45811.31
527.87	45408.73
528.04	45918.97
528.21	46087.49
528.38	45600.66
528.55	46019.61
528.72	46021.95
528.89	45198.09
529.07	45965.78
529.24	45855.78
529.41	46384.74
529.58	46078.13
529.75	46171.75
529.92	46387.08
530.09	45888.54
530.26	46143.66
530.43	46248.99
530.60	45982.16
530.77	46576.66
530.94	46660.92
531.11	46731.14
531.28	46766.24
531.46	46925.40
531.63	47093.92
531.80	46712.41
531.97	47136.05
532.14	47131.37
532.31	46927.74
532.48	47096.26
532.65	47594.79
532.82	46768.58
532.99	47470.75
533.16	47061.15
533.33	47498.83
533.50	47767.99
533.67	47615.86
533.84	47292.86
534.01	47700.12
534.18	47737.57
534.35	48217.38
534.52	47882.68
534.69	48067.58
534.86	48034.81
535.03	47751.61
535.20	47934.17
535.37	48051.20
535.54	48392.92
535.71	48020.77
535.88	48086.31
536.05	48488.88
536.22	48938.26
536.38	48311.00
536.55	48348.45
536.72	48648.03
536.89	48587.18
537.06	49043.59
537.23	49120.82
537.40	48687.82
537.57	48741.66
537.74	48942.94
537.91	49113.80
538.08	48900.81
538.25	48823.58
538.42	49401.69
538.59	49041.24
538.75	49151.25
538.92	49354.88
539.09	49214.44
539.26	49151.25
539.43	49322.11
539.60	49413.39
539.77	49406.37
539.94	49874.48
540.11	49757.45
540.28	49935.33
540.44	49729.36
540.61	49837.03
540.78	49492.97
540.95	49932.99
541.12	49820.64
541.29	49591.27
541.46	50204.49
541.62	50309.82
541.79	50756.86
541.96	49900.22
542.13	49923.63
542.30	49844.05
542.47	50120.23
542.63	50319.18
542.80	50658.56
542.97	50901.97
543.14	50813.03
543.31	50700.68
543.48	51058.79
543.64	50843.46
543.81	50904.31
543.98	50953.46
544.15	50916.01
544.32	51435.61
544.48	51739.88
544.65	51084.53
544.82	51325.61
544.99	51049.42
545.16	51182.84
545.32	50857.50
545.49	51416.89
545.66	51849.89
545.83	51690.73
546.00	51987.98
546.16	51885.00
546.33	51360.72
546.50	51608.81
546.67	51559.66
546.83	50918.35
547.00	51613.49
547.17	51480.08
547.34	51533.92
547.50	51735.20
547.67	51971.60
547.84	51866.27
548.00	52053.51
548.17	52229.05
548.34	51894.36
548.51	52294.59
548.67	52109.69
548.84	52172.88
549.01	51957.55
549.18	52184.58
549.34	52107.35
549.51	52116.71
549.68	51824.14
549.84	52013.73
550.01	51887.34
550.18	51805.42
550.34	52126.07
550.51	52168.20
550.68	52147.14
550.84	52271.18
551.01	52420.98
551.18	52259.48
551.34	52179.90
551.51	52357.78
551.68	52317.99
551.84	52076.92
552.01	52219.69
552.18	52633.97
552.34	52420.98
552.51	52811.85
552.68	52554.39
552.84	52718.23
553.01	53069.31
553.18	52587.16
553.34	53099.73
553.51	52919.51
553.67	52774.40
553.84	52877.38
554.01	52924.19
554.17	53092.71
554.34	52865.68
554.51	52924.19
554.67	53319.74
554.84	53057.60
555.00	52807.17
555.17	53059.94
555.33	53296.34
555.50	52863.34
555.67	53216.76
555.83	53153.57
556.00	53209.74
556.16	53439.11
556.33	53434.43
556.50	53020.16
556.66	53221.44
556.83	52844.62
556.99	53549.12
557.16	53670.82
557.32	53427.41
557.49	53607.63
557.65	53291.66
557.82	53326.77
557.98	53457.84
558.15	53514.01
558.32	53408.68
558.48	53256.55
558.65	53970.41
558.81	53792.53
558.98	53741.04
559.14	53497.62
559.31	53581.88
559.47	53481.24
559.64	53794.87
559.80	53439.11
559.97	53846.36
560.13	53710.61
560.30	53659.12
560.46	53881.47
560.63	53853.39
560.79	54019.56
560.96	53963.39
561.12	53954.03
561.29	53539.75
561.45	53853.39
561.61	54010.20
561.78	53996.16
561.94	53977.43
562.11	54150.63
562.27	54312.13
562.44	54202.13
562.60	54277.02
562.77	54162.34
562.93	53944.67
563.10	54358.94
563.26	53827.64
563.42	54340.22
563.59	53965.73
563.75	54319.15
563.92	54468.95
564.08	54059.35
564.24	54234.89
564.41	54372.99
564.57	54251.28
564.74	54127.23
564.90	54312.13
565.07	54660.87
565.23	54534.48
565.39	54499.37
565.56	54522.78
565.72	54066.38
565.88	54583.63
566.05	54529.80
566.21	54209.15
566.38	54527.46
566.54	54138.93
566.70	54319.15
566.87	54724.07
567.03	54660.87
567.19	54756.83
567.36	54639.81
567.52	54131.91
567.68	54574.27
567.85	54286.39
568.01	54569.59
568.17	54450.22
568.34	54628.10
568.50	54546.18
568.66	54597.68
568.83	54759.17
568.99	54387.03
569.15	54199.79
569.32	54775.56
569.48	54468.95
569.64	54534.48
569.81	54354.26
569.97	54188.08
570.13	54611.72
570.30	54548.53
570.46	54583.63
570.62	54501.71
570.78	54410.43
570.95	54738.11
571.11	54695.98
571.27	54724.07
571.43	54595.34
571.60	54557.89
571.76	54363.62
571.92	54901.95
572.09	54887.90
572.25	54965.14
572.41	54735.77
572.57	55051.74
572.74	55112.59
572.90	54745.13
573.06	54871.52
573.22	54710.02
573.38	54894.92
573.55	54768.54
573.71	55192.17
573.87	54686.62
574.03	54794.28
574.20	54827.05
574.36	54754.49
574.52	54688.96
574.68	54759.17
574.84	54969.82
575.01	54817.69
575.17	54859.82
575.33	55161.75
575.49	54862.16
575.65	55138.34
575.82	55288.13
575.98	55009.61
576.14	55018.97
576.30	54796.62
576.46	54951.10
576.62	54787.26
576.79	55035.36
576.95	54873.86
577.11	54967.48
577.27	54866.84
577.43	55213.24
577.59	55412.18
577.75	55103.23
577.92	54939.39
578.08	54979.18
578.24	54817.69
578.40	55260.05
578.56	55000.25
578.72	55531.55
578.88	55360.69
579.04	55412.18
579.21	55150.04
579.37	55257.71
579.53	55189.83
579.69	54932.37
579.85	55220.26
580.01	55112.59
580.17	55229.62
580.33	55269.41
580.49	55451.97
580.65	55231.96
580.82	55379.42
580.98	55290.48
581.14	55105.57
581.30	55372.39
581.46	55143.02
581.62	55018.97
581.78	55000.25
581.94	55325.58
582.10	55091.53
582.26	55157.06
582.42	54930.03
582.58	55196.85
582.74	55187.49
582.90	55260.05
583.06	55309.20
583.22	55063.44
583.38	55112.59
583.54	55082.17
583.70	55161.75
583.86	55089.19
584.02	55103.23
584.18	55278.77
584.34	55386.44
584.50	55419.20
584.66	54965.14
584.82	55248.35
584.98	55578.36
585.14	55269.41
585.30	55117.28
585.46	55433.25
585.62	55042.38
585.78	55597.09
585.94	55306.86
586.10	55526.87
586.26	55641.56
586.42	55407.50
586.58	55365.37
586.74	55372.39
586.90	55016.63
587.06	55313.88
587.22	55330.26
587.38	55402.82
587.54	55512.83
587.70	55882.63
587.86	55763.26
588.02	55810.07
588.18	55662.62
588.34	55468.36
588.49	55590.06
