SpectraSuite Data File
++++++++++++++++++++++++++++++++++++
Date: Thu Oct 24 13:21:12 EDT 2013
User: stostad
Dark Spectrum Present: No
Reference Spectrum Present: No
Number of Sampled Component Spectra: 1
Spectrometers: USB2+H05261
Integration Time (usec): 100000 (USB2+H05261)
Spectra Averaged: 1 (USB2+H05261)
Boxcar Smoothing: 0 (USB2+H05261)
Correct for Electrical Dark: No (USB2+H05261)
Strobe/Lamp Enabled: No (USB2+H05261)
Correct for Detector Non-linearity: No (USB2+H05261)
Correct for Stray Light: No (USB2+H05261)
Number of Pixels in Processed Spectrum: 2048
>>>>>Begin Processed Spectral Data<<<<<
365.73	641.31
365.92	641.31
366.12	641.31
366.32	505.56
366.52	433.00
366.72	428.32
366.91	404.91
367.11	447.04
367.31	395.55
367.51	514.92
367.70	486.83
367.90	390.87
368.10	444.70
368.30	407.25
368.49	472.79
368.69	451.72
368.89	526.62
369.09	535.98
369.28	531.30
369.48	440.02
369.68	521.94
369.87	489.17
370.07	524.28
370.27	613.22
370.47	540.66
370.66	697.48
370.86	763.01
371.06	732.59
371.25	725.57
371.45	683.44
371.65	734.93
371.84	767.70
372.04	702.16
372.24	755.99
372.44	772.38
372.63	739.61
372.83	802.80
373.03	798.12
373.22	774.72
373.42	851.96
373.62	748.97
373.81	765.36
374.01	844.93
374.21	770.04
374.40	734.93
374.60	866.00
374.79	788.76
374.99	772.38
375.19	739.61
375.38	791.10
375.58	791.10
375.78	779.40
375.97	805.14
376.17	849.61
376.37	795.78
376.56	837.91
376.76	816.85
376.95	844.93
377.15	798.12
377.35	816.85
377.54	791.10
377.74	851.96
377.93	763.01
378.13	894.08
378.33	837.91
378.52	741.95
378.72	784.08
378.91	877.70
379.11	823.87
379.31	800.46
379.50	828.55
379.70	816.85
379.89	835.57
380.09	779.40
380.28	887.06
380.48	800.46
380.68	833.23
380.87	828.55
381.07	814.51
381.26	870.68
381.46	887.06
381.65	922.17
381.85	884.72
382.04	795.78
382.24	898.77
382.43	800.46
382.63	835.57
382.83	861.32
383.02	971.32
383.22	898.77
383.41	903.45
383.61	877.70
383.80	882.38
384.00	828.55
384.19	898.77
384.39	924.51
384.58	884.72
384.78	915.15
384.97	880.04
385.17	901.11
385.36	821.53
385.56	868.34
385.75	936.21
385.95	847.27
386.14	980.68
386.34	887.06
386.53	847.27
386.72	887.06
386.92	877.70
387.11	903.45
387.31	943.24
387.50	964.30
387.70	891.74
387.89	882.38
388.09	854.30
388.28	873.02
388.48	940.90
388.67	936.21
388.86	957.28
389.06	910.47
389.25	917.49
389.45	915.15
389.64	987.71
389.84	1022.81
390.03	933.87
390.22	976.00
390.42	971.32
390.61	940.90
390.81	915.15
391.00	966.64
391.19	1008.77
391.39	971.32
391.58	966.64
391.78	1001.75
391.97	964.30
392.16	943.24
392.36	1006.43
392.55	1039.20
392.75	994.73
392.94	959.62
393.13	1078.99
393.33	985.37
393.52	1001.75
393.71	1034.52
393.91	1011.11
394.10	1062.60
394.29	1018.13
394.49	1055.58
394.68	983.02
394.88	1088.35
395.07	1025.15
395.26	1036.86
395.46	1102.39
395.65	1039.20
395.84	1086.01
396.04	1135.16
396.23	1116.44
396.42	1142.18
396.62	1144.52
396.81	1128.14
397.00	1081.33
397.19	1057.92
397.39	1198.35
397.58	1156.22
397.77	1043.88
397.97	1172.61
398.16	1149.20
398.35	1107.07
398.55	1102.39
398.74	1224.10
398.93	1142.18
399.12	1137.50
399.32	1252.19
399.51	1163.25
399.70	1249.85
399.90	1165.59
400.09	1167.93
400.28	1149.20
400.47	1142.18
400.67	1172.61
400.86	1235.80
401.05	1203.04
401.24	1203.04
401.44	1247.51
401.63	1289.64
401.82	1205.38
402.01	1196.01
402.21	1186.65
402.40	1224.10
402.59	1186.65
402.78	1249.85
402.97	1301.34
403.17	1263.89
403.36	1387.94
403.55	1261.55
403.74	1376.24
403.93	1387.94
404.13	1371.55
404.32	1308.36
404.51	1394.96
404.70	1399.64
404.89	1350.49
405.09	1416.02
405.28	1390.28
405.47	1380.92
405.66	1434.75
405.85	1409.00
406.05	1352.83
406.24	1317.72
406.43	1359.85
406.62	1390.28
406.81	1425.39
407.00	1516.67
407.20	1376.24
407.39	1423.05
407.58	1448.79
407.77	1526.03
407.96	1488.58
408.15	1467.52
408.34	1533.05
408.54	1455.81
408.73	1488.58
408.92	1519.01
409.11	1509.65
409.30	1533.05
409.49	1523.69
409.68	1563.48
409.87	1533.05
410.07	1486.24
410.26	1589.22
410.45	1561.14
410.64	1586.88
410.83	1596.25
411.02	1661.78
411.21	1621.99
411.40	1666.46
411.59	1739.02
411.78	1708.59
411.98	1694.55
412.17	1643.06
412.36	1703.91
412.55	1671.14
412.74	1696.89
412.93	1675.82
413.12	1692.21
413.31	1849.02
413.50	1806.89
413.69	1724.97
413.88	1795.19
414.07	1860.73
414.26	1846.68
414.45	1839.66
414.64	1806.89
414.83	1872.43
415.02	1877.11
415.22	1963.71
415.41	1907.54
415.60	1804.55
415.79	1898.17
415.98	1928.60
416.17	1989.46
416.36	1980.09
416.55	1895.83
416.74	1998.82
416.93	2052.65
417.12	1914.56
417.31	1998.82
417.50	2071.37
417.69	2115.84
417.88	2005.84
418.07	2008.18
418.26	2062.01
418.45	2054.99
418.64	2139.25
418.83	2129.89
419.02	2127.55
419.21	2167.34
419.39	2153.29
419.58	2139.25
419.77	2083.08
419.96	2099.46
420.15	2282.02
420.34	2076.06
420.53	2125.21
420.72	2251.60
420.91	2186.06
421.10	2263.30
421.29	2153.29
421.48	2165.00
421.67	2246.91
421.86	2277.34
422.05	2214.15
422.24	2279.68
422.43	2279.68
422.61	2202.44
422.80	2317.13
422.99	2303.09
423.18	2342.88
423.37	2345.22
423.56	2225.85
423.75	2258.62
423.94	2246.91
424.13	2267.98
424.32	2305.43
424.50	2298.41
424.69	2232.87
424.88	2305.43
425.07	2347.56
425.26	2392.03
425.45	2190.74
425.64	2296.07
425.83	2284.36
426.01	2225.85
426.20	2382.67
426.39	2282.02
426.58	2237.55
426.77	2359.26
426.96	2403.73
427.15	2399.05
427.33	2324.15
427.52	2356.92
427.71	2361.60
427.90	2396.71
428.09	2363.94
428.28	2499.69
428.46	2476.29
428.65	2356.92
428.84	2380.32
429.03	2539.48
429.22	2375.64
429.40	2422.45
429.59	2506.71
429.78	2480.97
429.97	2377.98
430.16	2679.91
430.34	2572.25
430.53	2480.97
430.72	2487.99
430.91	2579.27
431.10	2640.12
431.28	2593.31
431.47	2637.78
431.66	2623.74
431.85	2649.49
432.03	2644.81
432.22	2729.06
432.41	2534.80
432.60	2518.42
432.79	2569.91
432.97	2576.93
433.16	2684.59
433.35	2527.78
433.54	2686.94
433.72	2630.76
433.91	2731.41
434.10	2677.57
434.28	2665.87
434.47	2747.79
434.66	2656.51
434.85	2820.35
435.03	2977.16
435.22	3145.68
435.41	3213.56
435.59	3096.53
435.78	3047.38
435.97	3112.91
436.16	2888.22
436.34	2867.16
436.53	2853.11
436.72	3007.59
436.90	2729.06
437.09	2860.13
437.28	2764.17
437.46	2782.90
437.65	2888.22
437.84	2827.37
438.02	2911.63
438.21	3030.99
438.40	2963.12
438.58	2946.73
438.77	3096.53
438.96	3030.99
439.14	3052.06
439.33	3019.29
439.52	3030.99
439.70	2977.16
439.89	3056.74
440.08	3059.08
440.26	3038.02
440.45	3166.74
440.63	3173.77
440.82	3293.13
441.01	3178.45
441.19	3180.79
441.38	3267.39
441.57	3325.90
441.75	3339.94
441.94	3361.01
442.12	3215.90
442.31	3351.65
442.50	3353.99
442.68	3220.58
442.87	3351.65
443.05	3239.30
443.24	3545.91
443.43	3386.76
443.61	3405.48
443.80	3471.01
443.98	3302.50
444.17	3349.31
444.35	3391.44
444.54	3407.82
444.73	3421.86
444.91	3461.65
445.10	3400.80
445.28	3286.11
445.47	3337.60
445.65	3538.89
445.84	3480.38
446.02	3536.55
446.21	3398.46
446.39	3377.39
446.58	3578.68
446.77	3501.44
446.95	3428.88
447.14	3492.08
447.32	3475.70
447.51	3517.83
447.69	3386.76
447.88	3557.61
448.06	3597.40
448.25	3494.42
448.43	3414.84
448.62	3456.97
448.80	3494.42
448.99	3496.76
449.17	3620.81
449.36	3581.02
449.54	3646.55
449.73	3599.74
449.91	3712.09
450.10	3634.85
450.28	3761.24
450.46	3824.44
450.65	3531.87
450.83	3667.62
451.02	3763.58
451.20	3756.56
451.39	3786.99
451.57	3658.26
451.76	3632.51
451.94	3592.72
452.13	3662.94
452.31	3768.26
452.49	3698.05
452.68	3779.97
452.86	3768.26
453.05	3791.67
453.23	3747.20
453.42	3719.11
453.60	3768.26
453.78	3819.75
453.97	3721.45
454.15	3845.50
454.34	3728.47
454.52	3810.39
454.70	3861.88
454.89	3779.97
455.07	3875.93
455.26	3740.18
455.44	3861.88
455.62	4032.74
455.81	3896.99
455.99	4023.38
456.17	3939.12
456.36	3964.87
456.54	3983.59
456.73	4112.32
456.91	4095.94
457.09	4088.92
457.28	4142.75
457.46	4039.76
457.64	4227.01
457.83	3976.57
458.01	4131.05
458.19	4205.94
458.38	4243.39
458.56	4161.47
458.74	4107.64
458.93	4138.07
459.11	4234.03
459.29	4241.05
459.48	4255.09
459.66	4163.81
459.84	4234.03
460.03	4339.35
460.21	4306.59
460.39	4287.86
460.57	4269.14
460.76	4416.59
460.94	4414.25
461.12	4339.35
461.31	4369.78
461.49	4339.35
461.67	4353.40
461.85	4440.00
462.04	4386.16
462.22	4772.35
462.40	4390.84
462.59	4545.32
462.77	4355.74
462.95	4440.00
463.13	4358.08
463.32	4512.55
463.50	4582.77
463.68	4589.79
463.86	4718.52
464.05	4601.49
464.23	4706.82
464.41	4648.30
464.59	4601.49
464.78	4638.94
464.96	4664.69
465.14	4519.57
465.32	4564.04
465.50	4734.90
465.69	4730.22
465.87	4746.61
466.05	4596.81
466.23	4667.03
466.41	4660.01
466.60	4760.65
466.78	4732.56
466.96	4622.56
467.14	4788.74
467.32	4753.63
467.51	4805.12
467.69	4683.41
467.87	4739.58
468.05	4807.46
468.23	4884.70
468.41	4805.12
468.60	4889.38
468.78	4844.91
468.96	4814.48
469.14	4943.21
469.32	5006.41
469.50	4873.00
469.69	4973.64
469.87	4940.87
470.05	5076.62
470.23	4987.68
470.41	4877.68
470.59	5100.03
470.77	4922.15
470.95	4994.70
471.14	5231.10
471.32	4957.25
471.50	5247.48
471.68	5130.45
471.86	5221.74
472.04	5097.69
472.22	5303.65
472.40	5118.75
472.58	5240.46
472.77	5404.30
472.95	5434.72
473.13	5383.23
473.31	5380.89
473.49	5242.80
473.67	5446.43
473.85	5317.70
474.03	5568.13
474.21	5547.07
474.39	5437.06
474.57	5554.09
474.75	5603.24
474.93	5640.69
475.12	5600.90
475.30	5514.30
475.48	5605.58
475.66	5694.52
475.84	5633.67
476.02	5884.11
476.20	5748.36
476.38	5844.32
476.56	5863.04
476.74	5860.70
476.92	5968.37
477.10	5895.81
477.28	5888.79
477.46	5947.30
477.64	6249.23
477.82	6026.88
478.00	6080.71
478.18	6061.99
478.36	6167.31
478.54	6202.42
478.72	6377.96
478.90	6368.60
479.08	6478.60
479.26	6408.39
479.44	6317.11
479.62	6457.54
479.80	6560.52
479.98	6626.06
480.16	6658.82
480.34	6700.95
480.52	6705.63
480.70	6635.42
480.88	6637.76
481.06	7150.34
481.24	6743.08
481.41	6991.18
481.59	6998.20
481.77	7056.72
481.95	7122.25
482.13	7164.38
482.31	7070.76
482.49	7344.60
482.67	7098.84
482.85	7449.93
483.03	7459.29
483.21	7442.90
483.39	7494.40
483.57	7599.72
483.74	7557.59
483.92	7499.08
484.10	7662.91
484.28	7889.95
484.46	7815.05
484.64	8004.63
484.82	7878.24
485.00	7925.05
485.18	8194.22
485.35	8290.18
485.53	8170.81
485.71	8203.58
485.89	8500.83
486.07	8477.42
486.25	8348.69
486.43	8432.95
486.61	8503.17
486.78	8498.49
486.96	8599.13
487.14	8746.58
487.32	8402.52
487.50	8774.67
487.68	9076.60
487.85	8872.97
488.03	8908.08
488.21	9228.73
488.39	9100.00
488.57	9088.30
488.75	9186.60
488.92	9385.55
489.10	9455.76
489.28	9151.49
489.46	9598.54
489.64	9540.02
489.81	9661.73
489.99	9668.75
490.17	9654.71
490.35	9963.66
490.53	9806.84
490.70	10085.37
490.88	10036.22
491.06	9991.75
491.24	9970.68
491.41	10150.90
491.59	10169.63
491.77	10113.45
491.95	10188.35
492.13	10443.47
492.30	10579.22
492.48	10445.81
492.66	10265.59
492.84	10532.41
493.01	10539.43
493.19	10466.88
493.37	10771.15
493.54	10803.91
493.72	10743.06
493.90	10677.52
494.08	10871.79
494.25	11185.42
494.43	11063.71
494.61	11171.38
494.79	11094.14
494.96	10988.82
495.14	11124.57
495.32	11379.68
495.49	11382.03
495.67	11672.25
495.85	11637.14
496.02	11520.12
496.20	11730.76
496.38	11571.61
496.55	11665.23
496.73	12042.06
496.91	11693.32
497.09	11723.74
497.26	11800.98
497.44	11758.85
497.62	11971.84
497.79	12016.31
497.97	12018.65
498.14	12297.17
498.32	12243.34
498.50	12306.54
498.67	12358.03
498.85	12175.47
499.03	12641.23
499.20	12470.37
499.38	12702.09
499.56	12428.24
499.73	12753.58
499.91	12613.15
500.08	12636.55
500.26	12674.00
500.44	12842.52
500.61	12868.27
500.79	12968.91
500.97	13088.28
501.14	13074.23
501.32	13032.10
501.49	13057.85
501.67	12847.20
501.84	13163.17
502.02	13221.69
502.20	13013.38
502.37	13397.23
502.55	13006.36
502.72	13193.60
502.90	13415.95
503.07	13193.60
503.25	13722.56
503.43	13348.08
503.60	13429.99
503.78	13444.04
503.95	13605.53
504.13	13668.73
504.30	13769.37
504.48	14022.15
504.65	13813.84
504.83	14104.07
505.01	13855.97
505.18	13806.82
505.36	14127.47
505.53	13886.40
505.71	13741.29
505.88	14293.65
506.06	13933.21
506.23	14328.76
506.41	14057.26
506.58	14157.90
506.76	14061.94
506.93	14373.23
507.11	14033.85
507.28	14347.48
507.46	14462.17
507.63	14427.06
507.81	14312.38
507.98	14314.72
508.16	14534.73
508.33	14513.66
508.50	14850.70
508.68	14853.04
508.85	14972.41
509.03	14789.85
509.20	14736.01
509.38	15023.90
509.55	15117.52
509.73	14988.79
509.90	15040.28
510.08	14923.26
510.25	15220.50
510.42	15302.42
510.60	15098.80
510.77	15147.95
510.95	15229.87
511.12	15426.47
511.30	15494.35
511.47	15253.27
511.64	15899.26
511.82	15506.05
511.99	15487.32
512.17	15438.17
512.34	15414.77
512.51	15623.08
512.69	15747.12
512.86	15447.54
513.04	15925.00
513.21	15578.61
513.38	15857.13
513.56	16063.10
513.73	15751.81
513.90	15997.56
514.08	15707.34
514.25	16224.59
514.43	16236.30
514.60	16320.56
514.77	16025.65
514.95	16002.24
515.12	16252.68
515.29	16510.14
515.47	16493.76
515.64	16468.01
515.81	16482.05
515.99	16601.42
516.16	16505.46
516.33	16542.91
516.51	16547.59
516.68	16524.18
516.85	16411.84
517.03	16870.58
517.20	16774.62
517.37	16622.48
517.54	16793.34
517.72	16629.51
517.89	16573.33
518.06	16465.67
518.24	16697.38
518.41	16760.58
518.58	16889.31
518.75	16669.30
518.93	16908.03
519.10	16893.99
519.27	16552.27
519.45	16833.13
519.62	17097.61
519.79	17062.51
519.96	17111.66
520.14	17053.14
520.31	16945.48
520.48	17008.67
520.65	17216.98
520.83	17572.74
521.00	17348.05
521.17	17334.01
521.34	17315.28
521.52	17593.81
521.69	17401.88
521.86	17502.53
522.03	17366.78
522.20	17514.23
522.38	17633.60
522.55	17867.65
522.72	17521.25
522.89	17706.15
523.07	17724.88
523.24	17891.06
523.41	17776.37
523.58	17589.13
523.75	18010.42
523.92	17790.41
524.10	17949.57
524.27	18115.75
524.44	18167.24
524.61	18197.67
524.78	18040.85
524.96	17937.87
525.13	18256.18
525.30	18396.61
525.47	18366.18
525.64	18230.43
525.81	18450.44
525.98	18272.56
526.16	18085.32
526.33	18235.11
526.50	18167.24
526.67	18504.28
526.84	18555.77
527.01	18394.27
527.18	18370.86
527.36	18499.59
527.53	18707.90
527.70	18618.96
527.87	18408.31
528.04	18932.59
528.21	18724.29
528.38	18684.50
528.55	18792.16
528.72	18523.00
528.89	18609.60
529.07	18974.72
529.24	18455.12
529.41	18668.11
529.58	19073.03
529.75	18501.93
529.92	18892.80
530.09	18679.82
530.26	18789.82
530.43	19129.20
530.60	18565.13
530.77	18956.00
530.94	18888.12
531.11	19164.31
531.28	19211.12
531.46	19260.27
531.63	19435.81
531.80	19028.56
531.97	19185.37
532.14	19157.28
532.31	19318.78
532.48	19204.10
532.65	19566.88
532.82	19204.10
532.99	19204.10
533.16	19309.42
533.33	19435.81
533.50	19501.34
533.67	19796.25
533.84	19250.91
534.01	19484.96
534.18	19578.58
534.35	19506.02
534.52	19541.13
534.69	19644.12
534.86	19665.18
535.03	19281.33
535.20	19632.41
535.37	19843.06
535.54	19807.95
535.71	20119.24
535.88	19702.63
536.05	19836.04
536.22	20051.37
536.38	19836.04
536.55	20039.67
536.72	20217.55
536.89	20243.29
537.06	20144.99
537.23	20229.25
537.40	20072.43
537.57	20327.55
537.74	19953.07
537.91	20187.12
538.08	20147.33
538.25	20299.47
538.42	19924.98
538.59	20606.08
538.75	20201.16
538.92	20074.77
539.09	20549.90
539.26	20372.02
539.43	20236.27
539.60	20601.40
539.77	20332.23
539.94	20858.85
540.11	20805.02
540.28	20482.03
540.44	20945.45
540.61	20900.98
540.78	20805.02
540.95	21184.19
541.12	20851.83
541.29	21095.25
541.46	20982.90
541.62	21216.96
541.79	21376.11
541.96	21069.50
542.13	20959.50
542.30	21081.21
542.47	20985.24
542.63	20957.16
542.80	21048.44
542.97	21656.98
543.14	21436.97
543.31	21783.37
543.48	21453.35
543.64	21928.48
543.81	21362.07
543.98	21598.46
544.15	21891.03
544.32	21425.26
544.48	21635.91
544.65	21664.00
544.82	21336.32
544.99	21153.76
545.16	21383.13
545.32	21610.17
545.49	22192.96
545.66	22349.78
545.83	22719.58
546.00	22632.98
546.16	22244.45
546.33	21930.82
546.50	22059.55
546.67	21937.84
546.83	21668.68
547.00	21427.60
547.17	21486.12
547.34	21757.62
547.50	21656.98
547.67	21542.29
547.84	21884.01
548.00	21975.29
548.17	22064.23
548.34	21710.81
548.51	21832.52
548.67	21982.31
548.84	21841.88
549.01	21633.57
549.18	21561.02
549.34	22012.74
549.51	22068.91
549.68	21713.15
549.84	22017.42
550.01	21673.36
550.18	21614.85
550.34	21752.94
550.51	21591.44
550.68	21951.88
550.84	21685.06
551.01	22167.21
551.18	21783.37
551.34	21509.52
551.51	21764.64
551.68	22129.77
551.84	21720.17
552.01	21778.68
552.18	21951.88
552.34	21652.30
552.51	21757.62
552.68	21619.53
552.84	21935.50
553.01	22136.79
553.18	22050.19
553.34	22235.09
553.51	21596.12
553.67	22384.88
553.84	22260.84
554.01	22415.31
554.17	22207.00
554.34	22223.39
554.51	22216.36
554.67	21989.33
554.84	22031.46
555.00	21940.18
555.17	21914.44
555.33	22218.71
555.50	21926.14
555.67	22171.89
555.83	21776.34
556.00	22279.56
556.16	22485.53
556.33	22113.38
556.50	22661.07
556.66	22263.18
556.83	22019.76
556.99	22368.50
557.16	22457.44
557.32	22242.11
557.49	22445.74
557.65	22373.18
557.82	22305.31
557.98	22216.36
558.15	22492.55
558.32	22377.86
558.48	22377.86
558.65	22518.29
558.81	22427.01
558.98	22586.17
559.14	22651.70
559.31	22340.41
559.47	22506.59
559.64	22405.95
559.80	22101.68
559.97	22501.91
560.13	22335.73
560.30	22174.24
560.46	22380.20
560.63	22448.08
560.79	22595.53
560.96	22405.95
561.12	22719.58
561.29	22532.34
561.45	22794.48
561.61	22787.46
561.78	22532.34
561.94	22782.77
562.11	22757.03
562.27	22759.37
562.44	22326.37
562.60	22759.37
562.77	22654.05
562.93	22593.19
563.10	22614.26
563.26	22750.01
563.42	22705.54
563.59	22551.06
563.75	22906.82
563.92	23105.77
564.08	22401.27
564.24	22932.57
564.41	22618.94
564.57	22831.93
564.74	22595.53
564.90	22988.74
565.07	22710.22
565.23	22579.15
565.39	22712.56
565.56	23096.41
565.72	22707.88
565.88	22733.62
566.05	22862.35
566.21	22768.73
566.38	22768.73
566.54	22742.99
566.70	22843.63
566.87	23091.73
567.03	22738.30
567.19	22831.93
567.36	23232.16
567.52	23173.64
567.68	22595.53
567.85	22698.52
568.01	23094.07
568.17	22948.95
568.34	22862.35
568.50	22960.66
568.66	22750.01
568.83	23164.28
568.99	22546.38
569.15	22836.61
569.32	22822.56
569.48	22876.40
569.64	23005.13
569.81	22923.21
569.97	23166.62
570.13	22904.48
570.30	22822.56
570.46	22869.37
570.62	22918.53
570.78	22852.99
570.95	22815.54
571.11	22930.23
571.27	22548.72
571.43	23126.83
571.60	22806.18
571.76	23007.47
571.92	22981.72
572.09	22785.12
572.25	23180.67
572.41	22963.00
572.57	22852.99
572.74	23171.30
572.90	23051.94
573.06	23103.43
573.22	23166.62
573.38	23051.94
573.55	22822.56
573.71	23037.89
573.87	23190.03
574.03	23019.17
574.20	23101.09
574.36	23068.32
574.52	23101.09
574.68	23131.51
574.84	23215.77
575.01	23131.51
575.17	23082.36
575.33	23332.80
575.49	23110.45
575.65	23328.12
575.82	23419.40
575.98	23201.73
576.14	23152.58
576.30	23393.65
576.46	23243.86
576.62	23328.12
576.79	23119.81
576.95	23115.13
577.11	22984.06
577.27	23321.10
577.43	23494.30
577.59	23335.14
577.75	23201.73
577.92	22965.34
578.08	23218.11
578.24	23206.41
578.40	22817.88
578.56	23363.23
578.72	23122.15
578.88	23688.56
579.04	23269.61
579.21	23178.33
579.37	23250.88
579.53	23250.88
579.69	23332.80
579.85	23164.28
580.01	23316.42
580.17	23262.58
580.33	23197.05
580.49	23541.11
580.65	23473.23
580.82	23276.63
580.98	23016.83
581.14	23166.62
581.30	23049.60
581.46	22991.08
581.62	23101.09
581.78	23342.16
581.94	23124.49
582.10	22813.20
582.26	23157.26
582.42	23133.86
582.58	23187.69
582.74	23051.94
582.90	23370.25
583.06	23253.22
583.22	23335.14
583.38	23726.01
583.54	23271.95
583.70	23112.79
583.86	23328.12
584.02	23330.46
584.18	23384.29
584.34	23370.25
584.50	23098.75
584.66	23220.45
584.82	23124.49
584.98	23328.12
585.14	23164.28
585.30	23236.84
585.46	22977.04
585.62	23075.34
585.78	23232.16
585.94	23178.33
586.10	23419.40
586.26	23257.90
586.42	23332.80
586.58	23449.83
586.74	23379.61
586.90	23178.33
587.06	23262.58
587.22	23374.93
587.38	23206.41
587.54	23117.47
587.70	23527.06
587.86	23410.04
588.02	23281.31
588.18	23386.63
588.34	23468.55
588.49	23119.81
588.65	23080.02
588.81	23403.02
588.97	23606.64
589.13	23311.74
589.29	23019.17
589.45	23101.09
589.61	23070.66
589.77	23384.29
589.93	23183.01
590.08	23220.45
590.24	23246.20
590.40	23498.98
590.56	23300.03
590.72	23592.60
590.88	23016.83
591.04	23269.61
