SpectraSuite Data File
++++++++++++++++++++++++++++++++++++
Date: Thu Oct 24 13:21:46 EDT 2013
User: stostad
Dark Spectrum Present: No
Reference Spectrum Present: No
Number of Sampled Component Spectra: 1
Spectrometers: USB2+H05261
Integration Time (usec): 100000 (USB2+H05261)
Spectra Averaged: 1 (USB2+H05261)
Boxcar Smoothing: 0 (USB2+H05261)
Correct for Electrical Dark: No (USB2+H05261)
Strobe/Lamp Enabled: No (USB2+H05261)
Correct for Detector Non-linearity: No (USB2+H05261)
Correct for Stray Light: No (USB2+H05261)
Number of Pixels in Processed Spectrum: 2048
>>>>>Begin Processed Spectral Data<<<<<
365.73	1011.11
365.92	1011.11
366.12	1011.11
366.32	964.30
366.52	933.87
366.72	940.90
366.91	877.70
367.11	959.62
367.31	870.68
367.51	887.06
367.70	964.30
367.90	1004.09
368.10	945.58
368.30	954.94
368.49	903.45
368.69	999.41
368.89	905.79
369.09	847.27
369.28	1025.15
369.48	954.94
369.68	964.30
369.87	1018.13
370.07	947.92
370.27	1020.47
370.47	1376.24
370.66	2303.09
370.86	2499.69
371.06	2499.69
371.25	2516.08
371.45	2588.63
371.65	2544.16
371.84	2593.31
372.04	2612.04
372.24	2623.74
372.44	2729.06
372.63	2801.62
372.83	2715.02
373.03	2862.48
373.22	2771.19
373.42	2829.71
373.62	2881.20
373.81	2850.77
374.01	2878.86
374.21	2848.43
374.40	2806.30
374.60	3066.10
374.79	2967.80
374.99	3042.70
375.19	2923.33
375.38	3042.70
375.58	3021.63
375.78	3028.65
375.97	3028.65
376.17	3103.55
376.37	3171.43
376.56	3276.75
376.76	3138.66
376.95	3199.51
377.15	3117.59
377.35	3166.74
377.54	3194.83
377.74	3260.37
377.93	3358.67
378.13	3267.39
378.33	3330.58
378.52	3232.28
378.72	3328.24
378.91	3379.73
379.11	3375.05
379.31	3426.54
379.50	3346.97
379.70	3569.32
379.89	3510.80
380.09	3545.91
380.28	3597.40
380.48	3559.95
380.68	3634.85
380.87	3672.30
381.07	3641.87
381.26	3588.04
381.46	3730.81
381.65	3611.45
381.85	3735.50
382.04	3915.72
382.24	3941.46
382.43	3847.84
382.63	3861.88
382.83	3861.88
383.02	3936.78
383.22	4079.55
383.41	3913.38
383.61	4004.66
383.80	3948.48
384.00	4079.55
384.19	4133.39
384.39	4152.11
384.58	4081.89
384.78	4009.34
384.97	4189.56
385.17	4222.33
385.36	4245.73
385.56	4208.28
385.75	4189.56
385.95	4112.32
386.14	4344.03
386.34	4273.82
386.53	4329.99
386.72	4332.33
386.92	4402.55
387.11	4341.69
387.31	4461.06
387.50	4393.19
387.70	4648.30
387.89	4479.79
388.09	4531.28
388.28	4638.94
388.48	4620.22
388.67	4716.18
388.86	4716.18
389.06	4730.22
389.25	4898.74
389.45	4681.07
389.64	4762.99
389.84	4922.15
390.03	4966.62
390.22	5034.49
390.42	4926.83
390.61	4966.62
390.81	4933.85
391.00	5008.75
391.19	5259.18
391.39	5109.39
391.58	5238.12
391.78	5198.33
391.97	5404.30
392.16	5284.93
392.36	5327.06
392.55	5338.76
392.75	5369.19
392.94	5345.78
393.13	5289.61
393.33	5320.04
393.52	5710.91
393.71	5570.48
393.91	5692.18
394.10	5650.05
394.29	5577.50
394.49	5657.07
394.68	5827.93
394.88	5682.82
395.07	5668.78
395.26	5650.05
395.46	5926.24
395.65	5858.36
395.84	5916.87
396.04	6190.72
396.23	6160.29
396.42	6237.53
396.62	6183.70
396.81	6181.35
397.00	6202.42
397.19	6162.63
397.39	6356.90
397.58	6211.78
397.77	6373.28
397.97	6565.20
398.16	6417.75
398.35	6637.76
398.55	6363.92
398.74	6836.70
398.93	6712.66
399.12	6759.47
399.32	6607.33
399.51	6825.00
399.70	6911.60
399.90	6726.70
400.09	7045.01
400.28	6967.77
400.47	7014.59
400.67	7485.03
400.86	7005.22
401.05	7136.29
401.24	7122.25
401.44	7265.02
401.63	7194.81
401.82	7279.07
402.01	7314.17
402.21	7368.01
402.40	7403.11
402.59	7438.22
402.78	7726.11
402.97	7611.42
403.17	7641.85
403.36	7728.45
403.55	7698.02
403.74	8147.40
403.93	7894.63
404.13	8138.04
404.32	8060.80
404.51	8116.98
404.70	8049.10
404.89	8023.36
405.09	8198.90
405.28	8439.97
405.47	8336.99
405.66	8418.91
405.85	8336.99
406.05	8344.01
406.24	8458.70
406.43	8540.61
406.62	8641.26
406.81	8816.80
407.00	8528.91
407.20	8498.49
407.39	8641.26
407.58	9090.64
407.77	9146.81
407.96	8910.42
408.15	9160.86
408.34	8959.57
408.54	9107.02
408.73	9327.03
408.92	9352.78
409.11	9352.78
409.30	9277.88
409.49	9441.72
409.68	9610.24
409.87	9645.35
410.07	9872.38
410.26	9806.84
410.45	9664.07
410.64	9781.10
410.83	9722.59
411.02	9928.55
411.21	10354.53
411.40	9996.43
411.59	10441.13
411.78	10361.55
411.98	10335.81
412.17	10436.45
412.36	10696.25
412.55	10827.32
412.74	10972.43
412.93	11075.42
413.12	10794.55
413.31	11246.27
413.50	11016.90
413.69	11101.16
413.88	11470.97
414.07	11564.59
414.26	11375.00
414.45	11698.00
414.64	11620.76
414.83	11887.58
415.02	11772.89
415.22	11873.54
415.41	11985.88
415.60	11995.25
415.79	12381.43
415.98	12547.61
416.17	12564.00
416.36	12393.14
416.55	12379.09
416.74	12823.80
416.93	12697.41
417.12	12872.95
417.31	12931.46
417.50	13345.73
417.69	13109.34
417.88	13551.70
418.07	13275.52
418.26	13458.08
418.45	13511.91
418.64	14108.75
418.83	13741.29
419.02	13977.68
419.21	14038.53
419.39	14251.52
419.58	14181.31
419.77	14125.13
419.96	14375.57
420.15	14485.58
420.34	14459.83
420.53	14438.76
420.72	14391.95
420.91	14780.48
421.10	14635.37
421.29	14581.54
421.48	14785.16
421.67	14817.93
421.86	14986.45
422.05	14918.57
422.24	14991.13
422.43	15253.27
422.61	15515.41
422.80	15672.23
422.99	15686.27
423.18	15255.61
423.37	15644.14
423.56	15520.09
423.75	15346.89
423.94	15330.51
424.13	14211.73
424.32	15026.24
424.50	15583.29
424.69	16027.99
424.88	16032.67
425.07	15461.58
425.26	15389.02
425.45	15442.85
425.64	15456.90
425.83	15515.41
426.01	15878.19
426.20	15948.41
426.39	15946.07
426.58	15948.41
426.77	16259.70
426.96	16233.96
427.15	16020.97
427.33	16505.46
427.52	16100.55
427.71	16489.07
427.90	16224.59
428.09	16915.05
428.28	17025.06
428.46	16805.05
428.65	16786.32
428.84	17233.36
429.03	17238.05
429.22	16947.82
429.40	17128.04
429.59	17270.81
429.78	16776.96
429.97	16940.80
430.16	17301.24
430.34	17465.08
430.53	17806.80
430.72	17937.87
430.91	17593.81
431.10	17830.20
431.28	18115.75
431.47	18270.22
431.66	18342.78
431.85	18237.45
432.03	18831.95
432.22	18670.45
432.41	18642.37
432.60	18604.92
432.79	18972.38
432.97	18871.74
433.16	19260.27
433.35	18967.70
433.54	19356.23
433.72	19487.30
433.91	19094.09
434.10	19681.56
434.28	19442.83
434.47	19920.30
434.66	19857.10
434.85	20278.40
435.03	20212.87
435.22	20262.02
435.41	21046.10
435.59	20421.17
435.78	20893.96
435.97	20723.10
436.16	20809.70
436.34	20477.35
436.53	20582.67
436.72	21139.72
436.90	20610.76
437.09	21179.51
437.28	20706.72
437.46	20940.77
437.65	21252.06
437.84	21635.91
438.02	21888.69
438.21	21766.98
438.40	21612.51
438.58	22518.29
438.77	22506.59
438.96	22075.93
439.14	22808.52
439.33	22951.29
439.52	23264.92
439.70	23262.58
439.89	23807.93
440.08	23920.28
440.26	23833.68
440.45	23821.97
440.63	23936.66
440.82	24285.40
441.01	24182.42
441.19	24760.53
441.38	24573.28
441.57	24940.75
441.75	25113.95
441.94	25544.61
442.12	25827.81
442.31	25942.50
442.50	25668.66
442.68	25514.18
442.87	25727.17
443.05	26075.91
443.24	26635.30
443.43	26169.53
443.61	26740.62
443.80	27178.30
443.98	25993.99
444.17	25570.35
444.35	26448.05
444.54	27307.03
444.73	26696.15
444.91	26934.88
445.10	27154.90
445.28	27442.78
445.47	27000.42
445.65	26965.31
445.84	27358.52
446.02	27578.53
446.21	27321.07
446.39	27316.39
446.58	27634.71
446.77	27204.05
446.95	26930.20
447.14	27419.38
447.32	27669.81
447.51	27770.46
447.69	27309.37
447.88	28011.53
448.06	27683.86
448.25	27557.47
448.43	28002.17
448.62	27861.74
448.80	28158.99
448.99	28297.08
449.17	28699.65
449.36	28154.30
449.54	28781.57
449.73	29373.72
449.91	29310.53
450.10	29184.14
450.28	29673.31
450.46	29886.30
450.65	29727.14
450.83	29589.05
451.02	29596.07
451.20	30078.22
451.39	29855.87
451.57	30213.98
451.76	29757.57
451.94	30286.53
452.13	30635.27
452.31	30478.46
452.49	30080.56
452.68	30806.13
452.86	30567.40
453.05	31040.18
453.23	30972.31
453.42	30546.33
453.60	31028.48
453.78	31491.91
453.97	30960.61
454.15	31098.70
454.34	31105.72
454.52	31974.06
454.70	31714.26
454.89	31763.41
455.07	32137.90
455.26	32336.84
455.44	33010.92
455.62	33008.58
455.81	32933.68
455.99	33099.86
456.17	33029.64
456.36	33097.52
456.54	33436.89
456.73	33851.17
456.91	34534.60
457.09	34305.23
457.28	34651.63
457.46	34080.54
457.64	34799.08
457.83	34813.13
458.01	35002.71
458.19	35571.46
458.38	35112.72
458.56	35484.86
458.74	36292.35
458.93	35651.04
459.11	35838.28
459.29	35896.80
459.48	36177.66
459.66	35386.56
459.84	36353.20
460.03	37067.06
460.21	36467.89
460.39	36863.44
460.57	36781.52
460.76	37123.24
460.94	37205.16
461.12	37113.87
461.31	37441.55
461.49	37415.80
461.67	37422.83
461.85	38190.52
462.04	37703.69
462.22	38756.93
462.40	38785.02
462.59	38731.18
462.77	38508.83
462.95	38670.33
463.13	38803.74
463.32	38607.14
463.50	39267.17
463.68	39672.08
463.86	39641.65
464.05	38778.00
464.23	38998.01
464.41	39541.01
464.59	39613.57
464.78	40694.89
464.96	40182.32
465.14	39655.70
465.32	40444.46
465.50	40299.34
465.69	41088.10
465.87	40730.00
466.05	40959.38
466.23	40877.46
466.41	40718.30
466.60	41930.70
466.78	40797.88
466.96	40950.01
467.14	41429.82
467.32	41361.95
467.51	41977.51
467.69	40795.54
467.87	41752.82
468.05	42433.91
468.23	41738.77
468.41	42024.32
468.60	42284.12
468.78	42909.04
468.96	42204.54
469.14	42913.72
469.32	43349.06
469.50	42230.29
469.69	43311.61
469.87	43812.49
470.05	43971.64
470.23	44264.21
470.41	44500.61
470.59	44626.99
470.77	44463.16
470.95	44718.28
471.14	45357.24
471.32	44362.51
471.50	45441.50
471.68	45495.33
471.86	45769.18
472.04	46356.65
472.22	46873.91
472.40	46363.67
472.58	46417.50
472.77	47021.36
472.95	46983.91
473.13	48175.25
473.31	47271.80
473.49	47334.99
473.67	47477.77
473.85	47770.33
474.03	48460.79
474.21	48708.89
474.39	48783.79
474.57	49118.48
474.75	49542.12
474.93	49680.21
475.12	49453.18
475.30	49830.01
475.48	49825.32
475.66	50225.56
475.84	50033.63
476.02	50908.99
476.20	50967.51
476.38	51770.31
476.56	51863.93
476.74	52388.21
476.92	51657.96
477.10	52299.27
477.28	52739.29
477.46	52928.87
477.64	53088.03
477.82	53490.60
478.00	54185.74
478.18	54213.83
478.36	54274.68
478.54	54686.62
478.72	54703.00
478.90	55189.83
479.08	55356.01
479.26	55838.16
479.44	55863.91
479.62	55978.59
479.80	56392.87
479.98	56444.36
480.16	56978.00
480.34	56655.01
480.52	57036.51
480.70	57134.82
480.88	57069.28
481.06	57572.50
481.24	57425.04
481.41	57918.90
481.59	58202.10
481.77	58674.89
481.95	58988.52
482.13	58969.80
482.31	58749.79
482.49	59461.31
482.67	59538.55
482.85	59842.82
483.03	59838.14
483.21	60336.67
483.39	60533.28
483.57	60465.40
483.74	60713.50
483.92	60994.36
484.10	60949.89
484.28	61300.97
484.46	61740.99
484.64	62059.30
484.82	61762.06
485.00	62003.13
485.18	62478.26
485.35	62780.19
485.53	62712.31
485.71	63021.26
485.89	63332.56
486.07	63234.25
486.25	63323.19
486.43	63433.20
486.61	63781.94
486.78	64107.27
486.96	64165.79
487.14	64636.23
487.32	64664.32
487.50	64867.95
487.68	64886.67
487.85	65329.03
488.03	65450.74
488.21	65535.00
488.39	65535.00
488.57	65535.00
488.75	65535.00
488.92	65535.00
489.10	65535.00
489.28	65535.00
489.46	65535.00
489.64	65535.00
489.81	65535.00
489.99	65535.00
490.17	65535.00
490.35	65535.00
490.53	65535.00
490.70	65535.00
490.88	65535.00
491.06	65535.00
491.24	65535.00
491.41	65535.00
491.59	65535.00
491.77	65535.00
491.95	65535.00
492.13	65535.00
492.30	65535.00
492.48	65535.00
492.66	65535.00
492.84	65535.00
493.01	65535.00
493.19	65535.00
493.37	65535.00
493.54	65535.00
493.72	65535.00
493.90	65535.00
494.08	65535.00
494.25	65535.00
494.43	65535.00
494.61	65535.00
494.79	65535.00
494.96	65535.00
495.14	65535.00
495.32	65535.00
495.49	65535.00
495.67	65535.00
495.85	65535.00
496.02	65535.00
496.20	65535.00
496.38	65535.00
496.55	65535.00
496.73	65535.00
496.91	65535.00
497.09	65535.00
497.26	65535.00
497.44	65535.00
497.62	65535.00
497.79	65535.00
497.97	65535.00
498.14	65535.00
498.32	65535.00
498.50	65535.00
498.67	65535.00
498.85	65535.00
499.03	65535.00
499.20	65535.00
499.38	65535.00
499.56	65535.00
499.73	65535.00
499.91	65535.00
500.08	65535.00
500.26	65535.00
500.44	65535.00
500.61	65535.00
500.79	65535.00
500.97	65535.00
501.14	65535.00
501.32	65535.00
501.49	65535.00
501.67	65535.00
501.84	65535.00
502.02	65535.00
502.20	65535.00
502.37	65535.00
502.55	65535.00
502.72	65535.00
502.90	65535.00
503.07	65535.00
503.25	65535.00
503.43	65535.00
503.60	65535.00
503.78	65535.00
503.95	65535.00
504.13	65535.00
504.30	65535.00
504.48	65535.00
504.65	65535.00
504.83	65535.00
505.01	65535.00
505.18	65535.00
505.36	65535.00
505.53	65535.00
505.71	65535.00
505.88	65535.00
506.06	65535.00
506.23	65535.00
506.41	65535.00
506.58	65535.00
506.76	65535.00
506.93	65535.00
507.11	65535.00
507.28	65535.00
507.46	65535.00
507.63	65535.00
507.81	65535.00
507.98	65535.00
508.16	65535.00
508.33	65535.00
508.50	65535.00
508.68	65535.00
508.85	65535.00
509.03	65535.00
509.20	65535.00
509.38	65535.00
509.55	65535.00
509.73	65535.00
509.90	65535.00
510.08	65535.00
510.25	65535.00
510.42	65535.00
510.60	65535.00
510.77	65535.00
510.95	65535.00
511.12	65535.00
511.30	65535.00
511.47	65535.00
511.64	65535.00
511.82	65535.00
511.99	65535.00
512.17	65535.00
512.34	65535.00
512.51	65535.00
512.69	65535.00
512.86	65535.00
513.04	65535.00
513.21	65535.00
513.38	65535.00
513.56	65535.00
513.73	65535.00
513.90	65535.00
514.08	65535.00
514.25	65535.00
514.43	65535.00
514.60	65535.00
514.77	65535.00
514.95	65535.00
515.12	65535.00
515.29	65535.00
515.47	65535.00
515.64	65535.00
515.81	65535.00
515.99	65535.00
516.16	65535.00
516.33	65535.00
516.51	65535.00
516.68	65535.00
516.85	65535.00
517.03	65535.00
517.20	65535.00
517.37	65535.00
517.54	65535.00
517.72	65535.00
517.89	65535.00
518.06	65535.00
518.24	65535.00
518.41	65535.00
518.58	65535.00
518.75	65535.00
518.93	65535.00
519.10	65535.00
519.27	65535.00
519.45	65535.00
519.62	65535.00
519.79	65535.00
519.96	65535.00
520.14	65535.00
520.31	65535.00
520.48	65535.00
520.65	65535.00
520.83	65535.00
521.00	65535.00
521.17	65535.00
521.34	65535.00
521.52	65535.00
521.69	65535.00
521.86	65535.00
522.03	65535.00
522.20	65535.00
522.38	65535.00
522.55	65535.00
522.72	65535.00
522.89	65535.00
523.07	65535.00
523.24	65535.00
523.41	65535.00
523.58	65535.00
523.75	65535.00
523.92	65535.00
524.10	65535.00
524.27	65535.00
524.44	65535.00
524.61	65535.00
524.78	65535.00
524.96	65535.00
525.13	65535.00
525.30	65535.00
525.47	65535.00
525.64	65535.00
525.81	65535.00
525.98	65535.00
526.16	65535.00
526.33	65535.00
526.50	65535.00
526.67	65535.00
526.84	65535.00
527.01	65535.00
527.18	65535.00
527.36	65535.00
527.53	65535.00
527.70	65535.00
527.87	65535.00
528.04	65535.00
528.21	65535.00
528.38	65535.00
528.55	65535.00
528.72	65535.00
528.89	65535.00
529.07	65535.00
529.24	65535.00
529.41	65535.00
529.58	65535.00
529.75	65535.00
529.92	65535.00
530.09	65535.00
530.26	65535.00
530.43	65535.00
530.60	65535.00
530.77	65535.00
530.94	65535.00
531.11	65535.00
531.28	65535.00
531.46	65535.00
531.63	65535.00
531.80	65535.00
531.97	65535.00
532.14	65535.00
532.31	65535.00
532.48	65535.00
532.65	65535.00
532.82	65535.00
532.99	65535.00
533.16	65535.00
533.33	65535.00
533.50	65535.00
533.67	65535.00
533.84	65535.00
534.01	65535.00
534.18	65535.00
534.35	65535.00
534.52	65535.00
534.69	65535.00
534.86	65535.00
535.03	65535.00
535.20	65535.00
535.37	65535.00
535.54	65535.00
535.71	65535.00
535.88	65535.00
536.05	65535.00
536.22	65535.00
536.38	65535.00
536.55	65535.00
536.72	65535.00
536.89	65535.00
537.06	65535.00
537.23	65535.00
537.40	65535.00
537.57	65535.00
537.74	65535.00
537.91	65535.00
538.08	65535.00
538.25	65535.00
538.42	65535.00
538.59	65535.00
538.75	65535.00
538.92	65535.00
539.09	65535.00
539.26	65535.00
539.43	65535.00
539.60	65535.00
539.77	65535.00
539.94	65535.00
540.11	65535.00
540.28	65535.00
540.44	65535.00
540.61	65535.00
540.78	65535.00
540.95	65535.00
541.12	65535.00
541.29	65535.00
541.46	65535.00
541.62	65535.00
541.79	65535.00
541.96	65535.00
542.13	65535.00
542.30	65535.00
542.47	65535.00
542.63	65535.00
542.80	65535.00
542.97	65535.00
543.14	65535.00
543.31	65535.00
543.48	65535.00
543.64	65535.00
543.81	65535.00
543.98	65535.00
544.15	65535.00
544.32	65535.00
544.48	65535.00
544.65	65535.00
544.82	65535.00
544.99	65535.00
545.16	65535.00
545.32	65535.00
545.49	65535.00
545.66	65535.00
545.83	65535.00
546.00	65535.00
546.16	65535.00
546.33	65535.00
546.50	65535.00
546.67	65535.00
546.83	65535.00
547.00	65535.00
547.17	65535.00
547.34	65535.00
547.50	65535.00
547.67	65535.00
547.84	65535.00
548.00	65535.00
548.17	65535.00
548.34	65535.00
548.51	65535.00
548.67	65535.00
548.84	65535.00
549.01	65535.00
549.18	65535.00
549.34	65535.00
549.51	65535.00
549.68	65535.00
549.84	65535.00
550.01	65535.00
550.18	65535.00
550.34	65535.00
550.51	65535.00
550.68	65535.00
550.84	65535.00
551.01	65535.00
551.18	65535.00
551.34	65535.00
551.51	65535.00
551.68	65535.00
551.84	65535.00
552.01	65535.00
552.18	65535.00
552.34	65535.00
552.51	65535.00
552.68	65535.00
552.84	65535.00
553.01	65535.00
553.18	65535.00
553.34	65535.00
553.51	65535.00
553.67	65535.00
553.84	65535.00
554.01	65535.00
554.17	65535.00
554.34	65535.00
554.51	65535.00
554.67	65535.00
554.84	65535.00
555.00	65535.00
555.17	65535.00
555.33	65535.00
555.50	65535.00
555.67	65535.00
555.83	65535.00
556.00	65535.00
556.16	65535.00
556.33	65535.00
556.50	65535.00
556.66	65535.00
556.83	65535.00
556.99	65535.00
557.16	65535.00
557.32	65535.00
557.49	65535.00
557.65	65535.00
557.82	65535.00
557.98	65535.00
558.15	65535.00
558.32	65535.00
558.48	65535.00
558.65	65535.00
558.81	65535.00
558.98	65535.00
559.14	65535.00
559.31	65535.00
559.47	65535.00
559.64	65535.00
559.80	65535.00
559.97	65535.00
560.13	65535.00
560.30	65535.00
560.46	65535.00
560.63	65535.00
560.79	65535.00
560.96	65535.00
561.12	65535.00
561.29	65535.00
561.45	65535.00
561.61	65535.00
561.78	65535.00
561.94	65535.00
562.11	65535.00
562.27	65535.00
562.44	65535.00
562.60	65535.00
562.77	65535.00
562.93	65535.00
563.10	65535.00
563.26	65535.00
563.42	65535.00
563.59	65535.00
563.75	65535.00
563.92	65535.00
564.08	65535.00
564.24	65535.00
564.41	65535.00
564.57	65535.00
564.74	65535.00
564.90	65535.00
565.07	65535.00
565.23	65535.00
565.39	65535.00
565.56	65535.00
565.72	65535.00
565.88	65535.00
566.05	65535.00
566.21	65535.00
566.38	65535.00
566.54	65535.00
566.70	65535.00
566.87	65535.00
567.03	65535.00
567.19	65535.00
567.36	65535.00
567.52	65535.00
567.68	65535.00
567.85	65535.00
568.01	65535.00
568.17	65535.00
568.34	65535.00
568.50	65535.00
568.66	65535.00
568.83	65535.00
568.99	65535.00
569.15	65535.00
569.32	65535.00
569.48	65535.00
569.64	65535.00
569.81	65535.00
569.97	65535.00
570.13	65535.00
570.30	65535.00
570.46	65535.00
570.62	65535.00
570.78	65535.00
570.95	65535.00
571.11	65535.00
571.27	65535.00
571.43	65535.00
571.60	65535.00
571.76	65535.00
571.92	65535.00
572.09	65535.00
572.25	65535.00
572.41	65535.00
572.57	65535.00
572.74	65535.00
572.90	65535.00
573.06	65535.00
573.22	65535.00
573.38	65535.00
573.55	65535.00
573.71	65535.00
573.87	65535.00
574.03	65535.00
574.20	65535.00
574.36	65535.00
574.52	65535.00
574.68	65535.00
574.84	65535.00
575.01	65535.00
575.17	65535.00
575.33	65535.00
575.49	65535.00
575.65	65535.00
575.82	65535.00
575.98	65535.00
576.14	65535.00
576.30	65535.00
576.46	65535.00
576.62	65535.00
576.79	65535.00
576.95	65535.00
577.11	65535.00
577.27	65535.00
577.43	65535.00
577.59	65535.00
577.75	65535.00
577.92	65535.00
578.08	65535.00
578.24	65535.00
578.40	65535.00
578.56	65535.00
578.72	65535.00
578.88	65535.00
579.04	65535.00
579.21	65535.00
579.37	65535.00
579.53	65535.00
579.69	65535.00
579.85	65535.00
580.01	65535.00
580.17	65535.00
580.33	65535.00
580.49	65535.00
580.65	65535.00
580.82	65535.00
580.98	65535.00
581.14	65535.00
581.30	65535.00
581.46	65535.00
581.62	65535.00
581.78	65535.00
581.94	65535.00
582.10	65535.00
582.26	65535.00
582.42	65535.00
582.58	65535.00
582.74	65535.00
582.90	65535.00
583.06	65535.00
583.22	65535.00
583.38	65535.00
583.54	65535.00
583.70	65535.00
583.86	65535.00
584.02	65535.00
584.18	65535.00
584.34	65535.00
584.50	65535.00
584.66	65535.00
584.82	65535.00
584.98	65535.00
585.14	65535.00
585.30	65535.00
585.46	65535.00
