SpectraSuite Data File
++++++++++++++++++++++++++++++++++++
Date: Thu Oct 24 13:21:00 EDT 2013
User: stostad
Dark Spectrum Present: No
Reference Spectrum Present: No
Number of Sampled Component Spectra: 1
Spectrometers: USB2+H05261
Integration Time (usec): 100000 (USB2+H05261)
Spectra Averaged: 1 (USB2+H05261)
Boxcar Smoothing: 0 (USB2+H05261)
Correct for Electrical Dark: No (USB2+H05261)
Strobe/Lamp Enabled: No (USB2+H05261)
Correct for Detector Non-linearity: No (USB2+H05261)
Correct for Stray Light: No (USB2+H05261)
Number of Pixels in Processed Spectrum: 2048
>>>>>Begin Processed Spectral Data<<<<<
365.73	557.05
365.92	557.05
366.12	557.05
366.32	496.19
366.52	526.62
366.72	477.47
366.91	540.66
367.11	470.45
367.31	491.51
367.51	496.19
367.70	475.13
367.90	517.26
368.10	442.36
368.30	411.93
368.49	510.24
368.69	411.93
368.89	442.36
369.09	477.47
369.28	552.37
369.48	463.43
369.68	486.83
369.87	465.77
370.07	468.11
370.27	596.84
370.47	489.17
370.66	491.51
370.86	550.03
371.06	641.31
371.25	643.65
371.45	486.83
371.65	608.54
371.84	561.73
372.04	624.92
372.24	580.45
372.44	585.13
372.63	662.37
372.83	620.24
373.03	620.24
373.22	650.67
373.42	606.20
373.62	648.33
373.81	650.67
374.01	592.16
374.21	587.47
374.40	608.54
374.60	622.58
374.79	627.26
374.99	594.50
375.19	685.78
375.38	683.44
375.58	678.76
375.78	594.50
375.97	571.09
376.17	622.58
376.37	617.90
376.56	662.37
376.76	589.82
376.95	599.18
377.15	699.82
377.35	627.26
377.54	624.92
377.74	601.52
377.93	643.65
378.13	580.45
378.33	610.88
378.52	664.71
378.72	662.37
378.91	660.03
379.11	683.44
379.31	643.65
379.50	617.90
379.70	629.60
379.89	594.50
380.09	643.65
380.28	678.76
380.48	676.41
380.68	669.39
380.87	645.99
381.07	629.60
381.26	636.63
381.46	648.33
381.65	648.33
381.85	608.54
382.04	566.41
382.24	627.26
382.43	645.99
382.63	585.13
382.83	617.90
383.02	603.86
383.22	664.71
383.41	631.94
383.61	552.37
383.80	678.76
384.00	566.41
384.19	627.26
384.39	608.54
384.58	636.63
384.78	620.24
384.97	629.60
385.17	606.20
385.36	603.86
385.56	657.69
385.75	592.16
385.95	650.67
386.14	636.63
386.34	606.20
386.53	636.63
386.72	627.26
386.92	695.14
387.11	589.82
387.31	622.58
387.50	592.16
387.70	592.16
387.89	564.07
388.09	655.35
388.28	629.60
388.48	615.56
388.67	667.05
388.86	610.88
389.06	596.84
389.25	631.94
389.45	634.29
389.64	669.39
389.84	664.71
390.03	575.77
390.22	634.29
390.42	580.45
390.61	613.22
390.81	568.75
391.00	653.01
391.19	603.86
391.39	688.12
391.58	650.67
391.78	660.03
391.97	648.33
392.16	620.24
392.36	624.92
392.55	627.26
392.75	671.73
392.94	674.07
393.13	613.22
393.33	671.73
393.52	636.63
393.71	582.79
393.91	615.56
394.10	634.29
394.29	610.88
394.49	582.79
394.68	622.58
394.88	678.76
395.07	580.45
395.26	624.92
395.46	613.22
395.65	645.99
395.84	636.63
396.04	638.97
396.23	638.97
396.42	627.26
396.62	582.79
396.81	655.35
397.00	678.76
397.19	660.03
397.39	692.80
397.58	695.14
397.77	624.92
397.97	643.65
398.16	610.88
398.35	606.20
398.55	636.63
398.74	641.31
398.93	655.35
399.12	667.05
399.32	606.20
399.51	692.80
399.70	653.01
399.90	692.80
400.09	608.54
400.28	599.18
400.47	636.63
400.67	601.52
400.86	592.16
401.05	603.86
401.24	636.63
401.44	566.41
401.63	594.50
401.82	650.67
402.01	627.26
402.21	734.93
402.40	674.07
402.59	622.58
402.78	660.03
402.97	631.94
403.17	610.88
403.36	641.31
403.55	653.01
403.74	620.24
403.93	678.76
404.13	723.23
404.32	688.12
404.51	603.86
404.70	690.46
404.89	617.90
405.09	685.78
405.28	650.67
405.47	645.99
405.66	587.47
405.85	636.63
406.05	582.79
406.24	617.90
406.43	524.28
406.62	660.03
406.81	683.44
407.00	601.52
407.20	657.69
407.39	683.44
407.58	599.18
407.77	608.54
407.96	650.67
408.15	685.78
408.34	720.88
408.54	578.11
408.73	690.46
408.92	636.63
409.11	603.86
409.30	650.67
409.49	545.34
409.68	613.22
409.87	613.22
410.07	575.77
410.26	592.16
410.45	622.58
410.64	564.07
410.83	657.69
411.02	566.41
411.21	587.47
411.40	638.97
411.59	657.69
411.78	664.71
411.98	615.56
412.17	662.37
412.36	601.52
412.55	608.54
412.74	653.01
412.93	655.35
413.12	685.78
413.31	622.58
413.50	617.90
413.69	592.16
413.88	599.18
414.07	629.60
414.26	638.97
414.45	631.94
414.64	603.86
414.83	559.39
415.02	641.31
415.22	641.31
415.41	645.99
415.60	629.60
415.79	613.22
415.98	601.52
416.17	606.20
416.36	627.26
416.55	727.91
416.74	667.05
416.93	648.33
417.12	594.50
417.31	657.69
417.50	667.05
417.69	678.76
417.88	601.52
418.07	662.37
418.26	636.63
418.45	655.35
418.64	695.14
418.83	641.31
419.02	645.99
419.21	636.63
419.39	662.37
419.58	610.88
419.77	622.58
419.96	620.24
420.15	629.60
420.34	629.60
420.53	631.94
420.72	582.79
420.91	669.39
421.10	685.78
421.29	615.56
421.48	585.13
421.67	688.12
421.86	699.82
422.05	627.26
422.24	697.48
422.43	608.54
422.61	662.37
422.80	645.99
422.99	645.99
423.18	622.58
423.37	746.63
423.56	671.73
423.75	669.39
423.94	655.35
424.13	638.97
424.32	594.50
424.50	660.03
424.69	568.75
424.88	648.33
425.07	617.90
425.26	641.31
425.45	587.47
425.64	608.54
425.83	603.86
426.01	627.26
426.20	622.58
426.39	638.97
426.58	631.94
426.77	620.24
426.96	650.67
427.15	610.88
427.33	634.29
427.52	674.07
427.71	650.67
427.90	697.48
428.09	704.50
428.28	697.48
428.46	610.88
428.65	627.26
428.84	596.84
429.03	674.07
429.22	643.65
429.40	599.18
429.59	650.67
429.78	716.20
429.97	662.37
430.16	662.37
430.34	631.94
430.53	582.79
430.72	690.46
430.91	636.63
431.10	683.44
431.28	627.26
431.47	580.45
431.66	697.48
431.85	655.35
432.03	688.12
432.22	676.41
432.41	629.60
432.60	671.73
432.79	564.07
432.97	608.54
433.16	608.54
433.35	634.29
433.54	620.24
433.72	660.03
433.91	645.99
434.10	608.54
434.28	671.73
434.47	650.67
434.66	641.31
434.85	669.39
435.03	807.48
435.22	1041.54
435.41	1170.27
435.59	999.41
435.78	940.90
435.97	863.66
436.16	795.78
436.34	763.01
436.53	688.12
436.72	772.38
436.90	692.80
437.09	699.82
437.28	617.90
437.46	566.41
437.65	634.29
437.84	596.84
438.02	596.84
438.21	613.22
438.40	608.54
438.58	706.84
438.77	568.75
438.96	594.50
439.14	613.22
439.33	685.78
439.52	610.88
439.70	645.99
439.89	631.94
440.08	648.33
440.26	594.50
440.45	669.39
440.63	606.20
440.82	592.16
441.01	634.29
441.19	620.24
441.38	599.18
441.57	594.50
441.75	713.86
441.94	620.24
442.12	620.24
442.31	683.44
442.50	664.71
442.68	648.33
442.87	676.41
443.05	667.05
443.24	634.29
443.43	688.12
443.61	599.18
443.80	622.58
443.98	660.03
444.17	620.24
444.35	650.67
444.54	620.24
444.73	624.92
444.91	669.39
445.10	589.82
445.28	657.69
445.47	603.86
445.65	669.39
445.84	667.05
446.02	653.01
446.21	638.97
446.39	629.60
446.58	676.41
446.77	678.76
446.95	660.03
447.14	645.99
447.32	634.29
447.51	653.01
447.69	636.63
447.88	711.52
448.06	620.24
448.25	685.78
448.43	669.39
448.62	667.05
448.80	706.84
448.99	676.41
449.17	662.37
449.36	671.73
449.54	685.78
449.73	643.65
449.91	622.58
450.10	706.84
450.28	697.48
450.46	587.47
450.65	653.01
450.83	624.92
451.02	664.71
451.20	629.60
451.39	648.33
451.57	641.31
451.76	638.97
451.94	645.99
452.13	587.47
452.31	631.94
452.49	660.03
452.68	648.33
452.86	669.39
453.05	641.31
453.23	655.35
453.42	676.41
453.60	664.71
453.78	669.39
453.97	669.39
454.15	615.56
454.34	657.69
454.52	645.99
454.70	641.31
454.89	685.78
455.07	613.22
455.26	643.65
455.44	779.40
455.62	568.75
455.81	683.44
455.99	645.99
456.17	603.86
456.36	624.92
456.54	657.69
456.73	667.05
456.91	592.16
457.09	606.20
457.28	653.01
457.46	650.67
457.64	613.22
457.83	580.45
458.01	664.71
458.19	617.90
458.38	699.82
458.56	610.88
458.74	587.47
458.93	629.60
459.11	615.56
459.29	664.71
459.48	585.13
459.66	648.33
459.84	697.48
460.03	678.76
460.21	566.41
460.39	599.18
460.57	634.29
460.76	655.35
460.94	615.56
461.12	688.12
461.31	704.50
461.49	667.05
461.67	601.52
461.85	727.91
462.04	655.35
462.22	938.55
462.40	629.60
462.59	685.78
462.77	620.24
462.95	641.31
463.13	627.26
463.32	645.99
463.50	622.58
463.68	613.22
463.86	638.97
464.05	641.31
464.23	557.05
464.41	610.88
464.59	634.29
464.78	655.35
464.96	645.99
465.14	725.57
465.32	650.67
465.50	688.12
465.69	634.29
465.87	624.92
466.05	645.99
466.23	648.33
466.41	681.10
466.60	671.73
466.78	732.59
466.96	613.22
467.14	657.69
467.32	671.73
467.51	669.39
467.69	638.97
467.87	624.92
468.05	608.54
468.23	624.92
468.41	653.01
468.60	650.67
468.78	634.29
468.96	667.05
469.14	650.67
469.32	585.13
469.50	610.88
469.69	634.29
469.87	674.07
470.05	596.84
470.23	634.29
470.41	613.22
470.59	608.54
470.77	650.67
470.95	702.16
471.14	685.78
471.32	713.86
471.50	695.14
471.68	629.60
471.86	653.01
472.04	599.18
472.22	669.39
472.40	617.90
472.58	575.77
472.77	697.48
472.95	664.71
473.13	613.22
473.31	648.33
473.49	624.92
473.67	638.97
473.85	667.05
474.03	688.12
474.21	674.07
474.39	645.99
474.57	641.31
474.75	645.99
474.93	678.76
475.12	617.90
475.30	739.61
475.48	655.35
475.66	629.60
475.84	638.97
476.02	631.94
476.20	641.31
476.38	582.79
476.56	585.13
476.74	685.78
476.92	716.20
477.10	660.03
477.28	655.35
477.46	631.94
477.64	667.05
477.82	610.88
478.00	676.41
478.18	636.63
478.36	657.69
478.54	629.60
478.72	617.90
478.90	681.10
479.08	645.99
479.26	657.69
479.44	638.97
479.62	645.99
479.80	643.65
479.98	681.10
480.16	683.44
480.34	660.03
480.52	636.63
480.70	620.24
480.88	620.24
481.06	585.13
481.24	692.80
481.41	653.01
481.59	695.14
481.77	627.26
481.95	641.31
482.13	734.93
482.31	688.12
482.49	601.52
482.67	601.52
482.85	650.67
483.03	702.16
483.21	683.44
483.39	674.07
483.57	648.33
483.74	669.39
483.92	676.41
484.10	702.16
484.28	690.46
484.46	718.54
484.64	760.67
484.82	702.16
485.00	774.72
485.18	695.14
485.35	706.84
485.53	685.78
485.71	734.93
485.89	650.67
486.07	697.48
486.25	685.78
486.43	739.61
486.61	727.91
486.78	629.60
486.96	718.54
487.14	674.07
487.32	716.20
487.50	713.86
487.68	711.52
487.85	784.08
488.03	664.71
488.21	676.41
488.39	688.12
488.57	704.50
488.75	718.54
488.92	788.76
489.10	692.80
489.28	772.38
489.46	681.10
489.64	641.31
489.81	753.65
489.99	685.78
490.17	690.46
490.35	739.61
490.53	758.33
490.70	638.97
490.88	685.78
491.06	634.29
491.24	716.20
491.41	767.70
491.59	697.48
491.77	725.57
491.95	641.31
492.13	713.86
492.30	692.80
492.48	681.10
492.66	716.20
492.84	739.61
493.01	671.73
493.19	688.12
493.37	706.84
493.54	699.82
493.72	746.63
493.90	648.33
494.08	660.03
494.25	716.20
494.43	746.63
494.61	711.52
494.79	631.94
494.96	706.84
495.14	681.10
495.32	648.33
495.49	610.88
495.67	655.35
495.85	681.10
496.02	695.14
496.20	704.50
496.38	657.69
496.55	699.82
496.73	713.86
496.91	622.58
497.09	706.84
497.26	634.29
497.44	685.78
497.62	664.71
497.79	713.86
497.97	631.94
498.14	676.41
498.32	678.76
498.50	720.88
498.67	620.24
498.85	678.76
499.03	688.12
499.20	648.33
499.38	638.97
499.56	645.99
499.73	688.12
499.91	695.14
500.08	655.35
500.26	725.57
500.44	617.90
500.61	622.58
500.79	641.31
500.97	617.90
501.14	657.69
501.32	667.05
501.49	688.12
501.67	678.76
501.84	662.37
502.02	620.24
502.20	725.57
502.37	631.94
502.55	678.76
502.72	622.58
502.90	664.71
503.07	660.03
503.25	669.39
503.43	643.65
503.60	725.57
503.78	697.48
503.95	624.92
504.13	653.01
504.30	671.73
504.48	629.60
504.65	734.93
504.83	706.84
505.01	657.69
505.18	725.57
505.36	683.44
505.53	643.65
505.71	629.60
505.88	613.22
506.06	631.94
506.23	678.76
506.41	676.41
506.58	688.12
506.76	669.39
506.93	662.37
507.11	758.33
507.28	613.22
507.46	720.88
507.63	690.46
507.81	664.71
507.98	638.97
508.16	620.24
508.33	702.16
508.50	685.78
508.68	671.73
508.85	592.16
509.03	589.82
509.20	624.92
509.38	608.54
509.55	606.20
509.73	606.20
509.90	624.92
510.08	571.09
510.25	641.31
510.42	585.13
510.60	706.84
510.77	671.73
510.95	667.05
511.12	685.78
511.30	690.46
511.47	645.99
511.64	617.90
511.82	648.33
511.99	617.90
512.17	648.33
512.34	624.92
512.51	582.79
512.69	709.18
512.86	662.37
513.04	631.94
513.21	732.59
513.38	641.31
513.56	610.88
513.73	638.97
513.90	688.12
514.08	615.56
514.25	603.86
514.43	648.33
514.60	636.63
514.77	610.88
514.95	744.29
515.12	674.07
515.29	760.67
515.47	648.33
515.64	645.99
515.81	645.99
515.99	718.54
516.16	706.84
516.33	634.29
516.51	655.35
516.68	535.98
516.85	603.86
517.03	603.86
517.20	638.97
517.37	617.90
517.54	683.44
517.72	692.80
517.89	599.18
518.06	636.63
518.24	685.78
518.41	645.99
518.58	685.78
518.75	648.33
518.93	669.39
519.10	624.92
519.27	671.73
519.45	692.80
519.62	664.71
519.79	613.22
519.96	596.84
520.14	622.58
520.31	711.52
520.48	638.97
520.65	608.54
520.83	629.60
521.00	594.50
521.17	702.16
521.34	660.03
521.52	702.16
521.69	704.50
521.86	744.29
522.03	702.16
522.20	692.80
522.38	645.99
522.55	650.67
522.72	662.37
522.89	629.60
523.07	702.16
523.24	634.29
523.41	699.82
523.58	660.03
523.75	615.56
523.92	566.41
524.10	702.16
524.27	676.41
524.44	662.37
524.61	660.03
524.78	660.03
524.96	695.14
525.13	631.94
525.30	636.63
525.47	713.86
525.64	653.01
525.81	674.07
525.98	671.73
526.16	620.24
526.33	685.78
526.50	664.71
526.67	683.44
526.84	645.99
527.01	638.97
527.18	648.33
527.36	631.94
527.53	601.52
527.70	720.88
527.87	716.20
528.04	732.59
528.21	599.18
528.38	692.80
528.55	657.69
528.72	575.77
528.89	702.16
529.07	610.88
529.24	543.00
529.41	667.05
529.58	631.94
529.75	683.44
529.92	645.99
530.09	631.94
530.26	678.76
530.43	643.65
530.60	699.82
530.77	671.73
530.94	573.43
531.11	657.69
531.28	657.69
531.46	685.78
531.63	713.86
531.80	669.39
531.97	653.01
532.14	688.12
532.31	683.44
532.48	699.82
532.65	720.88
532.82	657.69
532.99	730.25
533.16	716.20
533.33	648.33
533.50	617.90
533.67	667.05
533.84	653.01
534.01	669.39
534.18	671.73
534.35	695.14
534.52	634.29
534.69	613.22
534.86	674.07
535.03	662.37
535.20	657.69
535.37	650.67
535.54	709.18
535.71	669.39
535.88	683.44
536.05	648.33
536.22	725.57
536.38	720.88
536.55	706.84
536.72	727.91
536.89	634.29
537.06	774.72
537.23	720.88
537.40	744.29
537.57	716.20
537.74	758.33
537.91	748.97
538.08	793.44
538.25	767.70
538.42	793.44
538.59	758.33
538.75	753.65
538.92	774.72
539.09	748.97
539.26	784.08
539.43	873.02
539.60	880.04
539.77	875.36
539.94	929.19
540.11	858.98
540.28	903.45
540.44	943.24
540.61	985.37
540.78	1039.20
540.95	1064.94
541.12	1177.29
541.29	1280.27
541.46	1280.27
541.62	1296.66
541.79	1210.06
541.96	1301.34
542.13	1273.25
542.30	1226.44
542.47	1334.11
542.63	1254.53
542.80	1226.44
542.97	1242.82
543.14	1186.65
543.31	1259.21
543.48	1256.87
543.64	1296.66
543.81	1188.99
543.98	1188.99
544.15	1151.54
544.32	1196.01
544.48	1221.76
544.65	1214.74
544.82	1200.69
544.99	1193.67
545.16	1235.80
545.32	1275.59
545.49	1629.01
545.66	1980.09
545.83	2293.72
546.00	1966.05
546.16	1607.95
546.33	1523.69
546.50	1383.26
546.67	1219.42
546.83	1205.38
547.00	1032.18
547.17	990.05
547.34	997.07
547.50	964.30
547.67	1034.52
547.84	898.77
548.00	950.26
548.17	950.26
548.34	896.43
548.51	964.30
548.67	976.00
548.84	968.98
549.01	870.68
549.18	912.81
549.34	908.13
549.51	961.96
549.68	910.47
549.84	894.08
550.01	898.77
550.18	873.02
550.34	840.25
550.51	851.96
550.68	840.25
550.84	711.52
551.01	812.17
551.18	858.98
551.34	772.38
551.51	814.51
551.68	734.93
551.84	737.27
552.01	814.51
552.18	774.72
552.34	727.91
552.51	774.72
552.68	767.70
552.84	833.23
553.01	758.33
553.18	781.74
553.34	737.27
553.51	720.88
553.67	713.86
553.84	704.50
554.01	760.67
554.17	676.41
554.34	697.48
554.51	713.86
554.67	697.48
554.84	725.57
555.00	690.46
555.17	713.86
555.33	709.18
555.50	720.88
555.67	755.99
555.83	751.31
556.00	685.78
556.16	767.70
556.33	669.39
556.50	681.10
556.66	720.88
556.83	674.07
556.99	681.10
557.16	739.61
557.32	713.86
557.49	664.71
557.65	636.63
557.82	615.56
557.98	638.97
558.15	697.48
558.32	634.29
558.48	671.73
558.65	758.33
558.81	657.69
558.98	648.33
559.14	690.46
559.31	699.82
559.47	634.29
559.64	667.05
559.80	692.80
559.97	606.20
560.13	653.01
560.30	683.44
560.46	795.78
560.63	606.20
560.79	674.07
560.96	660.03
561.12	622.58
561.29	629.60
561.45	645.99
561.61	697.48
561.78	713.86
561.94	636.63
562.11	615.56
562.27	643.65
562.44	631.94
562.60	688.12
562.77	704.50
562.93	690.46
563.10	676.41
563.26	685.78
563.42	650.67
563.59	702.16
563.75	678.76
563.92	655.35
564.08	594.50
564.24	627.26
564.41	664.71
564.57	613.22
564.74	571.09
564.90	667.05
565.07	664.71
565.23	695.14
565.39	692.80
565.56	709.18
565.72	613.22
565.88	624.92
566.05	603.86
566.21	608.54
566.38	669.39
566.54	601.52
566.70	683.44
566.87	711.52
567.03	657.69
567.19	578.11
567.36	645.99
567.52	627.26
567.68	681.10
567.85	676.41
568.01	636.63
568.17	699.82
568.34	667.05
568.50	603.86
568.66	606.20
568.83	695.14
568.99	636.63
569.15	702.16
569.32	603.86
569.48	599.18
569.64	596.84
569.81	634.29
569.97	650.67
570.13	627.26
570.30	664.71
570.46	699.82
570.62	627.26
570.78	655.35
570.95	674.07
571.11	739.61
571.27	692.80
571.43	606.20
571.60	709.18
571.76	631.94
571.92	643.65
572.09	641.31
572.25	624.92
572.41	641.31
572.57	620.24
572.74	657.69
572.90	589.82
573.06	664.71
573.22	732.59
573.38	664.71
573.55	624.92
573.71	615.56
573.87	716.20
574.03	645.99
574.20	713.86
574.36	650.67
574.52	643.65
574.68	650.67
574.84	655.35
575.01	667.05
575.17	683.44
575.33	650.67
575.49	746.63
575.65	664.71
575.82	643.65
575.98	704.50
576.14	641.31
576.30	713.86
576.46	823.87
576.62	922.17
576.79	884.72
576.95	814.51
577.11	830.89
577.27	826.21
577.43	737.27
577.59	779.40
577.75	683.44
577.92	688.12
578.08	695.14
578.24	676.41
578.40	690.46
578.56	788.76
578.72	854.30
578.88	851.96
579.04	926.85
579.21	856.64
579.37	765.36
579.53	770.04
579.69	767.70
579.85	720.88
580.01	784.08
580.17	821.53
580.33	826.21
580.49	709.18
580.65	830.89
580.82	760.67
580.98	706.84
581.14	725.57
581.30	763.01
581.46	828.55
581.62	739.61
581.78	695.14
581.94	734.93
582.10	702.16
582.26	767.70
582.42	758.33
582.58	760.67
582.74	798.12
582.90	793.44
583.06	786.42
583.22	753.65
583.38	851.96
583.54	781.74
583.70	751.31
583.86	807.48
584.02	784.08
584.18	760.67
584.34	734.93
584.50	737.27
584.66	784.08
584.82	767.70
584.98	802.80
585.14	788.76
585.30	748.97
585.46	741.95
585.62	763.01
585.78	725.57
585.94	753.65
586.10	706.84
586.26	758.33
586.42	805.14
586.58	795.78
586.74	788.76
586.90	835.57
587.06	929.19
587.22	875.36
587.38	866.00
587.54	844.93
587.70	891.74
587.86	877.70
588.02	730.25
588.18	770.04
588.34	746.63
588.49	741.95
588.65	755.99
588.81	793.44
588.97	814.51
589.13	727.91
589.29	727.91
589.45	760.67
589.61	681.10
589.77	723.23
589.93	746.63
590.08	723.23
590.24	760.67
590.40	725.57
590.56	702.16
590.72	678.76
590.88	720.88
591.04	765.36
591.20	718.54
591.35	795.78
591.51	720.88
591.67	791.10
591.83	781.74
591.99	814.51
592.15	786.42
592.31	781.74
592.46	713.86
592.62	849.61
592.78	669.39
592.94	739.61
593.10	755.99
593.26	800.46
593.41	788.76
593.57	772.38
593.73	779.40
593.89	781.74
594.05	816.85
594.20	748.97
594.36	655.35
594.52	709.18
594.68	685.78
594.84	786.42
594.99	741.95
595.15	709.18
595.31	755.99
595.47	788.76
595.62	643.65
595.78	681.10
595.94	669.39
596.10	739.61
596.25	699.82
596.41	650.67
596.57	711.52
596.73	725.57
596.88	627.26
597.04	688.12
597.20	688.12
597.36	800.46
597.51	730.25
597.67	718.54
597.83	657.69
597.99	751.31
598.14	732.59
598.30	737.27
598.46	793.44
598.61	774.72
598.77	765.36
598.93	723.23
599.09	781.74
599.24	751.31
599.40	709.18
599.56	779.40
599.71	702.16
599.87	720.88
600.03	830.89
600.18	723.23
600.34	702.16
600.50	763.01
600.65	690.46
600.81	718.54
600.97	716.20
601.12	739.61
601.28	758.33
601.44	723.23
601.59	620.24
601.75	711.52
601.91	709.18
602.06	674.07
602.22	732.59
602.37	751.31
602.53	744.29
602.69	662.37
602.84	643.65
603.00	688.12
603.16	704.50
603.31	667.05
603.47	709.18
603.62	624.92
603.78	697.48
603.94	699.82
604.09	695.14
604.25	723.23
604.40	671.73
604.56	690.46
604.71	760.67
604.87	692.80
605.03	653.01
605.18	685.78
605.34	709.18
605.49	758.33
605.65	732.59
605.80	685.78
605.96	631.94
606.12	678.76
606.27	763.01
606.43	765.36
606.58	739.61
606.74	720.88
606.89	755.99
607.05	697.48
607.20	704.50
607.36	744.29
607.51	718.54
607.67	734.93
607.82	699.82
607.98	746.63
608.13	791.10
608.29	671.73
608.44	779.40
608.60	741.95
608.75	784.08
608.91	833.23
609.06	856.64
609.22	910.47
609.37	795.78
609.53	763.01
609.68	919.83
609.84	971.32
