SpectraSuite Data File
++++++++++++++++++++++++++++++++++++
Date: Thu Oct 24 13:21:37 EDT 2013
User: stostad
Dark Spectrum Present: No
Reference Spectrum Present: No
Number of Sampled Component Spectra: 1
Spectrometers: USB2+H05261
Integration Time (usec): 100000 (USB2+H05261)
Spectra Averaged: 1 (USB2+H05261)
Boxcar Smoothing: 0 (USB2+H05261)
Correct for Electrical Dark: No (USB2+H05261)
Strobe/Lamp Enabled: No (USB2+H05261)
Correct for Detector Non-linearity: No (USB2+H05261)
Correct for Stray Light: No (USB2+H05261)
Number of Pixels in Processed Spectrum: 2048
>>>>>Begin Processed Spectral Data<<<<<
365.73	575.77
365.92	575.77
366.12	575.77
366.32	482.15
366.52	510.24
366.72	528.96
366.91	489.17
367.11	472.79
367.31	489.17
367.51	475.13
367.70	531.30
367.90	461.09
368.10	451.72
368.30	482.15
368.49	461.09
368.69	451.72
368.89	505.56
369.09	500.87
369.28	440.02
369.48	543.00
369.68	533.64
369.87	552.37
370.07	573.43
370.27	564.07
370.47	720.88
370.66	1184.31
370.86	1172.61
371.06	1235.80
371.25	1308.36
371.45	1315.38
371.65	1186.65
371.84	1273.25
372.04	1284.95
372.24	1331.76
372.44	1336.45
372.63	1313.04
372.83	1430.07
373.03	1357.51
373.22	1411.34
373.42	1371.55
373.62	1418.36
373.81	1462.83
374.01	1462.83
374.21	1448.79
374.40	1413.68
374.60	1521.35
374.79	1418.36
374.99	1490.92
375.19	1446.45
375.38	1488.58
375.58	1516.67
375.78	1607.95
375.97	1537.73
376.17	1591.56
376.37	1610.29
376.56	1678.16
376.76	1629.01
376.95	1593.90
377.15	1540.07
377.35	1519.01
377.54	1708.59
377.74	1675.82
377.93	1687.53
378.13	1549.43
378.33	1689.87
378.52	1671.14
378.72	1708.59
378.91	1666.46
379.11	1675.82
379.31	1645.40
379.50	1710.93
379.70	1696.89
379.89	1755.40
380.09	1778.81
380.28	1769.44
380.48	1813.92
380.68	1820.94
380.87	1851.36
381.07	1813.92
381.26	1783.49
381.46	1804.55
381.65	1811.57
381.85	1877.11
382.04	1970.73
382.24	1825.62
382.43	1863.07
382.63	1865.41
382.83	1909.88
383.02	1926.26
383.22	1942.64
383.41	1898.17
383.61	2019.88
383.80	1991.80
384.00	2043.29
384.19	1952.01
384.39	1919.24
384.58	1954.35
384.78	2036.27
384.97	2069.03
385.17	2026.90
385.36	1980.09
385.56	2083.08
385.75	2043.29
385.95	2038.61
386.14	2157.97
386.34	2022.22
386.53	2062.01
386.72	2127.55
386.92	2195.42
387.11	2249.25
387.31	2258.62
387.50	2258.62
387.70	2186.06
387.89	2286.70
388.09	2258.62
388.28	2209.47
388.48	2284.36
388.67	2310.11
388.86	2244.57
389.06	2321.81
389.25	2377.98
389.45	2403.73
389.64	2377.98
389.84	2366.28
390.03	2415.43
390.22	2441.18
390.42	2370.96
390.61	2314.79
390.81	2401.39
391.00	2480.97
391.19	2527.78
391.39	2480.97
391.58	2469.27
391.78	2429.48
391.97	2562.89
392.16	2480.97
392.36	2605.02
392.55	2553.52
392.75	2628.42
392.94	2619.06
393.13	2597.99
393.33	2518.42
393.52	2605.02
393.71	2614.38
393.91	2766.51
394.10	2612.04
394.29	2635.44
394.49	2684.59
394.68	2782.90
394.88	2663.53
395.07	2794.60
395.26	2796.94
395.46	2693.96
395.65	2843.75
395.84	2972.48
396.04	3005.25
396.23	2937.37
396.42	2918.65
396.62	3002.91
396.81	2935.03
397.00	2939.71
397.19	2932.69
397.39	3126.96
397.58	3042.70
397.77	3087.17
397.97	3185.47
398.16	3108.23
398.35	3260.37
398.55	3030.99
398.74	3164.40
398.93	3276.75
399.12	3141.00
399.32	3234.62
399.51	3248.66
399.70	3368.03
399.90	3171.43
400.09	3311.86
400.28	3389.10
400.47	3431.23
400.67	3452.29
400.86	3449.95
401.05	3339.94
401.24	3440.59
401.44	3630.17
401.63	3499.10
401.82	3569.32
402.01	3569.32
402.21	3515.48
402.40	3625.49
402.59	3623.15
402.78	3644.21
402.97	3669.96
403.17	3693.37
403.36	3730.81
403.55	3829.12
403.74	3932.10
403.93	3896.99
404.13	3772.94
404.32	3908.69
404.51	3918.06
404.70	3941.46
404.89	3838.48
405.09	4004.66
405.28	3981.25
405.47	4025.72
405.66	4032.74
405.85	3934.44
406.05	3992.95
406.24	3992.95
406.43	4124.02
406.62	4114.66
406.81	4149.77
407.00	4128.70
407.20	4152.11
407.39	4332.33
407.58	4355.74
407.77	4329.99
407.96	4301.90
408.15	4397.87
408.34	4341.69
408.54	4470.42
408.73	4407.23
408.92	4423.61
409.11	4435.32
409.30	4683.41
409.49	4587.45
409.68	4578.09
409.87	4568.73
410.07	4823.84
410.26	4660.01
410.45	4683.41
410.64	4755.97
410.83	4823.84
411.02	4950.23
411.21	4905.76
411.40	4891.72
411.59	4952.57
411.78	5069.60
411.98	4798.10
412.17	4950.23
412.36	5093.01
412.55	5214.71
412.74	5394.93
412.93	5289.61
413.12	5214.71
413.31	5479.19
413.50	5238.12
413.69	5355.15
413.88	5458.13
414.07	5497.92
414.26	5694.52
414.45	5650.05
414.64	5666.44
414.83	5657.07
415.02	5731.97
415.22	5762.40
415.41	5757.72
415.60	6008.16
415.79	6017.52
415.98	5991.77
416.17	6146.25
416.36	6183.70
416.55	6083.05
416.74	6272.64
416.93	6207.10
417.12	6282.00
417.31	6469.24
417.50	6307.74
417.69	6518.39
417.88	6366.26
418.07	6324.13
418.26	6366.26
418.45	6602.65
418.64	6656.48
418.83	6555.84
419.02	6806.28
419.21	6864.79
419.39	6661.16
419.58	6773.51
419.77	6656.48
419.96	6733.72
420.15	6937.35
420.34	6651.80
420.53	6869.47
420.72	7002.88
420.91	6958.41
421.10	7089.48
421.29	7136.29
421.48	6796.92
421.67	7194.81
421.86	7133.95
422.05	7243.96
422.24	7094.16
422.43	7365.67
422.61	7201.83
422.80	7473.33
422.99	7445.24
423.18	7517.80
423.37	7501.42
423.56	7426.52
423.75	7311.83
423.94	7155.02
424.13	6808.62
424.32	7091.82
424.50	7440.56
424.69	7609.08
424.88	7716.75
425.07	7527.16
425.26	7283.75
425.45	7424.18
425.64	7325.88
425.83	7267.36
426.01	7482.69
426.20	7414.82
426.39	7400.77
426.58	7562.27
426.77	7522.48
426.96	7751.85
427.15	7616.10
427.33	7831.43
427.52	7672.28
427.71	7920.37
427.90	7791.64
428.09	7808.03
428.28	7925.05
428.46	7990.59
428.65	7896.97
428.84	8208.26
429.03	8086.55
429.22	8226.98
429.40	8077.19
429.59	8065.49
429.78	7796.32
429.97	7770.58
430.16	8154.43
430.34	8379.12
430.53	8432.95
430.72	8386.14
430.91	8386.14
431.10	8229.32
431.28	8507.85
431.47	8397.84
431.66	8627.21
431.85	8531.25
432.03	8760.63
432.22	8884.67
432.41	8636.58
432.60	8891.70
432.79	8751.26
432.97	8910.42
433.16	8865.95
433.35	8849.57
433.54	9029.79
433.72	9116.39
433.91	9074.26
434.10	9128.09
434.28	8966.59
434.47	9369.16
434.66	9142.13
434.85	9338.74
435.03	9533.00
435.22	9479.17
435.41	9631.30
435.59	9734.29
435.78	9575.13
435.97	9647.69
436.16	9488.53
436.34	9614.92
436.53	9446.40
436.72	9870.04
436.90	9619.60
437.09	9884.08
437.28	9535.34
437.46	9734.29
437.65	9767.06
437.84	10225.80
438.02	10171.97
438.21	9987.07
438.40	9820.89
438.58	10279.63
438.77	10296.02
438.96	10134.52
439.14	10487.94
439.33	10509.01
439.52	10642.42
439.70	10511.35
439.89	11002.86
440.08	10813.28
440.26	10984.13
440.45	10965.41
440.63	10883.49
440.82	11145.63
441.01	11152.65
441.19	11215.85
441.38	11426.50
441.57	11492.03
441.75	11499.05
441.94	11658.21
442.12	11716.72
442.31	11620.76
442.50	11971.84
442.68	11609.06
442.87	11948.43
443.05	11880.56
443.24	12269.09
443.43	12030.35
443.61	11981.20
443.80	12409.52
443.98	11927.37
444.17	11513.10
444.35	11913.33
444.54	12233.98
444.73	12030.35
444.91	11983.54
445.10	12147.38
445.28	12182.49
445.47	12163.76
445.65	12269.09
445.84	12425.90
446.02	12463.35
446.21	12453.99
446.39	12400.16
446.58	12718.47
446.77	12615.49
446.95	12379.09
447.14	12292.49
447.32	12697.41
447.51	12566.34
447.69	12355.69
447.88	12503.14
448.06	12608.47
448.25	12592.08
448.43	12744.22
448.62	12606.13
448.80	12505.48
448.99	12929.12
449.17	12793.37
449.36	12802.73
449.54	12936.14
449.73	13170.19
449.91	13067.21
450.10	13235.73
450.28	13226.37
450.46	13357.44
450.65	13530.64
450.83	13441.70
451.02	13252.11
451.20	13799.80
451.39	13645.32
451.57	13348.08
451.76	13650.00
451.94	13549.36
452.13	13841.93
452.31	13816.18
452.49	13582.13
452.68	13792.78
452.86	13839.59
453.05	13778.73
453.23	13764.69
453.42	13724.90
453.60	13855.97
453.78	14169.60
453.97	13827.88
454.15	14001.08
454.34	13844.27
454.52	14190.67
454.70	14181.31
454.89	14214.07
455.07	14239.82
455.26	14424.72
455.44	14698.56
455.62	14682.18
455.81	14464.51
455.99	14736.01
456.17	14464.51
456.36	14728.99
456.54	15084.75
456.73	15185.40
456.91	15578.61
457.09	15372.64
457.28	15573.92
457.46	15183.06
457.64	15515.41
457.83	15545.84
458.01	15456.90
458.19	15934.37
458.38	15609.03
458.56	15901.60
458.74	15740.10
458.93	16013.95
459.11	15946.07
459.29	16105.23
459.48	16145.02
459.66	15716.70
459.84	15836.06
460.03	16650.57
460.21	16299.49
460.39	16264.38
460.57	16121.61
460.76	16379.07
460.94	16718.45
461.12	16615.46
461.31	16432.90
461.49	16840.15
461.67	16404.81
461.85	17067.19
462.04	16898.67
462.22	17247.41
462.40	16982.93
462.59	17003.99
462.77	17078.89
462.95	17404.22
463.13	17261.45
463.32	17380.82
463.50	17352.73
463.68	17425.29
463.86	17767.01
464.05	17219.32
464.23	17308.26
464.41	17523.59
464.59	17408.90
464.78	17926.16
464.96	17624.23
465.14	17584.44
465.32	17743.60
465.50	17867.65
465.69	17933.18
465.87	18061.91
466.05	17867.65
466.23	18050.21
466.41	17975.31
466.60	18221.07
466.78	17944.89
466.96	17956.59
467.14	18125.11
467.32	18492.57
467.51	18586.19
467.69	17949.57
467.87	18239.79
468.05	18817.91
468.23	18183.62
468.41	18366.18
468.60	18546.40
468.78	18796.84
468.96	18841.31
469.14	18995.79
469.32	19220.48
469.50	18857.70
469.69	19171.33
469.87	19648.80
470.05	19199.41
470.23	19468.58
470.41	19587.94
470.59	19709.65
470.77	19440.49
470.95	19576.24
471.14	19620.71
471.32	19269.63
471.50	20072.43
471.68	20161.37
471.86	19836.04
472.04	20355.64
472.22	20865.88
472.40	20255.00
472.58	20585.01
472.77	20659.91
472.95	21125.68
473.13	21575.06
473.31	20489.05
473.49	21266.11
473.67	20842.47
473.85	21202.91
474.03	21465.05
474.21	21619.53
474.39	21764.64
474.57	21926.14
474.75	22256.15
474.93	22375.52
475.12	22127.42
475.30	22340.41
475.48	21949.54
475.66	22511.27
475.84	22663.41
476.02	22792.14
476.20	22934.91
476.38	23199.39
476.56	23885.17
476.74	23503.66
476.92	23571.54
477.10	23517.70
477.28	23971.77
477.46	24041.98
477.64	24009.22
477.82	24173.05
478.00	25125.65
478.18	24741.80
478.36	25392.47
478.54	25479.07
478.72	25378.43
478.90	25781.00
479.08	26167.19
479.26	26785.09
479.44	26391.88
479.62	26682.11
479.80	26909.14
479.98	27005.10
480.16	27882.80
480.34	27126.81
480.52	27974.08
480.70	27625.34
480.88	27449.80
481.06	28039.62
481.24	27843.01
481.41	28835.40
481.59	28650.50
481.77	28999.24
481.95	29053.07
482.13	29418.19
482.31	29399.47
482.49	30251.42
482.67	30012.69
482.85	30249.08
483.03	30532.29
483.21	31173.60
483.39	31314.03
483.57	30761.66
483.74	31417.01
483.92	31758.73
484.10	31405.31
484.28	32568.55
484.46	32589.62
484.64	33457.96
484.82	32828.35
485.00	32954.74
485.18	33521.15
485.35	34398.85
485.53	33867.55
485.71	34422.26
485.89	34712.49
486.07	34342.68
486.25	35145.48
486.43	34850.58
486.61	35658.06
486.78	36376.61
486.96	35901.48
487.14	36278.30
487.32	36493.63
487.50	37158.34
487.68	37411.12
487.85	37560.92
488.03	38007.96
488.21	38663.31
488.39	38438.62
488.57	38852.89
488.75	38447.98
488.92	39356.11
489.10	39517.60
489.28	39461.43
489.46	40175.30
489.64	40451.48
489.81	40891.50
489.99	40786.18
490.17	40903.20
490.35	41610.04
490.53	41773.88
490.70	42387.10
490.88	41743.45
491.06	42572.00
491.24	42787.33
491.41	42714.78
491.59	43222.67
491.77	43243.74
491.95	43789.08
492.13	43938.88
492.30	44172.93
492.48	43863.98
492.66	44732.32
492.84	44947.65
493.01	44872.75
493.19	45188.72
493.37	45488.31
493.54	45731.73
493.72	46148.34
493.90	45918.97
494.08	46717.09
494.25	46997.96
494.43	46983.91
494.61	47363.08
494.79	47688.42
494.96	47533.94
495.14	47716.50
495.32	48147.16
495.49	48584.84
495.67	48907.83
495.85	49411.05
496.02	48868.05
496.20	49425.09
496.38	49184.02
496.55	49022.52
496.73	50174.06
496.91	50101.51
497.09	50047.68
497.26	50246.62
497.44	50068.74
497.62	50798.99
497.79	51271.78
497.97	51000.27
498.14	51657.96
498.32	51845.21
498.50	51360.72
498.67	51978.62
498.85	51753.93
499.03	52435.02
499.20	52165.86
499.38	52514.60
499.56	52533.32
499.73	52554.39
499.91	52706.52
500.08	52966.32
500.26	52989.73
500.44	53343.15
500.61	53284.64
500.79	53298.68
500.97	53633.38
501.14	53743.38
501.32	54064.03
501.49	53869.77
501.67	53855.73
501.84	54520.44
502.02	54410.43
502.20	54234.89
502.37	54518.10
502.55	54354.26
502.72	54518.10
502.90	54733.43
503.07	54588.31
503.25	55009.61
503.43	55124.30
503.60	55260.05
503.78	55061.10
503.95	55480.06
504.13	55363.03
504.30	55686.03
504.48	55435.59
504.65	55901.36
504.83	55969.23
505.01	56067.53
505.18	55803.05
505.36	56289.88
505.53	56114.34
505.71	56147.11
505.88	56561.39
506.06	56261.80
506.23	56706.50
506.41	56406.91
506.58	56708.84
506.76	56722.88
506.93	57003.75
507.11	57076.30
507.28	57120.77
507.46	57120.77
507.63	57308.02
507.81	57553.77
507.98	57118.43
508.16	57446.11
508.33	57684.84
508.50	57757.40
508.68	57939.96
508.85	58197.42
509.03	57684.84
509.20	57911.88
509.38	58064.01
509.55	58232.53
509.73	58417.43
509.90	58567.23
510.08	58211.46
510.25	58585.95
510.42	58372.96
510.60	58520.41
510.77	58614.04
510.95	58803.62
511.12	58810.64
511.30	58951.07
511.47	59157.04
511.64	58937.03
511.82	59337.26
511.99	59072.78
512.17	59248.32
512.34	59423.86
512.51	59606.42
512.69	59788.98
512.86	59690.68
513.04	59854.52
513.21	59810.05
513.38	59561.95
513.56	59962.18
513.73	59650.89
513.90	59959.84
514.08	59971.55
514.25	60186.88
514.43	60266.45
514.60	60334.33
514.77	60179.85
514.95	60292.20
515.12	60254.75
515.29	60313.26
515.47	60825.84
515.64	60823.50
515.81	60701.79
515.99	60584.77
516.16	60891.38
516.33	60865.63
516.51	61242.46
516.68	61085.64
516.85	61003.72
517.03	61289.27
517.20	61106.71
517.37	61038.83
517.54	60968.61
517.72	61144.16
517.89	61289.27
518.06	61483.53
518.24	61418.00
518.41	61190.97
518.58	61572.47
518.75	61607.58
518.93	61797.16
519.10	61560.77
519.27	61858.02
519.45	61968.02
519.62	62042.92
519.79	61930.58
519.96	62068.67
520.14	62150.59
520.31	62113.14
520.48	62007.81
520.65	62056.96
520.83	62401.02
521.00	62632.74
521.17	62454.86
521.34	62592.95
521.52	62438.47
521.69	62611.67
521.86	62674.87
522.03	62576.56
522.20	62939.35
522.38	62906.58
522.55	63023.61
522.72	62817.64
522.89	62929.98
523.07	63276.38
523.24	63157.02
523.41	63042.33
523.58	63178.08
523.75	63185.10
523.92	63393.41
524.10	63269.36
524.27	63384.05
524.44	63372.34
524.61	63309.15
524.78	63426.18
524.96	63423.84
525.13	63543.20
525.30	63702.36
525.47	63805.34
525.64	63678.96
525.81	63763.21
525.98	63938.75
526.16	63608.74
526.33	63730.45
526.50	64123.66
526.67	63959.82
526.84	64079.19
527.01	64163.45
527.18	64020.67
527.36	63948.12
527.53	64121.32
527.70	64245.36
527.87	64413.88
528.04	64217.28
528.21	64601.13
528.38	64432.61
528.55	64610.49
528.72	64147.06
528.89	64540.27
529.07	64329.62
529.24	64484.10
529.41	64694.75
529.58	64664.32
529.75	64664.32
529.92	64804.75
530.09	64755.60
530.26	64881.99
530.43	64795.39
530.60	64809.43
530.77	64577.72
530.94	65118.38
531.11	65078.60
531.28	65020.08
531.46	65141.79
531.63	65240.09
531.80	64999.02
531.97	65106.68
532.14	65310.31
532.31	65212.01
532.48	65490.53
532.65	65368.82
532.82	65329.03
532.99	65525.64
533.16	65420.31
533.33	65523.30
533.50	65535.00
533.67	65535.00
533.84	65490.53
534.01	65535.00
534.18	65535.00
534.35	65535.00
534.52	65535.00
534.69	65535.00
534.86	65535.00
535.03	65535.00
535.20	65535.00
535.37	65535.00
535.54	65535.00
535.71	65535.00
535.88	65535.00
536.05	65535.00
536.22	65535.00
536.38	65535.00
536.55	65535.00
536.72	65535.00
536.89	65535.00
537.06	65535.00
537.23	65535.00
537.40	65535.00
537.57	65535.00
537.74	65535.00
537.91	65535.00
538.08	65535.00
538.25	65535.00
538.42	65535.00
538.59	65535.00
538.75	65535.00
538.92	65535.00
539.09	65535.00
539.26	65535.00
539.43	65535.00
539.60	65535.00
539.77	65535.00
539.94	65535.00
540.11	65535.00
540.28	65535.00
540.44	65535.00
540.61	65535.00
540.78	65535.00
540.95	65535.00
541.12	65535.00
541.29	65535.00
541.46	65535.00
541.62	65535.00
541.79	65535.00
541.96	65535.00
542.13	65535.00
542.30	65535.00
542.47	65535.00
542.63	65535.00
542.80	65535.00
542.97	65535.00
543.14	65535.00
543.31	65535.00
543.48	65535.00
543.64	65535.00
543.81	65535.00
543.98	65535.00
544.15	65535.00
544.32	65535.00
544.48	65535.00
544.65	65535.00
544.82	65535.00
544.99	65535.00
545.16	65535.00
545.32	65535.00
545.49	65535.00
545.66	65535.00
545.83	65535.00
546.00	65535.00
546.16	65535.00
546.33	65535.00
546.50	65535.00
546.67	65535.00
546.83	65535.00
547.00	65535.00
547.17	65535.00
547.34	65535.00
547.50	65535.00
547.67	65535.00
547.84	65535.00
548.00	65535.00
548.17	65535.00
548.34	65535.00
548.51	65535.00
548.67	65535.00
548.84	65535.00
549.01	65535.00
549.18	65535.00
549.34	65535.00
549.51	65535.00
549.68	65535.00
549.84	65535.00
550.01	65535.00
550.18	65535.00
550.34	65535.00
550.51	65535.00
550.68	65535.00
550.84	65535.00
551.01	65535.00
551.18	65535.00
551.34	65535.00
551.51	65535.00
551.68	65535.00
551.84	65535.00
552.01	65535.00
552.18	65535.00
552.34	65535.00
552.51	65535.00
552.68	65535.00
552.84	65535.00
553.01	65535.00
553.18	65535.00
553.34	65535.00
553.51	65535.00
553.67	65535.00
553.84	65535.00
554.01	65535.00
554.17	65535.00
554.34	65535.00
554.51	65535.00
554.67	65535.00
554.84	65535.00
555.00	65535.00
555.17	65535.00
555.33	65535.00
555.50	65535.00
555.67	65535.00
555.83	65535.00
556.00	65535.00
556.16	65535.00
556.33	65535.00
556.50	65535.00
556.66	65535.00
556.83	65535.00
556.99	65535.00
557.16	65535.00
557.32	65535.00
557.49	65535.00
557.65	65535.00
557.82	65535.00
557.98	65535.00
558.15	65535.00
558.32	65535.00
558.48	65535.00
558.65	65535.00
558.81	65535.00
558.98	65535.00
559.14	65535.00
559.31	65535.00
559.47	65535.00
559.64	65535.00
559.80	65535.00
559.97	65535.00
560.13	65535.00
560.30	65535.00
560.46	65535.00
560.63	65535.00
560.79	65535.00
560.96	65535.00
561.12	65535.00
561.29	65535.00
561.45	65535.00
561.61	65535.00
561.78	65535.00
561.94	65535.00
562.11	65535.00
562.27	65535.00
562.44	65535.00
562.60	65535.00
562.77	65535.00
562.93	65535.00
563.10	65535.00
563.26	65535.00
563.42	65535.00
563.59	65535.00
563.75	65535.00
563.92	65535.00
564.08	65535.00
564.24	65535.00
564.41	65535.00
564.57	65535.00
564.74	65535.00
564.90	65535.00
565.07	65535.00
565.23	65535.00
565.39	65535.00
565.56	65535.00
565.72	65535.00
565.88	65535.00
566.05	65535.00
566.21	65535.00
566.38	65535.00
566.54	65535.00
566.70	65535.00
566.87	65535.00
567.03	65535.00
567.19	65535.00
567.36	65535.00
567.52	65535.00
567.68	65535.00
567.85	65535.00
568.01	65535.00
568.17	65535.00
568.34	65535.00
568.50	65535.00
568.66	65535.00
568.83	65535.00
568.99	65535.00
569.15	65535.00
569.32	65535.00
569.48	65535.00
569.64	65535.00
569.81	65535.00
569.97	65535.00
570.13	65535.00
570.30	65535.00
570.46	65535.00
570.62	65535.00
570.78	65535.00
570.95	65535.00
571.11	65535.00
571.27	65535.00
571.43	65535.00
571.60	65535.00
571.76	65535.00
571.92	65535.00
572.09	65535.00
572.25	65535.00
572.41	65535.00
572.57	65535.00
572.74	65535.00
572.90	65535.00
573.06	65535.00
573.22	65535.00
573.38	65535.00
573.55	65535.00
573.71	65535.00
573.87	65535.00
574.03	65535.00
574.20	65535.00
574.36	65535.00
574.52	65535.00
574.68	65535.00
574.84	65535.00
575.01	65535.00
575.17	65535.00
575.33	65535.00
575.49	65535.00
575.65	65535.00
575.82	65535.00
575.98	65535.00
576.14	65535.00
576.30	65535.00
576.46	65535.00
576.62	65535.00
576.79	65535.00
576.95	65535.00
577.11	65535.00
577.27	65535.00
577.43	65535.00
577.59	65535.00
577.75	65535.00
577.92	65535.00
578.08	65535.00
578.24	65535.00
578.40	65535.00
578.56	65535.00
578.72	65535.00
578.88	65535.00
579.04	65535.00
579.21	65535.00
579.37	65535.00
579.53	65535.00
579.69	65535.00
579.85	65535.00
580.01	65535.00
580.17	65535.00
580.33	65535.00
580.49	65535.00
580.65	65535.00
580.82	65535.00
580.98	65535.00
581.14	65535.00
581.30	65535.00
581.46	65535.00
581.62	65535.00
581.78	65535.00
581.94	65535.00
582.10	65535.00
582.26	65535.00
582.42	65535.00
582.58	65535.00
582.74	65535.00
582.90	65535.00
583.06	65535.00
583.22	65535.00
583.38	65535.00
583.54	65535.00
583.70	65535.00
583.86	65535.00
584.02	65535.00
584.18	65535.00
584.34	65535.00
584.50	65535.00
584.66	65535.00
584.82	65535.00
584.98	65535.00
585.14	65535.00
585.30	65535.00
585.46	65535.00
585.62	65535.00
585.78	65535.00
585.94	65535.00
586.10	65535.00
586.26	65535.00
586.42	65535.00
586.58	65535.00
586.74	65535.00
586.90	65535.00
587.06	65535.00
