SpectraSuite Data File
++++++++++++++++++++++++++++++++++++
Date: Thu Oct 24 13:21:24 EDT 2013
User: stostad
Dark Spectrum Present: No
Reference Spectrum Present: No
Number of Sampled Component Spectra: 1
Spectrometers: USB2+H05261
Integration Time (usec): 100000 (USB2+H05261)
Spectra Averaged: 1 (USB2+H05261)
Boxcar Smoothing: 0 (USB2+H05261)
Correct for Electrical Dark: No (USB2+H05261)
Strobe/Lamp Enabled: No (USB2+H05261)
Correct for Detector Non-linearity: No (USB2+H05261)
Correct for Stray Light: No (USB2+H05261)
Number of Pixels in Processed Spectrum: 2048
>>>>>Begin Processed Spectral Data<<<<<
365.73	543.00
365.92	543.00
366.12	543.00
366.32	514.92
366.52	442.36
366.72	545.34
366.91	519.60
367.11	425.98
367.31	475.13
367.51	456.40
367.70	435.34
367.90	423.64
368.10	472.79
368.30	400.23
368.49	395.55
368.69	491.51
368.89	440.02
369.09	503.22
369.28	484.49
369.48	472.79
369.68	500.87
369.87	500.87
370.07	514.92
370.27	554.71
370.47	664.71
370.66	912.81
370.86	964.30
371.06	992.39
371.25	957.28
371.45	938.55
371.65	999.41
371.84	1001.75
372.04	947.92
372.24	978.34
372.44	1060.26
372.63	1027.50
372.83	1095.37
373.03	1041.54
373.22	1025.15
373.42	994.73
373.62	1025.15
373.81	1053.24
374.01	1093.03
374.21	1090.69
374.40	1046.22
374.60	1078.99
374.79	1086.01
374.99	1093.03
375.19	1100.05
375.38	1067.28
375.58	1163.25
375.78	1076.65
375.97	1153.88
376.17	1177.29
376.37	1053.24
376.56	1163.25
376.76	1179.63
376.95	1167.93
377.15	1123.46
377.35	1205.38
377.54	1179.63
377.74	1139.84
377.93	1210.06
378.13	1172.61
378.33	1156.22
378.52	1212.40
378.72	1296.66
378.91	1240.48
379.11	1277.93
379.31	1203.04
379.50	1132.82
379.70	1299.00
379.89	1249.85
380.09	1268.57
380.28	1301.34
380.48	1242.82
380.68	1163.25
380.87	1228.78
381.07	1224.10
381.26	1327.08
381.46	1348.15
381.65	1217.08
381.85	1331.76
382.04	1235.80
382.24	1299.00
382.43	1287.29
382.63	1291.98
382.83	1341.13
383.02	1324.74
383.22	1434.75
383.41	1352.83
383.61	1308.36
383.80	1357.51
384.00	1397.30
384.19	1399.64
384.39	1322.40
384.58	1425.39
384.78	1418.36
384.97	1394.96
385.17	1409.00
385.36	1364.53
385.56	1444.11
385.75	1404.32
385.95	1430.07
386.14	1523.69
386.34	1481.56
386.53	1427.73
386.72	1504.96
386.92	1519.01
387.11	1423.05
387.31	1502.62
387.50	1460.49
387.70	1523.69
387.89	1483.90
388.09	1528.37
388.28	1558.80
388.48	1514.33
388.67	1526.03
388.86	1497.94
389.06	1493.26
389.25	1462.83
389.45	1603.27
389.64	1570.50
389.84	1570.50
390.03	1565.82
390.22	1582.20
390.42	1666.46
390.61	1561.14
390.81	1591.56
391.00	1650.08
391.19	1666.46
391.39	1687.53
391.58	1657.10
391.78	1629.01
391.97	1682.85
392.16	1680.50
392.36	1696.89
392.55	1762.42
392.75	1715.61
392.94	1739.02
393.13	1755.40
393.33	1706.25
393.52	1783.49
393.71	1811.57
393.91	1722.63
394.10	1750.72
394.29	1774.13
394.49	1736.68
394.68	1888.81
394.88	1832.64
395.07	1823.28
395.26	1874.77
395.46	1837.32
395.65	1947.33
395.84	1870.09
396.04	1921.58
396.23	1959.03
396.42	1930.94
396.62	1870.09
396.81	1900.52
397.00	1923.92
397.19	2024.56
397.39	1933.28
397.58	2019.88
397.77	2022.22
397.97	1982.43
398.16	2008.18
398.35	2064.35
398.55	2029.24
398.74	2148.61
398.93	2141.59
399.12	2118.18
399.32	2090.10
399.51	2033.93
399.70	2106.48
399.90	2076.06
400.09	2153.29
400.28	2218.83
400.47	2272.66
400.67	2305.43
400.86	2282.02
401.05	2338.20
401.24	2279.68
401.44	2328.83
401.63	2190.74
401.82	2326.49
402.01	2230.53
402.21	2382.67
402.40	2401.39
402.59	2305.43
402.78	2401.39
402.97	2448.20
403.17	2417.77
403.36	2413.09
403.55	2424.80
403.74	2502.03
403.93	2513.74
404.13	2509.05
404.32	2544.16
404.51	2537.14
404.70	2551.18
404.89	2534.80
405.09	2527.78
405.28	2452.88
405.47	2558.21
405.66	2675.23
405.85	2586.29
406.05	2684.59
406.24	2605.02
406.43	2722.04
406.62	2745.45
406.81	2780.56
407.00	2715.02
407.20	2743.11
407.39	2825.03
407.58	2841.41
407.77	2771.19
407.96	2843.75
408.15	2864.82
408.34	2827.37
408.54	2841.41
408.73	2827.37
408.92	2986.52
409.11	3009.93
409.30	2963.12
409.49	2960.78
409.68	3012.27
409.87	2944.39
410.07	3141.00
410.26	3136.32
410.45	3105.89
410.64	3082.49
410.83	3241.64
411.02	3206.53
411.21	3267.39
411.40	3178.45
411.59	3358.67
411.78	3279.09
411.98	3269.73
412.17	3351.65
412.36	3353.99
412.55	3396.12
412.74	3503.78
412.93	3506.12
413.12	3344.63
413.31	3637.19
413.50	3489.74
413.69	3655.92
413.88	3768.26
414.07	3548.25
414.26	3595.06
414.45	3695.71
414.64	3709.75
414.83	3836.14
415.02	3936.78
415.22	3772.94
415.41	3815.07
415.60	3906.35
415.79	3939.12
415.98	3992.95
416.17	3974.23
416.36	4051.47
416.55	3927.42
416.74	4086.58
416.93	3995.29
417.12	3995.29
417.31	4156.79
417.50	4173.18
417.69	4327.65
417.88	4145.09
418.07	4248.07
418.26	4348.72
418.45	4262.12
418.64	4231.69
418.83	4409.57
419.02	4437.66
419.21	4442.34
419.39	4454.04
419.58	4376.80
419.77	4395.53
419.96	4456.38
420.15	4489.15
420.34	4564.04
420.53	4617.88
420.72	4631.92
420.91	4493.83
421.10	4704.48
421.29	4652.98
421.48	4746.61
421.67	4655.33
421.86	4528.94
422.05	4779.37
422.24	4613.20
422.43	4777.03
422.61	4868.31
422.80	4922.15
422.99	4812.14
423.18	4898.74
423.37	4997.04
423.56	4807.46
423.75	4744.27
423.94	4898.74
424.13	4519.57
424.32	4711.50
424.50	4908.10
424.69	4903.42
424.88	4802.78
425.07	4807.46
425.26	4800.44
425.45	4894.06
425.64	4999.38
425.83	4664.69
426.01	4922.15
426.20	4894.06
426.39	4814.48
426.58	5022.79
426.77	4929.17
426.96	5004.07
427.15	4901.08
427.33	5067.26
427.52	5006.41
427.71	5172.58
427.90	5008.75
428.09	5221.74
428.28	5259.18
428.46	5132.79
428.65	5195.99
428.84	5364.51
429.03	5308.34
429.22	5039.17
429.40	5238.12
429.59	5179.61
429.78	5212.37
429.97	5128.11
430.16	5357.49
430.34	5427.70
430.53	5493.24
430.72	5446.43
430.91	5458.13
431.10	5425.36
431.28	5486.22
431.47	5575.16
431.66	5598.56
431.85	5701.54
432.03	5675.80
432.22	5760.06
432.41	5685.16
432.60	5713.25
432.79	5727.29
432.97	5902.83
433.16	5703.89
433.35	5860.70
433.54	5792.83
433.72	5865.38
433.91	5727.29
434.10	5884.11
434.28	5856.02
434.47	5991.77
434.66	5940.28
434.85	6047.94
435.03	6181.35
435.22	6104.12
435.41	6534.78
435.59	6296.04
435.78	6354.55
435.97	6438.81
436.16	6246.89
436.34	6221.14
436.53	6253.91
436.72	6258.59
436.90	6214.12
437.09	6354.55
437.28	6256.25
437.46	6389.66
437.65	6319.45
437.84	6567.54
438.02	6406.05
438.21	6457.54
438.40	6455.20
438.58	6658.82
438.77	6642.44
438.96	6539.46
439.14	6696.27
439.33	6736.06
439.52	6808.62
439.70	6888.20
439.89	7115.23
440.08	7063.74
440.26	6909.26
440.45	6986.50
440.63	7028.63
440.82	7365.67
441.01	7112.89
441.19	7265.02
441.38	7349.28
441.57	7475.67
441.75	7445.24
441.94	7405.46
442.12	7620.78
442.31	7527.16
442.50	7358.64
442.68	7405.46
442.87	7543.55
443.05	7695.68
443.24	7812.71
443.43	7889.95
443.61	7751.85
443.80	7878.24
443.98	7679.30
444.17	7335.24
444.35	7662.91
444.54	7782.28
444.73	7765.90
444.91	7981.23
445.10	7707.38
445.28	7892.29
445.47	7606.74
445.65	7941.44
445.84	7861.86
446.02	7960.16
446.21	7918.03
446.39	7880.58
446.58	8025.70
446.77	8060.80
446.95	7751.85
447.14	7880.58
447.32	8067.83
447.51	7742.49
447.69	7976.55
447.88	8032.72
448.06	7995.27
448.25	8070.17
448.43	8109.96
448.62	8109.96
448.80	7950.80
448.99	8161.45
449.17	8201.24
449.36	8091.23
449.54	8376.78
449.73	8442.31
449.91	8486.78
450.10	8622.53
450.28	8540.61
450.46	8531.25
450.65	8425.93
450.83	8423.59
451.02	8449.33
451.20	8561.68
451.39	8578.06
451.57	8582.74
451.76	8430.61
451.94	8819.14
452.13	8795.73
452.31	8678.71
452.49	8617.85
452.68	8929.14
452.86	8732.54
453.05	8713.81
453.23	8784.03
453.42	8723.18
453.60	8929.14
453.78	8854.25
453.97	8901.06
454.15	8975.95
454.34	8908.08
454.52	9139.79
454.70	8877.65
454.89	9067.24
455.07	9202.99
455.26	9055.53
455.44	9322.35
455.62	9029.79
455.81	9125.75
455.99	9172.56
456.17	9364.48
456.36	9427.68
456.54	9420.66
456.73	9694.50
456.91	9727.27
457.09	9738.97
457.28	9635.99
457.46	9486.19
457.64	10050.26
457.83	9841.95
458.01	9699.18
458.19	9743.65
458.38	9951.96
458.56	10029.20
458.74	10054.94
458.93	10101.75
459.11	9891.10
459.29	10132.18
459.48	10047.92
459.66	10101.75
459.84	10038.56
460.03	10431.77
460.21	10504.32
460.39	10293.68
460.57	10305.38
460.76	10457.51
460.94	10588.58
461.12	10420.06
461.31	10452.83
461.49	10286.65
461.67	10237.50
461.85	10670.50
462.04	10347.51
462.22	10766.46
462.40	10721.99
462.59	10628.37
462.77	10600.29
462.95	10920.94
463.13	10771.15
463.32	10778.17
463.50	10890.51
463.68	10965.41
463.86	10963.07
464.05	10764.12
464.23	10860.09
464.41	10888.17
464.59	10764.12
464.78	11393.73
464.96	10881.15
465.14	11042.65
465.32	11166.70
465.50	11293.08
465.69	11211.17
465.87	11131.59
466.05	11267.34
466.23	11325.85
466.41	11410.11
466.60	11709.70
466.78	11335.21
466.96	11253.30
467.14	11391.39
467.32	11363.30
467.51	11562.25
467.69	11257.98
467.87	11475.65
468.05	11606.72
468.23	11487.35
468.41	11419.47
468.60	11625.44
468.78	11763.53
468.96	11639.48
469.14	11695.66
469.32	12009.29
469.50	11669.91
469.69	11894.60
469.87	12037.38
470.05	12182.49
470.23	12313.56
470.41	12276.11
470.59	12362.71
470.77	12231.64
470.95	12128.66
471.14	12503.14
471.32	12126.32
471.50	12484.42
471.68	12453.99
471.86	12409.52
472.04	12861.24
472.22	12940.82
472.40	12549.95
472.58	12587.40
472.77	12877.63
472.95	12861.24
473.13	13427.65
473.31	13240.41
473.49	12802.73
473.67	12996.99
473.85	13092.96
474.03	13563.40
474.21	13547.02
474.39	13439.36
474.57	13631.28
474.75	13614.90
474.93	13671.07
475.12	13795.12
475.30	14012.79
475.48	13453.40
475.66	13874.70
475.84	13888.74
476.02	14408.34
476.20	14115.77
476.38	14494.94
476.56	14602.60
476.74	14705.59
476.92	14607.28
477.10	14628.35
477.28	14651.75
477.46	14757.08
477.64	15183.06
477.82	15157.31
478.00	15557.54
478.18	15438.17
478.36	15702.65
478.54	15662.86
478.72	15822.02
478.90	15639.46
479.08	15880.53
479.26	16376.73
479.44	16383.75
479.62	16355.66
479.80	16535.88
479.98	16601.42
480.16	16893.99
480.34	16350.98
480.52	16915.05
480.70	17083.57
480.88	16755.90
481.06	16945.48
481.24	17315.28
481.41	17303.58
481.59	17626.57
481.77	17846.58
481.95	17694.45
482.13	18223.41
482.31	17909.78
482.49	18302.99
482.67	18417.68
482.85	18677.48
483.03	18874.08
483.21	19192.39
483.39	19241.54
483.57	18998.13
483.74	19606.67
483.92	19524.75
484.10	19475.60
484.28	19754.12
484.46	20247.97
484.64	20493.73
484.82	20217.55
485.00	20383.73
485.18	20545.22
485.35	21144.40
485.53	21008.65
485.71	21099.93
485.89	21493.14
486.07	21322.28
486.25	21277.81
486.43	21556.33
486.61	21741.24
486.78	21905.07
486.96	21774.00
487.14	22438.72
487.32	22319.35
487.50	22483.19
487.68	22897.46
487.85	23194.71
488.03	23119.81
488.21	23566.85
488.39	23559.83
488.57	23814.95
488.75	23805.59
488.92	24151.99
489.10	24709.04
489.28	24594.35
489.46	24800.32
489.64	24491.37
489.81	25427.58
489.99	25060.12
490.17	25516.52
490.35	25600.78
490.53	25586.74
490.70	25986.97
490.88	25575.03
491.06	26321.66
491.24	26087.61
491.41	26464.44
491.59	26611.89
491.77	26441.03
491.95	26733.60
492.13	26916.16
492.30	27124.47
492.48	27412.35
492.66	27524.70
492.84	27470.87
493.01	27402.99
493.19	28154.30
493.37	28051.32
493.54	28320.48
493.72	28362.61
493.90	28264.31
494.08	28566.24
494.25	29186.48
494.43	29017.96
494.61	29457.98
494.79	29317.55
494.96	29443.94
495.14	29528.20
495.32	29869.92
495.49	30225.68
495.67	30319.30
495.85	30199.93
496.02	30249.08
496.20	30396.54
496.38	30927.84
496.55	30923.16
496.73	31571.49
496.91	31587.87
497.09	31524.68
497.26	31468.50
497.44	31379.56
497.62	31686.17
497.79	32236.20
497.97	32306.41
498.14	32374.29
498.32	32671.54
498.50	32921.98
498.67	33270.72
498.85	32856.44
499.03	33244.97
499.20	33378.38
499.38	33432.21
499.56	33682.65
499.73	33387.74
499.91	33694.35
500.08	33830.10
500.26	34050.11
500.44	34354.38
500.61	34419.92
500.79	34501.84
500.97	34672.70
501.14	35213.36
501.32	34513.54
501.49	34569.71
501.67	34707.80
501.84	35447.41
502.02	34991.01
502.20	35213.36
502.37	35461.46
502.55	35484.86
502.72	35625.29
502.90	36067.66
503.07	35559.76
503.25	35732.96
503.43	35871.05
503.60	35959.99
503.78	36219.79
503.95	35896.80
504.13	36512.36
504.30	36802.58
504.48	36861.10
504.65	37064.72
504.83	37125.58
505.01	37015.57
505.18	37357.29
505.36	37474.32
505.53	37256.65
505.71	37839.44
505.88	37865.19
506.06	37654.54
506.23	38080.52
506.41	37689.65
506.58	38410.53
506.76	37404.10
506.93	38347.34
507.11	38188.18
507.28	38607.14
507.46	38380.10
507.63	38499.47
507.81	39112.69
507.98	38391.81
508.16	39115.03
508.33	38836.51
508.50	39239.08
508.68	39311.64
508.85	39777.40
509.03	39618.25
509.20	39632.29
509.38	39789.11
509.55	40170.61
509.73	40481.91
509.90	40912.56
510.08	40437.44
510.25	40615.32
510.42	40327.43
510.60	40634.04
510.77	41085.76
510.95	41191.09
511.12	40790.86
511.30	41689.62
511.47	41340.88
511.64	41024.91
511.82	41567.91
511.99	41422.80
512.17	41441.53
512.34	42174.11
512.51	42143.69
512.69	42263.05
512.86	42316.89
513.04	42384.76
513.21	42188.16
513.38	42380.08
513.56	42288.80
513.73	42347.31
513.90	42920.74
514.08	42869.25
514.25	42642.22
514.43	42775.63
514.60	42845.85
514.77	42536.90
514.95	43377.15
515.12	43063.52
515.29	43243.74
515.47	43454.39
515.64	43646.31
515.81	43917.81
515.99	43597.16
516.16	44168.25
516.33	43903.77
516.51	44648.06
516.68	44685.51
516.85	44622.31
517.03	44257.19
517.20	44580.18
517.37	44610.61
517.54	44769.77
517.72	44816.58
517.89	44432.73
518.06	44996.80
518.24	45090.42
518.41	45673.21
518.58	45401.71
518.75	44985.10
518.93	45118.51
519.10	45118.51
519.27	45509.38
519.45	45411.07
519.62	45705.98
519.79	45904.93
519.96	45794.92
520.14	45963.44
520.31	45663.85
520.48	46071.10
520.65	45998.55
520.83	46541.55
521.00	46171.75
521.17	46665.60
521.34	46370.69
521.52	46761.56
521.69	46754.54
521.86	46607.09
522.03	46941.78
522.20	46883.27
522.38	47435.64
522.55	47592.45
522.72	47358.40
522.89	47234.35
523.07	47796.08
523.24	47367.76
523.41	47435.64
523.58	47269.46
523.75	47873.32
523.92	47910.77
524.10	48142.48
524.27	47856.93
524.44	48156.52
524.61	48102.69
524.78	48282.91
524.96	48016.09
525.13	48208.01
525.30	48655.06
525.47	48655.06
525.64	48664.42
525.81	49120.82
525.98	48521.65
526.16	48498.24
526.33	48877.41
526.50	49408.71
526.67	48856.34
526.84	49134.87
527.01	48966.35
527.18	49069.33
527.36	49392.33
527.53	49296.36
527.70	49375.94
527.87	49551.48
528.04	49612.34
528.21	49631.06
528.38	49504.67
528.55	49958.73
528.72	49932.99
528.89	49333.81
529.07	49595.95
529.24	49581.91
529.41	49769.15
529.58	50092.15
529.75	50054.70
529.92	50394.07
530.09	50277.05
530.26	50202.15
530.43	50145.98
530.60	50078.10
530.77	50354.29
530.94	50358.97
531.11	50550.89
531.28	50656.21
531.46	50681.96
531.63	50677.28
531.80	50836.44
531.97	50674.94
532.14	50948.78
532.31	50843.46
532.48	51112.62
532.65	51037.72
532.82	50850.48
532.99	51159.43
533.16	50887.93
533.33	51161.77
533.50	51594.77
533.67	51196.88
533.84	51093.89
534.01	51636.90
534.18	51543.28
534.35	51700.09
534.52	51405.19
534.69	51320.93
534.86	51653.28
535.03	51398.16
535.20	52034.79
535.37	52137.77
535.54	52123.73
535.71	51913.08
535.88	51906.06
536.05	52207.99
536.22	52030.11
536.38	52170.54
536.55	52055.85
536.72	52254.80
536.89	52514.60
537.06	52739.29
537.23	52619.92
537.40	52378.85
537.57	52741.63
537.74	52580.13
537.91	52701.84
538.08	52404.59
538.25	52608.22
538.42	52449.06
538.59	52910.15
538.75	52830.57
538.92	52786.10
539.09	53027.18
539.26	52849.30
539.43	52811.85
539.60	52956.96
539.77	53050.58
539.94	53127.82
540.11	53301.02
540.28	53235.48
540.44	53343.15
540.61	53406.34
540.78	53389.96
540.95	53251.87
541.12	53071.65
541.29	53488.26
541.46	53275.27
541.62	53684.87
541.79	53588.91
541.96	53514.01
542.13	53411.02
542.30	53595.93
542.47	53506.99
542.63	53961.05
542.80	54211.49
542.97	54330.86
543.14	54082.76
543.31	54171.70
543.48	54279.36
543.64	54597.68
543.81	54534.48
543.98	54328.52
544.15	54122.55
544.32	54553.21
544.48	54508.74
544.65	54192.76
544.82	54581.29
544.99	54335.54
545.16	54700.66
545.32	54604.70
545.49	54604.70
545.66	54731.09
545.83	54848.11
546.00	55182.81
546.16	55131.32
546.33	54979.18
546.50	54674.91
546.67	55000.25
546.83	54291.07
547.00	54419.80
547.17	54445.54
547.34	54805.98
547.50	54955.78
547.67	55047.06
547.84	54918.33
548.00	55206.22
548.17	55536.23
548.34	55047.06
548.51	55274.09
548.67	55068.12
548.84	55414.52
549.01	54852.80
549.18	55246.00
549.34	55346.65
549.51	55667.30
549.68	55229.62
549.84	55278.77
550.01	55517.51
550.18	54873.86
550.34	55112.59
550.51	55334.95
550.68	55341.97
550.84	55592.40
551.01	55667.30
551.18	55531.55
551.34	55510.49
551.51	55664.96
551.68	55583.04
551.84	55356.01
552.01	55348.99
552.18	55653.26
552.34	55973.91
552.51	55763.26
552.68	55913.06
552.84	55636.87
553.01	55899.01
553.18	55903.70
553.34	55758.58
553.51	56072.21
553.67	56051.15
553.84	56264.14
554.01	56231.37
554.17	56142.43
554.34	56273.50
554.51	56041.79
554.67	55894.33
554.84	56062.85
555.00	55861.57
555.17	56217.33
555.33	56339.04
555.50	56207.97
555.67	56109.66
555.83	56226.69
556.00	56140.09
556.16	56498.19
556.33	56451.38
556.50	56788.42
556.66	56250.09
556.83	56151.79
556.99	56442.02
557.16	56495.85
557.32	56547.34
557.49	56708.84
557.65	56444.36
557.82	56495.85
557.98	56224.35
558.15	56233.71
558.32	56736.93
558.48	56587.13
558.65	56622.24
558.81	56563.73
558.98	56566.07
559.14	56736.93
559.31	56704.16
559.47	56500.53
559.64	57001.41
559.80	56858.63
559.97	56800.12
560.13	56643.30
560.30	56732.25
560.46	56968.64
560.63	56910.13
560.79	57073.96
560.96	57022.47
561.12	56821.19
561.29	56610.54
561.45	56898.42
561.61	56886.72
561.78	56889.06
561.94	57291.63
562.11	57303.34
562.27	57179.29
562.44	56975.66
562.60	57027.15
562.77	57207.37
562.93	57183.97
563.10	57310.36
563.26	56860.97
563.42	57064.60
563.59	57052.90
563.75	57076.30
563.92	57471.85
564.08	57233.12
564.24	57345.47
564.41	57031.83
564.57	57186.31
564.74	57120.77
564.90	57233.12
565.07	57399.30
565.23	57396.96
565.39	57382.91
565.56	57521.01
565.72	57478.88
565.88	57324.40
566.05	57286.95
566.21	57198.01
566.38	57146.52
566.54	57169.93
566.70	57347.81
566.87	57490.58
567.03	57403.98
567.19	57738.68
567.36	57490.58
567.52	57312.70
567.68	57317.38
567.85	57317.38
568.01	57570.16
568.17	57455.47
568.34	57532.71
568.50	57612.29
568.66	57682.50
568.83	57752.72
568.99	57375.89
569.15	57511.64
569.32	57462.49
569.48	57413.34
569.64	57591.22
569.81	57462.49
569.97	57755.06
570.13	57481.22
570.30	57357.17
570.46	57626.33
570.62	57698.89
570.78	57619.31
570.95	57144.18
571.11	57752.72
571.27	57432.07
571.43	57631.01
571.60	57635.69
571.76	57677.82
571.92	57609.95
572.09	57776.12
572.25	57829.96
572.41	57722.29
572.57	57907.19
572.74	57841.66
572.90	57724.63
573.06	57703.57
573.22	57628.67
573.38	57757.40
573.55	57752.72
573.71	58108.48
573.87	57792.51
574.03	57797.19
574.20	57963.37
574.36	57815.91
574.52	57844.00
574.68	58028.90
574.84	57991.45
575.01	58000.82
575.17	57808.89
575.33	57804.21
575.49	57862.72
575.65	58166.99
575.82	57921.24
575.98	57832.30
576.14	58028.90
576.30	57914.22
576.46	57916.56
576.62	57682.50
576.79	57787.83
576.95	57556.11
577.11	58000.82
577.27	58012.52
577.43	57972.73
577.59	58000.82
577.75	57958.69
577.92	58017.20
578.08	57916.56
578.24	57902.51
578.40	57930.60
578.56	58000.82
578.72	58099.12
578.88	58052.31
579.04	58408.07
579.21	57982.09
579.37	58220.83
579.53	58127.20
579.69	57942.30
579.85	58000.82
580.01	58143.59
580.17	58078.05
580.33	58061.67
580.49	58150.61
580.65	58305.09
580.82	58131.89
580.98	58145.93
581.14	58120.18
581.30	58141.25
581.46	57956.35
581.62	57979.75
581.78	58124.86
581.94	58218.49
582.10	57979.75
582.26	58000.82
582.42	58113.16
582.58	58052.31
582.74	58056.99
582.90	58361.26
583.06	58401.05
583.22	58040.60
583.38	57989.11
583.54	57977.41
583.70	58054.65
583.86	58302.74
584.02	58202.10
584.18	58281.68
584.34	58024.22
584.50	58195.08
584.66	58131.89
584.82	58169.33
584.98	58302.74
585.14	58064.01
585.30	58225.51
585.46	58281.68
585.62	58073.37
585.78	58391.68
585.94	58145.93
586.10	58309.77
586.26	58234.87
586.42	58216.14
586.58	58417.43
586.74	58164.65
586.90	58253.59
587.06	58122.52
587.22	58471.26
587.38	58218.49
587.54	58295.72
587.70	58698.30
587.86	58482.97
588.02	58443.18
588.18	58337.85
