SpectraSuite Data File
++++++++++++++++++++++++++++++++++++
Date: Thu Oct 24 13:21:06 EDT 2013
User: stostad
Dark Spectrum Present: No
Reference Spectrum Present: No
Number of Sampled Component Spectra: 1
Spectrometers: USB2+H05261
Integration Time (usec): 100000 (USB2+H05261)
Spectra Averaged: 1 (USB2+H05261)
Boxcar Smoothing: 0 (USB2+H05261)
Correct for Electrical Dark: No (USB2+H05261)
Strobe/Lamp Enabled: No (USB2+H05261)
Correct for Detector Non-linearity: No (USB2+H05261)
Correct for Stray Light: No (USB2+H05261)
Number of Pixels in Processed Spectrum: 2048
>>>>>Begin Processed Spectral Data<<<<<
365.73	571.09
365.92	571.09
366.12	571.09
366.32	510.24
366.52	505.56
366.72	444.70
366.91	489.17
367.11	454.06
367.31	416.62
367.51	407.25
367.70	440.02
367.90	465.77
368.10	484.49
368.30	437.68
368.49	517.26
368.69	517.26
368.89	440.02
369.09	456.40
369.28	496.19
369.48	498.53
369.68	503.22
369.87	559.39
370.07	533.64
370.27	547.69
370.47	655.35
370.66	692.80
370.86	711.52
371.06	777.06
371.25	720.88
371.45	798.12
371.65	758.33
371.84	711.52
372.04	739.61
372.24	709.18
372.44	781.74
372.63	772.38
372.83	814.51
373.03	770.04
373.22	753.65
373.42	777.06
373.62	805.14
373.81	793.44
374.01	826.21
374.21	741.95
374.40	770.04
374.60	826.21
374.79	784.08
374.99	748.97
375.19	837.91
375.38	791.10
375.58	800.46
375.78	837.91
375.97	877.70
376.17	854.30
376.37	821.53
376.56	774.72
376.76	842.59
376.95	788.76
377.15	826.21
377.35	854.30
377.54	882.38
377.74	833.23
377.93	805.14
378.13	816.85
378.33	880.04
378.52	802.80
378.72	858.98
378.91	887.06
379.11	894.08
379.31	791.10
379.50	858.98
379.70	837.91
379.89	823.87
380.09	945.58
380.28	919.83
380.48	908.13
380.68	922.17
380.87	887.06
381.07	926.85
381.26	882.38
381.46	770.04
381.65	873.02
381.85	847.27
382.04	945.58
382.24	980.68
382.43	866.00
382.63	887.06
382.83	875.36
383.02	821.53
383.22	917.49
383.41	870.68
383.61	847.27
383.80	968.98
384.00	861.32
384.19	917.49
384.39	866.00
384.58	891.74
384.78	870.68
384.97	999.41
385.17	917.49
385.36	954.94
385.56	957.28
385.75	870.68
385.95	870.68
386.14	873.02
386.34	912.81
386.53	943.24
386.72	961.96
386.92	978.34
387.11	903.45
387.31	976.00
387.50	945.58
387.70	931.53
387.89	938.55
388.09	1011.11
388.28	964.30
388.48	912.81
388.67	980.68
388.86	924.51
389.06	990.05
389.25	1001.75
389.45	990.05
389.64	894.08
389.84	976.00
390.03	1013.45
390.22	1067.28
390.42	1032.18
390.61	1018.13
390.81	1015.79
391.00	952.60
391.19	1013.45
391.39	858.98
391.58	1004.09
391.78	1062.60
391.97	966.64
392.16	1057.92
392.36	1036.86
392.55	1081.33
392.75	1036.86
392.94	999.41
393.13	1034.52
393.33	1069.62
393.52	1053.24
393.71	1109.41
393.91	978.34
394.10	1130.48
394.29	1083.67
394.49	1071.97
394.68	1104.73
394.88	1057.92
395.07	1095.37
395.26	1090.69
395.46	1128.14
395.65	1160.91
395.84	1128.14
396.04	1186.65
396.23	1090.69
396.42	1167.93
396.62	1114.10
396.81	1123.46
397.00	1226.44
397.19	1095.37
397.39	1207.72
397.58	1151.54
397.77	1163.25
397.97	1174.95
398.16	1177.29
398.35	1196.01
398.55	1156.22
398.74	1266.23
398.93	1142.18
399.12	1224.10
399.32	1172.61
399.51	1287.29
399.70	1226.44
399.90	1282.61
400.09	1217.08
400.28	1277.93
400.47	1231.12
400.67	1296.66
400.86	1273.25
401.05	1275.59
401.24	1280.27
401.44	1266.23
401.63	1355.17
401.82	1331.76
402.01	1268.57
402.21	1317.72
402.40	1231.12
402.59	1273.25
402.78	1306.02
402.97	1338.79
403.17	1357.51
403.36	1357.51
403.55	1406.66
403.74	1425.39
403.93	1469.86
404.13	1427.73
404.32	1413.68
404.51	1427.73
404.70	1357.51
404.89	1476.88
405.09	1441.77
405.28	1418.36
405.47	1474.54
405.66	1486.24
405.85	1474.54
406.05	1350.49
406.24	1432.41
406.43	1434.75
406.62	1446.45
406.81	1554.12
407.00	1497.94
407.20	1427.73
407.39	1462.83
407.58	1521.35
407.77	1533.05
407.96	1596.25
408.15	1551.78
408.34	1586.88
408.54	1610.29
408.73	1533.05
408.92	1591.56
409.11	1563.48
409.30	1547.09
409.49	1631.35
409.68	1640.72
409.87	1682.85
410.07	1533.05
410.26	1614.97
410.45	1715.61
410.64	1657.10
410.83	1614.97
411.02	1610.29
411.21	1638.38
411.40	1757.74
411.59	1706.25
411.78	1743.70
411.98	1652.42
412.17	1783.49
412.36	1732.00
412.55	1818.60
412.74	1820.94
412.93	1734.34
413.12	1664.12
413.31	1816.26
413.50	1898.17
413.69	1849.02
413.88	1846.68
414.07	1849.02
414.26	1792.85
414.45	1863.07
414.64	1851.36
414.83	1933.28
415.02	1930.94
415.22	1970.73
415.41	1977.75
415.60	1900.52
415.79	2005.84
415.98	1977.75
416.17	2085.42
416.36	2073.71
416.55	1937.96
416.74	2073.71
416.93	2017.54
417.12	2073.71
417.31	2174.36
417.50	2085.42
417.69	2038.61
417.88	2174.36
418.07	2073.71
418.26	2162.66
418.45	2202.44
418.64	2214.15
418.83	2155.63
419.02	2129.89
419.21	2242.23
419.39	2200.10
419.58	2150.95
419.77	2207.13
419.96	2157.97
420.15	2183.72
420.34	2165.00
420.53	2146.27
420.72	2298.41
420.91	2279.68
421.10	2286.70
421.29	2321.81
421.48	2347.56
421.67	2321.81
421.86	2326.49
422.05	2246.91
422.24	2352.24
422.43	2366.28
422.61	2356.92
422.80	2359.26
422.99	2239.89
423.18	2342.88
423.37	2387.35
423.56	2356.92
423.75	2431.82
423.94	2363.94
424.13	2235.21
424.32	2298.41
424.50	2242.23
424.69	2401.39
424.88	2396.71
425.07	2307.77
425.26	2310.11
425.45	2312.45
425.64	2270.32
425.83	2377.98
426.01	2375.64
426.20	2408.41
426.39	2445.86
426.58	2457.56
426.77	2375.64
426.96	2359.26
427.15	2382.67
427.33	2448.20
427.52	2436.50
427.71	2427.14
427.90	2478.63
428.09	2427.14
428.28	2403.73
428.46	2436.50
428.65	2469.27
428.84	2499.69
429.03	2633.10
429.22	2448.20
429.40	2518.42
429.59	2551.18
429.78	2499.69
429.97	2396.71
430.16	2553.52
430.34	2605.02
430.53	2656.51
430.72	2513.74
430.91	2525.44
431.10	2457.56
431.28	2621.40
431.47	2590.97
431.66	2619.06
431.85	2574.59
432.03	2726.72
432.22	2771.19
432.41	2810.98
432.60	2731.41
432.79	2651.83
432.97	2780.56
433.16	2703.32
433.35	2710.34
433.54	2656.51
433.72	2750.13
433.91	2729.06
434.10	2752.47
434.28	2614.38
434.47	2801.62
434.66	2871.84
434.85	2815.66
435.03	2892.90
435.22	3059.08
435.41	3304.84
435.59	3164.40
435.78	3061.42
435.97	2988.86
436.16	3087.17
436.34	2888.22
436.53	2869.50
436.72	3000.57
436.90	2780.56
437.09	2972.48
437.28	2930.35
437.46	2965.46
437.65	2869.50
437.84	2993.55
438.02	3049.72
438.21	3035.67
438.40	3019.29
438.58	2991.20
438.77	3206.53
438.96	3115.25
439.14	3166.74
439.33	3119.93
439.52	3138.66
439.70	3218.24
439.89	3222.92
440.08	3063.76
440.26	3255.69
440.45	3173.77
440.63	3227.60
440.82	3199.51
441.01	3227.60
441.19	3190.15
441.38	3351.65
441.57	3337.60
441.75	3372.71
441.94	3377.39
442.12	3445.27
442.31	3548.25
442.50	3496.76
442.68	3405.48
442.87	3412.50
443.05	3459.31
443.24	3471.01
443.43	3456.97
443.61	3557.61
443.80	3545.91
443.98	3318.88
444.17	3321.22
444.35	3463.99
444.54	3503.78
444.73	3496.76
444.91	3454.63
445.10	3531.87
445.28	3471.01
445.47	3588.04
445.65	3581.02
445.84	3576.34
446.02	3686.34
446.21	3557.61
446.39	3660.60
446.58	3536.55
446.77	3653.58
446.95	3503.78
447.14	3604.42
447.32	3639.53
447.51	3552.93
447.69	3646.55
447.88	3466.33
448.06	3613.79
448.25	3515.48
448.43	3590.38
448.62	3529.53
448.80	3513.14
448.99	3674.64
449.17	3733.15
449.36	3578.68
449.54	3695.71
449.73	3772.94
449.91	3779.97
450.10	3873.59
450.28	3875.93
450.46	3672.30
450.65	3786.99
450.83	3801.03
451.02	3786.99
451.20	3829.12
451.39	3765.92
451.57	3864.22
451.76	3831.46
451.94	3857.20
452.13	3906.35
452.31	3906.35
452.49	3768.26
452.68	3854.86
452.86	3908.69
453.05	3901.67
453.23	3875.93
453.42	3850.18
453.60	3997.64
453.78	3922.74
453.97	3880.61
454.15	3927.42
454.34	3812.73
454.52	4124.02
454.70	4170.83
454.89	4098.28
455.07	3988.27
455.26	4147.43
455.44	4095.94
455.62	4166.15
455.81	4081.89
455.99	4072.53
456.17	4205.94
456.36	4084.23
456.54	4112.32
456.73	4252.75
456.91	4332.33
457.09	4259.78
457.28	4252.75
457.46	4250.41
457.64	4376.80
457.83	4348.72
458.01	4222.33
458.19	4526.60
458.38	4241.05
458.56	4390.84
458.74	4388.50
458.93	4306.59
459.11	4447.02
459.29	4386.16
459.48	4259.78
459.66	4409.57
459.84	4315.95
460.03	4557.02
460.21	4594.47
460.39	4379.14
460.57	4428.29
460.76	4510.21
460.94	4512.55
461.12	4512.55
461.31	4634.26
461.49	4540.64
461.67	4681.07
461.85	4557.02
462.04	4568.73
462.22	4929.17
462.40	4695.11
462.59	4676.39
462.77	4638.94
462.95	4716.18
463.13	4631.92
463.32	4718.52
463.50	4578.09
463.68	4779.37
463.86	4774.69
464.05	4723.20
464.23	4645.96
464.41	4779.37
464.59	4793.42
464.78	4823.84
464.96	4746.61
465.14	4711.50
465.32	4718.52
465.50	4819.16
465.69	4901.08
465.87	4856.61
466.05	4938.53
466.23	4812.14
466.41	4819.16
466.60	4779.37
466.78	4823.84
466.96	4877.68
467.14	4896.40
467.32	4821.50
467.51	4943.21
467.69	5043.85
467.87	5083.64
468.05	4943.21
468.23	4994.70
468.41	4861.29
468.60	5111.73
468.78	5090.67
468.96	4947.89
469.14	5034.49
469.32	5203.01
469.50	4964.28
469.69	5076.62
469.87	5050.88
470.05	5149.18
470.23	5322.38
470.41	5256.84
470.59	5160.88
470.77	5146.84
470.95	5284.93
471.14	5380.89
471.32	5284.93
471.50	5392.59
471.68	5373.87
471.86	5416.00
472.04	5366.85
472.22	5598.56
472.40	5455.79
472.58	5404.30
472.77	5540.05
472.95	5523.66
473.13	5572.82
473.31	5408.98
473.49	5544.73
473.67	5329.40
473.85	5540.05
474.03	5771.76
474.21	5680.48
474.39	5762.40
474.57	5781.12
474.75	5783.46
474.93	5919.21
475.12	5680.48
475.30	5907.51
475.48	5750.70
475.66	5926.24
475.84	6001.13
476.02	6069.01
476.20	5921.56
476.38	5935.60
476.56	6246.89
476.74	6090.07
476.92	6115.82
477.10	5954.32
477.28	6167.31
477.46	6223.48
477.64	6282.00
477.82	6532.44
478.00	6464.56
478.18	6436.47
478.36	6525.41
478.54	6623.72
478.72	6471.58
478.90	6771.17
479.08	6696.27
479.26	6820.32
479.44	6881.18
479.62	6916.28
479.80	6993.52
479.98	6862.45
480.16	7115.23
480.34	6913.94
480.52	7073.10
480.70	7204.17
480.88	7033.31
481.06	7037.99
481.24	7101.19
481.41	7288.43
481.59	7344.60
481.77	7468.65
481.95	7382.05
482.13	7487.37
482.31	7480.35
482.49	7590.36
482.67	7655.89
482.85	7716.75
483.03	7812.71
483.21	7840.79
483.39	7840.79
483.57	7831.43
483.74	7936.76
483.92	8004.63
484.10	7981.23
484.28	8067.83
484.46	8367.42
484.64	8468.06
484.82	8226.98
485.00	8388.48
485.18	8201.24
485.35	8545.30
485.53	8561.68
485.71	8739.56
485.89	8809.78
486.07	8802.75
486.25	8580.40
486.43	8671.68
486.61	8805.10
486.78	9184.26
486.96	9102.34
487.14	9226.39
487.32	9050.85
487.50	9256.82
487.68	9371.50
487.85	9591.52
488.03	9533.00
488.21	9603.22
488.39	9483.85
488.57	9514.28
488.75	9841.95
488.92	9863.02
489.10	9966.00
489.28	9987.07
489.46	9970.68
489.64	9961.32
489.81	10111.11
489.99	10019.83
490.17	10071.33
490.35	10450.49
490.53	10368.57
490.70	10253.89
490.88	10349.85
491.06	10654.12
491.24	10401.34
491.41	10532.41
491.59	10918.60
491.77	10616.67
491.95	11000.52
492.13	11023.92
492.30	10890.51
492.48	10909.24
492.66	10958.39
492.84	11070.73
493.01	11323.51
493.19	11176.06
493.37	11215.85
493.54	11367.98
493.72	11562.25
493.90	11283.72
494.08	11630.12
494.25	11641.82
494.43	11613.74
494.61	11625.44
494.79	11728.42
494.96	11782.26
495.14	11793.96
495.32	11815.02
495.49	11899.28
495.67	12053.76
495.85	11960.14
496.02	12332.28
496.20	12147.38
496.38	12306.54
496.55	12442.29
496.73	12482.08
496.91	12360.37
497.09	12528.89
497.26	12582.72
497.44	12451.65
497.62	12702.09
497.79	12779.32
497.97	12788.69
498.14	12929.12
498.32	12966.57
498.50	12989.97
498.67	12973.59
498.85	12901.03
499.03	13064.87
499.20	13235.73
499.38	13469.78
499.56	13247.43
499.73	12896.35
499.91	13385.52
500.08	13142.11
500.26	13305.95
500.44	13357.44
500.61	13547.02
500.79	13451.06
500.97	13659.37
501.14	13767.03
501.32	13935.55
501.49	13778.73
501.67	13806.82
501.84	13949.59
502.02	14136.84
502.20	14052.58
502.37	13951.93
502.55	14075.98
502.72	14207.05
502.90	13989.38
503.07	14106.41
503.25	14256.20
503.43	14106.41
503.60	14497.28
503.78	14366.21
503.95	14415.36
504.13	14319.40
504.30	14237.48
504.48	14431.74
504.65	14736.01
504.83	14630.69
505.01	14918.57
505.18	14665.80
505.36	14623.67
505.53	14789.85
505.71	14733.67
505.88	15030.92
506.06	14885.81
506.23	15103.48
506.41	15007.52
506.58	14906.87
506.76	15096.46
506.93	15225.18
507.11	15307.10
507.28	15108.16
507.46	15428.81
507.63	15169.01
507.81	15445.20
507.98	15332.85
508.16	15339.87
508.33	15452.22
508.50	15318.81
508.68	15831.38
508.85	16130.97
509.03	15845.43
509.20	15562.22
509.38	15634.78
509.55	15662.86
509.73	15971.82
509.90	15688.61
510.08	16334.60
510.25	16020.97
510.42	15765.85
510.60	15964.79
510.77	16233.96
510.95	16418.86
511.12	16119.27
511.30	16170.76
511.47	16184.80
511.64	16294.81
511.82	16542.91
511.99	16423.54
512.17	16634.19
512.34	16360.34
512.51	16650.57
512.69	16809.73
512.86	16709.08
513.04	16638.87
513.21	16402.47
513.38	16959.52
513.56	16952.50
513.73	16954.84
513.90	16999.31
514.08	17062.51
514.25	16905.69
514.43	17097.61
514.60	17025.06
514.77	17006.33
514.95	17165.49
515.12	16805.05
515.29	17188.89
515.47	17247.41
515.64	17331.67
515.81	17539.97
515.99	17413.59
516.16	17469.76
516.33	17401.88
516.51	17605.51
516.68	17429.97
516.85	17687.43
517.03	17642.96
517.20	17657.00
517.37	17603.17
517.54	17326.99
517.72	17895.74
517.89	17647.64
518.06	17614.87
518.24	17750.62
518.41	17823.18
518.58	17916.80
518.75	17752.96
518.93	17872.33
519.10	18192.98
519.27	17970.63
519.45	17879.35
519.62	18160.22
519.79	18359.16
519.96	18260.86
520.14	18108.72
520.31	18146.17
520.48	18136.81
520.65	18253.84
520.83	18546.40
521.00	18436.40
521.17	18520.66
521.34	18403.63
521.52	18642.37
521.69	18363.84
521.86	18326.39
522.03	18640.03
522.20	18469.17
522.38	18724.29
522.55	18693.86
522.72	18757.05
522.89	18677.48
523.07	19112.81
523.24	18581.51
523.41	18815.57
523.58	18731.31
523.75	18801.52
523.92	19176.01
524.10	19058.98
524.27	19054.30
524.44	19000.47
524.61	18899.83
524.78	19225.16
524.96	19314.10
525.13	19225.16
525.30	19573.90
525.47	19686.25
525.64	19173.67
525.81	19178.35
525.98	19611.35
526.16	19389.00
526.33	19426.45
526.50	19630.07
526.67	19527.09
526.84	19424.11
527.01	19641.78
527.18	19487.30
527.36	19957.75
527.53	20161.37
527.70	20173.08
527.87	19747.10
528.04	19798.59
528.21	19955.41
528.38	19800.93
528.55	19686.25
528.72	20027.96
528.89	19733.06
529.07	20039.67
529.24	19932.00
529.41	19957.75
529.58	20142.65
529.75	20147.33
529.92	20365.00
530.09	20011.58
530.26	19995.20
530.43	19953.07
530.60	19978.81
530.77	20287.76
530.94	20376.70
531.11	20215.21
531.28	20360.32
531.46	20381.38
531.63	20362.66
531.80	20386.07
531.97	20411.81
532.14	20346.28
532.31	20643.52
532.48	20723.10
532.65	20329.89
532.82	20559.27
532.99	20769.91
533.16	20657.57
533.33	20730.12
533.50	20547.56
533.67	20645.87
533.84	20547.56
534.01	20662.25
534.18	20863.54
534.35	21036.74
534.52	20870.56
534.69	20809.70
534.86	21170.15
535.03	20769.91
535.20	21186.53
535.37	20959.50
535.54	21216.96
535.71	21153.76
535.88	21048.44
536.05	21053.12
536.22	20929.07
536.38	21003.97
536.55	21392.50
536.72	20987.58
536.89	21200.57
537.06	21181.85
537.23	21537.61
537.40	21317.60
537.57	21610.17
537.74	21462.71
537.91	21359.73
538.08	21406.54
538.25	21315.26
538.42	21572.72
538.59	21696.77
538.75	21813.79
538.92	21642.93
539.09	21970.61
539.26	21544.63
539.43	21624.21
539.60	21841.88
539.77	21673.36
539.94	21986.99
540.11	22118.06
540.28	22237.43
540.44	21907.41
540.61	21579.74
540.78	22260.84
540.95	22066.57
541.12	22080.61
541.29	22291.26
541.46	22258.49
541.62	22885.76
541.79	22721.92
541.96	22515.95
542.13	22258.49
542.30	22583.83
542.47	22595.53
542.63	22483.19
542.80	22874.06
542.97	23185.35
543.14	22991.08
543.31	23236.84
543.48	22682.13
543.64	22752.35
543.81	22724.26
543.98	22883.42
544.15	22904.48
544.32	23300.03
544.48	23061.30
544.65	23042.57
544.82	22981.72
544.99	23028.53
545.16	23075.34
545.32	23269.61
545.49	23538.77
545.66	23873.46
545.83	24283.06
546.00	23836.02
546.16	23651.11
546.33	23466.21
546.50	23758.78
546.67	23342.16
546.83	22799.16
547.00	22981.72
547.17	22782.77
547.34	22960.66
547.50	23403.02
547.67	23124.49
547.84	23208.75
548.00	23627.71
548.17	22986.40
548.34	23185.35
548.51	23597.28
548.67	23393.65
548.84	23201.73
549.01	23211.09
549.18	23283.65
549.34	23363.23
549.51	23625.37
549.68	23206.41
549.84	23307.05
550.01	23403.02
550.18	23403.02
550.34	23594.94
550.51	23515.36
550.68	23702.61
550.84	23087.04
551.01	23356.21
551.18	23583.24
551.34	23211.09
551.51	23073.00
551.68	23101.09
551.84	23651.11
552.01	23405.36
552.18	23555.15
552.34	23777.50
552.51	23747.08
552.68	23426.42
552.84	23871.12
553.01	23644.09
553.18	23220.45
553.34	23646.43
553.51	23592.60
553.67	23377.27
553.84	23751.76
554.01	23901.55
554.17	24070.07
554.34	23616.01
554.51	23686.22
554.67	24049.00
554.84	23653.45
555.00	23800.91
555.17	23604.30
555.33	23627.71
555.50	23435.78
555.67	23740.05
555.83	23501.32
556.00	23742.39
556.16	24173.05
556.33	24018.58
556.50	23988.15
556.66	23737.71
556.83	23908.57
556.99	24156.67
557.16	23791.55
557.32	23950.70
557.49	24149.65
557.65	23828.99
557.82	24357.96
557.98	24039.64
558.15	23899.21
558.32	23873.46
558.48	24161.35
558.65	24177.73
558.81	23939.00
558.98	23924.96
559.14	24086.45
559.31	23995.17
559.47	24400.08
559.64	24217.52
559.80	24212.84
559.97	24287.74
560.13	23819.63
560.30	24025.60
560.46	24187.10
560.63	24149.65
560.79	24123.90
560.96	24430.51
561.12	24051.34
561.29	23953.04
561.45	24334.55
561.61	24247.95
561.78	24264.33
561.94	24458.60
562.11	24451.58
562.27	24655.20
562.44	24280.72
562.60	24264.33
562.77	24140.29
562.93	24383.70
563.10	24414.13
563.26	24280.72
563.42	24737.12
563.59	24559.24
563.75	24732.44
563.92	24479.66
564.08	24594.35
564.24	24671.59
564.41	24744.14
564.57	24760.53
564.74	24329.87
564.90	24198.80
565.07	24615.41
565.23	24304.12
565.39	24287.74
565.56	24582.65
565.72	24669.25
565.88	24769.89
566.05	24489.03
566.21	24840.11
566.38	24484.34
566.54	24837.76
566.70	24636.48
566.87	24793.29
567.03	24418.81
567.19	24900.96
567.36	25041.39
567.52	24758.19
567.68	24603.71
567.85	24498.39
568.01	24987.56
568.17	24577.97
568.34	24568.60
568.50	24622.44
568.66	24329.87
568.83	24765.21
568.99	24514.77
569.15	24435.19
569.32	24149.65
569.48	24538.18
569.64	24217.52
569.81	24725.42
569.97	24659.88
570.13	24828.40
570.30	24383.70
570.46	24790.95
570.62	24456.26
570.78	24563.92
570.95	24638.82
571.11	25247.36
571.27	24702.01
571.43	24528.81
571.60	24858.83
571.76	24795.64
571.92	25034.37
572.09	24711.38
572.25	25069.48
572.41	25198.21
572.57	24783.93
572.74	25310.55
572.90	24493.71
573.06	24952.45
573.22	24973.52
573.38	24709.04
573.55	24692.65
573.71	25139.69
573.87	24975.86
574.03	24863.51
574.20	25202.89
574.36	24893.94
574.52	25001.60
574.68	24769.89
574.84	24996.92
575.01	25088.20
575.17	25099.90
575.33	24943.09
575.49	24943.09
575.65	25238.00
575.82	25022.67
575.98	24542.86
576.14	24615.41
576.30	24966.49
576.46	25242.68
576.62	25057.78
576.79	24907.98
576.95	24727.76
577.11	25156.08
577.27	24872.87
577.43	25015.65
577.59	25062.46
577.75	24596.69
577.92	24767.55
578.08	25041.39
578.24	24657.54
578.40	25078.84
578.56	25034.37
578.72	25298.85
578.88	25235.66
579.04	25247.36
579.21	25221.61
579.37	25181.82
579.53	25450.99
579.69	25036.71
579.85	24980.54
580.01	25216.93
580.17	25055.43
580.33	24900.96
580.49	24762.87
580.65	25235.66
580.82	24994.58
580.98	24830.74
581.14	24872.87
581.30	25310.55
581.46	25088.20
581.62	24847.13
581.78	24975.86
581.94	24828.40
582.10	24884.58
582.26	24821.38
582.42	25060.12
582.58	25488.43
582.74	24994.58
582.90	25214.59
583.06	25296.51
583.22	25312.89
583.38	25380.77
583.54	24936.07
583.70	25146.72
583.86	25060.12
584.02	25266.08
584.18	25305.87
584.34	25104.59
584.50	25069.48
584.66	25092.88
584.82	25186.50
584.98	25088.20
585.14	24826.06
585.30	24943.09
585.46	25394.81
585.62	25130.33
585.78	25144.38
585.94	25041.39
586.10	24938.41
586.26	25298.85
586.42	25352.68
586.58	25261.40
586.74	25076.50
586.90	25181.82
587.06	25130.33
587.22	25867.60
587.38	25310.55
587.54	25474.39
587.70	25614.82
587.86	25165.44
588.02	25212.25
588.18	25364.39
588.34	25418.22
588.49	25270.76
588.65	25020.33
588.81	25104.59
588.97	25455.67
589.13	25357.36
589.29	25163.10
589.45	25149.06
589.61	25120.97
589.77	25287.15
589.93	25287.15
590.08	25350.34
590.24	25640.57
590.40	25184.16
590.56	25443.96
590.72	25296.51
590.88	25348.00
