SpectraSuite Data File
++++++++++++++++++++++++++++++++++++
Date: Thu Oct 24 13:21:28 EDT 2013
User: stostad
Dark Spectrum Present: No
Reference Spectrum Present: No
Number of Sampled Component Spectra: 1
Spectrometers: USB2+H05261
Integration Time (usec): 100000 (USB2+H05261)
Spectra Averaged: 1 (USB2+H05261)
Boxcar Smoothing: 0 (USB2+H05261)
Correct for Electrical Dark: No (USB2+H05261)
Strobe/Lamp Enabled: No (USB2+H05261)
Correct for Detector Non-linearity: No (USB2+H05261)
Correct for Stray Light: No (USB2+H05261)
Number of Pixels in Processed Spectrum: 2048
>>>>>Begin Processed Spectral Data<<<<<
365.73	519.60
365.92	519.60
366.12	519.60
366.32	533.64
366.52	423.64
366.72	470.45
366.91	440.02
367.11	484.49
367.31	447.04
367.51	362.78
367.70	449.38
367.90	374.49
368.10	451.72
368.30	477.47
368.49	498.53
368.69	477.47
368.89	496.19
369.09	540.66
369.28	510.24
369.48	554.71
369.68	479.81
369.87	507.90
370.07	512.58
370.27	582.79
370.47	685.78
370.66	950.26
370.86	922.17
371.06	964.30
371.25	1046.22
371.45	1069.62
371.65	1064.94
371.84	1102.39
372.04	1018.13
372.24	1048.56
372.44	1081.33
372.63	1146.86
372.83	1076.65
373.03	1123.46
373.22	1128.14
373.42	1219.42
373.62	1137.50
373.81	1212.40
374.01	1135.16
374.21	1135.16
374.40	1186.65
374.60	1228.78
374.79	1196.01
374.99	1198.35
375.19	1200.69
375.38	1266.23
375.58	1242.82
375.78	1280.27
375.97	1233.46
376.17	1324.74
376.37	1263.89
376.56	1203.04
376.76	1289.64
376.95	1207.72
377.15	1214.74
377.35	1191.33
377.54	1301.34
377.74	1214.74
377.93	1280.27
378.13	1242.82
378.33	1270.91
378.52	1275.59
378.72	1338.79
378.91	1404.32
379.11	1411.34
379.31	1359.85
379.50	1329.42
379.70	1451.13
379.89	1423.05
380.09	1299.00
380.28	1320.06
380.48	1448.79
380.68	1394.96
380.87	1348.15
381.07	1390.28
381.26	1448.79
381.46	1411.34
381.65	1413.68
381.85	1397.30
382.04	1437.09
382.24	1465.18
382.43	1490.92
382.63	1514.33
382.83	1437.09
383.02	1589.22
383.22	1521.35
383.41	1476.88
383.61	1540.07
383.80	1617.31
384.00	1579.86
384.19	1507.30
384.39	1554.12
384.58	1607.95
384.78	1631.35
384.97	1577.52
385.17	1610.29
385.36	1516.67
385.56	1533.05
385.75	1643.06
385.95	1612.63
386.14	1621.99
386.34	1612.63
386.53	1540.07
386.72	1589.22
386.92	1640.72
387.11	1659.44
387.31	1675.82
387.50	1682.85
387.70	1603.27
387.89	1753.06
388.09	1673.48
388.28	1680.50
388.48	1736.68
388.67	1633.69
388.86	1771.79
389.06	1713.27
389.25	1774.13
389.45	1792.85
389.64	1717.95
389.84	1792.85
390.03	1870.09
390.22	1755.40
390.42	1802.21
390.61	1895.83
390.81	1888.81
391.00	1844.34
391.19	1872.43
391.39	1802.21
391.58	1874.77
391.78	1863.07
391.97	1973.07
392.16	1926.26
392.36	2031.58
392.55	1973.07
392.75	1940.30
392.94	1954.35
393.13	2045.63
393.33	1944.99
393.52	2043.29
393.71	2047.97
393.91	2031.58
394.10	2019.88
394.29	2108.82
394.49	1996.48
394.68	2111.16
394.88	2155.63
395.07	2094.78
395.26	2186.06
395.46	2111.16
395.65	2197.76
395.84	2232.87
396.04	2195.42
396.23	2265.64
396.42	2263.30
396.62	2200.10
396.81	2207.13
397.00	2260.96
397.19	2265.64
397.39	2218.83
397.58	2267.98
397.77	2347.56
397.97	2326.49
398.16	2291.38
398.35	2310.11
398.55	2354.58
398.74	2314.79
398.93	2314.79
399.12	2401.39
399.32	2377.98
399.51	2443.52
399.70	2466.92
399.90	2473.95
400.09	2459.90
400.28	2466.92
400.47	2497.35
400.67	2626.08
400.86	2586.29
401.05	2539.48
401.24	2548.84
401.44	2630.76
401.63	2597.99
401.82	2689.28
402.01	2513.74
402.21	2743.11
402.40	2658.85
402.59	2661.19
402.78	2700.98
402.97	2864.82
403.17	2857.79
403.36	2782.90
403.55	2785.24
403.74	2775.88
403.93	2906.95
404.13	2946.73
404.32	2906.95
404.51	2930.35
404.70	2878.86
404.89	2956.10
405.09	2958.44
405.28	2892.90
405.47	2949.08
405.66	2970.14
405.85	2981.84
406.05	2953.76
406.24	3131.64
406.43	3075.46
406.62	3208.87
406.81	3141.00
407.00	3047.38
407.20	3066.10
407.39	3213.56
407.58	3246.32
407.77	3304.84
407.96	3304.84
408.15	3363.35
408.34	3239.30
408.54	3260.37
408.73	3290.79
408.92	3328.24
409.11	3478.04
409.30	3368.03
409.49	3485.06
409.68	3426.54
409.87	3475.70
410.07	3489.74
410.26	3606.77
410.45	3466.33
410.64	3686.34
410.83	3735.50
411.02	3496.76
411.21	3655.92
411.40	3826.78
411.59	3737.84
411.78	3646.55
411.98	3700.39
412.17	3843.16
412.36	3854.86
412.55	3985.93
412.74	4023.38
412.93	4084.23
413.12	3932.10
413.31	4049.13
413.50	3997.64
413.69	4058.49
413.88	4140.41
414.07	4276.16
414.26	4255.09
414.45	4273.82
414.64	4367.44
414.83	4273.82
415.02	4423.61
415.22	4365.10
415.41	4552.34
415.60	4311.27
415.79	4540.64
415.98	4458.72
416.17	4507.87
416.36	4589.79
416.55	4566.39
416.74	4753.63
416.93	4709.16
417.12	4800.44
417.31	4667.03
417.50	4788.74
417.69	4877.68
417.88	4901.08
418.07	4873.00
418.26	4912.78
418.45	4947.89
418.64	5144.50
418.83	4975.98
419.02	4971.30
419.21	5151.52
419.39	5111.73
419.58	4999.38
419.77	5170.24
419.96	5263.86
420.15	5226.42
420.34	5315.36
420.53	5219.39
420.72	5423.02
420.91	5263.86
421.10	5397.28
421.29	5357.49
421.48	5247.48
421.67	5310.68
421.86	5453.45
422.05	5425.36
422.24	5408.98
422.43	5507.28
422.61	5544.73
422.80	5596.22
422.99	5554.09
423.18	5535.37
423.37	5710.91
423.56	5540.05
423.75	5516.64
423.94	5411.32
424.13	5207.69
424.32	5291.95
424.50	5551.75
424.69	5722.61
424.88	5692.18
425.07	5561.11
425.26	5481.53
425.45	5509.62
425.64	5764.74
425.83	5500.26
426.01	5792.83
426.20	5600.90
426.39	5652.39
426.58	5731.97
426.77	5628.99
426.96	5666.44
427.15	5708.57
427.33	5858.36
427.52	5874.74
427.71	5975.39
427.90	5900.49
428.09	5881.77
428.28	6038.58
428.46	5935.60
428.65	5923.90
428.84	6118.16
429.03	6031.56
429.22	5980.07
429.40	6040.92
429.59	6282.00
429.78	5905.17
429.97	5841.98
430.16	6253.91
430.34	6375.62
430.53	6211.78
430.72	6244.55
430.91	6312.42
431.10	6253.91
431.28	6352.21
431.47	6532.44
431.66	6445.84
431.85	6492.65
432.03	6576.91
432.22	6806.28
432.41	6661.16
432.60	6487.96
432.79	6464.56
432.97	6588.61
433.16	6644.78
433.35	6841.39
433.54	6722.02
433.72	6754.79
433.91	6715.00
434.10	6757.13
434.28	6759.47
434.47	6923.30
434.66	6902.24
434.85	6965.43
435.03	7110.55
435.22	7276.73
435.41	7337.58
435.59	7265.02
435.78	7250.98
435.97	7201.83
436.16	7164.38
436.34	7178.42
436.53	7169.06
436.72	7302.47
436.90	6927.99
437.09	7246.30
437.28	7119.91
437.46	7330.56
437.65	7253.32
437.84	7353.96
438.02	7351.62
438.21	7529.50
438.40	7260.34
438.58	7749.51
438.77	7772.92
438.96	7698.02
439.14	7819.73
439.33	8042.08
439.52	7941.44
439.70	8011.65
439.89	8084.21
440.08	8177.83
440.26	8025.70
440.45	7962.50
440.63	8051.44
440.82	8311.24
441.01	8170.81
441.19	8365.07
441.38	8355.71
441.57	8470.40
441.75	8568.70
441.94	8765.31
442.12	8568.70
442.31	8727.86
442.50	8835.52
442.68	8676.37
442.87	9013.40
443.05	8840.20
443.24	9062.55
443.43	8800.41
443.61	8917.44
443.80	9221.71
443.98	9060.21
444.17	8545.30
444.35	9015.74
444.54	9149.15
444.73	8847.22
444.91	9228.73
445.10	9137.45
445.28	9242.78
445.47	9071.92
445.65	9165.54
445.84	9235.75
446.02	9242.78
446.21	9221.71
446.39	9202.99
446.58	9472.15
446.77	9310.65
446.95	9069.58
447.14	9170.22
447.32	9390.23
447.51	9284.91
447.69	9130.43
447.88	9394.91
448.06	9373.85
448.25	9350.44
448.43	9392.57
448.62	9256.82
448.80	9184.26
448.99	9362.14
449.17	9544.70
449.36	9556.41
449.54	9713.22
449.73	9867.70
449.91	9958.98
450.10	9919.19
450.28	9909.83
450.46	9832.59
450.65	9947.28
450.83	9874.72
451.02	9914.51
451.20	9970.68
451.39	10164.95
451.57	10057.28
451.76	9958.98
451.94	10031.54
452.13	10225.80
452.31	10017.49
452.49	9912.17
452.68	10324.10
452.86	10160.27
453.05	10120.48
453.23	10331.12
453.42	10202.40
453.60	10017.49
453.78	10324.10
453.97	10211.76
454.15	10312.40
454.34	10356.87
454.52	10724.33
454.70	10284.31
454.89	10626.03
455.07	10588.58
455.26	10551.14
455.44	10799.23
455.62	10719.65
455.81	10839.02
455.99	10864.77
456.17	10864.77
456.36	10932.64
456.54	10988.82
456.73	11059.03
456.91	11351.60
457.09	11211.17
457.28	11456.92
457.46	11000.52
457.64	11442.88
457.83	11379.68
458.01	11255.64
458.19	11466.28
458.38	11426.50
458.56	11463.94
458.74	11728.42
458.93	11576.29
459.11	11583.31
459.29	11623.10
459.48	11939.07
459.66	11831.41
459.84	11805.66
460.03	11913.33
460.21	11932.05
460.39	12056.10
460.57	12128.66
460.76	12093.55
460.94	12381.43
461.12	12212.92
461.31	12072.48
461.49	12119.29
461.67	12322.92
461.85	12514.84
462.04	12201.21
462.22	12472.71
462.40	12582.72
462.59	12428.24
462.77	12355.69
462.95	12526.55
463.13	12889.33
463.32	12542.93
463.50	12737.20
463.68	12634.21
463.86	12725.49
464.05	12578.04
464.23	12718.47
464.41	12617.83
464.59	12753.58
464.78	13287.22
464.96	13226.37
465.14	12458.67
465.32	12795.71
465.50	13226.37
465.69	13048.49
465.87	13165.51
466.05	13221.69
466.23	12985.29
466.41	13291.90
466.60	13458.08
466.78	13135.09
466.96	13137.43
467.14	13385.52
467.32	13254.45
467.51	13626.60
467.69	13284.88
467.87	13177.22
468.05	13661.71
468.23	13404.25
468.41	13439.36
468.60	13846.61
468.78	13694.47
468.96	13954.27
469.14	13949.59
469.32	13965.98
469.50	13362.12
469.69	13668.73
469.87	13951.93
470.05	14361.53
470.23	14518.34
470.41	14258.54
470.59	14298.33
470.77	14078.32
470.95	14277.27
471.14	14743.03
471.32	14202.37
471.50	14876.44
471.68	14686.86
471.86	14656.43
472.04	14881.13
472.22	15279.02
472.40	14831.97
472.58	14953.68
472.77	14925.60
472.95	15274.34
473.13	15283.70
473.31	15311.78
473.49	15356.25
473.67	15269.66
473.85	15501.37
474.03	15950.75
474.21	15852.45
474.39	15719.04
474.57	15716.70
474.75	16152.04
474.93	16313.53
475.12	16156.72
475.30	16145.02
475.48	16135.65
475.66	16594.40
475.84	16269.06
476.02	16423.54
476.20	16578.01
476.38	16854.20
476.56	17221.66
476.74	17238.05
476.92	16893.99
477.10	16987.61
477.28	17448.69
477.46	17275.49
477.64	17479.12
477.82	17951.91
478.00	18207.03
478.18	18036.17
478.36	18387.25
478.54	18448.10
478.72	18544.06
478.90	18892.80
479.08	18824.93
479.26	19061.32
479.44	19227.50
479.62	19239.20
479.80	19529.43
479.98	19332.82
480.16	20182.44
480.34	19592.62
480.52	20025.62
480.70	20023.28
480.88	20166.06
481.06	20168.40
481.24	20266.70
481.41	20641.18
481.59	20854.17
481.77	21015.67
481.95	20872.90
482.13	20844.81
482.31	21027.37
482.49	22033.80
482.67	21745.92
482.85	21839.54
483.03	22150.83
483.21	22302.96
483.39	22616.60
483.57	22204.66
483.74	22988.74
483.92	22752.35
484.10	22665.75
484.28	23281.31
484.46	23508.34
484.64	23726.01
484.82	23501.32
485.00	24039.64
485.18	24280.72
485.35	24786.27
485.53	24645.84
485.71	24884.58
485.89	25081.18
486.07	25092.88
486.25	24769.89
486.43	25125.65
486.61	25401.83
486.78	26087.61
486.96	25928.45
487.14	26349.75
487.32	26471.46
487.50	26553.38
487.68	26747.64
487.85	27204.05
488.03	27351.50
488.21	27714.28
488.39	27950.68
488.57	27922.59
488.75	28133.24
488.92	28215.16
489.10	28318.14
489.28	28687.95
489.46	29057.75
489.64	28975.83
489.81	29612.46
489.99	29584.37
490.17	29816.08
490.35	30342.70
490.53	30073.54
490.70	30195.25
490.88	30136.74
491.06	30700.81
491.24	30543.99
491.41	30981.67
491.59	30918.48
491.77	31285.94
491.95	31646.38
492.13	31735.32
492.30	32091.09
492.48	31960.02
492.66	31967.04
492.84	32762.82
493.01	32753.46
493.19	33076.45
493.37	33141.99
493.54	33188.80
493.72	33369.02
493.90	33301.14
494.08	34115.65
494.25	34323.96
494.43	34101.61
494.61	34808.45
494.79	34838.87
494.96	34522.90
495.14	34771.00
495.32	35391.24
495.49	35239.11
495.67	35421.67
495.85	35618.27
496.02	35981.06
496.20	36002.12
496.38	36208.09
496.55	36367.24
496.73	37287.07
496.91	36851.73
497.09	37186.43
497.26	37436.87
497.44	37439.21
497.62	36950.04
497.79	37366.65
497.97	37687.31
498.14	38387.13
498.32	38595.43
498.50	38679.69
498.67	38717.14
498.85	38408.19
499.03	39173.55
499.20	39112.69
499.38	39629.95
499.56	39412.28
499.73	39784.43
499.91	39594.84
500.08	40334.45
500.26	39531.65
500.44	40065.29
500.61	40088.70
500.79	40268.92
500.97	40659.79
501.14	41055.34
501.32	40926.61
501.49	40758.09
501.67	41036.61
501.84	40809.58
502.02	41645.15
502.20	41439.18
502.37	41481.31
502.55	41523.44
502.72	41790.27
502.90	42108.58
503.07	41923.68
503.25	42094.53
503.43	42274.76
503.60	42848.19
503.78	42574.34
503.95	42742.86
504.13	42501.79
504.30	43203.95
504.48	43225.01
504.65	43508.22
504.83	43807.81
505.01	44032.50
505.18	43587.80
505.36	43938.88
505.53	43688.44
505.71	43880.36
505.88	44053.56
506.06	44107.40
506.23	44493.58
506.41	44378.90
506.58	45095.10
506.76	44788.49
506.93	45074.04
507.11	44802.53
507.28	44961.69
507.46	45427.46
507.63	45708.32
507.81	45862.80
507.98	45291.71
508.16	45595.98
508.33	45741.09
508.50	46377.72
508.68	46057.06
508.85	46564.96
509.03	46108.55
509.20	46775.61
509.38	46618.79
509.55	46817.74
509.73	47114.98
509.90	47147.75
510.08	47405.21
510.25	47220.31
510.42	47227.33
510.60	47592.45
510.77	47374.78
510.95	47819.49
511.12	47739.91
511.30	47725.86
511.47	48376.53
511.64	48074.60
511.82	48521.65
511.99	48198.65
512.17	48224.40
512.34	48488.88
512.51	48725.27
512.69	48898.47
512.86	48980.39
513.04	49134.87
513.21	49097.42
513.38	49223.81
513.56	49322.11
513.73	49020.18
513.90	49453.18
514.08	49523.40
514.25	49923.63
514.43	49815.96
514.60	49972.78
514.77	50099.17
514.95	49900.22
515.12	50080.44
515.29	50047.68
515.47	50672.60
515.64	50756.86
515.81	50361.31
515.99	50464.29
516.16	50581.32
516.33	50642.17
516.51	51194.54
516.68	50798.99
516.85	50806.01
517.03	51023.68
517.20	51393.48
517.37	50890.27
517.54	51077.51
517.72	51353.69
517.89	51313.90
518.06	51297.52
518.24	51421.57
518.41	51772.65
518.58	51721.16
518.75	51519.87
518.93	51917.76
519.10	51721.16
519.27	51690.73
519.45	52062.88
519.62	52245.44
519.79	52133.09
519.96	52303.95
520.14	52310.97
520.31	52116.71
520.48	52013.73
520.65	52156.50
520.83	52790.78
521.00	52956.96
521.17	52561.41
521.34	52795.46
521.52	52865.68
521.69	52900.79
521.86	53162.93
522.03	53059.94
522.20	53485.92
522.38	53560.82
522.55	53588.91
522.72	53586.57
522.89	53338.47
523.07	53752.74
523.24	53567.84
523.41	53837.00
523.58	53832.32
523.75	54047.65
523.92	53773.81
524.10	53808.92
524.27	54038.29
524.44	54085.10
524.61	54068.72
524.78	53893.18
524.96	54167.02
525.13	54344.90
525.30	54459.58
525.47	54700.66
525.64	54602.36
525.81	54527.46
525.98	54426.82
526.16	54478.31
526.33	54454.90
526.50	54864.50
526.67	54630.44
526.84	54967.48
527.01	54768.54
527.18	55044.72
527.36	55065.78
527.53	55238.98
527.70	55182.81
527.87	55248.35
528.04	55501.12
528.21	55283.45
528.38	55320.90
528.55	55412.18
528.72	55229.62
528.89	55442.61
529.07	55194.51
529.24	55517.51
529.41	55861.57
529.58	55786.67
529.75	56013.70
529.92	55648.58
530.09	55648.58
530.26	55817.10
530.43	55798.37
530.60	55774.97
530.77	55941.14
530.94	56060.51
531.11	56299.25
531.28	55922.42
531.46	56231.37
531.63	56097.96
531.80	56186.90
531.97	56392.87
532.14	56561.39
532.31	56523.94
532.48	56418.61
532.65	56769.69
532.82	56413.93
532.99	56306.27
533.16	56549.68
533.33	56566.07
533.50	56580.11
533.67	56919.49
533.84	56577.77
534.01	56640.96
534.18	56765.01
534.35	57027.15
534.52	57029.49
534.69	56797.78
534.86	56882.04
535.03	57038.86
535.20	57066.94
535.37	57247.16
535.54	57326.74
535.71	57209.71
535.88	57254.18
536.05	57186.31
536.22	57265.89
536.38	57429.72
536.55	57275.25
536.72	57682.50
536.89	57471.85
537.06	57418.02
537.23	57808.89
537.40	57612.29
537.57	57808.89
537.74	57326.74
537.91	57911.88
538.08	57895.49
538.25	57616.97
538.42	57872.09
538.59	57972.73
538.75	57829.96
538.92	57902.51
539.09	58021.88
539.26	57895.49
539.43	57867.40
539.60	58131.89
539.77	57888.47
539.94	58391.68
540.11	58307.43
540.28	58471.26
540.44	58269.98
540.61	58117.84
540.78	58307.43
540.95	58443.18
541.12	58202.10
541.29	58515.73
541.46	58553.18
541.62	58656.17
541.79	58618.72
541.96	58522.76
542.13	58485.31
542.30	58564.88
542.47	58609.35
542.63	58635.10
542.80	58871.49
542.97	59276.41
543.14	59276.41
543.31	59351.30
543.48	59091.51
543.64	59250.66
543.81	59194.49
543.98	59269.39
544.15	59124.27
544.32	59241.30
544.48	59447.27
544.65	59428.54
544.82	59412.16
544.99	59121.93
545.16	59215.55
545.32	59297.47
545.49	59442.59
545.66	59824.09
545.83	59606.42
546.00	59884.95
546.16	59664.94
546.33	59639.19
546.50	59618.13
546.67	59540.89
546.83	59260.02
547.00	59473.01
547.17	59468.33
547.34	59512.80
547.50	59873.24
547.67	59791.33
547.84	59758.56
548.00	60137.72
548.17	59973.89
548.34	59936.44
548.51	60097.94
548.67	59957.50
548.84	59913.03
549.01	59779.62
549.18	59884.95
549.34	60142.41
549.51	60039.42
549.68	60285.18
549.84	60020.70
550.01	60221.98
550.18	59973.89
550.34	60257.09
550.51	60186.88
550.68	60062.83
550.84	60175.17
551.01	60477.10
551.18	60266.45
551.34	60013.68
551.51	60219.64
551.68	60416.25
551.84	60083.89
552.01	60193.90
552.18	60362.42
552.34	60086.23
552.51	60542.64
552.68	60544.98
552.84	60615.19
553.01	60640.94
553.18	60385.82
553.34	60500.51
553.51	60411.57
553.67	60460.72
553.84	61006.06
554.01	60729.88
554.17	60945.21
554.34	60734.56
554.51	60884.36
554.67	60863.29
554.84	60748.60
555.00	60662.00
555.17	60903.08
555.33	60760.31
555.50	60708.82
555.67	60900.74
555.83	60818.82
556.00	61034.15
556.16	61193.31
556.33	60814.14
556.50	60825.84
556.66	60907.76
556.83	60786.05
556.99	61277.57
557.16	61261.18
557.32	61209.69
557.49	61258.84
557.65	61132.45
557.82	61148.84
557.98	61120.75
558.15	60940.53
558.32	61181.60
558.48	61010.74
558.65	61317.35
558.81	61162.88
558.98	61382.89
559.14	61202.67
559.31	61240.12
559.47	61153.52
559.64	61399.27
559.80	61312.67
559.97	61443.74
560.13	61197.99
560.30	61380.55
560.46	61464.81
560.63	61506.94
560.79	61439.06
560.96	61511.62
561.12	61537.36
561.29	61588.86
561.45	61429.70
561.61	61731.63
561.78	61542.05
561.94	61574.81
562.11	61680.14
562.27	61504.60
562.44	61710.56
562.60	61687.16
562.77	61829.93
562.93	61656.73
563.10	61841.63
563.26	61476.51
563.42	61677.80
563.59	61609.92
563.75	61836.95
563.92	61766.74
564.08	61815.89
564.24	61755.03
564.41	61769.08
564.57	61822.91
564.74	61748.01
564.90	61705.88
565.07	61911.85
565.23	61825.25
565.39	61759.72
565.56	61984.41
565.72	61855.68
565.88	61876.74
566.05	61815.89
566.21	61935.26
566.38	61663.75
566.54	61776.10
566.70	61932.92
566.87	62321.44
567.03	62094.41
567.19	62309.74
567.36	62169.31
567.52	62096.75
567.68	62138.88
567.85	61902.49
568.01	61946.96
568.17	61888.45
568.34	62307.40
568.50	61979.73
568.66	62078.03
568.83	62141.22
568.99	62262.93
569.15	62136.54
569.32	62099.09
569.48	61785.46
569.64	62003.13
569.81	61932.92
569.97	62003.13
570.13	62265.27
570.30	62108.46
570.46	62122.50
570.62	62253.57
570.78	62031.22
570.95	62028.88
571.11	62255.91
571.27	62014.83
571.43	62092.07
571.60	62188.03
571.76	62026.54
571.92	62211.44
572.09	62347.19
572.25	62347.19
572.41	62422.09
572.57	62141.22
572.74	62480.60
572.90	61998.45
573.06	62223.14
573.22	62211.44
573.38	62155.27
573.55	62532.09
573.71	62475.92
573.87	62384.64
574.03	62164.63
574.20	62316.76
574.36	62513.37
574.52	62298.04
574.68	62218.46
574.84	62298.04
575.01	62459.54
575.17	62459.54
575.33	62546.14
575.49	62386.98
575.65	62698.27
575.82	62520.39
575.98	62396.34
576.14	62761.47
576.30	62635.08
576.46	62216.12
576.62	62157.61
576.79	62326.13
576.95	62262.93
577.11	62644.44
577.27	62475.92
577.43	62358.89
577.59	62473.58
577.75	62365.91
577.92	62377.62
578.08	62632.74
578.24	62581.24
578.40	62529.75
578.56	62576.56
578.72	62482.94
578.88	62829.34
579.04	62599.97
579.21	62534.43
579.37	62658.48
579.53	62642.10
579.69	62255.91
579.85	62274.63
580.01	62496.98
580.17	62473.58
580.33	62623.37
580.49	62658.48
580.65	62653.80
580.82	62745.08
580.98	62733.38
581.14	62604.65
581.30	62693.59
581.46	62515.71
581.62	62555.50
581.78	62480.60
581.94	62604.65
582.10	62429.11
582.26	62588.27
582.42	62506.35
582.58	62712.31
582.74	62508.69
582.90	62880.83
583.06	62801.25
583.22	62489.96
583.38	62663.16
583.54	62525.07
583.70	62536.77
583.86	62756.78
584.02	62525.07
584.18	62803.59
584.34	62677.21
584.50	62791.89
584.66	62803.59
584.82	62438.47
584.98	62761.47
585.14	62707.63
585.30	62621.03
585.46	62731.04
585.62	62691.25
585.78	62766.15
585.94	62527.41
586.10	62742.74
586.26	62773.17
586.42	62946.37
586.58	62862.11
586.74	62707.63
586.90	62585.92
587.06	62658.48
587.22	62913.60
587.38	62794.23
587.54	62995.52
587.70	63032.97
