SpectraSuite Data File
++++++++++++++++++++++++++++++++++++
Date: Thu Oct 24 13:21:14 EDT 2013
User: stostad
Dark Spectrum Present: No
Reference Spectrum Present: No
Number of Sampled Component Spectra: 1
Spectrometers: USB2+H05261
Integration Time (usec): 100000 (USB2+H05261)
Spectra Averaged: 1 (USB2+H05261)
Boxcar Smoothing: 0 (USB2+H05261)
Correct for Electrical Dark: No (USB2+H05261)
Strobe/Lamp Enabled: No (USB2+H05261)
Correct for Detector Non-linearity: No (USB2+H05261)
Correct for Stray Light: No (USB2+H05261)
Number of Pixels in Processed Spectrum: 2048
>>>>>Begin Processed Spectral Data<<<<<
365.73	587.47
365.92	587.47
366.12	587.47
366.32	517.26
366.52	423.64
366.72	463.43
366.91	451.72
367.11	416.62
367.31	402.57
367.51	433.00
367.70	524.28
367.90	514.92
368.10	447.04
368.30	407.25
368.49	489.17
368.69	440.02
368.89	430.66
369.09	428.32
369.28	566.41
369.48	557.05
369.68	517.26
369.87	613.22
370.07	493.85
370.27	566.41
370.47	608.54
370.66	657.69
370.86	667.05
371.06	699.82
371.25	702.16
371.45	739.61
371.65	676.41
371.84	653.01
372.04	720.88
372.24	770.04
372.44	683.44
372.63	779.40
372.83	727.91
373.03	807.48
373.22	753.65
373.42	767.70
373.62	784.08
373.81	791.10
374.01	805.14
374.21	814.51
374.40	763.01
374.60	800.46
374.79	791.10
374.99	805.14
375.19	758.33
375.38	755.99
375.58	777.06
375.78	791.10
375.97	713.86
376.17	805.14
376.37	791.10
376.56	739.61
376.76	812.17
376.95	741.95
377.15	748.97
377.35	807.48
377.54	784.08
377.74	760.67
377.93	816.85
378.13	779.40
378.33	800.46
378.52	802.80
378.72	795.78
378.91	814.51
379.11	739.61
379.31	774.72
379.50	786.42
379.70	821.53
379.89	851.96
380.09	814.51
380.28	828.55
380.48	765.36
380.68	800.46
380.87	753.65
381.07	795.78
381.26	842.59
381.46	786.42
381.65	837.91
381.85	819.19
382.04	828.55
382.24	805.14
382.43	868.34
382.63	873.02
382.83	802.80
383.02	877.70
383.22	880.04
383.41	835.57
383.61	833.23
383.80	966.64
384.00	868.34
384.19	814.51
384.39	856.64
384.58	894.08
384.78	877.70
384.97	875.36
385.17	877.70
385.36	807.48
385.56	802.80
385.75	873.02
385.95	812.17
386.14	866.00
386.34	856.64
386.53	894.08
386.72	823.87
386.92	891.74
387.11	922.17
387.31	866.00
387.50	910.47
387.70	877.70
387.89	828.55
388.09	866.00
388.28	980.68
388.48	929.19
388.67	931.53
388.86	947.92
389.06	905.79
389.25	945.58
389.45	870.68
389.64	912.81
389.84	943.24
390.03	938.55
390.22	922.17
390.42	924.51
390.61	985.37
390.81	950.26
391.00	861.32
391.19	926.85
391.39	837.91
391.58	997.07
391.78	1004.09
391.97	933.87
392.16	1036.86
392.36	1008.77
392.55	968.98
392.75	1050.90
392.94	994.73
393.13	997.07
393.33	994.73
393.52	992.39
393.71	1013.45
393.91	1013.45
394.10	952.60
394.29	1008.77
394.49	952.60
394.68	947.92
394.88	1060.26
395.07	1060.26
395.26	992.39
395.46	1022.81
395.65	1102.39
395.84	1018.13
396.04	1100.05
396.23	1050.90
396.42	994.73
396.62	1095.37
396.81	1015.79
397.00	1083.67
397.19	1107.07
397.39	994.73
397.58	1100.05
397.77	1046.22
397.97	1146.86
398.16	1069.62
398.35	1083.67
398.55	978.34
398.74	1123.46
398.93	1118.78
399.12	1156.22
399.32	1097.71
399.51	1036.86
399.70	1125.80
399.90	1088.35
400.09	1137.50
400.28	1167.93
400.47	1130.48
400.67	1132.82
400.86	1102.39
401.05	1224.10
401.24	1137.50
401.44	1151.54
401.63	1156.22
401.82	1118.78
402.01	1081.33
402.21	1193.67
402.40	1242.82
402.59	1191.33
402.78	1114.10
402.97	1231.12
403.17	1191.33
403.36	1289.64
403.55	1212.40
403.74	1355.17
403.93	1280.27
404.13	1310.70
404.32	1261.55
404.51	1299.00
404.70	1289.64
404.89	1268.57
405.09	1320.06
405.28	1310.70
405.47	1336.45
405.66	1376.24
405.85	1291.98
406.05	1240.48
406.24	1301.34
406.43	1341.13
406.62	1357.51
406.81	1444.11
407.00	1331.76
407.20	1268.57
407.39	1315.38
407.58	1343.47
407.77	1308.36
407.96	1425.39
408.15	1355.17
408.34	1369.21
408.54	1397.30
408.73	1392.62
408.92	1430.07
409.11	1423.05
409.30	1469.86
409.49	1441.77
409.68	1497.94
409.87	1476.88
410.07	1495.60
410.26	1453.47
410.45	1453.47
410.64	1399.64
410.83	1528.37
411.02	1511.99
411.21	1500.28
411.40	1547.09
411.59	1507.30
411.78	1582.20
411.98	1547.09
412.17	1516.67
412.36	1509.65
412.55	1617.31
412.74	1584.54
412.93	1650.08
413.12	1605.61
413.31	1645.40
413.50	1680.50
413.69	1643.06
413.88	1710.93
414.07	1593.90
414.26	1722.63
414.45	1629.01
414.64	1633.69
414.83	1626.67
415.02	1722.63
415.22	1818.60
415.41	1790.51
415.60	1856.04
415.79	1732.00
415.98	1750.72
416.17	1870.09
416.36	1755.40
416.55	1842.00
416.74	1816.26
416.93	1891.15
417.12	1811.57
417.31	1881.79
417.50	1827.96
417.69	1966.05
417.88	1879.45
418.07	1923.92
418.26	1973.07
418.45	1811.57
418.64	2024.56
418.83	1907.54
419.02	2015.20
419.21	1886.47
419.39	1944.99
419.58	2019.88
419.77	1991.80
419.96	2026.90
420.15	1909.88
420.34	1905.20
420.53	1914.56
420.72	1933.28
420.91	1994.14
421.10	2059.67
421.29	2026.90
421.48	2047.97
421.67	2087.76
421.86	2017.54
422.05	2036.27
422.24	2092.44
422.43	2216.49
422.61	2017.54
422.80	2108.82
422.99	2104.14
423.18	2045.63
423.37	2099.46
423.56	2083.08
423.75	2010.52
423.94	2047.97
424.13	1867.75
424.32	2125.21
424.50	2129.89
424.69	2176.70
424.88	2195.42
425.07	2125.21
425.26	2148.61
425.45	2146.27
425.64	2200.10
425.83	2120.53
426.01	2179.04
426.20	2062.01
426.39	2193.08
426.58	2174.36
426.77	2104.14
426.96	2188.40
427.15	2181.38
427.33	2176.70
427.52	2256.28
427.71	2169.68
427.90	2146.27
428.09	2183.72
428.28	2289.04
428.46	2190.74
428.65	2190.74
428.84	2228.19
429.03	2279.68
429.22	2256.28
429.40	2225.85
429.59	2256.28
429.78	2141.59
429.97	2174.36
430.16	2263.30
430.34	2380.32
430.53	2242.23
430.72	2293.72
430.91	2186.06
431.10	2239.89
431.28	2361.60
431.47	2289.04
431.66	2462.24
431.85	2361.60
432.03	2434.16
432.22	2452.88
432.41	2333.51
432.60	2394.37
432.79	2497.35
432.97	2448.20
433.16	2389.69
433.35	2502.03
433.54	2431.82
433.72	2560.55
433.91	2525.44
434.10	2523.10
434.28	2438.84
434.47	2520.76
434.66	2462.24
434.85	2562.89
435.03	2588.63
435.22	2712.68
435.41	3000.57
435.59	2902.26
435.78	2773.53
435.97	2785.24
436.16	2689.28
436.34	2583.95
436.53	2700.98
436.72	2628.42
436.90	2562.89
437.09	2703.32
437.28	2534.80
437.46	2576.93
437.65	2612.04
437.84	2679.91
438.02	2576.93
438.21	2619.06
438.40	2677.57
438.58	2726.72
438.77	2846.09
438.96	2726.72
439.14	2764.17
439.33	2815.66
439.52	2843.75
439.70	2736.09
439.89	2923.33
440.08	2738.43
440.26	2853.11
440.45	2825.03
440.63	2825.03
440.82	2860.13
441.01	2911.63
441.19	2864.82
441.38	2925.67
441.57	2911.63
441.75	3033.33
441.94	2967.80
442.12	3061.42
442.31	3056.74
442.50	3133.98
442.68	3115.25
442.87	3061.42
443.05	3075.46
443.24	3101.21
443.43	3089.51
443.61	3038.02
443.80	3185.47
443.98	3028.65
444.17	2911.63
444.35	3096.53
444.54	3080.14
444.73	3194.83
444.91	3162.06
445.10	3215.90
445.28	3124.62
445.47	3232.28
445.65	3108.23
445.84	3173.77
446.02	3166.74
446.21	3248.66
446.39	3119.93
446.58	3143.34
446.77	3148.02
446.95	3141.00
447.14	3218.24
447.32	3234.62
447.51	3136.32
447.69	3173.77
447.88	3070.78
448.06	3328.24
448.25	3211.22
448.43	3222.92
448.62	3260.37
448.80	3281.43
448.99	3295.47
449.17	3260.37
449.36	3225.26
449.54	3323.56
449.73	3368.03
449.91	3300.16
450.10	3389.10
450.28	3351.65
450.46	3440.59
450.65	3368.03
450.83	3243.98
451.02	3349.31
451.20	3419.52
451.39	3288.45
451.57	3398.46
451.76	3435.91
451.94	3335.26
452.13	3368.03
452.31	3353.99
452.49	3353.99
452.68	3307.18
452.86	3405.48
453.05	3515.48
453.23	3442.93
453.42	3400.80
453.60	3323.56
453.78	3536.55
453.97	3557.61
454.15	3405.48
454.34	3424.20
454.52	3536.55
454.70	3487.40
454.89	3552.93
455.07	3522.51
455.26	3564.64
455.44	3566.98
455.62	3662.94
455.81	3705.07
455.99	3639.53
456.17	3597.40
456.36	3513.14
456.54	3648.90
456.73	3728.47
456.91	3763.58
457.09	3744.86
457.28	3859.54
457.46	3740.18
457.64	3810.39
457.83	3819.75
458.01	3726.13
458.19	3896.99
458.38	3899.33
458.56	3838.48
458.74	3805.71
458.93	3744.86
459.11	3845.50
459.29	3929.76
459.48	3735.50
459.66	3698.05
459.84	3791.67
460.03	3901.67
460.21	4060.83
460.39	3932.10
460.57	3925.08
460.76	3976.57
460.94	3932.10
461.12	4112.32
461.31	3957.85
461.49	3939.12
461.67	3943.80
461.85	3988.27
462.04	3941.46
462.22	4229.35
462.40	4170.83
462.59	4142.75
462.77	4072.53
462.95	3967.21
463.13	4194.24
463.32	4046.79
463.50	4063.17
463.68	4229.35
463.86	4081.89
464.05	4065.51
464.23	4201.26
464.41	4107.64
464.59	4004.66
464.78	4147.43
464.96	4147.43
465.14	4257.43
465.32	4142.75
465.50	4353.40
465.69	4388.50
465.87	4208.28
466.05	4217.65
466.23	4318.29
466.41	4189.56
466.60	4337.01
466.78	4208.28
466.96	4297.22
467.14	4245.73
467.32	4231.69
467.51	4388.50
467.69	4327.65
467.87	4264.46
468.05	4365.10
468.23	4430.63
468.41	4140.41
468.60	4362.76
468.78	4416.59
468.96	4397.87
469.14	4458.72
469.32	4341.69
469.50	4297.22
469.69	4306.59
469.87	4468.08
470.05	4566.39
470.23	4580.43
470.41	4479.79
470.59	4571.07
470.77	4531.28
470.95	4545.32
471.14	4664.69
471.32	4561.70
471.50	4643.62
471.68	4531.28
471.86	4608.51
472.04	4662.35
472.22	4718.52
472.40	4692.77
472.58	4795.76
472.77	4709.16
472.95	4788.74
473.13	4933.85
473.31	4809.80
473.49	4723.20
473.67	4837.89
473.85	4896.40
474.03	5004.07
474.21	4814.48
474.39	4903.42
474.57	5027.47
474.75	5011.09
474.93	5078.96
475.12	5027.47
475.30	5170.24
475.48	5027.47
475.66	5198.33
475.84	5130.45
476.02	5137.48
476.20	5268.55
476.38	5275.57
476.56	5338.76
476.74	5296.63
476.92	5214.71
477.10	5327.06
477.28	5305.99
477.46	5371.53
477.64	5252.16
477.82	5451.11
478.00	5441.75
478.18	5518.98
478.36	5521.32
478.54	5619.63
478.72	5689.84
478.90	5909.85
479.08	5788.14
479.26	5748.36
479.44	5916.87
479.62	5818.57
479.80	6024.54
479.98	5879.43
480.16	6017.52
480.34	5991.77
480.52	6286.68
480.70	6078.37
480.88	5879.43
481.06	6059.65
481.24	6076.03
481.41	6188.38
481.59	6270.30
481.77	6083.05
481.95	6370.94
482.13	6506.69
482.31	6476.26
482.49	6569.88
482.67	6574.56
482.85	6588.61
483.03	6684.57
483.21	6771.17
483.39	6832.02
483.57	6715.00
483.74	6670.53
483.92	6789.89
484.10	6967.77
484.28	7045.01
484.46	7068.42
484.64	7098.84
484.82	7098.84
485.00	7089.48
485.18	7246.30
485.35	7356.30
485.53	7279.07
485.71	7419.50
485.89	7360.98
486.07	7435.88
486.25	7606.74
486.43	7634.83
486.61	7772.92
486.78	7681.64
486.96	7826.75
487.14	7981.23
487.32	7662.91
487.50	7779.94
487.68	7836.11
487.85	8037.40
488.03	8236.35
488.21	8290.18
488.39	8194.22
488.57	8231.66
488.75	8262.09
488.92	8449.33
489.10	8315.92
489.28	8332.31
489.46	8411.89
489.64	8414.23
489.81	8678.71
489.99	8865.95
490.17	8805.10
490.35	8882.33
490.53	8823.82
490.70	8858.93
490.88	8835.52
491.06	8889.35
491.24	8884.67
491.41	8912.76
491.59	9254.48
491.77	9092.98
491.95	9181.92
492.13	9287.25
492.30	9235.75
492.48	9329.38
492.66	9430.02
492.84	9238.09
493.01	9327.03
493.19	9469.81
493.37	9624.28
493.54	9591.52
493.72	9591.52
493.90	9799.82
494.08	9645.35
494.25	9823.23
494.43	9806.84
494.61	9877.06
494.79	9774.08
494.96	9935.57
495.14	9884.08
495.32	10029.20
495.49	10174.31
495.67	10333.47
495.85	10155.58
496.02	10211.76
496.20	10539.43
496.38	10272.61
496.55	10485.60
496.73	10799.23
496.91	10530.07
497.09	10607.31
497.26	10534.75
497.44	10588.58
497.62	10661.14
497.79	10946.69
497.97	10939.66
498.14	10834.34
498.32	10993.50
498.50	10960.73
498.67	11075.42
498.85	10993.50
499.03	11009.88
499.20	10939.66
499.38	11122.23
499.56	11255.64
499.73	11405.43
499.91	11337.56
500.08	11365.64
500.26	11192.44
500.44	11515.44
500.61	11169.04
500.79	11543.52
500.97	11599.70
501.14	11627.78
501.32	11651.19
501.49	11566.93
501.67	11538.84
501.84	11660.55
502.02	11527.14
502.20	11648.85
502.37	11791.62
502.55	11627.78
502.72	11662.89
502.90	11955.46
503.07	11709.70
503.25	11918.01
503.43	11700.34
503.60	12112.27
503.78	12147.38
503.95	12046.74
504.13	11861.84
504.30	12039.72
504.48	12086.53
504.65	12072.48
504.83	12627.19
505.01	12453.99
505.18	12395.48
505.36	12444.63
505.53	12219.94
505.71	12507.82
505.88	12093.55
506.06	12657.62
506.23	12418.88
506.41	12510.16
506.58	12461.01
506.76	12379.09
506.93	12704.43
507.11	12842.52
507.28	12999.34
507.46	12784.01
507.63	12835.50
507.81	13004.02
507.98	12858.90
508.16	12917.42
508.33	12980.61
508.50	12938.48
508.68	12940.82
508.85	13055.51
509.03	13128.06
509.20	12985.29
509.38	13343.39
509.55	13523.62
509.73	13371.48
509.90	13355.10
510.08	13444.04
510.25	13561.06
510.42	13565.74
510.60	13465.10
510.77	13394.89
510.95	13486.17
511.12	13507.23
511.30	13774.05
511.47	13692.13
511.64	13359.78
511.82	13914.48
511.99	13628.94
512.17	13827.88
512.34	13958.96
512.51	13862.99
512.69	13752.99
512.86	13790.44
513.04	14263.22
513.21	13947.25
513.38	14197.69
513.56	13827.88
513.73	13947.25
513.90	14263.22
514.08	14038.53
514.25	14321.74
514.43	14115.77
514.60	14193.01
514.77	14043.21
514.95	14174.28
515.12	14178.97
515.29	14382.59
515.47	14431.74
515.64	14480.89
515.81	14513.66
515.99	14553.45
516.16	14532.39
516.33	14597.92
516.51	14471.53
516.68	14546.43
516.85	14352.16
517.03	14766.44
517.20	14864.74
517.37	14794.53
517.54	14614.30
517.72	14684.52
517.89	14855.38
518.06	14768.78
518.24	14834.32
518.41	14977.09
518.58	14918.57
518.75	14869.42
518.93	14775.80
519.10	14857.72
519.27	14918.57
519.45	15218.16
519.62	15204.12
519.79	15084.75
519.96	14899.85
520.14	15171.35
520.31	14956.02
520.48	15197.10
520.65	15279.02
520.83	15307.10
521.00	15342.21
521.17	15599.67
521.34	15454.56
521.52	15475.62
521.69	15639.46
521.86	15318.81
522.03	15417.11
522.20	15337.53
522.38	15583.29
522.55	15786.91
522.72	15538.82
522.89	15522.43
523.07	15971.82
523.24	15660.52
523.41	15829.04
523.58	15733.08
523.75	15700.31
523.92	15667.55
524.10	16013.95
524.27	16065.44
524.44	15885.22
524.61	15922.66
524.78	16051.39
524.96	15892.24
525.13	16224.59
525.30	16013.95
525.47	16313.53
525.64	16074.80
525.81	16053.73
525.98	16011.60
526.16	15932.03
526.33	16276.09
526.50	16212.89
526.67	16006.92
526.84	16177.78
527.01	16318.22
527.18	16367.37
527.36	16329.92
527.53	16308.85
527.70	16428.22
527.87	16278.43
528.04	16100.55
528.21	16657.59
528.38	16283.11
528.55	16542.91
528.72	16409.50
528.89	16767.60
529.07	16514.82
529.24	16486.73
529.41	16580.36
529.58	16826.11
529.75	16409.50
529.92	16636.53
530.09	16418.86
530.26	16587.38
530.43	16826.11
530.60	16737.17
530.77	16681.00
530.94	16802.71
531.11	16706.74
531.28	16699.72
531.46	17060.16
531.63	16510.14
531.80	16826.11
531.97	17118.68
532.14	17060.16
532.31	16809.73
532.48	17212.30
532.65	17188.89
532.82	16849.52
532.99	16833.13
533.16	17097.61
533.33	17048.46
533.50	17191.23
533.67	17259.11
533.84	17352.73
534.01	17216.98
534.18	17081.23
534.35	17504.87
534.52	17357.41
534.69	17287.20
534.86	17198.26
535.03	17228.68
535.20	17275.49
535.37	17530.61
535.54	17397.20
535.71	17568.06
535.88	17455.72
536.05	17689.77
536.22	17589.13
536.38	17699.13
536.55	17582.10
536.72	17312.94
536.89	17689.77
537.06	17614.87
537.23	18024.47
537.40	17586.79
537.57	17507.21
537.74	17458.06
537.91	17731.90
538.08	17575.08
538.25	17722.54
538.42	17720.20
538.59	17980.00
538.75	17834.88
538.92	18024.47
539.09	17970.63
539.26	18017.44
539.43	17942.55
539.60	17696.79
539.77	17867.65
539.94	18422.36
540.11	18326.39
540.28	18317.03
540.44	18113.41
540.61	18270.22
540.78	18239.79
540.95	18200.01
541.12	18621.30
541.29	18499.59
541.46	18684.50
541.62	18593.22
541.79	18530.02
541.96	18586.19
542.13	18602.58
542.30	18640.03
542.47	18640.03
542.63	18602.58
542.80	18721.95
542.97	19026.21
543.14	18876.42
543.31	18815.57
543.48	18878.76
543.64	18881.10
543.81	18974.72
543.98	18869.40
544.15	18944.30
544.32	19068.34
544.48	18967.70
544.65	19051.96
544.82	19096.43
544.99	18679.82
545.16	19271.97
545.32	18899.83
545.49	19683.91
545.66	20194.14
545.83	19889.87
546.00	19983.49
546.16	19569.22
546.33	19754.12
546.50	19487.30
546.67	19372.61
546.83	18970.04
547.00	18855.36
547.17	18721.95
547.34	19236.86
547.50	18927.91
547.67	19243.88
547.84	19147.92
548.00	19058.98
548.17	19253.25
548.34	18862.38
548.51	19026.21
548.67	19344.53
548.84	19328.14
549.01	19183.03
549.18	18984.09
549.34	19154.94
549.51	19070.68
549.68	18916.21
549.84	19206.44
550.01	19470.92
550.18	19056.64
550.34	19470.92
550.51	19047.28
550.68	19105.79
550.84	18778.12
551.01	19133.88
551.18	19332.82
551.34	19232.18
551.51	19286.01
551.68	18885.78
551.84	18848.33
552.01	19073.03
552.18	19264.95
552.34	19576.24
552.51	19625.39
552.68	19456.87
552.84	19278.99
553.01	19506.02
553.18	19089.41
553.34	19459.21
553.51	19349.21
553.67	19063.66
553.84	19775.19
554.01	19431.13
554.17	19412.40
554.34	19499.00
554.51	19412.40
554.67	19302.40
554.84	19166.65
555.00	19049.62
555.17	18988.77
555.33	19260.27
555.50	19456.87
555.67	19229.84
555.83	19632.41
556.00	19211.12
556.16	19548.15
556.33	19597.31
556.50	19648.80
556.66	19417.08
556.83	19166.65
556.99	19487.30
557.16	19920.30
557.32	19468.58
557.49	19587.94
557.65	19953.07
557.82	19515.39
557.98	19442.83
558.15	19477.94
558.32	19772.85
558.48	19515.39
558.65	19763.48
558.81	19740.08
558.98	19775.19
559.14	19620.71
559.31	19719.01
559.47	19812.63
559.64	19742.42
559.80	19613.69
559.97	19730.72
560.13	19756.46
560.30	19711.99
560.46	19683.91
560.63	19587.94
560.79	20023.28
560.96	19953.07
561.12	19721.35
561.29	19775.19
561.45	19880.51
561.61	20123.93
561.78	19782.21
561.94	19901.58
562.11	19782.21
562.27	19700.29
562.44	19953.07
562.60	19894.55
562.77	19894.55
562.93	19927.32
563.10	19969.45
563.26	19742.42
563.42	19651.14
563.59	19927.32
563.75	20215.21
563.92	19903.92
564.08	20009.24
564.24	20027.96
564.41	19932.00
564.57	19690.93
564.74	19887.53
564.90	20079.46
565.07	19974.13
565.23	20016.26
565.39	19805.61
565.56	20056.05
565.72	20283.08
565.88	20128.61
566.05	20006.90
566.21	19789.23
566.38	19793.91
566.54	20030.30
566.70	19969.45
566.87	20128.61
567.03	20168.40
567.19	20233.93
567.36	20299.47
567.52	19601.99
567.68	19756.46
567.85	19695.61
568.01	19861.79
568.17	19908.60
568.34	19899.23
568.50	20292.44
568.66	20294.79
568.83	20130.95
568.99	20002.22
569.15	20114.56
569.32	19967.11
569.48	19822.00
569.64	20051.37
569.81	20109.88
569.97	20210.53
570.13	20144.99
570.30	19960.09
570.46	19899.23
570.62	20123.93
570.78	20013.92
570.95	20072.43
571.11	20130.95
571.27	19899.23
571.43	19953.07
571.60	20034.99
571.76	20077.12
571.92	20144.99
572.09	20442.24
572.25	20063.07
572.41	20112.22
572.57	20238.61
572.74	20257.34
572.90	20133.29
573.06	19983.49
573.22	20166.06
573.38	20180.10
573.55	20180.10
573.71	20042.01
573.87	20247.97
574.03	20175.42
574.20	20034.99
574.36	20107.54
574.52	20266.70
574.68	19997.54
574.84	20191.80
575.01	19845.40
575.17	20238.61
575.33	20060.73
575.49	20187.12
575.65	20128.61
575.82	20149.67
575.98	19929.66
576.14	20264.36
576.30	20222.23
576.46	20545.22
576.62	20311.17
576.79	20479.69
576.95	20271.38
577.11	20189.46
577.27	20407.13
577.43	20379.04
577.59	20238.61
577.75	20320.53
577.92	20266.70
578.08	20423.51
578.24	20271.38
578.40	20177.76
578.56	20563.95
578.72	20542.88
578.88	20678.63
579.04	20362.66
579.21	20107.54
579.37	20290.10
579.53	20409.47
579.69	20091.16
579.85	20191.80
580.01	20365.00
580.17	20346.28
580.33	20313.51
580.49	20313.51
580.65	20278.40
580.82	20215.21
580.98	20596.71
581.14	20245.63
581.30	20594.37
581.46	20088.82
581.62	20088.82
581.78	20350.96
581.94	20311.17
582.10	19887.53
582.26	20409.47
582.42	20088.82
582.58	20191.80
582.74	20276.06
582.90	20205.84
583.06	20421.17
583.22	20582.67
583.38	20304.15
583.54	20126.27
583.70	20070.09
583.86	20388.41
584.02	20262.02
584.18	20381.38
584.34	20264.36
584.50	20182.44
584.66	20016.26
584.82	20311.17
584.98	20423.51
585.14	20105.20
585.30	20077.12
585.46	20577.99
585.62	20189.46
585.78	20308.83
585.94	20346.28
586.10	20161.37
586.26	20292.44
586.42	20524.16
586.58	20079.46
586.74	20365.00
586.90	20236.27
587.06	20114.56
587.22	20273.72
587.38	20315.85
587.54	20313.51
587.70	20599.05
587.86	20496.07
588.02	20374.36
588.18	20449.26
588.34	20589.69
588.49	20514.80
588.65	20559.27
588.81	20098.18
588.97	20458.62
589.13	20128.61
589.29	20381.38
589.45	20458.62
589.61	20570.97
589.77	20341.60
589.93	20266.70
590.08	20308.83
590.24	20065.41
590.40	20697.36
590.56	20372.02
590.72	20294.79
590.88	20428.20
591.04	20306.49
591.20	20505.43
591.35	20322.87
