SpectraSuite Data File
++++++++++++++++++++++++++++++++++++
Date: Thu Oct 24 13:21:02 EDT 2013
User: stostad
Dark Spectrum Present: No
Reference Spectrum Present: No
Number of Sampled Component Spectra: 1
Spectrometers: USB2+H05261
Integration Time (usec): 100000 (USB2+H05261)
Spectra Averaged: 1 (USB2+H05261)
Boxcar Smoothing: 0 (USB2+H05261)
Correct for Electrical Dark: No (USB2+H05261)
Strobe/Lamp Enabled: No (USB2+H05261)
Correct for Detector Non-linearity: No (USB2+H05261)
Correct for Stray Light: No (USB2+H05261)
Number of Pixels in Processed Spectrum: 2048
>>>>>Begin Processed Spectral Data<<<<<
365.73	622.58
365.92	622.58
366.12	622.58
366.32	524.28
366.52	437.68
366.72	463.43
366.91	484.49
367.11	514.92
367.31	458.74
367.51	442.36
367.70	428.32
367.90	477.47
368.10	416.62
368.30	470.45
368.49	451.72
368.69	498.53
368.89	498.53
369.09	475.13
369.28	493.85
369.48	433.00
369.68	512.58
369.87	540.66
370.07	468.11
370.27	566.41
370.47	524.28
370.66	491.51
370.86	500.87
371.06	547.69
371.25	685.78
371.45	589.82
371.65	648.33
371.84	624.92
372.04	540.66
372.24	622.58
372.44	594.50
372.63	582.79
372.83	667.05
373.03	620.24
373.22	617.90
373.42	564.07
373.62	667.05
373.81	622.58
374.01	568.75
374.21	636.63
374.40	683.44
374.60	653.01
374.79	683.44
374.99	669.39
375.19	627.26
375.38	573.43
375.58	580.45
375.78	669.39
375.97	561.73
376.17	610.88
376.37	622.58
376.56	631.94
376.76	624.92
376.95	641.31
377.15	589.82
377.35	667.05
377.54	608.54
377.74	596.84
377.93	543.00
378.13	660.03
378.33	624.92
378.52	617.90
378.72	578.11
378.91	601.52
379.11	624.92
379.31	610.88
379.50	613.22
379.70	578.11
379.89	683.44
380.09	617.90
380.28	596.84
380.48	678.76
380.68	655.35
380.87	580.45
381.07	596.84
381.26	655.35
381.46	664.71
381.65	627.26
381.85	629.60
382.04	648.33
382.24	617.90
382.43	688.12
382.63	615.56
382.83	580.45
383.02	573.43
383.22	631.94
383.41	606.20
383.61	608.54
383.80	688.12
384.00	587.47
384.19	636.63
384.39	653.01
384.58	592.16
384.78	638.97
384.97	631.94
385.17	636.63
385.36	596.84
385.56	655.35
385.75	599.18
385.95	641.31
386.14	629.60
386.34	624.92
386.53	615.56
386.72	603.86
386.92	641.31
387.11	624.92
387.31	664.71
387.50	629.60
387.70	643.65
387.89	634.29
388.09	634.29
388.28	671.73
388.48	629.60
388.67	699.82
388.86	608.54
389.06	620.24
389.25	592.16
389.45	596.84
389.64	594.50
389.84	582.79
390.03	664.71
390.22	643.65
390.42	615.56
390.61	554.71
390.81	587.47
391.00	631.94
391.19	653.01
391.39	631.94
391.58	631.94
391.78	599.18
391.97	638.97
392.16	641.31
392.36	627.26
392.55	655.35
392.75	596.84
392.94	634.29
393.13	688.12
393.33	645.99
393.52	678.76
393.71	571.09
393.91	566.41
394.10	610.88
394.29	606.20
394.49	624.92
394.68	599.18
394.88	620.24
395.07	566.41
395.26	664.71
395.46	706.84
395.65	608.54
395.84	620.24
396.04	653.01
396.23	594.50
396.42	615.56
396.62	671.73
396.81	655.35
397.00	650.67
397.19	643.65
397.39	528.96
397.58	582.79
397.77	566.41
397.97	638.97
398.16	594.50
398.35	622.58
398.55	620.24
398.74	631.94
398.93	568.75
399.12	685.78
399.32	613.22
399.51	638.97
399.70	620.24
399.90	669.39
400.09	690.46
400.28	624.92
400.47	660.03
400.67	627.26
400.86	622.58
401.05	638.97
401.24	571.09
401.44	594.50
401.63	641.31
401.82	671.73
402.01	603.86
402.21	690.46
402.40	601.52
402.59	638.97
402.78	657.69
402.97	603.86
403.17	657.69
403.36	653.01
403.55	669.39
403.74	641.31
403.93	678.76
404.13	660.03
404.32	664.71
404.51	613.22
404.70	690.46
404.89	627.26
405.09	667.05
405.28	634.29
405.47	645.99
405.66	653.01
405.85	660.03
406.05	615.56
406.24	634.29
406.43	540.66
406.62	678.76
406.81	636.63
407.00	617.90
407.20	589.82
407.39	655.35
407.58	716.20
407.77	664.71
407.96	744.29
408.15	697.48
408.34	615.56
408.54	613.22
408.73	655.35
408.92	638.97
409.11	610.88
409.30	657.69
409.49	678.76
409.68	636.63
409.87	636.63
410.07	608.54
410.26	641.31
410.45	596.84
410.64	589.82
410.83	603.86
411.02	624.92
411.21	653.01
411.40	674.07
411.59	608.54
411.78	603.86
411.98	655.35
412.17	638.97
412.36	674.07
412.55	631.94
412.74	648.33
412.93	641.31
413.12	643.65
413.31	617.90
413.50	617.90
413.69	627.26
413.88	657.69
414.07	613.22
414.26	655.35
414.45	662.37
414.64	667.05
414.83	622.58
415.02	617.90
415.22	603.86
415.41	629.60
415.60	641.31
415.79	636.63
415.98	681.10
416.17	650.67
416.36	596.84
416.55	617.90
416.74	631.94
416.93	660.03
417.12	580.45
417.31	599.18
417.50	610.88
417.69	664.71
417.88	660.03
418.07	561.73
418.26	737.27
418.45	601.52
418.64	638.97
418.83	573.43
419.02	634.29
419.21	603.86
419.39	655.35
419.58	645.99
419.77	599.18
419.96	638.97
420.15	688.12
420.34	664.71
420.53	615.56
420.72	629.60
420.91	587.47
421.10	645.99
421.29	622.58
421.48	681.10
421.67	636.63
421.86	645.99
422.05	573.43
422.24	622.58
422.43	606.20
422.61	650.67
422.80	638.97
422.99	645.99
423.18	638.97
423.37	674.07
423.56	645.99
423.75	667.05
423.94	608.54
424.13	514.92
424.32	592.16
424.50	662.37
424.69	671.73
424.88	660.03
425.07	596.84
425.26	664.71
425.45	580.45
425.64	599.18
425.83	596.84
426.01	620.24
426.20	622.58
426.39	603.86
426.58	660.03
426.77	608.54
426.96	606.20
427.15	690.46
427.33	627.26
427.52	615.56
427.71	713.86
427.90	641.31
428.09	613.22
428.28	606.20
428.46	645.99
428.65	664.71
428.84	653.01
429.03	657.69
429.22	613.22
429.40	575.77
429.59	669.39
429.78	596.84
429.97	664.71
430.16	653.01
430.34	606.20
430.53	610.88
430.72	645.99
430.91	631.94
431.10	643.65
431.28	615.56
431.47	678.76
431.66	606.20
431.85	685.78
432.03	678.76
432.22	723.23
432.41	615.56
432.60	695.14
432.79	568.75
432.97	653.01
433.16	657.69
433.35	711.52
433.54	669.39
433.72	638.97
433.91	704.50
434.10	676.41
434.28	645.99
434.47	587.47
434.66	662.37
434.85	690.46
435.03	819.19
435.22	1088.35
435.41	1128.14
435.59	1128.14
435.78	947.92
435.97	840.25
436.16	730.25
436.34	709.18
436.53	650.67
436.72	650.67
436.90	660.03
437.09	629.60
437.28	603.86
437.46	627.26
437.65	636.63
437.84	650.67
438.02	755.99
438.21	697.48
438.40	660.03
438.58	702.16
438.77	643.65
438.96	678.76
439.14	655.35
439.33	674.07
439.52	624.92
439.70	660.03
439.89	629.60
440.08	566.41
440.26	636.63
440.45	629.60
440.63	610.88
440.82	575.77
441.01	622.58
441.19	627.26
441.38	641.31
441.57	580.45
441.75	613.22
441.94	636.63
442.12	653.01
442.31	645.99
442.50	667.05
442.68	599.18
442.87	650.67
443.05	678.76
443.24	606.20
443.43	678.76
443.61	655.35
443.80	681.10
443.98	627.26
444.17	653.01
444.35	645.99
444.54	655.35
444.73	624.92
444.91	655.35
445.10	615.56
445.28	615.56
445.47	641.31
445.65	606.20
445.84	683.44
446.02	601.52
446.21	669.39
446.39	624.92
446.58	645.99
446.77	730.25
446.95	622.58
447.14	681.10
447.32	755.99
447.51	543.00
447.69	650.67
447.88	690.46
448.06	617.90
448.25	599.18
448.43	634.29
448.62	755.99
448.80	608.54
448.99	599.18
449.17	564.07
449.36	716.20
449.54	645.99
449.73	631.94
449.91	638.97
450.10	650.67
450.28	653.01
450.46	615.56
450.65	662.37
450.83	685.78
451.02	603.86
451.20	624.92
451.39	662.37
451.57	624.92
451.76	643.65
451.94	627.26
452.13	566.41
452.31	681.10
452.49	650.67
452.68	617.90
452.86	620.24
453.05	711.52
453.23	671.73
453.42	571.09
453.60	631.94
453.78	624.92
453.97	690.46
454.15	695.14
454.34	617.90
454.52	657.69
454.70	657.69
454.89	653.01
455.07	629.60
455.26	631.94
455.44	638.97
455.62	634.29
455.81	606.20
455.99	638.97
456.17	699.82
456.36	690.46
456.54	685.78
456.73	657.69
456.91	613.22
457.09	610.88
457.28	709.18
457.46	641.31
457.64	601.52
457.83	678.76
458.01	678.76
458.19	655.35
458.38	657.69
458.56	655.35
458.74	641.31
458.93	638.97
459.11	702.16
459.29	610.88
459.48	638.97
459.66	645.99
459.84	631.94
460.03	685.78
460.21	638.97
460.39	629.60
460.57	627.26
460.76	643.65
460.94	699.82
461.12	657.69
461.31	676.41
461.49	599.18
461.67	669.39
461.85	662.37
462.04	662.37
462.22	1048.56
462.40	620.24
462.59	606.20
462.77	587.47
462.95	636.63
463.13	662.37
463.32	643.65
463.50	655.35
463.68	629.60
463.86	580.45
464.05	643.65
464.23	601.52
464.41	631.94
464.59	685.78
464.78	725.57
464.96	634.29
465.14	655.35
465.32	690.46
465.50	608.54
465.69	720.88
465.87	596.84
466.05	671.73
466.23	655.35
466.41	636.63
466.60	587.47
466.78	636.63
466.96	585.13
467.14	695.14
467.32	711.52
467.51	671.73
467.69	683.44
467.87	615.56
468.05	533.64
468.23	660.03
468.41	690.46
468.60	610.88
468.78	620.24
468.96	664.71
469.14	690.46
469.32	580.45
469.50	622.58
469.69	657.69
469.87	657.69
470.05	702.16
470.23	620.24
470.41	648.33
470.59	620.24
470.77	653.01
470.95	636.63
471.14	664.71
471.32	631.94
471.50	690.46
471.68	713.86
471.86	653.01
472.04	622.58
472.22	716.20
472.40	667.05
472.58	674.07
472.77	617.90
472.95	538.32
473.13	575.77
473.31	669.39
473.49	678.76
473.67	585.13
473.85	653.01
474.03	650.67
474.21	594.50
474.39	669.39
474.57	699.82
474.75	606.20
474.93	610.88
475.12	582.79
475.30	653.01
475.48	631.94
475.66	596.84
475.84	617.90
476.02	688.12
476.20	648.33
476.38	608.54
476.56	704.50
476.74	648.33
476.92	603.86
477.10	662.37
477.28	641.31
477.46	657.69
477.64	678.76
477.82	681.10
478.00	667.05
478.18	573.43
478.36	627.26
478.54	585.13
478.72	580.45
478.90	643.65
479.08	599.18
479.26	645.99
479.44	664.71
479.62	638.97
479.80	676.41
479.98	636.63
480.16	664.71
480.34	653.01
480.52	638.97
480.70	638.97
480.88	624.92
481.06	629.60
481.24	650.67
481.41	638.97
481.59	671.73
481.77	561.73
481.95	683.44
482.13	613.22
482.31	697.48
482.49	622.58
482.67	617.90
482.85	685.78
483.03	674.07
483.21	631.94
483.39	737.27
483.57	702.16
483.74	744.29
483.92	685.78
484.10	739.61
484.28	767.70
484.46	770.04
484.64	641.31
484.82	617.90
485.00	678.76
485.18	662.37
485.35	718.54
485.53	734.93
485.71	725.57
485.89	643.65
486.07	692.80
486.25	706.84
486.43	671.73
486.61	713.86
486.78	704.50
486.96	650.67
487.14	711.52
487.32	744.29
487.50	713.86
487.68	758.33
487.85	744.29
488.03	695.14
488.21	720.88
488.39	655.35
488.57	737.27
488.75	718.54
488.92	786.42
489.10	690.46
489.28	732.59
489.46	723.23
489.64	631.94
489.81	730.25
489.99	758.33
490.17	702.16
490.35	753.65
490.53	655.35
490.70	692.80
490.88	709.18
491.06	662.37
491.24	601.52
491.41	732.59
491.59	734.93
491.77	692.80
491.95	676.41
492.13	711.52
492.30	667.05
492.48	662.37
492.66	746.63
492.84	699.82
493.01	671.73
493.19	636.63
493.37	737.27
493.54	606.20
493.72	716.20
493.90	699.82
494.08	671.73
494.25	704.50
494.43	648.33
494.61	620.24
494.79	629.60
494.96	662.37
495.14	671.73
495.32	681.10
495.49	601.52
495.67	671.73
495.85	613.22
496.02	704.50
496.20	685.78
496.38	629.60
496.55	676.41
496.73	716.20
496.91	667.05
497.09	660.03
497.26	674.07
497.44	674.07
497.62	711.52
497.79	697.48
497.97	702.16
498.14	688.12
498.32	739.61
498.50	695.14
498.67	660.03
498.85	671.73
499.03	662.37
499.20	650.67
499.38	643.65
499.56	660.03
499.73	681.10
499.91	667.05
500.08	650.67
500.26	624.92
500.44	671.73
500.61	704.50
500.79	711.52
500.97	667.05
501.14	683.44
501.32	650.67
501.49	648.33
501.67	664.71
501.84	709.18
502.02	636.63
502.20	653.01
502.37	690.46
502.55	653.01
502.72	599.18
502.90	650.67
503.07	660.03
503.25	751.31
503.43	664.71
503.60	585.13
503.78	650.67
503.95	704.50
504.13	678.76
504.30	718.54
504.48	730.25
504.65	678.76
504.83	655.35
505.01	599.18
505.18	571.09
505.36	683.44
505.53	610.88
505.71	620.24
505.88	727.91
506.06	648.33
506.23	671.73
506.41	653.01
506.58	695.14
506.76	690.46
506.93	695.14
507.11	695.14
507.28	608.54
507.46	631.94
507.63	643.65
507.81	636.63
507.98	657.69
508.16	587.47
508.33	671.73
508.50	669.39
508.68	681.10
508.85	601.52
509.03	702.16
509.20	655.35
509.38	685.78
509.55	755.99
509.73	655.35
509.90	669.39
510.08	725.57
510.25	720.88
510.42	599.18
510.60	650.67
510.77	664.71
510.95	589.82
511.12	676.41
511.30	662.37
511.47	615.56
511.64	660.03
511.82	634.29
511.99	615.56
512.17	645.99
512.34	627.26
512.51	622.58
512.69	571.09
512.86	631.94
513.04	634.29
513.21	631.94
513.38	594.50
513.56	671.73
513.73	615.56
513.90	716.20
514.08	624.92
514.25	660.03
514.43	650.67
514.60	660.03
514.77	615.56
514.95	655.35
515.12	594.50
515.29	587.47
515.47	669.39
515.64	683.44
515.81	697.48
515.99	561.73
516.16	631.94
516.33	716.20
516.51	557.05
516.68	662.37
516.85	629.60
517.03	683.44
517.20	669.39
517.37	674.07
517.54	667.05
517.72	734.93
517.89	678.76
518.06	592.16
518.24	653.01
518.41	723.23
518.58	645.99
518.75	657.69
518.93	603.86
519.10	641.31
519.27	688.12
519.45	592.16
519.62	613.22
519.79	638.97
519.96	561.73
520.14	678.76
520.31	608.54
520.48	643.65
520.65	608.54
520.83	674.07
521.00	706.84
521.17	669.39
521.34	671.73
521.52	667.05
521.69	627.26
521.86	643.65
522.03	629.60
522.20	610.88
522.38	596.84
522.55	631.94
522.72	645.99
522.89	610.88
523.07	671.73
523.24	587.47
523.41	662.37
523.58	674.07
523.75	648.33
523.92	671.73
524.10	631.94
524.27	631.94
524.44	655.35
524.61	629.60
524.78	674.07
524.96	685.78
525.13	664.71
525.30	716.20
525.47	648.33
525.64	692.80
525.81	734.93
525.98	610.88
526.16	655.35
526.33	610.88
526.50	669.39
526.67	660.03
526.84	711.52
527.01	653.01
527.18	664.71
527.36	645.99
527.53	645.99
527.70	699.82
527.87	702.16
528.04	645.99
528.21	641.31
528.38	655.35
528.55	627.26
528.72	655.35
528.89	730.25
529.07	655.35
529.24	624.92
529.41	613.22
529.58	704.50
529.75	678.76
529.92	685.78
530.09	622.58
530.26	683.44
530.43	627.26
530.60	610.88
530.77	622.58
530.94	718.54
531.11	573.43
531.28	627.26
531.46	636.63
531.63	650.67
531.80	681.10
531.97	631.94
532.14	638.97
532.31	667.05
532.48	730.25
532.65	655.35
532.82	664.71
532.99	643.65
533.16	671.73
533.33	706.84
533.50	697.48
533.67	674.07
533.84	660.03
534.01	674.07
534.18	676.41
534.35	676.41
534.52	692.80
534.69	699.82
534.86	561.73
535.03	653.01
535.20	629.60
535.37	695.14
535.54	716.20
535.71	643.65
535.88	606.20
536.05	685.78
536.22	678.76
536.38	685.78
536.55	681.10
536.72	699.82
536.89	617.90
537.06	667.05
537.23	763.01
537.40	718.54
537.57	664.71
537.74	784.08
537.91	737.27
538.08	734.93
538.25	798.12
538.42	713.86
538.59	767.70
538.75	758.33
538.92	772.38
539.09	816.85
539.26	844.93
539.43	851.96
539.60	863.66
539.77	877.70
539.94	821.53
540.11	870.68
540.28	994.73
540.44	961.96
540.61	1006.43
540.78	957.28
540.95	1036.86
541.12	1177.29
541.29	1177.29
541.46	1303.68
541.62	1240.48
541.79	1306.02
541.96	1277.93
542.13	1240.48
542.30	1196.01
542.47	1203.04
542.63	1233.46
542.80	1188.99
542.97	1240.48
543.14	1205.38
543.31	1203.04
543.48	1198.35
543.64	1235.80
543.81	1191.33
543.98	1221.76
544.15	1210.06
544.32	1088.35
544.48	1198.35
544.65	1146.86
544.82	1165.59
544.99	1149.20
545.16	1200.69
545.32	1181.97
545.49	1589.22
545.66	1961.37
545.83	2155.63
546.00	1893.49
546.16	1668.80
546.33	1371.55
546.50	1296.66
546.67	1254.53
546.83	1076.65
547.00	1034.52
547.17	912.81
547.34	940.90
547.50	936.21
547.67	891.74
547.84	882.38
548.00	877.70
548.17	905.79
548.34	919.83
548.51	943.24
548.67	924.51
548.84	905.79
549.01	833.23
549.18	814.51
549.34	877.70
549.51	880.04
549.68	903.45
549.84	805.14
550.01	798.12
550.18	861.32
550.34	851.96
550.51	896.43
550.68	889.40
550.84	781.74
551.01	741.95
551.18	805.14
551.34	819.19
551.51	795.78
551.68	784.08
551.84	856.64
552.01	786.42
552.18	828.55
552.34	802.80
552.51	770.04
552.68	730.25
552.84	727.91
553.01	748.97
553.18	727.91
553.34	760.67
553.51	746.63
553.67	800.46
553.84	819.19
554.01	781.74
554.17	702.16
554.34	732.59
554.51	650.67
554.67	730.25
554.84	716.20
555.00	702.16
555.17	688.12
555.33	641.31
555.50	664.71
555.67	702.16
555.83	631.94
556.00	594.50
556.16	739.61
556.33	730.25
556.50	723.23
556.66	720.88
556.83	702.16
556.99	655.35
557.16	690.46
557.32	667.05
557.49	653.01
557.65	678.76
557.82	641.31
557.98	671.73
558.15	638.97
558.32	683.44
558.48	702.16
558.65	692.80
558.81	709.18
558.98	624.92
559.14	676.41
559.31	655.35
559.47	699.82
559.64	695.14
559.80	725.57
559.97	657.69
560.13	688.12
560.30	554.71
560.46	697.48
560.63	620.24
560.79	631.94
560.96	664.71
561.12	620.24
561.29	739.61
561.45	580.45
561.61	645.99
561.78	767.70
561.94	683.44
562.11	638.97
562.27	678.76
562.44	603.86
562.60	655.35
562.77	692.80
562.93	678.76
563.10	723.23
563.26	664.71
563.42	638.97
563.59	688.12
563.75	664.71
563.92	685.78
564.08	695.14
564.24	674.07
564.41	695.14
564.57	685.78
564.74	683.44
564.90	629.60
565.07	641.31
565.23	678.76
565.39	655.35
565.56	634.29
565.72	636.63
565.88	594.50
566.05	716.20
566.21	699.82
566.38	643.65
566.54	599.18
566.70	606.20
566.87	648.33
567.03	655.35
567.19	697.48
567.36	716.20
567.52	601.52
567.68	697.48
567.85	678.76
568.01	638.97
568.17	662.37
568.34	674.07
568.50	662.37
568.66	613.22
568.83	683.44
568.99	641.31
569.15	692.80
569.32	723.23
569.48	695.14
569.64	657.69
569.81	704.50
569.97	660.03
570.13	727.91
570.30	608.54
570.46	744.29
570.62	674.07
570.78	725.57
570.95	589.82
571.11	676.41
571.27	697.48
571.43	627.26
571.60	723.23
571.76	660.03
571.92	610.88
572.09	594.50
572.25	674.07
572.41	631.94
572.57	683.44
572.74	690.46
572.90	688.12
573.06	634.29
573.22	617.90
573.38	638.97
573.55	627.26
573.71	671.73
573.87	697.48
574.03	681.10
574.20	730.25
574.36	662.37
574.52	582.79
574.68	624.92
574.84	660.03
575.01	711.52
575.17	641.31
575.33	674.07
575.49	678.76
575.65	720.88
575.82	690.46
575.98	676.41
576.14	606.20
576.30	711.52
576.46	835.57
576.62	964.30
576.79	917.49
576.95	833.23
577.11	877.70
577.27	753.65
577.43	765.36
577.59	777.06
577.75	706.84
577.92	676.41
578.08	648.33
578.24	664.71
578.40	723.23
578.56	753.65
578.72	880.04
578.88	877.70
579.04	870.68
579.21	821.53
579.37	870.68
579.53	763.01
579.69	812.17
579.85	772.38
580.01	770.04
580.17	730.25
580.33	765.36
580.49	737.27
580.65	798.12
580.82	805.14
580.98	744.29
581.14	737.27
581.30	711.52
581.46	718.54
581.62	760.67
581.78	748.97
581.94	669.39
582.10	739.61
582.26	777.06
582.42	772.38
582.58	786.42
582.74	713.86
582.90	758.33
583.06	873.02
583.22	746.63
583.38	847.27
583.54	786.42
583.70	767.70
583.86	720.88
584.02	777.06
584.18	748.97
584.34	706.84
584.50	755.99
584.66	746.63
584.82	732.59
584.98	758.33
585.14	777.06
585.30	786.42
585.46	772.38
585.62	737.27
585.78	772.38
585.94	723.23
586.10	744.29
586.26	718.54
586.42	781.74
586.58	814.51
586.74	746.63
586.90	837.91
587.06	847.27
587.22	880.04
587.38	910.47
587.54	819.19
587.70	833.23
587.86	877.70
588.02	809.83
588.18	800.46
588.34	737.27
588.49	713.86
588.65	711.52
588.81	774.72
588.97	697.48
589.13	786.42
589.29	774.72
589.45	723.23
589.61	758.33
589.77	702.16
589.93	723.23
590.08	711.52
590.24	748.97
590.40	702.16
590.56	753.65
590.72	760.67
590.88	697.48
591.04	660.03
591.20	748.97
591.35	755.99
591.51	809.83
591.67	779.40
591.83	692.80
591.99	758.33
592.15	833.23
592.31	758.33
592.46	777.06
592.62	814.51
592.78	772.38
592.94	791.10
593.10	823.87
593.26	826.21
593.41	809.83
593.57	772.38
593.73	711.52
593.89	751.31
594.05	732.59
594.20	732.59
594.36	784.08
594.52	702.16
594.68	753.65
594.84	739.61
594.99	716.20
595.15	732.59
595.31	779.40
595.47	725.57
595.62	615.56
595.78	777.06
595.94	702.16
596.10	753.65
596.25	741.95
596.41	716.20
596.57	718.54
596.73	683.44
596.88	744.29
597.04	727.91
597.20	667.05
597.36	645.99
597.51	697.48
597.67	697.48
597.83	674.07
597.99	664.71
598.14	741.95
598.30	739.61
598.46	734.93
598.61	716.20
598.77	716.20
598.93	823.87
599.09	727.91
599.24	709.18
599.40	695.14
599.56	770.04
599.71	683.44
599.87	798.12
600.03	669.39
600.18	732.59
600.34	739.61
600.50	699.82
600.65	683.44
600.81	755.99
600.97	676.41
601.12	753.65
601.28	751.31
601.44	702.16
601.59	695.14
601.75	702.16
601.91	734.93
602.06	664.71
602.22	748.97
602.37	690.46
602.53	692.80
602.69	667.05
602.84	706.84
603.00	580.45
603.16	655.35
603.31	753.65
603.47	709.18
603.62	690.46
603.78	655.35
603.94	706.84
604.09	613.22
604.25	706.84
604.40	706.84
604.56	643.65
604.71	702.16
604.87	688.12
605.03	678.76
605.18	713.86
605.34	685.78
605.49	692.80
605.65	648.33
605.80	645.99
605.96	730.25
606.12	702.16
606.27	669.39
606.43	727.91
606.58	655.35
606.74	765.36
606.89	674.07
607.05	664.71
607.20	688.12
607.36	723.23
607.51	692.80
607.67	734.93
607.82	704.50
607.98	774.72
608.13	784.08
608.29	718.54
608.44	748.97
608.60	765.36
608.75	760.67
608.91	851.96
609.06	823.87
609.22	894.08
609.37	835.57
609.53	842.59
609.68	880.04
609.84	936.21
