SpectraSuite Data File
++++++++++++++++++++++++++++++++++++
Date: Thu Oct 24 13:20:59 EDT 2013
User: stostad
Dark Spectrum Present: No
Reference Spectrum Present: No
Number of Sampled Component Spectra: 1
Spectrometers: USB2+H05261
Integration Time (usec): 100000 (USB2+H05261)
Spectra Averaged: 1 (USB2+H05261)
Boxcar Smoothing: 0 (USB2+H05261)
Correct for Electrical Dark: No (USB2+H05261)
Strobe/Lamp Enabled: No (USB2+H05261)
Correct for Detector Non-linearity: No (USB2+H05261)
Correct for Stray Light: No (USB2+H05261)
Number of Pixels in Processed Spectrum: 2048
>>>>>Begin Processed Spectral Data<<<<<
365.73	587.47
365.92	587.47
366.12	587.47
366.32	479.81
366.52	507.90
366.72	468.11
366.91	440.02
367.11	435.34
367.31	440.02
367.51	458.74
367.70	484.49
367.90	437.68
368.10	470.45
368.30	430.66
368.49	442.36
368.69	435.34
368.89	454.06
369.09	437.68
369.28	479.81
369.48	407.25
369.68	559.39
369.87	540.66
370.07	582.79
370.27	533.64
370.47	629.60
370.66	514.92
370.86	585.13
371.06	629.60
371.25	601.52
371.45	578.11
371.65	624.92
371.84	638.97
372.04	566.41
372.24	613.22
372.44	613.22
372.63	653.01
372.83	585.13
373.03	601.52
373.22	578.11
373.42	660.03
373.62	653.01
373.81	711.52
374.01	610.88
374.21	557.05
374.40	641.31
374.60	671.73
374.79	617.90
374.99	704.50
375.19	653.01
375.38	681.10
375.58	620.24
375.78	641.31
375.97	613.22
376.17	692.80
376.37	662.37
376.56	681.10
376.76	575.77
376.95	587.47
377.15	545.34
377.35	613.22
377.54	660.03
377.74	585.13
377.93	568.75
378.13	603.86
378.33	671.73
378.52	667.05
378.72	683.44
378.91	653.01
379.11	638.97
379.31	564.07
379.50	631.94
379.70	596.84
379.89	624.92
380.09	627.26
380.28	685.78
380.48	650.67
380.68	571.09
380.87	634.29
381.07	599.18
381.26	641.31
381.46	624.92
381.65	641.31
381.85	631.94
382.04	648.33
382.24	669.39
382.43	573.43
382.63	617.90
382.83	608.54
383.02	653.01
383.22	641.31
383.41	585.13
383.61	662.37
383.80	610.88
384.00	622.58
384.19	557.05
384.39	634.29
384.58	657.69
384.78	610.88
384.97	594.50
385.17	624.92
385.36	645.99
385.56	671.73
385.75	580.45
385.95	566.41
386.14	578.11
386.34	676.41
386.53	585.13
386.72	573.43
386.92	667.05
387.11	678.76
387.31	564.07
387.50	660.03
387.70	594.50
387.89	622.58
388.09	603.86
388.28	606.20
388.48	601.52
388.67	603.86
388.86	580.45
389.06	620.24
389.25	608.54
389.45	627.26
389.64	613.22
389.84	653.01
390.03	568.75
390.22	568.75
390.42	575.77
390.61	550.03
390.81	627.26
391.00	512.58
391.19	631.94
391.39	631.94
391.58	629.60
391.78	617.90
391.97	575.77
392.16	557.05
392.36	585.13
392.55	655.35
392.75	587.47
392.94	603.86
393.13	660.03
393.33	620.24
393.52	676.41
393.71	580.45
393.91	641.31
394.10	655.35
394.29	613.22
394.49	636.63
394.68	662.37
394.88	655.35
395.07	592.16
395.26	669.39
395.46	669.39
395.65	566.41
395.84	575.77
396.04	709.18
396.23	627.26
396.42	617.90
396.62	695.14
396.81	648.33
397.00	636.63
397.19	610.88
397.39	599.18
397.58	631.94
397.77	620.24
397.97	620.24
398.16	627.26
398.35	571.09
398.55	704.50
398.74	627.26
398.93	599.18
399.12	662.37
399.32	655.35
399.51	683.44
399.70	645.99
399.90	638.97
400.09	662.37
400.28	667.05
400.47	664.71
400.67	617.90
400.86	561.73
401.05	592.16
401.24	634.29
401.44	657.69
401.63	587.47
401.82	669.39
402.01	613.22
402.21	636.63
402.40	606.20
402.59	594.50
402.78	624.92
402.97	645.99
403.17	667.05
403.36	575.77
403.55	660.03
403.74	655.35
403.93	662.37
404.13	704.50
404.32	748.97
404.51	744.29
404.70	739.61
404.89	638.97
405.09	617.90
405.28	596.84
405.47	606.20
405.66	641.31
405.85	643.65
406.05	615.56
406.24	606.20
406.43	739.61
406.62	636.63
406.81	568.75
407.00	716.20
407.20	653.01
407.39	521.94
407.58	585.13
407.77	580.45
407.96	676.41
408.15	610.88
408.34	610.88
408.54	657.69
408.73	674.07
408.92	571.09
409.11	631.94
409.30	699.82
409.49	692.80
409.68	667.05
409.87	631.94
410.07	641.31
410.26	629.60
410.45	692.80
410.64	655.35
410.83	603.86
411.02	594.50
411.21	674.07
411.40	638.97
411.59	594.50
411.78	641.31
411.98	615.56
412.17	627.26
412.36	545.34
412.55	561.73
412.74	606.20
412.93	655.35
413.12	585.13
413.31	641.31
413.50	564.07
413.69	634.29
413.88	629.60
414.07	655.35
414.26	608.54
414.45	627.26
414.64	690.46
414.83	674.07
415.02	685.78
415.22	617.90
415.41	660.03
415.60	622.58
415.79	634.29
415.98	587.47
416.17	655.35
416.36	620.24
416.55	627.26
416.74	617.90
416.93	674.07
417.12	622.58
417.31	634.29
417.50	606.20
417.69	603.86
417.88	599.18
418.07	655.35
418.26	650.67
418.45	643.65
418.64	683.44
418.83	695.14
419.02	615.56
419.21	617.90
419.39	585.13
419.58	559.39
419.77	564.07
419.96	594.50
420.15	610.88
420.34	636.63
420.53	613.22
420.72	713.86
420.91	550.03
421.10	582.79
421.29	678.76
421.48	629.60
421.67	674.07
421.86	613.22
422.05	653.01
422.24	650.67
422.43	631.94
422.61	678.76
422.80	667.05
422.99	627.26
423.18	629.60
423.37	634.29
423.56	615.56
423.75	660.03
423.94	690.46
424.13	620.24
424.32	608.54
424.50	589.82
424.69	669.39
424.88	662.37
425.07	608.54
425.26	653.01
425.45	603.86
425.64	571.09
425.83	695.14
426.01	617.90
426.20	594.50
426.39	512.58
426.58	669.39
426.77	573.43
426.96	629.60
427.15	631.94
427.33	566.41
427.52	655.35
427.71	676.41
427.90	617.90
428.09	617.90
428.28	603.86
428.46	606.20
428.65	685.78
428.84	608.54
429.03	638.97
429.22	601.52
429.40	606.20
429.59	610.88
429.78	660.03
429.97	620.24
430.16	674.07
430.34	657.69
430.53	660.03
430.72	589.82
430.91	692.80
431.10	634.29
431.28	624.92
431.47	650.67
431.66	667.05
431.85	617.90
432.03	657.69
432.22	671.73
432.41	613.22
432.60	606.20
432.79	613.22
432.97	681.10
433.16	648.33
433.35	669.39
433.54	667.05
433.72	599.18
433.91	629.60
434.10	676.41
434.28	601.52
434.47	629.60
434.66	711.52
434.85	627.26
435.03	777.06
435.22	1114.10
435.41	1069.62
435.59	1020.47
435.78	1006.43
435.97	863.66
436.16	755.99
436.34	660.03
436.53	653.01
436.72	688.12
436.90	613.22
437.09	720.88
437.28	641.31
437.46	653.01
437.65	603.86
437.84	660.03
438.02	648.33
438.21	589.82
438.40	636.63
438.58	655.35
438.77	627.26
438.96	655.35
439.14	638.97
439.33	624.92
439.52	660.03
439.70	641.31
439.89	620.24
440.08	648.33
440.26	669.39
440.45	699.82
440.63	657.69
440.82	643.65
441.01	596.84
441.19	650.67
441.38	634.29
441.57	622.58
441.75	641.31
441.94	603.86
442.12	564.07
442.31	662.37
442.50	650.67
442.68	622.58
442.87	606.20
443.05	648.33
443.24	650.67
443.43	575.77
443.61	657.69
443.80	690.46
443.98	622.58
444.17	664.71
444.35	678.76
444.54	645.99
444.73	643.65
444.91	664.71
445.10	699.82
445.28	653.01
445.47	664.71
445.65	695.14
445.84	622.58
446.02	631.94
446.21	627.26
446.39	655.35
446.58	660.03
446.77	664.71
446.95	655.35
447.14	641.31
447.32	676.41
447.51	734.93
447.69	664.71
447.88	603.86
448.06	685.78
448.25	711.52
448.43	669.39
448.62	587.47
448.80	629.60
448.99	645.99
449.17	631.94
449.36	596.84
449.54	662.37
449.73	648.33
449.91	585.13
450.10	648.33
450.28	669.39
450.46	692.80
450.65	660.03
450.83	732.59
451.02	688.12
451.20	589.82
451.39	573.43
451.57	594.50
451.76	528.96
451.94	671.73
452.13	702.16
452.31	638.97
452.49	585.13
452.68	596.84
452.86	643.65
453.05	638.97
453.23	704.50
453.42	645.99
453.60	641.31
453.78	653.01
453.97	571.09
454.15	596.84
454.34	613.22
454.52	648.33
454.70	657.69
454.89	643.65
455.07	648.33
455.26	601.52
455.44	676.41
455.62	627.26
455.81	589.82
455.99	692.80
456.17	690.46
456.36	648.33
456.54	545.34
456.73	568.75
456.91	645.99
457.09	627.26
457.28	585.13
457.46	648.33
457.64	730.25
457.83	709.18
458.01	638.97
458.19	594.50
458.38	636.63
458.56	676.41
458.74	594.50
458.93	645.99
459.11	601.52
459.29	662.37
459.48	671.73
459.66	716.20
459.84	606.20
460.03	676.41
460.21	592.16
460.39	664.71
460.57	664.71
460.76	727.91
460.94	592.16
461.12	690.46
461.31	589.82
461.49	699.82
461.67	645.99
461.85	648.33
462.04	664.71
462.22	936.21
462.40	699.82
462.59	594.50
462.77	709.18
462.95	681.10
463.13	660.03
463.32	678.76
463.50	667.05
463.68	645.99
463.86	624.92
464.05	631.94
464.23	692.80
464.41	624.92
464.59	669.39
464.78	624.92
464.96	596.84
465.14	681.10
465.32	543.00
465.50	624.92
465.69	704.50
465.87	645.99
466.05	664.71
466.23	662.37
466.41	615.56
466.60	653.01
466.78	653.01
466.96	610.88
467.14	624.92
467.32	641.31
467.51	627.26
467.69	744.29
467.87	676.41
468.05	631.94
468.23	678.76
468.41	645.99
468.60	627.26
468.78	676.41
468.96	758.33
469.14	688.12
469.32	669.39
469.50	643.65
469.69	671.73
469.87	688.12
470.05	650.67
470.23	667.05
470.41	641.31
470.59	624.92
470.77	592.16
470.95	613.22
471.14	627.26
471.32	634.29
471.50	688.12
471.68	587.47
471.86	655.35
472.04	688.12
472.22	650.67
472.40	650.67
472.58	594.50
472.77	664.71
472.95	655.35
473.13	690.46
473.31	713.86
473.49	571.09
473.67	585.13
473.85	695.14
474.03	568.75
474.21	690.46
474.39	711.52
474.57	720.88
474.75	692.80
474.93	664.71
475.12	655.35
475.30	624.92
475.48	638.97
475.66	676.41
475.84	683.44
476.02	660.03
476.20	634.29
476.38	613.22
476.56	608.54
476.74	692.80
476.92	617.90
477.10	566.41
477.28	704.50
477.46	683.44
477.64	645.99
477.82	620.24
478.00	594.50
478.18	617.90
478.36	627.26
478.54	550.03
478.72	615.56
478.90	648.33
479.08	631.94
479.26	667.05
479.44	662.37
479.62	671.73
479.80	631.94
479.98	648.33
480.16	692.80
480.34	643.65
480.52	648.33
480.70	662.37
480.88	669.39
481.06	578.11
481.24	657.69
481.41	657.69
481.59	648.33
481.77	608.54
481.95	617.90
482.13	634.29
482.31	664.71
482.49	592.16
482.67	730.25
482.85	755.99
483.03	690.46
483.21	650.67
483.39	692.80
483.57	599.18
483.74	713.86
483.92	692.80
484.10	664.71
484.28	699.82
484.46	739.61
484.64	617.90
484.82	681.10
485.00	772.38
485.18	688.12
485.35	650.67
485.53	622.58
485.71	709.18
485.89	720.88
486.07	711.52
486.25	732.59
486.43	709.18
486.61	713.86
486.78	737.27
486.96	734.93
487.14	758.33
487.32	807.48
487.50	671.73
487.68	702.16
487.85	706.84
488.03	695.14
488.21	772.38
488.39	688.12
488.57	716.20
488.75	683.44
488.92	770.04
489.10	744.29
489.28	744.29
489.46	777.06
489.64	753.65
489.81	692.80
489.99	718.54
490.17	688.12
490.35	739.61
490.53	765.36
490.70	739.61
490.88	704.50
491.06	711.52
491.24	755.99
491.41	760.67
491.59	734.93
491.77	788.76
491.95	671.73
492.13	676.41
492.30	730.25
492.48	718.54
492.66	702.16
492.84	706.84
493.01	758.33
493.19	688.12
493.37	653.01
493.54	636.63
493.72	706.84
493.90	669.39
494.08	678.76
494.25	667.05
494.43	685.78
494.61	671.73
494.79	725.57
494.96	648.33
495.14	755.99
495.32	690.46
495.49	653.01
495.67	645.99
495.85	622.58
496.02	636.63
496.20	688.12
496.38	711.52
496.55	744.29
496.73	779.40
496.91	674.07
497.09	688.12
497.26	636.63
497.44	676.41
497.62	718.54
497.79	716.20
497.97	662.37
498.14	643.65
498.32	603.86
498.50	655.35
498.67	688.12
498.85	662.37
499.03	636.63
499.20	734.93
499.38	695.14
499.56	631.94
499.73	667.05
499.91	718.54
500.08	697.48
500.26	664.71
500.44	685.78
500.61	592.16
500.79	702.16
500.97	622.58
501.14	653.01
501.32	641.31
501.49	657.69
501.67	606.20
501.84	669.39
502.02	664.71
502.20	634.29
502.37	692.80
502.55	671.73
502.72	594.50
502.90	660.03
503.07	653.01
503.25	718.54
503.43	643.65
503.60	613.22
503.78	664.71
503.95	650.67
504.13	688.12
504.30	638.97
504.48	645.99
504.65	648.33
504.83	678.76
505.01	610.88
505.18	662.37
505.36	641.31
505.53	575.77
505.71	617.90
505.88	657.69
506.06	671.73
506.23	599.18
506.41	608.54
506.58	615.56
506.76	653.01
506.93	664.71
507.11	636.63
507.28	706.84
507.46	650.67
507.63	634.29
507.81	592.16
507.98	615.56
508.16	664.71
508.33	699.82
508.50	638.97
508.68	638.97
508.85	660.03
509.03	629.60
509.20	617.90
509.38	685.78
509.55	610.88
509.73	606.20
509.90	650.67
510.08	660.03
510.25	655.35
510.42	657.69
510.60	655.35
510.77	641.31
510.95	678.76
511.12	624.92
511.30	697.48
511.47	674.07
511.64	683.44
511.82	594.50
511.99	566.41
512.17	702.16
512.34	648.33
512.51	603.86
512.69	688.12
512.86	711.52
513.04	671.73
513.21	629.60
513.38	706.84
513.56	631.94
513.73	622.58
513.90	730.25
514.08	653.01
514.25	662.37
514.43	622.58
514.60	660.03
514.77	610.88
514.95	667.05
515.12	648.33
515.29	608.54
515.47	641.31
515.64	681.10
515.81	678.76
515.99	690.46
516.16	704.50
516.33	631.94
516.51	704.50
516.68	575.77
516.85	645.99
517.03	645.99
517.20	653.01
517.37	627.26
517.54	683.44
517.72	643.65
517.89	657.69
518.06	662.37
518.24	702.16
518.41	624.92
518.58	706.84
518.75	557.05
518.93	634.29
519.10	535.98
519.27	620.24
519.45	617.90
519.62	638.97
519.79	676.41
519.96	573.43
520.14	601.52
520.31	636.63
520.48	610.88
520.65	636.63
520.83	662.37
521.00	697.48
521.17	676.41
521.34	634.29
521.52	631.94
521.69	638.97
521.86	683.44
522.03	634.29
522.20	709.18
522.38	634.29
522.55	662.37
522.72	624.92
522.89	634.29
523.07	629.60
523.24	631.94
523.41	592.16
523.58	704.50
523.75	702.16
523.92	585.13
524.10	667.05
524.27	709.18
524.44	589.82
524.61	669.39
524.78	641.31
524.96	678.76
525.13	713.86
525.30	636.63
525.47	655.35
525.64	706.84
525.81	622.58
525.98	662.37
526.16	697.48
526.33	669.39
526.50	667.05
526.67	662.37
526.84	681.10
527.01	688.12
527.18	613.22
527.36	643.65
527.53	643.65
527.70	657.69
527.87	603.86
528.04	671.73
528.21	681.10
528.38	634.29
528.55	657.69
528.72	706.84
528.89	692.80
529.07	571.09
529.24	599.18
529.41	734.93
529.58	662.37
529.75	669.39
529.92	678.76
530.09	603.86
530.26	624.92
530.43	641.31
530.60	683.44
530.77	685.78
530.94	671.73
531.11	699.82
531.28	638.97
531.46	662.37
531.63	711.52
531.80	664.71
531.97	648.33
532.14	676.41
532.31	692.80
532.48	767.70
532.65	657.69
532.82	688.12
532.99	645.99
533.16	709.18
533.33	674.07
533.50	755.99
533.67	730.25
533.84	662.37
534.01	706.84
534.18	674.07
534.35	727.91
534.52	667.05
534.69	685.78
534.86	683.44
535.03	615.56
535.20	716.20
535.37	669.39
535.54	645.99
535.71	744.29
535.88	683.44
536.05	629.60
536.22	676.41
536.38	795.78
536.55	753.65
536.72	727.91
536.89	683.44
537.06	683.44
537.23	760.67
537.40	725.57
537.57	744.29
537.74	844.93
537.91	781.74
538.08	767.70
538.25	716.20
538.42	734.93
538.59	765.36
538.75	805.14
538.92	751.31
539.09	718.54
539.26	744.29
539.43	828.55
539.60	870.68
539.77	936.21
539.94	980.68
540.11	856.64
540.28	901.11
540.44	990.05
540.61	1069.62
540.78	1001.75
540.95	1107.07
541.12	1121.12
541.29	1188.99
541.46	1280.27
541.62	1287.29
541.79	1266.23
541.96	1247.51
542.13	1245.16
542.30	1299.00
542.47	1219.42
542.63	1181.97
542.80	1235.80
542.97	1324.74
543.14	1210.06
543.31	1214.74
543.48	1226.44
543.64	1254.53
543.81	1205.38
543.98	1277.93
544.15	1240.48
544.32	1240.48
544.48	1104.73
544.65	1163.25
544.82	1139.84
544.99	1132.82
545.16	1088.35
545.32	1270.91
545.49	1617.31
545.66	1975.41
545.83	2193.08
546.00	1912.22
546.16	1706.25
546.33	1519.01
546.50	1322.40
546.67	1287.29
546.83	1170.27
547.00	1048.56
547.17	1039.20
547.34	966.64
547.50	912.81
547.67	905.79
547.84	901.11
548.00	880.04
548.17	1008.77
548.34	926.85
548.51	901.11
548.67	896.43
548.84	866.00
549.01	891.74
549.18	905.79
549.34	898.77
549.51	863.66
549.68	828.55
549.84	882.38
550.01	854.30
550.18	870.68
550.34	896.43
550.51	847.27
550.68	802.80
550.84	798.12
551.01	842.59
551.18	798.12
551.34	793.44
551.51	805.14
551.68	844.93
551.84	772.38
552.01	730.25
552.18	807.48
552.34	814.51
552.51	763.01
552.68	793.44
552.84	706.84
553.01	697.48
553.18	774.72
553.34	755.99
553.51	727.91
553.67	835.57
553.84	751.31
554.01	697.48
554.17	746.63
554.34	730.25
554.51	716.20
554.67	676.41
554.84	667.05
555.00	786.42
555.17	638.97
555.33	718.54
555.50	695.14
555.67	702.16
555.83	695.14
556.00	655.35
556.16	774.72
556.33	746.63
556.50	699.82
556.66	655.35
556.83	645.99
556.99	667.05
557.16	690.46
557.32	608.54
557.49	634.29
557.65	685.78
557.82	634.29
557.98	692.80
558.15	763.01
558.32	592.16
558.48	662.37
558.65	685.78
558.81	664.71
558.98	599.18
559.14	702.16
559.31	748.97
559.47	648.33
559.64	692.80
559.80	713.86
559.97	594.50
560.13	667.05
560.30	664.71
560.46	725.57
560.63	681.10
560.79	702.16
560.96	615.56
561.12	645.99
561.29	676.41
561.45	674.07
561.61	624.92
561.78	741.95
561.94	702.16
562.11	662.37
562.27	622.58
562.44	645.99
562.60	671.73
562.77	662.37
562.93	737.27
563.10	758.33
563.26	692.80
563.42	676.41
563.59	706.84
563.75	599.18
563.92	716.20
564.08	720.88
564.24	713.86
564.41	723.23
564.57	660.03
564.74	655.35
564.90	601.52
565.07	690.46
565.23	671.73
565.39	669.39
565.56	692.80
565.72	643.65
565.88	631.94
566.05	643.65
566.21	645.99
566.38	589.82
566.54	634.29
566.70	704.50
566.87	641.31
567.03	624.92
567.19	662.37
567.36	653.01
567.52	674.07
567.68	697.48
567.85	774.72
568.01	610.88
568.17	662.37
568.34	631.94
568.50	744.29
568.66	685.78
568.83	660.03
568.99	629.60
569.15	662.37
569.32	664.71
569.48	688.12
569.64	629.60
569.81	690.46
569.97	608.54
570.13	711.52
570.30	636.63
570.46	685.78
570.62	631.94
570.78	575.77
570.95	615.56
571.11	578.11
571.27	624.92
571.43	620.24
571.60	720.88
571.76	676.41
571.92	690.46
572.09	662.37
572.25	624.92
572.41	648.33
572.57	676.41
572.74	730.25
572.90	690.46
573.06	648.33
573.22	685.78
573.38	629.60
573.55	650.67
573.71	631.94
573.87	676.41
574.03	685.78
574.20	641.31
574.36	662.37
574.52	695.14
574.68	671.73
574.84	613.22
575.01	664.71
575.17	650.67
575.33	643.65
575.49	667.05
575.65	657.69
575.82	699.82
575.98	748.97
576.14	723.23
576.30	753.65
576.46	821.53
576.62	880.04
576.79	910.47
576.95	856.64
577.11	858.98
577.27	739.61
577.43	807.48
577.59	805.14
577.75	727.91
577.92	695.14
578.08	676.41
578.24	760.67
578.40	706.84
578.56	795.78
578.72	938.55
578.88	997.07
579.04	847.27
579.21	814.51
579.37	741.95
579.53	770.04
579.69	816.85
579.85	786.42
580.01	779.40
580.17	800.46
580.33	746.63
580.49	737.27
580.65	699.82
580.82	744.29
580.98	763.01
581.14	720.88
581.30	699.82
581.46	746.63
581.62	767.70
581.78	732.59
581.94	767.70
582.10	720.88
582.26	741.95
582.42	739.61
582.58	702.16
582.74	788.76
582.90	741.95
583.06	788.76
583.22	779.40
583.38	791.10
583.54	725.57
583.70	828.55
583.86	837.91
584.02	706.84
584.18	685.78
584.34	692.80
584.50	788.76
584.66	798.12
584.82	751.31
584.98	744.29
585.14	793.44
585.30	758.33
585.46	795.78
585.62	723.23
585.78	709.18
585.94	795.78
586.10	798.12
586.26	814.51
586.42	755.99
586.58	709.18
586.74	866.00
586.90	870.68
587.06	917.49
587.22	868.34
587.38	908.13
587.54	826.21
587.70	770.04
587.86	809.83
588.02	770.04
588.18	802.80
588.34	741.95
588.49	676.41
588.65	727.91
588.81	746.63
588.97	718.54
589.13	751.31
589.29	685.78
589.45	699.82
589.61	727.91
589.77	732.59
589.93	699.82
590.08	748.97
590.24	723.23
590.40	737.27
590.56	748.97
590.72	688.12
590.88	765.36
591.04	830.89
591.20	751.31
591.35	725.57
591.51	725.57
591.67	763.01
591.83	671.73
591.99	763.01
592.15	744.29
592.31	791.10
592.46	767.70
592.62	823.87
592.78	741.95
592.94	748.97
593.10	795.78
593.26	798.12
593.41	816.85
593.57	840.25
593.73	779.40
593.89	734.93
594.05	732.59
594.20	753.65
594.36	765.36
594.52	746.63
594.68	662.37
594.84	690.46
594.99	746.63
595.15	730.25
595.31	702.16
595.47	727.91
595.62	678.76
595.78	723.23
595.94	634.29
596.10	711.52
596.25	739.61
596.41	748.97
596.57	645.99
596.73	702.16
596.88	695.14
597.04	645.99
597.20	634.29
597.36	676.41
597.51	772.38
597.67	716.20
597.83	681.10
597.99	671.73
598.14	758.33
598.30	774.72
598.46	699.82
598.61	786.42
598.77	725.57
598.93	763.01
599.09	774.72
599.24	746.63
599.40	709.18
599.56	800.46
599.71	730.25
599.87	711.52
600.03	716.20
600.18	655.35
600.34	739.61
600.50	755.99
600.65	695.14
600.81	727.91
600.97	688.12
601.12	751.31
601.28	662.37
601.44	671.73
601.59	674.07
601.75	732.59
601.91	681.10
602.06	688.12
602.22	744.29
602.37	650.67
602.53	704.50
602.69	716.20
602.84	695.14
603.00	723.23
603.16	657.69
603.31	716.20
603.47	678.76
603.62	681.10
603.78	711.52
603.94	739.61
604.09	723.23
604.25	706.84
604.40	690.46
604.56	660.03
604.71	606.20
604.87	592.16
605.03	674.07
605.18	732.59
605.34	683.44
605.49	702.16
605.65	683.44
605.80	692.80
605.96	709.18
606.12	718.54
606.27	702.16
606.43	676.41
606.58	702.16
606.74	664.71
606.89	660.03
607.05	695.14
607.20	690.46
607.36	699.82
607.51	777.06
607.67	812.17
607.82	753.65
607.98	739.61
608.13	753.65
608.29	739.61
608.44	842.59
608.60	760.67
608.75	835.57
608.91	763.01
609.06	744.29
609.22	870.68
609.37	823.87
609.53	842.59
609.68	994.73
