SpectraSuite Data File
++++++++++++++++++++++++++++++++++++
Date: Thu Oct 24 13:21:33 EDT 2013
User: stostad
Dark Spectrum Present: No
Reference Spectrum Present: No
Number of Sampled Component Spectra: 1
Spectrometers: USB2+H05261
Integration Time (usec): 100000 (USB2+H05261)
Spectra Averaged: 1 (USB2+H05261)
Boxcar Smoothing: 0 (USB2+H05261)
Correct for Electrical Dark: No (USB2+H05261)
Strobe/Lamp Enabled: No (USB2+H05261)
Correct for Detector Non-linearity: No (USB2+H05261)
Correct for Stray Light: No (USB2+H05261)
Number of Pixels in Processed Spectrum: 2048
>>>>>Begin Processed Spectral Data<<<<<
365.73	599.18
365.92	599.18
366.12	599.18
366.32	449.38
366.52	503.22
366.72	402.57
366.91	521.94
367.11	454.06
367.31	430.66
367.51	449.38
367.70	425.98
367.90	461.09
368.10	414.27
368.30	491.51
368.49	475.13
368.69	430.66
368.89	442.36
369.09	433.00
369.28	496.19
369.48	447.04
369.68	491.51
369.87	402.57
370.07	489.17
370.27	580.45
370.47	821.53
370.66	1076.65
370.86	1184.31
371.06	1242.82
371.25	1266.23
371.45	1301.34
371.65	1193.67
371.84	1280.27
372.04	1233.46
372.24	1275.59
372.44	1324.74
372.63	1322.40
372.83	1282.61
373.03	1301.34
373.22	1341.13
373.42	1399.64
373.62	1397.30
373.81	1359.85
374.01	1409.00
374.21	1401.98
374.40	1322.40
374.60	1455.81
374.79	1460.49
374.99	1373.89
375.19	1437.09
375.38	1444.11
375.58	1509.65
375.78	1502.62
375.97	1476.88
376.17	1523.69
376.37	1448.79
376.56	1497.94
376.76	1462.83
376.95	1502.62
377.15	1661.78
377.35	1579.86
377.54	1568.16
377.74	1486.24
377.93	1509.65
378.13	1626.67
378.33	1657.10
378.52	1607.95
378.72	1666.46
378.91	1605.61
379.11	1572.84
379.31	1535.39
379.50	1633.69
379.70	1746.04
379.89	1703.91
380.09	1668.80
380.28	1706.25
380.48	1692.21
380.68	1617.31
380.87	1603.27
381.07	1572.84
381.26	1650.08
381.46	1809.23
381.65	1701.57
381.85	1722.63
382.04	1818.60
382.24	1724.97
382.43	1741.36
382.63	1806.89
382.83	1750.72
383.02	1832.64
383.22	1968.39
383.41	1921.58
383.61	1933.28
383.80	1902.86
384.00	1905.20
384.19	1980.09
384.39	1928.60
384.58	1954.35
384.78	1872.43
384.97	1994.14
385.17	2076.06
385.36	1963.71
385.56	1874.77
385.75	1916.90
385.95	1944.99
386.14	1961.37
386.34	1942.64
386.53	2003.50
386.72	2001.16
386.92	1975.41
387.11	2080.74
387.31	2045.63
387.50	2118.18
387.70	2113.50
387.89	2099.46
388.09	2104.14
388.28	2157.97
388.48	2150.95
388.67	2174.36
388.86	2197.76
389.06	2195.42
389.25	2129.89
389.45	2235.21
389.64	2251.60
389.84	2223.51
390.03	2291.38
390.22	2286.70
390.42	2307.77
390.61	2218.83
390.81	2305.43
391.00	2242.23
391.19	2389.69
391.39	2434.16
391.58	2331.17
391.78	2347.56
391.97	2443.52
392.16	2413.09
392.36	2401.39
392.55	2532.46
392.75	2497.35
392.94	2480.97
393.13	2548.84
393.33	2471.61
393.52	2511.39
393.71	2567.57
393.91	2569.91
394.10	2586.29
394.29	2555.86
394.49	2661.19
394.68	2630.76
394.88	2562.89
395.07	2726.72
395.26	2747.79
395.46	2665.87
395.65	2738.43
395.84	2829.71
396.04	2892.90
396.23	2857.79
396.42	2801.62
396.62	2834.39
396.81	2853.11
397.00	2766.51
397.19	2928.01
397.39	2806.30
397.58	2913.97
397.77	2789.92
397.97	2923.33
398.16	2895.24
398.35	2892.90
398.55	2986.52
398.74	2937.37
398.93	3030.99
399.12	3026.31
399.32	3091.85
399.51	3103.55
399.70	3098.87
399.90	3126.96
400.09	3169.09
400.28	3295.47
400.47	3316.54
400.67	3176.11
400.86	3332.92
401.05	3314.20
401.24	3218.24
401.44	3328.24
401.63	3447.61
401.82	3377.39
402.01	3330.58
402.21	3417.18
402.40	3389.10
402.59	3431.23
402.78	3424.20
402.97	3487.40
403.17	3520.17
403.36	3426.54
403.55	3648.90
403.74	3637.19
403.93	3749.54
404.13	3634.85
404.32	3634.85
404.51	3758.90
404.70	3756.56
404.89	3623.15
405.09	3906.35
405.28	3873.59
405.47	3887.63
405.66	3873.59
405.85	3836.14
406.05	3936.78
406.24	3836.14
406.43	3964.87
406.62	4002.32
406.81	4051.47
407.00	3978.91
407.20	4011.68
407.39	3995.29
407.58	4133.39
407.77	4212.96
407.96	4088.92
408.15	4259.78
408.34	4222.33
408.54	4241.05
408.73	4322.97
408.92	4135.73
409.11	4306.59
409.30	4440.00
409.49	4367.44
409.68	4507.87
409.87	4456.38
410.07	4503.19
410.26	4519.57
410.45	4542.98
410.64	4674.05
410.83	4617.88
411.02	4667.03
411.21	4823.84
411.40	4730.22
411.59	4821.50
411.78	4779.37
411.98	4847.25
412.17	4943.21
412.36	4851.93
412.55	4917.47
412.74	4964.28
412.93	5041.51
413.12	5029.81
413.31	5179.61
413.50	5177.26
413.69	5210.03
413.88	5273.23
414.07	5287.27
414.26	5343.44
414.45	5224.08
414.64	5394.93
414.83	5364.51
415.02	5514.30
415.22	5727.29
415.41	5610.26
415.60	5746.02
415.79	5893.47
415.98	5731.97
416.17	5856.02
416.36	5710.91
416.55	5858.36
416.74	5907.51
416.93	5973.05
417.12	6012.84
417.31	6090.07
417.50	6129.86
417.69	6244.55
417.88	6211.78
418.07	6169.65
418.26	6146.25
418.45	6354.55
418.64	6534.78
418.83	6429.45
419.02	6480.94
419.21	6544.14
419.39	6480.94
419.58	6530.09
419.77	6490.31
419.96	6743.08
420.15	6520.73
420.34	6703.29
420.53	6689.25
420.72	6766.49
420.91	6754.79
421.10	6871.81
421.29	6946.71
421.48	6820.32
421.67	6902.24
421.86	7087.14
422.05	6839.05
422.24	6970.12
422.43	7063.74
422.61	7199.49
422.80	7124.59
422.99	7077.78
423.18	7176.08
423.37	7089.48
423.56	7166.72
423.75	7014.59
423.94	6773.51
424.13	6647.12
424.32	6988.84
424.50	7199.49
424.69	7346.94
424.88	7164.38
425.07	7108.21
425.26	7138.63
425.45	7157.36
425.64	7148.00
425.83	7075.44
426.01	7328.22
426.20	7185.44
426.39	7138.63
426.58	7178.42
426.77	7290.77
426.96	7393.75
427.15	7414.82
427.33	7410.14
427.52	7391.41
427.71	7641.85
427.90	7456.95
428.09	7428.86
428.28	7810.37
428.46	7786.96
428.65	7660.57
428.84	7955.48
429.03	7637.17
429.22	7716.75
429.40	7765.90
429.59	7887.61
429.78	7779.94
429.97	7730.79
430.16	7716.75
430.34	8046.76
430.53	8149.75
430.72	8140.38
430.91	8142.72
431.10	7850.16
431.28	8149.75
431.47	8369.76
431.66	8479.76
431.85	8355.71
432.03	8542.96
432.22	8561.68
432.41	8627.21
432.60	8381.46
432.79	8538.27
432.97	8652.96
433.16	8748.92
433.35	8594.45
433.54	8587.43
433.72	8613.17
433.91	8669.34
434.10	8896.38
434.28	8777.01
434.47	8636.58
434.66	8952.55
434.85	8938.51
435.03	9013.40
435.22	9069.58
435.41	9488.53
435.59	9249.80
435.78	9369.16
435.97	9186.60
436.16	9249.80
436.34	9083.62
436.53	9341.08
436.72	9350.44
436.90	8863.61
437.09	9331.72
437.28	9195.96
437.46	9509.60
437.65	9612.58
437.84	9579.81
438.02	9610.24
438.21	9598.54
438.40	9561.09
438.58	9888.76
438.77	10059.62
438.96	9851.31
439.14	10340.49
439.33	10270.27
439.52	10291.34
439.70	10143.88
439.89	10544.11
440.08	10675.18
440.26	10452.83
440.45	10321.76
440.63	10633.05
440.82	10841.36
441.01	10832.00
441.19	10897.53
441.38	10878.81
441.57	11129.25
441.75	11026.26
441.94	11360.96
442.12	11124.57
442.31	11384.37
442.50	11569.27
442.68	11377.34
442.87	11529.48
443.05	11517.78
443.24	11735.45
443.43	11517.78
443.61	11618.42
443.80	11880.56
443.98	11522.46
444.17	11068.39
444.35	11573.95
444.54	11925.03
444.73	11761.19
444.91	11616.08
445.10	11873.54
445.28	11789.28
445.47	11817.36
445.65	11683.95
445.84	11847.79
446.02	11744.81
446.21	11836.09
446.39	11782.26
446.58	12058.44
446.77	12016.31
446.95	11932.05
447.14	11985.88
447.32	12285.47
447.51	12025.67
447.69	11939.07
447.88	11957.80
448.06	11950.78
448.25	12042.06
448.43	12236.32
448.62	12009.29
448.80	12208.23
448.99	12402.50
449.17	12556.97
449.36	12243.34
449.54	12203.55
449.73	12578.04
449.91	12760.60
450.10	12603.78
450.28	12776.98
450.46	13015.72
450.65	12919.76
450.83	13022.74
451.02	12854.22
451.20	13114.02
451.39	13027.42
451.57	13146.79
451.76	12915.08
451.94	12938.48
452.13	13172.54
452.31	13092.96
452.49	13013.38
452.68	13224.03
452.86	13205.30
453.05	13404.25
453.23	13397.23
453.42	13095.30
453.60	12987.63
453.78	13755.33
453.97	13411.27
454.15	13322.33
454.34	13298.92
454.52	13668.73
454.70	13757.67
454.89	13755.33
455.07	13785.76
455.26	13804.48
455.44	14064.28
455.62	13914.48
455.81	13994.06
455.99	14143.86
456.17	14101.73
456.36	14352.16
456.54	14396.64
456.73	14754.74
456.91	14785.16
457.09	14604.94
457.28	15007.52
457.46	14848.36
457.64	14876.44
457.83	14958.36
458.01	14750.06
458.19	14972.41
458.38	14778.14
458.56	14944.32
458.74	15180.71
458.93	15211.14
459.11	15374.98
459.29	15154.97
459.48	15389.02
459.66	15335.19
459.84	15400.72
460.03	15728.40
460.21	15545.84
460.39	15489.67
460.57	15536.48
460.76	15480.30
460.94	15854.79
461.12	15985.86
461.31	15735.42
461.49	15852.45
461.67	15805.64
461.85	16166.08
462.04	15997.56
462.22	16266.72
462.40	16439.92
462.59	16332.26
462.77	16285.45
462.95	16636.53
463.13	16421.20
463.32	16432.90
463.50	16702.06
463.68	16760.58
463.86	16690.36
464.05	16257.36
464.23	16566.31
464.41	16704.40
464.59	16615.46
464.78	17209.96
464.96	16849.52
465.14	16734.83
465.32	16898.67
465.50	16912.71
465.69	17156.13
465.87	17221.66
466.05	16912.71
466.23	17156.13
466.41	17111.66
466.60	17542.32
466.78	17181.87
466.96	17301.24
467.14	17769.35
467.32	17446.35
467.51	17848.93
467.69	17509.55
467.87	17635.94
468.05	17898.08
468.23	17703.81
468.41	17598.49
468.60	17996.38
468.78	18155.54
468.96	17942.55
469.14	18253.84
469.32	18455.12
469.50	17987.02
469.69	18333.42
469.87	18518.32
470.05	18623.64
470.23	18672.79
470.41	18560.45
470.59	18703.22
470.77	18616.62
470.95	18745.35
471.14	18913.87
471.32	18553.43
471.50	19410.06
471.68	19150.26
471.86	19103.45
472.04	19302.40
472.22	19861.79
472.40	19250.91
472.58	19426.45
472.77	19843.06
472.95	20088.82
473.13	20404.79
473.31	20091.16
473.49	19953.07
473.67	19873.49
473.85	20318.19
474.03	20671.61
474.21	20561.61
474.39	20772.25
474.57	20313.51
474.75	21209.93
474.93	21348.03
475.12	21301.22
475.30	21493.14
475.48	20982.90
475.66	21577.40
475.84	21275.47
476.02	21642.93
476.20	22047.85
476.38	22256.15
476.56	22373.18
476.74	22773.41
476.92	22551.06
477.10	22544.04
477.28	22944.27
477.46	22991.08
477.64	23218.11
477.82	23316.42
478.00	23924.96
478.18	23824.31
478.36	24156.67
478.54	24257.31
478.72	24556.90
478.90	24872.87
479.08	25017.99
479.26	25027.35
479.44	25053.09
479.62	25256.72
479.80	25560.99
479.98	25717.81
480.16	26677.43
480.34	26040.80
480.52	26118.04
480.70	26431.67
480.88	26391.88
481.06	26419.97
481.24	26778.07
481.41	26927.86
481.59	27395.97
481.77	27604.28
481.95	27938.97
482.13	27733.01
482.31	27709.60
482.49	28631.77
482.67	28451.55
482.85	28678.58
483.03	29284.78
483.21	29465.00
483.39	29766.93
483.57	29607.78
483.74	29867.58
483.92	30424.62
484.10	29975.24
484.28	30604.84
484.46	31194.66
484.64	31690.85
484.82	31005.08
485.00	31477.86
485.18	32030.23
485.35	32114.49
485.53	32364.93
485.71	32655.15
485.89	33558.60
486.07	33039.00
486.25	33284.76
486.43	33081.13
486.61	33546.90
486.78	34178.84
486.96	34026.71
487.14	35044.84
487.32	34808.45
487.50	35456.78
487.68	35150.17
487.85	35690.83
488.03	36308.73
488.21	36865.78
488.39	36133.19
488.57	36793.22
488.75	37235.58
488.92	37088.13
489.10	37663.90
489.28	37766.88
489.46	38384.79
489.64	38171.80
489.81	38822.47
489.99	38733.53
490.17	39108.01
490.35	39337.38
490.53	39473.13
490.70	40072.31
490.88	39915.50
491.06	40671.49
491.24	40495.95
491.41	40610.64
491.59	41364.29
491.77	41141.94
491.95	41965.81
492.13	41722.39
492.30	42153.05
492.48	41979.85
492.66	42412.85
492.84	42717.12
493.01	43161.82
493.19	42974.58
493.37	43529.28
493.54	43728.23
493.72	44245.49
493.90	43957.60
494.08	44477.20
494.25	44437.41
494.43	44947.65
494.61	45130.21
494.79	45104.46
494.96	45162.98
495.14	45598.32
495.32	46293.46
495.49	45825.35
495.67	46148.34
495.85	46560.28
496.02	46726.46
496.20	46866.89
496.38	46941.78
496.55	47210.95
496.73	48196.31
496.91	47924.81
497.09	47547.98
497.26	48163.54
497.44	48559.09
497.62	48292.27
497.79	48849.32
497.97	48865.70
498.14	49436.80
498.32	49509.35
498.50	49759.79
498.67	50054.70
498.85	49851.07
499.03	50094.49
499.20	50045.33
499.38	50494.72
499.56	50623.45
499.73	50714.73
499.91	50815.37
500.08	50925.38
500.26	51119.64
500.44	51334.97
500.61	51341.99
500.79	51283.48
500.97	51709.46
501.14	51997.34
501.32	51971.60
501.49	51739.88
501.67	52168.20
501.84	52615.24
502.02	52395.23
502.20	52573.11
502.37	52619.92
502.55	52692.48
502.72	52603.54
502.90	52886.74
503.07	52910.15
503.25	53277.61
503.43	53116.12
503.60	53188.67
503.78	53755.08
503.95	53373.58
504.13	53600.61
504.30	53907.22
504.48	54007.86
504.65	53832.32
504.83	54270.00
505.01	54246.60
505.18	54398.73
505.36	54670.23
505.53	54401.07
505.71	54768.54
505.88	54808.32
506.06	54684.28
506.23	55136.00
506.41	54885.56
506.58	54911.31
506.76	55140.68
506.93	55255.37
507.11	55201.53
507.28	55583.04
507.46	55779.65
507.63	55721.13
507.81	55957.53
507.98	55723.47
508.16	55585.38
508.33	56048.81
508.50	56039.45
508.68	56126.05
508.85	56432.66
509.03	56287.54
509.20	56259.46
509.38	56456.06
509.55	56573.09
509.73	56762.67
509.90	56924.17
510.08	56811.82
510.25	56837.57
510.42	56996.73
510.60	57268.23
510.77	56978.00
510.95	57455.47
511.12	57343.12
511.30	57228.44
511.47	57602.92
511.64	57537.39
511.82	57715.27
511.99	57399.30
512.17	57841.66
512.34	57633.35
512.51	57813.57
512.69	58230.19
512.86	58143.59
513.04	58459.56
513.21	58033.58
513.38	58148.27
513.56	58319.13
513.73	58410.41
513.90	58590.63
514.08	58468.92
514.25	58707.66
514.43	58686.59
514.60	58581.27
514.77	58787.24
514.95	58904.26
515.12	58812.98
515.29	58773.19
515.47	59056.40
515.64	59398.12
515.81	59238.96
515.99	59238.96
516.16	59508.12
516.33	59285.77
516.51	59557.27
516.68	59508.12
516.85	59643.87
517.03	59814.73
517.20	59924.74
517.37	59489.40
517.54	59709.41
517.72	59662.60
517.89	59718.77
518.06	60034.74
518.24	60011.34
518.41	60140.07
518.58	60212.62
518.75	59849.84
518.93	60065.17
519.10	60090.91
519.27	60168.15
519.45	60392.84
519.62	60514.55
519.79	60552.00
519.96	60439.65
520.14	60685.41
520.31	60491.15
520.48	60598.81
520.65	60706.47
520.83	60898.40
521.00	61085.64
521.17	60846.91
521.34	61073.94
521.52	60992.02
521.69	61020.11
521.86	61179.26
522.03	61326.72
522.20	61293.95
522.38	61499.92
522.55	61457.79
522.72	61434.38
522.89	61291.61
523.07	61502.26
523.24	61506.94
523.41	61748.01
523.58	61563.11
523.75	61834.61
523.92	61806.53
524.10	61822.91
524.27	61825.25
524.44	61939.94
524.61	61946.96
524.78	62017.17
524.96	62115.48
525.13	61956.32
525.30	62281.66
525.47	62415.07
525.64	62452.51
525.81	62461.88
525.98	62342.51
526.16	62169.31
526.33	62349.53
526.50	62541.45
526.67	62529.75
526.84	62621.03
527.01	62670.18
527.18	62815.30
527.36	62738.06
527.53	62665.50
527.70	62803.59
527.87	62934.66
528.04	62752.10
528.21	63159.36
528.38	62972.11
528.55	63281.06
528.72	62859.77
528.89	62911.26
529.07	62946.37
529.24	62944.03
529.41	63147.65
529.58	63121.91
529.75	63037.65
529.92	63412.13
530.09	63327.87
530.26	63149.99
530.43	63152.33
530.60	63187.44
530.77	63426.18
530.94	63688.32
531.11	63494.05
531.28	63580.65
531.46	63545.54
531.63	63641.51
531.80	63685.98
531.97	63793.64
532.14	63758.53
532.31	63959.82
532.48	63772.58
532.65	64088.55
532.82	63985.57
532.99	63875.56
533.16	63863.86
533.33	63845.13
533.50	64140.04
533.67	64069.82
533.84	63852.15
534.01	64179.83
534.18	64196.21
534.35	64432.61
534.52	64350.69
534.69	64385.80
534.86	64533.25
535.03	64292.18
535.20	64292.18
535.37	64451.33
535.54	64676.02
535.71	64708.79
535.88	64603.47
536.05	64465.38
536.22	64551.98
536.38	64542.61
536.55	64526.23
536.72	64788.37
536.89	64729.86
537.06	64863.27
537.23	65104.34
537.40	64832.84
537.57	64919.44
537.74	64804.75
537.91	64968.59
538.08	64919.44
538.25	64657.30
538.42	65083.28
538.59	65219.03
538.75	65036.47
538.92	65307.97
539.09	65139.45
539.26	65078.60
539.43	65139.45
539.60	65270.52
539.77	65247.11
539.94	65460.10
540.11	65490.53
540.28	65535.00
540.44	65415.63
540.61	65329.03
540.78	65331.37
540.95	65424.99
541.12	65396.91
541.29	65457.76
541.46	65535.00
541.62	65535.00
541.79	65535.00
541.96	65535.00
542.13	65535.00
542.30	65511.59
542.47	65535.00
542.63	65535.00
542.80	65535.00
542.97	65535.00
543.14	65535.00
543.31	65535.00
543.48	65535.00
543.64	65535.00
543.81	65535.00
543.98	65535.00
544.15	65535.00
544.32	65535.00
544.48	65535.00
544.65	65535.00
544.82	65535.00
544.99	65535.00
545.16	65535.00
545.32	65535.00
545.49	65535.00
545.66	65535.00
545.83	65535.00
546.00	65535.00
546.16	65535.00
546.33	65535.00
546.50	65535.00
546.67	65535.00
546.83	65535.00
547.00	65535.00
547.17	65535.00
547.34	65535.00
547.50	65535.00
547.67	65535.00
547.84	65535.00
548.00	65535.00
548.17	65535.00
548.34	65535.00
548.51	65535.00
548.67	65535.00
548.84	65535.00
549.01	65535.00
549.18	65535.00
549.34	65535.00
549.51	65535.00
549.68	65535.00
549.84	65535.00
550.01	65535.00
550.18	65535.00
550.34	65535.00
550.51	65535.00
550.68	65535.00
550.84	65535.00
551.01	65535.00
551.18	65535.00
551.34	65535.00
551.51	65535.00
551.68	65535.00
551.84	65535.00
552.01	65535.00
552.18	65535.00
552.34	65535.00
552.51	65535.00
552.68	65535.00
552.84	65535.00
553.01	65535.00
553.18	65535.00
553.34	65535.00
553.51	65535.00
553.67	65535.00
553.84	65535.00
554.01	65535.00
554.17	65535.00
554.34	65535.00
554.51	65535.00
554.67	65535.00
554.84	65535.00
555.00	65535.00
555.17	65535.00
555.33	65535.00
555.50	65535.00
555.67	65535.00
555.83	65535.00
556.00	65535.00
556.16	65535.00
556.33	65535.00
556.50	65535.00
556.66	65535.00
556.83	65535.00
556.99	65535.00
557.16	65535.00
557.32	65535.00
557.49	65535.00
557.65	65535.00
557.82	65535.00
557.98	65535.00
558.15	65535.00
558.32	65535.00
558.48	65535.00
558.65	65535.00
558.81	65535.00
558.98	65535.00
559.14	65535.00
559.31	65535.00
559.47	65535.00
559.64	65535.00
559.80	65535.00
559.97	65535.00
560.13	65535.00
560.30	65535.00
560.46	65535.00
560.63	65535.00
560.79	65535.00
560.96	65535.00
561.12	65535.00
561.29	65535.00
561.45	65535.00
561.61	65535.00
561.78	65535.00
561.94	65535.00
562.11	65535.00
562.27	65535.00
562.44	65535.00
562.60	65535.00
562.77	65535.00
562.93	65535.00
563.10	65535.00
563.26	65535.00
563.42	65535.00
563.59	65535.00
563.75	65535.00
563.92	65535.00
564.08	65535.00
564.24	65535.00
564.41	65535.00
564.57	65535.00
564.74	65535.00
564.90	65535.00
565.07	65535.00
565.23	65535.00
565.39	65535.00
565.56	65535.00
565.72	65535.00
565.88	65535.00
566.05	65535.00
566.21	65535.00
566.38	65535.00
566.54	65535.00
566.70	65535.00
566.87	65535.00
567.03	65535.00
567.19	65535.00
567.36	65535.00
567.52	65535.00
567.68	65535.00
567.85	65535.00
568.01	65535.00
568.17	65535.00
568.34	65535.00
568.50	65535.00
568.66	65535.00
568.83	65535.00
568.99	65535.00
569.15	65535.00
569.32	65535.00
569.48	65535.00
569.64	65535.00
569.81	65535.00
569.97	65535.00
570.13	65535.00
570.30	65535.00
570.46	65535.00
570.62	65535.00
570.78	65535.00
570.95	65535.00
571.11	65535.00
571.27	65535.00
571.43	65535.00
571.60	65535.00
571.76	65535.00
571.92	65535.00
572.09	65535.00
572.25	65535.00
572.41	65535.00
572.57	65535.00
572.74	65535.00
572.90	65535.00
573.06	65535.00
573.22	65535.00
573.38	65535.00
573.55	65535.00
573.71	65535.00
573.87	65535.00
574.03	65535.00
574.20	65535.00
574.36	65535.00
574.52	65535.00
574.68	65535.00
574.84	65535.00
575.01	65535.00
575.17	65535.00
575.33	65535.00
575.49	65535.00
575.65	65535.00
575.82	65535.00
575.98	65535.00
576.14	65535.00
576.30	65535.00
576.46	65535.00
576.62	65535.00
576.79	65535.00
576.95	65535.00
577.11	65535.00
577.27	65535.00
577.43	65535.00
577.59	65535.00
577.75	65535.00
577.92	65535.00
578.08	65535.00
578.24	65535.00
578.40	65535.00
578.56	65535.00
578.72	65535.00
578.88	65535.00
579.04	65535.00
579.21	65535.00
579.37	65535.00
579.53	65535.00
579.69	65535.00
579.85	65535.00
580.01	65535.00
580.17	65535.00
580.33	65535.00
580.49	65535.00
580.65	65535.00
580.82	65535.00
580.98	65535.00
581.14	65535.00
581.30	65535.00
581.46	65535.00
581.62	65535.00
581.78	65535.00
581.94	65535.00
582.10	65535.00
582.26	65535.00
582.42	65535.00
582.58	65535.00
582.74	65535.00
582.90	65535.00
583.06	65535.00
583.22	65535.00
583.38	65535.00
583.54	65535.00
583.70	65535.00
583.86	65535.00
584.02	65535.00
584.18	65535.00
584.34	65535.00
584.50	65535.00
584.66	65535.00
584.82	65535.00
584.98	65535.00
585.14	65535.00
585.30	65535.00
585.46	65535.00
585.62	65535.00
585.78	65535.00
585.94	65535.00
586.10	65535.00
586.26	65535.00
586.42	65535.00
586.58	65535.00
586.74	65535.00
586.90	65535.00
587.06	65535.00
