SpectraSuite Data File
++++++++++++++++++++++++++++++++++++
Date: Thu Oct 24 13:21:13 EDT 2013
User: stostad
Dark Spectrum Present: No
Reference Spectrum Present: No
Number of Sampled Component Spectra: 1
Spectrometers: USB2+H05261
Integration Time (usec): 100000 (USB2+H05261)
Spectra Averaged: 1 (USB2+H05261)
Boxcar Smoothing: 0 (USB2+H05261)
Correct for Electrical Dark: No (USB2+H05261)
Strobe/Lamp Enabled: No (USB2+H05261)
Correct for Detector Non-linearity: No (USB2+H05261)
Correct for Stray Light: No (USB2+H05261)
Number of Pixels in Processed Spectrum: 2048
>>>>>Begin Processed Spectral Data<<<<<
365.73	540.66
365.92	540.66
366.12	540.66
366.32	482.15
366.52	393.21
366.72	465.77
366.91	463.43
367.11	489.17
367.31	479.81
367.51	440.02
367.70	463.43
367.90	461.09
368.10	463.43
368.30	477.47
368.49	451.72
368.69	521.94
368.89	388.53
369.09	472.79
369.28	486.83
369.48	463.43
369.68	479.81
369.87	533.64
370.07	601.52
370.27	587.47
370.47	578.11
370.66	699.82
370.86	732.59
371.06	695.14
371.25	746.63
371.45	669.39
371.65	716.20
371.84	662.37
372.04	669.39
372.24	662.37
372.44	631.94
372.63	737.27
372.83	727.91
373.03	741.95
373.22	753.65
373.42	760.67
373.62	798.12
373.81	706.84
374.01	823.87
374.21	793.44
374.40	781.74
374.60	720.88
374.79	727.91
374.99	795.78
375.19	861.32
375.38	685.78
375.58	770.04
375.78	823.87
375.97	791.10
376.17	755.99
376.37	875.36
376.56	772.38
376.76	748.97
376.95	889.40
377.15	777.06
377.35	723.23
377.54	791.10
377.74	800.46
377.93	753.65
378.13	781.74
378.33	830.89
378.52	786.42
378.72	781.74
378.91	812.17
379.11	819.19
379.31	760.67
379.50	781.74
379.70	837.91
379.89	833.23
380.09	751.31
380.28	716.20
380.48	826.21
380.68	854.30
380.87	791.10
381.07	737.27
381.26	828.55
381.46	823.87
381.65	849.61
381.85	898.77
382.04	877.70
382.24	868.34
382.43	798.12
382.63	802.80
382.83	746.63
383.02	826.21
383.22	837.91
383.41	819.19
383.61	858.98
383.80	844.93
384.00	854.30
384.19	931.53
384.39	891.74
384.58	894.08
384.78	777.06
384.97	863.66
385.17	821.53
385.36	819.19
385.56	851.96
385.75	908.13
385.95	877.70
386.14	795.78
386.34	887.06
386.53	887.06
386.72	854.30
386.92	917.49
387.11	929.19
387.31	884.72
387.50	854.30
387.70	875.36
387.89	915.15
388.09	873.02
388.28	795.78
388.48	924.51
388.67	866.00
388.86	882.38
389.06	926.85
389.25	903.45
389.45	891.74
389.64	858.98
389.84	898.77
390.03	936.21
390.22	938.55
390.42	905.79
390.61	898.77
390.81	898.77
391.00	964.30
391.19	901.11
391.39	929.19
391.58	868.34
391.78	985.37
391.97	915.15
392.16	978.34
392.36	1036.86
392.55	954.94
392.75	940.90
392.94	943.24
393.13	950.26
393.33	924.51
393.52	961.96
393.71	968.98
393.91	992.39
394.10	912.81
394.29	908.13
394.49	889.40
394.68	997.07
394.88	1004.09
395.07	1006.43
395.26	994.73
395.46	957.28
395.65	1043.88
395.84	1071.97
396.04	1102.39
396.23	1116.44
396.42	1001.75
396.62	1008.77
396.81	1076.65
397.00	997.07
397.19	1036.86
397.39	987.71
397.58	1046.22
397.77	1093.03
397.97	1039.20
398.16	1039.20
398.35	1048.56
398.55	1018.13
398.74	1020.47
398.93	1018.13
399.12	1076.65
399.32	1139.84
399.51	1139.84
399.70	1153.88
399.90	1041.54
400.09	1256.87
400.28	1107.07
400.47	1093.03
400.67	1104.73
400.86	1104.73
401.05	1153.88
401.24	1170.27
401.44	1163.25
401.63	1107.07
401.82	1100.05
402.01	1179.63
402.21	1181.97
402.40	1125.80
402.59	1132.82
402.78	1212.40
402.97	1142.18
403.17	1186.65
403.36	1210.06
403.55	1167.93
403.74	1203.04
403.93	1231.12
404.13	1303.68
404.32	1320.06
404.51	1233.46
404.70	1301.34
404.89	1224.10
405.09	1268.57
405.28	1200.69
405.47	1266.23
405.66	1341.13
405.85	1160.91
406.05	1291.98
406.24	1226.44
406.43	1284.95
406.62	1306.02
406.81	1270.91
407.00	1273.25
407.20	1345.81
407.39	1268.57
407.58	1366.87
407.77	1380.92
407.96	1357.51
408.15	1348.15
408.34	1390.28
408.54	1380.92
408.73	1315.38
408.92	1411.34
409.11	1387.94
409.30	1509.65
409.49	1439.43
409.68	1397.30
409.87	1348.15
410.07	1404.32
410.26	1362.19
410.45	1317.72
410.64	1451.13
410.83	1575.18
411.02	1413.68
411.21	1519.01
411.40	1497.94
411.59	1572.84
411.78	1617.31
411.98	1507.30
412.17	1472.20
412.36	1556.46
412.55	1593.90
412.74	1575.18
412.93	1549.43
413.12	1565.82
413.31	1614.97
413.50	1593.90
413.69	1607.95
413.88	1689.87
414.07	1638.38
414.26	1605.61
414.45	1715.61
414.64	1565.82
414.83	1687.53
415.02	1652.42
415.22	1685.19
415.41	1715.61
415.60	1682.85
415.79	1746.04
415.98	1776.47
416.17	1680.50
416.36	1811.57
416.55	1774.13
416.74	1804.55
416.93	1823.28
417.12	1696.89
417.31	1823.28
417.50	1827.96
417.69	1893.49
417.88	1849.02
418.07	1809.23
418.26	1865.41
418.45	1877.11
418.64	1884.13
418.83	1968.39
419.02	1884.13
419.21	1872.43
419.39	1942.64
419.58	1900.52
419.77	1888.81
419.96	1914.56
420.15	1935.62
420.34	1963.71
420.53	1952.01
420.72	2047.97
420.91	2026.90
421.10	2031.58
421.29	1912.22
421.48	2022.22
421.67	1886.47
421.86	1907.54
422.05	1982.43
422.24	2099.46
422.43	2064.35
422.61	2038.61
422.80	2080.74
422.99	2045.63
423.18	2054.99
423.37	2076.06
423.56	2012.86
423.75	2043.29
423.94	1987.11
424.13	1949.67
424.32	2054.99
424.50	2036.27
424.69	2106.48
424.88	2024.56
425.07	1952.01
425.26	1987.11
425.45	2040.95
425.64	2047.97
425.83	2057.33
426.01	2076.06
426.20	2146.27
426.39	2118.18
426.58	2017.54
426.77	2062.01
426.96	2040.95
427.15	2148.61
427.33	2099.46
427.52	2043.29
427.71	2181.38
427.90	2139.25
428.09	2169.68
428.28	2134.57
428.46	2249.25
428.65	2242.23
428.84	2197.76
429.03	2186.06
429.22	2132.23
429.40	2200.10
429.59	2211.81
429.78	2134.57
429.97	2143.93
430.16	2246.91
430.34	2289.04
430.53	2230.53
430.72	2218.83
430.91	2300.75
431.10	2279.68
431.28	2239.89
431.47	2277.34
431.66	2361.60
431.85	2282.02
432.03	2230.53
432.22	2345.22
432.41	2296.07
432.60	2279.68
432.79	2352.24
432.97	2363.94
433.16	2382.67
433.35	2406.07
433.54	2307.77
433.72	2422.45
433.91	2478.63
434.10	2345.22
434.28	2445.86
434.47	2480.97
434.66	2513.74
434.85	2506.71
435.03	2637.78
435.22	2803.96
435.41	2923.33
435.59	2825.03
435.78	2731.41
435.97	2787.58
436.16	2700.98
436.34	2478.63
436.53	2600.34
436.72	2462.24
436.90	2495.01
437.09	2579.27
437.28	2431.82
437.46	2513.74
437.65	2562.89
437.84	2429.48
438.02	2576.93
438.21	2537.14
438.40	2530.12
438.58	2583.95
438.77	2654.17
438.96	2621.40
439.14	2555.86
439.33	2717.36
439.52	2775.88
439.70	2619.06
439.89	2818.00
440.08	2757.15
440.26	2731.41
440.45	2693.96
440.63	2731.41
440.82	2771.19
441.01	2733.75
441.19	2792.26
441.38	2876.52
441.57	2724.38
441.75	2883.54
441.94	2923.33
442.12	2960.78
442.31	2984.18
442.50	3007.59
442.68	2928.01
442.87	2920.99
443.05	2953.76
443.24	3045.04
443.43	2993.55
443.61	3002.91
443.80	3042.70
443.98	2752.47
444.17	2850.77
444.35	2932.69
444.54	2970.14
444.73	3061.42
444.91	3038.02
445.10	3068.44
445.28	2965.46
445.47	2991.20
445.65	3033.33
445.84	2932.69
446.02	2988.86
446.21	3040.36
446.39	3002.91
446.58	2951.42
446.77	3080.14
446.95	2920.99
447.14	3012.27
447.32	2949.08
447.51	3103.55
447.69	2920.99
447.88	3133.98
448.06	3112.91
448.25	3150.36
448.43	2967.80
448.62	3087.17
448.80	2984.18
448.99	3056.74
449.17	3180.79
449.36	3141.00
449.54	3103.55
449.73	3220.58
449.91	3215.90
450.10	3239.30
450.28	3143.34
450.46	3220.58
450.65	3208.87
450.83	3246.32
451.02	3251.00
451.20	3361.01
451.39	3272.07
451.57	3260.37
451.76	3311.86
451.94	3311.86
452.13	3258.03
452.31	3323.56
452.49	3368.03
452.68	3346.97
452.86	3372.71
453.05	3316.54
453.23	3279.09
453.42	3447.61
453.60	3253.34
453.78	3377.39
453.97	3377.39
454.15	3243.98
454.34	3246.32
454.52	3389.10
454.70	3419.52
454.89	3550.59
455.07	3435.91
455.26	3335.26
455.44	3452.29
455.62	3588.04
455.81	3501.44
455.99	3492.08
456.17	3534.21
456.36	3489.74
456.54	3543.57
456.73	3646.55
456.91	3695.71
457.09	3679.32
457.28	3574.00
457.46	3527.19
457.64	3669.96
457.83	3634.85
458.01	3405.48
458.19	3803.37
458.38	3648.90
458.56	3679.32
458.74	3688.68
458.93	3618.47
459.11	3609.11
459.29	3705.07
459.48	3770.60
459.66	3815.07
459.84	3742.52
460.03	3857.20
460.21	3810.39
460.39	3791.67
460.57	3852.52
460.76	3873.59
460.94	3810.39
461.12	3829.12
461.31	3873.59
461.49	3840.82
461.67	3794.01
461.85	3754.22
462.04	3829.12
462.22	4060.83
462.40	3875.93
462.59	4046.79
462.77	3896.99
462.95	3871.25
463.13	3878.27
463.32	3915.72
463.50	3915.72
463.68	4081.89
463.86	4091.26
464.05	3983.59
464.23	4021.04
464.41	4086.58
464.59	3880.61
464.78	4124.02
464.96	4035.08
465.14	3896.99
465.32	4053.81
465.50	4032.74
465.69	4056.15
465.87	4091.26
466.05	4037.42
466.23	4011.68
466.41	4119.34
466.60	4119.34
466.78	4105.30
466.96	4039.76
467.14	4032.74
467.32	4074.87
467.51	4198.92
467.69	4023.38
467.87	4231.69
468.05	4196.58
468.23	4203.60
468.41	4084.23
468.60	4198.92
468.78	4147.43
468.96	4191.90
469.14	4306.59
469.32	4278.50
469.50	4236.37
469.69	4198.92
469.87	4285.52
470.05	4299.56
470.23	4362.76
470.41	4187.22
470.59	4376.80
470.77	4374.46
470.95	4388.50
471.14	4437.66
471.32	4318.29
471.50	4468.08
471.68	4451.70
471.86	4374.46
472.04	4337.01
472.22	4610.86
472.40	4372.12
472.58	4559.36
472.77	4636.60
472.95	4540.64
473.13	4620.22
473.31	4521.92
473.49	4648.30
473.67	4629.58
473.85	4725.54
474.03	4725.54
474.21	4711.50
474.39	4795.76
474.57	4699.80
474.75	4870.65
474.93	4877.68
475.12	4793.42
475.30	4781.71
475.48	4748.95
475.66	4868.31
475.84	4842.57
476.02	4830.87
476.20	4954.91
476.38	5039.17
476.56	5146.84
476.74	4957.25
476.92	4992.36
477.10	5090.67
477.28	5064.92
477.46	5188.97
477.64	5191.31
477.82	5125.77
478.00	5387.91
478.18	5308.34
478.36	5254.50
478.54	5444.09
478.72	5430.04
478.90	5511.96
479.08	5516.64
479.26	5610.26
479.44	5502.60
479.62	5493.24
479.80	5685.16
479.98	5783.46
480.16	5783.46
480.34	5750.70
480.52	5858.36
480.70	5811.55
480.88	5837.30
481.06	5788.14
481.24	5919.21
481.41	5928.58
481.59	6104.12
481.77	6076.03
481.95	6045.60
482.13	6214.12
482.31	5959.00
482.49	6246.89
482.67	6260.93
482.85	6338.17
483.03	6326.47
483.21	6345.19
483.39	6239.87
483.57	6359.24
483.74	6593.29
483.92	6530.09
484.10	6429.45
484.28	6609.67
484.46	6860.11
484.64	7000.54
484.82	6675.21
485.00	6789.89
485.18	6953.73
485.35	6789.89
485.53	6911.60
485.71	7197.15
485.89	7192.47
486.07	7019.27
486.25	7190.13
486.43	7253.32
486.61	7349.28
486.78	7513.12
486.96	7262.68
487.14	7480.35
487.32	7349.28
487.50	7475.67
487.68	7606.74
487.85	7770.58
488.03	7955.48
488.21	8173.15
488.39	7845.48
488.57	7637.17
488.75	7845.48
488.92	8091.23
489.10	7962.50
489.28	7962.50
489.46	8077.19
489.64	8060.80
489.81	8180.17
489.99	8229.32
490.17	8168.47
490.35	8376.78
490.53	8435.29
490.70	8542.96
490.88	8414.23
491.06	8641.26
491.24	8482.10
491.41	8573.38
491.59	8613.17
491.77	8765.31
491.95	8762.97
492.13	8905.74
492.30	8723.18
492.48	8896.38
492.66	9022.77
492.84	9107.02
493.01	9018.08
493.19	9142.13
493.37	9076.60
493.54	9270.86
493.72	9289.59
493.90	9284.91
494.08	9301.29
494.25	9355.12
494.43	9343.42
494.61	9582.15
494.79	9425.34
494.96	9558.75
495.14	9610.24
495.32	9657.05
495.49	9799.82
495.67	9675.77
495.85	9853.66
496.02	9811.53
496.20	9769.40
496.38	9853.66
496.55	9668.75
496.73	10260.91
496.91	10080.69
497.09	10054.94
497.26	9982.38
497.44	10094.73
497.62	10291.34
497.79	10375.59
497.97	10384.96
498.14	10441.13
498.32	10317.08
498.50	10303.04
498.67	10565.18
498.85	10312.40
499.03	10537.09
499.20	10593.26
499.38	10558.16
499.56	10626.03
499.73	10855.40
499.91	10476.24
500.08	10761.78
500.26	10579.22
500.44	10710.29
500.61	10850.72
500.79	10937.32
500.97	10923.28
501.14	11117.54
501.32	11098.82
501.49	11147.97
501.67	11183.08
501.84	10981.79
502.02	11112.86
502.20	11044.99
502.37	11304.79
502.55	11131.59
502.72	11269.68
502.90	11396.07
503.07	11304.79
503.25	11257.98
503.43	11129.25
503.60	11482.67
503.78	11613.74
503.95	11564.59
504.13	11463.94
504.30	11550.54
504.48	11679.27
504.65	11817.36
504.83	11716.72
505.01	11946.09
505.18	11438.20
505.36	11810.34
505.53	11857.15
505.71	11793.96
505.88	11901.62
506.06	11960.14
506.23	11969.50
506.41	11894.60
506.58	11824.39
506.76	11922.69
506.93	12053.76
507.11	12210.57
507.28	11992.90
507.46	11896.94
507.63	12271.43
507.81	12301.86
507.98	12131.00
508.16	12250.36
508.33	12266.75
508.50	12589.74
508.68	12578.04
508.85	12599.10
509.03	12587.40
509.20	12575.70
509.38	12711.45
509.55	12725.49
509.73	12559.31
509.90	12896.35
510.08	12493.78
510.25	12657.62
510.42	12798.05
510.60	12901.03
510.77	12891.67
510.95	12826.14
511.12	12706.77
511.30	12947.84
511.47	12826.14
511.64	13123.38
511.82	13083.59
511.99	12912.74
512.17	12973.59
512.34	13034.44
512.51	13057.85
512.69	13219.35
512.86	13408.93
513.04	13095.30
513.21	13193.60
513.38	13193.60
513.56	13083.59
513.73	13254.45
513.90	13600.85
514.08	13345.73
514.25	13610.22
514.43	13383.18
514.60	13535.32
514.77	13357.44
514.95	13668.73
515.12	13497.87
515.29	13551.70
515.47	13752.99
515.64	13888.74
515.81	13963.64
515.99	14054.92
516.16	13549.36
516.33	13797.46
516.51	13937.89
516.68	13769.37
516.85	13991.72
517.03	14127.47
517.20	14038.53
517.37	13930.87
517.54	13865.33
517.72	14155.56
517.89	14120.45
518.06	13853.63
518.24	14183.65
518.41	13961.30
518.58	14111.09
518.75	14127.47
518.93	13947.25
519.10	14263.22
519.27	14235.14
519.45	14263.22
519.62	14300.67
519.79	14356.85
519.96	14307.69
520.14	14445.79
520.31	14459.83
520.48	14562.81
520.65	14508.98
520.83	14637.71
521.00	14581.54
521.17	14661.12
521.34	14874.10
521.52	14270.25
521.69	14794.53
521.86	14476.21
522.03	14759.42
522.20	14782.82
522.38	15131.56
522.55	14939.64
522.72	14815.59
522.89	14932.62
523.07	15115.18
523.24	14787.50
523.41	14803.89
523.58	15075.39
523.75	14876.44
523.92	15105.82
524.10	15035.60
524.27	14953.68
524.44	15070.71
524.61	15201.78
524.78	15374.98
524.96	15012.20
525.13	14899.85
525.30	15447.54
525.47	15543.50
525.64	15421.79
525.81	15332.85
525.98	15473.28
526.16	15335.19
526.33	15339.87
526.50	15426.47
526.67	15250.93
526.84	15499.03
527.01	15484.98
527.18	15330.51
527.36	15426.47
527.53	15578.61
527.70	15531.80
527.87	15403.07
528.04	15484.98
528.21	15852.45
528.38	15527.11
528.55	15843.09
528.72	15468.60
528.89	15845.43
529.07	15573.92
529.24	15676.91
529.41	15805.64
529.58	15929.69
529.75	15838.41
529.92	16032.67
530.09	15838.41
530.26	15693.29
530.43	15983.52
530.60	15971.82
530.77	15583.29
530.94	16121.61
531.11	15761.17
531.28	15852.45
531.46	15985.86
531.63	15953.09
531.80	15892.24
531.97	15983.52
532.14	15793.94
532.31	16278.43
532.48	16292.47
532.65	16451.63
532.82	16126.29
532.99	16358.00
533.16	16285.45
533.33	16229.27
533.50	16505.46
533.67	16374.39
533.84	16311.19
534.01	16168.42
534.18	16472.69
534.35	16285.45
534.52	16376.73
534.69	16362.69
534.86	16149.70
535.03	16350.98
535.20	16545.25
535.37	16688.02
535.54	16566.31
535.71	16203.53
535.88	16681.00
536.05	16828.45
536.22	16805.05
536.38	16414.18
536.55	16568.65
536.72	16683.34
536.89	16669.30
537.06	16702.06
537.23	16755.90
537.40	17034.42
537.57	16774.62
537.74	16886.97
537.91	16718.45
538.08	16872.92
538.25	16556.95
538.42	16908.03
538.59	16978.25
538.75	16882.28
538.92	17022.72
539.09	17050.80
539.26	17069.53
539.43	17114.00
539.60	16896.33
539.77	17401.88
539.94	17221.66
540.11	17359.75
540.28	17158.47
540.44	17392.52
540.61	17062.51
540.78	17277.83
540.95	17448.69
541.12	17696.79
541.29	17748.28
541.46	17617.21
541.62	17804.46
541.79	17710.83
541.96	17434.65
542.13	17673.39
542.30	17348.05
542.47	17755.30
542.63	17710.83
542.80	18080.64
542.97	17937.87
543.14	18150.85
543.31	17834.88
543.48	18005.74
543.64	18153.20
543.81	18075.96
543.98	17937.87
544.15	17841.90
544.32	18162.56
544.48	18214.05
544.65	18192.98
544.82	18354.48
544.99	17984.68
545.16	18209.37
545.32	18286.61
545.49	18452.78
545.66	19077.71
545.83	19201.76
546.00	19073.03
546.16	18860.04
546.33	18586.19
546.50	18270.22
546.67	18490.23
546.83	18087.66
547.00	18108.72
547.17	18111.07
547.34	17729.56
547.50	17668.70
547.67	18310.01
547.84	18281.92
548.00	18174.26
548.17	18443.42
548.34	18345.12
548.51	18003.40
548.67	18066.60
548.84	18237.45
549.01	18115.75
549.18	17968.29
549.34	18515.98
549.51	18017.44
549.68	18497.25
549.84	18160.22
550.01	18223.41
550.18	18068.94
550.34	17994.04
550.51	18326.39
550.68	18501.93
550.84	17951.91
551.01	18368.52
551.18	18253.84
551.34	18302.99
551.51	18284.26
551.68	18274.90
551.84	18178.94
552.01	18532.36
552.18	18118.09
552.34	18345.12
552.51	18106.38
552.68	18174.26
552.84	18319.37
553.01	18286.61
553.18	18075.96
553.34	18298.31
553.51	18317.03
553.67	18134.47
553.84	18689.18
554.01	18476.19
554.17	18412.99
554.34	18398.95
554.51	18527.68
554.67	18417.68
554.84	18560.45
555.00	18293.63
555.17	18225.75
555.33	18520.66
555.50	18317.03
555.67	18274.90
555.83	18473.85
556.00	18185.96
556.16	18787.48
556.33	18583.85
556.50	18735.99
556.66	18483.21
556.83	18300.65
556.99	18628.32
557.16	18553.43
557.32	18630.66
557.49	18642.37
557.65	18312.35
557.82	18305.33
557.98	18537.04
558.15	18675.13
558.32	18525.34
558.48	18438.74
558.65	18684.50
558.81	18511.30
558.98	18750.03
559.14	18546.40
559.31	18684.50
559.47	18544.06
559.64	18705.56
559.80	18499.59
559.97	18689.18
560.13	18513.64
560.30	18457.46
560.46	18616.62
560.63	18642.37
560.79	18698.54
560.96	18895.14
561.12	18815.57
561.29	18759.39
561.45	18796.84
561.61	19140.90
561.78	18768.76
561.94	18860.04
562.11	18633.00
562.27	18808.54
562.44	18611.94
562.60	18752.37
562.77	18831.95
562.93	18644.71
563.10	18579.17
563.26	18792.16
563.42	18944.30
563.59	18801.52
563.75	18934.93
563.92	18700.88
564.08	18831.95
564.24	19101.11
564.41	18677.48
564.57	18668.11
564.74	18497.25
564.90	18855.36
565.07	18822.59
565.23	18963.02
565.39	19201.76
565.56	19185.37
565.72	18750.03
565.88	18932.59
566.05	18633.00
566.21	18848.33
566.38	18768.76
566.54	18925.57
566.70	19028.56
566.87	19000.47
567.03	18890.46
567.19	19346.87
567.36	18871.74
567.52	18691.52
567.68	18661.09
567.85	19002.81
568.01	18951.32
568.17	18775.78
568.34	18963.02
568.50	18831.95
568.66	18867.06
568.83	18803.86
568.99	18827.27
569.15	18841.31
569.32	18782.80
569.48	18656.41
569.64	18813.23
569.81	18574.49
569.97	19014.51
570.13	19061.32
570.30	19108.13
570.46	18904.51
570.62	19220.48
570.78	19290.70
570.95	18738.33
571.11	19166.65
571.27	19089.41
571.43	18958.34
571.60	18766.42
571.76	18958.34
571.92	19063.66
572.09	18796.84
572.25	19098.77
572.41	19033.24
572.57	19208.78
572.74	19276.65
572.90	19040.26
573.06	18998.13
573.22	18899.83
573.38	19136.22
573.55	19094.09
573.71	18827.27
573.87	19239.20
574.03	19243.88
574.20	18895.14
574.36	19000.47
574.52	18778.12
574.68	18925.57
574.84	19066.00
575.01	18965.36
575.17	19035.58
575.33	19161.97
575.49	19176.01
575.65	19161.97
575.82	19061.32
575.98	18871.74
576.14	19332.82
576.30	19136.22
576.46	19410.06
576.62	18794.50
576.79	19403.04
576.95	19475.60
577.11	19009.83
577.27	19342.19
577.43	19070.68
577.59	19091.75
577.75	19002.81
577.92	18988.77
578.08	18834.29
578.24	18827.27
578.40	19470.92
578.56	19178.35
578.72	19400.70
578.88	19819.66
579.04	19164.31
579.21	19136.22
579.37	19012.17
579.53	19257.93
579.69	19140.90
579.85	19339.85
580.01	19295.38
580.17	19534.11
580.33	18904.51
580.49	19356.23
580.65	19405.38
580.82	19131.54
580.98	19358.57
581.14	19379.64
581.30	19377.30
581.46	19185.37
581.62	18892.80
581.78	18845.99
581.94	19037.92
582.10	18991.11
582.26	19117.50
582.42	19267.29
582.58	19192.39
582.74	19393.68
582.90	19070.68
583.06	19419.42
583.22	19204.10
583.38	19112.81
583.54	19176.01
583.70	19372.61
583.86	19398.36
584.02	19246.23
584.18	19241.54
584.34	19417.08
584.50	18925.57
584.66	18911.53
584.82	18988.77
584.98	18988.77
585.14	19154.94
585.30	19304.74
585.46	18956.00
585.62	19236.86
585.78	19358.57
585.94	18965.36
586.10	19295.38
586.26	19194.73
586.42	19040.26
586.58	19232.18
586.74	19222.82
586.90	19316.44
587.06	19014.51
587.22	19466.24
587.38	19410.06
587.54	19367.93
587.70	19524.75
587.86	19339.85
588.02	19400.70
588.18	19297.72
588.34	19396.02
588.49	19300.06
588.65	19051.96
588.81	19241.54
588.97	19321.12
589.13	19431.13
589.29	19096.43
589.45	19424.11
589.61	19559.86
589.77	19447.51
589.93	19068.34
590.08	19173.67
590.24	19349.21
590.40	19428.79
590.56	19227.50
590.72	19248.57
590.88	19129.20
591.04	19234.52
591.20	19328.14
591.35	19386.66
591.51	19719.01
