SpectraSuite Data File
++++++++++++++++++++++++++++++++++++
Date: Thu Oct 24 13:21:01 EDT 2013
User: stostad
Dark Spectrum Present: No
Reference Spectrum Present: No
Number of Sampled Component Spectra: 1
Spectrometers: USB2+H05261
Integration Time (usec): 100000 (USB2+H05261)
Spectra Averaged: 1 (USB2+H05261)
Boxcar Smoothing: 0 (USB2+H05261)
Correct for Electrical Dark: No (USB2+H05261)
Strobe/Lamp Enabled: No (USB2+H05261)
Correct for Detector Non-linearity: No (USB2+H05261)
Correct for Stray Light: No (USB2+H05261)
Number of Pixels in Processed Spectrum: 2048
>>>>>Begin Processed Spectral Data<<<<<
365.73	566.41
365.92	566.41
366.12	566.41
366.32	512.58
366.52	479.81
366.72	491.51
366.91	491.51
367.11	451.72
367.31	383.85
367.51	430.66
367.70	433.00
367.90	409.59
368.10	414.27
368.30	486.83
368.49	475.13
368.69	543.00
368.89	507.90
369.09	444.70
369.28	428.32
369.48	475.13
369.68	521.94
369.87	514.92
370.07	500.87
370.27	512.58
370.47	561.73
370.66	599.18
370.86	580.45
371.06	613.22
371.25	552.37
371.45	526.62
371.65	571.09
371.84	601.52
372.04	561.73
372.24	580.45
372.44	624.92
372.63	613.22
372.83	657.69
373.03	615.56
373.22	601.52
373.42	561.73
373.62	624.92
373.81	671.73
374.01	592.16
374.21	643.65
374.40	594.50
374.60	617.90
374.79	655.35
374.99	564.07
375.19	671.73
375.38	690.46
375.58	657.69
375.78	606.20
375.97	645.99
376.17	648.33
376.37	610.88
376.56	662.37
376.76	599.18
376.95	585.13
377.15	634.29
377.35	657.69
377.54	615.56
377.74	624.92
377.93	610.88
378.13	592.16
378.33	671.73
378.52	564.07
378.72	622.58
378.91	699.82
379.11	615.56
379.31	615.56
379.50	594.50
379.70	599.18
379.89	634.29
380.09	552.37
380.28	587.47
380.48	620.24
380.68	615.56
380.87	601.52
381.07	645.99
381.26	671.73
381.46	697.48
381.65	580.45
381.85	575.77
382.04	648.33
382.24	561.73
382.43	587.47
382.63	582.79
382.83	638.97
383.02	716.20
383.22	674.07
383.41	645.99
383.61	589.82
383.80	606.20
384.00	629.60
384.19	648.33
384.39	603.86
384.58	624.92
384.78	566.41
384.97	596.84
385.17	662.37
385.36	638.97
385.56	678.76
385.75	617.90
385.95	592.16
386.14	594.50
386.34	603.86
386.53	660.03
386.72	645.99
386.92	606.20
387.11	638.97
387.31	601.52
387.50	564.07
387.70	641.31
387.89	681.10
388.09	655.35
388.28	592.16
388.48	657.69
388.67	624.92
388.86	615.56
389.06	608.54
389.25	627.26
389.45	645.99
389.64	585.13
389.84	645.99
390.03	660.03
390.22	702.16
390.42	678.76
390.61	645.99
390.81	648.33
391.00	641.31
391.19	631.94
391.39	571.09
391.58	566.41
391.78	629.60
391.97	620.24
392.16	608.54
392.36	606.20
392.55	606.20
392.75	566.41
392.94	676.41
393.13	629.60
393.33	573.43
393.52	610.88
393.71	667.05
393.91	629.60
394.10	631.94
394.29	627.26
394.49	599.18
394.68	601.52
394.88	650.67
395.07	617.90
395.26	606.20
395.46	543.00
395.65	613.22
395.84	678.76
396.04	622.58
396.23	641.31
396.42	674.07
396.62	660.03
396.81	617.90
397.00	636.63
397.19	568.75
397.39	641.31
397.58	648.33
397.77	573.43
397.97	617.90
398.16	660.03
398.35	540.66
398.55	557.05
398.74	638.97
398.93	638.97
399.12	578.11
399.32	613.22
399.51	645.99
399.70	648.33
399.90	580.45
400.09	634.29
400.28	622.58
400.47	629.60
400.67	622.58
400.86	573.43
401.05	631.94
401.24	641.31
401.44	617.90
401.63	615.56
401.82	624.92
402.01	589.82
402.21	601.52
402.40	657.69
402.59	599.18
402.78	620.24
402.97	662.37
403.17	603.86
403.36	606.20
403.55	648.33
403.74	582.79
403.93	706.84
404.13	657.69
404.32	699.82
404.51	727.91
404.70	716.20
404.89	655.35
405.09	650.67
405.28	599.18
405.47	627.26
405.66	657.69
405.85	627.26
406.05	620.24
406.24	596.84
406.43	606.20
406.62	662.37
406.81	678.76
407.00	566.41
407.20	674.07
407.39	655.35
407.58	641.31
407.77	622.58
407.96	685.78
408.15	601.52
408.34	636.63
408.54	622.58
408.73	622.58
408.92	629.60
409.11	613.22
409.30	608.54
409.49	613.22
409.68	641.31
409.87	571.09
410.07	615.56
410.26	615.56
410.45	620.24
410.64	599.18
410.83	655.35
411.02	596.84
411.21	669.39
411.40	653.01
411.59	674.07
411.78	580.45
411.98	552.37
412.17	613.22
412.36	594.50
412.55	606.20
412.74	589.82
412.93	559.39
413.12	582.79
413.31	638.97
413.50	641.31
413.69	575.77
413.88	641.31
414.07	662.37
414.26	636.63
414.45	636.63
414.64	566.41
414.83	622.58
415.02	613.22
415.22	643.65
415.41	655.35
415.60	606.20
415.79	610.88
415.98	638.97
416.17	685.78
416.36	613.22
416.55	631.94
416.74	720.88
416.93	641.31
417.12	603.86
417.31	617.90
417.50	643.65
417.69	648.33
417.88	631.94
418.07	657.69
418.26	620.24
418.45	587.47
418.64	622.58
418.83	660.03
419.02	578.11
419.21	564.07
419.39	674.07
419.58	631.94
419.77	667.05
419.96	653.01
420.15	631.94
420.34	610.88
420.53	613.22
420.72	641.31
420.91	657.69
421.10	650.67
421.29	657.69
421.48	631.94
421.67	638.97
421.86	657.69
422.05	550.03
422.24	702.16
422.43	620.24
422.61	662.37
422.80	636.63
422.99	657.69
423.18	545.34
423.37	620.24
423.56	669.39
423.75	699.82
423.94	603.86
424.13	603.86
424.32	634.29
424.50	617.90
424.69	627.26
424.88	629.60
425.07	638.97
425.26	610.88
425.45	667.05
425.64	624.92
425.83	587.47
426.01	552.37
426.20	603.86
426.39	610.88
426.58	573.43
426.77	599.18
426.96	660.03
427.15	638.97
427.33	678.76
427.52	655.35
427.71	627.26
427.90	655.35
428.09	645.99
428.28	594.50
428.46	683.44
428.65	629.60
428.84	608.54
429.03	690.46
429.22	657.69
429.40	620.24
429.59	662.37
429.78	657.69
429.97	702.16
430.16	620.24
430.34	603.86
430.53	608.54
430.72	620.24
430.91	671.73
431.10	608.54
431.28	606.20
431.47	587.47
431.66	645.99
431.85	629.60
432.03	645.99
432.22	622.58
432.41	645.99
432.60	645.99
432.79	582.79
432.97	578.11
433.16	629.60
433.35	657.69
433.54	571.09
433.72	566.41
433.91	678.76
434.10	580.45
434.28	655.35
434.47	636.63
434.66	643.65
434.85	718.54
435.03	894.08
435.22	1043.88
435.41	1146.86
435.59	1156.22
435.78	947.92
435.97	901.11
436.16	809.83
436.34	674.07
436.53	683.44
436.72	681.10
436.90	613.22
437.09	615.56
437.28	627.26
437.46	615.56
437.65	601.52
437.84	662.37
438.02	638.97
438.21	631.94
438.40	568.75
438.58	620.24
438.77	645.99
438.96	580.45
439.14	669.39
439.33	692.80
439.52	585.13
439.70	667.05
439.89	636.63
440.08	662.37
440.26	615.56
440.45	692.80
440.63	610.88
440.82	585.13
441.01	655.35
441.19	592.16
441.38	664.71
441.57	671.73
441.75	650.67
441.94	603.86
442.12	617.90
442.31	634.29
442.50	657.69
442.68	578.11
442.87	692.80
443.05	599.18
443.24	704.50
443.43	734.93
443.61	608.54
443.80	622.58
443.98	587.47
444.17	606.20
444.35	655.35
444.54	627.26
444.73	631.94
444.91	631.94
445.10	589.82
445.28	617.90
445.47	662.37
445.65	629.60
445.84	657.69
446.02	622.58
446.21	624.92
446.39	681.10
446.58	648.33
446.77	634.29
446.95	636.63
447.14	617.90
447.32	653.01
447.51	603.86
447.69	568.75
447.88	617.90
448.06	685.78
448.25	683.44
448.43	615.56
448.62	566.41
448.80	622.58
448.99	627.26
449.17	645.99
449.36	601.52
449.54	676.41
449.73	580.45
449.91	664.71
450.10	683.44
450.28	683.44
450.46	713.86
450.65	622.58
450.83	610.88
451.02	594.50
451.20	641.31
451.39	643.65
451.57	638.97
451.76	674.07
451.94	603.86
452.13	585.13
452.31	557.05
452.49	657.69
452.68	636.63
452.86	643.65
453.05	697.48
453.23	615.56
453.42	643.65
453.60	713.86
453.78	594.50
453.97	620.24
454.15	594.50
454.34	662.37
454.52	608.54
454.70	676.41
454.89	648.33
455.07	582.79
455.26	585.13
455.44	601.52
455.62	620.24
455.81	669.39
455.99	592.16
456.17	613.22
456.36	629.60
456.54	648.33
456.73	638.97
456.91	603.86
457.09	627.26
457.28	636.63
457.46	671.73
457.64	617.90
457.83	648.33
458.01	674.07
458.19	697.48
458.38	615.56
458.56	662.37
458.74	634.29
458.93	627.26
459.11	713.86
459.29	667.05
459.48	629.60
459.66	664.71
459.84	613.22
460.03	662.37
460.21	620.24
460.39	678.76
460.57	596.84
460.76	631.94
460.94	655.35
461.12	596.84
461.31	657.69
461.49	638.97
461.67	653.01
461.85	676.41
462.04	587.47
462.22	936.21
462.40	667.05
462.59	732.59
462.77	739.61
462.95	732.59
463.13	580.45
463.32	610.88
463.50	653.01
463.68	596.84
463.86	617.90
464.05	662.37
464.23	631.94
464.41	631.94
464.59	645.99
464.78	615.56
464.96	634.29
465.14	638.97
465.32	676.41
465.50	755.99
465.69	676.41
465.87	699.82
466.05	624.92
466.23	608.54
466.41	678.76
466.60	662.37
466.78	617.90
466.96	608.54
467.14	629.60
467.32	681.10
467.51	741.95
467.69	643.65
467.87	669.39
468.05	641.31
468.23	650.67
468.41	650.67
468.60	594.50
468.78	631.94
468.96	629.60
469.14	629.60
469.32	603.86
469.50	664.71
469.69	669.39
469.87	627.26
470.05	610.88
470.23	617.90
470.41	655.35
470.59	660.03
470.77	688.12
470.95	720.88
471.14	608.54
471.32	620.24
471.50	685.78
471.68	596.84
471.86	641.31
472.04	610.88
472.22	512.58
472.40	667.05
472.58	667.05
472.77	599.18
472.95	664.71
473.13	713.86
473.31	662.37
473.49	643.65
473.67	557.05
473.85	662.37
474.03	655.35
474.21	667.05
474.39	641.31
474.57	638.97
474.75	690.46
474.93	601.52
475.12	568.75
475.30	695.14
475.48	601.52
475.66	636.63
475.84	582.79
476.02	624.92
476.20	645.99
476.38	657.69
476.56	657.69
476.74	636.63
476.92	620.24
477.10	601.52
477.28	620.24
477.46	662.37
477.64	688.12
477.82	655.35
478.00	657.69
478.18	641.31
478.36	653.01
478.54	683.44
478.72	662.37
478.90	592.16
479.08	634.29
479.26	573.43
479.44	678.76
479.62	627.26
479.80	685.78
479.98	669.39
480.16	622.58
480.34	662.37
480.52	613.22
480.70	641.31
480.88	594.50
481.06	587.47
481.24	688.12
481.41	697.48
481.59	592.16
481.77	645.99
481.95	641.31
482.13	669.39
482.31	676.41
482.49	688.12
482.67	671.73
482.85	587.47
483.03	613.22
483.21	720.88
483.39	688.12
483.57	741.95
483.74	636.63
483.92	699.82
484.10	660.03
484.28	669.39
484.46	702.16
484.64	695.14
484.82	650.67
485.00	746.63
485.18	620.24
485.35	685.78
485.53	734.93
485.71	751.31
485.89	723.23
486.07	746.63
486.25	746.63
486.43	702.16
486.61	758.33
486.78	770.04
486.96	669.39
487.14	760.67
487.32	781.74
487.50	697.48
487.68	770.04
487.85	699.82
488.03	627.26
488.21	732.59
488.39	730.25
488.57	746.63
488.75	688.12
488.92	823.87
489.10	711.52
489.28	767.70
489.46	718.54
489.64	716.20
489.81	716.20
489.99	704.50
490.17	718.54
490.35	678.76
490.53	718.54
490.70	767.70
490.88	716.20
491.06	695.14
491.24	690.46
491.41	702.16
491.59	809.83
491.77	676.41
491.95	690.46
492.13	688.12
492.30	755.99
492.48	667.05
492.66	671.73
492.84	653.01
493.01	767.70
493.19	650.67
493.37	763.01
493.54	774.72
493.72	655.35
493.90	688.12
494.08	723.23
494.25	688.12
494.43	713.86
494.61	655.35
494.79	702.16
494.96	730.25
495.14	711.52
495.32	681.10
495.49	662.37
495.67	641.31
495.85	704.50
496.02	704.50
496.20	706.84
496.38	688.12
496.55	713.86
496.73	702.16
496.91	730.25
497.09	763.01
497.26	702.16
497.44	634.29
497.62	561.73
497.79	631.94
497.97	702.16
498.14	629.60
498.32	648.33
498.50	650.67
498.67	676.41
498.85	732.59
499.03	608.54
499.20	631.94
499.38	667.05
499.56	676.41
499.73	692.80
499.91	725.57
500.08	688.12
500.26	636.63
500.44	709.18
500.61	648.33
500.79	676.41
500.97	645.99
501.14	690.46
501.32	660.03
501.49	692.80
501.67	699.82
501.84	704.50
502.02	706.84
502.20	653.01
502.37	695.14
502.55	681.10
502.72	648.33
502.90	723.23
503.07	636.63
503.25	660.03
503.43	636.63
503.60	716.20
503.78	725.57
503.95	606.20
504.13	641.31
504.30	667.05
504.48	744.29
504.65	683.44
504.83	582.79
505.01	641.31
505.18	711.52
505.36	580.45
505.53	634.29
505.71	669.39
505.88	671.73
506.06	554.71
506.23	599.18
506.41	709.18
506.58	641.31
506.76	589.82
506.93	638.97
507.11	655.35
507.28	631.94
507.46	671.73
507.63	664.71
507.81	636.63
507.98	638.97
508.16	653.01
508.33	660.03
508.50	674.07
508.68	613.22
508.85	629.60
509.03	655.35
509.20	676.41
509.38	603.86
509.55	638.97
509.73	704.50
509.90	631.94
510.08	638.97
510.25	669.39
510.42	660.03
510.60	650.67
510.77	702.16
510.95	744.29
511.12	660.03
511.30	636.63
511.47	685.78
511.64	657.69
511.82	638.97
511.99	713.86
512.17	606.20
512.34	667.05
512.51	636.63
512.69	657.69
512.86	667.05
513.04	645.99
513.21	641.31
513.38	655.35
513.56	648.33
513.73	706.84
513.90	660.03
514.08	592.16
514.25	645.99
514.43	655.35
514.60	631.94
514.77	608.54
514.95	592.16
515.12	627.26
515.29	601.52
515.47	634.29
515.64	603.86
515.81	636.63
515.99	674.07
516.16	613.22
516.33	657.69
516.51	702.16
516.68	624.92
516.85	667.05
517.03	655.35
517.20	664.71
517.37	617.90
517.54	638.97
517.72	657.69
517.89	664.71
518.06	608.54
518.24	585.13
518.41	660.03
518.58	613.22
518.75	634.29
518.93	653.01
519.10	568.75
519.27	669.39
519.45	641.31
519.62	674.07
519.79	667.05
519.96	657.69
520.14	648.33
520.31	713.86
520.48	636.63
520.65	624.92
520.83	662.37
521.00	657.69
521.17	681.10
521.34	561.73
521.52	751.31
521.69	702.16
521.86	627.26
522.03	667.05
522.20	671.73
522.38	620.24
522.55	653.01
522.72	594.50
522.89	648.33
523.07	561.73
523.24	620.24
523.41	655.35
523.58	636.63
523.75	641.31
523.92	692.80
524.10	648.33
524.27	624.92
524.44	629.60
524.61	624.92
524.78	613.22
524.96	608.54
525.13	636.63
525.30	664.71
525.47	594.50
525.64	648.33
525.81	627.26
525.98	674.07
526.16	645.99
526.33	653.01
526.50	669.39
526.67	580.45
526.84	594.50
527.01	641.31
527.18	660.03
527.36	688.12
527.53	603.86
527.70	613.22
527.87	636.63
528.04	645.99
528.21	709.18
528.38	631.94
528.55	699.82
528.72	596.84
528.89	664.71
529.07	575.77
529.24	603.86
529.41	599.18
529.58	645.99
529.75	627.26
529.92	648.33
530.09	657.69
530.26	589.82
530.43	636.63
530.60	589.82
530.77	648.33
530.94	629.60
531.11	608.54
531.28	664.71
531.46	645.99
531.63	629.60
531.80	622.58
531.97	727.91
532.14	631.94
532.31	667.05
532.48	690.46
532.65	706.84
532.82	678.76
532.99	709.18
533.16	655.35
533.33	655.35
533.50	645.99
533.67	702.16
533.84	695.14
534.01	655.35
534.18	648.33
534.35	671.73
534.52	662.37
534.69	725.57
534.86	706.84
535.03	692.80
535.20	711.52
535.37	676.41
535.54	706.84
535.71	723.23
535.88	748.97
536.05	624.92
536.22	620.24
536.38	688.12
536.55	685.78
536.72	739.61
536.89	660.03
537.06	716.20
537.23	702.16
537.40	709.18
537.57	720.88
537.74	781.74
537.91	748.97
538.08	800.46
538.25	798.12
538.42	720.88
538.59	711.52
538.75	781.74
538.92	730.25
539.09	779.40
539.26	844.93
539.43	861.32
539.60	889.40
539.77	905.79
539.94	891.74
540.11	908.13
540.28	947.92
540.44	959.62
540.61	1013.45
540.78	968.98
540.95	1118.78
541.12	1186.65
541.29	1233.46
541.46	1350.49
541.62	1306.02
541.79	1289.64
541.96	1366.87
542.13	1373.89
542.30	1268.57
542.47	1263.89
542.63	1280.27
542.80	1306.02
542.97	1291.98
543.14	1294.32
543.31	1254.53
543.48	1331.76
543.64	1247.51
543.81	1284.95
543.98	1245.16
544.15	1254.53
544.32	1238.14
544.48	1198.35
544.65	1270.91
544.82	1268.57
544.99	1233.46
545.16	1224.10
545.32	1322.40
545.49	1647.74
545.66	2097.12
545.83	2289.04
546.00	1998.82
546.16	1743.70
546.33	1507.30
546.50	1341.13
546.67	1306.02
546.83	1102.39
547.00	1053.24
547.17	1013.45
547.34	959.62
547.50	976.00
547.67	1004.09
547.84	903.45
548.00	959.62
548.17	957.28
548.34	997.07
548.51	983.02
548.67	945.58
548.84	971.32
549.01	868.34
549.18	931.53
549.34	863.66
549.51	933.87
549.68	901.11
549.84	851.96
550.01	851.96
550.18	798.12
550.34	833.23
550.51	840.25
550.68	856.64
550.84	809.83
551.01	854.30
551.18	793.44
551.34	812.17
551.51	753.65
551.68	772.38
551.84	772.38
552.01	781.74
552.18	777.06
552.34	770.04
552.51	741.95
552.68	730.25
552.84	711.52
553.01	791.10
553.18	732.59
553.34	739.61
553.51	734.93
553.67	744.29
553.84	741.95
554.01	690.46
554.17	706.84
554.34	695.14
554.51	653.01
554.67	720.88
554.84	718.54
555.00	755.99
555.17	709.18
555.33	699.82
555.50	688.12
555.67	667.05
555.83	660.03
556.00	709.18
556.16	709.18
556.33	674.07
556.50	690.46
556.66	631.94
556.83	711.52
556.99	650.67
557.16	697.48
557.32	669.39
557.49	685.78
557.65	624.92
557.82	660.03
557.98	671.73
558.15	704.50
558.32	653.01
558.48	678.76
558.65	660.03
558.81	648.33
558.98	683.44
559.14	711.52
559.31	676.41
559.47	746.63
559.64	678.76
559.80	676.41
559.97	655.35
560.13	629.60
560.30	631.94
560.46	699.82
560.63	713.86
560.79	692.80
560.96	627.26
561.12	629.60
561.29	676.41
561.45	657.69
561.61	676.41
561.78	704.50
561.94	650.67
562.11	641.31
562.27	702.16
562.44	657.69
562.60	653.01
562.77	662.37
562.93	748.97
563.10	634.29
563.26	645.99
563.42	699.82
563.59	655.35
563.75	594.50
563.92	692.80
564.08	615.56
564.24	688.12
564.41	617.90
564.57	641.31
564.74	657.69
564.90	648.33
565.07	685.78
565.23	650.67
565.39	692.80
565.56	695.14
565.72	617.90
565.88	683.44
566.05	631.94
566.21	660.03
566.38	629.60
566.54	627.26
566.70	648.33
566.87	648.33
567.03	587.47
567.19	657.69
567.36	744.29
567.52	657.69
567.68	650.67
567.85	692.80
568.01	624.92
568.17	676.41
568.34	650.67
568.50	664.71
568.66	662.37
568.83	697.48
568.99	641.31
569.15	617.90
569.32	610.88
569.48	610.88
569.64	650.67
569.81	629.60
569.97	653.01
570.13	706.84
570.30	599.18
570.46	638.97
570.62	660.03
570.78	657.69
570.95	636.63
571.11	667.05
571.27	763.01
571.43	624.92
571.60	671.73
571.76	730.25
571.92	699.82
572.09	631.94
572.25	695.14
572.41	575.77
572.57	641.31
572.74	653.01
572.90	643.65
573.06	617.90
573.22	657.69
573.38	648.33
573.55	615.56
573.71	674.07
573.87	695.14
574.03	580.45
574.20	603.86
574.36	664.71
574.52	650.67
574.68	627.26
574.84	685.78
575.01	622.58
575.17	573.43
575.33	643.65
575.49	718.54
575.65	660.03
575.82	653.01
575.98	627.26
576.14	674.07
576.30	664.71
576.46	809.83
576.62	968.98
576.79	854.30
576.95	966.64
577.11	816.85
577.27	732.59
577.43	720.88
577.59	718.54
577.75	746.63
577.92	599.18
578.08	688.12
578.24	688.12
578.40	720.88
578.56	891.74
578.72	905.79
578.88	903.45
579.04	896.43
579.21	786.42
579.37	748.97
579.53	809.83
579.69	812.17
579.85	784.08
580.01	774.72
580.17	725.57
580.33	753.65
580.49	746.63
580.65	753.65
580.82	746.63
580.98	713.86
581.14	809.83
581.30	711.52
581.46	706.84
581.62	770.04
581.78	716.20
581.94	734.93
582.10	786.42
582.26	786.42
582.42	711.52
582.58	805.14
582.74	711.52
582.90	755.99
583.06	821.53
583.22	821.53
583.38	772.38
583.54	809.83
583.70	774.72
583.86	727.91
584.02	753.65
584.18	835.57
584.34	725.57
584.50	835.57
584.66	814.51
584.82	770.04
584.98	760.67
585.14	751.31
585.30	732.59
585.46	795.78
585.62	758.33
585.78	720.88
585.94	812.17
586.10	763.01
586.26	823.87
586.42	858.98
586.58	767.70
586.74	894.08
586.90	950.26
587.06	915.15
587.22	961.96
587.38	884.72
587.54	894.08
587.70	877.70
587.86	835.57
588.02	875.36
588.18	805.14
588.34	798.12
588.49	781.74
588.65	723.23
588.81	774.72
588.97	692.80
589.13	737.27
589.29	720.88
589.45	737.27
589.61	723.23
589.77	774.72
589.93	767.70
590.08	758.33
590.24	774.72
590.40	723.23
590.56	805.14
590.72	737.27
590.88	739.61
591.04	765.36
591.20	709.18
591.35	784.08
591.51	781.74
591.67	753.65
591.83	739.61
591.99	716.20
592.15	774.72
592.31	760.67
592.46	802.80
592.62	837.91
592.78	814.51
592.94	816.85
593.10	727.91
593.26	805.14
593.41	814.51
593.57	807.48
593.73	795.78
593.89	739.61
594.05	770.04
594.20	755.99
594.36	751.31
594.52	753.65
594.68	734.93
594.84	741.95
594.99	734.93
595.15	723.23
595.31	681.10
595.47	814.51
595.62	716.20
595.78	641.31
595.94	748.97
596.10	751.31
596.25	730.25
596.41	746.63
596.57	692.80
596.73	725.57
596.88	671.73
597.04	695.14
597.20	781.74
597.36	746.63
597.51	669.39
597.67	688.12
597.83	631.94
597.99	720.88
598.14	671.73
598.30	685.78
598.46	706.84
598.61	744.29
598.77	779.40
598.93	681.10
599.09	798.12
599.24	697.48
599.40	800.46
599.56	791.10
599.71	753.65
599.87	730.25
600.03	676.41
600.18	730.25
600.34	676.41
600.50	727.91
600.65	620.24
600.81	791.10
600.97	664.71
601.12	706.84
601.28	744.29
601.44	723.23
601.59	690.46
601.75	638.97
601.91	770.04
602.06	770.04
602.22	723.23
602.37	671.73
602.53	688.12
602.69	681.10
602.84	688.12
603.00	610.88
603.16	599.18
603.31	723.23
603.47	685.78
603.62	674.07
603.78	580.45
603.94	748.97
604.09	720.88
604.25	683.44
604.40	706.84
604.56	723.23
604.71	653.01
604.87	650.67
605.03	660.03
605.18	664.71
605.34	653.01
605.49	695.14
605.65	653.01
605.80	692.80
605.96	648.33
606.12	695.14
606.27	711.52
606.43	688.12
606.58	744.29
606.74	732.59
606.89	763.01
607.05	753.65
607.20	718.54
607.36	770.04
607.51	734.93
607.67	795.78
607.82	685.78
607.98	779.40
608.13	765.36
608.29	730.25
608.44	779.40
608.60	774.72
608.75	819.19
608.91	837.91
609.06	816.85
609.22	849.61
609.37	866.00
609.53	880.04
609.68	950.26
