SpectraSuite Data File
++++++++++++++++++++++++++++++++++++
Date: Thu Oct 24 13:21:18 EDT 2013
User: stostad
Dark Spectrum Present: No
Reference Spectrum Present: No
Number of Sampled Component Spectra: 1
Spectrometers: USB2+H05261
Integration Time (usec): 100000 (USB2+H05261)
Spectra Averaged: 1 (USB2+H05261)
Boxcar Smoothing: 0 (USB2+H05261)
Correct for Electrical Dark: No (USB2+H05261)
Strobe/Lamp Enabled: No (USB2+H05261)
Correct for Detector Non-linearity: No (USB2+H05261)
Correct for Stray Light: No (USB2+H05261)
Number of Pixels in Processed Spectrum: 2048
>>>>>Begin Processed Spectral Data<<<<<
365.73	482.15
365.92	482.15
366.12	482.15
366.32	550.03
366.52	472.79
366.72	475.13
366.91	498.53
367.11	435.34
367.31	425.98
367.51	430.66
367.70	496.19
367.90	437.68
368.10	472.79
368.30	461.09
368.49	454.06
368.69	503.22
368.89	482.15
369.09	454.06
369.28	521.94
369.48	458.74
369.68	580.45
369.87	500.87
370.07	550.03
370.27	519.60
370.47	610.88
370.66	809.83
370.86	882.38
371.06	863.66
371.25	924.51
371.45	835.57
371.65	877.70
371.84	868.34
372.04	858.98
372.24	980.68
372.44	933.87
372.63	896.43
372.83	985.37
373.03	896.43
373.22	968.98
373.42	994.73
373.62	973.66
373.81	1001.75
374.01	936.21
374.21	1001.75
374.40	1032.18
374.60	954.94
374.79	961.96
374.99	964.30
375.19	1034.52
375.38	1015.79
375.58	1078.99
375.78	1018.13
375.97	1062.60
376.17	1048.56
376.37	943.24
376.56	1071.97
376.76	936.21
376.95	1062.60
377.15	1043.88
377.35	1095.37
377.54	1034.52
377.74	1097.71
377.93	1008.77
378.13	1048.56
378.33	1029.84
378.52	1102.39
378.72	1116.44
378.91	1083.67
379.11	1093.03
379.31	1128.14
379.50	1048.56
379.70	1067.28
379.89	1078.99
380.09	1139.84
380.28	1104.73
380.48	1114.10
380.68	1111.75
380.87	1132.82
381.07	1102.39
381.26	1121.12
381.46	1163.25
381.65	1114.10
381.85	1104.73
382.04	1151.54
382.24	1078.99
382.43	1132.82
382.63	1132.82
382.83	1057.92
383.02	1146.86
383.22	1196.01
383.41	1128.14
383.61	1210.06
383.80	1203.04
384.00	1156.22
384.19	1167.93
384.39	1231.12
384.58	1142.18
384.78	1268.57
384.97	1313.04
385.17	1200.69
385.36	1268.57
385.56	1221.76
385.75	1224.10
385.95	1277.93
386.14	1334.11
386.34	1221.76
386.53	1203.04
386.72	1261.55
386.92	1280.27
387.11	1247.51
387.31	1238.14
387.50	1191.33
387.70	1217.08
387.89	1256.87
388.09	1266.23
388.28	1336.45
388.48	1280.27
388.67	1343.47
388.86	1416.02
389.06	1336.45
389.25	1317.72
389.45	1329.42
389.64	1362.19
389.84	1355.17
390.03	1315.38
390.22	1331.76
390.42	1341.13
390.61	1343.47
390.81	1504.96
391.00	1446.45
391.19	1387.94
391.39	1401.98
391.58	1446.45
391.78	1455.81
391.97	1357.51
392.16	1369.21
392.36	1521.35
392.55	1509.65
392.75	1465.18
392.94	1558.80
393.13	1509.65
393.33	1554.12
393.52	1523.69
393.71	1479.22
393.91	1528.37
394.10	1565.82
394.29	1472.20
394.49	1493.26
394.68	1547.09
394.88	1530.71
395.07	1614.97
395.26	1612.63
395.46	1696.89
395.65	1558.80
395.84	1617.31
396.04	1724.97
396.23	1668.80
396.42	1584.54
396.62	1629.01
396.81	1640.72
397.00	1652.42
397.19	1743.70
397.39	1661.78
397.58	1636.03
397.77	1596.25
397.97	1739.02
398.16	1736.68
398.35	1664.12
398.55	1650.08
398.74	1722.63
398.93	1851.36
399.12	1823.28
399.32	1757.74
399.51	1795.19
399.70	1921.58
399.90	1839.66
400.09	1764.76
400.28	1975.41
400.47	1837.32
400.67	1804.55
400.86	1874.77
401.05	1921.58
401.24	1884.13
401.44	1898.17
401.63	1944.99
401.82	1895.83
402.01	1942.64
402.21	1954.35
402.40	2024.56
402.59	2069.03
402.78	2010.52
402.97	1987.11
403.17	2029.24
403.36	2019.88
403.55	2146.27
403.74	2136.91
403.93	2101.80
404.13	2253.94
404.32	2111.16
404.51	2155.63
404.70	2195.42
404.89	2101.80
405.09	2139.25
405.28	2242.23
405.47	2076.06
405.66	2265.64
405.85	2200.10
406.05	2279.68
406.24	2246.91
406.43	2214.15
406.62	2312.45
406.81	2352.24
407.00	2237.55
407.20	2284.36
407.39	2319.47
407.58	2363.94
407.77	2455.22
407.96	2373.30
408.15	2527.78
408.34	2368.62
408.54	2574.59
408.73	2370.96
408.92	2431.82
409.11	2492.67
409.30	2553.52
409.49	2569.91
409.68	2497.35
409.87	2485.65
410.07	2544.16
410.26	2593.31
410.45	2576.93
410.64	2588.63
410.83	2644.81
411.02	2647.15
411.21	2635.44
411.40	2708.00
411.59	2806.30
411.78	2705.66
411.98	2747.79
412.17	2850.77
412.36	2843.75
412.55	2855.45
412.74	3063.76
412.93	2906.95
413.12	2888.22
413.31	3103.55
413.50	2906.95
413.69	2883.54
413.88	3089.51
414.07	3035.67
414.26	3220.58
414.45	3119.93
414.64	3155.04
414.83	3171.43
415.02	3211.22
415.22	3248.66
415.41	3297.81
415.60	3353.99
415.79	3213.56
415.98	3396.12
416.17	3325.90
416.36	3325.90
416.55	3372.71
416.74	3426.54
416.93	3314.20
417.12	3489.74
417.31	3412.50
417.50	3412.50
417.69	3545.91
417.88	3613.79
418.07	3482.72
418.26	3487.40
418.45	3606.77
418.64	3744.86
418.83	3740.18
419.02	3646.55
419.21	3873.59
419.39	3609.11
419.58	3726.13
419.77	3602.08
419.96	3756.56
420.15	3737.84
420.34	3826.78
420.53	3985.93
420.72	3962.53
420.91	3812.73
421.10	3801.03
421.29	3894.65
421.48	3840.82
421.67	3882.95
421.86	3913.38
422.05	3885.29
422.24	3922.74
422.43	3894.65
422.61	3974.23
422.80	3981.25
422.99	3960.19
423.18	3960.19
423.37	3971.89
423.56	4007.00
423.75	4065.51
423.94	3904.01
424.13	3763.58
424.32	3857.20
424.50	4039.76
424.69	4168.49
424.88	4114.66
425.07	4098.28
425.26	3976.57
425.45	3967.21
425.64	4016.36
425.83	4102.96
426.01	4051.47
426.20	4049.13
426.39	4149.77
426.58	4084.23
426.77	4219.99
426.96	4145.09
427.15	4117.00
427.33	4093.60
427.52	4142.75
427.71	4325.31
427.90	4241.05
428.09	4304.25
428.28	4472.76
428.46	4227.01
428.65	4184.88
428.84	4339.35
429.03	4533.62
429.22	4365.10
429.40	4355.74
429.59	4500.85
429.78	4269.14
429.97	4365.10
430.16	4390.84
430.34	4432.97
430.53	4608.51
430.72	4479.79
430.91	4381.48
431.10	4472.76
431.28	4620.22
431.47	4554.68
431.66	4580.43
431.85	4613.20
432.03	4683.41
432.22	4774.69
432.41	4725.54
432.60	4805.12
432.79	4678.73
432.97	4805.12
433.16	4727.88
433.35	4741.93
433.54	4807.46
433.72	4821.50
433.91	4748.95
434.10	4938.53
434.28	4891.72
434.47	4805.12
434.66	4985.34
434.85	4983.00
435.03	5165.56
435.22	5242.80
435.41	5387.91
435.59	5427.70
435.78	5277.91
435.97	5160.88
436.16	5109.39
436.34	5172.58
436.53	5130.45
436.72	5158.54
436.90	5032.15
437.09	5205.35
437.28	5076.62
437.46	5273.23
437.65	5322.38
437.84	5298.97
438.02	5310.68
438.21	5207.69
438.40	5317.70
438.58	5507.28
438.77	5507.28
438.96	5462.81
439.14	5675.80
439.33	5638.35
439.52	5661.76
439.70	5462.81
439.89	5804.53
440.08	5769.42
440.26	5846.66
440.45	5832.62
440.63	5804.53
440.82	5731.97
441.01	5912.19
441.19	5750.70
441.38	5863.04
441.57	6155.61
441.75	6106.46
441.94	6106.46
442.12	6108.80
442.31	6085.39
442.50	6202.42
442.68	6047.94
442.87	6232.85
443.05	6284.34
443.24	6300.72
443.43	6420.09
443.61	6251.57
443.80	6420.09
443.98	6256.25
444.17	5996.45
444.35	6111.14
444.54	6471.58
444.73	6380.30
444.91	6396.68
445.10	6462.22
445.28	6443.49
445.47	6427.11
445.65	6375.62
445.84	6516.05
446.02	6513.71
446.21	6466.90
446.39	6497.33
446.58	6656.48
446.77	6597.97
446.95	6431.79
447.14	6602.65
447.32	6602.65
447.51	6450.52
447.69	6555.84
447.88	6473.92
448.06	6590.95
448.25	6569.88
448.43	6562.86
448.62	6588.61
448.80	6541.80
448.99	6548.82
449.17	6761.81
449.36	6644.78
449.54	6839.05
449.73	6740.74
449.91	7054.37
450.10	6853.09
450.28	6766.49
450.46	6864.79
450.65	6839.05
450.83	6986.50
451.02	6832.02
451.20	7023.95
451.39	7124.59
451.57	6972.46
451.76	7061.40
451.94	7075.44
452.13	7145.66
452.31	6986.50
452.49	6909.26
452.68	7279.07
452.86	7075.44
453.05	7194.81
453.23	7466.31
453.42	7068.42
453.60	7239.28
453.78	7342.26
453.97	7190.13
454.15	7269.70
454.34	7255.66
454.52	7110.55
454.70	7281.41
454.89	7513.12
455.07	7581.00
455.26	7578.65
455.44	7599.72
455.62	7653.55
455.81	7531.84
455.99	7653.55
456.17	7695.68
456.36	7463.97
456.54	7758.88
456.73	7915.69
456.91	8018.68
457.09	7955.48
457.28	7815.05
457.46	7768.24
457.64	7899.31
457.83	8009.31
458.01	8086.55
458.19	8051.44
458.38	7922.71
458.56	8124.00
458.74	8121.66
458.93	8116.98
459.11	8248.05
459.29	8304.22
459.48	8006.97
459.66	8212.94
459.84	8292.52
460.03	8404.86
460.21	8173.15
460.39	8451.67
460.57	8294.86
460.76	8512.53
460.94	8552.32
461.12	8451.67
461.31	8421.25
461.49	8622.53
461.67	8484.44
461.85	8554.66
462.04	8482.10
462.22	8917.44
462.40	8879.99
462.59	8751.26
462.77	8599.13
462.95	8765.31
463.13	8819.14
463.32	8844.88
463.50	8889.35
463.68	8814.46
463.86	8889.35
464.05	8819.14
464.23	8807.44
464.41	8987.66
464.59	8971.27
464.78	9158.52
464.96	8950.21
465.14	8760.63
465.32	9151.49
465.50	9163.20
465.69	9305.97
465.87	9137.45
466.05	9151.49
466.23	9097.66
466.41	9266.18
466.60	9305.97
466.78	9207.67
466.96	9226.39
467.14	9301.29
467.32	9156.18
467.51	9430.02
467.69	9116.39
467.87	9378.53
468.05	9603.22
468.23	9390.23
468.41	9404.27
468.60	9359.80
468.78	9444.06
468.96	9607.90
469.14	9701.52
469.32	9568.11
469.50	9324.69
469.69	9778.76
469.87	9710.88
470.05	9923.87
470.23	9958.98
470.41	9914.51
470.59	10038.56
470.77	9937.91
470.95	9921.53
471.14	10045.58
471.32	9865.36
471.50	10017.49
471.68	10258.57
471.86	10270.27
472.04	10260.91
472.22	10525.39
472.40	10221.12
472.58	10265.59
472.77	10429.43
472.95	10473.90
473.13	10616.67
473.31	10504.32
473.49	10403.68
473.67	10590.92
473.85	10686.89
474.03	10778.17
474.21	10951.37
474.39	10862.43
474.57	10906.90
474.75	10958.39
474.93	11253.30
475.12	11023.92
475.30	11197.12
475.48	11016.90
475.66	11136.27
475.84	11154.99
476.02	11503.73
476.20	11281.38
476.38	11578.63
476.56	11929.71
476.74	11648.85
476.92	11763.53
477.10	11838.43
477.28	12154.40
477.46	11962.48
477.64	12098.23
477.82	12264.41
478.00	12388.46
478.18	12461.01
478.36	12498.46
478.54	12837.84
478.72	12720.81
478.90	12950.18
479.08	12957.21
479.26	13039.12
479.44	12908.05
479.62	13277.86
479.80	13282.54
479.98	13186.58
480.16	13633.62
480.34	13551.70
480.52	13666.39
480.70	13404.25
480.88	13706.18
481.06	13717.88
481.24	13760.01
481.41	13872.36
481.59	14061.94
481.77	14134.50
481.95	14361.53
482.13	14719.63
482.31	14431.74
482.49	15030.92
482.67	14815.59
482.85	14923.26
483.03	15009.86
483.21	15056.67
483.39	15302.42
483.57	15225.18
483.74	15578.61
483.92	15496.69
484.10	15438.17
484.28	15974.16
484.46	16255.02
484.64	16468.01
484.82	16182.46
485.00	16194.17
485.18	16692.70
485.35	16901.01
485.53	16893.99
485.71	16931.44
485.89	17170.17
486.07	16987.61
486.25	17139.74
486.43	17256.77
486.61	17277.83
486.78	17556.36
486.96	17888.71
487.14	17963.61
487.32	18155.54
487.50	18286.61
487.68	18185.96
487.85	18398.95
488.03	18853.02
488.21	19094.09
488.39	18703.22
488.57	19124.52
488.75	19274.31
488.92	19103.45
489.10	19358.57
489.28	19475.60
489.46	19810.29
489.64	19864.13
489.81	19964.77
489.99	20081.80
490.17	20189.46
490.35	20582.67
490.53	20301.81
490.70	21111.63
490.88	20676.29
491.06	21118.65
491.24	21055.46
491.41	21186.53
491.59	21394.84
491.77	21504.84
491.95	21869.97
492.13	21811.45
492.30	21764.64
492.48	22050.19
492.66	21944.86
492.84	22057.21
493.01	22394.25
493.19	22295.94
493.37	22618.94
493.54	22948.95
493.72	22632.98
493.90	22906.82
494.08	22852.99
494.25	23058.96
494.43	23407.70
494.61	23459.19
494.79	23543.45
494.96	23597.28
495.14	23438.12
495.32	23922.62
495.49	24177.73
495.67	24126.24
495.85	24362.64
496.02	24203.48
496.20	24474.98
496.38	25284.81
496.55	24879.89
496.73	25443.96
496.91	24840.11
497.09	25446.30
497.26	25223.95
497.44	24877.55
497.62	25385.45
497.79	25727.17
497.97	25914.41
498.14	26239.75
498.32	26176.55
498.50	26122.72
498.67	26265.49
498.85	26087.61
499.03	26548.70
499.20	26665.72
499.38	26939.57
499.56	27047.23
499.73	26785.09
499.91	27068.30
500.08	27253.20
500.26	27112.77
500.44	27318.73
500.61	27548.11
500.79	27330.44
500.97	27714.28
501.14	28371.97
501.32	27948.34
501.49	27639.39
501.67	28037.28
501.84	28011.53
502.02	27999.83
502.20	28360.27
502.37	28596.67
502.55	28631.77
502.72	28297.08
502.90	28826.04
503.07	28795.61
503.25	28929.02
503.43	28638.80
503.60	28936.04
503.78	29097.54
503.95	28802.63
504.13	29876.94
504.30	29317.55
504.48	29474.37
504.65	29902.68
504.83	30122.69
505.01	29788.00
505.18	29914.39
505.36	30157.80
505.53	29776.30
505.71	30122.69
505.88	30176.53
506.06	30085.25
506.23	30253.76
506.41	30506.54
506.58	30625.91
506.76	30541.65
506.93	31051.89
507.11	30766.34
507.28	31208.70
507.46	31206.36
507.63	31173.60
507.81	31480.21
507.98	30616.55
508.16	31239.13
508.33	31393.61
508.50	31950.65
508.68	32077.04
508.85	31941.29
509.03	31864.05
509.20	31971.72
509.38	32233.86
509.55	32322.80
509.73	32683.24
509.90	32568.55
510.08	32821.33
510.25	32409.40
510.42	32521.74
510.60	33326.89
510.77	32872.82
510.95	32992.19
511.12	32966.45
511.30	33195.82
511.47	33427.53
511.64	33205.18
511.82	33757.55
511.99	33263.69
512.17	33593.71
512.34	33670.95
512.51	34213.95
512.69	33778.61
512.86	33839.47
513.04	34686.74
513.21	34206.93
513.38	34040.75
513.56	34136.71
513.73	34213.95
513.90	34614.18
514.08	34429.28
514.25	34586.10
514.43	34831.85
514.60	34600.14
514.77	34604.82
514.95	34934.84
515.12	34991.01
515.29	35070.59
515.47	35065.91
515.64	35339.75
515.81	35278.89
515.99	35576.14
516.16	35641.68
516.33	35639.34
516.51	35786.79
516.68	35667.42
516.85	35859.35
517.03	36158.94
517.20	36257.24
517.37	36067.66
517.54	36018.50
517.72	36112.13
517.89	36474.91
518.06	36318.09
518.24	36039.57
518.41	36336.82
518.58	36170.64
518.75	36191.70
518.93	36500.65
519.10	36311.07
519.27	36737.05
519.45	36524.06
519.62	37029.62
519.79	37221.54
519.96	37254.31
520.14	37095.15
520.31	37003.87
520.48	37193.45
520.65	37216.86
520.83	37598.37
521.00	37558.58
521.17	37373.67
521.34	37986.89
521.52	37832.42
521.69	37977.53
521.86	37919.02
522.03	38188.18
522.20	38349.68
522.38	38094.56
522.55	38550.96
522.72	38265.42
522.89	38263.08
523.07	38782.68
523.24	38445.64
523.41	38761.61
523.58	38785.02
523.75	38834.17
523.92	39264.83
524.10	39330.36
524.27	39257.81
524.44	39171.21
524.61	39225.04
524.78	39391.22
524.96	39072.90
525.13	39246.10
525.30	39672.08
525.47	39849.96
525.64	39463.77
525.81	40041.88
525.98	39672.08
526.16	39526.97
526.33	39367.81
526.50	40367.22
526.67	40126.14
526.84	40198.70
527.01	40229.13
527.18	39899.11
527.36	40392.97
527.53	40156.57
527.70	40746.39
527.87	40339.13
528.04	40561.48
528.21	40500.63
528.38	40858.73
528.55	40538.08
528.72	40519.35
528.89	40594.25
529.07	40713.62
529.24	40610.64
529.41	41125.55
529.58	40924.27
529.75	40615.32
529.92	41179.39
530.09	41118.53
530.26	41268.33
530.43	41118.53
530.60	40786.18
530.77	40957.03
530.94	41872.18
531.11	41544.51
531.28	41663.88
531.46	41907.29
531.63	42326.25
531.80	41280.03
531.97	41951.76
532.14	42000.91
532.31	41764.52
532.48	42099.22
532.65	42160.07
532.82	42071.13
532.99	42096.88
533.16	42417.53
533.33	42394.12
533.50	42543.92
533.67	42466.68
533.84	41904.95
534.01	42733.50
534.18	42630.52
534.35	43295.23
534.52	42995.64
534.69	42761.59
534.86	42543.92
535.03	42454.98
535.20	42810.74
535.37	42995.64
535.54	43423.96
535.71	43311.61
535.88	43079.90
536.05	43138.41
536.22	43358.42
536.38	43508.22
536.55	43545.67
536.72	43599.50
536.89	43337.36
537.06	44313.36
537.23	44062.93
537.40	44093.35
537.57	43592.48
537.74	43674.40
537.91	44062.93
538.08	43625.25
538.25	43899.09
538.42	44226.76
538.59	44231.44
538.75	43590.14
538.92	44285.28
539.09	44327.41
539.26	44224.42
539.43	43856.96
539.60	44039.52
539.77	44250.17
539.94	45034.25
540.11	44776.79
540.28	44626.99
540.44	44521.67
540.61	44495.92
540.78	44690.19
540.95	45001.48
541.12	44900.84
541.29	45280.00
541.46	44816.58
541.62	44631.68
541.79	45385.33
541.96	44608.27
542.13	44868.07
542.30	45116.17
542.47	45474.27
542.63	44989.78
542.80	45895.56
542.97	45511.72
543.14	46176.43
543.31	45530.44
543.48	45841.73
543.64	46382.40
543.81	46113.23
543.98	45830.03
544.15	46501.76
544.32	45787.90
544.48	46473.68
544.65	45851.09
544.82	46223.24
544.99	46089.83
545.16	45918.97
545.32	46394.10
545.49	47019.02
545.66	46714.75
545.83	46918.38
546.00	47342.02
546.16	47019.02
546.33	46965.19
546.50	46473.68
546.67	46829.44
546.83	46239.62
547.00	46536.87
547.17	46391.76
547.34	46401.12
547.50	46988.60
547.67	47292.86
547.84	46906.68
548.00	47419.25
548.17	47524.58
548.34	47131.37
548.51	47131.37
548.67	47047.11
548.84	47260.10
549.01	47260.10
549.18	47440.32
549.34	47428.62
549.51	46958.17
549.68	47248.39
549.84	47323.29
550.01	46955.83
550.18	47007.32
550.34	47234.35
550.51	47220.31
550.68	47592.45
550.84	47562.03
551.01	47578.41
551.18	47260.10
551.34	47435.64
551.51	47365.42
551.68	47810.12
551.84	47370.10
552.01	47618.20
552.18	47791.40
552.34	47470.75
552.51	48266.53
552.68	47679.05
552.84	48027.79
553.01	48083.97
553.18	48329.72
553.34	48062.90
553.51	47859.27
553.67	47934.17
553.84	48355.47
554.01	48678.46
554.17	48357.81
554.34	48268.87
554.51	48095.67
554.67	48418.66
554.84	48404.62
555.00	47796.08
555.17	48294.61
555.33	48470.15
555.50	48559.09
555.67	48465.47
555.83	48011.41
556.00	49008.48
556.16	48954.64
556.33	48493.56
556.50	48435.05
556.66	48500.58
556.83	48088.65
556.99	48641.01
557.16	49162.95
557.32	49237.85
557.49	49303.38
557.65	48502.92
557.82	48776.76
557.98	48683.14
558.15	48835.28
558.32	48844.64
558.48	48662.08
558.65	48945.28
558.81	48545.05
558.98	48980.39
559.14	49045.93
559.31	49081.03
559.47	49045.93
559.64	49172.31
559.80	48868.05
559.97	49188.70
560.13	49144.23
560.30	48917.20
560.46	49275.30
560.63	49359.56
560.79	49504.67
560.96	49525.74
561.12	49425.09
561.29	49076.35
561.45	48992.09
561.61	49198.06
561.78	49202.74
561.94	49916.61
562.11	49617.02
562.27	49986.82
562.44	49731.70
562.60	49443.82
562.77	50035.97
562.93	49485.95
563.10	49799.58
563.26	49289.34
563.42	49909.58
563.59	49588.93
563.75	49607.65
563.92	49925.97
564.08	49883.84
564.24	49940.01
564.41	49670.85
564.57	49846.39
564.74	49467.22
564.90	49612.34
565.07	50253.64
565.23	50148.32
565.39	49654.47
565.56	50693.66
565.72	49748.09
565.88	50298.11
566.05	49780.85
566.21	49633.40
566.38	49443.82
566.54	49727.02
566.70	50155.34
566.87	50124.91
567.03	49727.02
567.19	50527.48
567.36	50370.67
567.52	50012.57
567.68	49689.57
567.85	49853.41
568.01	50419.82
568.17	50092.15
568.34	50017.25
568.50	50122.57
568.66	50209.17
568.83	50483.01
568.99	50337.90
569.15	50145.98
569.32	50096.83
569.48	49734.04
569.64	50129.59
569.81	50038.31
569.97	49804.26
570.13	50326.20
570.30	49879.16
570.46	50302.79
570.62	50220.87
570.78	50230.24
570.95	50251.30
571.11	50230.24
571.27	50181.09
571.43	50169.38
571.60	50291.09
571.76	50115.55
571.92	50398.76
572.09	50478.33
572.25	50586.00
572.41	50557.91
572.57	50326.20
572.74	50815.37
572.90	50405.78
573.06	50255.98
573.22	50068.74
573.38	50447.91
573.55	50239.60
573.71	50789.62
573.87	50478.33
574.03	50368.33
574.20	50387.05
574.36	50539.19
574.52	50595.36
574.68	50609.40
574.84	50515.78
575.01	50630.47
575.17	50714.73
575.33	50480.67
575.49	50464.29
575.65	50616.43
575.82	50705.37
575.98	50513.44
576.14	50775.58
576.30	50394.07
576.46	50541.53
576.62	50351.94
576.79	50583.66
576.95	50511.10
577.11	50735.79
577.27	50625.79
577.43	50618.77
577.59	50848.14
577.75	50850.48
577.92	50071.08
578.08	50335.56
578.24	50703.03
578.40	50358.97
578.56	50948.78
578.72	50845.80
578.88	50810.69
579.04	51065.81
579.21	50616.43
579.37	50941.76
579.53	51075.17
579.69	50815.37
579.85	50885.59
580.01	51042.40
580.17	50717.07
580.33	50899.63
580.49	50679.62
580.65	51121.98
580.82	51264.75
580.98	50843.46
581.14	50742.81
581.30	50852.82
581.46	50892.61
581.62	50642.17
581.78	51063.47
581.94	50958.14
582.10	50848.14
582.26	50885.59
582.42	50667.92
582.58	50806.01
582.74	51000.27
582.90	51231.99
583.06	50794.31
583.22	51016.66
583.38	50674.94
583.54	50733.45
583.70	50930.06
583.86	50892.61
584.02	50803.67
584.18	51040.06
584.34	51103.26
584.50	51447.32
584.66	51061.13
584.82	50611.74
584.98	51215.60
585.14	50951.12
585.30	50904.31
585.46	51023.68
585.62	50705.37
585.78	51231.99
585.94	51297.52
586.10	51264.75
586.26	51250.71
586.42	51182.84
586.58	51147.73
586.74	50946.44
586.90	50742.81
587.06	50876.22
587.22	51337.31
587.38	51056.45
587.54	51435.61
587.70	51346.67
587.86	51217.94
588.02	51381.78
588.18	51391.14
588.34	51592.43
588.49	51243.69
588.65	51185.18
588.81	50927.72
588.97	51379.44
