SpectraSuite Data File
++++++++++++++++++++++++++++++++++++
Date: Thu Oct 24 13:20:58 EDT 2013
User: stostad
Dark Spectrum Present: No
Reference Spectrum Present: No
Number of Sampled Component Spectra: 1
Spectrometers: USB2+H05261
Integration Time (usec): 100000 (USB2+H05261)
Spectra Averaged: 1 (USB2+H05261)
Boxcar Smoothing: 0 (USB2+H05261)
Correct for Electrical Dark: No (USB2+H05261)
Strobe/Lamp Enabled: No (USB2+H05261)
Correct for Detector Non-linearity: No (USB2+H05261)
Correct for Stray Light: No (USB2+H05261)
Number of Pixels in Processed Spectrum: 2048
>>>>>Begin Processed Spectral Data<<<<<
365.73	559.39
365.92	559.39
366.12	559.39
366.32	447.04
366.52	524.28
366.72	491.51
366.91	435.34
367.11	521.94
367.31	411.93
367.51	433.00
367.70	440.02
367.90	444.70
368.10	400.23
368.30	447.04
368.49	533.64
368.69	444.70
368.89	470.45
369.09	514.92
369.28	440.02
369.48	491.51
369.68	498.53
369.87	526.62
370.07	470.45
370.27	512.58
370.47	552.37
370.66	512.58
370.86	578.11
371.06	580.45
371.25	582.79
371.45	552.37
371.65	540.66
371.84	648.33
372.04	559.39
372.24	519.60
372.44	624.92
372.63	634.29
372.83	660.03
373.03	648.33
373.22	617.90
373.42	568.75
373.62	592.16
373.81	585.13
374.01	615.56
374.21	627.26
374.40	627.26
374.60	568.75
374.79	662.37
374.99	613.22
375.19	655.35
375.38	582.79
375.58	627.26
375.78	636.63
375.97	624.92
376.17	692.80
376.37	648.33
376.56	615.56
376.76	669.39
376.95	641.31
377.15	526.62
377.35	601.52
377.54	636.63
377.74	582.79
377.93	599.18
378.13	601.52
378.33	624.92
378.52	606.20
378.72	622.58
378.91	697.48
379.11	627.26
379.31	552.37
379.50	617.90
379.70	629.60
379.89	566.41
380.09	538.32
380.28	596.84
380.48	594.50
380.68	599.18
380.87	634.29
381.07	676.41
381.26	695.14
381.46	587.47
381.65	638.97
381.85	547.69
382.04	603.86
382.24	575.77
382.43	538.32
382.63	634.29
382.83	615.56
383.02	643.65
383.22	648.33
383.41	603.86
383.61	629.60
383.80	676.41
384.00	550.03
384.19	550.03
384.39	702.16
384.58	634.29
384.78	678.76
384.97	580.45
385.17	655.35
385.36	622.58
385.56	608.54
385.75	617.90
385.95	634.29
386.14	643.65
386.34	568.75
386.53	699.82
386.72	608.54
386.92	636.63
387.11	678.76
387.31	667.05
387.50	601.52
387.70	622.58
387.89	599.18
388.09	655.35
388.28	566.41
388.48	580.45
388.67	631.94
388.86	573.43
389.06	636.63
389.25	662.37
389.45	603.86
389.64	617.90
389.84	606.20
390.03	596.84
390.22	517.26
390.42	671.73
390.61	592.16
390.81	582.79
391.00	643.65
391.19	690.46
391.39	629.60
391.58	580.45
391.78	634.29
391.97	662.37
392.16	578.11
392.36	648.33
392.55	648.33
392.75	543.00
392.94	627.26
393.13	610.88
393.33	613.22
393.52	599.18
393.71	638.97
393.91	657.69
394.10	667.05
394.29	667.05
394.49	582.79
394.68	566.41
394.88	601.52
395.07	660.03
395.26	631.94
395.46	615.56
395.65	589.82
395.84	592.16
396.04	629.60
396.23	638.97
396.42	643.65
396.62	650.67
396.81	601.52
397.00	641.31
397.19	620.24
397.39	613.22
397.58	669.39
397.77	636.63
397.97	592.16
398.16	559.39
398.35	674.07
398.55	561.73
398.74	631.94
398.93	653.01
399.12	615.56
399.32	596.84
399.51	631.94
399.70	601.52
399.90	601.52
400.09	636.63
400.28	676.41
400.47	697.48
400.67	634.29
400.86	690.46
401.05	688.12
401.24	606.20
401.44	603.86
401.63	676.41
401.82	643.65
402.01	587.47
402.21	521.94
402.40	617.90
402.59	622.58
402.78	643.65
402.97	638.97
403.17	564.07
403.36	629.60
403.55	592.16
403.74	592.16
403.93	748.97
404.13	716.20
404.32	695.14
404.51	641.31
404.70	660.03
404.89	667.05
405.09	664.71
405.28	681.10
405.47	613.22
405.66	613.22
405.85	671.73
406.05	650.67
406.24	615.56
406.43	664.71
406.62	622.58
406.81	620.24
407.00	638.97
407.20	688.12
407.39	744.29
407.58	592.16
407.77	699.82
407.96	629.60
408.15	643.65
408.34	617.90
408.54	613.22
408.73	564.07
408.92	634.29
409.11	645.99
409.30	603.86
409.49	636.63
409.68	650.67
409.87	589.82
410.07	676.41
410.26	676.41
410.45	594.50
410.64	613.22
410.83	620.24
411.02	603.86
411.21	606.20
411.40	575.77
411.59	667.05
411.78	634.29
411.98	648.33
412.17	662.37
412.36	620.24
412.55	573.43
412.74	552.37
412.93	606.20
413.12	624.92
413.31	720.88
413.50	629.60
413.69	594.50
413.88	655.35
414.07	559.39
414.26	608.54
414.45	568.75
414.64	657.69
414.83	624.92
415.02	554.71
415.22	573.43
415.41	683.44
415.60	678.76
415.79	629.60
415.98	674.07
416.17	699.82
416.36	674.07
416.55	547.69
416.74	671.73
416.93	648.33
417.12	660.03
417.31	634.29
417.50	674.07
417.69	690.46
417.88	603.86
418.07	578.11
418.26	650.67
418.45	592.16
418.64	634.29
418.83	620.24
419.02	657.69
419.21	599.18
419.39	608.54
419.58	636.63
419.77	550.03
419.96	594.50
420.15	669.39
420.34	674.07
420.53	681.10
420.72	624.92
420.91	589.82
421.10	648.33
421.29	692.80
421.48	629.60
421.67	631.94
421.86	641.31
422.05	622.58
422.24	594.50
422.43	582.79
422.61	606.20
422.80	697.48
422.99	681.10
423.18	648.33
423.37	657.69
423.56	662.37
423.75	664.71
423.94	608.54
424.13	643.65
424.32	690.46
424.50	638.97
424.69	561.73
424.88	695.14
425.07	557.05
425.26	573.43
425.45	645.99
425.64	660.03
425.83	622.58
426.01	636.63
426.20	582.79
426.39	599.18
426.58	645.99
426.77	653.01
426.96	648.33
427.15	592.16
427.33	610.88
427.52	678.76
427.71	592.16
427.90	671.73
428.09	589.82
428.28	655.35
428.46	690.46
428.65	685.78
428.84	674.07
429.03	671.73
429.22	690.46
429.40	683.44
429.59	627.26
429.78	617.90
429.97	620.24
430.16	671.73
430.34	636.63
430.53	617.90
430.72	610.88
430.91	671.73
431.10	596.84
431.28	624.92
431.47	648.33
431.66	540.66
431.85	692.80
432.03	704.50
432.22	664.71
432.41	657.69
432.60	690.46
432.79	678.76
432.97	641.31
433.16	617.90
433.35	629.60
433.54	641.31
433.72	662.37
433.91	674.07
434.10	603.86
434.28	648.33
434.47	692.80
434.66	674.07
434.85	720.88
435.03	823.87
435.22	992.39
435.41	1228.78
435.59	1067.28
435.78	959.62
435.97	910.47
436.16	805.14
436.34	720.88
436.53	678.76
436.72	685.78
436.90	641.31
437.09	681.10
437.28	631.94
437.46	650.67
437.65	596.84
437.84	653.01
438.02	608.54
438.21	678.76
438.40	575.77
438.58	674.07
438.77	674.07
438.96	617.90
439.14	559.39
439.33	674.07
439.52	587.47
439.70	653.01
439.89	669.39
440.08	592.16
440.26	610.88
440.45	725.57
440.63	650.67
440.82	683.44
441.01	641.31
441.19	734.93
441.38	587.47
441.57	655.35
441.75	692.80
441.94	688.12
442.12	641.31
442.31	580.45
442.50	641.31
442.68	641.31
442.87	601.52
443.05	617.90
443.24	641.31
443.43	568.75
443.61	669.39
443.80	631.94
443.98	641.31
444.17	594.50
444.35	671.73
444.54	643.65
444.73	620.24
444.91	634.29
445.10	634.29
445.28	660.03
445.47	662.37
445.65	622.58
445.84	622.58
446.02	589.82
446.21	587.47
446.39	582.79
446.58	580.45
446.77	613.22
446.95	634.29
447.14	664.71
447.32	650.67
447.51	634.29
447.69	617.90
447.88	634.29
448.06	622.58
448.25	620.24
448.43	638.97
448.62	667.05
448.80	599.18
448.99	622.58
449.17	603.86
449.36	650.67
449.54	596.84
449.73	655.35
449.91	638.97
450.10	702.16
450.28	704.50
450.46	690.46
450.65	674.07
450.83	727.91
451.02	638.97
451.20	580.45
451.39	671.73
451.57	594.50
451.76	634.29
451.94	709.18
452.13	739.61
452.31	709.18
452.49	655.35
452.68	660.03
452.86	624.92
453.05	676.41
453.23	620.24
453.42	575.77
453.60	758.33
453.78	641.31
453.97	720.88
454.15	638.97
454.34	697.48
454.52	643.65
454.70	674.07
454.89	662.37
455.07	643.65
455.26	641.31
455.44	641.31
455.62	629.60
455.81	615.56
455.99	706.84
456.17	601.52
456.36	608.54
456.54	664.71
456.73	629.60
456.91	643.65
457.09	704.50
457.28	676.41
457.46	683.44
457.64	629.60
457.83	615.56
458.01	645.99
458.19	580.45
458.38	664.71
458.56	645.99
458.74	596.84
458.93	660.03
459.11	627.26
459.29	664.71
459.48	622.58
459.66	615.56
459.84	580.45
460.03	681.10
460.21	645.99
460.39	690.46
460.57	716.20
460.76	589.82
460.94	664.71
461.12	634.29
461.31	692.80
461.49	601.52
461.67	627.26
461.85	627.26
462.04	601.52
462.22	908.13
462.40	655.35
462.59	592.16
462.77	610.88
462.95	641.31
463.13	641.31
463.32	695.14
463.50	660.03
463.68	655.35
463.86	636.63
464.05	683.44
464.23	718.54
464.41	727.91
464.59	592.16
464.78	676.41
464.96	554.71
465.14	667.05
465.32	631.94
465.50	627.26
465.69	667.05
465.87	655.35
466.05	667.05
466.23	624.92
466.41	660.03
466.60	613.22
466.78	697.48
466.96	674.07
467.14	620.24
467.32	662.37
467.51	664.71
467.69	688.12
467.87	669.39
468.05	634.29
468.23	622.58
468.41	631.94
468.60	645.99
468.78	641.31
468.96	650.67
469.14	603.86
469.32	655.35
469.50	662.37
469.69	638.97
469.87	638.97
470.05	606.20
470.23	653.01
470.41	641.31
470.59	669.39
470.77	638.97
470.95	622.58
471.14	641.31
471.32	667.05
471.50	519.60
471.68	603.86
471.86	674.07
472.04	657.69
472.22	645.99
472.40	622.58
472.58	578.11
472.77	704.50
472.95	676.41
473.13	599.18
473.31	669.39
473.49	643.65
473.67	608.54
473.85	660.03
474.03	655.35
474.21	695.14
474.39	662.37
474.57	620.24
474.75	596.84
474.93	596.84
475.12	599.18
475.30	681.10
475.48	629.60
475.66	622.58
475.84	636.63
476.02	568.75
476.20	709.18
476.38	641.31
476.56	671.73
476.74	641.31
476.92	671.73
477.10	631.94
477.28	711.52
477.46	688.12
477.64	695.14
477.82	641.31
478.00	653.01
478.18	695.14
478.36	655.35
478.54	585.13
478.72	594.50
478.90	634.29
479.08	683.44
479.26	653.01
479.44	645.99
479.62	697.48
479.80	573.43
479.98	674.07
480.16	645.99
480.34	599.18
480.52	695.14
480.70	692.80
480.88	667.05
481.06	645.99
481.24	615.56
481.41	648.33
481.59	690.46
481.77	725.57
481.95	667.05
482.13	713.86
482.31	631.94
482.49	667.05
482.67	706.84
482.85	676.41
483.03	683.44
483.21	674.07
483.39	631.94
483.57	662.37
483.74	779.40
483.92	664.71
484.10	711.52
484.28	699.82
484.46	655.35
484.64	678.76
484.82	702.16
485.00	737.27
485.18	725.57
485.35	704.50
485.53	653.01
485.71	767.70
485.89	692.80
486.07	713.86
486.25	723.23
486.43	744.29
486.61	725.57
486.78	709.18
486.96	713.86
487.14	676.41
487.32	688.12
487.50	739.61
487.68	725.57
487.85	732.59
488.03	746.63
488.21	748.97
488.39	690.46
488.57	753.65
488.75	753.65
488.92	723.23
489.10	732.59
489.28	720.88
489.46	699.82
489.64	678.76
489.81	615.56
489.99	748.97
490.17	737.27
490.35	758.33
490.53	657.69
490.70	685.78
490.88	692.80
491.06	688.12
491.24	610.88
491.41	737.27
491.59	690.46
491.77	688.12
491.95	702.16
492.13	699.82
492.30	692.80
492.48	678.76
492.66	669.39
492.84	664.71
493.01	662.37
493.19	748.97
493.37	667.05
493.54	678.76
493.72	718.54
493.90	716.20
494.08	702.16
494.25	692.80
494.43	730.25
494.61	704.50
494.79	711.52
494.96	718.54
495.14	638.97
495.32	685.78
495.49	685.78
495.67	678.76
495.85	718.54
496.02	723.23
496.20	683.44
496.38	660.03
496.55	767.70
496.73	596.84
496.91	746.63
497.09	711.52
497.26	566.41
497.44	678.76
497.62	653.01
497.79	751.31
497.97	709.18
498.14	601.52
498.32	653.01
498.50	617.90
498.67	587.47
498.85	643.65
499.03	716.20
499.20	692.80
499.38	692.80
499.56	671.73
499.73	690.46
499.91	664.71
500.08	669.39
500.26	634.29
500.44	615.56
500.61	643.65
500.79	671.73
500.97	683.44
501.14	653.01
501.32	695.14
501.49	699.82
501.67	629.60
501.84	678.76
502.02	648.33
502.20	667.05
502.37	685.78
502.55	695.14
502.72	631.94
502.90	648.33
503.07	695.14
503.25	660.03
503.43	634.29
503.60	638.97
503.78	676.41
503.95	702.16
504.13	589.82
504.30	622.58
504.48	617.90
504.65	660.03
504.83	643.65
505.01	636.63
505.18	681.10
505.36	627.26
505.53	678.76
505.71	667.05
505.88	671.73
506.06	634.29
506.23	702.16
506.41	688.12
506.58	638.97
506.76	664.71
506.93	669.39
507.11	676.41
507.28	653.01
507.46	711.52
507.63	725.57
507.81	641.31
507.98	690.46
508.16	681.10
508.33	697.48
508.50	702.16
508.68	671.73
508.85	697.48
509.03	641.31
509.20	676.41
509.38	622.58
509.55	681.10
509.73	641.31
509.90	755.99
510.08	683.44
510.25	730.25
510.42	638.97
510.60	608.54
510.77	669.39
510.95	669.39
511.12	669.39
511.30	664.71
511.47	702.16
511.64	709.18
511.82	643.65
511.99	695.14
512.17	671.73
512.34	702.16
512.51	641.31
512.69	631.94
512.86	662.37
513.04	617.90
513.21	599.18
513.38	645.99
513.56	627.26
513.73	606.20
513.90	678.76
514.08	617.90
514.25	627.26
514.43	685.78
514.60	653.01
514.77	709.18
514.95	657.69
515.12	669.39
515.29	713.86
515.47	702.16
515.64	601.52
515.81	634.29
515.99	662.37
516.16	685.78
516.33	678.76
516.51	601.52
516.68	662.37
516.85	704.50
517.03	608.54
517.20	650.67
517.37	720.88
517.54	617.90
517.72	667.05
517.89	620.24
518.06	711.52
518.24	767.70
518.41	622.58
518.58	711.52
518.75	664.71
518.93	634.29
519.10	667.05
519.27	580.45
519.45	641.31
519.62	641.31
519.79	681.10
519.96	648.33
520.14	678.76
520.31	678.76
520.48	657.69
520.65	655.35
520.83	704.50
521.00	592.16
521.17	685.78
521.34	744.29
521.52	688.12
521.69	681.10
521.86	725.57
522.03	685.78
522.20	638.97
522.38	674.07
522.55	678.76
522.72	589.82
522.89	718.54
523.07	648.33
523.24	667.05
523.41	566.41
523.58	638.97
523.75	662.37
523.92	634.29
524.10	688.12
524.27	688.12
524.44	645.99
524.61	664.71
524.78	617.90
524.96	669.39
525.13	596.84
525.30	667.05
525.47	653.01
525.64	648.33
525.81	622.58
525.98	711.52
526.16	655.35
526.33	629.60
526.50	580.45
526.67	641.31
526.84	685.78
527.01	685.78
527.18	713.86
527.36	653.01
527.53	629.60
527.70	674.07
527.87	674.07
528.04	730.25
528.21	615.56
528.38	631.94
528.55	660.03
528.72	650.67
528.89	634.29
529.07	683.44
529.24	660.03
529.41	681.10
529.58	650.67
529.75	683.44
529.92	629.60
530.09	692.80
530.26	706.84
530.43	688.12
530.60	615.56
530.77	624.92
530.94	727.91
531.11	617.90
531.28	741.95
531.46	657.69
531.63	594.50
531.80	704.50
531.97	702.16
532.14	638.97
532.31	718.54
532.48	688.12
532.65	741.95
532.82	641.31
532.99	690.46
533.16	671.73
533.33	683.44
533.50	660.03
533.67	627.26
533.84	660.03
534.01	716.20
534.18	660.03
534.35	718.54
534.52	709.18
534.69	709.18
534.86	753.65
535.03	657.69
535.20	631.94
535.37	751.31
535.54	720.88
535.71	638.97
535.88	636.63
536.05	699.82
536.22	739.61
536.38	697.48
536.55	732.59
536.72	744.29
536.89	685.78
537.06	688.12
537.23	737.27
537.40	699.82
537.57	730.25
537.74	746.63
537.91	734.93
538.08	772.38
538.25	758.33
538.42	758.33
538.59	774.72
538.75	732.59
538.92	800.46
539.09	814.51
539.26	840.25
539.43	777.06
539.60	823.87
539.77	898.77
539.94	912.81
540.11	856.64
540.28	954.94
540.44	917.49
540.61	940.90
540.78	964.30
540.95	1102.39
541.12	1158.57
541.29	1308.36
541.46	1277.93
541.62	1289.64
541.79	1355.17
541.96	1294.32
542.13	1277.93
542.30	1221.76
542.47	1214.74
542.63	1219.42
542.80	1228.78
542.97	1210.06
543.14	1277.93
543.31	1242.82
543.48	1282.61
543.64	1205.38
543.81	1256.87
543.98	1214.74
544.15	1174.95
544.32	1233.46
544.48	1235.80
544.65	1254.53
544.82	1191.33
544.99	1174.95
545.16	1221.76
545.32	1259.21
545.49	1598.59
545.66	2062.01
545.83	2169.68
546.00	2012.86
546.16	1645.40
546.33	1547.09
546.50	1383.26
546.67	1320.06
546.83	1118.78
547.00	973.66
547.17	997.07
547.34	971.32
547.50	1008.77
547.67	936.21
547.84	856.64
548.00	961.96
548.17	980.68
548.34	1015.79
548.51	1004.09
548.67	858.98
548.84	926.85
549.01	929.19
549.18	924.51
549.34	840.25
549.51	887.06
549.68	821.53
549.84	924.51
550.01	823.87
550.18	866.00
550.34	870.68
550.51	791.10
550.68	870.68
550.84	784.08
551.01	770.04
551.18	763.01
551.34	725.57
551.51	767.70
551.68	793.44
551.84	781.74
552.01	755.99
552.18	786.42
552.34	791.10
552.51	791.10
552.68	760.67
552.84	800.46
553.01	746.63
553.18	746.63
553.34	723.23
553.51	774.72
553.67	699.82
553.84	767.70
554.01	711.52
554.17	772.38
554.34	737.27
554.51	622.58
554.67	669.39
554.84	709.18
555.00	716.20
555.17	755.99
555.33	692.80
555.50	631.94
555.67	645.99
555.83	699.82
556.00	734.93
556.16	795.78
556.33	777.06
556.50	634.29
556.66	697.48
556.83	603.86
556.99	730.25
557.16	674.07
557.32	681.10
557.49	669.39
557.65	676.41
557.82	709.18
557.98	720.88
558.15	683.44
558.32	695.14
558.48	641.31
558.65	643.65
558.81	629.60
558.98	713.86
559.14	737.27
559.31	617.90
559.47	648.33
559.64	704.50
559.80	660.03
559.97	669.39
560.13	622.58
560.30	704.50
560.46	669.39
560.63	653.01
560.79	688.12
560.96	655.35
561.12	660.03
561.29	664.71
561.45	622.58
561.61	702.16
561.78	662.37
561.94	620.24
562.11	629.60
562.27	610.88
562.44	613.22
562.60	620.24
562.77	702.16
562.93	695.14
563.10	641.31
563.26	653.01
563.42	767.70
563.59	676.41
563.75	692.80
563.92	713.86
564.08	760.67
564.24	575.77
564.41	660.03
564.57	653.01
564.74	645.99
564.90	629.60
565.07	725.57
565.23	638.97
565.39	645.99
565.56	660.03
565.72	641.31
565.88	664.71
566.05	634.29
566.21	636.63
566.38	559.39
566.54	685.78
566.70	692.80
566.87	660.03
567.03	660.03
567.19	645.99
567.36	613.22
567.52	648.33
567.68	702.16
567.85	699.82
568.01	718.54
568.17	669.39
568.34	683.44
568.50	744.29
568.66	692.80
568.83	702.16
568.99	702.16
569.15	676.41
569.32	725.57
569.48	650.67
569.64	662.37
569.81	683.44
569.97	613.22
570.13	650.67
570.30	695.14
570.46	606.20
570.62	645.99
570.78	589.82
570.95	645.99
571.11	678.76
571.27	676.41
571.43	657.69
571.60	660.03
571.76	648.33
571.92	660.03
572.09	620.24
572.25	671.73
572.41	615.56
572.57	575.77
572.74	660.03
572.90	641.31
573.06	575.77
573.22	716.20
573.38	730.25
573.55	748.97
573.71	709.18
573.87	629.60
574.03	692.80
574.20	624.92
574.36	627.26
574.52	615.56
574.68	629.60
574.84	676.41
575.01	655.35
575.17	716.20
575.33	699.82
575.49	592.16
575.65	667.05
575.82	683.44
575.98	641.31
576.14	730.25
576.30	720.88
576.46	772.38
576.62	976.00
576.79	851.96
576.95	854.30
577.11	849.61
577.27	793.44
577.43	734.93
577.59	791.10
577.75	704.50
577.92	669.39
578.08	638.97
578.24	664.71
578.40	720.88
578.56	809.83
578.72	875.36
578.88	950.26
579.04	849.61
579.21	861.32
579.37	758.33
579.53	795.78
579.69	781.74
579.85	777.06
580.01	823.87
580.17	760.67
580.33	760.67
580.49	793.44
580.65	788.76
580.82	706.84
580.98	678.76
581.14	767.70
581.30	737.27
581.46	711.52
581.62	674.07
581.78	753.65
581.94	751.31
582.10	727.91
582.26	685.78
582.42	826.21
582.58	795.78
582.74	802.80
582.90	786.42
583.06	730.25
583.22	770.04
583.38	793.44
583.54	777.06
583.70	866.00
583.86	798.12
584.02	821.53
584.18	786.42
584.34	779.40
584.50	753.65
584.66	741.95
584.82	805.14
584.98	758.33
585.14	723.23
585.30	765.36
585.46	807.48
585.62	744.29
585.78	770.04
585.94	851.96
586.10	751.31
586.26	826.21
586.42	821.53
586.58	929.19
586.74	891.74
586.90	905.79
587.06	842.59
587.22	903.45
587.38	924.51
587.54	851.96
587.70	873.02
587.86	826.21
588.02	779.40
588.18	807.48
588.34	812.17
588.49	835.57
588.65	709.18
588.81	706.84
588.97	662.37
589.13	716.20
589.29	718.54
589.45	777.06
589.61	751.31
589.77	772.38
589.93	737.27
590.08	755.99
590.24	720.88
590.40	730.25
590.56	720.88
590.72	753.65
590.88	772.38
591.04	664.71
591.20	718.54
591.35	711.52
591.51	725.57
591.67	751.31
591.83	681.10
591.99	765.36
592.15	805.14
592.31	772.38
592.46	760.67
592.62	772.38
592.78	760.67
592.94	772.38
593.10	807.48
593.26	812.17
593.41	826.21
593.57	748.97
593.73	741.95
593.89	737.27
594.05	770.04
594.20	725.57
594.36	812.17
594.52	699.82
594.68	713.86
594.84	758.33
594.99	739.61
595.15	751.31
595.31	692.80
595.47	716.20
595.62	725.57
595.78	704.50
595.94	699.82
596.10	676.41
596.25	802.80
596.41	746.63
596.57	765.36
596.73	643.65
596.88	678.76
597.04	692.80
597.20	627.26
597.36	662.37
597.51	727.91
597.67	669.39
597.83	746.63
597.99	702.16
598.14	741.95
598.30	720.88
598.46	737.27
598.61	755.99
598.77	791.10
598.93	674.07
599.09	704.50
599.24	779.40
599.40	751.31
599.56	763.01
599.71	706.84
599.87	690.46
600.03	781.74
600.18	739.61
600.34	758.33
600.50	767.70
600.65	711.52
600.81	741.95
600.97	685.78
601.12	730.25
601.28	730.25
601.44	655.35
601.59	667.05
601.75	746.63
601.91	669.39
602.06	685.78
602.22	690.46
602.37	660.03
602.53	702.16
602.69	681.10
602.84	660.03
603.00	636.63
603.16	664.71
603.31	685.78
603.47	657.69
603.62	753.65
603.78	667.05
603.94	755.99
604.09	692.80
604.25	772.38
604.40	660.03
604.56	631.94
604.71	697.48
604.87	674.07
605.03	669.39
605.18	669.39
605.34	716.20
605.49	641.31
605.65	653.01
605.80	634.29
605.96	685.78
606.12	688.12
606.27	641.31
606.43	709.18
606.58	699.82
606.74	739.61
606.89	716.20
607.05	718.54
607.20	645.99
607.36	662.37
607.51	791.10
607.67	755.99
607.82	774.72
607.98	758.33
608.13	772.38
608.29	791.10
608.44	833.23
608.60	854.30
608.75	800.46
608.91	767.70
609.06	826.21
609.22	802.80
609.37	880.04
609.53	840.25
609.68	919.83
609.84	964.30
