SpectraSuite Data File
++++++++++++++++++++++++++++++++++++
Date: Thu Oct 24 13:21:03 EDT 2013
User: stostad
Dark Spectrum Present: No
Reference Spectrum Present: No
Number of Sampled Component Spectra: 1
Spectrometers: USB2+H05261
Integration Time (usec): 100000 (USB2+H05261)
Spectra Averaged: 1 (USB2+H05261)
Boxcar Smoothing: 0 (USB2+H05261)
Correct for Electrical Dark: No (USB2+H05261)
Strobe/Lamp Enabled: No (USB2+H05261)
Correct for Detector Non-linearity: No (USB2+H05261)
Correct for Stray Light: No (USB2+H05261)
Number of Pixels in Processed Spectrum: 2048
>>>>>Begin Processed Spectral Data<<<<<
365.73	479.81
365.92	479.81
366.12	479.81
366.32	472.79
366.52	425.98
366.72	425.98
366.91	524.28
367.11	514.92
367.31	447.04
367.51	425.98
367.70	489.17
367.90	461.09
368.10	456.40
368.30	458.74
368.49	404.91
368.69	435.34
368.89	440.02
369.09	465.77
369.28	458.74
369.48	521.94
369.68	503.22
369.87	564.07
370.07	519.60
370.27	629.60
370.47	538.32
370.66	486.83
370.86	599.18
371.06	585.13
371.25	589.82
371.45	629.60
371.65	538.32
371.84	641.31
372.04	596.84
372.24	631.94
372.44	608.54
372.63	664.71
372.83	610.88
373.03	620.24
373.22	636.63
373.42	631.94
373.62	723.23
373.81	636.63
374.01	599.18
374.21	681.10
374.40	634.29
374.60	594.50
374.79	606.20
374.99	641.31
375.19	634.29
375.38	622.58
375.58	685.78
375.78	615.56
375.97	636.63
376.17	667.05
376.37	653.01
376.56	578.11
376.76	606.20
376.95	582.79
377.15	636.63
377.35	608.54
377.54	634.29
377.74	601.52
377.93	655.35
378.13	617.90
378.33	706.84
378.52	620.24
378.72	669.39
378.91	667.05
379.11	585.13
379.31	671.73
379.50	643.65
379.70	624.92
379.89	610.88
380.09	573.43
380.28	645.99
380.48	641.31
380.68	655.35
380.87	641.31
381.07	575.77
381.26	671.73
381.46	641.31
381.65	627.26
381.85	645.99
382.04	594.50
382.24	557.05
382.43	657.69
382.63	657.69
382.83	599.18
383.02	587.47
383.22	641.31
383.41	622.58
383.61	613.22
383.80	648.33
384.00	645.99
384.19	704.50
384.39	676.41
384.58	674.07
384.78	678.76
384.97	664.71
385.17	641.31
385.36	622.58
385.56	650.67
385.75	627.26
385.95	678.76
386.14	627.26
386.34	648.33
386.53	667.05
386.72	643.65
386.92	634.29
387.11	585.13
387.31	678.76
387.50	587.47
387.70	650.67
387.89	641.31
388.09	603.86
388.28	613.22
388.48	608.54
388.67	634.29
388.86	627.26
389.06	601.52
389.25	582.79
389.45	683.44
389.64	636.63
389.84	608.54
390.03	655.35
390.22	603.86
390.42	650.67
390.61	662.37
390.81	638.97
391.00	631.94
391.19	634.29
391.39	599.18
391.58	685.78
391.78	613.22
391.97	543.00
392.16	636.63
392.36	620.24
392.55	636.63
392.75	641.31
392.94	678.76
393.13	662.37
393.33	660.03
393.52	617.90
393.71	681.10
393.91	657.69
394.10	617.90
394.29	587.47
394.49	606.20
394.68	702.16
394.88	606.20
395.07	636.63
395.26	596.84
395.46	641.31
395.65	685.78
395.84	620.24
396.04	669.39
396.23	641.31
396.42	575.77
396.62	617.90
396.81	613.22
397.00	629.60
397.19	578.11
397.39	688.12
397.58	627.26
397.77	627.26
397.97	608.54
398.16	538.32
398.35	571.09
398.55	601.52
398.74	580.45
398.93	608.54
399.12	655.35
399.32	571.09
399.51	657.69
399.70	615.56
399.90	582.79
400.09	587.47
400.28	594.50
400.47	662.37
400.67	571.09
400.86	582.79
401.05	648.33
401.24	645.99
401.44	648.33
401.63	624.92
401.82	594.50
402.01	603.86
402.21	678.76
402.40	702.16
402.59	617.90
402.78	601.52
402.97	564.07
403.17	615.56
403.36	596.84
403.55	660.03
403.74	653.01
403.93	629.60
404.13	671.73
404.32	723.23
404.51	645.99
404.70	653.01
404.89	683.44
405.09	669.39
405.28	627.26
405.47	641.31
405.66	676.41
405.85	573.43
406.05	669.39
406.24	716.20
406.43	655.35
406.62	627.26
406.81	723.23
407.00	613.22
407.20	643.65
407.39	697.48
407.58	606.20
407.77	620.24
407.96	624.92
408.15	641.31
408.34	648.33
408.54	676.41
408.73	685.78
408.92	667.05
409.11	671.73
409.30	671.73
409.49	653.01
409.68	669.39
409.87	599.18
410.07	578.11
410.26	657.69
410.45	594.50
410.64	660.03
410.83	667.05
411.02	543.00
411.21	645.99
411.40	641.31
411.59	662.37
411.78	653.01
411.98	568.75
412.17	608.54
412.36	634.29
412.55	564.07
412.74	650.67
412.93	620.24
413.12	559.39
413.31	706.84
413.50	526.62
413.69	692.80
413.88	603.86
414.07	638.97
414.26	660.03
414.45	660.03
414.64	709.18
414.83	655.35
415.02	634.29
415.22	629.60
415.41	648.33
415.60	606.20
415.79	653.01
415.98	671.73
416.17	617.90
416.36	624.92
416.55	599.18
416.74	615.56
416.93	580.45
417.12	589.82
417.31	582.79
417.50	615.56
417.69	716.20
417.88	695.14
418.07	643.65
418.26	683.44
418.45	587.47
418.64	580.45
418.83	664.71
419.02	580.45
419.21	669.39
419.39	610.88
419.58	545.34
419.77	739.61
419.96	713.86
420.15	641.31
420.34	662.37
420.53	575.77
420.72	667.05
420.91	641.31
421.10	629.60
421.29	580.45
421.48	664.71
421.67	592.16
421.86	657.69
422.05	629.60
422.24	505.56
422.43	631.94
422.61	641.31
422.80	613.22
422.99	720.88
423.18	596.84
423.37	650.67
423.56	664.71
423.75	657.69
423.94	594.50
424.13	676.41
424.32	592.16
424.50	676.41
424.69	575.77
424.88	681.10
425.07	655.35
425.26	697.48
425.45	608.54
425.64	610.88
425.83	594.50
426.01	643.65
426.20	648.33
426.39	641.31
426.58	645.99
426.77	613.22
426.96	610.88
427.15	638.97
427.33	653.01
427.52	645.99
427.71	592.16
427.90	629.60
428.09	603.86
428.28	566.41
428.46	624.92
428.65	608.54
428.84	601.52
429.03	697.48
429.22	599.18
429.40	638.97
429.59	631.94
429.78	638.97
429.97	540.66
430.16	624.92
430.34	638.97
430.53	613.22
430.72	751.31
430.91	629.60
431.10	599.18
431.28	589.82
431.47	655.35
431.66	592.16
431.85	669.39
432.03	617.90
432.22	697.48
432.41	660.03
432.60	622.58
432.79	653.01
432.97	578.11
433.16	617.90
433.35	641.31
433.54	669.39
433.72	624.92
433.91	655.35
434.10	648.33
434.28	617.90
434.47	636.63
434.66	690.46
434.85	751.31
435.03	772.38
435.22	898.77
435.41	1025.15
435.59	1043.88
435.78	870.68
435.97	840.25
436.16	770.04
436.34	737.27
436.53	674.07
436.72	606.20
436.90	641.31
437.09	643.65
437.28	681.10
437.46	643.65
437.65	660.03
437.84	681.10
438.02	674.07
438.21	620.24
438.40	643.65
438.58	641.31
438.77	599.18
438.96	699.82
439.14	657.69
439.33	688.12
439.52	613.22
439.70	599.18
439.89	608.54
440.08	601.52
440.26	676.41
440.45	655.35
440.63	653.01
440.82	690.46
441.01	678.76
441.19	608.54
441.38	629.60
441.57	622.58
441.75	601.52
441.94	636.63
442.12	622.58
442.31	653.01
442.50	685.78
442.68	660.03
442.87	585.13
443.05	596.84
443.24	638.97
443.43	688.12
443.61	667.05
443.80	671.73
443.98	650.67
444.17	608.54
444.35	645.99
444.54	603.86
444.73	676.41
444.91	603.86
445.10	638.97
445.28	613.22
445.47	653.01
445.65	653.01
445.84	578.11
446.02	638.97
446.21	643.65
446.39	631.94
446.58	575.77
446.77	620.24
446.95	704.50
447.14	655.35
447.32	727.91
447.51	643.65
447.69	662.37
447.88	650.67
448.06	720.88
448.25	601.52
448.43	662.37
448.62	589.82
448.80	643.65
448.99	620.24
449.17	645.99
449.36	671.73
449.54	690.46
449.73	681.10
449.91	697.48
450.10	631.94
450.28	657.69
450.46	774.72
450.65	624.92
450.83	650.67
451.02	608.54
451.20	627.26
451.39	627.26
451.57	620.24
451.76	587.47
451.94	589.82
452.13	638.97
452.31	645.99
452.49	671.73
452.68	608.54
452.86	624.92
453.05	734.93
453.23	681.10
453.42	645.99
453.60	629.60
453.78	613.22
453.97	608.54
454.15	704.50
454.34	650.67
454.52	566.41
454.70	599.18
454.89	645.99
455.07	667.05
455.26	629.60
455.44	669.39
455.62	622.58
455.81	620.24
455.99	620.24
456.17	592.16
456.36	634.29
456.54	554.71
456.73	575.77
456.91	615.56
457.09	545.34
457.28	571.09
457.46	587.47
457.64	737.27
457.83	734.93
458.01	671.73
458.19	627.26
458.38	655.35
458.56	645.99
458.74	615.56
458.93	603.86
459.11	664.71
459.29	629.60
459.48	688.12
459.66	727.91
459.84	615.56
460.03	667.05
460.21	655.35
460.39	678.76
460.57	664.71
460.76	667.05
460.94	582.79
461.12	669.39
461.31	657.69
461.49	613.22
461.67	629.60
461.85	601.52
462.04	564.07
462.22	933.87
462.40	669.39
462.59	695.14
462.77	634.29
462.95	676.41
463.13	627.26
463.32	678.76
463.50	695.14
463.68	603.86
463.86	603.86
464.05	638.97
464.23	660.03
464.41	599.18
464.59	629.60
464.78	671.73
464.96	603.86
465.14	613.22
465.32	592.16
465.50	603.86
465.69	634.29
465.87	617.90
466.05	650.67
466.23	589.82
466.41	671.73
466.60	594.50
466.78	676.41
466.96	653.01
467.14	615.56
467.32	601.52
467.51	662.37
467.69	678.76
467.87	692.80
468.05	699.82
468.23	674.07
468.41	657.69
468.60	636.63
468.78	620.24
468.96	638.97
469.14	629.60
469.32	606.20
469.50	599.18
469.69	627.26
469.87	662.37
470.05	645.99
470.23	627.26
470.41	620.24
470.59	660.03
470.77	613.22
470.95	660.03
471.14	671.73
471.32	657.69
471.50	627.26
471.68	671.73
471.86	681.10
472.04	603.86
472.22	559.39
472.40	624.92
472.58	650.67
472.77	699.82
472.95	608.54
473.13	671.73
473.31	669.39
473.49	608.54
473.67	547.69
473.85	657.69
474.03	657.69
474.21	674.07
474.39	688.12
474.57	669.39
474.75	638.97
474.93	592.16
475.12	634.29
475.30	545.34
475.48	620.24
475.66	645.99
475.84	603.86
476.02	592.16
476.20	683.44
476.38	645.99
476.56	681.10
476.74	657.69
476.92	580.45
477.10	610.88
477.28	594.50
477.46	608.54
477.64	613.22
477.82	585.13
478.00	690.46
478.18	667.05
478.36	641.31
478.54	638.97
478.72	650.67
478.90	603.86
479.08	615.56
479.26	608.54
479.44	702.16
479.62	557.05
479.80	669.39
479.98	622.58
480.16	596.84
480.34	645.99
480.52	674.07
480.70	657.69
480.88	681.10
481.06	615.56
481.24	660.03
481.41	657.69
481.59	690.46
481.77	620.24
481.95	561.73
482.13	660.03
482.31	709.18
482.49	671.73
482.67	627.26
482.85	645.99
483.03	667.05
483.21	657.69
483.39	706.84
483.57	624.92
483.74	709.18
483.92	690.46
484.10	716.20
484.28	690.46
484.46	723.23
484.64	695.14
484.82	674.07
485.00	638.97
485.18	674.07
485.35	648.33
485.53	645.99
485.71	830.89
485.89	718.54
486.07	660.03
486.25	648.33
486.43	685.78
486.61	669.39
486.78	695.14
486.96	662.37
487.14	641.31
487.32	664.71
487.50	695.14
487.68	760.67
487.85	596.84
488.03	702.16
488.21	702.16
488.39	690.46
488.57	702.16
488.75	723.23
488.92	814.51
489.10	643.65
489.28	674.07
489.46	660.03
489.64	704.50
489.81	697.48
489.99	699.82
490.17	688.12
490.35	760.67
490.53	641.31
490.70	706.84
490.88	711.52
491.06	657.69
491.24	697.48
491.41	746.63
491.59	697.48
491.77	697.48
491.95	613.22
492.13	664.71
492.30	685.78
492.48	667.05
492.66	688.12
492.84	734.93
493.01	667.05
493.19	697.48
493.37	697.48
493.54	692.80
493.72	758.33
493.90	674.07
494.08	674.07
494.25	650.67
494.43	627.26
494.61	645.99
494.79	699.82
494.96	608.54
495.14	622.58
495.32	711.52
495.49	683.44
495.67	730.25
495.85	653.01
496.02	681.10
496.20	713.86
496.38	645.99
496.55	732.59
496.73	638.97
496.91	709.18
497.09	692.80
497.26	641.31
497.44	730.25
497.62	648.33
497.79	763.01
497.97	711.52
498.14	690.46
498.32	716.20
498.50	660.03
498.67	629.60
498.85	594.50
499.03	674.07
499.20	723.23
499.38	713.86
499.56	648.33
499.73	678.76
499.91	657.69
500.08	685.78
500.26	622.58
500.44	648.33
500.61	699.82
500.79	653.01
500.97	664.71
501.14	725.57
501.32	706.84
501.49	559.39
501.67	622.58
501.84	667.05
502.02	617.90
502.20	697.48
502.37	716.20
502.55	596.84
502.72	692.80
502.90	711.52
503.07	664.71
503.25	608.54
503.43	650.67
503.60	599.18
503.78	641.31
503.95	638.97
504.13	634.29
504.30	601.52
504.48	711.52
504.65	695.14
504.83	667.05
505.01	603.86
505.18	643.65
505.36	573.43
505.53	641.31
505.71	615.56
505.88	667.05
506.06	660.03
506.23	655.35
506.41	578.11
506.58	629.60
506.76	643.65
506.93	657.69
507.11	613.22
507.28	650.67
507.46	676.41
507.63	610.88
507.81	653.01
507.98	655.35
508.16	692.80
508.33	760.67
508.50	699.82
508.68	690.46
508.85	606.20
509.03	620.24
509.20	631.94
509.38	655.35
509.55	678.76
509.73	650.67
509.90	706.84
510.08	624.92
510.25	702.16
510.42	671.73
510.60	720.88
510.77	631.94
510.95	653.01
511.12	627.26
511.30	669.39
511.47	678.76
511.64	725.57
511.82	566.41
511.99	667.05
512.17	608.54
512.34	674.07
512.51	723.23
512.69	608.54
512.86	669.39
513.04	617.90
513.21	674.07
513.38	613.22
513.56	608.54
513.73	706.84
513.90	683.44
514.08	697.48
514.25	739.61
514.43	578.11
514.60	603.86
514.77	629.60
514.95	681.10
515.12	547.69
515.29	641.31
515.47	610.88
515.64	603.86
515.81	617.90
515.99	650.67
516.16	638.97
516.33	653.01
516.51	603.86
516.68	599.18
516.85	657.69
517.03	716.20
517.20	697.48
517.37	690.46
517.54	587.47
517.72	660.03
517.89	662.37
518.06	669.39
518.24	699.82
518.41	648.33
518.58	699.82
518.75	592.16
518.93	638.97
519.10	641.31
519.27	603.86
519.45	610.88
519.62	657.69
519.79	657.69
519.96	547.69
520.14	580.45
520.31	638.97
520.48	643.65
520.65	617.90
520.83	676.41
521.00	713.86
521.17	730.25
521.34	643.65
521.52	636.63
521.69	662.37
521.86	685.78
522.03	695.14
522.20	667.05
522.38	660.03
522.55	702.16
522.72	573.43
522.89	641.31
523.07	744.29
523.24	688.12
523.41	676.41
523.58	727.91
523.75	613.22
523.92	674.07
524.10	617.90
524.27	650.67
524.44	660.03
524.61	620.24
524.78	608.54
524.96	667.05
525.13	643.65
525.30	615.56
525.47	685.78
525.64	655.35
525.81	669.39
525.98	655.35
526.16	732.59
526.33	608.54
526.50	596.84
526.67	650.67
526.84	594.50
527.01	671.73
527.18	624.92
527.36	624.92
527.53	695.14
527.70	634.29
527.87	678.76
528.04	709.18
528.21	678.76
528.38	636.63
528.55	678.76
528.72	645.99
528.89	695.14
529.07	685.78
529.24	688.12
529.41	620.24
529.58	634.29
529.75	683.44
529.92	720.88
530.09	624.92
530.26	636.63
530.43	638.97
530.60	603.86
530.77	589.82
530.94	645.99
531.11	669.39
531.28	676.41
531.46	660.03
531.63	578.11
531.80	681.10
531.97	674.07
532.14	678.76
532.31	664.71
532.48	638.97
532.65	613.22
532.82	596.84
532.99	662.37
533.16	667.05
533.33	725.57
533.50	723.23
533.67	629.60
533.84	627.26
534.01	716.20
534.18	674.07
534.35	613.22
534.52	643.65
534.69	716.20
534.86	636.63
535.03	706.84
535.20	690.46
535.37	669.39
535.54	664.71
535.71	648.33
535.88	678.76
536.05	643.65
536.22	678.76
536.38	678.76
536.55	713.86
536.72	664.71
536.89	697.48
537.06	657.69
537.23	753.65
537.40	718.54
537.57	774.72
537.74	699.82
537.91	720.88
538.08	720.88
538.25	786.42
538.42	795.78
538.59	751.31
538.75	798.12
538.92	732.59
539.09	744.29
539.26	730.25
539.43	802.80
539.60	802.80
539.77	837.91
539.94	826.21
540.11	870.68
540.28	898.77
540.44	894.08
540.61	905.79
540.78	978.34
540.95	1069.62
541.12	1093.03
541.29	1121.12
541.46	1177.29
541.62	1277.93
541.79	1191.33
541.96	1172.61
542.13	1172.61
542.30	1060.26
542.47	1226.44
542.63	1142.18
542.80	1226.44
542.97	1219.42
543.14	1050.90
543.31	1142.18
543.48	1062.60
543.64	1156.22
543.81	1188.99
543.98	1158.57
544.15	1125.80
544.32	1104.73
544.48	1156.22
544.65	1078.99
544.82	1123.46
544.99	1149.20
545.16	1088.35
545.32	1203.04
545.49	1448.79
545.66	1741.36
545.83	1891.15
546.00	1671.14
546.16	1483.90
546.33	1345.81
546.50	1238.14
546.67	1128.14
546.83	1050.90
547.00	915.15
547.17	1006.43
547.34	915.15
547.50	915.15
547.67	912.81
547.84	842.59
548.00	884.72
548.17	917.49
548.34	889.40
548.51	887.06
548.67	959.62
548.84	856.64
549.01	880.04
549.18	912.81
549.34	805.14
549.51	784.08
549.68	770.04
549.84	863.66
550.01	835.57
550.18	840.25
550.34	870.68
550.51	835.57
550.68	809.83
550.84	774.72
551.01	734.93
551.18	802.80
551.34	727.91
551.51	725.57
551.68	807.48
551.84	819.19
552.01	779.40
552.18	753.65
552.34	648.33
552.51	692.80
552.68	795.78
552.84	709.18
553.01	734.93
553.18	751.31
553.34	716.20
553.51	695.14
553.67	744.29
553.84	683.44
554.01	711.52
554.17	660.03
554.34	667.05
554.51	739.61
554.67	645.99
554.84	732.59
555.00	683.44
555.17	702.16
555.33	723.23
555.50	681.10
555.67	711.52
555.83	704.50
556.00	667.05
556.16	758.33
556.33	657.69
556.50	622.58
556.66	669.39
556.83	697.48
556.99	699.82
557.16	678.76
557.32	638.97
557.49	606.20
557.65	690.46
557.82	585.13
557.98	657.69
558.15	690.46
558.32	674.07
558.48	671.73
558.65	641.31
558.81	676.41
558.98	608.54
559.14	573.43
559.31	702.16
559.47	723.23
559.64	620.24
559.80	671.73
559.97	734.93
560.13	723.23
560.30	620.24
560.46	627.26
560.63	657.69
560.79	692.80
560.96	629.60
561.12	685.78
561.29	634.29
561.45	681.10
561.61	667.05
561.78	655.35
561.94	713.86
562.11	662.37
562.27	716.20
562.44	641.31
562.60	650.67
562.77	631.94
562.93	688.12
563.10	674.07
563.26	641.31
563.42	660.03
563.59	622.58
563.75	657.69
563.92	669.39
564.08	657.69
564.24	648.33
564.41	627.26
564.57	601.52
564.74	648.33
564.90	641.31
565.07	655.35
565.23	685.78
565.39	641.31
565.56	676.41
565.72	690.46
565.88	627.26
566.05	638.97
566.21	697.48
566.38	688.12
566.54	674.07
566.70	641.31
566.87	648.33
567.03	643.65
567.19	641.31
567.36	657.69
567.52	657.69
567.68	727.91
567.85	746.63
568.01	683.44
568.17	638.97
568.34	699.82
568.50	678.76
568.66	615.56
568.83	669.39
568.99	713.86
569.15	681.10
569.32	662.37
569.48	599.18
569.64	636.63
569.81	692.80
569.97	620.24
570.13	617.90
570.30	674.07
570.46	645.99
570.62	645.99
570.78	601.52
570.95	582.79
571.11	681.10
571.27	697.48
571.43	594.50
571.60	641.31
571.76	660.03
571.92	702.16
572.09	638.97
572.25	648.33
572.41	582.79
572.57	676.41
572.74	676.41
572.90	617.90
573.06	624.92
573.22	662.37
573.38	657.69
573.55	631.94
573.71	660.03
573.87	627.26
574.03	568.75
574.20	631.94
574.36	615.56
574.52	685.78
574.68	683.44
574.84	606.20
575.01	685.78
575.17	664.71
575.33	706.84
575.49	653.01
575.65	681.10
575.82	718.54
575.98	692.80
576.14	624.92
576.30	730.25
576.46	816.85
576.62	856.64
576.79	933.87
576.95	887.06
577.11	690.46
577.27	739.61
577.43	692.80
577.59	692.80
577.75	711.52
577.92	706.84
578.08	653.01
578.24	596.84
578.40	758.33
578.56	732.59
578.72	929.19
578.88	887.06
579.04	840.25
579.21	788.76
579.37	788.76
579.53	816.85
579.69	767.70
579.85	793.44
580.01	816.85
580.17	767.70
580.33	741.95
580.49	702.16
580.65	648.33
580.82	711.52
580.98	800.46
581.14	734.93
581.30	723.23
581.46	671.73
581.62	711.52
581.78	741.95
581.94	739.61
582.10	737.27
582.26	772.38
582.42	723.23
582.58	737.27
582.74	791.10
582.90	823.87
583.06	774.72
583.22	772.38
583.38	795.78
583.54	744.29
583.70	779.40
583.86	751.31
584.02	748.97
584.18	734.93
584.34	734.93
584.50	732.59
584.66	763.01
584.82	788.76
584.98	765.36
585.14	699.82
585.30	784.08
585.46	765.36
585.62	655.35
585.78	760.67
585.94	664.71
586.10	777.06
586.26	681.10
586.42	744.29
586.58	772.38
586.74	805.14
586.90	795.78
587.06	835.57
587.22	875.36
587.38	830.89
587.54	858.98
587.70	842.59
587.86	802.80
588.02	788.76
588.18	709.18
588.34	737.27
588.49	748.97
588.65	683.44
588.81	723.23
588.97	765.36
589.13	690.46
589.29	713.86
589.45	741.95
589.61	676.41
589.77	734.93
589.93	685.78
590.08	723.23
590.24	702.16
590.40	711.52
590.56	727.91
590.72	732.59
590.88	734.93
591.04	723.23
591.20	746.63
591.35	718.54
591.51	734.93
591.67	767.70
591.83	711.52
591.99	741.95
592.15	772.38
592.31	779.40
592.46	737.27
592.62	791.10
592.78	793.44
592.94	720.88
593.10	828.55
593.26	716.20
593.41	755.99
593.57	772.38
593.73	739.61
593.89	734.93
594.05	737.27
594.20	676.41
594.36	704.50
594.52	725.57
594.68	688.12
594.84	690.46
594.99	674.07
595.15	718.54
595.31	706.84
595.47	718.54
595.62	692.80
595.78	664.71
595.94	702.16
596.10	678.76
596.25	660.03
596.41	763.01
596.57	653.01
596.73	704.50
596.88	727.91
597.04	725.57
597.20	692.80
597.36	730.25
597.51	674.07
597.67	711.52
597.83	676.41
597.99	732.59
598.14	671.73
598.30	671.73
598.46	657.69
598.61	716.20
598.77	732.59
598.93	713.86
599.09	730.25
599.24	727.91
599.40	751.31
599.56	704.50
599.71	763.01
599.87	657.69
600.03	692.80
600.18	732.59
600.34	678.76
600.50	702.16
600.65	697.48
600.81	697.48
600.97	676.41
601.12	662.37
601.28	676.41
601.44	730.25
601.59	664.71
601.75	678.76
601.91	711.52
602.06	732.59
602.22	763.01
602.37	718.54
602.53	706.84
602.69	734.93
602.84	601.52
603.00	580.45
603.16	638.97
603.31	622.58
603.47	699.82
603.62	702.16
603.78	706.84
603.94	641.31
604.09	660.03
604.25	706.84
604.40	737.27
604.56	725.57
604.71	702.16
604.87	620.24
605.03	720.88
605.18	669.39
605.34	697.48
605.49	629.60
605.65	697.48
605.80	667.05
605.96	674.07
606.12	718.54
606.27	697.48
606.43	688.12
606.58	636.63
606.74	774.72
606.89	697.48
607.05	765.36
607.20	702.16
607.36	737.27
607.51	702.16
607.67	723.23
607.82	763.01
607.98	664.71
608.13	695.14
608.29	678.76
608.44	748.97
608.60	746.63
608.75	809.83
608.91	772.38
609.06	819.19
609.22	805.14
609.37	758.33
609.53	837.91
609.68	856.64
609.84	847.27
