SpectraSuite Data File
++++++++++++++++++++++++++++++++++++
Date: Thu Oct 24 13:21:21 EDT 2013
User: stostad
Dark Spectrum Present: No
Reference Spectrum Present: No
Number of Sampled Component Spectra: 1
Spectrometers: USB2+H05261
Integration Time (usec): 100000 (USB2+H05261)
Spectra Averaged: 1 (USB2+H05261)
Boxcar Smoothing: 0 (USB2+H05261)
Correct for Electrical Dark: No (USB2+H05261)
Strobe/Lamp Enabled: No (USB2+H05261)
Correct for Detector Non-linearity: No (USB2+H05261)
Correct for Stray Light: No (USB2+H05261)
Number of Pixels in Processed Spectrum: 2048
>>>>>Begin Processed Spectral Data<<<<<
365.73	585.13
365.92	585.13
366.12	585.13
366.32	470.45
366.52	447.04
366.72	503.22
366.91	454.06
367.11	425.98
367.31	435.34
367.51	425.98
367.70	493.85
367.90	484.49
368.10	444.70
368.30	463.43
368.49	463.43
368.69	479.81
368.89	458.74
369.09	435.34
369.28	514.92
369.48	402.57
369.68	447.04
369.87	514.92
370.07	512.58
370.27	587.47
370.47	608.54
370.66	898.77
370.86	842.59
371.06	933.87
371.25	959.62
371.45	959.62
371.65	973.66
371.84	919.83
372.04	858.98
372.24	971.32
372.44	929.19
372.63	971.32
372.83	966.64
373.03	961.96
373.22	999.41
373.42	978.34
373.62	1001.75
373.81	945.58
374.01	1029.84
374.21	1069.62
374.40	1032.18
374.60	1029.84
374.79	1039.20
374.99	997.07
375.19	1057.92
375.38	1018.13
375.58	997.07
375.78	1046.22
375.97	1067.28
376.17	1081.33
376.37	1064.94
376.56	1071.97
376.76	1062.60
376.95	1050.90
377.15	1022.81
377.35	1086.01
377.54	1114.10
377.74	1151.54
377.93	1104.73
378.13	1069.62
378.33	1153.88
378.52	1055.58
378.72	1135.16
378.91	1163.25
379.11	1132.82
379.31	1167.93
379.50	1174.95
379.70	1114.10
379.89	1214.74
380.09	1184.31
380.28	1081.33
380.48	1142.18
380.68	1076.65
380.87	1207.72
381.07	1149.20
381.26	1137.50
381.46	1170.27
381.65	1069.62
381.85	1156.22
382.04	1109.41
382.24	1205.38
382.43	1165.59
382.63	1249.85
382.83	1165.59
383.02	1252.19
383.22	1289.64
383.41	1235.80
383.61	1261.55
383.80	1170.27
384.00	1263.89
384.19	1284.95
384.39	1259.21
384.58	1214.74
384.78	1256.87
384.97	1308.36
385.17	1306.02
385.36	1366.87
385.56	1266.23
385.75	1324.74
385.95	1350.49
386.14	1341.13
386.34	1254.53
386.53	1313.04
386.72	1341.13
386.92	1366.87
387.11	1364.53
387.31	1404.32
387.50	1329.42
387.70	1345.81
387.89	1383.26
388.09	1439.43
388.28	1317.72
388.48	1341.13
388.67	1472.20
388.86	1427.73
389.06	1322.40
389.25	1362.19
389.45	1439.43
389.64	1493.26
389.84	1413.68
390.03	1479.22
390.22	1458.15
390.42	1509.65
390.61	1359.85
390.81	1514.33
391.00	1526.03
391.19	1509.65
391.39	1528.37
391.58	1472.20
391.78	1488.58
391.97	1476.88
392.16	1549.43
392.36	1598.59
392.55	1495.60
392.75	1589.22
392.94	1577.52
393.13	1488.58
393.33	1507.30
393.52	1565.82
393.71	1544.75
393.91	1645.40
394.10	1664.12
394.29	1610.29
394.49	1612.63
394.68	1647.74
394.88	1640.72
395.07	1645.40
395.26	1732.00
395.46	1661.78
395.65	1650.08
395.84	1734.34
396.04	1743.70
396.23	1762.42
396.42	1654.76
396.62	1849.02
396.81	1724.97
397.00	1839.66
397.19	1795.19
397.39	1781.15
397.58	1753.06
397.77	1762.42
397.97	1921.58
398.16	1825.62
398.35	1874.77
398.55	1891.15
398.74	1830.30
398.93	1923.92
399.12	1834.98
399.32	1907.54
399.51	1940.30
399.70	1975.41
399.90	2029.24
400.09	1926.26
400.28	2010.52
400.47	1912.22
400.67	1989.46
400.86	2010.52
401.05	2050.31
401.24	2064.35
401.44	2008.18
401.63	2066.69
401.82	2094.78
402.01	2012.86
402.21	2097.12
402.40	2024.56
402.59	2218.83
402.78	2101.80
402.97	2083.08
403.17	2211.81
403.36	2200.10
403.55	2169.68
403.74	2263.30
403.93	2340.54
404.13	2284.36
404.32	2207.13
404.51	2197.76
404.70	2277.34
404.89	2286.70
405.09	2300.75
405.28	2352.24
405.47	2333.51
405.66	2387.35
405.85	2366.28
406.05	2471.61
406.24	2532.46
406.43	2420.11
406.62	2473.95
406.81	2553.52
407.00	2480.97
407.20	2530.12
407.39	2579.27
407.58	2555.86
407.77	2513.74
407.96	2588.63
408.15	2560.55
408.34	2546.50
408.54	2689.28
408.73	2567.57
408.92	2541.82
409.11	2740.77
409.30	2808.64
409.49	2668.21
409.68	2757.15
409.87	2773.53
410.07	2848.43
410.26	2703.32
410.45	2799.28
410.64	2754.81
410.83	2836.73
411.02	2916.31
411.21	2843.75
411.40	2836.73
411.59	2937.37
411.78	2946.73
411.98	2967.80
412.17	2916.31
412.36	3049.72
412.55	3038.02
412.74	2995.89
412.93	3141.00
413.12	3087.17
413.31	3201.85
413.50	3133.98
413.69	3246.32
413.88	3208.87
414.07	3241.64
414.26	3342.28
414.45	3318.88
414.64	3290.79
414.83	3494.42
415.02	3442.93
415.22	3442.93
415.41	3471.01
415.60	3485.06
415.79	3541.23
415.98	3478.04
416.17	3557.61
416.36	3585.70
416.55	3583.36
416.74	3709.75
416.93	3733.15
417.12	3620.81
417.31	3632.51
417.50	3700.39
417.69	3829.12
417.88	3819.75
418.07	3784.65
418.26	3728.47
418.45	3911.04
418.64	3943.80
418.83	4105.30
419.02	3894.65
419.21	3953.16
419.39	3913.38
419.58	3983.59
419.77	3894.65
419.96	4070.19
420.15	4166.15
420.34	4042.11
420.53	4098.28
420.72	4184.88
420.91	4173.18
421.10	4189.56
421.29	4191.90
421.48	4128.70
421.67	4198.92
421.86	4217.65
422.05	4250.41
422.24	4280.84
422.43	4283.18
422.61	4365.10
422.80	4341.69
422.99	4269.14
423.18	4388.50
423.37	4442.34
423.56	4292.54
423.75	4351.06
423.94	4170.83
424.13	3950.82
424.32	4234.03
424.50	4386.16
424.69	4407.23
424.88	4393.19
425.07	4458.72
425.26	4306.59
425.45	4435.32
425.64	4285.52
425.83	4430.63
426.01	4395.53
426.20	4367.44
426.39	4306.59
426.58	4449.36
426.77	4365.10
426.96	4423.61
427.15	4554.68
427.33	4447.02
427.52	4449.36
427.71	4587.45
427.90	4528.94
428.09	4428.29
428.28	4498.51
428.46	4692.77
428.65	4678.73
428.84	4816.82
429.03	4746.61
429.22	4599.15
429.40	4624.90
429.59	4788.74
429.78	4674.05
429.97	4636.60
430.16	4767.67
430.34	4685.75
430.53	4894.06
430.72	4990.02
430.91	4971.30
431.10	4912.78
431.28	5008.75
431.47	5029.81
431.66	5008.75
431.85	5078.96
432.03	5226.42
432.22	5259.18
432.41	5142.16
432.60	5078.96
432.79	5172.58
432.97	5135.14
433.16	5249.82
433.35	5078.96
433.54	5233.44
433.72	5156.20
433.91	5221.74
434.10	5327.06
434.28	5256.84
434.47	5364.51
434.66	5404.30
434.85	5362.17
435.03	5645.37
435.22	5502.60
435.41	5764.74
435.59	5701.54
435.78	5720.27
435.97	5689.84
436.16	5518.98
436.34	5504.94
436.53	5472.17
436.72	5673.46
436.90	5575.16
437.09	5694.52
437.28	5558.77
437.46	5626.65
437.65	5675.80
437.84	5776.44
438.02	5603.24
438.21	5708.57
438.40	5783.46
438.58	5743.67
438.77	5872.40
438.96	5961.34
439.14	6113.48
439.33	5994.11
439.52	6003.47
439.70	6080.71
439.89	6263.27
440.08	6279.66
440.26	6218.80
440.45	6092.41
440.63	6373.28
440.82	6492.65
441.01	6455.20
441.19	6565.20
441.38	6504.35
441.57	6576.91
441.75	6569.88
441.94	6719.68
442.12	6485.62
442.31	6722.02
442.50	6768.83
442.68	6691.59
442.87	6633.08
443.05	6864.79
443.24	6799.26
443.43	6897.56
443.61	6794.58
443.80	7089.48
443.98	6871.81
444.17	6612.01
444.35	6892.88
444.54	7112.89
444.73	6925.65
444.91	6972.46
445.10	7056.72
445.28	7035.65
445.47	6918.62
445.65	6998.20
445.84	7122.25
446.02	7255.66
446.21	7145.66
446.39	7016.93
446.58	7042.67
446.77	6995.86
446.95	6920.96
447.14	7061.40
447.32	7220.55
447.51	7063.74
447.69	7091.82
447.88	6956.07
448.06	7225.23
448.25	7117.57
448.43	7105.87
448.62	7255.66
448.80	7117.57
448.99	7307.15
449.17	7377.37
449.36	7232.26
449.54	7489.71
449.73	7440.56
449.91	7475.67
450.10	7524.82
450.28	7449.93
450.46	7501.42
450.65	7524.82
450.83	7637.17
451.02	7658.23
451.20	7639.51
451.39	7854.84
451.57	7494.40
451.76	7538.87
451.94	7723.77
452.13	7660.57
452.31	7793.98
452.49	7616.10
452.68	7726.11
452.86	7829.09
453.05	7950.80
453.23	7946.12
453.42	7747.17
453.60	7941.44
453.78	8037.40
453.97	7847.82
454.15	7831.43
454.34	7871.22
454.52	7990.59
454.70	7988.25
454.89	7962.50
455.07	8042.08
455.26	8196.56
455.44	8161.45
455.62	8231.66
455.81	8351.03
455.99	8224.64
456.17	8180.17
456.36	8622.53
456.54	8468.06
456.73	8414.23
456.91	8468.06
457.09	8498.49
457.28	8559.34
457.46	8470.40
457.64	8589.77
457.83	8786.37
458.01	8706.79
458.19	8762.97
458.38	8835.52
458.56	8868.29
458.74	8997.02
458.93	8664.66
459.11	8678.71
459.29	8922.12
459.48	9027.45
459.66	8879.99
459.84	9240.44
460.03	9291.93
460.21	9067.24
460.39	9184.26
460.57	9064.89
460.76	9341.08
460.94	9352.78
461.12	9202.99
461.31	9294.27
461.49	9156.18
461.67	9240.44
461.85	9392.57
462.04	9336.40
462.22	9905.15
462.40	9495.55
462.59	9467.47
462.77	9465.13
462.95	9668.75
463.13	9500.23
463.32	9631.30
463.50	9769.40
463.68	9832.59
463.86	9612.58
464.05	9596.20
464.23	9795.14
464.41	9863.02
464.59	9518.96
464.78	9895.78
464.96	9790.46
465.14	9809.19
465.32	9792.80
465.50	9909.83
465.69	9820.89
465.87	9870.04
466.05	9937.91
466.23	10008.13
466.41	9870.04
466.60	10164.95
466.78	9935.57
466.96	9785.78
467.14	10129.84
467.32	10153.24
467.51	10157.92
467.69	10108.77
467.87	10239.84
468.05	10462.19
468.23	10214.10
468.41	10181.33
468.60	10289.00
468.78	10420.06
468.96	10188.35
469.14	10569.86
469.32	10644.76
469.50	10464.54
469.69	10511.35
469.87	10719.65
470.05	10604.97
470.23	10588.58
470.41	10621.35
470.59	10714.97
470.77	10801.57
470.95	10572.20
471.14	10972.43
471.32	10740.72
471.50	10998.18
471.68	11110.52
471.86	11124.57
472.04	11030.94
472.22	11234.57
472.40	11096.48
472.58	11248.61
472.77	11576.29
472.95	11267.34
473.13	11613.74
473.31	11456.92
473.49	11552.88
473.67	11662.89
473.85	11468.62
474.03	11791.62
474.21	11658.21
474.39	11761.19
474.57	11915.67
474.75	12114.61
474.93	12013.97
475.12	12145.04
475.30	12126.32
475.48	12123.98
475.66	12241.00
475.84	12224.62
476.02	12400.16
476.20	12627.19
476.38	12535.91
476.56	12886.99
476.74	12727.83
476.92	12746.56
477.10	12657.62
477.28	13067.21
477.46	13036.78
477.64	13312.97
477.82	13228.71
478.00	13694.47
478.18	13593.83
478.36	13689.79
478.54	13806.82
478.72	13844.27
478.90	14052.58
479.08	14118.11
479.26	14464.51
479.44	14211.73
479.62	14129.81
479.80	14483.24
479.98	14511.32
480.16	14768.78
480.34	14558.13
480.52	14925.60
480.70	15054.33
480.88	15016.88
481.06	15084.75
481.24	15035.60
481.41	15494.35
481.59	15482.64
481.77	15707.34
481.95	15391.36
482.13	15927.35
482.31	15791.59
482.49	16353.32
482.67	16086.50
482.85	16355.66
483.03	16666.95
483.21	16776.96
483.39	16823.77
483.57	17071.87
483.74	17008.67
483.92	17055.48
484.10	16854.20
484.28	17371.46
484.46	17778.71
484.64	17769.35
484.82	17853.61
485.00	17858.29
485.18	18106.38
485.35	18405.97
485.53	18373.21
485.71	18637.69
485.89	18831.95
486.07	18806.20
486.25	19047.28
486.43	19019.19
486.61	18885.78
486.78	19391.34
486.96	19346.87
487.14	19644.12
487.32	19360.91
487.50	19700.29
487.68	19833.70
487.85	20336.91
488.03	20402.45
488.21	20493.73
488.39	20631.82
488.57	20805.02
488.75	20936.09
488.92	20889.28
489.10	21277.81
489.28	21748.26
489.46	21490.80
489.64	21481.44
489.81	22361.48
489.99	22099.34
490.17	22190.62
490.35	22443.40
490.53	22761.71
490.70	22569.79
490.88	22780.43
491.06	22991.08
491.24	23089.38
491.41	23056.62
491.59	23606.64
491.77	23599.62
491.95	23431.10
492.13	23704.95
492.30	24053.69
492.48	23548.13
492.66	24091.13
492.84	24016.24
493.01	24643.50
493.19	24173.05
493.37	24613.07
493.54	24596.69
493.72	25200.55
493.90	25036.71
494.08	25312.89
494.25	25401.83
494.43	25799.73
494.61	25750.57
494.79	25792.70
494.96	25788.02
495.14	25610.14
495.32	25919.09
495.49	26380.18
495.67	26469.12
495.85	26466.78
496.02	26799.13
496.20	27028.51
496.38	26977.01
496.55	27021.48
496.73	27632.36
496.91	27505.98
497.09	27997.49
497.26	27709.60
497.44	27604.28
497.62	27824.29
497.79	28290.06
497.97	28304.10
498.14	28957.11
498.32	28744.12
498.50	28531.13
498.67	28978.17
498.85	28517.09
499.03	29184.14
499.20	29331.59
499.38	29263.72
499.56	29230.95
499.73	29773.95
499.91	29549.26
500.08	29645.23
500.26	29757.57
500.44	30017.37
500.61	29898.00
500.79	30265.47
500.97	30288.87
501.14	30864.64
501.32	30501.86
501.49	30497.18
501.67	30778.04
501.84	31171.25
502.02	30911.46
502.20	31002.74
502.37	31082.31
502.55	31136.15
502.72	31473.18
502.90	31538.72
503.07	31068.27
503.25	31583.19
503.43	31573.83
503.60	31384.24
503.78	31812.56
503.95	31833.63
504.13	31894.48
504.30	32046.62
504.48	32095.77
504.65	32442.17
504.83	32875.16
505.01	32598.98
505.18	32601.32
505.36	32947.72
505.53	32800.27
505.71	32982.83
505.88	33085.81
506.06	33022.62
506.23	33612.43
506.41	33310.50
506.58	33317.53
506.76	33582.01
506.93	33736.48
507.11	33675.63
507.28	34150.76
507.46	33916.70
507.63	34408.22
507.81	34405.88
507.98	34022.03
508.16	34410.56
508.33	34511.20
508.50	34668.02
508.68	34869.30
508.85	34852.92
509.03	34803.77
509.20	34682.06
509.38	35557.42
509.55	35072.93
509.73	35393.58
509.90	35487.20
510.08	35828.92
510.25	35501.25
510.42	35648.70
510.60	35814.88
510.77	35782.11
510.95	36348.52
511.12	35798.49
511.30	36488.95
511.47	36170.64
511.64	36168.30
511.82	36795.56
511.99	36432.78
512.17	36605.98
512.34	36715.98
512.51	37172.39
512.69	37123.24
512.86	37083.45
513.04	37343.25
513.21	37392.40
513.38	37277.71
513.56	37027.28
513.73	37329.20
513.90	37699.01
514.08	37607.73
514.25	38117.96
514.43	38373.08
514.60	37872.21
514.77	37928.38
514.95	37991.58
515.12	37677.94
515.29	37888.59
515.47	38529.90
515.64	38632.88
515.81	38557.99
515.99	38909.07
516.16	38878.64
516.33	38754.59
516.51	39122.05
516.68	39323.34
516.85	39283.55
517.03	39461.43
517.20	39079.92
517.37	39220.36
517.54	39117.37
517.72	39175.89
517.89	39821.87
518.06	39665.06
518.24	39981.03
518.41	39697.83
518.58	39754.00
518.75	39613.57
518.93	39611.23
519.10	39541.01
519.27	40025.50
519.45	40177.64
519.62	40304.02
519.79	40732.34
519.96	40444.46
520.14	40505.31
520.31	40533.40
520.48	40390.62
520.65	40774.47
520.83	40879.80
521.00	41109.17
521.17	40612.98
521.34	41277.69
521.52	41226.20
521.69	41111.51
521.86	41202.79
522.03	41717.71
522.20	41434.50
522.38	41759.84
522.55	41773.88
522.72	41993.89
522.89	41790.27
523.07	42375.40
523.24	41848.78
523.41	42057.09
523.58	41956.44
523.75	42792.01
523.92	42487.74
524.10	42731.16
524.27	42904.36
524.44	42880.95
524.61	42866.91
524.78	42579.03
524.96	43463.75
525.13	43152.46
525.30	43407.58
525.47	43302.25
525.64	42960.53
525.81	43201.61
525.98	43196.93
526.16	43068.20
526.33	42777.97
526.50	43468.43
526.67	43227.35
526.84	43725.89
527.01	43578.43
527.18	44072.29
527.36	43920.15
527.53	43660.35
527.70	44472.52
527.87	43976.33
528.04	44334.43
528.21	44481.88
528.38	44332.09
528.55	44313.36
528.72	44114.42
528.89	44158.89
529.07	44205.70
529.24	44404.64
529.41	44999.14
529.58	44928.92
529.75	44437.41
529.92	44641.04
530.09	45132.55
530.26	44830.62
530.43	44374.22
530.60	44357.83
530.77	44973.39
530.94	45464.91
531.11	45301.07
531.28	45251.92
531.46	45301.07
531.63	45329.16
531.80	45420.44
531.97	45612.36
532.14	45649.81
532.31	45221.49
532.48	45523.42
532.65	46347.29
532.82	45710.66
532.99	45691.94
533.16	46000.89
533.33	46195.15
533.50	46340.27
533.67	46019.61
533.84	45989.19
534.01	46033.66
534.18	45933.01
534.35	46784.97
534.52	46476.02
534.69	46607.09
534.86	46597.73
535.03	46146.00
535.20	46754.54
535.37	46923.06
535.54	47173.50
535.71	46920.72
535.88	47178.18
536.05	46784.97
536.22	47133.71
536.38	47133.71
536.55	47182.86
536.72	47327.97
536.89	47220.31
537.06	47594.79
537.23	47615.86
537.40	47686.07
537.57	47470.75
537.74	47435.64
537.91	47590.11
538.08	47292.86
538.25	47065.83
538.42	47653.31
538.59	47772.67
538.75	47632.24
538.92	47758.63
539.09	47959.92
539.26	47840.55
539.43	47655.65
539.60	48088.65
539.77	48016.09
539.94	48350.79
540.11	48334.40
540.28	48252.48
540.44	48341.42
540.61	48626.97
540.78	48437.39
540.95	47894.38
541.12	48334.40
541.29	48343.77
541.46	48772.08
541.62	49092.74
541.79	49076.35
541.96	48669.10
542.13	48903.15
542.30	48825.92
542.47	48783.79
542.63	49202.74
542.80	49432.11
542.97	49511.69
543.14	49738.72
543.31	49593.61
543.48	49350.20
543.64	50014.91
543.81	49677.87
543.98	49808.94
544.15	49584.25
544.32	49708.30
544.48	50017.25
544.65	49640.42
544.82	50398.76
544.99	49673.19
545.16	50026.61
545.32	49525.74
545.49	50143.64
545.66	50340.24
545.83	50464.29
546.00	50504.08
546.16	50351.94
546.33	50693.66
546.50	50497.06
546.67	50391.73
546.83	49387.64
547.00	50251.30
547.17	49991.50
547.34	50232.58
547.50	50632.81
547.67	50923.04
547.84	50719.41
548.00	51168.79
548.17	50834.10
548.34	50550.89
548.51	50602.38
548.67	50677.28
548.84	50988.57
549.01	50527.48
549.18	50986.23
549.34	50522.80
549.51	51154.75
549.68	51121.98
549.84	50775.58
550.01	50897.29
550.18	50660.90
550.34	50691.32
550.51	50892.61
550.68	51026.02
550.84	50644.51
551.01	51290.50
551.18	50969.85
551.34	50829.41
551.51	50808.35
551.68	51339.65
551.84	51220.28
552.01	50784.94
552.18	51126.66
552.34	51072.83
552.51	51201.56
552.68	51316.25
552.84	51578.39
553.01	51512.85
553.18	51480.08
553.34	51419.23
553.51	51236.67
553.67	51433.27
553.84	51950.53
554.01	51863.93
554.17	51908.40
554.34	52030.11
554.51	51721.16
554.67	51512.85
554.84	51536.26
555.00	51634.56
555.17	51447.32
555.33	51707.12
555.50	51538.60
555.67	51643.92
555.83	51697.75
556.00	52186.92
556.16	52353.10
556.33	52081.60
556.50	51889.68
556.66	51969.26
556.83	51859.25
556.99	51938.83
557.16	52383.53
557.32	52229.05
557.49	52224.37
557.65	52336.72
557.82	52236.08
557.98	52037.13
558.15	52154.16
558.32	52292.25
558.48	52081.60
558.65	52364.81
558.81	52521.62
558.98	52336.72
559.14	52474.81
559.31	52467.79
559.47	52348.42
559.64	52287.57
559.80	52746.31
559.97	52591.84
560.13	52229.05
560.30	52310.97
560.46	52184.58
560.63	52790.78
560.79	52725.25
560.96	52865.68
561.12	52800.15
561.29	52790.78
561.45	52753.33
561.61	52648.01
561.78	52629.29
561.94	52938.24
562.11	52743.97
562.27	52907.81
562.44	53015.47
562.60	52907.81
562.77	52924.19
562.93	52982.71
563.10	52994.41
563.26	52402.25
563.42	53120.80
563.59	53141.86
563.75	52549.71
563.92	53485.92
564.08	52830.57
564.24	52945.26
564.41	52956.96
564.57	52940.58
564.74	52839.93
564.90	53102.07
565.07	53265.91
565.23	53506.99
565.39	53120.80
565.56	53345.49
565.72	53216.76
565.88	52935.90
566.05	53279.96
566.21	52851.64
566.38	52938.24
566.54	53048.24
566.70	53008.45
566.87	53598.27
567.03	53329.11
567.19	53553.80
567.36	53406.34
567.52	53312.72
567.68	53340.81
567.85	53277.61
568.01	53158.25
568.17	53214.42
568.34	53092.71
568.50	53373.58
568.66	53478.90
568.83	53698.91
568.99	53404.00
569.15	53244.85
569.32	53492.94
569.48	53102.07
569.64	53279.96
569.81	53698.91
569.97	52978.03
570.13	53160.59
570.30	53146.54
570.46	53111.44
570.62	53572.52
570.78	53357.19
570.95	53408.68
571.11	53539.75
571.27	53272.93
571.43	53319.74
571.60	53532.73
571.76	53525.71
571.92	53579.54
572.09	53670.82
572.25	53579.54
572.41	53656.78
572.57	53865.09
572.74	53881.47
572.90	53436.77
573.06	53471.88
573.22	53504.65
573.38	53724.66
573.55	53659.12
573.71	53682.53
573.87	53614.65
574.03	53581.88
574.20	53703.59
574.36	53804.24
574.52	53602.95
574.68	53602.95
574.84	53628.69
575.01	53829.98
575.17	53815.94
575.33	53446.13
575.49	53502.31
575.65	53874.45
575.82	54000.84
575.98	53640.40
576.14	53783.17
576.30	53787.85
576.46	53989.14
576.62	53724.66
576.79	53757.42
576.95	53729.34
577.11	54010.20
577.27	54169.36
577.43	53766.79
577.59	54026.59
577.75	53612.31
577.92	53492.94
578.08	53851.05
578.24	53818.28
578.40	54234.89
578.56	54209.15
578.72	53785.51
578.88	54326.17
579.04	54237.23
579.21	54103.82
579.37	53965.73
579.53	54223.19
579.69	53703.59
579.85	53869.77
580.01	54103.82
580.17	53862.75
580.33	54092.12
580.49	54160.00
580.65	54155.32
580.82	54012.54
580.98	54248.94
581.14	53996.16
581.30	54066.38
581.46	54078.08
581.62	54248.94
581.78	53890.83
581.94	53837.00
582.10	53956.37
582.26	54000.84
582.42	53984.46
582.58	53998.50
582.74	54007.86
582.90	54167.02
583.06	54181.06
583.22	53855.73
583.38	53865.09
583.54	53982.12
583.70	54047.65
583.86	54026.59
584.02	53872.11
584.18	54232.55
584.34	54122.55
584.50	54316.81
584.66	54169.36
584.82	53860.41
584.98	54103.82
585.14	53951.69
585.30	54054.67
585.46	54223.19
585.62	54087.44
585.78	54274.68
585.94	54216.17
586.10	54143.61
586.26	54506.40
586.42	54314.47
586.58	54288.73
586.74	54403.41
586.90	54054.67
587.06	54330.86
587.22	54375.33
587.38	54251.28
587.54	54218.51
587.70	54747.47
587.86	54239.57
588.02	54482.99
588.18	54419.80
588.34	54490.01
588.49	54637.47
588.65	53818.28
