SpectraSuite Data File
++++++++++++++++++++++++++++++++++++
Date: Thu Oct 24 13:20:59 EDT 2013
User: stostad
Dark Spectrum Present: No
Reference Spectrum Present: No
Number of Sampled Component Spectra: 1
Spectrometers: USB2+H05261
Integration Time (usec): 100000 (USB2+H05261)
Spectra Averaged: 1 (USB2+H05261)
Boxcar Smoothing: 0 (USB2+H05261)
Correct for Electrical Dark: No (USB2+H05261)
Strobe/Lamp Enabled: No (USB2+H05261)
Correct for Detector Non-linearity: No (USB2+H05261)
Correct for Stray Light: No (USB2+H05261)
Number of Pixels in Processed Spectrum: 2048
>>>>>Begin Processed Spectral Data<<<<<
365.73	568.75
365.92	568.75
366.12	568.75
366.32	554.71
366.52	543.00
366.72	470.45
366.91	564.07
367.11	444.70
367.31	414.27
367.51	421.30
367.70	479.81
367.90	449.38
368.10	442.36
368.30	458.74
368.49	458.74
368.69	454.06
368.89	470.45
369.09	479.81
369.28	428.32
369.48	535.98
369.68	543.00
369.87	545.34
370.07	461.09
370.27	561.73
370.47	557.05
370.66	493.85
370.86	519.60
371.06	575.77
371.25	575.77
371.45	566.41
371.65	617.90
371.84	641.31
372.04	543.00
372.24	566.41
372.44	606.20
372.63	620.24
372.83	601.52
373.03	568.75
373.22	617.90
373.42	589.82
373.62	681.10
373.81	638.97
374.01	734.93
374.21	657.69
374.40	676.41
374.60	669.39
374.79	643.65
374.99	613.22
375.19	568.75
375.38	667.05
375.58	695.14
375.78	603.86
375.97	540.66
376.17	613.22
376.37	634.29
376.56	622.58
376.76	594.50
376.95	585.13
377.15	620.24
377.35	657.69
377.54	629.60
377.74	594.50
377.93	643.65
378.13	566.41
378.33	653.01
378.52	613.22
378.72	592.16
378.91	699.82
379.11	655.35
379.31	573.43
379.50	599.18
379.70	641.31
379.89	589.82
380.09	617.90
380.28	603.86
380.48	620.24
380.68	610.88
380.87	587.47
381.07	617.90
381.26	655.35
381.46	664.71
381.65	617.90
381.85	624.92
382.04	641.31
382.24	594.50
382.43	645.99
382.63	571.09
382.83	620.24
383.02	596.84
383.22	564.07
383.41	554.71
383.61	585.13
383.80	648.33
384.00	622.58
384.19	667.05
384.39	645.99
384.58	660.03
384.78	636.63
384.97	674.07
385.17	589.82
385.36	620.24
385.56	601.52
385.75	594.50
385.95	634.29
386.14	706.84
386.34	571.09
386.53	580.45
386.72	608.54
386.92	648.33
387.11	615.56
387.31	578.11
387.50	573.43
387.70	582.79
387.89	610.88
388.09	638.97
388.28	615.56
388.48	585.13
388.67	599.18
388.86	594.50
389.06	601.52
389.25	624.92
389.45	636.63
389.64	629.60
389.84	737.27
390.03	606.20
390.22	669.39
390.42	671.73
390.61	578.11
390.81	620.24
391.00	615.56
391.19	641.31
391.39	587.47
391.58	685.78
391.78	617.90
391.97	655.35
392.16	683.44
392.36	622.58
392.55	587.47
392.75	573.43
392.94	575.77
393.13	634.29
393.33	599.18
393.52	664.71
393.71	641.31
393.91	613.22
394.10	568.75
394.29	615.56
394.49	645.99
394.68	678.76
394.88	643.65
395.07	676.41
395.26	657.69
395.46	599.18
395.65	662.37
395.84	624.92
396.04	688.12
396.23	613.22
396.42	596.84
396.62	564.07
396.81	664.71
397.00	664.71
397.19	674.07
397.39	596.84
397.58	606.20
397.77	599.18
397.97	596.84
398.16	573.43
398.35	599.18
398.55	564.07
398.74	578.11
398.93	631.94
399.12	622.58
399.32	655.35
399.51	594.50
399.70	660.03
399.90	702.16
400.09	627.26
400.28	660.03
400.47	615.56
400.67	650.67
400.86	667.05
401.05	650.67
401.24	599.18
401.44	676.41
401.63	655.35
401.82	620.24
402.01	667.05
402.21	678.76
402.40	648.33
402.59	645.99
402.78	615.56
402.97	660.03
403.17	601.52
403.36	592.16
403.55	641.31
403.74	636.63
403.93	627.26
404.13	596.84
404.32	720.88
404.51	657.69
404.70	695.14
404.89	643.65
405.09	671.73
405.28	615.56
405.47	653.01
405.66	629.60
405.85	650.67
406.05	634.29
406.24	606.20
406.43	608.54
406.62	674.07
406.81	603.86
407.00	587.47
407.20	636.63
407.39	617.90
407.58	664.71
407.77	608.54
407.96	676.41
408.15	608.54
408.34	608.54
408.54	622.58
408.73	573.43
408.92	610.88
409.11	613.22
409.30	704.50
409.49	662.37
409.68	596.84
409.87	683.44
410.07	610.88
410.26	667.05
410.45	620.24
410.64	610.88
410.83	667.05
411.02	547.69
411.21	706.84
411.40	629.60
411.59	582.79
411.78	608.54
411.98	643.65
412.17	643.65
412.36	662.37
412.55	631.94
412.74	617.90
412.93	582.79
413.12	657.69
413.31	573.43
413.50	674.07
413.69	610.88
413.88	688.12
414.07	706.84
414.26	608.54
414.45	636.63
414.64	676.41
414.83	610.88
415.02	648.33
415.22	613.22
415.41	688.12
415.60	636.63
415.79	589.82
415.98	645.99
416.17	688.12
416.36	624.92
416.55	580.45
416.74	615.56
416.93	681.10
417.12	641.31
417.31	564.07
417.50	575.77
417.69	613.22
417.88	629.60
418.07	578.11
418.26	697.48
418.45	575.77
418.64	594.50
418.83	617.90
419.02	655.35
419.21	660.03
419.39	599.18
419.58	650.67
419.77	643.65
419.96	648.33
420.15	678.76
420.34	648.33
420.53	617.90
420.72	622.58
420.91	702.16
421.10	587.47
421.29	617.90
421.48	699.82
421.67	662.37
421.86	620.24
422.05	645.99
422.24	627.26
422.43	594.50
422.61	603.86
422.80	571.09
422.99	655.35
423.18	674.07
423.37	641.31
423.56	608.54
423.75	643.65
423.94	594.50
424.13	734.93
424.32	582.79
424.50	624.92
424.69	617.90
424.88	629.60
425.07	662.37
425.26	671.73
425.45	688.12
425.64	648.33
425.83	599.18
426.01	669.39
426.20	685.78
426.39	608.54
426.58	638.97
426.77	650.67
426.96	643.65
427.15	678.76
427.33	653.01
427.52	622.58
427.71	603.86
427.90	608.54
428.09	594.50
428.28	648.33
428.46	648.33
428.65	662.37
428.84	575.77
429.03	664.71
429.22	608.54
429.40	603.86
429.59	601.52
429.78	638.97
429.97	592.16
430.16	699.82
430.34	702.16
430.53	589.82
430.72	622.58
430.91	627.26
431.10	608.54
431.28	653.01
431.47	636.63
431.66	575.77
431.85	627.26
432.03	648.33
432.22	641.31
432.41	681.10
432.60	671.73
432.79	664.71
432.97	627.26
433.16	566.41
433.35	559.39
433.54	617.90
433.72	615.56
433.91	657.69
434.10	587.47
434.28	657.69
434.47	674.07
434.66	676.41
434.85	643.65
435.03	844.93
435.22	1022.81
435.41	1179.63
435.59	1078.99
435.78	971.32
435.97	882.38
436.16	772.38
436.34	716.20
436.53	683.44
436.72	695.14
436.90	667.05
437.09	592.16
437.28	615.56
437.46	608.54
437.65	681.10
437.84	603.86
438.02	671.73
438.21	648.33
438.40	557.05
438.58	596.84
438.77	716.20
438.96	641.31
439.14	601.52
439.33	629.60
439.52	613.22
439.70	624.92
439.89	596.84
440.08	690.46
440.26	655.35
440.45	641.31
440.63	615.56
440.82	685.78
441.01	678.76
441.19	685.78
441.38	620.24
441.57	615.56
441.75	662.37
441.94	629.60
442.12	662.37
442.31	601.52
442.50	681.10
442.68	582.79
442.87	638.97
443.05	631.94
443.24	681.10
443.43	667.05
443.61	655.35
443.80	638.97
443.98	645.99
444.17	610.88
444.35	631.94
444.54	648.33
444.73	641.31
444.91	627.26
445.10	610.88
445.28	643.65
445.47	627.26
445.65	580.45
445.84	601.52
446.02	711.52
446.21	627.26
446.39	699.82
446.58	671.73
446.77	641.31
446.95	636.63
447.14	624.92
447.32	727.91
447.51	671.73
447.69	662.37
447.88	601.52
448.06	589.82
448.25	629.60
448.43	585.13
448.62	641.31
448.80	624.92
448.99	655.35
449.17	671.73
449.36	573.43
449.54	706.84
449.73	667.05
449.91	636.63
450.10	601.52
450.28	681.10
450.46	695.14
450.65	669.39
450.83	648.33
451.02	613.22
451.20	702.16
451.39	676.41
451.57	664.71
451.76	657.69
451.94	645.99
452.13	645.99
452.31	692.80
452.49	634.29
452.68	575.77
452.86	582.79
453.05	706.84
453.23	627.26
453.42	613.22
453.60	610.88
453.78	629.60
453.97	627.26
454.15	601.52
454.34	669.39
454.52	620.24
454.70	662.37
454.89	669.39
455.07	589.82
455.26	631.94
455.44	685.78
455.62	667.05
455.81	667.05
455.99	681.10
456.17	676.41
456.36	692.80
456.54	638.97
456.73	634.29
456.91	610.88
457.09	592.16
457.28	617.90
457.46	690.46
457.64	662.37
457.83	629.60
458.01	657.69
458.19	695.14
458.38	634.29
458.56	688.12
458.74	608.54
458.93	622.58
459.11	643.65
459.29	631.94
459.48	638.97
459.66	615.56
459.84	599.18
460.03	606.20
460.21	641.31
460.39	650.67
460.57	664.71
460.76	660.03
460.94	657.69
461.12	653.01
461.31	688.12
461.49	634.29
461.67	587.47
461.85	561.73
462.04	627.26
462.22	999.41
462.40	594.50
462.59	709.18
462.77	615.56
462.95	594.50
463.13	622.58
463.32	692.80
463.50	636.63
463.68	624.92
463.86	601.52
464.05	608.54
464.23	667.05
464.41	683.44
464.59	676.41
464.78	674.07
464.96	575.77
465.14	681.10
465.32	685.78
465.50	643.65
465.69	664.71
465.87	599.18
466.05	580.45
466.23	638.97
466.41	648.33
466.60	664.71
466.78	695.14
466.96	676.41
467.14	627.26
467.32	636.63
467.51	655.35
467.69	732.59
467.87	692.80
468.05	622.58
468.23	622.58
468.41	622.58
468.60	624.92
468.78	610.88
468.96	599.18
469.14	690.46
469.32	676.41
469.50	638.97
469.69	589.82
469.87	699.82
470.05	622.58
470.23	685.78
470.41	685.78
470.59	657.69
470.77	631.94
470.95	671.73
471.14	709.18
471.32	617.90
471.50	610.88
471.68	648.33
471.86	674.07
472.04	603.86
472.22	645.99
472.40	660.03
472.58	641.31
472.77	634.29
472.95	678.76
473.13	613.22
473.31	678.76
473.49	627.26
473.67	655.35
473.85	613.22
474.03	627.26
474.21	681.10
474.39	589.82
474.57	720.88
474.75	643.65
474.93	617.90
475.12	702.16
475.30	601.52
475.48	594.50
475.66	608.54
475.84	620.24
476.02	622.58
476.20	596.84
476.38	627.26
476.56	645.99
476.74	638.97
476.92	620.24
477.10	681.10
477.28	641.31
477.46	641.31
477.64	631.94
477.82	608.54
478.00	699.82
478.18	669.39
478.36	681.10
478.54	608.54
478.72	608.54
478.90	650.67
479.08	706.84
479.26	662.37
479.44	617.90
479.62	606.20
479.80	667.05
479.98	599.18
480.16	732.59
480.34	669.39
480.52	613.22
480.70	627.26
480.88	599.18
481.06	636.63
481.24	627.26
481.41	636.63
481.59	599.18
481.77	648.33
481.95	683.44
482.13	662.37
482.31	660.03
482.49	706.84
482.67	716.20
482.85	760.67
483.03	671.73
483.21	596.84
483.39	723.23
483.57	690.46
483.74	683.44
483.92	653.01
484.10	706.84
484.28	732.59
484.46	699.82
484.64	660.03
484.82	648.33
485.00	753.65
485.18	709.18
485.35	676.41
485.53	650.67
485.71	781.74
485.89	706.84
486.07	711.52
486.25	723.23
486.43	765.36
486.61	699.82
486.78	718.54
486.96	755.99
487.14	704.50
487.32	725.57
487.50	725.57
487.68	753.65
487.85	662.37
488.03	739.61
488.21	746.63
488.39	737.27
488.57	763.01
488.75	709.18
488.92	781.74
489.10	763.01
489.28	685.78
489.46	674.07
489.64	779.40
489.81	706.84
489.99	699.82
490.17	671.73
490.35	805.14
490.53	650.67
490.70	692.80
490.88	767.70
491.06	704.50
491.24	723.23
491.41	732.59
491.59	753.65
491.77	676.41
491.95	648.33
492.13	671.73
492.30	732.59
492.48	697.48
492.66	713.86
492.84	674.07
493.01	779.40
493.19	678.76
493.37	784.08
493.54	671.73
493.72	704.50
493.90	692.80
494.08	716.20
494.25	667.05
494.43	690.46
494.61	613.22
494.79	603.86
494.96	636.63
495.14	711.52
495.32	723.23
495.49	638.97
495.67	730.25
495.85	648.33
496.02	758.33
496.20	683.44
496.38	685.78
496.55	688.12
496.73	585.13
496.91	671.73
497.09	746.63
497.26	695.14
497.44	695.14
497.62	662.37
497.79	645.99
497.97	681.10
498.14	660.03
498.32	730.25
498.50	660.03
498.67	725.57
498.85	706.84
499.03	660.03
499.20	713.86
499.38	674.07
499.56	676.41
499.73	643.65
499.91	697.48
500.08	664.71
500.26	645.99
500.44	622.58
500.61	648.33
500.79	648.33
500.97	681.10
501.14	671.73
501.32	631.94
501.49	697.48
501.67	711.52
501.84	617.90
502.02	589.82
502.20	669.39
502.37	643.65
502.55	674.07
502.72	648.33
502.90	653.01
503.07	627.26
503.25	709.18
503.43	620.24
503.60	575.77
503.78	624.92
503.95	624.92
504.13	620.24
504.30	678.76
504.48	706.84
504.65	683.44
504.83	690.46
505.01	634.29
505.18	650.67
505.36	681.10
505.53	592.16
505.71	634.29
505.88	606.20
506.06	716.20
506.23	678.76
506.41	631.94
506.58	610.88
506.76	692.80
506.93	669.39
507.11	664.71
507.28	582.79
507.46	634.29
507.63	702.16
507.81	638.97
507.98	592.16
508.16	650.67
508.33	678.76
508.50	685.78
508.68	674.07
508.85	636.63
509.03	585.13
509.20	592.16
509.38	667.05
509.55	681.10
509.73	638.97
509.90	669.39
510.08	660.03
510.25	683.44
510.42	634.29
510.60	620.24
510.77	699.82
510.95	662.37
511.12	676.41
511.30	716.20
511.47	660.03
511.64	664.71
511.82	678.76
511.99	674.07
512.17	720.88
512.34	685.78
512.51	699.82
512.69	641.31
512.86	620.24
513.04	667.05
513.21	723.23
513.38	688.12
513.56	662.37
513.73	606.20
513.90	596.84
514.08	648.33
514.25	704.50
514.43	610.88
514.60	678.76
514.77	580.45
514.95	662.37
515.12	690.46
515.29	676.41
515.47	610.88
515.64	641.31
515.81	589.82
515.99	629.60
516.16	660.03
516.33	557.05
516.51	631.94
516.68	603.86
516.85	589.82
517.03	622.58
517.20	634.29
517.37	601.52
517.54	636.63
517.72	631.94
517.89	669.39
518.06	620.24
518.24	706.84
518.41	716.20
518.58	690.46
518.75	564.07
518.93	660.03
519.10	692.80
519.27	648.33
519.45	678.76
519.62	631.94
519.79	631.94
519.96	739.61
520.14	676.41
520.31	653.01
520.48	676.41
520.65	718.54
520.83	655.35
521.00	681.10
521.17	648.33
521.34	634.29
521.52	716.20
521.69	657.69
521.86	678.76
522.03	746.63
522.20	699.82
522.38	699.82
522.55	676.41
522.72	662.37
522.89	695.14
523.07	671.73
523.24	641.31
523.41	578.11
523.58	554.71
523.75	641.31
523.92	671.73
524.10	655.35
524.27	645.99
524.44	720.88
524.61	589.82
524.78	613.22
524.96	610.88
525.13	617.90
525.30	629.60
525.47	634.29
525.64	599.18
525.81	636.63
525.98	608.54
526.16	657.69
526.33	620.24
526.50	650.67
526.67	678.76
526.84	594.50
527.01	657.69
527.18	667.05
527.36	568.75
527.53	718.54
527.70	669.39
527.87	615.56
528.04	706.84
528.21	636.63
528.38	725.57
528.55	713.86
528.72	683.44
528.89	645.99
529.07	617.90
529.24	692.80
529.41	641.31
529.58	669.39
529.75	669.39
529.92	655.35
530.09	634.29
530.26	627.26
530.43	638.97
530.60	667.05
530.77	655.35
530.94	608.54
531.11	641.31
531.28	615.56
531.46	599.18
531.63	692.80
531.80	608.54
531.97	716.20
532.14	657.69
532.31	690.46
532.48	688.12
532.65	650.67
532.82	627.26
532.99	692.80
533.16	702.16
533.33	720.88
533.50	662.37
533.67	695.14
533.84	784.08
534.01	697.48
534.18	685.78
534.35	674.07
534.52	683.44
534.69	730.25
534.86	601.52
535.03	624.92
535.20	667.05
535.37	751.31
535.54	671.73
535.71	669.39
535.88	706.84
536.05	678.76
536.22	727.91
536.38	709.18
536.55	767.70
536.72	664.71
536.89	681.10
537.06	695.14
537.23	678.76
537.40	690.46
537.57	730.25
537.74	784.08
537.91	737.27
538.08	699.82
538.25	699.82
538.42	732.59
538.59	793.44
538.75	767.70
538.92	760.67
539.09	807.48
539.26	819.19
539.43	861.32
539.60	819.19
539.77	903.45
539.94	943.24
540.11	889.40
540.28	915.15
540.44	997.07
540.61	938.55
540.78	1013.45
540.95	1114.10
541.12	1156.22
541.29	1224.10
541.46	1284.95
541.62	1313.04
541.79	1343.47
541.96	1338.79
542.13	1256.87
542.30	1294.32
542.47	1226.44
542.63	1259.21
542.80	1174.95
542.97	1242.82
543.14	1233.46
543.31	1242.82
543.48	1240.48
543.64	1254.53
543.81	1200.69
543.98	1228.78
544.15	1200.69
544.32	1327.08
544.48	1219.42
544.65	1210.06
544.82	1137.50
544.99	1149.20
545.16	1196.01
545.32	1263.89
545.49	1593.90
545.66	2033.93
545.83	2141.59
546.00	1898.17
546.16	1659.44
546.33	1572.84
546.50	1397.30
546.67	1252.19
546.83	1095.37
547.00	1160.91
547.17	1022.81
547.34	1011.11
547.50	1013.45
547.67	1001.75
547.84	929.19
548.00	997.07
548.17	945.58
548.34	877.70
548.51	931.53
548.67	931.53
548.84	915.15
549.01	1004.09
549.18	854.30
549.34	795.78
549.51	866.00
549.68	844.93
549.84	870.68
550.01	856.64
550.18	849.61
550.34	835.57
550.51	840.25
550.68	940.90
550.84	779.40
551.01	863.66
551.18	837.91
551.34	812.17
551.51	725.57
551.68	772.38
551.84	795.78
552.01	800.46
552.18	758.33
552.34	802.80
552.51	765.36
552.68	765.36
552.84	725.57
553.01	683.44
553.18	795.78
553.34	720.88
553.51	784.08
553.67	732.59
553.84	676.41
554.01	674.07
554.17	711.52
554.34	699.82
554.51	606.20
554.67	685.78
554.84	669.39
555.00	688.12
555.17	758.33
555.33	704.50
555.50	697.48
555.67	685.78
555.83	606.20
556.00	662.37
556.16	830.89
556.33	681.10
556.50	664.71
556.66	697.48
556.83	599.18
556.99	620.24
557.16	702.16
557.32	629.60
557.49	755.99
557.65	582.79
557.82	688.12
557.98	685.78
558.15	624.92
558.32	664.71
558.48	638.97
558.65	681.10
558.81	699.82
558.98	669.39
559.14	657.69
559.31	650.67
559.47	711.52
559.64	667.05
559.80	702.16
559.97	655.35
560.13	660.03
560.30	650.67
560.46	603.86
560.63	660.03
560.79	674.07
560.96	702.16
561.12	641.31
561.29	603.86
561.45	641.31
561.61	627.26
561.78	695.14
561.94	699.82
562.11	674.07
562.27	645.99
562.44	627.26
562.60	648.33
562.77	690.46
562.93	748.97
563.10	636.63
563.26	667.05
563.42	685.78
563.59	655.35
563.75	615.56
563.92	685.78
564.08	601.52
564.24	746.63
564.41	690.46
564.57	671.73
564.74	716.20
564.90	631.94
565.07	636.63
565.23	690.46
565.39	629.60
565.56	615.56
565.72	641.31
565.88	674.07
566.05	667.05
566.21	671.73
566.38	601.52
566.54	641.31
566.70	667.05
566.87	690.46
567.03	678.76
567.19	655.35
567.36	638.97
567.52	638.97
567.68	599.18
567.85	699.82
568.01	664.71
568.17	641.31
568.34	631.94
568.50	690.46
568.66	592.16
568.83	695.14
568.99	697.48
569.15	631.94
569.32	653.01
569.48	653.01
569.64	669.39
569.81	620.24
569.97	631.94
570.13	718.54
570.30	657.69
570.46	650.67
570.62	695.14
570.78	629.60
570.95	634.29
571.11	699.82
571.27	709.18
571.43	622.58
571.60	631.94
571.76	657.69
571.92	744.29
572.09	608.54
572.25	709.18
572.41	653.01
572.57	697.48
572.74	641.31
572.90	706.84
573.06	657.69
573.22	657.69
573.38	657.69
573.55	704.50
573.71	744.29
573.87	655.35
574.03	667.05
574.20	657.69
574.36	737.27
574.52	643.65
574.68	678.76
574.84	653.01
575.01	660.03
575.17	676.41
575.33	634.29
575.49	669.39
575.65	676.41
575.82	615.56
575.98	702.16
576.14	669.39
576.30	763.01
576.46	781.74
576.62	882.38
576.79	894.08
576.95	823.87
577.11	781.74
577.27	772.38
577.43	802.80
577.59	671.73
577.75	643.65
577.92	748.97
578.08	744.29
578.24	681.10
578.40	709.18
578.56	763.01
578.72	887.06
578.88	929.19
579.04	889.40
579.21	763.01
579.37	744.29
579.53	858.98
579.69	770.04
579.85	786.42
580.01	798.12
580.17	748.97
580.33	795.78
580.49	671.73
580.65	699.82
580.82	777.06
580.98	753.65
581.14	699.82
581.30	744.29
581.46	678.76
581.62	751.31
581.78	753.65
581.94	746.63
582.10	774.72
582.26	786.42
582.42	753.65
582.58	713.86
582.74	786.42
582.90	772.38
583.06	732.59
583.22	807.48
583.38	842.59
583.54	826.21
583.70	744.29
583.86	765.36
584.02	732.59
584.18	795.78
584.34	793.44
584.50	798.12
584.66	791.10
584.82	704.50
584.98	767.70
585.14	837.91
585.30	791.10
585.46	751.31
585.62	746.63
585.78	774.72
585.94	741.95
586.10	760.67
586.26	781.74
586.42	858.98
586.58	791.10
586.74	858.98
586.90	870.68
587.06	873.02
587.22	868.34
587.38	809.83
587.54	873.02
587.70	833.23
587.86	779.40
588.02	856.64
588.18	772.38
588.34	814.51
588.49	683.44
588.65	727.91
588.81	737.27
588.97	763.01
589.13	765.36
589.29	751.31
589.45	758.33
589.61	690.46
589.77	716.20
589.93	695.14
590.08	739.61
590.24	683.44
590.40	655.35
590.56	774.72
590.72	739.61
590.88	760.67
591.04	681.10
591.20	727.91
591.35	716.20
591.51	788.76
591.67	741.95
591.83	716.20
591.99	770.04
592.15	746.63
592.31	765.36
592.46	821.53
592.62	870.68
592.78	830.89
592.94	795.78
593.10	842.59
593.26	826.21
593.41	730.25
593.57	821.53
593.73	695.14
593.89	725.57
594.05	690.46
594.20	767.70
594.36	751.31
594.52	791.10
594.68	748.97
594.84	713.86
594.99	758.33
595.15	746.63
595.31	732.59
595.47	725.57
595.62	706.84
595.78	732.59
595.94	678.76
596.10	723.23
596.25	664.71
596.41	697.48
596.57	770.04
596.73	620.24
596.88	692.80
597.04	711.52
597.20	674.07
597.36	711.52
597.51	620.24
597.67	720.88
597.83	692.80
597.99	681.10
598.14	699.82
598.30	730.25
598.46	664.71
598.61	748.97
598.77	737.27
598.93	763.01
599.09	730.25
599.24	748.97
599.40	819.19
599.56	777.06
599.71	784.08
599.87	779.40
600.03	844.93
600.18	744.29
600.34	763.01
600.50	758.33
600.65	704.50
600.81	702.16
600.97	629.60
601.12	699.82
601.28	720.88
601.44	697.48
601.59	704.50
601.75	674.07
601.91	645.99
602.06	760.67
602.22	718.54
602.37	716.20
602.53	678.76
602.69	748.97
602.84	695.14
603.00	727.91
603.16	650.67
603.31	739.61
603.47	662.37
603.62	660.03
603.78	688.12
603.94	716.20
604.09	695.14
604.25	702.16
604.40	760.67
604.56	667.05
604.71	685.78
604.87	660.03
605.03	711.52
605.18	758.33
605.34	688.12
605.49	692.80
605.65	657.69
605.80	695.14
605.96	667.05
606.12	622.58
606.27	711.52
606.43	688.12
606.58	732.59
606.74	727.91
606.89	718.54
607.05	746.63
607.20	678.76
607.36	718.54
607.51	695.14
607.67	734.93
607.82	788.76
607.98	755.99
608.13	784.08
608.29	765.36
608.44	791.10
608.60	760.67
608.75	784.08
608.91	781.74
609.06	880.04
609.22	814.51
609.37	887.06
609.53	851.96
609.68	896.43
