SpectraSuite Data File
++++++++++++++++++++++++++++++++++++
Date: Thu Oct 24 13:21:17 EDT 2013
User: stostad
Dark Spectrum Present: No
Reference Spectrum Present: No
Number of Sampled Component Spectra: 1
Spectrometers: USB2+H05261
Integration Time (usec): 100000 (USB2+H05261)
Spectra Averaged: 1 (USB2+H05261)
Boxcar Smoothing: 0 (USB2+H05261)
Correct for Electrical Dark: No (USB2+H05261)
Strobe/Lamp Enabled: No (USB2+H05261)
Correct for Detector Non-linearity: No (USB2+H05261)
Correct for Stray Light: No (USB2+H05261)
Number of Pixels in Processed Spectrum: 2048
>>>>>Begin Processed Spectral Data<<<<<
365.73	486.83
365.92	486.83
366.12	486.83
366.32	517.26
366.52	482.15
366.72	479.81
366.91	500.87
367.11	456.40
367.31	454.06
367.51	454.06
367.70	451.72
367.90	423.64
368.10	440.02
368.30	451.72
368.49	540.66
368.69	493.85
368.89	526.62
369.09	491.51
369.28	533.64
369.48	545.34
369.68	440.02
369.87	479.81
370.07	463.43
370.27	585.13
370.47	610.88
370.66	795.78
370.86	751.31
371.06	779.40
371.25	784.08
371.45	788.76
371.65	833.23
371.84	830.89
372.04	760.67
372.24	917.49
372.44	903.45
372.63	912.81
372.83	774.72
373.03	884.72
373.22	931.53
373.42	926.85
373.62	915.15
373.81	887.06
374.01	891.74
374.21	915.15
374.40	894.08
374.60	947.92
374.79	938.55
374.99	887.06
375.19	903.45
375.38	954.94
375.58	903.45
375.78	966.64
375.97	1013.45
376.17	983.02
376.37	882.38
376.56	978.34
376.76	1025.15
376.95	884.72
377.15	898.77
377.35	940.90
377.54	964.30
377.74	896.43
377.93	985.37
378.13	985.37
378.33	1004.09
378.52	903.45
378.72	1041.54
378.91	1027.50
379.11	964.30
379.31	980.68
379.50	976.00
379.70	999.41
379.89	1062.60
380.09	978.34
380.28	1013.45
380.48	1039.20
380.68	966.64
380.87	1015.79
381.07	978.34
381.26	1104.73
381.46	1081.33
381.65	1004.09
381.85	1041.54
382.04	1111.75
382.24	1013.45
382.43	1022.81
382.63	1022.81
382.83	1006.43
383.02	1076.65
383.22	1053.24
383.41	1062.60
383.61	1132.82
383.80	1114.10
384.00	1086.01
384.19	1151.54
384.39	1086.01
384.58	1102.39
384.78	1050.90
384.97	1055.58
385.17	1102.39
385.36	1165.59
385.56	1036.86
385.75	1219.42
385.95	1153.88
386.14	1086.01
386.34	1088.35
386.53	1104.73
386.72	1130.48
386.92	1142.18
387.11	1093.03
387.31	1193.67
387.50	1076.65
387.70	1163.25
387.89	1139.84
388.09	1228.78
388.28	1095.37
388.48	1179.63
388.67	1128.14
388.86	1191.33
389.06	1242.82
389.25	1188.99
389.45	1228.78
389.64	1240.48
389.84	1266.23
390.03	1181.97
390.22	1172.61
390.42	1172.61
390.61	1158.57
390.81	1252.19
391.00	1219.42
391.19	1221.76
391.39	1268.57
391.58	1315.38
391.78	1308.36
391.97	1299.00
392.16	1249.85
392.36	1299.00
392.55	1369.21
392.75	1439.43
392.94	1387.94
393.13	1315.38
393.33	1409.00
393.52	1289.64
393.71	1352.83
393.91	1327.08
394.10	1324.74
394.29	1364.53
394.49	1387.94
394.68	1469.86
394.88	1308.36
395.07	1409.00
395.26	1448.79
395.46	1357.51
395.65	1453.47
395.84	1413.68
396.04	1453.47
396.23	1406.66
396.42	1430.07
396.62	1441.77
396.81	1514.33
397.00	1444.11
397.19	1376.24
397.39	1502.62
397.58	1516.67
397.77	1488.58
397.97	1530.71
398.16	1523.69
398.35	1488.58
398.55	1490.92
398.74	1556.46
398.93	1619.65
399.12	1537.73
399.32	1483.90
399.51	1511.99
399.70	1666.46
399.90	1596.25
400.09	1570.50
400.28	1661.78
400.47	1572.84
400.67	1708.59
400.86	1689.87
401.05	1607.95
401.24	1689.87
401.44	1647.74
401.63	1748.38
401.82	1678.16
402.01	1685.19
402.21	1699.23
402.40	1757.74
402.59	1741.36
402.78	1827.96
402.97	1783.49
403.17	1776.47
403.36	1631.35
403.55	1769.44
403.74	1900.52
403.93	1762.42
404.13	1839.66
404.32	1839.66
404.51	1888.81
404.70	1856.04
404.89	1853.70
405.09	1923.92
405.28	1879.45
405.47	1867.75
405.66	1830.30
405.85	1933.28
406.05	1930.94
406.24	1900.52
406.43	1984.77
406.62	2052.65
406.81	2012.86
407.00	2054.99
407.20	2010.52
407.39	2001.16
407.58	2045.63
407.77	2050.31
407.96	2118.18
408.15	2047.97
408.34	2122.87
408.54	2125.21
408.73	2073.71
408.92	2139.25
409.11	2221.17
409.30	2183.72
409.49	2155.63
409.68	2111.16
409.87	2120.53
410.07	2235.21
410.26	2314.79
410.45	2251.60
410.64	2209.47
410.83	2375.64
411.02	2298.41
411.21	2392.03
411.40	2260.96
411.59	2338.20
411.78	2319.47
411.98	2338.20
412.17	2349.90
412.36	2401.39
412.55	2368.62
412.74	2581.61
412.93	2487.99
413.12	2504.37
413.31	2590.97
413.50	2462.24
413.69	2518.42
413.88	2626.08
414.07	2623.74
414.26	2532.46
414.45	2654.17
414.64	2595.65
414.83	2630.76
415.02	2623.74
415.22	2752.47
415.41	2740.77
415.60	2780.56
415.79	2855.45
415.98	2782.90
416.17	2869.50
416.36	2850.77
416.55	2902.26
416.74	2820.35
416.93	2867.16
417.12	2888.22
417.31	2839.07
417.50	2815.66
417.69	3054.40
417.88	2981.84
418.07	3056.74
418.26	3030.99
418.45	2930.35
418.64	3136.32
418.83	3045.04
419.02	3005.25
419.21	3133.98
419.39	3133.98
419.58	3159.72
419.77	3232.28
419.96	3192.49
420.15	3255.69
420.34	3173.77
420.53	3180.79
420.72	3206.53
420.91	3180.79
421.10	3269.73
421.29	3342.28
421.48	3243.98
421.67	3368.03
421.86	3382.07
422.05	3286.11
422.24	3346.97
422.43	3353.99
422.61	3344.63
422.80	3398.46
422.99	3356.33
423.18	3365.69
423.37	3482.72
423.56	3421.86
423.75	3344.63
423.94	3265.05
424.13	3143.34
424.32	3194.83
424.50	3260.37
424.69	3459.31
424.88	3382.07
425.07	3236.96
425.26	3251.00
425.45	3365.69
425.64	3424.20
425.83	3456.97
426.01	3449.95
426.20	3375.05
426.39	3377.39
426.58	3449.95
426.77	3447.61
426.96	3520.17
427.15	3471.01
427.33	3571.66
427.52	3543.57
427.71	3431.23
427.90	3393.78
428.09	3583.36
428.28	3667.62
428.46	3784.65
428.65	3641.87
428.84	3644.21
429.03	3648.90
429.22	3630.17
429.40	3700.39
429.59	3651.24
429.78	3669.96
429.97	3620.81
430.16	3721.45
430.34	3702.73
430.53	3691.02
430.72	3810.39
430.91	3868.91
431.10	3756.56
431.28	3824.44
431.47	3878.27
431.66	3971.89
431.85	3939.12
432.03	3983.59
432.22	3971.89
432.41	4002.32
432.60	3978.91
432.79	4133.39
432.97	4002.32
433.16	4121.68
433.35	3875.93
433.54	4021.04
433.72	4126.36
433.91	4051.47
434.10	4114.66
434.28	4114.66
434.47	4238.71
434.66	4074.87
434.85	4194.24
435.03	4248.07
435.22	4454.04
435.41	4690.43
435.59	4456.38
435.78	4463.40
435.97	4294.88
436.16	4341.69
436.34	4320.63
436.53	4362.76
436.72	4388.50
436.90	4252.75
437.09	4470.42
437.28	4217.65
437.46	4425.95
437.65	4414.25
437.84	4601.49
438.02	4503.19
438.21	4538.30
438.40	4435.32
438.58	4573.41
438.77	4505.53
438.96	4690.43
439.14	4575.75
439.33	4685.75
439.52	4751.29
439.70	4648.30
439.89	4863.63
440.08	4795.76
440.26	4758.31
440.45	4739.58
440.63	4814.48
440.82	4842.57
441.01	5032.15
441.19	4863.63
441.38	4933.85
441.57	5057.90
441.75	5032.15
441.94	5128.11
442.12	5160.88
442.31	5170.24
442.50	5170.24
442.68	5156.20
442.87	5074.28
443.05	5130.45
443.24	5188.97
443.43	5310.68
443.61	5310.68
443.80	5523.66
443.98	5287.27
444.17	5046.20
444.35	5177.26
444.54	5462.81
444.73	5214.71
444.91	5177.26
445.10	5324.72
445.28	5252.16
445.47	5462.81
445.65	5238.12
445.84	5511.96
446.02	5406.64
446.21	5518.98
446.39	5341.10
446.58	5394.93
446.77	5511.96
446.95	5195.99
447.14	5453.45
447.32	5551.75
447.51	5434.72
447.69	5509.62
447.88	5453.45
448.06	5385.57
448.25	5423.02
448.43	5441.75
448.62	5462.81
448.80	5373.87
448.99	5687.50
449.17	5643.03
449.36	5535.37
449.54	5476.85
449.73	5785.80
449.91	5706.23
450.10	5699.20
450.28	5664.10
450.46	5900.49
450.65	5778.78
450.83	5628.99
451.02	5827.93
451.20	5973.05
451.39	5809.21
451.57	5675.80
451.76	5760.06
451.94	5834.96
452.13	5940.28
452.31	5933.26
452.49	5783.46
452.68	5849.00
452.86	5928.58
453.05	6078.37
453.23	6054.97
453.42	5919.21
453.60	6054.97
453.78	6202.42
453.97	5827.93
454.15	5998.79
454.34	6015.18
454.52	6057.31
454.70	6015.18
454.89	6143.91
455.07	6293.70
455.26	6143.91
455.44	6249.23
455.62	6146.25
455.81	6211.78
455.99	6274.98
456.17	6382.64
456.36	6387.32
456.54	6345.19
456.73	6328.81
456.91	6445.84
457.09	6326.47
457.28	6637.76
457.46	6544.14
457.64	6628.40
457.83	6616.69
458.01	6572.22
458.19	6787.55
458.38	6612.01
458.56	6724.36
458.74	6705.63
458.93	6705.63
459.11	6822.66
459.29	6722.02
459.48	6850.75
459.66	6906.92
459.84	6778.19
460.03	6850.75
460.21	7040.33
460.39	6951.39
460.57	6946.71
460.76	7054.37
460.94	7197.15
461.12	7009.90
461.31	7140.97
461.49	7194.81
461.67	6935.01
461.85	7098.84
462.04	7037.99
462.22	7438.22
462.40	7157.36
462.59	7075.44
462.77	7150.34
462.95	7332.90
463.13	7258.00
463.32	7307.15
463.50	7281.41
463.68	7204.17
463.86	7524.82
464.05	7059.06
464.23	7265.02
464.41	7332.90
464.59	7187.79
464.78	7545.89
464.96	7538.87
465.14	7288.43
465.32	7557.59
465.50	7442.90
465.69	7522.48
465.87	7463.97
466.05	7475.67
466.23	7494.40
466.41	7410.14
466.60	7644.19
466.78	7679.30
466.96	7588.02
467.14	7676.96
467.32	7630.15
467.51	7691.00
467.69	7590.36
467.87	7845.48
468.05	7801.01
468.23	7669.94
468.41	7730.79
468.60	7765.90
468.78	7857.18
468.96	7793.98
469.14	7873.56
469.32	8168.47
469.50	7861.86
469.69	8098.25
469.87	8116.98
470.05	8086.55
470.23	8032.72
470.41	8030.38
470.59	8250.39
470.77	8138.04
470.95	8161.45
471.14	8313.58
471.32	7988.25
471.50	8297.20
471.68	8229.32
471.86	8187.19
472.04	8308.90
472.22	8479.76
472.40	8468.06
472.58	8599.13
472.77	8585.08
472.95	8709.13
473.13	8842.54
473.31	8795.73
473.49	8762.97
473.67	8557.00
473.85	8465.72
474.03	8882.33
474.21	9078.94
474.39	9130.43
474.57	8947.87
474.75	9170.22
474.93	9226.39
475.12	8910.42
475.30	9160.86
475.48	9048.51
475.66	9153.84
475.84	9249.80
476.02	9423.00
476.20	9212.35
476.38	9666.41
476.56	9696.84
476.74	9570.45
476.92	9783.44
477.10	9722.59
477.28	9886.42
477.46	9816.21
477.64	9884.08
477.82	9860.68
478.00	10242.18
478.18	10298.36
478.36	10193.03
478.54	10436.45
478.72	10244.52
478.90	10399.00
479.08	10396.66
479.26	10579.22
479.44	10759.44
479.62	10611.99
479.80	10817.96
479.98	11108.18
480.16	11112.86
480.34	11117.54
480.52	11288.40
480.70	11375.00
480.88	11047.33
481.06	11096.48
481.24	11375.00
481.41	11346.92
481.59	11571.61
481.77	11693.32
481.95	11889.92
482.13	12070.14
482.31	11782.26
482.49	12032.69
482.67	11932.05
482.85	12273.77
483.03	12435.27
483.21	12386.12
483.39	12453.99
483.57	12404.84
483.74	12652.94
483.92	12767.62
484.10	12615.49
484.28	12922.10
484.46	13275.52
484.64	13537.66
484.82	13221.69
485.00	13345.73
485.18	13376.16
485.35	13715.54
485.53	13607.87
485.71	13650.00
485.89	14068.96
486.07	13818.52
486.25	14047.90
486.43	14038.53
486.61	14228.12
486.78	14384.93
486.96	14398.98
487.14	14586.22
487.32	14569.83
487.50	14937.30
487.68	14913.89
487.85	14778.14
488.03	15136.24
488.21	15391.36
488.39	15304.76
488.57	15604.35
488.75	15613.71
488.92	15819.68
489.10	15976.50
489.28	15948.41
489.46	16044.37
489.64	15873.51
489.81	16395.45
489.99	16582.70
490.17	16329.92
490.35	16676.32
490.53	16774.62
490.70	16882.28
490.88	16741.85
491.06	17097.61
491.24	17186.55
491.41	17123.36
491.59	17235.70
491.77	17394.86
491.95	17413.59
492.13	17308.26
492.30	17514.23
492.48	17521.25
492.66	17694.45
492.84	17797.43
493.01	18167.24
493.19	18216.39
493.37	18464.49
493.54	18338.10
493.72	18473.85
493.90	18712.58
494.08	18684.50
494.25	18934.93
494.43	18895.14
494.61	18972.38
494.79	19054.30
494.96	19026.21
495.14	19075.37
495.32	19541.13
495.49	19716.67
495.67	19754.12
495.85	19653.48
496.02	19962.43
496.20	19791.57
496.38	19946.05
496.55	19899.23
496.73	20662.25
496.91	20556.93
497.09	20470.33
497.26	20484.37
497.44	20297.13
497.62	20587.35
497.79	21048.44
497.97	20762.89
498.14	20957.16
498.32	21364.41
498.50	21376.11
498.67	21546.97
498.85	21565.70
499.03	21200.57
499.20	21373.77
499.38	21549.31
499.56	21701.45
499.73	21738.90
499.91	21923.80
500.08	21823.16
500.26	21635.91
500.44	22150.83
500.61	22040.82
500.79	22167.21
500.97	22471.48
501.14	22750.01
501.32	22370.84
501.49	22707.88
501.67	22445.74
501.84	22771.07
502.02	23014.49
502.20	22808.52
502.37	23089.38
502.55	23140.88
502.72	23175.98
502.90	23122.15
503.07	23269.61
503.25	23351.52
503.43	23243.86
503.60	23234.50
503.78	23405.36
503.95	23344.50
504.13	23571.54
504.30	23763.46
504.48	24023.26
504.65	24154.33
504.83	23981.13
505.01	24166.03
505.18	24130.92
505.36	24264.33
505.53	24149.65
505.71	24156.67
505.88	24311.14
506.06	24666.91
506.23	24526.47
506.41	24615.41
506.58	24830.74
506.76	24702.01
506.93	24886.92
507.11	24875.21
507.28	24910.32
507.46	25071.82
507.63	25123.31
507.81	25146.72
507.98	25071.82
508.16	25116.29
508.33	25003.94
508.50	25575.03
508.68	25738.87
508.85	25818.45
509.03	25818.45
509.20	25972.92
509.38	25731.85
509.55	25921.43
509.73	26214.00
509.90	26258.47
510.08	26279.54
510.25	26574.44
510.42	26478.48
510.60	26331.03
510.77	26647.00
510.95	26380.18
511.12	26586.15
511.30	26696.15
511.47	26801.47
511.64	26480.82
511.82	26881.05
511.99	26787.43
512.17	27351.50
512.34	27311.71
512.51	27761.09
512.69	27468.53
512.86	27206.39
513.04	27941.32
513.21	27772.80
513.38	27735.35
513.56	27653.43
513.73	27768.12
513.90	27889.82
514.08	27737.69
514.25	28226.86
514.43	28437.51
514.60	28217.50
514.77	28107.49
514.95	28224.52
515.12	28109.83
515.29	28388.36
515.47	28559.22
515.64	28676.24
515.81	28308.78
515.99	28790.93
516.16	28608.37
516.33	28643.48
516.51	28753.48
516.68	28746.46
516.85	29113.92
517.03	29167.76
517.20	29202.86
517.37	29158.39
517.54	28802.63
517.72	29142.01
517.89	28975.83
518.06	29392.45
518.24	29156.05
518.41	29256.70
518.58	29322.23
518.75	29200.52
518.93	29312.87
519.10	29387.77
519.27	29685.01
519.45	29811.40
519.62	30277.17
519.79	29961.20
519.96	30157.80
520.14	29802.04
520.31	29923.75
520.48	30073.54
520.65	30354.41
520.83	30258.45
521.00	30422.28
521.17	30258.45
521.34	30380.15
521.52	30808.47
521.69	30389.52
521.86	30429.30
522.03	30618.89
522.20	31079.97
522.38	30904.43
522.55	30862.30
522.72	30944.22
522.89	30665.70
523.07	31012.10
523.24	30829.54
523.41	31276.58
523.58	31271.90
523.75	31388.92
523.92	31335.09
524.10	31302.32
524.27	31484.89
524.44	31379.56
524.61	31644.04
524.78	31922.57
524.96	31948.31
525.13	31880.44
525.30	31913.20
525.47	31782.13
525.64	32055.98
525.81	31945.97
525.98	32034.91
526.16	31995.12
526.33	32107.47
526.50	32388.33
526.67	32320.46
526.84	32233.86
527.01	32465.57
527.18	32582.60
527.36	32472.59
527.53	32095.77
527.70	32790.91
527.87	32802.61
528.04	32432.80
528.21	32837.72
528.38	32507.70
528.55	33041.34
528.72	32580.26
528.89	32697.28
529.07	32760.48
529.24	33027.30
529.41	33223.90
529.58	33376.04
529.75	33411.15
529.92	33130.28
530.09	33317.53
530.26	33324.55
530.43	33247.31
530.60	33350.29
530.77	33305.82
530.94	33820.74
531.11	33696.69
531.28	33813.72
531.46	33996.28
531.63	33607.75
531.80	33663.93
531.97	33479.02
532.14	33879.25
532.31	33926.07
532.48	33956.49
532.65	34038.41
532.82	33766.91
532.99	33942.45
533.16	33787.97
533.33	34356.72
533.50	34466.73
533.67	34321.62
533.84	33806.70
534.01	34143.74
534.18	34043.09
534.35	34749.93
534.52	34361.40
534.69	34253.74
534.86	34246.72
535.03	34366.09
535.20	34471.41
535.37	34789.72
535.54	34885.68
535.71	34920.79
535.88	35007.39
536.05	34895.05
536.22	34948.88
536.38	34920.79
536.55	35194.64
536.72	35445.07
536.89	35159.53
537.06	35157.19
537.23	35534.01
537.40	35321.02
537.57	35611.25
537.74	35688.49
537.91	35646.36
538.08	35461.46
538.25	35072.93
538.42	35222.72
538.59	35573.80
538.75	35566.78
538.92	35608.91
539.09	35749.34
539.26	35552.74
539.43	36149.57
539.60	36271.28
539.77	36128.51
539.94	36039.57
540.11	35772.75
540.28	36655.13
540.44	36332.14
540.61	36598.96
540.78	36280.64
540.95	36107.44
541.12	35910.84
541.29	36685.56
541.46	36697.26
541.62	36608.32
541.79	36758.11
541.96	36247.88
542.13	36863.44
542.30	36652.79
542.47	36935.99
542.63	36545.12
542.80	37085.79
542.97	37198.13
543.14	37359.63
543.31	36947.70
543.48	37340.91
543.64	37970.51
543.81	37364.31
543.98	37312.82
544.15	37331.54
544.32	37425.17
544.48	37809.01
544.65	37750.50
544.82	37408.78
544.99	37214.52
545.16	37532.83
545.32	37823.06
545.49	38162.43
545.66	38277.12
545.83	38745.23
546.00	38424.57
546.16	38316.91
546.33	38447.98
546.50	37532.83
546.67	38190.52
546.83	37368.99
547.00	37804.33
547.17	37574.96
547.34	38122.65
547.50	38120.31
547.67	38473.73
547.84	38230.31
548.00	38352.02
548.17	38948.85
548.34	38410.53
548.51	38220.95
548.67	38333.29
548.84	38424.57
549.01	37858.17
549.18	38478.41
549.34	38302.87
549.51	38307.55
549.68	38567.35
549.84	38227.97
550.01	38483.09
550.18	38050.09
550.34	38483.09
550.51	38653.95
550.68	38618.84
550.84	38579.05
551.01	38813.10
551.18	38305.21
551.34	38237.33
551.51	38768.63
551.68	38843.53
551.84	38796.72
552.01	38426.92
552.18	38696.08
552.34	38663.31
552.51	39021.41
552.68	38813.10
552.84	39220.36
553.01	39058.86
553.18	39269.51
553.34	38724.16
553.51	38810.76
553.67	39349.09
553.84	39627.61
554.01	39360.79
554.17	39339.72
554.34	38932.47
554.51	39313.98
554.67	39700.17
554.84	39292.91
555.00	39051.84
555.17	39325.68
555.33	39346.75
555.50	39533.99
555.67	39487.18
555.83	39309.30
556.00	39363.13
556.16	39894.43
556.33	39346.75
556.50	39468.45
556.66	39658.04
556.83	39283.55
556.99	39718.89
557.16	39772.72
557.32	40362.54
557.49	40201.04
557.65	39697.83
557.82	39646.33
557.98	39920.18
558.15	39435.69
558.32	39887.41
558.48	39379.51
558.65	39739.96
558.81	39847.62
558.98	39688.46
559.14	40374.24
559.31	39941.24
559.47	39969.33
559.64	39835.92
559.80	40374.24
559.97	40282.96
560.13	39601.86
560.30	39955.29
560.46	40676.17
560.63	40271.26
560.79	40416.37
560.96	39990.39
561.12	40231.47
561.29	40304.02
561.45	39924.86
561.61	40428.07
561.78	40315.73
561.94	40407.01
562.11	40971.08
562.27	40755.75
562.44	40610.64
562.60	40741.71
562.77	40825.96
562.93	40435.10
563.10	40563.82
563.26	40350.84
563.42	40451.48
563.59	40610.64
563.75	40360.20
563.92	40573.19
564.08	40605.95
564.24	40119.12
564.41	40395.31
564.57	40671.49
564.74	40439.78
564.90	40488.93
565.07	40811.92
565.23	41195.77
565.39	40722.98
565.56	40893.84
565.72	40627.02
565.88	40769.79
566.05	40634.04
566.21	40973.42
566.38	40488.93
566.54	40641.06
566.70	41228.54
566.87	41418.12
567.03	40973.42
567.19	41769.20
567.36	41060.02
567.52	40907.88
567.68	40706.60
567.85	41146.62
568.01	40914.90
568.17	40809.58
568.34	40919.59
568.50	41167.68
568.66	41476.63
568.83	40996.82
568.99	40800.22
569.15	41076.40
569.32	41170.02
569.48	40730.00
569.64	41200.45
569.81	40430.41
569.97	40905.54
570.13	41195.77
570.30	41081.08
570.46	40919.59
570.62	40769.79
570.78	40905.54
570.95	40781.49
571.11	41287.05
571.27	40840.01
571.43	40851.71
571.60	41226.20
571.76	41102.15
571.92	41333.86
572.09	41457.91
572.25	40868.09
572.41	41588.98
572.57	41572.60
572.74	42050.06
572.90	41570.25
573.06	41549.19
573.22	41326.84
573.38	41691.96
573.55	41167.68
573.71	41710.69
573.87	41713.03
574.03	41462.59
574.20	41120.87
574.36	41340.88
574.52	41521.10
574.68	41394.71
574.84	41429.82
575.01	41865.16
575.17	41305.77
575.33	41174.70
575.49	41563.23
575.65	41734.09
575.82	41179.39
575.98	41015.55
576.14	41853.46
576.30	41514.08
576.46	41525.78
576.62	40964.06
576.79	41649.83
576.95	41532.81
577.11	41921.34
577.27	41837.08
577.43	42005.59
577.59	41490.68
577.75	41518.76
577.92	41319.82
578.08	41326.84
578.24	41546.85
578.40	41738.77
578.56	41656.85
578.72	41834.74
578.88	42000.91
579.04	42094.53
579.21	41663.88
579.37	41872.18
579.53	42110.92
579.69	41949.42
579.85	41497.70
580.01	42080.49
580.17	42040.70
580.33	41956.44
580.49	41862.82
580.65	41778.56
580.82	42143.69
580.98	41661.54
581.14	41745.80
581.30	41574.94
581.46	41373.65
581.62	41607.70
581.78	41911.97
581.94	41673.24
582.10	41928.36
582.26	41598.34
582.42	41207.47
582.58	41703.67
582.74	41659.20
582.90	41614.72
583.06	41844.10
583.22	41422.80
583.38	41975.17
583.54	41553.87
583.70	41387.69
583.86	41942.40
584.02	41338.54
584.18	41947.08
584.34	42333.27
584.50	42019.64
584.66	41553.87
584.82	41661.54
584.98	42195.18
585.14	41930.70
585.30	41834.74
585.46	41853.46
585.62	41958.78
585.78	42314.55
585.94	41563.23
586.10	42024.32
586.26	41921.34
586.42	41916.65
586.58	42014.96
586.74	41804.31
586.90	41881.55
587.06	41874.52
587.22	42380.08
587.38	41820.69
587.54	42459.66
587.70	42595.41
587.86	42356.67
588.02	42124.96
588.18	42089.85
588.34	42384.76
588.49	42197.52
588.65	41450.89
588.81	41844.10
588.97	42302.84
589.13	41776.22
589.29	42146.03
589.45	42211.56
589.61	42314.55
