SpectraSuite Data File
++++++++++++++++++++++++++++++++++++
Date: Thu Oct 24 13:21:02 EDT 2013
User: stostad
Dark Spectrum Present: No
Reference Spectrum Present: No
Number of Sampled Component Spectra: 1
Spectrometers: USB2+H05261
Integration Time (usec): 100000 (USB2+H05261)
Spectra Averaged: 1 (USB2+H05261)
Boxcar Smoothing: 0 (USB2+H05261)
Correct for Electrical Dark: No (USB2+H05261)
Strobe/Lamp Enabled: No (USB2+H05261)
Correct for Detector Non-linearity: No (USB2+H05261)
Correct for Stray Light: No (USB2+H05261)
Number of Pixels in Processed Spectrum: 2048
>>>>>Begin Processed Spectral Data<<<<<
365.73	552.37
365.92	552.37
366.12	552.37
366.32	468.11
366.52	461.09
366.72	414.27
366.91	449.38
367.11	489.17
367.31	451.72
367.51	421.30
367.70	486.83
367.90	500.87
368.10	458.74
368.30	491.51
368.49	416.62
368.69	589.82
368.89	503.22
369.09	454.06
369.28	491.51
369.48	454.06
369.68	484.49
369.87	507.90
370.07	491.51
370.27	624.92
370.47	498.53
370.66	568.75
370.86	589.82
371.06	650.67
371.25	608.54
371.45	545.34
371.65	634.29
371.84	533.64
372.04	526.62
372.24	638.97
372.44	568.75
372.63	636.63
372.83	727.91
373.03	660.03
373.22	645.99
373.42	610.88
373.62	634.29
373.81	631.94
374.01	711.52
374.21	662.37
374.40	655.35
374.60	617.90
374.79	643.65
374.99	676.41
375.19	615.56
375.38	653.01
375.58	648.33
375.78	643.65
375.97	620.24
376.17	629.60
376.37	638.97
376.56	620.24
376.76	648.33
376.95	615.56
377.15	653.01
377.35	578.11
377.54	594.50
377.74	641.31
377.93	575.77
378.13	575.77
378.33	601.52
378.52	664.71
378.72	606.20
378.91	643.65
379.11	681.10
379.31	657.69
379.50	627.26
379.70	622.58
379.89	655.35
380.09	615.56
380.28	636.63
380.48	653.01
380.68	599.18
380.87	613.22
381.07	653.01
381.26	699.82
381.46	634.29
381.65	650.67
381.85	524.28
382.04	592.16
382.24	589.82
382.43	521.94
382.63	608.54
382.83	624.92
383.02	695.14
383.22	636.63
383.41	627.26
383.61	638.97
383.80	606.20
384.00	610.88
384.19	634.29
384.39	617.90
384.58	608.54
384.78	622.58
384.97	571.09
385.17	704.50
385.36	641.31
385.56	627.26
385.75	608.54
385.95	676.41
386.14	660.03
386.34	622.58
386.53	617.90
386.72	613.22
386.92	648.33
387.11	587.47
387.31	592.16
387.50	664.71
387.70	634.29
387.89	634.29
388.09	585.13
388.28	627.26
388.48	585.13
388.67	641.31
388.86	596.84
389.06	634.29
389.25	660.03
389.45	643.65
389.64	561.73
389.84	650.67
390.03	636.63
390.22	674.07
390.42	622.58
390.61	617.90
390.81	617.90
391.00	580.45
391.19	585.13
391.39	636.63
391.58	664.71
391.78	669.39
391.97	575.77
392.16	613.22
392.36	599.18
392.55	561.73
392.75	554.71
392.94	608.54
393.13	629.60
393.33	601.52
393.52	599.18
393.71	667.05
393.91	636.63
394.10	603.86
394.29	662.37
394.49	610.88
394.68	631.94
394.88	547.69
395.07	610.88
395.26	608.54
395.46	695.14
395.65	648.33
395.84	580.45
396.04	631.94
396.23	662.37
396.42	641.31
396.62	540.66
396.81	643.65
397.00	683.44
397.19	596.84
397.39	648.33
397.58	681.10
397.77	592.16
397.97	664.71
398.16	641.31
398.35	585.13
398.55	648.33
398.74	629.60
398.93	671.73
399.12	643.65
399.32	613.22
399.51	645.99
399.70	557.05
399.90	629.60
400.09	631.94
400.28	669.39
400.47	540.66
400.67	610.88
400.86	697.48
401.05	578.11
401.24	648.33
401.44	692.80
401.63	599.18
401.82	589.82
402.01	566.41
402.21	690.46
402.40	648.33
402.59	653.01
402.78	620.24
402.97	631.94
403.17	704.50
403.36	617.90
403.55	641.31
403.74	695.14
403.93	706.84
404.13	695.14
404.32	774.72
404.51	716.20
404.70	739.61
404.89	678.76
405.09	601.52
405.28	587.47
405.47	641.31
405.66	622.58
405.85	643.65
406.05	622.58
406.24	601.52
406.43	578.11
406.62	695.14
406.81	629.60
407.00	599.18
407.20	674.07
407.39	650.67
407.58	667.05
407.77	615.56
407.96	692.80
408.15	671.73
408.34	627.26
408.54	638.97
408.73	645.99
408.92	667.05
409.11	657.69
409.30	648.33
409.49	484.49
409.68	655.35
409.87	660.03
410.07	559.39
410.26	643.65
410.45	641.31
410.64	641.31
410.83	603.86
411.02	681.10
411.21	620.24
411.40	596.84
411.59	641.31
411.78	641.31
411.98	653.01
412.17	674.07
412.36	631.94
412.55	653.01
412.74	624.92
412.93	681.10
413.12	627.26
413.31	608.54
413.50	622.58
413.69	589.82
413.88	617.90
414.07	645.99
414.26	643.65
414.45	552.37
414.64	634.29
414.83	641.31
415.02	589.82
415.22	648.33
415.41	634.29
415.60	601.52
415.79	638.97
415.98	601.52
416.17	596.84
416.36	615.56
416.55	559.39
416.74	669.39
416.93	683.44
417.12	587.47
417.31	627.26
417.50	643.65
417.69	601.52
417.88	697.48
418.07	589.82
418.26	645.99
418.45	603.86
418.64	688.12
418.83	664.71
419.02	683.44
419.21	638.97
419.39	624.92
419.58	617.90
419.77	610.88
419.96	599.18
420.15	629.60
420.34	655.35
420.53	620.24
420.72	601.52
420.91	692.80
421.10	641.31
421.29	657.69
421.48	655.35
421.67	645.99
421.86	636.63
422.05	648.33
422.24	699.82
422.43	671.73
422.61	620.24
422.80	566.41
422.99	608.54
423.18	676.41
423.37	615.56
423.56	615.56
423.75	601.52
423.94	634.29
424.13	692.80
424.32	655.35
424.50	669.39
424.69	575.77
424.88	674.07
425.07	631.94
425.26	606.20
425.45	667.05
425.64	601.52
425.83	603.86
426.01	641.31
426.20	573.43
426.39	683.44
426.58	617.90
426.77	681.10
426.96	617.90
427.15	587.47
427.33	622.58
427.52	711.52
427.71	653.01
427.90	622.58
428.09	664.71
428.28	573.43
428.46	627.26
428.65	622.58
428.84	615.56
429.03	681.10
429.22	638.97
429.40	627.26
429.59	603.86
429.78	582.79
429.97	676.41
430.16	664.71
430.34	608.54
430.53	645.99
430.72	657.69
430.91	648.33
431.10	594.50
431.28	634.29
431.47	650.67
431.66	613.22
431.85	631.94
432.03	620.24
432.22	678.76
432.41	664.71
432.60	620.24
432.79	645.99
432.97	606.20
433.16	685.78
433.35	678.76
433.54	564.07
433.72	662.37
433.91	669.39
434.10	622.58
434.28	699.82
434.47	657.69
434.66	650.67
434.85	674.07
435.03	786.42
435.22	954.94
435.41	1137.50
435.59	1121.12
435.78	835.57
435.97	856.64
436.16	760.67
436.34	667.05
436.53	683.44
436.72	676.41
436.90	657.69
437.09	727.91
437.28	706.84
437.46	592.16
437.65	578.11
437.84	664.71
438.02	603.86
438.21	608.54
438.40	620.24
438.58	643.65
438.77	568.75
438.96	610.88
439.14	589.82
439.33	606.20
439.52	585.13
439.70	594.50
439.89	620.24
440.08	620.24
440.26	685.78
440.45	678.76
440.63	636.63
440.82	657.69
441.01	648.33
441.19	629.60
441.38	667.05
441.57	587.47
441.75	667.05
441.94	655.35
442.12	641.31
442.31	624.92
442.50	629.60
442.68	678.76
442.87	638.97
443.05	601.52
443.24	704.50
443.43	681.10
443.61	615.56
443.80	603.86
443.98	653.01
444.17	634.29
444.35	641.31
444.54	662.37
444.73	622.58
444.91	681.10
445.10	578.11
445.28	638.97
445.47	566.41
445.65	643.65
445.84	716.20
446.02	653.01
446.21	610.88
446.39	580.45
446.58	688.12
446.77	617.90
446.95	653.01
447.14	634.29
447.32	720.88
447.51	678.76
447.69	638.97
447.88	643.65
448.06	695.14
448.25	683.44
448.43	575.77
448.62	653.01
448.80	674.07
448.99	641.31
449.17	713.86
449.36	634.29
449.54	699.82
449.73	638.97
449.91	620.24
450.10	578.11
450.28	643.65
450.46	627.26
450.65	634.29
450.83	657.69
451.02	643.65
451.20	634.29
451.39	587.47
451.57	601.52
451.76	631.94
451.94	622.58
452.13	697.48
452.31	706.84
452.49	655.35
452.68	627.26
452.86	662.37
453.05	662.37
453.23	648.33
453.42	667.05
453.60	709.18
453.78	650.67
453.97	681.10
454.15	636.63
454.34	615.56
454.52	662.37
454.70	678.76
454.89	622.58
455.07	622.58
455.26	653.01
455.44	648.33
455.62	650.67
455.81	622.58
455.99	622.58
456.17	695.14
456.36	643.65
456.54	566.41
456.73	641.31
456.91	657.69
457.09	627.26
457.28	667.05
457.46	629.60
457.64	643.65
457.83	678.76
458.01	596.84
458.19	587.47
458.38	688.12
458.56	660.03
458.74	613.22
458.93	655.35
459.11	676.41
459.29	582.79
459.48	636.63
459.66	685.78
459.84	720.88
460.03	697.48
460.21	585.13
460.39	655.35
460.57	624.92
460.76	596.84
460.94	655.35
461.12	688.12
461.31	594.50
461.49	692.80
461.67	685.78
461.85	645.99
462.04	692.80
462.22	912.81
462.40	629.60
462.59	685.78
462.77	648.33
462.95	615.56
463.13	653.01
463.32	650.67
463.50	653.01
463.68	594.50
463.86	594.50
464.05	650.67
464.23	608.54
464.41	660.03
464.59	620.24
464.78	617.90
464.96	575.77
465.14	624.92
465.32	594.50
465.50	643.65
465.69	653.01
465.87	620.24
466.05	589.82
466.23	688.12
466.41	594.50
466.60	622.58
466.78	704.50
466.96	676.41
467.14	559.39
467.32	606.20
467.51	653.01
467.69	627.26
467.87	671.73
468.05	622.58
468.23	674.07
468.41	601.52
468.60	578.11
468.78	641.31
468.96	631.94
469.14	624.92
469.32	599.18
469.50	643.65
469.69	690.46
469.87	683.44
470.05	634.29
470.23	664.71
470.41	608.54
470.59	634.29
470.77	709.18
470.95	685.78
471.14	622.58
471.32	641.31
471.50	704.50
471.68	636.63
471.86	645.99
472.04	690.46
472.22	627.26
472.40	606.20
472.58	610.88
472.77	667.05
472.95	690.46
473.13	650.67
473.31	713.86
473.49	636.63
473.67	620.24
473.85	695.14
474.03	608.54
474.21	643.65
474.39	688.12
474.57	697.48
474.75	627.26
474.93	627.26
475.12	566.41
475.30	645.99
475.48	676.41
475.66	660.03
475.84	669.39
476.02	638.97
476.20	692.80
476.38	667.05
476.56	629.60
476.74	669.39
476.92	627.26
477.10	589.82
477.28	587.47
477.46	648.33
477.64	650.67
477.82	674.07
478.00	711.52
478.18	716.20
478.36	578.11
478.54	561.73
478.72	624.92
478.90	674.07
479.08	589.82
479.26	706.84
479.44	587.47
479.62	608.54
479.80	676.41
479.98	643.65
480.16	575.77
480.34	599.18
480.52	681.10
480.70	655.35
480.88	664.71
481.06	627.26
481.24	617.90
481.41	704.50
481.59	608.54
481.77	678.76
481.95	699.82
482.13	643.65
482.31	660.03
482.49	702.16
482.67	664.71
482.85	732.59
483.03	697.48
483.21	720.88
483.39	624.92
483.57	671.73
483.74	755.99
483.92	709.18
484.10	697.48
484.28	662.37
484.46	699.82
484.64	711.52
484.82	702.16
485.00	683.44
485.18	706.84
485.35	683.44
485.53	683.44
485.71	723.23
485.89	706.84
486.07	741.95
486.25	683.44
486.43	716.20
486.61	685.78
486.78	676.41
486.96	645.99
487.14	669.39
487.32	657.69
487.50	669.39
487.68	669.39
487.85	688.12
488.03	718.54
488.21	793.44
488.39	650.67
488.57	683.44
488.75	711.52
488.92	854.30
489.10	716.20
489.28	674.07
489.46	669.39
489.64	683.44
489.81	734.93
489.99	709.18
490.17	692.80
490.35	763.01
490.53	706.84
490.70	664.71
490.88	676.41
491.06	653.01
491.24	706.84
491.41	737.27
491.59	706.84
491.77	704.50
491.95	660.03
492.13	667.05
492.30	695.14
492.48	699.82
492.66	716.20
492.84	669.39
493.01	727.91
493.19	723.23
493.37	678.76
493.54	779.40
493.72	662.37
493.90	702.16
494.08	695.14
494.25	638.97
494.43	720.88
494.61	688.12
494.79	617.90
494.96	594.50
495.14	713.86
495.32	648.33
495.49	664.71
495.67	725.57
495.85	615.56
496.02	681.10
496.20	767.70
496.38	674.07
496.55	678.76
496.73	634.29
496.91	683.44
497.09	648.33
497.26	587.47
497.44	634.29
497.62	702.16
497.79	653.01
497.97	674.07
498.14	610.88
498.32	662.37
498.50	599.18
498.67	676.41
498.85	695.14
499.03	685.78
499.20	718.54
499.38	596.84
499.56	667.05
499.73	669.39
499.91	664.71
500.08	709.18
500.26	664.71
500.44	648.33
500.61	692.80
500.79	653.01
500.97	690.46
501.14	634.29
501.32	645.99
501.49	615.56
501.67	683.44
501.84	723.23
502.02	664.71
502.20	669.39
502.37	676.41
502.55	587.47
502.72	657.69
502.90	622.58
503.07	636.63
503.25	676.41
503.43	641.31
503.60	667.05
503.78	660.03
503.95	645.99
504.13	617.90
504.30	676.41
504.48	685.78
504.65	648.33
504.83	657.69
505.01	709.18
505.18	645.99
505.36	634.29
505.53	695.14
505.71	674.07
505.88	685.78
506.06	624.92
506.23	617.90
506.41	638.97
506.58	634.29
506.76	627.26
506.93	634.29
507.11	662.37
507.28	660.03
507.46	624.92
507.63	643.65
507.81	627.26
507.98	631.94
508.16	603.86
508.33	662.37
508.50	603.86
508.68	664.71
508.85	629.60
509.03	669.39
509.20	615.56
509.38	664.71
509.55	725.57
509.73	660.03
509.90	634.29
510.08	662.37
510.25	624.92
510.42	699.82
510.60	575.77
510.77	653.01
510.95	594.50
511.12	580.45
511.30	674.07
511.47	608.54
511.64	634.29
511.82	585.13
511.99	711.52
512.17	608.54
512.34	603.86
512.51	657.69
512.69	655.35
512.86	699.82
513.04	657.69
513.21	669.39
513.38	636.63
513.56	622.58
513.73	664.71
513.90	638.97
514.08	594.50
514.25	638.97
514.43	617.90
514.60	674.07
514.77	629.60
514.95	660.03
515.12	692.80
515.29	681.10
515.47	610.88
515.64	631.94
515.81	702.16
515.99	671.73
516.16	568.75
516.33	606.20
516.51	699.82
516.68	657.69
516.85	596.84
517.03	727.91
517.20	657.69
517.37	655.35
517.54	629.60
517.72	664.71
517.89	627.26
518.06	660.03
518.24	709.18
518.41	720.88
518.58	613.22
518.75	631.94
518.93	636.63
519.10	655.35
519.27	674.07
519.45	627.26
519.62	624.92
519.79	580.45
519.96	564.07
520.14	678.76
520.31	631.94
520.48	660.03
520.65	674.07
520.83	678.76
521.00	688.12
521.17	615.56
521.34	615.56
521.52	660.03
521.69	636.63
521.86	620.24
522.03	688.12
522.20	681.10
522.38	610.88
522.55	617.90
522.72	587.47
522.89	627.26
523.07	718.54
523.24	697.48
523.41	627.26
523.58	688.12
523.75	617.90
523.92	653.01
524.10	641.31
524.27	650.67
524.44	638.97
524.61	713.86
524.78	613.22
524.96	660.03
525.13	674.07
525.30	683.44
525.47	725.57
525.64	594.50
525.81	648.33
525.98	667.05
526.16	620.24
526.33	594.50
526.50	709.18
526.67	727.91
526.84	676.41
527.01	627.26
527.18	681.10
527.36	690.46
527.53	671.73
527.70	655.35
527.87	641.31
528.04	709.18
528.21	638.97
528.38	678.76
528.55	674.07
528.72	641.31
528.89	660.03
529.07	699.82
529.24	638.97
529.41	753.65
529.58	645.99
529.75	648.33
529.92	671.73
530.09	641.31
530.26	648.33
530.43	669.39
530.60	662.37
530.77	585.13
530.94	613.22
531.11	706.84
531.28	603.86
531.46	648.33
531.63	648.33
531.80	655.35
531.97	634.29
532.14	638.97
532.31	676.41
532.48	596.84
532.65	692.80
532.82	683.44
532.99	592.16
533.16	648.33
533.33	622.58
533.50	676.41
533.67	678.76
533.84	655.35
534.01	650.67
534.18	678.76
534.35	671.73
534.52	681.10
534.69	664.71
534.86	631.94
535.03	645.99
535.20	676.41
535.37	664.71
535.54	674.07
535.71	655.35
535.88	781.74
536.05	678.76
536.22	753.65
536.38	650.67
536.55	711.52
536.72	702.16
536.89	720.88
537.06	678.76
537.23	695.14
537.40	702.16
537.57	702.16
537.74	819.19
537.91	763.01
538.08	781.74
538.25	720.88
538.42	692.80
538.59	732.59
538.75	741.95
538.92	784.08
539.09	746.63
539.26	748.97
539.43	807.48
539.60	856.64
539.77	880.04
539.94	814.51
540.11	795.78
540.28	926.85
540.44	908.13
540.61	870.68
540.78	964.30
540.95	1095.37
541.12	1064.94
541.29	1121.12
541.46	1238.14
541.62	1193.67
541.79	1336.45
541.96	1289.64
542.13	1245.16
542.30	1184.31
542.47	1252.19
542.63	1186.65
542.80	1172.61
542.97	1151.54
543.14	1188.99
543.31	1219.42
543.48	1219.42
543.64	1186.65
543.81	1160.91
543.98	1144.52
544.15	1191.33
544.32	1153.88
544.48	1128.14
544.65	1142.18
544.82	1137.50
544.99	1181.97
545.16	1135.16
545.32	1188.99
545.49	1603.27
545.66	1898.17
545.83	2019.88
546.00	1788.17
546.16	1533.05
546.33	1413.68
546.50	1390.28
546.67	1214.74
546.83	1022.81
547.00	992.39
547.17	947.92
547.34	950.26
547.50	1006.43
547.67	898.77
547.84	910.47
548.00	896.43
548.17	940.90
548.34	880.04
548.51	952.60
548.67	891.74
548.84	887.06
549.01	835.57
549.18	800.46
549.34	882.38
549.51	870.68
549.68	837.91
549.84	814.51
550.01	830.89
550.18	856.64
550.34	774.72
550.51	805.14
550.68	840.25
550.84	758.33
551.01	788.76
551.18	840.25
551.34	770.04
551.51	697.48
551.68	732.59
551.84	758.33
552.01	758.33
552.18	699.82
552.34	793.44
552.51	798.12
552.68	678.76
552.84	713.86
553.01	767.70
553.18	713.86
553.34	716.20
553.51	713.86
553.67	713.86
553.84	802.80
554.01	699.82
554.17	730.25
554.34	655.35
554.51	695.14
554.67	655.35
554.84	695.14
555.00	720.88
555.17	678.76
555.33	758.33
555.50	674.07
555.67	685.78
555.83	741.95
556.00	746.63
556.16	809.83
556.33	727.91
556.50	631.94
556.66	634.29
556.83	620.24
556.99	669.39
557.16	648.33
557.32	636.63
557.49	669.39
557.65	671.73
557.82	690.46
557.98	653.01
558.15	660.03
558.32	645.99
558.48	603.86
558.65	681.10
558.81	596.84
558.98	669.39
559.14	610.88
559.31	657.69
559.47	636.63
559.64	622.58
559.80	711.52
559.97	667.05
560.13	720.88
560.30	653.01
560.46	727.91
560.63	669.39
560.79	653.01
560.96	650.67
561.12	645.99
561.29	645.99
561.45	678.76
561.61	662.37
561.78	685.78
561.94	664.71
562.11	662.37
562.27	667.05
562.44	648.33
562.60	655.35
562.77	620.24
562.93	638.97
563.10	669.39
563.26	622.58
563.42	683.44
563.59	671.73
563.75	596.84
563.92	671.73
564.08	685.78
564.24	678.76
564.41	662.37
564.57	730.25
564.74	685.78
564.90	627.26
565.07	690.46
565.23	685.78
565.39	704.50
565.56	732.59
565.72	662.37
565.88	702.16
566.05	645.99
566.21	711.52
566.38	638.97
566.54	685.78
566.70	643.65
566.87	660.03
567.03	645.99
567.19	685.78
567.36	662.37
567.52	655.35
567.68	648.33
567.85	669.39
568.01	674.07
568.17	669.39
568.34	648.33
568.50	636.63
568.66	624.92
568.83	613.22
568.99	613.22
569.15	688.12
569.32	636.63
569.48	641.31
569.64	720.88
569.81	681.10
569.97	566.41
570.13	592.16
570.30	683.44
570.46	664.71
570.62	634.29
570.78	660.03
570.95	589.82
571.11	624.92
571.27	648.33
571.43	685.78
571.60	683.44
571.76	622.58
571.92	613.22
572.09	671.73
572.25	615.56
572.41	578.11
572.57	627.26
572.74	606.20
572.90	650.67
573.06	645.99
573.22	615.56
573.38	664.71
573.55	667.05
573.71	723.23
573.87	678.76
574.03	624.92
574.20	631.94
574.36	711.52
574.52	676.41
574.68	667.05
574.84	622.58
575.01	669.39
575.17	648.33
575.33	638.97
575.49	627.26
575.65	671.73
575.82	629.60
575.98	709.18
576.14	631.94
576.30	744.29
576.46	758.33
576.62	826.21
576.79	875.36
576.95	814.51
577.11	770.04
577.27	718.54
577.43	816.85
577.59	713.86
577.75	737.27
577.92	671.73
578.08	650.67
578.24	617.90
578.40	678.76
578.56	819.19
578.72	926.85
578.88	898.77
579.04	802.80
579.21	727.91
579.37	748.97
579.53	821.53
579.69	784.08
579.85	793.44
580.01	795.78
580.17	774.72
580.33	777.06
580.49	748.97
580.65	713.86
580.82	755.99
580.98	739.61
581.14	711.52
581.30	725.57
581.46	690.46
581.62	753.65
581.78	662.37
581.94	779.40
582.10	734.93
582.26	741.95
582.42	763.01
582.58	765.36
582.74	765.36
582.90	830.89
583.06	784.08
583.22	695.14
583.38	753.65
583.54	770.04
583.70	821.53
583.86	800.46
584.02	734.93
584.18	791.10
584.34	793.44
584.50	688.12
584.66	795.78
584.82	765.36
584.98	711.52
585.14	748.97
585.30	802.80
585.46	786.42
585.62	744.29
585.78	746.63
585.94	709.18
586.10	758.33
586.26	748.97
586.42	795.78
586.58	774.72
586.74	828.55
586.90	903.45
587.06	896.43
587.22	882.38
587.38	863.66
587.54	903.45
587.70	795.78
587.86	786.42
588.02	819.19
588.18	770.04
588.34	784.08
588.49	739.61
588.65	788.76
588.81	753.65
588.97	763.01
589.13	734.93
589.29	706.84
589.45	727.91
589.61	674.07
589.77	727.91
589.93	720.88
590.08	690.46
590.24	655.35
590.40	695.14
590.56	727.91
590.72	770.04
590.88	777.06
591.04	702.16
591.20	725.57
591.35	767.70
591.51	760.67
591.67	737.27
591.83	812.17
591.99	795.78
592.15	791.10
592.31	779.40
592.46	737.27
592.62	702.16
592.78	866.00
592.94	737.27
593.10	793.44
593.26	795.78
593.41	760.67
593.57	898.77
593.73	716.20
593.89	809.83
594.05	676.41
594.20	713.86
594.36	716.20
594.52	629.60
594.68	650.67
594.84	734.93
594.99	692.80
595.15	711.52
595.31	711.52
595.47	788.76
595.62	653.01
595.78	669.39
595.94	746.63
596.10	702.16
596.25	678.76
596.41	685.78
596.57	727.91
596.73	718.54
596.88	690.46
597.04	765.36
597.20	645.99
597.36	683.44
597.51	674.07
597.67	791.10
597.83	660.03
597.99	741.95
598.14	674.07
598.30	690.46
598.46	737.27
598.61	690.46
598.77	744.29
598.93	744.29
599.09	734.93
599.24	699.82
599.40	770.04
599.56	809.83
599.71	760.67
599.87	716.20
600.03	767.70
600.18	667.05
600.34	704.50
600.50	664.71
600.65	662.37
600.81	709.18
600.97	648.33
601.12	690.46
601.28	688.12
601.44	690.46
601.59	655.35
601.75	734.93
601.91	702.16
602.06	615.56
602.22	741.95
602.37	662.37
602.53	716.20
602.69	662.37
602.84	610.88
603.00	718.54
603.16	678.76
603.31	713.86
603.47	699.82
603.62	699.82
603.78	683.44
603.94	660.03
604.09	683.44
604.25	739.61
604.40	718.54
604.56	699.82
604.71	716.20
604.87	674.07
605.03	650.67
605.18	690.46
605.34	704.50
605.49	690.46
605.65	559.39
605.80	683.44
605.96	716.20
606.12	709.18
606.27	648.33
606.43	676.41
606.58	727.91
606.74	723.23
606.89	603.86
607.05	751.31
607.20	748.97
607.36	770.04
607.51	662.37
607.67	690.46
607.82	772.38
607.98	800.46
608.13	772.38
608.29	676.41
608.44	770.04
608.60	695.14
608.75	812.17
608.91	709.18
609.06	816.85
609.22	863.66
609.37	807.48
609.53	737.27
609.68	826.21
609.84	945.58
