SpectraSuite Data File
++++++++++++++++++++++++++++++++++++
Date: Thu Oct 24 13:21:03 EDT 2013
User: stostad
Dark Spectrum Present: No
Reference Spectrum Present: No
Number of Sampled Component Spectra: 1
Spectrometers: USB2+H05261
Integration Time (usec): 100000 (USB2+H05261)
Spectra Averaged: 1 (USB2+H05261)
Boxcar Smoothing: 0 (USB2+H05261)
Correct for Electrical Dark: No (USB2+H05261)
Strobe/Lamp Enabled: No (USB2+H05261)
Correct for Detector Non-linearity: No (USB2+H05261)
Correct for Stray Light: No (USB2+H05261)
Number of Pixels in Processed Spectrum: 2048
>>>>>Begin Processed Spectral Data<<<<<
365.73	550.03
365.92	550.03
366.12	550.03
366.32	519.60
366.52	400.23
366.72	507.90
366.91	411.93
367.11	484.49
367.31	430.66
367.51	470.45
367.70	379.17
367.90	397.89
368.10	493.85
368.30	470.45
368.49	482.15
368.69	500.87
368.89	421.30
369.09	479.81
369.28	496.19
369.48	461.09
369.68	479.81
369.87	531.30
370.07	528.96
370.27	554.71
370.47	521.94
370.66	589.82
370.86	631.94
371.06	603.86
371.25	519.60
371.45	550.03
371.65	671.73
371.84	603.86
372.04	589.82
372.24	599.18
372.44	617.90
372.63	648.33
372.83	582.79
373.03	585.13
373.22	648.33
373.42	692.80
373.62	582.79
373.81	606.20
374.01	620.24
374.21	737.27
374.40	610.88
374.60	669.39
374.79	601.52
374.99	531.30
375.19	608.54
375.38	657.69
375.58	599.18
375.78	676.41
375.97	615.56
376.17	627.26
376.37	657.69
376.56	627.26
376.76	592.16
376.95	606.20
377.15	615.56
377.35	648.33
377.54	622.58
377.74	643.65
377.93	622.58
378.13	592.16
378.33	601.52
378.52	676.41
378.72	657.69
378.91	627.26
379.11	624.92
379.31	657.69
379.50	599.18
379.70	613.22
379.89	613.22
380.09	624.92
380.28	571.09
380.48	608.54
380.68	634.29
380.87	587.47
381.07	601.52
381.26	561.73
381.46	624.92
381.65	641.31
381.85	599.18
382.04	596.84
382.24	645.99
382.43	601.52
382.63	568.75
382.83	631.94
383.02	638.97
383.22	594.50
383.41	601.52
383.61	608.54
383.80	650.67
384.00	557.05
384.19	620.24
384.39	601.52
384.58	580.45
384.78	634.29
384.97	622.58
385.17	622.58
385.36	631.94
385.56	564.07
385.75	610.88
385.95	671.73
386.14	524.28
386.34	528.96
386.53	613.22
386.72	573.43
386.92	657.69
387.11	573.43
387.31	660.03
387.50	573.43
387.70	596.84
387.89	634.29
388.09	617.90
388.28	585.13
388.48	603.86
388.67	636.63
388.86	667.05
389.06	636.63
389.25	589.82
389.45	599.18
389.64	543.00
389.84	596.84
390.03	655.35
390.22	603.86
390.42	634.29
390.61	554.71
390.81	631.94
391.00	594.50
391.19	606.20
391.39	601.52
391.58	589.82
391.78	627.26
391.97	627.26
392.16	592.16
392.36	592.16
392.55	683.44
392.75	566.41
392.94	641.31
393.13	627.26
393.33	641.31
393.52	655.35
393.71	648.33
393.91	622.58
394.10	566.41
394.29	617.90
394.49	636.63
394.68	601.52
394.88	610.88
395.07	624.92
395.26	615.56
395.46	650.67
395.65	664.71
395.84	603.86
396.04	704.50
396.23	627.26
396.42	648.33
396.62	688.12
396.81	606.20
397.00	641.31
397.19	629.60
397.39	638.97
397.58	615.56
397.77	631.94
397.97	580.45
398.16	627.26
398.35	610.88
398.55	543.00
398.74	636.63
398.93	631.94
399.12	601.52
399.32	571.09
399.51	608.54
399.70	655.35
399.90	676.41
400.09	631.94
400.28	627.26
400.47	674.07
400.67	629.60
400.86	643.65
401.05	557.05
401.24	629.60
401.44	610.88
401.63	629.60
401.82	685.78
402.01	587.47
402.21	638.97
402.40	660.03
402.59	645.99
402.78	638.97
402.97	681.10
403.17	669.39
403.36	678.76
403.55	662.37
403.74	662.37
403.93	653.01
404.13	667.05
404.32	713.86
404.51	622.58
404.70	660.03
404.89	641.31
405.09	678.76
405.28	648.33
405.47	617.90
405.66	627.26
405.85	643.65
406.05	650.67
406.24	664.71
406.43	629.60
406.62	627.26
406.81	631.94
407.00	711.52
407.20	638.97
407.39	631.94
407.58	613.22
407.77	636.63
407.96	645.99
408.15	608.54
408.34	589.82
408.54	557.05
408.73	631.94
408.92	589.82
409.11	592.16
409.30	573.43
409.49	599.18
409.68	645.99
409.87	601.52
410.07	727.91
410.26	713.86
410.45	676.41
410.64	608.54
410.83	664.71
411.02	657.69
411.21	725.57
411.40	653.01
411.59	662.37
411.78	627.26
411.98	580.45
412.17	641.31
412.36	690.46
412.55	667.05
412.74	641.31
412.93	657.69
413.12	599.18
413.31	620.24
413.50	608.54
413.69	617.90
413.88	606.20
414.07	545.34
414.26	608.54
414.45	664.71
414.64	617.90
414.83	617.90
415.02	681.10
415.22	676.41
415.41	648.33
415.60	622.58
415.79	645.99
415.98	613.22
416.17	634.29
416.36	636.63
416.55	645.99
416.74	627.26
416.93	627.26
417.12	657.69
417.31	557.05
417.50	657.69
417.69	704.50
417.88	650.67
418.07	629.60
418.26	528.96
418.45	587.47
418.64	634.29
418.83	662.37
419.02	610.88
419.21	582.79
419.39	606.20
419.58	664.71
419.77	653.01
419.96	681.10
420.15	669.39
420.34	622.58
420.53	683.44
420.72	575.77
420.91	547.69
421.10	634.29
421.29	650.67
421.48	699.82
421.67	608.54
421.86	608.54
422.05	718.54
422.24	662.37
422.43	667.05
422.61	610.88
422.80	645.99
422.99	615.56
423.18	622.58
423.37	653.01
423.56	629.60
423.75	660.03
423.94	653.01
424.13	615.56
424.32	561.73
424.50	627.26
424.69	606.20
424.88	645.99
425.07	629.60
425.26	657.69
425.45	676.41
425.64	615.56
425.83	578.11
426.01	667.05
426.20	573.43
426.39	660.03
426.58	592.16
426.77	685.78
426.96	627.26
427.15	608.54
427.33	634.29
427.52	674.07
427.71	681.10
427.90	653.01
428.09	608.54
428.28	592.16
428.46	615.56
428.65	603.86
428.84	603.86
429.03	655.35
429.22	704.50
429.40	587.47
429.59	643.65
429.78	716.20
429.97	660.03
430.16	706.84
430.34	592.16
430.53	678.76
430.72	671.73
430.91	608.54
431.10	629.60
431.28	678.76
431.47	638.97
431.66	564.07
431.85	667.05
432.03	587.47
432.22	620.24
432.41	667.05
432.60	620.24
432.79	594.50
432.97	629.60
433.16	631.94
433.35	634.29
433.54	603.86
433.72	615.56
433.91	627.26
434.10	601.52
434.28	599.18
434.47	622.58
434.66	655.35
434.85	634.29
435.03	753.65
435.22	903.45
435.41	1064.94
435.59	987.71
435.78	947.92
435.97	800.46
436.16	713.86
436.34	732.59
436.53	653.01
436.72	638.97
436.90	671.73
437.09	629.60
437.28	645.99
437.46	695.14
437.65	667.05
437.84	688.12
438.02	671.73
438.21	634.29
438.40	653.01
438.58	624.92
438.77	601.52
438.96	667.05
439.14	631.94
439.33	561.73
439.52	688.12
439.70	620.24
439.89	613.22
440.08	631.94
440.26	620.24
440.45	634.29
440.63	608.54
440.82	594.50
441.01	571.09
441.19	667.05
441.38	610.88
441.57	617.90
441.75	634.29
441.94	608.54
442.12	627.26
442.31	566.41
442.50	648.33
442.68	589.82
442.87	620.24
443.05	568.75
443.24	650.67
443.43	662.37
443.61	610.88
443.80	594.50
443.98	655.35
444.17	627.26
444.35	704.50
444.54	638.97
444.73	638.97
444.91	657.69
445.10	620.24
445.28	578.11
445.47	585.13
445.65	653.01
445.84	627.26
446.02	690.46
446.21	678.76
446.39	585.13
446.58	671.73
446.77	685.78
446.95	587.47
447.14	664.71
447.32	660.03
447.51	685.78
447.69	622.58
447.88	634.29
448.06	697.48
448.25	704.50
448.43	627.26
448.62	564.07
448.80	615.56
448.99	645.99
449.17	645.99
449.36	657.69
449.54	620.24
449.73	601.52
449.91	716.20
450.10	592.16
450.28	629.60
450.46	674.07
450.65	620.24
450.83	622.58
451.02	601.52
451.20	653.01
451.39	685.78
451.57	578.11
451.76	636.63
451.94	643.65
452.13	629.60
452.31	688.12
452.49	641.31
452.68	629.60
452.86	667.05
453.05	653.01
453.23	599.18
453.42	564.07
453.60	566.41
453.78	676.41
453.97	606.20
454.15	641.31
454.34	674.07
454.52	629.60
454.70	610.88
454.89	631.94
455.07	575.77
455.26	683.44
455.44	594.50
455.62	664.71
455.81	650.67
455.99	620.24
456.17	716.20
456.36	655.35
456.54	657.69
456.73	650.67
456.91	676.41
457.09	716.20
457.28	634.29
457.46	641.31
457.64	746.63
457.83	657.69
458.01	638.97
458.19	678.76
458.38	662.37
458.56	645.99
458.74	622.58
458.93	638.97
459.11	638.97
459.29	566.41
459.48	622.58
459.66	645.99
459.84	671.73
460.03	709.18
460.21	643.65
460.39	638.97
460.57	697.48
460.76	692.80
460.94	613.22
461.12	676.41
461.31	664.71
461.49	681.10
461.67	669.39
461.85	683.44
462.04	617.90
462.22	926.85
462.40	585.13
462.59	683.44
462.77	629.60
462.95	585.13
463.13	667.05
463.32	622.58
463.50	615.56
463.68	624.92
463.86	664.71
464.05	648.33
464.23	627.26
464.41	636.63
464.59	627.26
464.78	676.41
464.96	634.29
465.14	603.86
465.32	650.67
465.50	702.16
465.69	664.71
465.87	629.60
466.05	732.59
466.23	587.47
466.41	617.90
466.60	638.97
466.78	648.33
466.96	753.65
467.14	662.37
467.32	681.10
467.51	585.13
467.69	702.16
467.87	732.59
468.05	641.31
468.23	688.12
468.41	692.80
468.60	622.58
468.78	763.01
468.96	620.24
469.14	578.11
469.32	716.20
469.50	653.01
469.69	674.07
469.87	627.26
470.05	622.58
470.23	613.22
470.41	599.18
470.59	655.35
470.77	645.99
470.95	578.11
471.14	697.48
471.32	575.77
471.50	674.07
471.68	643.65
471.86	596.84
472.04	603.86
472.22	645.99
472.40	603.86
472.58	650.67
472.77	622.58
472.95	641.31
473.13	667.05
473.31	678.76
473.49	662.37
473.67	638.97
473.85	613.22
474.03	650.67
474.21	617.90
474.39	662.37
474.57	638.97
474.75	685.78
474.93	741.95
475.12	669.39
475.30	653.01
475.48	589.82
475.66	685.78
475.84	650.67
476.02	566.41
476.20	622.58
476.38	634.29
476.56	697.48
476.74	685.78
476.92	629.60
477.10	669.39
477.28	667.05
477.46	629.60
477.64	674.07
477.82	613.22
478.00	615.56
478.18	564.07
478.36	585.13
478.54	627.26
478.72	571.09
478.90	624.92
479.08	638.97
479.26	688.12
479.44	594.50
479.62	655.35
479.80	681.10
479.98	650.67
480.16	667.05
480.34	613.22
480.52	730.25
480.70	634.29
480.88	608.54
481.06	615.56
481.24	627.26
481.41	641.31
481.59	608.54
481.77	709.18
481.95	657.69
482.13	681.10
482.31	671.73
482.49	657.69
482.67	704.50
482.85	695.14
483.03	629.60
483.21	660.03
483.39	662.37
483.57	692.80
483.74	711.52
483.92	664.71
484.10	704.50
484.28	662.37
484.46	645.99
484.64	655.35
484.82	620.24
485.00	753.65
485.18	744.29
485.35	744.29
485.53	706.84
485.71	713.86
485.89	676.41
486.07	645.99
486.25	723.23
486.43	711.52
486.61	704.50
486.78	723.23
486.96	711.52
487.14	643.65
487.32	702.16
487.50	695.14
487.68	660.03
487.85	741.95
488.03	730.25
488.21	781.74
488.39	695.14
488.57	751.31
488.75	638.97
488.92	741.95
489.10	746.63
489.28	734.93
489.46	681.10
489.64	737.27
489.81	671.73
489.99	645.99
490.17	620.24
490.35	699.82
490.53	755.99
490.70	755.99
490.88	650.67
491.06	685.78
491.24	730.25
491.41	737.27
491.59	683.44
491.77	613.22
491.95	678.76
492.13	683.44
492.30	723.23
492.48	641.31
492.66	674.07
492.84	716.20
493.01	667.05
493.19	655.35
493.37	688.12
493.54	653.01
493.72	692.80
493.90	734.93
494.08	608.54
494.25	653.01
494.43	613.22
494.61	610.88
494.79	765.36
494.96	720.88
495.14	711.52
495.32	617.90
495.49	664.71
495.67	720.88
495.85	648.33
496.02	615.56
496.20	676.41
496.38	685.78
496.55	704.50
496.73	645.99
496.91	681.10
497.09	713.86
497.26	720.88
497.44	711.52
497.62	727.91
497.79	720.88
497.97	674.07
498.14	653.01
498.32	624.92
498.50	648.33
498.67	648.33
498.85	631.94
499.03	667.05
499.20	627.26
499.38	648.33
499.56	650.67
499.73	669.39
499.91	706.84
500.08	629.60
500.26	732.59
500.44	645.99
500.61	629.60
500.79	615.56
500.97	643.65
501.14	681.10
501.32	667.05
501.49	617.90
501.67	599.18
501.84	653.01
502.02	662.37
502.20	674.07
502.37	631.94
502.55	645.99
502.72	641.31
502.90	688.12
503.07	615.56
503.25	667.05
503.43	641.31
503.60	657.69
503.78	580.45
503.95	688.12
504.13	599.18
504.30	667.05
504.48	718.54
504.65	697.48
504.83	594.50
505.01	690.46
505.18	566.41
505.36	667.05
505.53	662.37
505.71	573.43
505.88	664.71
506.06	664.71
506.23	653.01
506.41	653.01
506.58	599.18
506.76	603.86
506.93	727.91
507.11	699.82
507.28	547.69
507.46	678.76
507.63	638.97
507.81	671.73
507.98	657.69
508.16	688.12
508.33	620.24
508.50	585.13
508.68	662.37
508.85	655.35
509.03	610.88
509.20	660.03
509.38	624.92
509.55	688.12
509.73	634.29
509.90	671.73
510.08	636.63
510.25	613.22
510.42	678.76
510.60	676.41
510.77	641.31
510.95	627.26
511.12	669.39
511.30	655.35
511.47	746.63
511.64	683.44
511.82	683.44
511.99	695.14
512.17	664.71
512.34	615.56
512.51	674.07
512.69	599.18
512.86	578.11
513.04	599.18
513.21	653.01
513.38	606.20
513.56	638.97
513.73	601.52
513.90	655.35
514.08	674.07
514.25	599.18
514.43	664.71
514.60	617.90
514.77	683.44
514.95	631.94
515.12	662.37
515.29	650.67
515.47	636.63
515.64	683.44
515.81	601.52
515.99	634.29
516.16	629.60
516.33	603.86
516.51	681.10
516.68	601.52
516.85	650.67
517.03	657.69
517.20	620.24
517.37	744.29
517.54	615.56
517.72	641.31
517.89	613.22
518.06	606.20
518.24	711.52
518.41	681.10
518.58	664.71
518.75	702.16
518.93	711.52
519.10	685.78
519.27	641.31
519.45	650.67
519.62	638.97
519.79	697.48
519.96	657.69
520.14	699.82
520.31	631.94
520.48	664.71
520.65	653.01
520.83	634.29
521.00	711.52
521.17	706.84
521.34	638.97
521.52	627.26
521.69	615.56
521.86	660.03
522.03	631.94
522.20	709.18
522.38	627.26
522.55	613.22
522.72	709.18
522.89	709.18
523.07	596.84
523.24	638.97
523.41	601.52
523.58	592.16
523.75	650.67
523.92	636.63
524.10	716.20
524.27	622.58
524.44	631.94
524.61	699.82
524.78	645.99
524.96	631.94
525.13	655.35
525.30	669.39
525.47	688.12
525.64	657.69
525.81	676.41
525.98	648.33
526.16	681.10
526.33	669.39
526.50	655.35
526.67	634.29
526.84	657.69
527.01	645.99
527.18	657.69
527.36	641.31
527.53	610.88
527.70	706.84
527.87	645.99
528.04	739.61
528.21	634.29
528.38	634.29
528.55	660.03
528.72	683.44
528.89	643.65
529.07	624.92
529.24	627.26
529.41	660.03
529.58	615.56
529.75	645.99
529.92	704.50
530.09	681.10
530.26	617.90
530.43	608.54
530.60	681.10
530.77	634.29
530.94	692.80
531.11	669.39
531.28	678.76
531.46	641.31
531.63	650.67
531.80	610.88
531.97	667.05
532.14	627.26
532.31	716.20
532.48	688.12
532.65	645.99
532.82	641.31
532.99	669.39
533.16	697.48
533.33	748.97
533.50	697.48
533.67	765.36
533.84	627.26
534.01	681.10
534.18	674.07
534.35	606.20
534.52	734.93
534.69	723.23
534.86	643.65
535.03	620.24
535.20	617.90
535.37	713.86
535.54	674.07
535.71	638.97
535.88	692.80
536.05	681.10
536.22	631.94
536.38	664.71
536.55	723.23
536.72	741.95
536.89	676.41
537.06	620.24
537.23	779.40
537.40	748.97
537.57	704.50
537.74	774.72
537.91	751.31
538.08	791.10
538.25	779.40
538.42	702.16
538.59	767.70
538.75	734.93
538.92	702.16
539.09	816.85
539.26	758.33
539.43	795.78
539.60	781.74
539.77	772.38
539.94	840.25
540.11	945.58
540.28	961.96
540.44	938.55
540.61	891.74
540.78	929.19
540.95	1011.11
541.12	1100.05
541.29	1153.88
541.46	1235.80
541.62	1226.44
541.79	1086.01
541.96	1172.61
542.13	1144.52
542.30	1156.22
542.47	1170.27
542.63	1069.62
542.80	1104.73
542.97	1151.54
543.14	1165.59
543.31	1146.86
543.48	1109.41
543.64	1114.10
543.81	1174.95
543.98	1048.56
544.15	1036.86
544.32	1076.65
544.48	1132.82
544.65	1050.90
544.82	1125.80
544.99	1097.71
545.16	1036.86
545.32	1193.67
545.49	1519.01
545.66	1790.51
545.83	1914.56
546.00	1710.93
546.16	1411.34
546.33	1390.28
546.50	1217.08
546.67	1090.69
546.83	1039.20
547.00	1013.45
547.17	938.55
547.34	884.72
547.50	992.39
547.67	875.36
547.84	952.60
548.00	908.13
548.17	868.34
548.34	812.17
548.51	917.49
548.67	791.10
548.84	842.59
549.01	940.90
549.18	861.32
549.34	739.61
549.51	873.02
549.68	866.00
549.84	840.25
550.01	833.23
550.18	807.48
550.34	791.10
550.51	851.96
550.68	802.80
550.84	737.27
551.01	830.89
551.18	781.74
551.34	692.80
551.51	690.46
551.68	791.10
551.84	800.46
552.01	727.91
552.18	669.39
552.34	741.95
552.51	723.23
552.68	746.63
552.84	653.01
553.01	608.54
553.18	676.41
553.34	681.10
553.51	667.05
553.67	641.31
553.84	748.97
554.01	765.36
554.17	720.88
554.34	711.52
554.51	688.12
554.67	664.71
554.84	655.35
555.00	699.82
555.17	685.78
555.33	732.59
555.50	676.41
555.67	655.35
555.83	655.35
556.00	627.26
556.16	741.95
556.33	725.57
556.50	627.26
556.66	631.94
556.83	671.73
556.99	627.26
557.16	608.54
557.32	624.92
557.49	596.84
557.65	662.37
557.82	641.31
557.98	697.48
558.15	631.94
558.32	615.56
558.48	653.01
558.65	690.46
558.81	699.82
558.98	667.05
559.14	645.99
559.31	643.65
559.47	615.56
559.64	706.84
559.80	688.12
559.97	622.58
560.13	655.35
560.30	671.73
560.46	737.27
560.63	643.65
560.79	636.63
560.96	667.05
561.12	662.37
561.29	655.35
561.45	685.78
561.61	678.76
561.78	660.03
561.94	653.01
562.11	622.58
562.27	660.03
562.44	627.26
562.60	627.26
562.77	589.82
562.93	688.12
563.10	573.43
563.26	643.65
563.42	699.82
563.59	662.37
563.75	631.94
563.92	648.33
564.08	688.12
564.24	617.90
564.41	695.14
564.57	683.44
564.74	568.75
564.90	624.92
565.07	669.39
565.23	594.50
565.39	620.24
565.56	643.65
565.72	667.05
565.88	660.03
566.05	657.69
566.21	669.39
566.38	655.35
566.54	608.54
566.70	643.65
566.87	575.77
567.03	643.65
567.19	634.29
567.36	676.41
567.52	765.36
567.68	692.80
567.85	720.88
568.01	650.67
568.17	568.75
568.34	671.73
568.50	608.54
568.66	631.94
568.83	685.78
568.99	627.26
569.15	608.54
569.32	613.22
569.48	678.76
569.64	568.75
569.81	585.13
569.97	636.63
570.13	622.58
570.30	667.05
570.46	704.50
570.62	674.07
570.78	662.37
570.95	582.79
571.11	660.03
571.27	657.69
571.43	725.57
571.60	671.73
571.76	655.35
571.92	678.76
572.09	711.52
572.25	585.13
572.41	631.94
572.57	636.63
572.74	662.37
572.90	638.97
573.06	624.92
573.22	596.84
573.38	695.14
573.55	624.92
573.71	648.33
573.87	725.57
574.03	622.58
574.20	660.03
574.36	638.97
574.52	636.63
574.68	655.35
574.84	655.35
575.01	678.76
575.17	615.56
575.33	641.31
575.49	636.63
575.65	683.44
575.82	744.29
575.98	709.18
576.14	676.41
576.30	723.23
576.46	791.10
576.62	854.30
576.79	891.74
576.95	821.53
577.11	812.17
577.27	793.44
577.43	716.20
577.59	734.93
577.75	706.84
577.92	678.76
578.08	678.76
578.24	601.52
578.40	767.70
578.56	798.12
578.72	858.98
578.88	936.21
579.04	833.23
579.21	781.74
579.37	746.63
579.53	718.54
579.69	753.65
579.85	716.20
580.01	748.97
580.17	716.20
580.33	699.82
580.49	753.65
580.65	685.78
580.82	723.23
580.98	674.07
581.14	688.12
581.30	702.16
581.46	655.35
581.62	706.84
581.78	725.57
581.94	718.54
582.10	727.91
582.26	711.52
582.42	755.99
582.58	772.38
582.74	777.06
582.90	730.25
583.06	692.80
583.22	786.42
583.38	748.97
583.54	847.27
583.70	751.31
583.86	751.31
584.02	798.12
584.18	800.46
584.34	723.23
584.50	751.31
584.66	779.40
584.82	765.36
584.98	718.54
585.14	706.84
585.30	802.80
585.46	741.95
585.62	709.18
585.78	692.80
585.94	730.25
586.10	744.29
586.26	784.08
586.42	744.29
586.58	781.74
586.74	823.87
586.90	884.72
587.06	828.55
587.22	849.61
587.38	849.61
587.54	791.10
587.70	844.93
587.86	777.06
588.02	795.78
588.18	713.86
588.34	807.48
588.49	791.10
588.65	690.46
588.81	723.23
588.97	744.29
589.13	704.50
589.29	690.46
589.45	657.69
589.61	664.71
589.77	812.17
589.93	702.16
590.08	765.36
590.24	734.93
590.40	816.85
590.56	704.50
590.72	732.59
590.88	765.36
591.04	772.38
591.20	671.73
591.35	725.57
591.51	695.14
591.67	744.29
591.83	732.59
591.99	739.61
592.15	802.80
592.31	767.70
592.46	713.86
592.62	763.01
592.78	767.70
592.94	760.67
593.10	777.06
593.26	770.04
593.41	823.87
593.57	704.50
593.73	753.65
593.89	720.88
594.05	725.57
594.20	662.37
594.36	748.97
594.52	739.61
594.68	709.18
594.84	685.78
594.99	741.95
595.15	718.54
595.31	681.10
595.47	748.97
595.62	727.91
595.78	744.29
595.94	734.93
596.10	681.10
596.25	720.88
596.41	688.12
596.57	692.80
596.73	676.41
596.88	655.35
597.04	704.50
597.20	704.50
597.36	690.46
597.51	641.31
597.67	645.99
597.83	683.44
597.99	774.72
598.14	737.27
598.30	671.73
598.46	702.16
598.61	690.46
598.77	690.46
598.93	718.54
599.09	770.04
599.24	755.99
599.40	779.40
599.56	664.71
599.71	739.61
599.87	751.31
600.03	800.46
600.18	688.12
600.34	763.01
600.50	690.46
600.65	718.54
600.81	706.84
600.97	695.14
601.12	692.80
601.28	704.50
601.44	641.31
601.59	681.10
601.75	638.97
601.91	662.37
602.06	692.80
602.22	683.44
602.37	676.41
602.53	629.60
602.69	653.01
602.84	734.93
603.00	718.54
603.16	716.20
603.31	713.86
603.47	702.16
603.62	629.60
603.78	695.14
603.94	683.44
604.09	685.78
604.25	763.01
604.40	685.78
604.56	692.80
604.71	657.69
604.87	643.65
605.03	697.48
605.18	678.76
605.34	706.84
605.49	791.10
605.65	727.91
605.80	697.48
605.96	730.25
606.12	725.57
606.27	685.78
606.43	650.67
606.58	692.80
606.74	655.35
606.89	795.78
607.05	643.65
607.20	664.71
607.36	718.54
607.51	739.61
607.67	723.23
607.82	702.16
607.98	781.74
608.13	767.70
608.29	730.25
608.44	748.97
608.60	753.65
608.75	781.74
608.91	723.23
609.06	793.44
609.22	816.85
609.37	795.78
609.53	786.42
609.68	821.53
609.84	919.83
