SpectraSuite Data File
++++++++++++++++++++++++++++++++++++
Date: Thu Oct 24 13:21:26 EDT 2013
User: stostad
Dark Spectrum Present: No
Reference Spectrum Present: No
Number of Sampled Component Spectra: 1
Spectrometers: USB2+H05261
Integration Time (usec): 100000 (USB2+H05261)
Spectra Averaged: 1 (USB2+H05261)
Boxcar Smoothing: 0 (USB2+H05261)
Correct for Electrical Dark: No (USB2+H05261)
Strobe/Lamp Enabled: No (USB2+H05261)
Correct for Detector Non-linearity: No (USB2+H05261)
Correct for Stray Light: No (USB2+H05261)
Number of Pixels in Processed Spectrum: 2048
>>>>>Begin Processed Spectral Data<<<<<
365.73	552.37
365.92	552.37
366.12	552.37
366.32	512.58
366.52	451.72
366.72	550.03
366.91	465.77
367.11	500.87
367.31	423.64
367.51	435.34
367.70	517.26
367.90	430.66
368.10	442.36
368.30	435.34
368.49	449.38
368.69	486.83
368.89	479.81
369.09	489.17
369.28	477.47
369.48	421.30
369.68	463.43
369.87	578.11
370.07	538.32
370.27	564.07
370.47	671.73
370.66	896.43
370.86	994.73
371.06	1025.15
371.25	1046.22
371.45	987.71
371.65	1039.20
371.84	1100.05
372.04	1043.88
372.24	1074.31
372.44	1074.31
372.63	1139.84
372.83	1057.92
373.03	1149.20
373.22	1055.58
373.42	1081.33
373.62	1053.24
373.81	1097.71
374.01	1160.91
374.21	1214.74
374.40	1167.93
374.60	1196.01
374.79	1188.99
374.99	1074.31
375.19	1181.97
375.38	1210.06
375.58	1151.54
375.78	1210.06
375.97	1263.89
376.17	1245.16
376.37	1156.22
376.56	1249.85
376.76	1252.19
376.95	1287.29
377.15	1306.02
377.35	1231.12
377.54	1287.29
377.74	1174.95
377.93	1345.81
378.13	1282.61
378.33	1259.21
378.52	1217.08
378.72	1261.55
378.91	1306.02
379.11	1296.66
379.31	1331.76
379.50	1296.66
379.70	1261.55
379.89	1277.93
380.09	1308.36
380.28	1348.15
380.48	1460.49
380.68	1359.85
380.87	1364.53
381.07	1366.87
381.26	1385.60
381.46	1343.47
381.65	1441.77
381.85	1383.26
382.04	1411.34
382.24	1401.98
382.43	1406.66
382.63	1462.83
382.83	1516.67
383.02	1453.47
383.22	1453.47
383.41	1366.87
383.61	1446.45
383.80	1465.18
384.00	1605.61
384.19	1425.39
384.39	1565.82
384.58	1511.99
384.78	1399.64
384.97	1507.30
385.17	1483.90
385.36	1540.07
385.56	1514.33
385.75	1584.54
385.95	1526.03
386.14	1537.73
386.34	1493.26
386.53	1577.52
386.72	1589.22
386.92	1598.59
387.11	1661.78
387.31	1647.74
387.50	1549.43
387.70	1708.59
387.89	1596.25
388.09	1603.27
388.28	1626.67
388.48	1619.65
388.67	1680.50
388.86	1668.80
389.06	1605.61
389.25	1832.64
389.45	1795.19
389.64	1778.81
389.84	1750.72
390.03	1689.87
390.22	1743.70
390.42	1804.55
390.61	1778.81
390.81	1727.32
391.00	1776.47
391.19	1879.45
391.39	1689.87
391.58	1933.28
391.78	1804.55
391.97	1942.64
392.16	1811.57
392.36	1982.43
392.55	1902.86
392.75	1865.41
392.94	1944.99
393.13	2015.20
393.33	1837.32
393.52	1980.09
393.71	1949.67
393.91	2019.88
394.10	1984.77
394.29	2010.52
394.49	2085.42
394.68	2080.74
394.88	2078.40
395.07	2036.27
395.26	1998.82
395.46	2069.03
395.65	2078.40
395.84	2167.34
396.04	2097.12
396.23	2024.56
396.42	2197.76
396.62	2183.72
396.81	2136.91
397.00	2169.68
397.19	2120.53
397.39	2113.50
397.58	2275.00
397.77	2190.74
397.97	2232.87
398.16	2349.90
398.35	2314.79
398.55	2359.26
398.74	2275.00
398.93	2370.96
399.12	2200.10
399.32	2307.77
399.51	2314.79
399.70	2345.22
399.90	2427.14
400.09	2406.07
400.28	2410.75
400.47	2443.52
400.67	2438.84
400.86	2473.95
401.05	2464.58
401.24	2527.78
401.44	2621.40
401.63	2544.16
401.82	2586.29
402.01	2572.25
402.21	2459.90
402.40	2605.02
402.59	2579.27
402.78	2558.21
402.97	2630.76
403.17	2675.23
403.36	2656.51
403.55	2766.51
403.74	2799.28
403.93	2724.38
404.13	2855.45
404.32	2815.66
404.51	2899.92
404.70	2904.60
404.89	2846.09
405.09	2883.54
405.28	2874.18
405.47	2860.13
405.66	2909.29
405.85	2939.71
406.05	2942.05
406.24	2932.69
406.43	2913.97
406.62	2998.23
406.81	3122.27
407.00	3108.23
407.20	3108.23
407.39	3077.80
407.58	3084.83
407.77	3150.36
407.96	3213.56
408.15	3241.64
408.34	3162.06
408.54	3220.58
408.73	3185.47
408.92	3316.54
409.11	3318.88
409.30	3361.01
409.49	3428.88
409.68	3393.78
409.87	3419.52
410.07	3353.99
410.26	3545.91
410.45	3314.20
410.64	3517.83
410.83	3592.72
411.02	3723.79
411.21	3606.77
411.40	3550.59
411.59	3688.68
411.78	3590.38
411.98	3716.77
412.17	3791.67
412.36	3705.07
412.55	3861.88
412.74	3794.01
412.93	3840.82
413.12	3854.86
413.31	3995.29
413.50	3971.89
413.69	3962.53
413.88	3948.48
414.07	4032.74
414.26	4004.66
414.45	4049.13
414.64	4016.36
414.83	3978.91
415.02	4257.43
415.22	4210.62
415.41	4269.14
415.60	4273.82
415.79	4404.89
415.98	4311.27
416.17	4360.42
416.36	4451.70
416.55	4372.12
416.74	4498.51
416.93	4493.83
417.12	4470.42
417.31	4542.98
417.50	4599.15
417.69	4667.03
417.88	4592.13
418.07	4748.95
418.26	4805.12
418.45	4887.04
418.64	4784.06
418.83	4690.43
419.02	4812.14
419.21	4884.70
419.39	5015.77
419.58	4919.81
419.77	4638.94
419.96	4875.34
420.15	4983.00
420.34	4954.91
420.53	4924.49
420.72	5151.52
420.91	4940.87
421.10	5247.48
421.29	5076.62
421.48	5034.49
421.67	5146.84
421.86	5163.22
422.05	5102.37
422.24	5093.01
422.43	5303.65
422.61	5341.10
422.80	5432.38
422.99	5219.39
423.18	5238.12
423.37	5357.49
423.56	5287.27
423.75	5334.08
423.94	5123.43
424.13	4891.72
424.32	5289.61
424.50	5413.66
424.69	5458.13
424.88	5441.75
425.07	5345.78
425.26	5291.95
425.45	5432.38
425.64	5298.97
425.83	5149.18
426.01	5526.00
426.20	5385.57
426.39	5584.52
426.58	5387.91
426.77	5383.23
426.96	5619.63
427.15	5453.45
427.33	5654.73
427.52	5682.82
427.71	5516.64
427.90	5717.93
428.09	5694.52
428.28	5678.14
428.46	5743.67
428.65	5696.86
428.84	5994.11
429.03	5942.62
429.22	5767.08
429.40	5776.44
429.59	5877.09
429.78	5851.34
429.97	5788.14
430.16	5949.64
430.34	6106.46
430.53	6097.10
430.72	6167.31
430.91	6209.44
431.10	6246.89
431.28	6099.44
431.47	6136.88
431.66	6195.40
431.85	6242.21
432.03	6331.15
432.22	6406.05
432.41	6427.11
432.60	6333.49
432.79	6293.70
432.97	6443.49
433.16	6434.13
433.35	6427.11
433.54	6370.94
433.72	6658.82
433.91	6555.84
434.10	6553.50
434.28	6415.41
434.47	6665.85
434.66	6719.68
434.85	6729.04
435.03	6820.32
435.22	6972.46
435.41	7183.10
435.59	6965.43
435.78	7063.74
435.97	6860.11
436.16	6785.21
436.34	6904.58
436.53	6881.18
436.72	7162.04
436.90	6857.77
437.09	6970.12
437.28	6888.20
437.46	7026.29
437.65	6972.46
437.84	7279.07
438.02	7150.34
438.21	7157.36
438.40	7105.87
438.58	7363.33
438.77	7590.36
438.96	7391.41
439.14	7555.25
439.33	7744.83
439.52	7679.30
439.70	7658.23
439.89	7864.20
440.08	7616.10
440.26	7826.75
440.45	7672.28
440.63	8011.65
440.82	8032.72
441.01	7967.18
441.19	7901.65
441.38	8156.77
441.57	8131.02
441.75	8142.72
441.94	8500.83
442.12	8430.61
442.31	8498.49
442.50	8446.99
442.68	8292.52
442.87	8454.02
443.05	8559.34
443.24	8589.77
443.43	8599.13
443.61	8638.92
443.80	8657.64
443.98	8498.49
444.17	8234.00
444.35	8795.73
444.54	8840.20
444.73	8809.78
444.91	8762.97
445.10	8772.33
445.28	8908.08
445.47	8683.39
445.65	8809.78
445.84	8954.89
446.02	8933.82
446.21	8755.94
446.39	8856.59
446.58	8905.74
446.77	8744.24
446.95	8629.56
447.14	8954.89
447.32	8954.89
447.51	8863.61
447.69	8706.79
447.88	9067.24
448.06	8954.89
448.25	9064.89
448.43	8912.76
448.62	9036.81
448.80	8999.36
448.99	9125.75
449.17	9181.92
449.36	9195.96
449.54	9043.83
449.73	9514.28
449.91	9181.92
450.10	9423.00
450.28	9591.52
450.46	9451.08
450.65	9439.38
450.83	9551.73
451.02	9635.99
451.20	9701.52
451.39	9621.94
451.57	9338.74
451.76	9535.34
451.94	9521.30
452.13	9614.92
452.31	9724.93
452.49	9753.01
452.68	9743.65
452.86	9935.57
453.05	9923.87
453.23	10122.82
453.42	9745.99
453.60	9884.08
453.78	10094.73
453.97	9860.68
454.15	9895.78
454.34	9984.73
454.52	10164.95
454.70	10183.67
454.89	10260.91
455.07	10389.64
455.26	10413.04
455.44	10314.74
455.62	10506.66
455.81	10408.36
455.99	10520.71
456.17	10333.47
456.36	10396.66
456.54	10700.93
456.73	10633.05
456.91	10984.13
457.09	10689.23
457.28	11042.65
457.46	10792.21
457.64	10998.18
457.83	11023.92
458.01	11002.86
458.19	11372.66
458.38	10970.09
458.56	11052.01
458.74	11250.96
458.93	11239.25
459.11	11199.46
459.29	11222.87
459.48	11330.53
459.66	11262.66
459.84	11250.96
460.03	11508.41
460.21	11470.97
460.39	11456.92
460.57	11449.90
460.76	11515.44
460.94	11517.78
461.12	11611.40
461.31	11648.85
461.49	11536.50
461.67	11644.17
461.85	11826.73
462.04	11620.76
462.22	12313.56
462.40	11974.18
462.59	12140.36
462.77	11756.51
462.95	12102.91
463.13	11974.18
463.32	12280.79
463.50	12243.34
463.68	12257.39
463.86	12320.58
464.05	12215.26
464.23	12308.88
464.41	12416.54
464.59	12168.45
464.78	12589.74
464.96	12217.60
465.14	12154.40
465.32	12606.13
465.50	12774.64
465.69	12697.41
465.87	12498.46
466.05	12292.49
466.23	12760.60
466.41	12657.62
466.60	12891.67
466.78	12517.18
466.96	12858.90
467.14	12891.67
467.32	12753.58
467.51	13020.40
467.69	12414.20
467.87	12978.27
468.05	12861.24
468.23	12762.94
468.41	12837.84
468.60	12938.48
468.78	13153.81
468.96	13200.62
469.14	13298.92
469.32	13664.05
469.50	13092.96
469.69	13476.80
469.87	13544.68
470.05	13479.15
470.23	13486.17
470.41	13776.39
470.59	13745.97
470.77	13516.59
470.95	13682.77
471.14	13989.38
471.32	13832.57
471.50	13989.38
471.68	14047.90
471.86	14033.85
472.04	14270.25
472.22	14572.18
472.40	14136.84
472.58	14139.18
472.77	14508.98
472.95	14469.19
473.13	15068.37
473.31	14569.83
473.49	14731.33
473.67	14878.79
473.85	15075.39
474.03	14944.32
474.21	14939.64
474.39	15131.56
474.57	15028.58
474.75	15372.64
474.93	15309.44
475.12	15286.04
475.30	15424.13
475.48	15503.71
475.66	15927.35
475.84	15744.78
476.02	15871.17
476.20	15885.22
476.38	16114.59
476.56	16395.45
476.74	16383.75
476.92	16350.98
477.10	16592.06
477.28	16489.07
477.46	16662.27
477.64	16945.48
477.82	17184.21
478.00	17528.27
478.18	17195.92
478.36	17383.16
478.54	17816.16
478.72	17846.58
478.90	17799.77
479.08	18370.86
479.26	18473.85
479.44	18143.83
479.62	18546.40
479.80	18616.62
479.98	18754.71
480.16	19213.46
480.34	18602.58
480.52	19002.81
480.70	19112.81
480.88	18794.50
481.06	19227.50
481.24	19360.91
481.41	19728.38
481.59	19880.51
481.77	20016.26
481.95	20386.07
482.13	20266.70
482.31	20460.96
482.49	20964.18
482.67	20713.74
482.85	20931.41
483.03	20922.05
483.21	21516.54
483.39	21666.34
483.57	21532.93
483.74	21537.61
483.92	21891.03
484.10	21820.81
484.28	22288.92
484.46	22714.90
484.64	23030.87
484.82	22745.33
485.00	23152.58
485.18	23276.63
485.35	23704.95
485.53	23351.52
485.71	23805.59
485.89	24224.54
486.07	24166.03
486.25	23974.11
486.43	24177.73
486.61	24477.32
486.78	24814.36
486.96	24610.73
487.14	25422.90
487.32	25043.73
487.50	25509.50
487.68	25675.68
487.85	25759.94
488.03	26253.79
488.21	26476.14
488.39	26780.41
488.57	26686.79
488.75	26504.23
488.92	27190.00
489.10	27412.35
489.28	27505.98
489.46	27740.03
489.64	27903.87
489.81	28268.99
489.99	28154.30
490.17	28432.83
490.35	28851.78
490.53	28788.59
490.70	29017.96
490.88	29041.37
491.06	29528.20
491.24	29230.95
491.41	29558.63
491.59	29947.15
491.77	29940.13
491.95	30178.87
492.13	30654.00
492.30	30717.19
492.48	30431.65
492.66	30974.65
492.84	30548.67
493.01	31311.69
493.19	31550.42
493.37	32135.56
493.54	31751.71
493.72	32109.81
493.90	31866.39
494.08	32334.50
494.25	32638.77
494.43	32390.67
494.61	33397.10
494.79	33160.71
494.96	33046.02
495.14	33230.93
495.32	34157.78
495.49	33869.89
495.67	34106.29
495.85	34129.69
496.02	34403.53
496.20	34457.37
496.38	34888.03
496.55	34864.62
496.73	35742.32
496.91	34930.16
497.09	35683.81
497.26	35758.70
497.44	35552.74
497.62	35768.07
497.79	35992.76
497.97	36053.61
498.14	36554.49
498.32	36804.92
498.50	37163.03
498.67	37308.14
498.85	36893.86
499.03	37418.14
499.20	37270.69
499.38	37427.51
499.56	37661.56
499.73	37759.86
499.91	38195.20
500.08	38457.34
500.26	37734.12
500.44	38075.84
500.61	38838.85
500.79	38440.96
500.97	38806.08
501.14	39285.89
501.32	39384.19
501.49	39089.29
501.67	39058.86
501.84	39566.76
502.02	39510.58
502.20	39831.24
502.37	39824.22
502.55	39941.24
502.72	39903.79
502.90	40058.27
503.07	40034.86
503.25	40722.98
503.43	40154.23
503.60	40437.44
503.78	41270.67
503.95	40905.54
504.13	41097.47
504.30	41570.25
504.48	41354.93
504.65	41940.06
504.83	42232.63
505.01	41993.89
505.18	41717.71
505.36	42342.63
505.53	42141.35
505.71	42326.25
505.88	42700.73
506.06	42131.98
506.23	42726.48
506.41	42810.74
506.58	42433.91
506.76	42923.08
506.93	43349.06
507.11	42918.40
507.28	43147.78
507.46	43620.56
507.63	43629.93
507.81	43913.13
507.98	43428.64
508.16	43796.10
508.33	44083.99
508.50	44273.57
508.68	44580.18
508.85	44348.47
509.03	44531.03
509.20	44617.63
509.38	44645.72
509.55	45109.14
509.73	44870.41
509.90	45570.23
510.08	45312.77
510.25	45296.39
510.42	45181.70
510.60	45380.65
510.77	45752.79
510.95	46150.68
511.12	45617.04
511.30	46169.41
511.47	46314.52
511.64	46270.05
511.82	46672.62
511.99	46000.89
512.17	46686.67
512.34	46674.96
512.51	46745.18
512.69	47201.58
512.86	47112.64
513.04	47636.92
513.21	47480.11
513.38	47388.83
513.56	47260.10
513.73	47299.89
513.90	47620.54
514.08	47983.32
514.25	47945.87
514.43	48172.91
514.60	48250.14
514.77	48264.19
514.95	48350.79
515.12	48219.72
515.29	48086.31
515.47	48561.44
515.64	48919.54
515.81	48587.18
515.99	48910.17
516.16	49188.70
516.33	48732.29
516.51	48994.43
516.68	48961.67
516.85	49481.27
517.03	49069.33
517.20	49425.09
517.37	49626.38
517.54	49048.27
517.72	49925.97
517.89	49492.97
518.06	49872.14
518.24	49722.34
518.41	49851.07
518.58	50103.85
518.75	49689.57
518.93	50075.76
519.10	49607.65
519.27	50040.65
519.45	50433.86
519.62	50284.07
519.79	50445.57
519.96	51002.61
520.14	50890.27
520.31	50319.18
520.48	50639.83
520.65	50742.81
520.83	51215.60
521.00	51222.62
521.17	50810.69
521.34	51105.60
521.52	51274.12
521.69	51444.98
521.86	51543.28
522.03	51325.61
522.20	51812.44
522.38	52027.77
522.55	52037.13
522.72	52055.85
522.89	52018.41
523.07	52374.17
523.24	52142.45
523.41	52271.18
523.58	52041.81
523.75	52233.74
523.92	52332.04
524.10	52734.61
524.27	52701.84
524.44	52755.68
524.61	52666.73
524.78	52706.52
524.96	52795.46
525.13	52935.90
525.30	53195.70
525.47	53315.06
525.64	53179.31
525.81	53357.19
525.98	53118.46
526.16	53031.86
526.33	53277.61
526.50	53404.00
526.67	53361.87
526.84	53549.12
527.01	53308.04
527.18	53483.58
527.36	53516.35
527.53	53689.55
527.70	53918.92
527.87	53886.15
528.04	53925.94
528.21	54136.59
528.38	54021.90
528.55	54220.85
528.72	53965.73
528.89	53923.60
529.07	54017.22
529.24	54277.02
529.41	54309.79
529.58	54529.80
529.75	54621.08
529.92	54698.32
530.09	54497.03
530.26	54382.35
530.43	54358.94
530.60	54560.23
530.77	54497.03
530.94	54717.04
531.11	54546.18
531.28	54567.25
531.46	54841.09
531.63	54712.36
531.80	54747.47
531.97	54831.73
532.14	55047.06
532.31	54871.52
532.48	54876.20
532.65	55388.78
532.82	55164.09
532.99	55255.37
533.16	55105.57
533.33	55325.58
533.50	55554.96
533.67	55540.91
533.84	55320.90
534.01	55526.87
534.18	55454.31
534.35	55877.95
534.52	55695.39
534.69	55676.66
534.86	55772.63
535.03	55592.40
535.20	55833.48
535.37	55807.73
535.54	56210.31
535.71	55992.64
535.88	55936.46
536.05	55959.87
536.22	56044.13
536.38	56222.01
536.55	55973.91
536.72	56198.60
536.89	56018.38
537.06	56097.96
537.23	56500.53
537.40	56591.81
537.57	56233.71
537.74	56226.69
537.91	56516.92
538.08	56481.81
538.25	56303.93
538.42	56636.28
538.59	56699.48
538.75	56416.27
538.92	56470.11
539.09	56512.23
539.26	56535.64
539.43	56809.48
539.60	56591.81
539.77	56788.42
539.94	56928.85
540.11	57186.31
540.28	57038.86
540.44	56938.21
540.61	56877.36
540.78	56783.74
540.95	56973.32
541.12	56788.42
541.29	57265.89
541.46	57352.49
541.62	57439.09
541.79	57502.28
541.96	57310.36
542.13	57045.88
542.30	57448.45
542.47	57467.17
542.63	57474.20
542.80	57544.41
542.97	57649.74
543.14	57937.62
543.31	57825.28
543.48	57764.42
543.64	58071.03
543.81	57815.91
543.98	57846.34
544.15	57965.71
544.32	57986.77
544.48	58204.44
544.65	58075.71
544.82	58141.25
544.99	57879.11
545.16	58237.21
545.32	58049.97
545.49	58213.80
545.66	58471.26
545.83	58504.03
546.00	58658.51
546.16	58387.00
546.33	58424.45
546.50	58356.58
546.67	58204.44
546.83	58035.92
547.00	58298.06
547.17	58216.14
547.34	58389.34
547.50	58457.22
547.67	58817.66
547.84	58745.11
548.00	58913.62
548.17	58768.51
548.34	58700.64
548.51	58742.77
548.67	58775.53
548.84	58553.18
549.01	58375.30
549.18	58707.66
549.34	58852.77
549.51	58876.18
549.68	58855.11
549.84	58646.80
550.01	58822.34
550.18	58607.01
550.34	58850.43
550.51	58705.32
550.68	58908.94
550.84	58803.62
551.01	59110.23
551.18	59138.32
551.34	58951.07
551.51	58946.39
551.68	59014.27
551.84	59192.15
552.01	59063.42
552.18	59089.16
552.34	59032.99
552.51	59402.80
552.68	59241.30
552.84	59571.32
553.01	59484.72
553.18	59531.53
553.34	59351.30
553.51	59297.47
553.67	59290.45
553.84	59590.04
554.01	59721.11
554.17	59683.66
554.34	59639.19
554.51	59573.66
554.67	59501.10
554.84	59580.68
555.00	59400.46
555.17	59451.95
555.33	59515.14
555.50	59587.70
555.67	59564.29
555.83	59632.17
556.00	59955.16
556.16	59901.33
556.33	59732.81
556.50	59716.43
556.66	59753.88
556.83	59688.34
556.99	59777.28
557.16	60069.85
557.32	59887.29
557.49	60191.56
557.65	59854.52
557.82	59955.16
557.98	59957.50
558.15	59835.80
558.32	60076.87
558.48	59915.37
558.65	60392.84
558.81	60116.66
558.98	60217.30
559.14	60107.30
559.31	60156.45
559.47	60147.09
559.64	60196.24
559.80	60142.41
559.97	60203.26
560.13	60126.02
560.30	60086.23
560.46	60470.08
560.63	60299.22
560.79	60458.38
560.96	60306.24
561.12	60479.44
561.29	60346.03
561.45	60296.88
561.61	60411.57
561.78	60463.06
561.94	60388.16
562.11	60601.15
562.27	60474.76
562.44	60432.63
562.60	60425.61
562.77	60542.64
562.93	60327.31
563.10	60542.64
563.26	60336.67
563.42	60697.11
563.59	60360.08
563.75	60528.59
563.92	60685.41
564.08	60399.86
564.24	60797.76
564.41	60563.70
564.57	60512.21
564.74	60399.86
564.90	60526.25
565.07	60561.36
565.23	60622.22
565.39	60734.56
565.56	60921.80
565.72	60811.80
565.88	60589.45
566.05	60739.24
566.21	60652.64
566.38	60636.26
566.54	60523.91
566.70	60828.18
566.87	61036.49
567.03	60884.36
567.19	61052.87
567.36	61043.51
567.52	60739.24
567.68	60954.57
567.85	60636.26
568.01	61022.45
568.17	60727.54
568.34	60968.61
568.50	60926.49
568.66	60781.37
568.83	60893.72
568.99	61001.38
569.15	60743.92
569.32	60968.61
569.48	60818.82
569.64	60921.80
569.81	60654.98
569.97	60772.01
570.13	60905.42
570.30	60879.67
570.46	60903.08
570.62	60989.68
570.78	60877.33
570.95	60825.84
571.11	61139.47
571.27	60889.04
571.43	60870.31
571.60	60935.85
571.76	60926.49
571.92	61111.39
572.09	60980.32
572.25	61200.33
572.41	61052.87
572.57	61031.81
572.74	61083.30
572.90	60963.93
573.06	61207.35
573.22	60884.36
573.38	60931.17
573.55	61167.56
573.71	61361.82
573.87	61155.86
574.03	61104.37
574.20	61298.63
574.36	61338.42
574.52	61237.78
574.68	61235.44
574.84	61371.19
575.01	61455.45
575.17	61214.37
575.33	61132.45
575.49	61092.66
575.65	61387.57
575.82	61499.92
575.98	60980.32
576.14	61298.63
576.30	61303.31
576.46	61188.63
576.62	60977.98
576.79	61233.10
576.95	60977.98
577.11	61113.73
577.27	61354.80
577.43	61415.66
577.59	61118.41
577.75	61247.14
577.92	60912.44
578.08	61146.50
578.24	61303.31
578.40	61214.37
578.56	61361.82
578.72	61258.84
578.88	61509.28
579.04	61684.82
579.21	61378.21
579.37	61612.26
579.53	61502.26
579.69	61155.86
579.85	61462.47
580.01	61460.13
580.17	61509.28
580.33	61425.02
580.49	61394.59
580.65	61518.64
580.82	61364.17
580.98	61380.55
581.14	61293.95
581.30	61626.31
581.46	61509.28
581.62	61230.75
581.78	61275.22
581.94	61490.55
582.10	61282.25
582.26	61518.64
582.42	61399.27
582.58	61509.28
582.74	61513.96
582.90	61528.00
583.06	61338.42
583.22	61396.93
583.38	61432.04
583.54	61329.06
583.70	61371.19
583.86	61560.77
584.02	61509.28
584.18	61619.28
584.34	61476.51
584.50	61689.50
584.66	61455.45
584.82	61584.18
584.98	61469.49
585.14	61499.92
585.30	61652.05
585.46	61518.64
585.62	61483.53
585.78	61799.50
585.94	61518.64
586.10	61820.57
586.26	61724.61
586.42	61666.09
586.58	61666.09
586.74	61668.44
586.90	61392.25
587.06	61478.85
587.22	61801.85
587.38	61565.45
587.54	61879.08
587.70	61881.42
587.86	61738.65
