SpectraSuite Data File
++++++++++++++++++++++++++++++++++++
Date: Thu Oct 24 13:21:16 EDT 2013
User: stostad
Dark Spectrum Present: No
Reference Spectrum Present: No
Number of Sampled Component Spectra: 1
Spectrometers: USB2+H05261
Integration Time (usec): 100000 (USB2+H05261)
Spectra Averaged: 1 (USB2+H05261)
Boxcar Smoothing: 0 (USB2+H05261)
Correct for Electrical Dark: No (USB2+H05261)
Strobe/Lamp Enabled: No (USB2+H05261)
Correct for Detector Non-linearity: No (USB2+H05261)
Correct for Stray Light: No (USB2+H05261)
Number of Pixels in Processed Spectrum: 2048
>>>>>Begin Processed Spectral Data<<<<<
365.73	533.64
365.92	533.64
366.12	533.64
366.32	510.24
366.52	496.19
366.72	496.19
366.91	421.30
367.11	456.40
367.31	430.66
367.51	463.43
367.70	472.79
367.90	477.47
368.10	435.34
368.30	463.43
368.49	402.57
368.69	414.27
368.89	503.22
369.09	484.49
369.28	463.43
369.48	449.38
369.68	482.15
369.87	554.71
370.07	477.47
370.27	533.64
370.47	631.94
370.66	734.93
370.86	788.76
371.06	802.80
371.25	807.48
371.45	805.14
371.65	826.21
371.84	873.02
372.04	882.38
372.24	851.96
372.44	912.81
372.63	875.36
372.83	814.51
373.03	947.92
373.22	896.43
373.42	896.43
373.62	943.24
373.81	945.58
374.01	903.45
374.21	870.68
374.40	894.08
374.60	961.96
374.79	999.41
374.99	905.79
375.19	919.83
375.38	891.74
375.58	868.34
375.78	964.30
375.97	973.66
376.17	1013.45
376.37	919.83
376.56	870.68
376.76	870.68
376.95	973.66
377.15	987.71
377.35	961.96
377.54	922.17
377.74	994.73
377.93	915.15
378.13	1022.81
378.33	1102.39
378.52	990.05
378.72	987.71
378.91	952.60
379.11	976.00
379.31	964.30
379.50	980.68
379.70	992.39
379.89	959.62
380.09	1027.50
380.28	994.73
380.48	1011.11
380.68	1050.90
380.87	983.02
381.07	1064.94
381.26	964.30
381.46	976.00
381.65	1020.47
381.85	990.05
382.04	1107.07
382.24	1055.58
382.43	1018.13
382.63	1025.15
382.83	1041.54
383.02	1048.56
383.22	1095.37
383.41	1062.60
383.61	1074.31
383.80	1118.78
384.00	1041.54
384.19	1104.73
384.39	1057.92
384.58	1088.35
384.78	1128.14
384.97	1118.78
385.17	1057.92
385.36	1071.97
385.56	1039.20
385.75	1034.52
385.95	1076.65
386.14	1165.59
386.34	1137.50
386.53	1146.86
386.72	1097.71
386.92	1132.82
387.11	1149.20
387.31	1107.07
387.50	1156.22
387.70	1125.80
387.89	1156.22
388.09	1142.18
388.28	1107.07
388.48	1184.31
388.67	1238.14
388.86	1172.61
389.06	1233.46
389.25	1200.69
389.45	1219.42
389.64	1221.76
389.84	1224.10
390.03	1193.67
390.22	1102.39
390.42	1221.76
390.61	1210.06
390.81	1282.61
391.00	1254.53
391.19	1282.61
391.39	1277.93
391.58	1238.14
391.78	1266.23
391.97	1327.08
392.16	1306.02
392.36	1369.21
392.55	1320.06
392.75	1191.33
392.94	1359.85
393.13	1322.40
393.33	1266.23
393.52	1352.83
393.71	1308.36
393.91	1324.74
394.10	1210.06
394.29	1366.87
394.49	1322.40
394.68	1320.06
394.88	1315.38
395.07	1341.13
395.26	1366.87
395.46	1369.21
395.65	1434.75
395.84	1423.05
396.04	1427.73
396.23	1357.51
396.42	1462.83
396.62	1413.68
396.81	1448.79
397.00	1458.15
397.19	1446.45
397.39	1479.22
397.58	1486.24
397.77	1430.07
397.97	1535.39
398.16	1509.65
398.35	1523.69
398.55	1418.36
398.74	1483.90
398.93	1582.20
399.12	1500.28
399.32	1589.22
399.51	1528.37
399.70	1631.35
399.90	1563.48
400.09	1565.82
400.28	1614.97
400.47	1554.12
400.67	1605.61
400.86	1605.61
401.05	1610.29
401.24	1633.69
401.44	1678.16
401.63	1757.74
401.82	1664.12
402.01	1687.53
402.21	1633.69
402.40	1673.48
402.59	1720.29
402.78	1668.80
402.97	1778.81
403.17	1769.44
403.36	1748.38
403.55	1753.06
403.74	1785.83
403.93	1820.94
404.13	1884.13
404.32	1811.57
404.51	1720.29
404.70	1930.94
404.89	1823.28
405.09	1949.67
405.28	1799.87
405.47	1806.89
405.66	1811.57
405.85	1956.69
406.05	1816.26
406.24	1937.96
406.43	1921.58
406.62	1959.03
406.81	2076.06
407.00	1877.11
407.20	1952.01
407.39	1926.26
407.58	1989.46
407.77	2010.52
407.96	1954.35
408.15	2045.63
408.34	1884.13
408.54	2017.54
408.73	2010.52
408.92	2010.52
409.11	2099.46
409.30	2047.97
409.49	2136.91
409.68	2146.27
409.87	2214.15
410.07	2221.17
410.26	2275.00
410.45	2172.02
410.64	2223.51
410.83	2258.62
411.02	2157.97
411.21	2305.43
411.40	2300.75
411.59	2289.04
411.78	2282.02
411.98	2333.51
412.17	2340.54
412.36	2354.58
412.55	2356.92
412.74	2466.92
412.93	2401.39
413.12	2399.05
413.31	2506.71
413.50	2457.56
413.69	2406.07
413.88	2525.44
414.07	2438.84
414.26	2525.44
414.45	2635.44
414.64	2609.70
414.83	2614.38
415.02	2623.74
415.22	2593.31
415.41	2649.49
415.60	2815.66
415.79	2855.45
415.98	2745.45
416.17	2766.51
416.36	2780.56
416.55	2686.94
416.74	2895.24
416.93	2813.32
417.12	2785.24
417.31	2832.05
417.50	2911.63
417.69	3119.93
417.88	2897.58
418.07	2958.44
418.26	2871.84
418.45	3045.04
418.64	3000.57
418.83	2925.67
419.02	2944.39
419.21	3105.89
419.39	3117.59
419.58	3038.02
419.77	2977.16
419.96	3009.93
420.15	3068.44
420.34	3178.45
420.53	3000.57
420.72	3122.27
420.91	3295.47
421.10	3176.11
421.29	3136.32
421.48	3178.45
421.67	3098.87
421.86	3180.79
422.05	3169.09
422.24	3183.13
422.43	3297.81
422.61	3227.60
422.80	3258.03
422.99	3283.77
423.18	3297.81
423.37	3339.94
423.56	3183.13
423.75	3190.15
423.94	3162.06
424.13	3002.91
424.32	3133.98
424.50	3440.59
424.69	3325.90
424.88	3318.88
425.07	3325.90
425.26	3318.88
425.45	3339.94
425.64	3272.07
425.83	3323.56
426.01	3314.20
426.20	3456.97
426.39	3361.01
426.58	3295.47
426.77	3361.01
426.96	3384.41
427.15	3391.44
427.33	3538.89
427.52	3375.05
427.71	3499.10
427.90	3328.24
428.09	3473.36
428.28	3473.36
428.46	3559.95
428.65	3574.00
428.84	3653.58
429.03	3693.37
429.22	3417.18
429.40	3583.36
429.59	3538.89
429.78	3459.31
429.97	3480.38
430.16	3721.45
430.34	3646.55
430.53	3630.17
430.72	3728.47
430.91	3719.11
431.10	3581.02
431.28	3691.02
431.47	3789.33
431.66	3737.84
431.85	3779.97
432.03	3948.48
432.22	3845.50
432.41	3810.39
432.60	3882.95
432.79	3838.48
432.97	3971.89
433.16	4056.15
433.35	3967.21
433.54	3871.25
433.72	4037.42
433.91	4035.08
434.10	4107.64
434.28	4009.34
434.47	4079.55
434.66	4025.72
434.85	3992.95
435.03	4063.17
435.22	4372.12
435.41	4339.35
435.59	4454.04
435.78	4360.42
435.97	4304.25
436.16	4203.60
436.34	4227.01
436.53	4212.96
436.72	4198.92
436.90	4180.20
437.09	4196.58
437.28	4215.30
437.46	4184.88
437.65	4238.71
437.84	4332.33
438.02	4425.95
438.21	4301.90
438.40	4297.22
438.58	4367.44
438.77	4423.61
438.96	4458.72
439.14	4425.95
439.33	4571.07
439.52	4699.80
439.70	4615.54
439.89	4468.08
440.08	4641.28
440.26	4547.66
440.45	4667.03
440.63	4620.22
440.82	4994.70
441.01	4730.22
441.19	4847.25
441.38	4770.01
441.57	4765.33
441.75	4905.76
441.94	4957.25
442.12	4954.91
442.31	5071.94
442.50	4814.48
442.68	4961.94
442.87	4992.36
443.05	5107.05
443.24	5121.09
443.43	5048.54
443.61	5156.20
443.80	5277.91
443.98	4945.55
444.17	4814.48
444.35	5144.50
444.54	5275.57
444.73	5203.01
444.91	5123.43
445.10	5174.92
445.28	5207.69
445.47	5195.99
445.65	5074.28
445.84	5116.41
446.02	5439.40
446.21	5287.27
446.39	5336.42
446.58	5240.46
446.77	5373.87
446.95	5097.69
447.14	5233.44
447.32	5334.08
447.51	5343.44
447.69	5224.08
447.88	5139.82
448.06	5399.62
448.25	5352.81
448.43	5338.76
448.62	5614.95
448.80	5561.11
448.99	5387.91
449.17	5298.97
449.36	5441.75
449.54	5528.35
449.73	5518.98
449.91	5481.53
450.10	5521.32
450.28	5715.59
450.46	5624.31
450.65	5488.56
450.83	5521.32
451.02	5626.65
451.20	5671.12
451.39	5722.61
451.57	5708.57
451.76	5696.86
451.94	5591.54
452.13	5755.38
452.31	5717.93
452.49	5738.99
452.68	5755.38
452.86	5818.57
453.05	5760.06
453.23	5715.59
453.42	5652.39
453.60	5799.85
453.78	5947.30
453.97	5703.89
454.15	5750.70
454.34	5790.49
454.52	6141.57
454.70	6139.23
454.89	5898.15
455.07	5959.00
455.26	5813.89
455.44	6153.27
455.62	5954.32
455.81	5959.00
455.99	6157.95
456.17	6263.27
456.36	6120.50
456.54	6092.41
456.73	6267.95
456.91	6392.00
457.09	6284.34
457.28	6211.78
457.46	6373.28
457.64	6443.49
457.83	6363.92
458.01	6326.47
458.19	6560.52
458.38	6413.07
458.56	6672.87
458.74	6715.00
458.93	6665.85
459.11	6572.22
459.29	6607.33
459.48	6595.63
459.66	6520.73
459.84	6612.01
460.03	6712.66
460.21	6698.61
460.39	6637.76
460.57	6778.19
460.76	6855.43
460.94	6874.15
461.12	6829.68
461.31	6836.70
461.49	6782.87
461.67	6722.02
461.85	7101.19
462.04	6899.90
462.22	7236.94
462.40	7117.57
462.59	7063.74
462.77	7138.63
462.95	7021.61
463.13	6871.81
463.32	6979.48
463.50	7054.37
463.68	7061.40
463.86	6974.80
464.05	7091.82
464.23	6867.13
464.41	7227.57
464.59	7075.44
464.78	7295.45
464.96	7232.26
465.14	7073.10
465.32	7265.02
465.50	7215.87
465.69	7281.41
465.87	7304.81
466.05	7290.77
466.23	7311.83
466.41	7344.60
466.60	7449.93
466.78	7330.56
466.96	7335.24
467.14	7485.03
467.32	7403.11
467.51	7433.54
467.69	7492.05
467.87	7573.97
468.05	7693.34
468.23	7611.42
468.41	7499.08
468.60	7588.02
468.78	7585.68
468.96	7791.64
469.14	7765.90
469.32	7679.30
469.50	7641.85
469.69	7775.26
469.87	7784.62
470.05	7843.14
470.23	7712.07
470.41	7819.73
470.59	7763.56
470.77	7747.17
470.95	7892.29
471.14	8042.08
471.32	7831.43
471.50	8028.04
471.68	7960.16
471.86	7969.52
472.04	8304.22
472.22	8278.47
472.40	8135.70
472.58	8189.53
472.77	8311.24
472.95	8313.58
473.13	8512.53
473.31	8451.67
473.49	8418.91
473.67	8304.22
473.85	8575.72
474.03	8594.45
474.21	8821.48
474.39	8849.57
474.57	8676.37
474.75	8830.84
474.93	8875.31
475.12	8833.18
475.30	8922.12
475.48	8929.14
475.66	9083.62
475.84	8898.72
476.02	9118.73
476.20	9097.66
476.38	9111.71
476.56	9554.07
476.74	9411.29
476.92	9289.59
477.10	9448.74
477.28	9640.67
477.46	9472.15
477.64	9699.18
477.82	9734.29
478.00	9947.28
478.18	9741.31
478.36	9884.08
478.54	10078.35
478.72	10141.54
478.90	10253.89
479.08	10094.73
479.26	10415.38
479.44	10181.33
479.62	10476.24
479.80	10782.85
479.98	10532.41
480.16	10824.98
480.34	10958.39
480.52	10759.44
480.70	11014.56
480.88	10712.63
481.06	10867.11
481.24	10927.96
481.41	11047.33
481.59	11236.91
481.77	11286.06
481.95	11360.96
482.13	11613.74
482.31	11398.41
482.49	11700.34
482.67	11632.46
482.85	11782.26
483.03	11997.59
483.21	11999.93
483.39	12273.77
483.57	11882.90
483.74	12236.32
483.92	12287.81
484.10	12184.83
484.28	12650.60
484.46	12699.75
484.64	13041.46
484.82	13041.46
485.00	12821.45
485.18	13181.90
485.35	13273.18
485.53	13224.03
485.71	13125.72
485.89	13703.84
486.07	13479.15
486.25	13788.10
486.43	13427.65
486.61	13891.08
486.78	14090.02
486.96	13928.53
487.14	14181.31
487.32	14164.92
487.50	14164.92
487.68	14359.19
487.85	14736.01
488.03	14459.83
488.21	14824.95
488.39	14834.32
488.57	15019.22
488.75	15171.35
488.92	15215.82
489.10	15410.09
489.28	15543.50
489.46	15742.44
489.64	15477.96
489.81	15896.92
489.99	15971.82
490.17	15913.30
490.35	16306.51
490.53	16107.57
490.70	16524.18
490.88	16620.14
491.06	16769.94
491.24	16826.11
491.41	16339.28
491.59	17034.42
491.77	16505.46
491.95	17090.59
492.13	16917.39
492.30	17338.69
492.48	17170.17
492.66	17200.60
492.84	17341.03
493.01	17586.79
493.19	17537.63
493.37	17640.62
493.54	17823.18
493.72	17860.63
493.90	17792.75
494.08	18101.70
494.25	18181.28
494.43	18263.20
494.61	18038.51
494.79	18876.42
494.96	18197.67
495.14	18422.36
495.32	19005.15
495.49	19152.60
495.67	19014.51
495.85	18845.99
496.02	18867.06
496.20	19325.80
496.38	19300.06
496.55	19440.49
496.73	20002.22
496.91	19861.79
497.09	19861.79
497.26	19765.82
497.44	19676.88
497.62	20100.52
497.79	19943.70
497.97	20362.66
498.14	20491.39
498.32	20631.82
498.50	20608.42
498.67	20641.18
498.85	20776.94
499.03	20931.41
499.20	21032.05
499.38	21132.70
499.56	20908.01
499.73	20957.16
499.91	21439.31
500.08	21102.27
500.26	21088.23
500.44	21507.18
500.61	21493.14
500.79	21497.82
500.97	21465.05
501.14	21841.88
501.32	21745.92
501.49	21869.97
501.67	21837.20
501.84	22267.86
502.02	22265.52
502.20	22162.53
502.37	22134.45
502.55	22141.47
502.72	22288.92
502.90	22398.93
503.07	22249.13
503.25	22656.39
503.43	22754.69
503.60	22813.20
503.78	22902.14
503.95	22810.86
504.13	22862.35
504.30	23117.47
504.48	22766.39
504.65	23295.35
504.83	23098.75
505.01	23410.04
505.18	23321.10
505.36	23583.24
505.53	23417.06
505.71	23587.92
505.88	23599.62
506.06	23765.80
506.23	23744.73
506.41	23356.21
506.58	23843.04
506.76	23976.45
506.93	24311.14
507.11	24088.79
507.28	24636.48
507.46	24683.29
507.63	24353.27
507.81	24666.91
507.98	24346.25
508.16	24280.72
508.33	24690.31
508.50	24697.33
508.68	24816.70
508.85	24699.67
509.03	24772.23
509.20	24865.85
509.38	24877.55
509.55	25111.61
509.73	25551.63
509.90	25275.45
510.08	25146.72
510.25	25680.36
510.42	25514.18
510.60	25315.23
510.77	25525.88
510.95	25795.04
511.12	25809.09
511.30	26054.84
511.47	26022.08
511.64	25982.29
511.82	26085.27
511.99	26096.97
512.17	26387.20
512.34	26448.05
512.51	26579.12
512.69	26668.06
512.86	26258.47
513.04	26799.13
513.21	26586.15
513.38	26426.99
513.56	26698.49
513.73	26883.39
513.90	27110.43
514.08	27063.61
514.25	27229.79
514.43	27157.24
514.60	26939.57
514.77	27351.50
514.95	27222.77
515.12	27342.14
515.29	27323.41
515.47	27543.42
515.64	27967.06
515.81	27695.56
515.99	27695.56
516.16	27552.79
516.33	27840.67
516.51	28081.75
516.68	27917.91
516.85	27803.22
517.03	28175.37
517.20	28435.17
517.37	28070.04
517.54	28236.22
517.72	28500.70
517.89	28109.83
518.06	28304.10
518.24	28418.78
518.41	28596.67
518.58	28519.43
518.75	28126.22
518.93	28608.37
519.10	28641.14
519.27	28835.40
519.45	28830.72
519.62	28943.06
519.79	28870.51
519.96	28851.78
520.14	29195.84
520.31	28641.14
520.48	29039.03
520.65	29301.17
520.83	29654.59
521.00	29371.38
521.17	29181.80
521.34	29315.21
521.52	29469.69
521.69	29188.82
521.86	29900.34
522.03	29783.32
522.20	29970.56
522.38	29567.99
522.55	29914.39
522.72	29879.28
522.89	29947.15
523.07	29905.02
523.24	30129.72
523.41	30338.02
523.58	30293.55
523.75	30103.97
523.92	30228.02
524.10	30665.70
524.27	30670.38
524.44	30382.49
524.61	30946.56
524.78	30803.79
524.96	30595.48
525.13	30780.39
525.30	31187.64
525.47	31044.87
525.64	30635.27
525.81	31419.35
525.98	30806.13
526.16	30649.32
526.33	30782.73
526.50	31339.77
526.67	31173.60
526.84	31426.37
527.01	31374.88
527.18	31075.29
527.36	31648.72
527.53	31634.68
527.70	31709.58
527.87	31892.14
528.04	31590.21
528.21	31824.26
528.38	31716.60
528.55	32158.96
528.72	31402.97
528.89	32070.02
529.07	31896.82
529.24	31730.64
529.41	32126.19
529.58	32055.98
529.75	31917.89
529.92	32268.97
530.09	31714.26
530.26	32065.34
530.43	32444.51
530.60	31938.95
530.77	32474.93
530.94	32566.21
531.11	32854.10
531.28	32882.19
531.46	32697.28
531.63	32559.19
531.80	32226.84
531.97	33240.29
532.14	32542.81
532.31	32636.43
532.48	32833.04
532.65	32847.08
532.82	32964.10
532.99	33123.26
533.16	33048.36
533.33	33083.47
533.50	33085.81
533.67	33010.92
533.84	32954.74
534.01	33476.68
534.18	33170.07
534.35	33244.97
534.52	33603.07
534.69	33708.40
534.86	33017.94
535.03	33212.20
535.20	33326.89
535.37	33532.86
535.54	34003.30
535.71	33418.17
535.88	34106.29
536.05	33684.99
536.22	33986.92
536.38	34117.99
536.55	34155.44
536.72	34089.90
536.89	34391.83
537.06	34206.93
537.23	34579.07
537.40	34178.84
537.57	34270.12
537.74	34064.16
537.91	34639.93
538.08	34286.51
538.25	34455.03
538.42	34389.49
538.59	34370.77
538.75	34167.14
538.92	34330.98
539.09	34651.63
539.26	34546.31
539.43	34066.50
539.60	34761.64
539.77	34911.43
539.94	35187.61
540.11	34925.47
540.28	34958.24
540.44	35215.70
540.61	35409.96
540.78	35346.77
540.95	34806.11
541.12	35358.47
541.29	35101.01
541.46	35421.67
541.62	35569.12
541.79	35512.95
541.96	35510.61
542.13	35433.37
542.30	36109.78
542.47	35594.87
542.63	35700.19
542.80	36002.12
542.97	36240.86
543.14	36198.73
543.31	36449.16
543.48	36116.81
543.64	36964.08
543.81	36428.10
543.98	36079.36
544.15	36428.10
544.32	36318.09
544.48	36425.76
544.65	36369.58
544.82	36364.90
544.99	36367.24
545.16	36514.70
545.32	36374.27
545.49	36971.10
545.66	37003.87
545.83	37699.01
546.00	37897.95
546.16	36907.91
546.33	37090.47
546.50	36624.70
546.67	37015.57
546.83	36437.46
547.00	36322.77
547.17	36360.22
547.34	36713.64
547.50	36638.75
547.67	37340.91
547.84	37345.59
548.00	37687.31
548.17	37340.91
548.34	37038.98
548.51	37593.68
548.67	37233.24
548.84	36837.69
549.01	36968.76
549.18	37479.00
549.34	36950.04
549.51	37577.30
549.68	37242.60
549.84	37062.38
550.01	37471.98
550.18	36781.52
550.34	37397.08
550.51	37074.09
550.68	37483.68
550.84	37361.97
551.01	37326.86
551.18	37310.48
551.34	37067.06
551.51	37790.29
551.68	37378.36
551.84	37088.13
552.01	37975.19
552.18	37750.50
552.34	37500.06
552.51	37998.60
552.68	38024.34
552.84	37823.06
553.01	37743.48
553.18	37804.33
553.34	38162.43
553.51	37888.59
553.67	38211.59
553.84	38267.76
554.01	37963.49
554.17	38101.58
554.34	37904.98
554.51	37888.59
554.67	38054.77
554.84	37816.04
555.00	37542.19
555.17	37773.91
555.33	38031.36
555.50	37862.85
555.67	38302.87
555.83	38024.34
556.00	38321.59
556.16	38728.84
556.33	38185.84
556.50	37944.76
556.66	37954.13
556.83	38075.84
556.99	38742.89
557.16	38478.41
557.32	38569.69
557.49	38787.36
557.65	38302.87
557.82	38412.87
557.98	38532.24
558.15	38452.66
558.32	38906.73
558.48	38045.41
558.65	38841.19
558.81	38515.86
558.98	39342.06
559.14	38939.49
559.31	38813.10
559.47	38799.06
559.64	38485.43
559.80	38567.35
559.97	38775.66
560.13	39115.03
560.30	38469.04
560.46	38878.64
560.63	39103.33
560.79	39131.42
560.96	39372.49
561.12	38892.68
561.29	38738.21
561.45	38939.49
561.61	39103.33
561.78	38976.94
561.94	39194.61
562.11	39384.19
562.27	39332.70
562.44	39400.58
562.60	39276.53
562.77	39283.55
562.93	39079.92
563.10	39608.89
563.26	38862.26
563.42	39538.67
563.59	39328.02
563.75	39419.30
563.92	39873.37
564.08	39250.78
564.24	39065.88
564.41	39416.96
564.57	39533.99
564.74	39203.97
564.90	39669.74
565.07	39571.44
565.23	39714.21
565.39	39739.96
565.56	39903.79
565.72	40013.80
565.88	39412.28
566.05	39995.07
566.21	39239.08
566.38	39627.61
566.54	39351.43
566.70	39660.38
566.87	39702.51
567.03	39693.15
567.19	39985.71
567.36	39833.58
567.52	39393.56
567.68	39835.92
567.85	39812.51
568.01	40144.87
568.17	39431.01
568.34	39505.90
568.50	40069.97
568.66	39871.03
568.83	39529.31
568.99	40238.49
569.15	39941.24
569.32	39688.46
569.48	39583.14
569.64	39796.13
569.81	39791.45
569.97	39522.29
570.13	39697.83
570.30	39559.73
570.46	39552.71
570.62	39487.18
570.78	39878.05
570.95	39248.44
571.11	40264.24
571.27	39934.22
571.43	39686.12
571.60	40100.40
571.76	39751.66
571.92	40421.05
572.09	39711.87
572.25	40069.97
572.41	40236.15
572.57	39997.41
572.74	40289.98
572.90	40194.02
573.06	40172.96
573.22	39840.60
573.38	40224.45
573.55	39746.98
573.71	39423.98
573.87	40030.18
574.03	40107.42
574.20	39716.55
574.36	39981.03
574.52	40641.06
574.68	40240.83
574.84	40381.26
575.01	40428.07
575.17	40404.67
575.33	39723.57
575.49	40273.60
575.65	40144.87
575.82	40659.79
575.98	40044.23
576.14	40545.10
576.30	40395.31
576.46	40264.24
576.62	40128.48
576.79	40467.86
576.95	39981.03
577.11	40299.34
577.27	40411.69
577.43	40648.08
577.59	40519.35
577.75	40161.25
577.92	39957.63
578.08	40346.15
578.24	40205.72
578.40	40657.45
578.56	40643.40
578.72	40535.74
578.88	40978.10
579.04	40697.24
579.21	40397.65
579.37	40615.32
579.53	40704.26
579.69	40076.99
579.85	40769.79
580.01	40942.99
580.17	40198.70
580.33	40151.89
580.49	40325.09
580.65	40341.47
580.82	40589.57
580.98	40495.95
581.14	40161.25
581.30	40570.85
581.46	40416.37
581.62	40507.65
581.78	40376.58
581.94	40519.35
582.10	40325.09
582.26	40563.82
582.42	39976.35
582.58	40346.15
582.74	40680.85
582.90	40692.55
583.06	40629.36
583.22	40678.51
583.38	40336.79
583.54	40247.85
583.70	40105.08
583.86	40495.95
584.02	40594.25
584.18	40730.00
584.34	40491.27
584.50	40889.16
584.66	40409.35
584.82	40418.71
584.98	40463.18
585.14	40460.84
585.30	40582.55
585.46	40491.27
585.62	40622.34
585.78	40641.06
585.94	40371.90
586.10	40896.18
586.26	40414.03
586.42	41006.19
586.58	40730.00
586.74	40896.18
586.90	40233.81
587.06	40198.70
587.22	41223.86
587.38	40664.47
587.54	41254.28
587.70	41261.30
587.86	40889.16
588.02	40505.31
588.18	40804.90
588.34	41263.64
588.49	40683.19
588.65	40577.87
588.81	40734.68
588.97	40870.43
589.13	40608.29
589.29	40861.07
589.45	40722.98
589.61	40870.43
