SpectraSuite Data File
++++++++++++++++++++++++++++++++++++
Date: Thu Oct 24 13:21:21 EDT 2013
User: stostad
Dark Spectrum Present: No
Reference Spectrum Present: No
Number of Sampled Component Spectra: 1
Spectrometers: USB2+H05261
Integration Time (usec): 100000 (USB2+H05261)
Spectra Averaged: 1 (USB2+H05261)
Boxcar Smoothing: 0 (USB2+H05261)
Correct for Electrical Dark: No (USB2+H05261)
Strobe/Lamp Enabled: No (USB2+H05261)
Correct for Detector Non-linearity: No (USB2+H05261)
Correct for Stray Light: No (USB2+H05261)
Number of Pixels in Processed Spectrum: 2048
>>>>>Begin Processed Spectral Data<<<<<
365.73	594.50
365.92	594.50
366.12	594.50
366.32	528.96
366.52	498.53
366.72	526.62
366.91	454.06
367.11	465.77
367.31	454.06
367.51	472.79
367.70	470.45
367.90	470.45
368.10	519.60
368.30	440.02
368.49	442.36
368.69	496.19
368.89	489.17
369.09	451.72
369.28	517.26
369.48	519.60
369.68	428.32
369.87	531.30
370.07	512.58
370.27	554.71
370.47	692.80
370.66	854.30
370.86	844.93
371.06	954.94
371.25	917.49
371.45	868.34
371.65	922.17
371.84	933.87
372.04	877.70
372.24	968.98
372.44	976.00
372.63	950.26
372.83	961.96
373.03	898.77
373.22	926.85
373.42	978.34
373.62	992.39
373.81	966.64
374.01	1025.15
374.21	1027.50
374.40	1048.56
374.60	1081.33
374.79	1008.77
374.99	1008.77
375.19	992.39
375.38	1029.84
375.58	1074.31
375.78	1004.09
375.97	1064.94
376.17	1071.97
376.37	1083.67
376.56	1086.01
376.76	1118.78
376.95	994.73
377.15	1100.05
377.35	1111.75
377.54	1123.46
377.74	1032.18
377.93	978.34
378.13	1121.12
378.33	1076.65
378.52	1132.82
378.72	1090.69
378.91	1083.67
379.11	1062.60
379.31	1093.03
379.50	1114.10
379.70	1200.69
379.89	1165.59
380.09	1078.99
380.28	1100.05
380.48	1174.95
380.68	1158.57
380.87	1191.33
381.07	1163.25
381.26	1198.35
381.46	1177.29
381.65	1193.67
381.85	1174.95
382.04	1224.10
382.24	1163.25
382.43	1165.59
382.63	1151.54
382.83	1177.29
383.02	1256.87
383.22	1289.64
383.41	1165.59
383.61	1170.27
383.80	1306.02
384.00	1205.38
384.19	1245.16
384.39	1181.97
384.58	1228.78
384.78	1249.85
384.97	1261.55
385.17	1254.53
385.36	1291.98
385.56	1291.98
385.75	1331.76
385.95	1357.51
386.14	1345.81
386.34	1322.40
386.53	1210.06
386.72	1352.83
386.92	1376.24
387.11	1256.87
387.31	1341.13
387.50	1355.17
387.70	1383.26
387.89	1348.15
388.09	1228.78
388.28	1406.66
388.48	1371.55
388.67	1444.11
388.86	1418.36
389.06	1387.94
389.25	1488.58
389.45	1364.53
389.64	1366.87
389.84	1345.81
390.03	1401.98
390.22	1507.30
390.42	1493.26
390.61	1493.26
390.81	1448.79
391.00	1509.65
391.19	1448.79
391.39	1451.13
391.58	1469.86
391.78	1465.18
391.97	1535.39
392.16	1577.52
392.36	1589.22
392.55	1603.27
392.75	1526.03
392.94	1572.84
393.13	1577.52
393.33	1612.63
393.52	1547.09
393.71	1596.25
393.91	1640.72
394.10	1530.71
394.29	1589.22
394.49	1603.27
394.68	1685.19
394.88	1647.74
395.07	1584.54
395.26	1589.22
395.46	1638.38
395.65	1689.87
395.84	1673.48
396.04	1797.53
396.23	1701.57
396.42	1762.42
396.62	1708.59
396.81	1722.63
397.00	1760.08
397.19	1818.60
397.39	1809.23
397.58	1884.13
397.77	1764.76
397.97	1856.04
398.16	1781.15
398.35	1865.41
398.55	1863.07
398.74	1837.32
398.93	1837.32
399.12	1769.44
399.32	1811.57
399.51	1863.07
399.70	1919.24
399.90	1867.75
400.09	1933.28
400.28	1895.83
400.47	1935.62
400.67	2031.58
400.86	1937.96
401.05	2052.65
401.24	1982.43
401.44	2019.88
401.63	2043.29
401.82	2080.74
402.01	2097.12
402.21	1952.01
402.40	2069.03
402.59	2036.27
402.78	2134.57
402.97	2097.12
403.17	2193.08
403.36	2214.15
403.55	2050.31
403.74	2249.25
403.93	2326.49
404.13	2235.21
404.32	2272.66
404.51	2363.94
404.70	2249.25
404.89	2193.08
405.09	2375.64
405.28	2298.41
405.47	2375.64
405.66	2298.41
405.85	2300.75
406.05	2392.03
406.24	2389.69
406.43	2434.16
406.62	2434.16
406.81	2387.35
407.00	2314.79
407.20	2513.74
407.39	2462.24
407.58	2558.21
407.77	2532.46
407.96	2410.75
408.15	2612.04
408.34	2633.10
408.54	2612.04
408.73	2485.65
408.92	2558.21
409.11	2806.30
409.30	2766.51
409.49	2658.85
409.68	2724.38
409.87	2682.25
410.07	2672.89
410.26	2733.75
410.45	2712.68
410.64	2740.77
410.83	2794.60
411.02	2813.32
411.21	2937.37
411.40	2715.02
411.59	2923.33
411.78	2958.44
411.98	2965.46
412.17	3019.29
412.36	2981.84
412.55	2993.55
412.74	3009.93
412.93	3023.97
413.12	3000.57
413.31	3117.59
413.50	3122.27
413.69	3082.49
413.88	3194.83
414.07	3152.70
414.26	3220.58
414.45	3258.03
414.64	3255.69
414.83	3342.28
415.02	3372.71
415.22	3461.65
415.41	3335.26
415.60	3377.39
415.79	3541.23
415.98	3529.53
416.17	3552.93
416.36	3552.93
416.55	3562.30
416.74	3478.04
416.93	3606.77
417.12	3688.68
417.31	3669.96
417.50	3623.15
417.69	3660.60
417.88	3630.17
418.07	3772.94
418.26	3749.54
418.45	3751.88
418.64	3833.80
418.83	3906.35
419.02	3714.43
419.21	3948.48
419.39	3957.85
419.58	3782.31
419.77	3768.26
419.96	3962.53
420.15	3918.06
420.34	3969.55
420.53	3875.93
420.72	4021.04
420.91	4117.00
421.10	4079.55
421.29	4044.45
421.48	4109.98
421.67	4107.64
421.86	4117.00
422.05	4128.70
422.24	4067.85
422.43	4285.52
422.61	4095.94
422.80	4325.31
422.99	4255.09
423.18	4243.39
423.37	4294.88
423.56	4149.77
423.75	4217.65
423.94	4135.73
424.13	4086.58
424.32	4039.76
424.50	4245.73
424.69	4386.16
424.88	4306.59
425.07	4301.90
425.26	4304.25
425.45	4360.42
425.64	4229.35
425.83	4283.18
426.01	4278.50
426.20	4280.84
426.39	4304.25
426.58	4311.27
426.77	4418.93
426.96	4376.80
427.15	4435.32
427.33	4463.40
427.52	4374.46
427.71	4479.79
427.90	4507.87
428.09	4402.55
428.28	4557.02
428.46	4533.62
428.65	4491.49
428.84	4741.93
429.03	4613.20
429.22	4573.41
429.40	4601.49
429.59	4711.50
429.78	4442.34
429.97	4449.36
430.16	4718.52
430.34	4739.58
430.53	4788.74
430.72	4727.88
430.91	4678.73
431.10	4723.20
431.28	4940.87
431.47	4887.04
431.66	4870.65
431.85	4943.21
432.03	4905.76
432.22	4905.76
432.41	4975.98
432.60	4858.95
432.79	5116.41
432.97	4947.89
433.16	4978.32
433.35	4961.94
433.54	5097.69
433.72	5135.14
433.91	5181.95
434.10	5315.36
434.28	5046.20
434.47	5245.14
434.66	5123.43
434.85	5369.19
435.03	5345.78
435.22	5577.50
435.41	5734.31
435.59	5570.48
435.78	5547.07
435.97	5504.94
436.16	5521.32
436.34	5500.26
436.53	5425.36
436.72	5643.03
436.90	5444.09
437.09	5666.44
437.28	5420.68
437.46	5411.32
437.65	5509.62
437.84	5741.33
438.02	5746.02
438.21	5540.05
438.40	5790.49
438.58	5654.73
438.77	5849.00
438.96	5795.17
439.14	5713.25
439.33	5956.66
439.52	6008.16
439.70	5900.49
439.89	6005.81
440.08	6333.49
440.26	6108.80
440.45	5989.43
440.63	6183.70
440.82	6441.15
441.01	6221.14
441.19	6413.07
441.38	6534.78
441.57	6492.65
441.75	6420.09
441.94	6640.10
442.12	6532.44
442.31	6661.16
442.50	6635.42
442.68	6670.53
442.87	6593.29
443.05	6619.04
443.24	6825.00
443.43	6705.63
443.61	6853.09
443.80	6970.12
443.98	6532.44
444.17	6548.82
444.35	6724.36
444.54	6789.89
444.73	6878.83
444.91	6829.68
445.10	6860.11
445.28	7028.63
445.47	6899.90
445.65	6799.26
445.84	7026.29
446.02	6916.28
446.21	6902.24
446.39	6817.98
446.58	7056.72
446.77	6998.20
446.95	6775.85
447.14	6923.30
447.32	7143.32
447.51	6918.62
447.69	7019.27
447.88	6974.80
448.06	7030.97
448.25	6998.20
448.43	6951.39
448.62	6944.37
448.80	7037.99
448.99	7084.80
449.17	7148.00
449.36	7276.73
449.54	7337.58
449.73	7199.49
449.91	7351.62
450.10	7435.88
450.28	7473.33
450.46	7267.36
450.65	7396.09
450.83	7520.14
451.02	7232.26
451.20	7562.27
451.39	7358.64
451.57	7473.33
451.76	7667.60
451.94	7534.18
452.13	7623.12
452.31	7543.55
452.49	7506.10
452.68	7634.83
452.86	7698.02
453.05	7529.50
453.23	7618.44
453.42	7625.47
453.60	7623.12
453.78	7789.30
453.97	7658.23
454.15	7777.60
454.34	7805.69
454.52	7709.72
454.70	7833.77
454.89	7969.52
455.07	7882.92
455.26	7934.42
455.44	8124.00
455.62	8131.02
455.81	8168.47
455.99	8112.30
456.17	7960.16
456.36	8028.04
456.54	7997.61
456.73	8353.37
456.91	8505.51
457.09	8407.20
457.28	8407.20
457.46	8416.57
457.64	8524.23
457.83	8531.25
458.01	8571.04
458.19	8608.49
458.38	8566.36
458.56	8627.21
458.74	8538.27
458.93	8580.40
459.11	8856.59
459.29	8610.83
459.48	8744.24
459.66	8568.70
459.84	8816.80
460.03	8926.80
460.21	9018.08
460.39	8943.19
460.57	8945.53
460.76	9015.74
460.94	9130.43
461.12	9095.32
461.31	9097.66
461.49	9062.55
461.67	8842.54
461.85	9221.71
462.04	9137.45
462.22	9455.76
462.40	9392.57
462.59	9359.80
462.77	9088.30
462.95	9376.19
463.13	9394.91
463.32	9401.93
463.50	9462.79
463.68	9528.32
463.86	9448.74
464.05	9287.25
464.23	9462.79
464.41	9696.84
464.59	9273.20
464.78	9586.83
464.96	9741.31
465.14	9596.20
465.32	9647.69
465.50	9776.42
465.69	9607.90
465.87	9806.84
466.05	9736.63
466.23	9771.74
466.41	9729.61
466.60	9898.13
466.78	9893.44
466.96	9867.70
467.14	9951.96
467.32	9905.15
467.51	9963.66
467.69	9783.44
467.87	10043.24
468.05	9900.47
468.23	10061.96
468.41	10003.45
468.60	10015.15
468.78	10286.65
468.96	10078.35
469.14	10464.54
469.32	10342.83
469.50	10083.03
469.69	10312.40
469.87	10406.02
470.05	10633.05
470.23	10523.05
470.41	10340.49
470.59	10579.22
470.77	10560.50
470.95	10422.41
471.14	10822.64
471.32	10548.79
471.50	10670.50
471.68	10700.93
471.86	10904.56
472.04	10806.25
472.22	11260.32
472.40	10874.13
472.58	10754.76
472.77	10991.16
472.95	11323.51
473.13	11482.67
473.31	11119.89
473.49	11145.63
473.67	11370.32
473.85	11199.46
474.03	11606.72
474.21	11520.12
474.39	11754.17
474.57	11805.66
474.75	11672.25
474.93	11910.99
475.12	11740.13
475.30	11922.69
475.48	11899.28
475.66	11892.26
475.84	12030.35
476.02	12285.47
476.20	12236.32
476.38	12343.99
476.56	12657.62
476.74	12376.75
476.92	12582.72
477.10	12458.67
477.28	12732.51
477.46	12662.30
477.64	12524.21
477.82	13020.40
478.00	13280.20
478.18	13284.88
478.36	13345.73
478.54	13671.07
478.72	13420.63
478.90	13762.35
479.08	13902.78
479.26	14155.56
479.44	13860.65
479.62	14010.45
479.80	14052.58
479.98	14176.62
480.16	14583.88
480.34	14541.75
480.52	14544.09
480.70	14553.45
480.88	14576.86
481.06	14663.46
481.24	14913.89
481.41	15007.52
481.59	15187.74
481.77	15372.64
481.95	15545.84
482.13	15674.57
482.31	15468.60
482.49	15693.29
482.67	15683.93
482.85	15817.34
483.03	15943.73
483.21	16294.81
483.39	16465.67
483.57	16486.73
483.74	16753.55
483.92	16704.40
484.10	16842.50
484.28	17081.23
484.46	17200.60
484.64	17568.06
484.82	17202.94
485.00	17558.70
485.18	17734.24
485.35	17996.38
485.53	17909.78
485.71	17954.25
485.89	18541.72
486.07	18410.65
486.25	18677.48
486.43	18567.47
486.61	18595.56
486.78	18768.76
486.96	19145.58
487.14	19075.37
487.32	19456.87
487.50	19555.18
487.68	19704.97
487.85	19751.78
488.03	20039.67
488.21	20255.00
488.39	20130.95
488.57	20395.43
488.75	20339.26
488.92	20559.27
489.10	20758.21
489.28	21050.78
489.46	21425.26
489.64	21233.34
489.81	21589.10
489.99	21493.14
490.17	21563.36
490.35	21628.89
490.53	22073.59
490.70	22270.20
490.88	22314.67
491.06	22403.61
491.24	22354.46
491.41	22703.20
491.59	22740.64
491.77	23204.07
491.95	23250.88
492.13	23124.49
492.30	23304.71
492.48	23543.45
492.66	23576.22
492.84	23590.26
493.01	23653.45
493.19	23950.70
493.37	24388.38
493.54	24240.93
493.72	24271.36
493.90	24367.32
494.08	24615.41
494.25	24907.98
494.43	24823.72
494.61	25230.98
494.79	25240.34
494.96	25289.49
495.14	25563.33
495.32	25785.68
495.49	25816.11
495.67	25919.09
495.85	26017.40
496.02	26010.37
496.20	26511.25
496.38	26382.52
496.55	26522.95
496.73	27096.38
496.91	26845.94
497.09	27211.07
497.26	27047.23
497.44	27206.39
497.62	26967.65
497.79	27798.54
497.97	27772.80
498.14	28060.68
498.32	27983.44
498.50	27779.82
498.67	28217.50
498.85	28149.62
499.03	28304.10
499.20	28514.75
499.38	28811.99
499.56	28788.59
499.73	29151.37
499.91	28521.77
500.08	29324.57
500.26	29102.22
500.44	29486.07
500.61	29223.93
500.79	29544.58
500.97	29413.51
501.14	29813.74
501.32	30031.41
501.49	29589.05
501.67	29654.59
501.84	30251.42
502.02	30436.33
502.20	30246.74
502.37	30586.12
502.55	30225.68
502.72	30710.17
502.90	30646.97
503.07	30639.95
503.25	30913.80
503.43	30637.61
503.60	30958.27
503.78	31105.72
503.95	30508.88
504.13	31433.39
504.30	31508.29
504.48	31487.23
504.65	31880.44
504.83	31934.27
505.01	32128.53
505.18	31590.21
505.36	32400.04
505.53	32133.21
505.71	31938.95
505.88	32290.03
506.06	32598.98
506.23	33237.95
506.41	32402.38
506.58	32758.14
506.76	32645.79
506.93	33333.91
507.11	33029.64
507.28	33039.00
507.46	33268.37
507.63	33460.30
507.81	33696.69
507.98	32978.15
508.16	33041.34
508.33	33420.51
508.50	33802.02
508.68	34171.82
508.85	34450.35
509.03	34082.88
509.20	34237.36
509.38	34281.83
509.55	34492.47
509.73	34881.00
509.90	34897.39
510.08	34733.55
510.25	35051.86
510.42	34504.18
510.60	34934.84
510.77	35058.88
510.95	35335.07
511.12	35131.44
511.30	35365.49
511.47	35751.68
511.64	35742.32
511.82	35864.03
511.99	35709.55
512.17	35840.62
512.34	35943.61
512.51	36463.21
512.69	36481.93
512.86	35938.93
513.04	36840.03
513.21	36348.52
513.38	36601.30
513.56	36545.12
513.73	36505.34
513.90	36933.65
514.08	36701.94
514.25	37198.13
514.43	37188.77
514.60	36982.80
514.77	36900.89
514.95	37268.35
515.12	37158.34
515.29	37380.70
515.47	37553.90
515.64	37687.31
515.81	37516.45
515.99	37858.17
516.16	37958.81
516.33	38068.81
516.51	37825.40
516.68	38209.25
516.85	38225.63
517.03	38394.15
517.20	38546.28
517.37	38323.93
517.54	38143.71
517.72	38197.54
517.89	38361.38
518.06	39040.14
518.24	38806.08
518.41	39126.74
518.58	38850.55
518.75	38873.96
518.93	38841.19
519.10	39000.35
519.27	39126.74
519.45	39344.41
519.62	39564.42
519.79	39519.95
519.96	39447.39
520.14	39725.91
520.31	39608.89
520.48	39714.21
520.65	39496.54
520.83	40013.80
521.00	40449.14
521.17	40093.38
521.34	40402.33
521.52	40268.92
521.69	39800.81
521.86	40287.64
522.03	40151.89
522.20	40631.70
522.38	41003.85
522.55	41055.34
522.72	41170.02
522.89	40732.34
523.07	41551.53
523.24	40959.38
523.41	41607.70
523.58	41694.30
523.75	41570.25
523.92	41357.27
524.10	41792.61
524.27	41258.96
524.44	41930.70
524.61	41998.57
524.78	41790.27
524.96	41937.72
525.13	42068.79
525.30	42426.89
525.47	42267.73
525.64	42347.31
525.81	41928.36
525.98	42244.33
526.16	42050.06
526.33	42258.37
526.50	42913.72
526.67	42876.27
526.84	42419.87
527.01	42995.64
527.18	42944.15
527.36	42775.63
527.53	42763.93
527.70	43227.35
527.87	42972.24
528.04	43381.83
528.21	43555.03
528.38	43328.00
528.55	43454.39
528.72	43089.26
528.89	43571.41
529.07	43309.27
529.24	43519.92
529.41	43489.49
529.58	43756.32
529.75	43489.49
529.92	43971.64
530.09	43807.81
530.26	43927.17
530.43	43646.31
530.60	43941.22
530.77	44034.84
530.94	44367.20
531.11	44224.42
531.28	44280.60
531.46	44460.82
531.63	44839.98
531.80	44334.43
531.97	44877.43
532.14	44954.67
532.31	44526.35
532.48	44847.00
532.65	44786.15
532.82	44432.73
532.99	45017.86
533.16	44612.95
533.33	44917.22
533.50	45170.00
533.67	44980.42
533.84	45106.80
534.01	44863.39
534.18	45270.64
534.35	45418.10
534.52	45024.89
534.69	45380.65
534.86	45364.26
535.03	45635.77
535.20	45404.05
535.37	45722.37
535.54	45986.85
535.71	45682.58
535.88	45925.99
536.05	45883.86
536.22	46192.81
536.38	46557.94
536.55	46281.75
536.72	46337.93
536.89	46253.67
537.06	46710.07
537.23	46672.62
537.40	46405.80
537.57	46410.48
537.74	46270.05
537.91	46920.72
538.08	46555.60
538.25	46417.50
538.42	46724.11
538.59	47260.10
538.75	46398.78
538.92	46621.13
539.09	46937.10
539.26	46408.14
539.43	46827.10
539.60	47292.86
539.77	47136.05
539.94	47524.58
540.11	47491.81
540.28	47650.97
540.44	47807.78
540.61	47498.83
540.78	47508.19
540.95	47723.52
541.12	47330.31
541.29	47522.24
541.46	47908.43
541.62	47983.32
541.79	48156.52
541.96	47910.77
542.13	48261.85
542.30	47770.33
542.47	48355.47
542.63	48126.10
542.80	48289.93
542.97	48715.91
543.14	48818.89
543.31	48474.84
543.48	48587.18
543.64	48823.58
543.81	48701.87
543.98	48622.29
544.15	48814.21
544.32	48839.96
544.48	49499.99
544.65	48811.87
544.82	49062.31
544.99	49109.12
545.16	48914.86
545.32	48645.69
545.49	49439.14
545.66	49518.71
545.83	49528.08
546.00	49621.70
546.16	49586.59
546.33	49378.28
546.50	49223.81
546.67	49340.83
546.83	48795.49
547.00	49088.06
547.17	48666.76
547.34	49345.51
547.50	49059.97
547.67	49710.64
547.84	49509.35
548.00	50082.78
548.17	50190.45
548.34	49591.27
548.51	49727.02
548.67	49624.04
548.84	49879.16
549.01	49514.03
549.18	49909.58
549.34	50075.76
549.51	50209.17
549.68	50000.86
549.84	49930.65
550.01	49851.07
550.18	49605.31
550.34	49727.02
550.51	49930.65
550.68	50099.17
550.84	49947.03
551.01	50223.22
551.18	50129.59
551.34	49771.49
551.51	49998.52
551.68	50120.23
551.84	49998.52
552.01	50361.31
552.18	50466.63
552.34	50234.92
552.51	50520.46
552.68	50110.87
552.84	50581.32
553.01	50831.75
553.18	50560.25
553.34	50796.65
553.51	50440.89
553.67	50782.60
553.84	51000.27
554.01	51061.13
554.17	50967.51
554.34	51070.49
554.51	50857.50
554.67	51000.27
554.84	51227.31
555.00	50827.07
555.17	50831.75
555.33	50632.81
555.50	50726.43
555.67	50770.90
555.83	51409.87
556.00	51194.54
556.16	51667.33
556.33	51110.28
556.50	51023.68
556.66	50988.57
556.83	51086.87
556.99	51547.96
557.16	51325.61
557.32	51426.25
557.49	51566.68
557.65	51395.82
557.82	51187.52
557.98	51398.16
558.15	50927.72
558.32	51021.34
558.48	51533.92
558.65	51341.99
558.81	51491.79
558.98	51877.97
559.14	51498.81
559.31	51229.65
559.47	51807.76
559.64	51746.90
559.80	51686.05
559.97	51632.22
560.13	51564.34
560.30	51519.87
560.46	51810.10
560.63	51730.52
560.79	51793.71
560.96	52189.27
561.12	51779.67
561.29	51824.14
561.45	51842.87
561.61	52102.67
561.78	51718.82
561.94	51985.64
562.11	51763.29
562.27	52140.11
562.44	52151.82
562.60	52390.55
562.77	51955.21
562.93	51929.47
563.10	52301.61
563.26	51625.20
563.42	52430.34
563.59	52261.82
563.75	52451.41
563.92	52189.27
564.08	52004.36
564.24	51992.66
564.41	52105.01
564.57	51927.13
564.74	51711.80
564.90	52275.87
565.07	52317.99
565.23	52472.47
565.39	52376.51
565.56	52643.33
565.72	52243.10
565.88	52552.05
566.05	52355.44
566.21	52392.89
566.38	51892.02
566.54	52186.92
566.70	52772.06
566.87	52619.92
567.03	52245.44
567.19	52636.31
567.36	52704.18
567.52	52435.02
567.68	52425.66
567.85	52458.43
568.01	52758.02
568.17	52605.88
568.34	52708.86
568.50	52418.64
568.66	52825.89
568.83	52481.83
568.99	52657.37
569.15	52666.73
569.32	52509.92
569.48	51995.00
569.64	52605.88
569.81	52505.24
569.97	52346.08
570.13	52741.63
570.30	52612.90
570.46	52442.04
570.62	52561.41
570.78	52640.99
570.95	52456.09
571.11	52795.46
571.27	52538.01
571.43	52535.66
571.60	52664.39
571.76	52296.93
571.92	52512.26
572.09	52945.26
572.25	52680.78
572.41	53020.16
572.57	53066.97
572.74	52732.27
572.90	52863.34
573.06	52704.18
573.22	52858.66
573.38	52650.35
573.55	52552.05
573.71	52994.41
573.87	52870.36
574.03	52575.45
574.20	52835.25
574.36	52664.39
574.52	53183.99
574.68	52807.17
574.84	53029.52
575.01	52910.15
575.17	53008.45
575.33	52921.85
575.49	53038.88
575.65	52996.75
575.82	53151.23
575.98	53041.22
576.14	53265.91
576.30	53055.26
576.46	52996.75
576.62	53284.64
576.79	53017.82
576.95	52790.78
577.11	53010.79
577.27	53090.37
577.43	53289.32
577.59	52769.72
577.75	53172.29
577.92	52868.02
578.08	52858.66
578.24	52896.11
578.40	53249.53
578.56	53237.83
578.72	53249.53
578.88	53359.53
579.04	53354.85
579.21	53174.63
579.37	53207.40
579.53	53394.64
579.69	52924.19
579.85	52928.87
580.01	53389.96
580.17	53277.61
580.33	53181.65
580.49	53336.13
580.65	53193.36
580.82	53514.01
580.98	53198.04
581.14	53216.76
581.30	53413.37
581.46	52982.71
581.62	53247.19
581.78	52949.94
581.94	53027.18
582.10	52699.50
582.26	53258.89
582.42	53198.04
582.58	53130.16
582.74	52982.71
582.90	53336.13
583.06	53375.92
583.22	53308.04
583.38	52947.60
583.54	52910.15
583.70	53155.91
583.86	53024.84
584.02	53209.74
584.18	53347.83
584.34	53368.90
584.50	53385.28
584.66	53357.19
584.82	53394.64
584.98	53528.05
585.14	53453.15
585.30	53443.79
585.46	53581.88
585.62	53345.49
585.78	53593.59
585.94	53418.05
586.10	53504.65
586.26	53132.50
586.42	53703.59
586.58	53448.47
586.74	53357.19
586.90	53308.04
587.06	53347.83
587.22	53389.96
587.38	53361.87
587.54	53965.73
587.70	53921.26
587.86	53682.53
588.02	53680.19
588.18	53581.88
588.34	53935.30
588.49	53469.54
588.65	53165.27
588.81	53317.40
