SpectraSuite Data File
++++++++++++++++++++++++++++++++++++
Date: Thu Oct 24 13:21:19 EDT 2013
User: stostad
Dark Spectrum Present: No
Reference Spectrum Present: No
Number of Sampled Component Spectra: 1
Spectrometers: USB2+H05261
Integration Time (usec): 100000 (USB2+H05261)
Spectra Averaged: 1 (USB2+H05261)
Boxcar Smoothing: 0 (USB2+H05261)
Correct for Electrical Dark: No (USB2+H05261)
Strobe/Lamp Enabled: No (USB2+H05261)
Correct for Detector Non-linearity: No (USB2+H05261)
Correct for Stray Light: No (USB2+H05261)
Number of Pixels in Processed Spectrum: 2048
>>>>>Begin Processed Spectral Data<<<<<
365.73	533.64
365.92	533.64
366.12	533.64
366.32	505.56
366.52	451.72
366.72	468.11
366.91	454.06
367.11	454.06
367.31	458.74
367.51	409.59
367.70	454.06
367.90	451.72
368.10	470.45
368.30	475.13
368.49	411.93
368.69	493.85
368.89	491.51
369.09	437.68
369.28	482.15
369.48	489.17
369.68	578.11
369.87	500.87
370.07	479.81
370.27	585.13
370.47	608.54
370.66	821.53
370.86	835.57
371.06	826.21
371.25	894.08
371.45	880.04
371.65	945.58
371.84	861.32
372.04	856.64
372.24	931.53
372.44	964.30
372.63	884.72
372.83	931.53
373.03	898.77
373.22	915.15
373.42	931.53
373.62	943.24
373.81	964.30
374.01	957.28
374.21	997.07
374.40	971.32
374.60	1032.18
374.79	992.39
374.99	936.21
375.19	929.19
375.38	999.41
375.58	968.98
375.78	1062.60
375.97	997.07
376.17	1032.18
376.37	1043.88
376.56	1074.31
376.76	985.37
376.95	1071.97
377.15	1027.50
377.35	1008.77
377.54	1015.79
377.74	973.66
377.93	1062.60
378.13	1118.78
378.33	1025.15
378.52	1025.15
378.72	1104.73
378.91	1034.52
379.11	1001.75
379.31	1086.01
379.50	924.51
379.70	1029.84
379.89	1102.39
380.09	1135.16
380.28	1078.99
380.48	1097.71
380.68	1029.84
380.87	1116.44
381.07	1139.84
381.26	1163.25
381.46	1109.41
381.65	1053.24
381.85	1118.78
382.04	1046.22
382.24	1174.95
382.43	1137.50
382.63	1071.97
382.83	1142.18
383.02	1210.06
383.22	1198.35
383.41	1132.82
383.61	1172.61
383.80	1121.12
384.00	1193.67
384.19	1156.22
384.39	1196.01
384.58	1221.76
384.78	1174.95
384.97	1203.04
385.17	1184.31
385.36	1205.38
385.56	1191.33
385.75	1184.31
385.95	1254.53
386.14	1301.34
386.34	1188.99
386.53	1226.44
386.72	1228.78
386.92	1217.08
387.11	1261.55
387.31	1238.14
387.50	1296.66
387.70	1196.01
387.89	1256.87
388.09	1275.59
388.28	1287.29
388.48	1263.89
388.67	1287.29
388.86	1460.49
389.06	1299.00
389.25	1362.19
389.45	1362.19
389.64	1284.95
389.84	1364.53
390.03	1329.42
390.22	1320.06
390.42	1343.47
390.61	1313.04
390.81	1394.96
391.00	1362.19
391.19	1423.05
391.39	1383.26
391.58	1390.28
391.78	1472.20
391.97	1345.81
392.16	1371.55
392.36	1418.36
392.55	1430.07
392.75	1399.64
392.94	1401.98
393.13	1486.24
393.33	1425.39
393.52	1490.92
393.71	1586.88
393.91	1636.03
394.10	1502.62
394.29	1554.12
394.49	1561.14
394.68	1462.83
394.88	1469.86
395.07	1570.50
395.26	1565.82
395.46	1617.31
395.65	1570.50
395.84	1570.50
396.04	1633.69
396.23	1551.78
396.42	1544.75
396.62	1675.82
396.81	1647.74
397.00	1586.88
397.19	1530.71
397.39	1586.88
397.58	1626.67
397.77	1652.42
397.97	1727.32
398.16	1621.99
398.35	1724.97
398.55	1732.00
398.74	1739.02
398.93	1680.50
399.12	1755.40
399.32	1685.19
399.51	1844.34
399.70	1781.15
399.90	1708.59
400.09	1727.32
400.28	1762.42
400.47	1870.09
400.67	1930.94
400.86	1804.55
401.05	1888.81
401.24	1802.21
401.44	1893.49
401.63	1900.52
401.82	1891.15
402.01	1849.02
402.21	1980.09
402.40	1870.09
402.59	1909.88
402.78	1949.67
402.97	1956.69
403.17	1996.48
403.36	2038.61
403.55	2050.31
403.74	2167.34
403.93	2104.14
404.13	2108.82
404.32	2139.25
404.51	2040.95
404.70	2031.58
404.89	2047.97
405.09	2148.61
405.28	2174.36
405.47	2258.62
405.66	2134.57
405.85	2183.72
406.05	2200.10
406.24	2150.95
406.43	2296.07
406.62	2209.47
406.81	2324.15
407.00	2197.76
407.20	2165.00
407.39	2228.19
407.58	2296.07
407.77	2356.92
407.96	2347.56
408.15	2469.27
408.34	2279.68
408.54	2403.73
408.73	2263.30
408.92	2387.35
409.11	2476.29
409.30	2466.92
409.49	2502.03
409.68	2469.27
409.87	2590.97
410.07	2445.86
410.26	2544.16
410.45	2581.61
410.64	2623.74
410.83	2576.93
411.02	2628.42
411.21	2677.57
411.40	2658.85
411.59	2633.10
411.78	2738.43
411.98	2743.11
412.17	2780.56
412.36	2738.43
412.55	2808.64
412.74	2848.43
412.93	2853.11
413.12	2867.16
413.31	2843.75
413.50	2862.48
413.69	2895.24
413.88	2862.48
414.07	2920.99
414.26	2937.37
414.45	2946.73
414.64	3033.33
414.83	3042.70
415.02	3019.29
415.22	3105.89
415.41	3157.38
415.60	3068.44
415.79	3176.11
415.98	3286.11
416.17	3222.92
416.36	3211.22
416.55	3005.25
416.74	3363.35
416.93	3220.58
417.12	3307.18
417.31	3339.94
417.50	3363.35
417.69	3414.84
417.88	3379.73
418.07	3361.01
418.26	3370.37
418.45	3356.33
418.64	3529.53
418.83	3536.55
419.02	3527.19
419.21	3618.47
419.39	3761.24
419.58	3538.89
419.77	3492.08
419.96	3669.96
420.15	3660.60
420.34	3609.11
420.53	3758.90
420.72	3620.81
420.91	3606.77
421.10	3740.18
421.29	3763.58
421.48	3641.87
421.67	3775.28
421.86	3751.88
422.05	3805.71
422.24	3751.88
422.43	3878.27
422.61	3981.25
422.80	3990.61
422.99	3889.97
423.18	3932.10
423.37	3784.65
423.56	3859.54
423.75	3960.19
423.94	3859.54
424.13	3775.28
424.32	3705.07
424.50	3934.44
424.69	4074.87
424.88	3927.42
425.07	3892.31
425.26	3911.04
425.45	3868.91
425.64	3723.79
425.83	3758.90
426.01	3826.78
426.20	3850.18
426.39	3974.23
426.58	3976.57
426.77	4011.68
426.96	4044.45
427.15	4119.34
427.33	4004.66
427.52	3908.69
427.71	4098.28
427.90	4021.04
428.09	4159.13
428.28	4065.51
428.46	4124.02
428.65	4217.65
428.84	4140.41
429.03	4311.27
429.22	4236.37
429.40	4229.35
429.59	4168.49
429.78	4053.81
429.97	4002.32
430.16	4311.27
430.34	4322.97
430.53	4351.06
430.72	4297.22
430.91	4351.06
431.10	4376.80
431.28	4423.61
431.47	4463.40
431.66	4557.02
431.85	4390.84
432.03	4634.26
432.22	4690.43
432.41	4456.38
432.60	4571.07
432.79	4435.32
432.97	4589.79
433.16	4528.94
433.35	4573.41
433.54	4664.69
433.72	4697.46
433.91	4652.98
434.10	4706.82
434.28	4709.16
434.47	4720.86
434.66	4795.76
434.85	4718.52
435.03	5053.22
435.22	5008.75
435.41	5200.67
435.59	5149.18
435.78	5144.50
435.97	5132.79
436.16	4884.70
436.34	4943.21
436.53	5069.60
436.72	5043.85
436.90	4891.72
437.09	5111.73
437.28	4912.78
437.46	4947.89
437.65	4990.02
437.84	5109.39
438.02	4987.68
438.21	5298.97
438.40	5064.92
438.58	5214.71
438.77	5371.53
438.96	5287.27
439.14	5385.57
439.33	5441.75
439.52	5502.60
439.70	5455.79
439.89	5540.05
440.08	5385.57
440.26	5558.77
440.45	5462.81
440.63	5673.46
440.82	5668.78
441.01	5523.66
441.19	5750.70
441.38	5736.65
441.57	5909.85
441.75	5888.79
441.94	6071.35
442.12	5755.38
442.31	6012.84
442.50	6038.58
442.68	5959.00
442.87	6071.35
443.05	6059.65
443.24	6298.38
443.43	6204.76
443.61	6349.87
443.80	6237.53
443.98	6073.69
444.17	5905.17
444.35	6038.58
444.54	6228.17
444.73	6265.61
444.91	6155.61
445.10	6296.04
445.28	6249.23
445.47	6253.91
445.65	6188.38
445.84	6230.51
446.02	6279.66
446.21	6319.45
446.39	6326.47
446.58	6319.45
446.77	6450.52
446.95	6284.34
447.14	6267.95
447.32	6403.71
447.51	6293.70
447.69	6289.02
447.88	6338.17
448.06	6375.62
448.25	6345.19
448.43	6574.56
448.62	6319.45
448.80	6471.58
448.99	6438.81
449.17	6513.71
449.36	6518.39
449.54	6626.06
449.73	6693.93
449.91	6569.88
450.10	6527.75
450.28	6710.32
450.46	6839.05
450.65	6731.38
450.83	6806.28
451.02	6684.57
451.20	6920.96
451.39	6757.13
451.57	6925.65
451.76	6691.59
451.94	6740.74
452.13	6920.96
452.31	6878.83
452.49	6855.43
452.68	6925.65
452.86	6817.98
453.05	6869.47
453.23	7080.12
453.42	7007.56
453.60	6691.59
453.78	7035.65
453.97	7059.06
454.15	7056.72
454.34	6834.36
454.52	7105.87
454.70	7098.84
454.89	7185.44
455.07	7260.34
455.26	7295.45
455.44	7274.38
455.62	7258.00
455.81	7089.48
455.99	7297.79
456.17	7262.68
456.36	7332.90
456.54	7442.90
456.73	7480.35
456.91	7758.88
457.09	7499.08
457.28	7730.79
457.46	7508.44
457.64	7751.85
457.83	7777.60
458.01	7646.53
458.19	7700.36
458.38	7936.76
458.56	8028.04
458.74	7770.58
458.93	7674.62
459.11	7885.26
459.29	7918.03
459.48	7936.76
459.66	7866.54
459.84	8009.31
460.03	8196.56
460.21	8102.93
460.39	7976.55
460.57	8072.51
460.76	8102.93
460.94	7999.95
461.12	8102.93
461.31	8219.96
461.49	8248.05
461.67	8145.06
461.85	8285.50
462.04	8219.96
462.22	8521.89
462.40	8519.55
462.59	8320.60
462.77	8451.67
462.95	8421.25
463.13	8458.70
463.32	8667.00
463.50	8463.38
463.68	8395.50
463.86	8690.41
464.05	8423.59
464.23	8601.47
464.41	8601.47
464.59	8531.25
464.78	8784.03
464.96	8699.77
465.14	8695.09
465.32	8865.95
465.50	8652.96
465.69	8849.57
465.87	8856.59
466.05	8802.75
466.23	8762.97
466.41	8863.61
466.60	9104.68
466.78	8828.50
466.96	8898.72
467.14	8889.35
467.32	9013.40
467.51	9032.13
467.69	9008.72
467.87	9153.84
468.05	9263.84
468.23	9076.60
468.41	9025.11
468.60	9027.45
468.78	9310.65
468.96	9401.93
469.14	9277.88
469.32	9579.81
469.50	9249.80
469.69	9345.76
469.87	9500.23
470.05	9446.40
470.23	9437.04
470.41	9631.30
470.59	9455.76
470.77	9575.13
470.95	9432.36
471.14	9832.59
471.32	9516.62
471.50	9645.35
471.68	9680.46
471.86	9837.27
472.04	9830.25
472.22	10120.48
472.40	9987.07
472.58	9799.82
472.77	10216.44
472.95	10001.11
473.13	10363.89
473.31	10087.71
473.49	10331.12
473.67	10169.63
473.85	10335.81
474.03	10443.47
474.21	10377.94
474.39	10590.92
474.57	10525.39
474.75	10511.35
474.93	10864.77
475.12	10813.28
475.30	10778.17
475.48	10644.76
475.66	10698.59
475.84	10773.49
476.02	10881.15
476.20	11204.14
476.38	11152.65
476.56	11585.65
476.74	11426.50
476.92	11243.93
477.10	11288.40
477.28	11632.46
477.46	11456.92
477.64	11637.14
477.82	12074.82
478.00	11962.48
478.18	11934.39
478.36	12018.65
478.54	12163.76
478.72	12091.21
478.90	12198.87
479.08	12416.54
479.26	12507.82
479.44	12779.32
479.62	12655.28
479.80	12924.44
479.98	12971.25
480.16	13006.36
480.34	12975.93
480.52	13200.62
480.70	13205.30
480.88	13083.59
481.06	13334.03
481.24	13139.77
481.41	13579.79
481.59	13958.96
481.77	13561.06
481.95	13792.78
482.13	14059.60
482.31	13870.01
482.49	14303.01
482.67	14174.28
482.85	14331.10
483.03	14511.32
483.21	14541.75
483.39	14733.67
483.57	14731.33
483.74	15103.48
483.92	15197.10
484.10	15307.10
484.28	15269.66
484.46	15391.36
484.64	15611.37
484.82	15559.88
485.00	15829.04
485.18	15871.17
485.35	16056.08
485.53	16287.79
485.71	16341.62
485.89	16610.78
486.07	16669.30
486.25	16570.99
486.43	16531.20
486.61	16858.88
486.78	17139.74
486.96	17284.86
487.14	17427.63
487.32	17385.50
487.50	17722.54
487.68	17614.87
487.85	17958.93
488.03	17729.56
488.21	18115.75
488.39	18160.22
488.57	18036.17
488.75	18373.21
488.92	18483.21
489.10	18705.56
489.28	18761.73
489.46	18995.79
489.64	18981.74
489.81	19424.11
489.99	19367.93
490.17	19183.03
490.35	19946.05
490.53	19859.45
490.70	19997.54
490.88	19711.99
491.06	19997.54
491.24	19936.68
491.41	20049.03
491.59	20669.27
491.77	20465.64
491.95	20861.19
492.13	20861.19
492.30	20884.60
492.48	21113.97
492.66	21221.64
492.84	21465.05
493.01	21167.80
493.19	21223.98
493.37	21865.28
493.54	21804.43
493.72	21687.40
493.90	21666.34
494.08	22263.18
494.25	22127.42
494.43	22384.88
494.61	22459.78
494.79	22565.10
494.96	22838.95
495.14	22735.96
495.32	23297.69
495.49	23021.51
495.67	23363.23
495.85	23007.47
496.02	23541.11
496.20	23744.73
496.38	23828.99
496.55	23892.19
496.73	24191.78
496.91	24091.13
497.09	24063.05
497.26	24245.61
497.44	24439.87
497.62	24446.90
497.79	25116.29
497.97	24587.33
498.14	25209.91
498.32	25046.07
498.50	25270.76
498.67	25418.22
498.85	25130.33
499.03	25738.87
499.20	25607.80
499.38	25663.97
499.56	25937.82
499.73	25862.92
499.91	25682.70
500.08	26225.70
500.26	26263.15
500.44	26281.88
500.61	26448.05
500.79	26656.36
500.97	26717.22
501.14	26881.05
501.32	26733.60
501.49	27084.68
501.67	27091.70
501.84	27061.27
502.02	27014.46
502.20	27204.05
502.37	27374.91
502.55	27395.97
502.72	27531.72
502.90	27367.88
503.07	27817.27
503.25	27641.73
503.43	27725.99
503.60	27653.43
503.78	28123.88
503.95	27644.07
504.13	27665.13
504.30	28252.61
504.48	28444.53
504.65	28753.48
504.83	28910.30
505.01	28790.93
505.18	29226.27
505.36	28989.88
505.53	29020.30
505.71	28823.70
505.88	29352.66
506.06	29184.14
506.23	29406.49
506.41	29338.62
506.58	29357.34
506.76	29467.34
506.93	29582.03
507.11	29481.39
507.28	29909.71
507.46	29729.48
507.63	30174.19
507.81	30143.76
507.98	30101.63
508.16	30235.04
508.33	30075.88
508.50	30707.83
508.68	30768.68
508.85	30843.58
509.03	30438.67
509.20	30661.02
509.38	30780.39
509.55	30981.67
509.73	30808.47
509.90	31484.89
510.08	31173.60
510.25	31484.89
510.42	31477.86
510.60	31243.81
510.77	31501.27
510.95	31896.82
511.12	31772.77
511.30	31957.67
511.47	32147.26
511.64	32112.15
511.82	32226.84
511.99	31903.84
512.17	31887.46
512.34	32231.52
512.51	32584.94
512.69	32481.95
512.86	32299.39
513.04	32734.73
513.21	32912.61
513.38	32788.56
513.56	32804.95
513.73	32648.13
513.90	33046.02
514.08	33102.20
514.25	33720.10
514.43	33158.37
514.60	33015.60
514.77	33425.19
514.95	33734.14
515.12	33455.62
515.29	33682.65
515.47	33846.49
515.64	34307.57
515.81	33750.52
515.99	33603.07
516.16	34309.91
516.33	34162.46
516.51	34384.81
516.68	34504.18
516.85	34312.25
517.03	34569.71
517.20	34616.52
517.37	34272.46
517.54	34698.44
517.72	34239.70
517.89	34132.03
518.06	34813.13
518.24	34604.82
518.41	35386.56
518.58	34679.72
518.75	34906.75
518.93	34803.77
519.10	35014.41
519.27	35054.20
519.45	35339.75
519.62	35704.87
519.79	35648.70
519.96	35810.20
520.14	35672.10
520.31	35086.97
520.48	35887.43
520.65	35473.16
520.83	36346.18
521.00	36086.38
521.17	36011.48
521.34	35859.35
521.52	36163.62
521.69	36116.81
521.86	36474.91
522.03	36517.04
522.20	36594.28
522.38	36818.97
522.55	36917.27
522.72	36961.74
522.89	36837.69
523.07	36917.27
523.24	36795.56
523.41	37397.08
523.58	36919.61
523.75	37411.12
523.92	37198.13
524.10	37352.61
524.27	37839.44
524.44	37406.44
524.61	37912.00
524.78	37544.53
524.96	37507.08
525.13	37984.55
525.30	37748.16
525.47	37963.49
525.64	38106.26
525.81	38347.34
525.98	38518.20
526.16	37919.02
526.33	37706.03
526.50	38483.09
526.67	38590.75
526.84	38553.30
527.01	38590.75
527.18	38855.23
527.36	38667.99
527.53	38513.52
527.70	38944.17
527.87	38955.88
528.04	38815.44
528.21	39428.66
528.38	38951.20
528.55	39243.76
528.72	39131.42
528.89	38939.49
529.07	39098.65
529.24	38756.93
529.41	39543.35
529.58	39337.38
529.75	39484.84
529.92	39658.04
530.09	39763.36
530.26	39283.55
530.43	39278.87
530.60	39653.36
530.77	39583.14
530.94	39950.60
531.11	39709.53
531.28	40245.51
531.46	39660.38
531.63	39995.07
531.80	40105.08
531.97	39854.64
532.14	40175.30
532.31	40282.96
532.48	40285.30
532.65	40381.26
532.82	40233.81
532.99	40760.43
533.16	40336.79
533.33	40648.08
533.50	41034.27
533.67	41008.53
533.84	40669.15
534.01	40587.23
534.18	40931.29
534.35	41212.15
534.52	41024.91
534.69	41177.04
534.86	41254.28
535.03	40865.75
535.20	40905.54
535.37	41383.01
535.54	41801.97
535.71	41228.54
535.88	41542.17
536.05	41546.85
536.22	41909.63
536.38	41926.02
536.55	42054.75
536.72	41530.47
536.89	41673.24
537.06	41804.31
537.23	42394.12
537.40	41979.85
537.57	41750.48
537.74	41661.54
537.91	42480.72
538.08	42007.94
538.25	41577.28
538.42	42043.04
538.59	42391.78
538.75	41750.48
538.92	42281.78
539.09	42593.07
539.26	42483.06
539.43	42288.80
539.60	42295.82
539.77	42546.26
539.94	42733.50
540.11	42618.81
540.28	43241.40
540.44	43328.00
540.61	43185.22
540.78	42698.39
540.95	42890.32
541.12	42789.67
541.29	43199.27
541.46	43112.67
541.62	43772.70
541.79	44121.44
541.96	42782.65
542.13	43480.13
542.30	43512.90
542.47	43761.00
542.63	43576.09
542.80	43899.09
542.97	44062.93
543.14	43604.18
543.31	44264.21
543.48	43693.12
543.64	44369.54
543.81	44313.36
543.98	43985.69
544.15	44470.18
544.32	44243.15
544.48	44428.05
544.65	44425.71
544.82	44556.78
544.99	44500.61
545.16	44397.62
545.32	44423.37
545.49	45251.92
545.66	44524.01
545.83	45249.58
546.00	45748.11
546.16	45294.05
546.33	45170.00
546.50	44563.80
546.67	44638.70
546.83	44477.20
547.00	44762.75
547.17	44502.95
547.34	45006.16
547.50	45078.72
547.67	45507.04
547.84	45413.41
548.00	45525.76
548.17	45600.66
548.34	45111.49
548.51	45294.05
548.67	45507.04
548.84	45195.74
549.01	45408.73
549.18	45619.38
549.34	45696.62
549.51	45539.80
549.68	45626.40
549.84	45525.76
550.01	45865.14
550.18	45048.29
550.34	45556.19
550.51	45649.81
550.68	45256.60
550.84	45998.55
551.01	45635.77
551.18	45818.33
551.34	45551.51
551.51	46038.34
551.68	45713.00
551.84	45492.99
552.01	45572.57
552.18	45680.24
552.34	45914.29
552.51	46373.03
552.68	45918.97
552.84	46204.52
553.01	46167.07
553.18	46251.33
553.34	46092.17
553.51	46136.64
553.67	45682.58
553.84	46511.13
554.01	46660.92
554.17	46464.32
554.34	46904.34
554.51	46410.48
554.67	46969.87
554.84	46515.81
555.00	46223.24
555.17	46263.03
555.33	46333.24
555.50	46525.17
555.67	46588.36
555.83	46628.15
556.00	46344.95
556.16	47063.49
556.33	46153.02
556.50	46892.63
556.66	47058.81
556.83	46553.26
556.99	46686.67
557.16	47126.69
557.32	47313.93
557.49	47327.97
557.65	46780.29
557.82	46969.87
557.98	47009.66
558.15	46962.85
558.32	47334.99
558.48	46890.29
558.65	47267.12
558.81	47086.90
558.98	47562.03
559.14	47232.01
559.31	46951.15
559.47	46962.85
559.64	47138.39
559.80	47330.31
559.97	47669.69
560.13	47463.72
560.30	47613.52
560.46	47646.29
560.63	47627.56
560.79	47601.82
560.96	47782.04
561.12	47447.34
561.29	47313.93
561.45	47065.83
561.61	47688.42
561.78	47524.58
561.94	47936.51
562.11	47779.70
562.27	48004.39
562.44	48088.65
562.60	47796.08
562.77	47693.10
562.93	47435.64
563.10	48325.04
563.26	47435.64
563.42	47775.02
563.59	47826.51
563.75	47945.87
563.92	48282.91
564.08	47882.68
564.24	47973.96
564.41	48149.50
564.57	47735.23
564.74	47753.95
564.90	48105.03
565.07	47999.71
565.23	48002.05
565.39	48011.41
565.56	48603.56
565.72	48067.58
565.88	48219.72
566.05	47777.36
566.21	47896.72
566.38	47819.49
566.54	47941.19
566.70	48034.81
566.87	48353.13
567.03	48428.02
567.19	48570.80
567.36	48470.15
567.52	48079.28
567.68	48112.05
567.85	48240.78
568.01	48872.73
568.17	48109.71
568.34	48416.32
568.50	48535.69
568.66	48500.58
568.83	48617.61
568.99	48383.55
569.15	48334.40
569.32	48587.18
569.48	47971.62
569.64	48605.91
569.81	48121.41
569.97	48245.46
570.13	48217.38
570.30	48617.61
570.46	48406.96
570.62	48198.65
570.78	48074.60
570.95	47746.93
571.11	48655.06
571.27	48507.60
571.43	48315.68
571.60	48055.88
571.76	48259.51
571.92	48694.85
572.09	48648.03
572.25	48835.28
572.41	48861.02
572.57	48369.51
572.74	48701.87
572.90	48956.99
573.06	48648.03
573.22	48470.15
573.38	48615.27
573.55	48357.81
573.71	48685.48
573.87	48725.27
574.03	48325.04
574.20	48856.34
574.36	48435.05
574.52	48722.93
574.68	48701.87
574.84	48978.05
575.01	48917.20
575.17	49279.98
575.33	48498.24
575.49	48268.87
575.65	48790.81
575.82	49001.46
575.98	48622.29
576.14	48863.36
576.30	48760.38
576.46	49045.93
576.62	48734.63
576.79	49081.03
576.95	48615.27
577.11	48905.49
577.27	48968.69
577.43	48732.29
577.59	48910.17
577.75	48982.73
577.92	48449.09
578.08	48821.23
578.24	48538.03
578.40	49043.59
578.56	49228.49
578.72	49261.26
578.88	49186.36
579.04	49785.54
579.21	48783.79
579.37	49244.87
579.53	49455.52
579.69	48711.23
579.85	49165.29
580.01	49291.68
580.17	49036.56
580.33	48849.32
580.49	49029.54
580.65	49270.62
580.82	49233.17
580.98	49088.06
581.14	49116.14
581.30	49045.93
581.46	49048.27
581.62	49045.93
581.78	48793.15
581.94	49270.62
582.10	49116.14
582.26	49146.57
582.42	48837.62
582.58	48818.89
582.74	49205.08
582.90	49296.36
583.06	49389.98
583.22	49509.35
583.38	48821.23
583.54	48837.62
583.70	48865.70
583.86	49378.28
584.02	48830.60
584.18	49207.42
584.34	49167.63
584.50	49125.50
584.66	49125.50
584.82	49420.41
584.98	49446.16
585.14	49036.56
585.30	49172.31
585.46	48863.36
585.62	49193.38
585.78	49497.65
585.94	49291.68
586.10	49640.42
586.26	49460.20
586.42	49748.09
586.58	49441.48
586.74	48921.88
586.90	48734.63
587.06	49263.60
587.22	49469.56
587.38	49373.60
587.54	49425.09
587.70	49764.47
587.86	49647.44
588.02	49741.06
588.18	49617.02
588.34	49663.83
588.49	49951.71
588.65	49146.57
588.81	49167.63
588.97	49858.09
589.13	49455.52
