SpectraSuite Data File
++++++++++++++++++++++++++++++++++++
Date: Thu Oct 24 13:21:26 EDT 2013
User: stostad
Dark Spectrum Present: No
Reference Spectrum Present: No
Number of Sampled Component Spectra: 1
Spectrometers: USB2+H05261
Integration Time (usec): 100000 (USB2+H05261)
Spectra Averaged: 1 (USB2+H05261)
Boxcar Smoothing: 0 (USB2+H05261)
Correct for Electrical Dark: No (USB2+H05261)
Strobe/Lamp Enabled: No (USB2+H05261)
Correct for Detector Non-linearity: No (USB2+H05261)
Correct for Stray Light: No (USB2+H05261)
Number of Pixels in Processed Spectrum: 2048
>>>>>Begin Processed Spectral Data<<<<<
365.73	622.58
365.92	622.58
366.12	622.58
366.32	479.81
366.52	458.74
366.72	479.81
366.91	433.00
367.11	440.02
367.31	475.13
367.51	404.91
367.70	421.30
367.90	486.83
368.10	491.51
368.30	433.00
368.49	458.74
368.69	472.79
368.89	468.11
369.09	489.17
369.28	442.36
369.48	491.51
369.68	550.03
369.87	496.19
370.07	545.34
370.27	587.47
370.47	650.67
370.66	950.26
370.86	931.53
371.06	903.45
371.25	1043.88
371.45	994.73
371.65	1060.26
371.84	1025.15
372.04	1029.84
372.24	1036.86
372.44	1050.90
372.63	1135.16
372.83	1118.78
373.03	1116.44
373.22	1090.69
373.42	1111.75
373.62	1149.20
373.81	1172.61
374.01	1163.25
374.21	1160.91
374.40	1132.82
374.60	1139.84
374.79	1125.80
374.99	1132.82
375.19	1238.14
375.38	1142.18
375.58	1146.86
375.78	1203.04
375.97	1238.14
376.17	1291.98
376.37	1252.19
376.56	1224.10
376.76	1245.16
376.95	1256.87
377.15	1245.16
377.35	1270.91
377.54	1254.53
377.74	1289.64
377.93	1203.04
378.13	1193.67
378.33	1273.25
378.52	1296.66
378.72	1289.64
378.91	1334.11
379.11	1270.91
379.31	1177.29
379.50	1366.87
379.70	1310.70
379.89	1350.49
380.09	1359.85
380.28	1413.68
380.48	1270.91
380.68	1282.61
380.87	1371.55
381.07	1401.98
381.26	1401.98
381.46	1404.32
381.65	1341.13
381.85	1397.30
382.04	1394.96
382.24	1460.49
382.43	1467.52
382.63	1385.60
382.83	1516.67
383.02	1416.02
383.22	1455.81
383.41	1446.45
383.61	1451.13
383.80	1495.60
384.00	1425.39
384.19	1467.52
384.39	1418.36
384.58	1446.45
384.78	1416.02
384.97	1444.11
385.17	1465.18
385.36	1526.03
385.56	1528.37
385.75	1526.03
385.95	1500.28
386.14	1488.58
386.34	1467.52
386.53	1551.78
386.72	1533.05
386.92	1558.80
387.11	1516.67
387.31	1659.44
387.50	1643.06
387.70	1586.88
387.89	1530.71
388.09	1561.14
388.28	1708.59
388.48	1593.90
388.67	1675.82
388.86	1671.14
389.06	1692.21
389.25	1732.00
389.45	1708.59
389.64	1699.23
389.84	1732.00
390.03	1736.68
390.22	1757.74
390.42	1687.53
390.61	1729.66
390.81	1764.76
391.00	1717.95
391.19	1701.57
391.39	1858.39
391.58	1834.98
391.78	1902.86
391.97	1781.15
392.16	1888.81
392.36	1881.79
392.55	1996.48
392.75	1933.28
392.94	1888.81
393.13	1893.49
393.33	1956.69
393.52	1956.69
393.71	1989.46
393.91	1954.35
394.10	1975.41
394.29	2040.95
394.49	1888.81
394.68	2005.84
394.88	2106.48
395.07	1980.09
395.26	2073.71
395.46	2024.56
395.65	2150.95
395.84	2106.48
396.04	2054.99
396.23	2155.63
396.42	2078.40
396.62	2155.63
396.81	2169.68
397.00	2111.16
397.19	2101.80
397.39	2237.55
397.58	2214.15
397.77	2251.60
397.97	2190.74
398.16	2267.98
398.35	2188.40
398.55	2354.58
398.74	2324.15
398.93	2317.13
399.12	2361.60
399.32	2389.69
399.51	2417.77
399.70	2296.07
399.90	2370.96
400.09	2363.94
400.28	2375.64
400.47	2356.92
400.67	2462.24
400.86	2476.29
401.05	2375.64
401.24	2464.58
401.44	2555.86
401.63	2457.56
401.82	2579.27
402.01	2492.67
402.21	2576.93
402.40	2647.15
402.59	2651.83
402.78	2523.10
402.97	2607.36
403.17	2696.30
403.36	2546.50
403.55	2764.17
403.74	2700.98
403.93	2759.49
404.13	2672.89
404.32	2747.79
404.51	2729.06
404.70	2808.64
404.89	2815.66
405.09	2911.63
405.28	2846.09
405.47	2825.03
405.66	2822.69
405.85	2839.07
406.05	3023.97
406.24	3021.63
406.43	2878.86
406.62	2979.50
406.81	3061.42
407.00	2974.82
407.20	2944.39
407.39	2970.14
407.58	3098.87
407.77	3028.65
407.96	3108.23
408.15	3143.34
408.34	3056.74
408.54	3194.83
408.73	3138.66
408.92	3136.32
409.11	3344.63
409.30	3239.30
409.49	3342.28
409.68	3304.84
409.87	3389.10
410.07	3494.42
410.26	3424.20
410.45	3613.79
410.64	3414.84
410.83	3288.45
411.02	3456.97
411.21	3583.36
411.40	3576.34
411.59	3637.19
411.78	3555.27
411.98	3555.27
412.17	3698.05
412.36	3709.75
412.55	3742.52
412.74	3847.84
412.93	3803.37
413.12	3772.94
413.31	3934.44
413.50	3840.82
413.69	3904.01
413.88	3985.93
414.07	3932.10
414.26	4056.15
414.45	4126.36
414.64	4063.17
414.83	4124.02
415.02	4152.11
415.22	4219.99
415.41	4325.31
415.60	4222.33
415.79	4292.54
415.98	4414.25
416.17	4465.74
416.36	4393.19
416.55	4418.93
416.74	4465.74
416.93	4568.73
417.12	4463.40
417.31	4582.77
417.50	4449.36
417.69	4697.46
417.88	4638.94
418.07	4620.22
418.26	4667.03
418.45	4622.56
418.64	4915.12
418.83	4746.61
419.02	4870.65
419.21	4905.76
419.39	4882.36
419.58	4835.55
419.77	4882.36
419.96	4940.87
420.15	4954.91
420.34	5008.75
420.53	5025.13
420.72	5032.15
420.91	5055.56
421.10	5135.14
421.29	5149.18
421.48	5139.82
421.67	5233.44
421.86	5240.46
422.05	5186.63
422.24	5156.20
422.43	5111.73
422.61	5135.14
422.80	5331.74
422.99	5385.57
423.18	5277.91
423.37	5345.78
423.56	5256.84
423.75	5493.24
423.94	5247.48
424.13	5104.71
424.32	5102.37
424.50	5446.43
424.69	5441.75
424.88	5376.21
425.07	5383.23
425.26	5343.44
425.45	5242.80
425.64	5224.08
425.83	5228.76
426.01	5408.98
426.20	5425.36
426.39	5511.96
426.58	5280.25
426.77	5467.49
426.96	5558.77
427.15	5593.88
427.33	5605.58
427.52	5526.00
427.71	5565.79
427.90	5556.43
428.09	5633.67
428.28	5937.94
428.46	5830.27
428.65	5687.50
428.84	5884.11
429.03	6040.92
429.22	5746.02
429.40	5743.67
429.59	5935.60
429.78	5682.82
429.97	5614.95
430.16	5872.40
430.34	5858.36
430.53	5900.49
430.72	6122.84
430.91	6003.47
431.10	5949.64
431.28	5973.05
431.47	6104.12
431.66	6195.40
431.85	6155.61
432.03	6094.76
432.22	6413.07
432.41	6370.94
432.60	6228.17
432.79	6361.58
432.97	6242.21
433.16	6410.73
433.35	6401.37
433.54	6602.65
433.72	6452.86
433.91	6403.71
434.10	6633.08
434.28	6394.34
434.47	6637.76
434.66	6619.04
434.85	6768.83
435.03	6815.64
435.22	6658.82
435.41	7073.10
435.59	6867.13
435.78	6986.50
435.97	6995.86
436.16	6895.22
436.34	6836.70
436.53	6972.46
436.72	7007.56
436.90	6808.62
437.09	6834.36
437.28	6808.62
437.46	7061.40
437.65	7042.67
437.84	7157.36
438.02	6977.14
438.21	6960.75
438.40	7080.12
438.58	7407.80
438.77	7428.86
438.96	7559.93
439.14	7548.23
439.33	7452.27
439.52	7449.93
439.70	7496.74
439.89	7611.42
440.08	7763.56
440.26	7695.68
440.45	7602.06
440.63	7850.16
440.82	7824.41
441.01	7772.92
441.19	8056.12
441.38	7969.52
441.57	8072.51
441.75	8100.59
441.94	8208.26
442.12	8407.20
442.31	8397.84
442.50	8416.57
442.68	8053.78
442.87	8428.27
443.05	8503.17
443.24	8526.57
443.43	8358.05
443.61	8507.85
443.80	8903.40
443.98	8498.49
444.17	8304.22
444.35	8486.78
444.54	8734.88
444.73	8727.86
444.91	8788.71
445.10	8765.31
445.28	8681.05
445.47	8559.34
445.65	8627.21
445.84	8767.65
446.02	8910.42
446.21	8734.88
446.39	8741.90
446.58	8711.47
446.77	8760.63
446.95	8622.53
447.14	8781.69
447.32	9039.15
447.51	8931.48
447.69	8987.66
447.88	8833.18
448.06	8980.64
448.25	8870.63
448.43	8950.21
448.62	9022.77
448.80	8819.14
448.99	8924.46
449.17	9092.98
449.36	9055.53
449.54	9214.69
449.73	9261.50
449.91	9256.82
450.10	9191.28
450.28	9385.55
450.46	9399.59
450.65	9355.12
450.83	9516.62
451.02	9525.98
451.20	9781.10
451.39	9600.88
451.57	9383.21
451.76	9568.11
451.94	9666.41
452.13	9554.07
452.31	9678.12
452.49	9488.53
452.68	9858.34
452.86	9638.33
453.05	9624.28
453.23	9687.48
453.42	9603.22
453.60	9542.36
453.78	10085.37
453.97	9870.04
454.15	9863.02
454.34	9930.89
454.52	9893.44
454.70	9951.96
454.89	10008.13
455.07	10087.71
455.26	10087.71
455.44	10373.25
455.62	10373.25
455.81	10443.47
455.99	10347.51
456.17	10504.32
456.36	10363.89
456.54	10370.91
456.73	10649.44
456.91	10834.34
457.09	11012.22
457.28	11054.35
457.46	10710.29
457.64	10799.23
457.83	10974.77
458.01	10817.96
458.19	11096.48
458.38	10878.81
458.56	11000.52
458.74	11110.52
458.93	11154.99
459.11	11115.20
459.29	11105.84
459.48	11229.89
459.66	11339.90
459.84	11234.57
460.03	11314.15
460.21	11391.39
460.39	11119.89
460.57	11510.75
460.76	11349.26
460.94	11639.48
461.12	11487.35
461.31	11517.78
461.49	11590.33
461.67	11538.84
461.85	11683.95
462.04	11754.17
462.22	12086.53
462.40	12231.64
462.59	11602.04
462.77	11957.80
462.95	12002.27
463.13	11941.41
463.32	12173.13
463.50	11864.18
463.68	12248.02
463.86	12133.34
464.05	11990.56
464.23	11936.73
464.41	12318.24
464.59	12058.44
464.78	12465.69
464.96	12067.80
465.14	11906.31
465.32	12404.84
465.50	12393.14
465.69	12641.23
465.87	12638.89
466.05	12313.56
466.23	12547.61
466.41	12458.67
466.60	13078.91
466.78	12634.21
466.96	12662.30
467.14	12510.16
467.32	12823.80
467.51	12844.86
467.69	12479.74
467.87	12784.01
468.05	12819.11
468.23	13032.10
468.41	12828.48
468.60	12968.91
468.78	13231.05
468.96	13001.68
469.14	13252.11
469.32	13200.62
469.50	12943.16
469.69	12922.10
469.87	13376.16
470.05	13490.85
470.23	13645.32
470.41	13448.72
470.59	13708.52
470.77	13406.59
470.95	13537.66
471.14	13769.37
471.32	13565.74
471.50	14127.47
471.68	13827.88
471.86	13930.87
472.04	14071.30
472.22	14185.99
472.40	14045.55
472.58	14256.20
472.77	14363.87
472.95	14478.55
473.13	14984.11
473.31	14583.88
473.49	14396.64
473.67	14583.88
473.85	14658.78
474.03	15173.69
474.21	15103.48
474.39	15049.64
474.57	15129.22
474.75	15037.94
474.93	15639.46
475.12	15239.23
475.30	15566.90
475.48	15023.90
475.66	15616.05
475.84	15442.85
476.02	15569.24
476.20	15592.65
476.38	16032.67
476.56	16517.16
476.74	16355.66
476.92	16173.10
477.10	16311.19
477.28	16526.52
477.46	16568.65
477.64	16587.38
477.82	16947.82
478.00	17558.70
478.18	17315.28
478.36	17212.30
478.54	17465.08
478.72	17429.97
478.90	17912.12
479.08	17844.24
479.26	17942.55
479.44	18139.15
479.62	18625.98
479.80	18618.96
479.98	18511.30
480.16	18845.99
480.34	18745.35
480.52	18752.37
480.70	18918.55
480.88	18677.48
481.06	18916.21
481.24	19016.85
481.41	19541.13
481.59	19990.52
481.77	20042.01
481.95	19857.10
482.13	20154.35
482.31	20030.30
482.49	21193.55
482.67	20669.27
482.85	20999.29
483.03	20910.35
483.21	21116.31
483.39	21404.20
483.57	21502.50
483.74	21638.25
483.92	21647.61
484.10	21570.38
484.28	22033.80
484.46	22476.16
484.64	22628.30
484.82	22302.96
485.00	22904.48
485.18	23377.27
485.35	23548.13
485.53	23234.50
485.71	23520.04
485.89	24051.34
486.07	23718.99
486.25	23697.92
486.43	23941.34
486.61	24233.91
486.78	24577.97
486.96	24835.42
487.14	25132.67
487.32	24994.58
487.50	25064.80
487.68	25448.64
487.85	25635.89
488.03	26064.21
488.21	26492.52
488.39	26258.47
488.57	26356.77
488.75	26604.87
488.92	26899.78
489.10	27143.19
489.28	27335.12
489.46	27297.67
489.64	27372.57
489.81	28224.52
489.99	28264.31
490.17	28290.06
490.35	28336.87
490.53	28718.37
490.70	29092.86
490.88	28889.23
491.06	29240.31
491.24	29317.55
491.41	29935.45
491.59	29607.78
491.77	30368.45
491.95	30120.35
492.13	30068.86
492.30	30190.57
492.48	30237.38
492.66	30232.70
492.84	30859.96
493.01	31325.73
493.19	31248.49
493.37	31400.63
493.54	31630.00
493.72	31737.66
493.90	31894.48
494.08	32177.68
494.25	32383.65
494.43	32552.17
494.61	32788.56
494.79	32526.42
494.96	32917.29
495.14	33109.22
495.32	33518.81
495.49	33851.17
495.67	33413.49
495.85	34251.40
496.02	33944.79
496.20	34340.34
496.38	34873.98
496.55	34190.55
496.73	35056.54
496.91	34930.16
497.09	35269.53
497.26	35482.52
497.44	35634.66
497.62	35613.59
497.79	36006.80
497.97	36109.78
498.14	36238.51
498.32	36727.69
498.50	36229.15
498.67	36617.68
498.85	36985.15
499.03	36940.68
499.20	36781.52
499.38	37057.70
499.56	37509.43
499.73	37970.51
499.91	37635.81
500.08	38171.80
500.26	37612.41
500.44	38253.72
500.61	38115.62
500.79	38387.13
500.97	38616.50
501.14	39227.38
501.32	38459.68
501.49	39077.58
501.67	39171.21
501.84	39391.22
502.02	39470.79
502.20	39496.54
502.37	39693.15
502.55	39634.63
502.72	39522.29
502.90	39861.66
503.07	39791.45
503.25	40292.32
503.43	40065.29
503.60	40374.24
503.78	40624.68
503.95	40540.42
504.13	40577.87
504.30	41057.68
504.48	40629.36
504.65	41432.16
504.83	41439.18
505.01	41883.89
505.18	41717.71
505.36	41961.12
505.53	41621.75
505.71	41914.31
505.88	42192.84
506.06	41820.69
506.23	42581.37
506.41	42621.16
506.58	42394.12
506.76	42319.23
506.93	42754.57
507.11	42361.36
507.28	43035.43
507.46	43112.67
507.63	43260.12
507.81	43220.33
507.98	43124.37
508.16	43124.37
508.33	43461.41
508.50	43714.19
508.68	43847.60
508.85	44229.10
509.03	43690.78
509.20	44217.40
509.38	44737.00
509.55	44603.59
509.73	44545.08
509.90	44732.32
510.08	44933.60
510.25	45038.93
510.42	45155.96
510.60	45111.49
510.77	45511.72
510.95	45471.93
511.12	45902.59
511.30	45682.58
511.47	45881.52
511.64	45886.20
511.82	46471.34
511.99	45823.01
512.17	46333.24
512.34	46370.69
512.51	46894.97
512.69	46485.38
512.86	46944.12
513.04	47007.32
513.21	46773.27
513.38	46796.67
513.56	46990.94
513.73	46897.31
513.90	46955.83
514.08	47117.32
514.25	47744.59
514.43	47983.32
514.60	47676.71
514.77	47737.57
514.95	47730.54
515.12	47875.66
515.29	47966.94
515.47	48498.24
515.64	49017.84
515.81	48268.87
515.99	48645.69
516.16	48467.81
516.33	48528.67
516.51	49038.90
516.68	48421.00
516.85	48884.43
517.03	48905.49
517.20	49315.09
517.37	48996.77
517.54	49198.06
517.72	49322.11
517.89	49404.03
518.06	49024.86
518.24	49600.63
518.41	49806.60
518.58	49687.23
518.75	49586.59
518.93	49446.16
519.10	49755.11
519.27	50141.30
519.45	50157.68
519.62	50361.31
519.79	50630.47
519.96	50424.50
520.14	50045.33
520.31	50258.32
520.48	50094.49
520.65	50543.87
520.83	50927.72
521.00	50934.74
521.17	51079.85
521.34	50731.11
521.52	51098.58
521.69	50930.06
521.86	51028.36
522.03	51662.64
522.20	51402.85
522.38	51672.01
522.55	51674.35
522.72	51664.99
522.89	51739.88
523.07	51737.54
523.24	51735.20
523.41	52292.25
523.58	51770.31
523.75	52081.60
523.92	52196.29
524.10	52102.67
524.27	52500.56
524.44	52081.60
524.61	52282.89
524.78	52481.83
524.96	52238.42
525.13	52271.18
525.30	53024.84
525.47	52694.82
525.64	53146.54
525.81	52985.05
525.98	52678.44
526.16	52619.92
526.33	53029.52
526.50	53198.04
526.67	53127.82
526.84	53235.48
527.01	53015.47
527.18	53460.18
527.36	53673.16
527.53	53137.18
527.70	53614.65
527.87	53719.98
528.04	53741.04
528.21	53659.12
528.38	54021.90
528.55	53516.35
528.72	53673.16
528.89	53516.35
529.07	53542.10
529.24	53567.84
529.41	54248.94
529.58	54089.78
529.75	54108.50
529.92	54415.11
530.09	54328.52
530.26	54237.23
530.43	54185.74
530.60	54092.12
530.77	54080.42
530.94	54761.51
531.11	54206.81
531.28	54796.62
531.46	54670.23
531.63	54597.68
531.80	54438.52
531.97	54536.82
532.14	54564.91
532.31	54546.18
532.48	54756.83
532.65	55187.49
532.82	54967.48
532.99	54878.54
533.16	55025.99
533.33	54953.44
533.50	55187.49
533.67	55103.23
533.84	55030.68
534.01	55337.29
534.18	55234.30
534.35	55608.79
534.52	55351.33
534.69	55365.37
534.86	55372.39
535.03	55285.79
535.20	55093.87
535.37	55622.83
535.54	55664.96
535.71	55641.56
535.88	55847.52
536.05	55374.73
536.22	55845.18
536.38	55739.86
536.55	55908.38
536.72	56114.34
536.89	56175.20
537.06	55994.98
537.23	56413.93
537.40	56112.00
537.57	56051.15
537.74	56175.20
537.91	56168.18
538.08	56058.17
538.25	56083.92
538.42	56353.08
538.59	56191.58
538.75	56336.69
538.92	56521.60
539.09	56491.17
539.26	56360.10
539.43	56442.02
539.60	56449.04
539.77	56584.79
539.94	56973.32
540.11	56631.60
540.28	56917.15
540.44	56659.69
540.61	56701.82
540.78	56680.75
540.95	56863.32
541.12	56666.71
541.29	57071.62
541.46	56989.70
541.62	56999.07
541.79	57055.24
541.96	56802.46
542.13	56973.32
542.30	57003.75
542.47	56903.10
542.63	57244.82
542.80	57296.31
542.97	57738.68
543.14	57418.02
543.31	57642.71
543.48	57467.17
543.64	57680.16
543.81	57638.03
543.98	57748.04
544.15	57731.65
544.32	57689.52
544.48	58127.20
544.65	57766.76
544.82	57860.38
544.99	57474.20
545.16	57867.40
545.32	57907.19
545.49	58197.42
545.66	58274.66
545.83	58045.29
546.00	58480.63
546.16	58335.51
546.33	58103.80
546.50	58131.89
546.67	58344.87
546.83	57820.59
547.00	57986.77
547.17	58064.01
547.34	58003.16
547.50	58237.21
547.67	58541.48
547.84	58431.47
548.00	58515.73
548.17	58578.93
548.34	58609.35
548.51	58621.06
548.67	58482.97
548.84	58520.41
549.01	58679.57
549.18	58504.03
549.34	58695.95
549.51	58625.74
549.68	58714.68
549.84	58681.91
550.01	58581.27
550.18	58534.46
550.34	58639.78
550.51	58557.86
550.68	58824.68
550.84	58639.78
551.01	59028.31
551.18	58880.86
551.34	58604.67
551.51	58653.82
551.68	58958.09
551.84	58878.52
552.01	58834.05
552.18	58915.96
552.34	58911.28
552.51	59040.01
552.68	59143.00
552.84	59229.60
553.01	59180.45
553.18	59222.58
553.34	59159.38
553.51	58972.14
553.67	59143.00
553.84	59463.65
554.01	59522.16
554.17	59386.41
554.34	59580.68
554.51	59248.32
554.67	59461.31
554.84	59234.28
555.00	59290.45
555.17	59196.83
555.33	59421.52
555.50	59269.39
555.67	59489.40
555.83	59510.46
556.00	59739.83
556.16	59702.38
556.33	59465.99
556.50	59693.02
556.66	59695.36
556.83	59164.06
556.99	59803.03
557.16	59938.78
557.32	59774.94
557.49	59966.87
557.65	59611.10
557.82	59805.37
557.98	59571.32
558.15	59674.30
558.32	59550.25
558.48	59613.44
558.65	60119.00
558.81	59817.07
558.98	60013.68
559.14	59908.35
559.31	59828.77
559.47	59742.17
559.64	60030.06
559.80	59884.95
559.97	59971.55
560.13	59770.26
560.30	60016.02
560.46	60093.25
560.63	60168.15
560.79	60142.41
560.96	60121.34
561.12	60198.58
561.29	59957.50
561.45	60221.98
561.61	59969.21
561.78	59920.05
561.94	60331.99
562.11	60322.63
562.27	60355.39
562.44	60378.80
562.60	60346.03
562.77	60446.68
562.93	60060.49
563.10	60268.79
563.26	60016.02
563.42	60259.43
563.59	60278.16
563.75	60294.54
563.92	60598.81
564.08	60369.44
564.24	60472.42
564.41	60224.32
564.57	60367.10
564.74	60313.26
564.90	60472.42
565.07	60505.19
565.23	60411.57
565.39	60491.15
565.56	60816.48
565.72	60423.27
565.88	60662.00
566.05	60594.13
566.21	60313.26
566.38	60252.41
566.54	60484.12
566.70	60507.53
566.87	60685.41
567.03	60657.32
567.19	60865.63
567.36	60858.61
567.52	60769.67
567.68	60598.81
567.85	60631.58
568.01	60741.58
568.17	60636.26
568.34	60554.34
568.50	60589.45
568.66	60680.73
568.83	60949.89
568.99	60409.23
569.15	60757.97
569.32	60851.59
569.48	60526.25
569.64	60779.03
569.81	60800.10
569.97	60666.69
570.13	60734.56
570.30	60727.54
570.46	60704.13
570.62	60823.50
570.78	60640.94
570.95	60673.71
571.11	60835.20
571.27	60594.13
571.43	60760.31
571.60	60544.98
571.76	60837.54
571.92	60999.04
572.09	60949.89
572.25	60933.51
572.41	60952.23
572.57	60683.07
572.74	61078.62
572.90	60893.72
573.06	60989.68
573.22	60853.93
573.38	60935.85
573.55	60872.65
573.71	61244.80
573.87	61071.60
574.03	60842.23
574.20	61132.45
574.36	61050.53
574.52	61059.90
574.68	60823.50
574.84	61240.12
575.01	61083.30
575.17	61076.28
575.33	61038.83
575.49	60884.36
575.65	61006.06
575.82	61080.96
575.98	60975.64
576.14	60980.32
576.30	61293.95
576.46	61080.96
576.62	60760.31
576.79	60851.59
576.95	60697.11
577.11	60973.30
577.27	61141.81
577.43	61162.88
577.59	61031.81
577.75	60977.98
577.92	61059.90
578.08	61003.72
578.24	60945.21
578.40	61095.00
578.56	61076.28
578.72	61247.14
578.88	61467.15
579.04	61270.54
579.21	61277.57
579.37	61275.22
579.53	61317.35
579.69	60947.55
579.85	61104.37
580.01	61284.59
580.17	61125.43
580.33	60985.00
580.49	61520.98
580.65	61443.74
580.82	61207.35
580.98	61347.78
581.14	61305.65
581.30	61471.83
581.46	61066.92
581.62	61361.82
581.78	61216.71
581.94	61261.18
582.10	60982.66
582.26	61251.82
582.42	61179.26
582.58	61249.48
582.74	61158.20
582.90	61303.31
583.06	61357.14
583.22	61270.54
583.38	61226.07
583.54	61181.60
583.70	61109.05
583.86	61513.96
584.02	61062.24
584.18	61345.44
584.34	61446.08
584.50	61240.12
584.66	61226.07
584.82	61235.44
584.98	61387.57
585.14	61359.48
585.30	61123.09
585.46	61528.00
585.62	61223.73
585.78	61371.19
585.94	61359.48
586.10	61230.75
586.26	61340.76
586.42	61565.45
586.58	61289.27
586.74	61389.91
586.90	61317.35
587.06	61291.61
587.22	61446.08
587.38	61446.08
587.54	61464.81
587.70	61745.67
587.86	61626.31
