SpectraSuite Data File
++++++++++++++++++++++++++++++++++++
Date: Thu Oct 24 13:21:24 EDT 2013
User: stostad
Dark Spectrum Present: No
Reference Spectrum Present: No
Number of Sampled Component Spectra: 1
Spectrometers: USB2+H05261
Integration Time (usec): 100000 (USB2+H05261)
Spectra Averaged: 1 (USB2+H05261)
Boxcar Smoothing: 0 (USB2+H05261)
Correct for Electrical Dark: No (USB2+H05261)
Strobe/Lamp Enabled: No (USB2+H05261)
Correct for Detector Non-linearity: No (USB2+H05261)
Correct for Stray Light: No (USB2+H05261)
Number of Pixels in Processed Spectrum: 2048
>>>>>Begin Processed Spectral Data<<<<<
365.73	573.43
365.92	573.43
366.12	573.43
366.32	451.72
366.52	456.40
366.72	498.53
366.91	449.38
367.11	411.93
367.31	484.49
367.51	430.66
367.70	519.60
367.90	540.66
368.10	404.91
368.30	442.36
368.49	402.57
368.69	538.32
368.89	507.90
369.09	440.02
369.28	528.96
369.48	573.43
369.68	519.60
369.87	507.90
370.07	489.17
370.27	545.34
370.47	615.56
370.66	873.02
370.86	957.28
371.06	1011.11
371.25	1001.75
371.45	903.45
371.65	1050.90
371.84	983.02
372.04	912.81
372.24	997.07
372.44	1006.43
372.63	1027.50
372.83	1071.97
373.03	1071.97
373.22	1004.09
373.42	1083.67
373.62	1144.52
373.81	1104.73
374.01	1109.41
374.21	1086.01
374.40	1118.78
374.60	1053.24
374.79	1097.71
374.99	1167.93
375.19	1146.86
375.38	1170.27
375.58	1069.62
375.78	1116.44
375.97	1198.35
376.17	1181.97
376.37	1158.57
376.56	1142.18
376.76	1181.97
376.95	1172.61
377.15	1268.57
377.35	1102.39
377.54	1177.29
377.74	1163.25
377.93	1083.67
378.13	1219.42
378.33	1233.46
378.52	1210.06
378.72	1207.72
378.91	1231.12
379.11	1156.22
379.31	1268.57
379.50	1111.75
379.70	1329.42
379.89	1238.14
380.09	1289.64
380.28	1266.23
380.48	1238.14
380.68	1212.40
380.87	1238.14
381.07	1249.85
381.26	1275.59
381.46	1334.11
381.65	1263.89
381.85	1291.98
382.04	1324.74
382.24	1277.93
382.43	1338.79
382.63	1399.64
382.83	1296.66
383.02	1383.26
383.22	1357.51
383.41	1357.51
383.61	1364.53
383.80	1343.47
384.00	1336.45
384.19	1409.00
384.39	1401.98
384.58	1411.34
384.78	1387.94
384.97	1369.21
385.17	1411.34
385.36	1387.94
385.56	1371.55
385.75	1448.79
385.95	1345.81
386.14	1507.30
386.34	1453.47
386.53	1500.28
386.72	1497.94
386.92	1575.18
387.11	1542.41
387.31	1507.30
387.50	1455.81
387.70	1519.01
387.89	1533.05
388.09	1565.82
388.28	1472.20
388.48	1507.30
388.67	1551.78
388.86	1643.06
389.06	1558.80
389.25	1631.35
389.45	1575.18
389.64	1556.46
389.84	1603.27
390.03	1603.27
390.22	1483.90
390.42	1556.46
390.61	1736.68
390.81	1636.03
391.00	1610.29
391.19	1720.29
391.39	1689.87
391.58	1713.27
391.78	1699.23
391.97	1739.02
392.16	1720.29
392.36	1673.48
392.55	1788.17
392.75	1776.47
392.94	1774.13
393.13	1729.66
393.33	1741.36
393.52	1788.17
393.71	1785.83
393.91	1816.26
394.10	1750.72
394.29	1853.70
394.49	1727.32
394.68	1804.55
394.88	1895.83
395.07	1825.62
395.26	1919.24
395.46	1956.69
395.65	1968.39
395.84	1900.52
396.04	1921.58
396.23	1898.17
396.42	1966.05
396.62	2050.31
396.81	2066.69
397.00	2029.24
397.19	2029.24
397.39	2033.93
397.58	2022.22
397.77	2073.71
397.97	2043.29
398.16	2148.61
398.35	2057.33
398.55	2052.65
398.74	2083.08
398.93	2101.80
399.12	2129.89
399.32	1968.39
399.51	2127.55
399.70	2132.23
399.90	2155.63
400.09	2176.70
400.28	2108.82
400.47	2221.17
400.67	2186.06
400.86	2246.91
401.05	2228.19
401.24	2324.15
401.44	2165.00
401.63	2260.96
401.82	2354.58
402.01	2319.47
402.21	2335.85
402.40	2363.94
402.59	2361.60
402.78	2429.48
402.97	2436.50
403.17	2373.30
403.36	2485.65
403.55	2321.81
403.74	2518.42
403.93	2518.42
404.13	2574.59
404.32	2523.10
404.51	2583.95
404.70	2607.36
404.89	2689.28
405.09	2644.81
405.28	2635.44
405.47	2698.64
405.66	2658.85
405.85	2555.86
406.05	2595.65
406.24	2710.34
406.43	2745.45
406.62	2787.58
406.81	2813.32
407.00	2750.13
407.20	2803.96
407.39	2799.28
407.58	2806.30
407.77	2906.95
407.96	2818.00
408.15	2888.22
408.34	2899.92
408.54	2977.16
408.73	2911.63
408.92	2988.86
409.11	2913.97
409.30	2935.03
409.49	3016.95
409.68	3087.17
409.87	3220.58
410.07	3101.21
410.26	3185.47
410.45	3157.38
410.64	3239.30
410.83	3180.79
411.02	3201.85
411.21	3368.03
411.40	3290.79
411.59	3293.13
411.78	3400.80
411.98	3335.26
412.17	3396.12
412.36	3365.69
412.55	3463.99
412.74	3494.42
412.93	3513.14
413.12	3421.86
413.31	3602.08
413.50	3515.48
413.69	3620.81
413.88	3651.24
414.07	3688.68
414.26	3693.37
414.45	3721.45
414.64	3728.47
414.83	3698.05
415.02	3875.93
415.22	3971.89
415.41	3925.08
415.60	3934.44
415.79	3929.76
415.98	4037.42
416.17	3983.59
416.36	3995.29
416.55	4084.23
416.74	4131.05
416.93	4196.58
417.12	4053.81
417.31	4313.61
417.50	4177.86
417.69	4191.90
417.88	4276.16
418.07	4210.62
418.26	4257.43
418.45	4173.18
418.64	4411.91
418.83	4346.37
419.02	4498.51
419.21	4596.81
419.39	4465.74
419.58	4538.30
419.77	4491.49
419.96	4585.11
420.15	4578.09
420.34	4657.67
420.53	4550.00
420.72	4667.03
420.91	4587.45
421.10	4704.48
421.29	4727.88
421.48	4636.60
421.67	4552.34
421.86	4746.61
422.05	4882.36
422.24	4896.40
422.43	4816.82
422.61	4868.31
422.80	4837.89
422.99	4805.12
423.18	4922.15
423.37	5067.26
423.56	4802.78
423.75	4870.65
423.94	4830.87
424.13	4491.49
424.32	4620.22
424.50	4919.81
424.69	5055.56
424.88	4983.00
425.07	4809.80
425.26	4889.38
425.45	4865.97
425.64	4985.34
425.83	4954.91
426.01	5008.75
426.20	5029.81
426.39	5008.75
426.58	4985.34
426.77	4973.64
426.96	5039.17
427.15	5046.20
427.33	5055.56
427.52	5067.26
427.71	5214.71
427.90	5095.35
428.09	5261.52
428.28	5228.76
428.46	5203.01
428.65	5235.78
428.84	5441.75
429.03	5481.53
429.22	5254.50
429.40	5397.28
429.59	5303.65
429.78	5291.95
429.97	5268.55
430.16	5458.13
430.34	5448.77
430.53	5481.53
430.72	5462.81
430.91	5526.00
431.10	5537.71
431.28	5593.88
431.47	5540.05
431.66	5650.05
431.85	5584.52
432.03	5767.08
432.22	5867.72
432.41	5809.21
432.60	5614.95
432.79	5867.72
432.97	5717.93
433.16	5907.51
433.35	5891.13
433.54	5872.40
433.72	5785.80
433.91	5818.57
434.10	6038.58
434.28	5982.41
434.47	5994.11
434.66	6019.86
434.85	6097.10
435.03	6171.99
435.22	6251.57
435.41	6450.52
435.59	6342.85
435.78	6193.06
435.97	6410.73
436.16	6314.77
436.34	6464.56
436.53	6282.00
436.72	6370.94
436.90	6352.21
437.09	6380.30
437.28	6375.62
437.46	6282.00
437.65	6413.07
437.84	6469.24
438.02	6494.99
438.21	6518.39
438.40	6438.81
438.58	6778.19
438.77	6752.45
438.96	6815.64
439.14	6916.28
439.33	6787.55
439.52	6895.22
439.70	6923.30
439.89	7012.24
440.08	7204.17
440.26	7105.87
440.45	7012.24
440.63	7094.16
440.82	7232.26
441.01	7258.00
441.19	7227.57
441.38	7360.98
441.57	7246.30
441.75	7386.73
441.94	7559.93
442.12	7562.27
442.31	7726.11
442.50	7751.85
442.68	7620.78
442.87	7756.54
443.05	7705.04
443.24	7955.48
443.43	7700.36
443.61	7925.05
443.80	8093.57
443.98	7779.94
444.17	7616.10
444.35	7985.91
444.54	8009.31
444.73	7915.69
444.91	7878.24
445.10	8049.10
445.28	8135.70
445.47	8032.72
445.65	8109.96
445.84	8023.36
446.02	8095.91
446.21	8021.02
446.39	8060.80
446.58	8219.96
446.77	8212.94
446.95	7915.69
447.14	8039.74
447.32	8224.64
447.51	8018.68
447.69	8021.02
447.88	7971.86
448.06	8095.91
448.25	8109.96
448.43	8049.10
448.62	8372.10
448.80	8215.28
448.99	8292.52
449.17	8362.73
449.36	8311.24
449.54	8290.18
449.73	8599.13
449.91	8610.83
450.10	8599.13
450.28	8748.92
450.46	8814.46
450.65	8606.15
450.83	8542.96
451.02	8741.90
451.20	8872.97
451.39	8774.67
451.57	8940.85
451.76	8561.68
451.94	8727.86
452.13	9116.39
452.31	8793.39
452.49	8777.01
452.68	8982.98
452.86	8816.80
453.05	8816.80
453.23	9013.40
453.42	8870.63
453.60	9022.77
453.78	9200.65
453.97	8940.85
454.15	8898.72
454.34	8898.72
454.52	9135.11
454.70	9324.69
454.89	9383.21
455.07	9327.03
455.26	9296.61
455.44	9348.10
455.62	9233.41
455.81	9362.14
455.99	9287.25
456.17	9455.76
456.36	9254.48
456.54	9614.92
456.73	9893.44
456.91	9853.66
457.09	9731.95
457.28	10141.54
457.46	9776.42
457.64	10054.94
457.83	9867.70
458.01	9970.68
458.19	10228.14
458.38	10087.71
458.56	10155.58
458.74	10347.51
458.93	10057.28
459.11	9923.87
459.29	10377.94
459.48	10136.86
459.66	10424.75
459.84	10284.31
460.03	10478.58
460.21	10242.18
460.39	10326.44
460.57	10492.62
460.76	10565.18
460.94	10567.52
461.12	10520.71
461.31	10644.76
461.49	10574.54
461.67	10469.22
461.85	10691.57
462.04	10670.50
462.22	11098.82
462.40	10906.90
462.59	10738.38
462.77	10808.59
462.95	11026.26
463.13	10810.93
463.32	11171.38
463.50	11147.97
463.68	11171.38
463.86	11290.74
464.05	10970.09
464.23	11162.01
464.41	11164.36
464.59	11117.54
464.78	11386.71
464.96	11377.34
465.14	10895.19
465.32	11070.73
465.50	11396.07
465.69	11431.18
465.87	11393.73
466.05	11122.23
466.23	11494.37
466.41	11604.38
466.60	11882.90
466.78	11534.16
466.96	11571.61
467.14	11520.12
467.32	11700.34
467.51	11571.61
467.69	11229.89
467.87	11793.96
468.05	11700.34
468.23	11793.96
468.41	11674.59
468.60	11920.35
468.78	11875.88
468.96	11978.86
469.14	12013.97
469.32	12112.27
469.50	11894.60
469.69	12273.77
469.87	12241.00
470.05	12198.87
470.23	12187.17
470.41	12346.33
470.59	12435.27
470.77	12194.19
470.95	12435.27
471.14	12725.49
471.32	12453.99
471.50	12540.59
471.68	12835.50
471.86	12844.86
472.04	12816.77
472.22	13053.17
472.40	12746.56
472.58	12940.82
472.77	12945.50
472.95	13158.49
473.13	13401.91
473.31	13004.02
473.49	13165.51
473.67	13226.37
473.85	13451.06
474.03	13645.32
474.21	13561.06
474.39	13834.91
474.57	13591.49
474.75	13975.34
474.93	13926.19
475.12	13886.40
475.30	14225.78
475.48	13851.29
475.66	13968.32
475.84	13998.74
476.02	14164.92
476.20	14239.82
476.38	14792.19
476.56	14930.28
476.74	15091.77
476.92	14766.44
477.10	14700.90
477.28	15201.78
477.46	15112.84
477.64	14998.15
477.82	15463.92
478.00	15639.46
478.18	15536.48
478.36	15751.81
478.54	16081.82
478.72	16264.38
478.90	16301.83
479.08	16346.30
479.26	16681.00
479.44	16580.36
479.62	16662.27
479.80	16901.01
479.98	16673.98
480.16	17191.23
480.34	16919.73
480.52	17315.28
480.70	17205.28
480.88	17202.94
481.06	17308.26
481.24	17224.00
481.41	17635.94
481.59	17926.16
481.77	18099.36
481.95	18244.48
482.13	18230.43
482.31	17994.04
482.49	18911.53
482.67	18836.63
482.85	18967.70
483.03	19447.51
483.21	19288.35
483.39	19590.28
483.57	19611.35
483.74	19403.04
483.92	19763.48
484.10	19981.15
484.28	20367.34
484.46	20287.76
484.64	20723.10
484.82	20430.54
485.00	20697.36
485.18	21282.49
485.35	21451.01
485.53	21348.03
485.71	21551.65
485.89	21467.39
486.07	21507.18
486.25	21603.14
486.43	21717.83
486.61	21881.67
486.78	22380.20
486.96	22469.14
487.14	22857.67
487.32	22745.33
487.50	23126.83
487.68	23094.07
487.85	23489.62
488.03	23740.05
488.21	23686.22
488.39	23702.61
488.57	24217.52
488.75	24390.72
488.92	24238.59
489.10	24699.67
489.28	25123.31
489.46	25184.16
489.64	24926.71
489.81	25631.21
489.99	25663.97
490.17	25401.83
490.35	25736.53
490.53	25984.63
490.70	26483.16
490.88	26001.01
491.06	27094.04
491.24	26583.80
491.41	26558.06
491.59	27091.70
491.77	26960.63
491.95	27552.79
492.13	27599.60
492.30	27749.39
492.48	27562.15
492.66	27917.91
492.84	27971.74
493.01	28170.69
493.19	28201.11
493.37	28650.50
493.54	28493.68
493.72	28903.28
493.90	29308.19
494.08	29242.65
494.25	29748.21
494.43	29530.54
494.61	29626.50
494.79	29961.20
494.96	29862.90
495.14	30204.61
495.32	30445.69
495.49	30719.53
495.67	30604.84
495.85	30782.73
496.02	30841.24
496.20	30986.35
496.38	31173.60
496.55	31515.31
496.73	32032.57
496.91	31807.88
497.09	32327.48
497.26	31894.48
497.44	32442.17
497.62	32329.82
497.79	32896.23
497.97	32512.38
498.14	32905.59
498.32	33074.11
498.50	33053.05
498.67	33537.54
498.85	33394.76
499.03	33855.85
499.20	33942.45
499.38	33851.17
499.56	34272.46
499.73	34323.96
499.91	34274.80
500.08	34672.70
500.26	34611.84
500.44	34689.08
500.61	34815.47
500.79	35274.21
500.97	35164.21
501.14	35143.14
501.32	35133.78
501.49	35381.88
501.67	35667.42
501.84	36018.50
502.02	35768.07
502.20	36123.83
502.37	35962.33
502.55	36158.94
502.72	36194.04
502.90	36381.29
503.07	36378.95
503.25	36369.58
503.43	36746.41
503.60	36334.48
503.78	36858.76
503.95	36767.48
504.13	36734.71
504.30	37493.04
504.48	37352.61
504.65	37792.63
504.83	37799.65
505.01	37996.26
505.18	38040.73
505.36	38043.07
505.53	37982.21
505.71	38073.49
505.88	38721.82
506.06	38171.80
506.23	38447.98
506.41	38653.95
506.58	38801.40
506.76	38852.89
506.93	39250.78
507.11	39082.27
507.28	39393.56
507.46	39232.06
507.63	39297.59
507.81	39108.01
507.98	38906.73
508.16	39302.28
508.33	39576.12
508.50	40027.84
508.68	40013.80
508.85	40189.34
509.03	40048.91
509.20	40140.19
509.38	40343.81
509.55	40947.67
509.73	40823.62
509.90	40875.12
510.08	41296.41
510.25	40715.96
510.42	41268.33
510.60	41338.54
510.77	41249.60
510.95	41979.85
511.12	41738.77
511.30	41631.11
511.47	42316.89
511.64	41460.25
511.82	42174.11
511.99	41926.02
512.17	42230.29
512.34	42190.50
512.51	43133.73
512.69	43124.37
512.86	43243.74
513.04	43138.41
513.21	42878.61
513.38	42913.72
513.56	43129.05
513.73	43353.74
513.90	43332.68
514.08	43646.31
514.25	43772.70
514.43	43920.15
514.60	43643.97
514.77	43964.62
514.95	44091.01
515.12	43440.34
515.29	43950.58
515.47	44463.16
515.64	44807.22
515.81	44526.35
515.99	44552.10
516.16	44739.34
516.33	44631.68
516.51	45193.40
516.68	44746.36
516.85	44931.26
517.03	45034.25
517.20	45130.21
517.37	45034.25
517.54	45233.19
517.72	45347.88
517.89	45214.47
518.06	45549.17
518.24	45640.45
518.41	45895.56
518.58	45731.73
518.75	45724.71
518.93	45668.53
519.10	45893.22
519.27	46131.96
519.45	46204.52
519.62	46597.73
519.79	46277.07
519.96	46014.93
520.14	46134.30
520.31	46082.81
520.48	46789.65
520.65	46314.52
520.83	47248.39
521.00	47342.02
521.17	47309.25
521.34	47138.39
521.52	47117.32
521.69	47063.49
521.86	47784.38
522.03	47669.69
522.20	47454.36
522.38	47959.92
522.55	47915.45
522.72	48048.86
522.89	48168.22
523.07	48013.75
523.24	47983.32
523.41	48116.73
523.58	48357.81
523.75	48346.11
523.92	48563.78
524.10	48423.34
524.27	48751.02
524.44	48523.99
524.61	48837.62
524.78	48793.15
524.96	49008.48
525.13	49111.46
525.30	49296.36
525.47	49361.90
525.64	49045.93
525.81	49832.35
525.98	49315.09
526.16	49181.68
526.33	49315.09
526.50	50000.86
526.67	49574.89
526.84	49858.09
527.01	49904.90
527.18	49902.56
527.36	49776.17
527.53	49776.17
527.70	50258.32
527.87	50160.02
528.04	50012.57
528.21	50518.12
528.38	50316.84
528.55	50590.68
528.72	50501.74
528.89	50548.55
529.07	50057.04
529.24	50153.00
529.41	50586.00
529.58	50583.66
529.75	50726.43
529.92	50688.98
530.09	50972.19
530.26	50911.33
530.43	50644.51
530.60	50848.14
530.77	50983.89
530.94	51580.73
531.11	51433.27
531.28	51194.54
531.46	51334.97
531.63	51285.82
531.80	51508.17
531.97	51178.15
532.14	51433.27
532.31	51440.29
532.48	51538.60
532.65	51868.61
532.82	51529.23
532.99	51744.56
533.16	51503.49
533.33	51695.41
533.50	51992.66
533.67	51774.99
533.84	51889.68
534.01	51913.08
534.18	52011.38
534.35	52477.15
534.52	52053.51
534.69	52023.09
534.86	52023.09
535.03	52189.27
535.20	52193.95
535.37	52404.59
535.54	52538.01
535.71	52505.24
535.88	52767.38
536.05	52442.04
536.22	52978.03
536.38	52718.23
536.55	52610.56
536.72	52825.89
536.89	53020.16
537.06	52762.70
537.23	53162.93
537.40	53282.30
537.57	52971.00
537.74	52638.65
537.91	53380.60
538.08	52935.90
538.25	52755.68
538.42	53165.27
538.59	53155.91
538.75	53148.88
538.92	53471.88
539.09	53560.82
539.26	53146.54
539.43	53399.32
539.60	53471.88
539.77	53619.33
539.94	53930.62
540.11	53759.76
540.28	53968.07
540.44	54010.20
540.61	53961.05
540.78	53591.25
540.95	53609.97
541.12	53539.75
541.29	53937.65
541.46	53680.19
541.62	54021.90
541.79	54258.30
541.96	53977.43
542.13	53986.80
542.30	54246.60
542.47	54337.88
542.63	54195.10
542.80	54403.41
542.97	54607.04
543.14	54934.71
543.31	54859.82
543.48	54829.39
543.64	55075.15
543.81	54805.98
543.98	55002.59
544.15	54791.94
544.32	54960.46
544.48	55257.71
544.65	54967.48
544.82	55140.68
544.99	54843.43
545.16	54934.71
545.32	54948.76
545.49	55517.51
545.66	55288.13
545.83	55693.05
546.00	55449.63
546.16	55430.91
546.33	55664.96
546.50	55201.53
546.67	55302.18
546.83	54873.86
547.00	55105.57
547.17	54864.50
547.34	55482.40
547.50	55653.26
547.67	55683.69
547.84	55590.06
548.00	55646.24
548.17	56107.32
548.34	55796.03
548.51	55800.71
548.67	55693.05
548.84	55899.01
549.01	55470.70
549.18	55739.86
549.34	55777.31
549.51	55742.20
549.68	56104.98
549.84	55833.48
550.01	55718.79
550.18	55730.50
550.34	55868.59
550.51	55793.69
550.68	55945.83
550.84	55922.42
551.01	55922.42
551.18	56025.40
551.34	56121.37
551.51	55803.05
551.68	56048.81
551.84	55807.73
552.01	56016.04
552.18	56287.54
552.34	56165.84
552.51	56296.91
552.68	56399.89
552.84	56395.21
553.01	56783.74
553.18	56301.59
553.34	56488.83
553.51	56285.20
553.67	56341.38
553.84	56584.79
554.01	56608.20
554.17	56774.37
554.34	56835.23
554.51	56528.62
554.67	56713.52
554.84	56479.47
555.00	56694.80
555.17	56622.24
555.33	56542.66
555.50	56535.64
555.67	56701.82
555.83	56966.30
556.00	56966.30
556.16	57102.05
556.33	56591.81
556.50	56830.55
556.66	56802.46
556.83	56617.56
556.99	57069.28
557.16	57104.39
557.32	57415.68
557.49	57291.63
557.65	56940.55
557.82	57279.93
557.98	56959.28
558.15	57062.26
558.32	56980.34
558.48	57146.52
558.65	57169.93
558.81	57221.42
558.98	57176.95
559.14	57151.20
559.31	57034.17
559.47	57097.37
559.64	57120.77
559.80	57331.42
559.97	57179.29
560.13	57216.74
560.30	57109.07
560.46	57380.57
560.63	57350.15
560.79	57521.01
560.96	57668.46
561.12	57336.10
561.29	57261.21
561.45	57462.49
561.61	57368.87
561.78	57448.45
561.94	57682.50
562.11	57872.09
562.27	57616.97
562.44	57771.44
562.60	57708.25
562.77	57490.58
562.93	57680.16
563.10	57542.07
563.26	57546.75
563.42	57801.87
563.59	57684.84
563.75	57635.69
563.92	57752.72
564.08	57509.30
564.24	57616.97
564.41	57654.42
564.57	57602.92
564.74	57719.95
564.90	57691.86
565.07	57741.02
565.23	57815.91
565.39	57865.06
565.56	57895.49
565.72	57939.96
565.88	57792.51
566.05	57677.82
566.21	57553.77
566.38	57872.09
566.54	57652.08
566.70	57654.42
566.87	58174.02
567.03	58028.90
567.19	58555.52
567.36	58019.54
567.52	57717.61
567.68	58106.14
567.85	57652.08
568.01	57904.85
568.17	57808.89
568.34	58260.62
568.50	57886.13
568.66	57965.71
568.83	58202.10
568.99	57923.58
569.15	58082.73
569.32	57858.04
569.48	58141.25
569.64	57975.07
569.81	58003.16
569.97	57982.09
570.13	58141.25
570.30	57975.07
570.46	58045.29
570.62	58148.27
570.78	57860.38
570.95	57853.36
571.11	58323.81
571.27	58089.76
571.43	58014.86
571.60	58078.05
571.76	57970.39
571.92	58223.17
572.09	58237.21
572.25	58412.75
572.41	58220.83
572.57	58188.06
572.74	58473.60
572.90	58234.87
573.06	58277.00
573.22	58232.53
573.38	57928.26
573.55	58440.84
573.71	58443.18
573.87	58284.02
574.03	58232.53
574.20	58237.21
574.36	58372.96
574.52	58365.94
574.68	58199.76
574.84	58401.05
575.01	58429.13
575.17	58361.26
575.33	58546.16
575.49	58522.76
575.65	58494.67
575.82	58382.32
575.98	58330.83
576.14	58450.20
576.30	58712.34
576.46	58248.91
576.62	58284.02
576.79	58316.79
576.95	58272.32
577.11	58284.02
577.27	58445.52
577.43	58508.71
577.59	58356.58
577.75	58482.97
577.92	58204.44
578.08	58401.05
578.24	58394.03
578.40	58351.90
578.56	58358.92
578.72	58335.51
578.88	58801.28
579.04	58660.85
579.21	58567.23
579.37	58541.48
579.53	58740.42
579.69	58281.68
579.85	58417.43
580.01	58515.73
580.17	58429.13
580.33	58527.44
580.49	58705.32
580.65	58745.11
580.82	58639.78
580.98	58588.29
581.14	58698.30
581.30	58843.41
581.46	58630.42
581.62	58590.63
581.78	58412.75
581.94	58576.59
582.10	58592.97
582.26	58461.90
582.42	58749.79
582.58	58679.57
582.74	58585.95
582.90	58754.47
583.06	58773.19
583.22	58333.17
583.38	58475.94
583.54	58461.90
583.70	58274.66
583.86	58602.33
584.02	58321.47
584.18	58679.57
584.34	58848.09
584.50	58871.49
584.66	58602.33
584.82	58480.63
584.98	58656.17
585.14	58473.60
585.30	58562.54
585.46	58536.80
585.62	58607.01
585.78	58869.15
585.94	58773.19
586.10	58728.72
586.26	58808.30
586.42	58925.33
586.58	58461.90
586.74	58468.92
586.90	58546.16
587.06	58726.38
587.22	58887.88
587.38	58534.46
587.54	59023.63
587.70	58960.44
587.86	59037.67
588.02	59075.12
588.18	58932.35
