SpectraSuite Data File
++++++++++++++++++++++++++++++++++++
Date: Thu Oct 24 13:21:27 EDT 2013
User: stostad
Dark Spectrum Present: No
Reference Spectrum Present: No
Number of Sampled Component Spectra: 1
Spectrometers: USB2+H05261
Integration Time (usec): 100000 (USB2+H05261)
Spectra Averaged: 1 (USB2+H05261)
Boxcar Smoothing: 0 (USB2+H05261)
Correct for Electrical Dark: No (USB2+H05261)
Strobe/Lamp Enabled: No (USB2+H05261)
Correct for Detector Non-linearity: No (USB2+H05261)
Correct for Stray Light: No (USB2+H05261)
Number of Pixels in Processed Spectrum: 2048
>>>>>Begin Processed Spectral Data<<<<<
365.73	582.79
365.92	582.79
366.12	582.79
366.32	507.90
366.52	482.15
366.72	489.17
366.91	479.81
367.11	423.64
367.31	540.66
367.51	500.87
367.70	395.55
367.90	468.11
368.10	461.09
368.30	470.45
368.49	456.40
368.69	430.66
368.89	454.06
369.09	486.83
369.28	484.49
369.48	503.22
369.68	503.22
369.87	484.49
370.07	496.19
370.27	561.73
370.47	643.65
370.66	997.07
370.86	1062.60
371.06	1060.26
371.25	992.39
371.45	952.60
371.65	1104.73
371.84	1036.86
372.04	1046.22
372.24	1125.80
372.44	1111.75
372.63	1104.73
372.83	1039.20
373.03	1121.12
373.22	1074.31
373.42	1174.95
373.62	1165.59
373.81	1153.88
374.01	1128.14
374.21	1104.73
374.40	1240.48
374.60	1207.72
374.79	1165.59
374.99	1184.31
375.19	1193.67
375.38	1231.12
375.58	1275.59
375.78	1373.89
375.97	1266.23
376.17	1268.57
376.37	1181.97
376.56	1270.91
376.76	1217.08
376.95	1160.91
377.15	1268.57
377.35	1228.78
377.54	1320.06
377.74	1329.42
377.93	1289.64
378.13	1336.45
378.33	1273.25
378.52	1317.72
378.72	1348.15
378.91	1291.98
379.11	1303.68
379.31	1364.53
379.50	1313.04
379.70	1357.51
379.89	1392.62
380.09	1261.55
380.28	1306.02
380.48	1376.24
380.68	1385.60
380.87	1394.96
381.07	1366.87
381.26	1460.49
381.46	1418.36
381.65	1392.62
381.85	1458.15
382.04	1521.35
382.24	1495.60
382.43	1483.90
382.63	1469.86
382.83	1448.79
383.02	1444.11
383.22	1469.86
383.41	1467.52
383.61	1413.68
383.80	1500.28
384.00	1610.29
384.19	1469.86
384.39	1582.20
384.58	1666.46
384.78	1497.94
384.97	1526.03
385.17	1561.14
385.36	1516.67
385.56	1617.31
385.75	1509.65
385.95	1537.73
386.14	1675.82
386.34	1636.03
386.53	1584.54
386.72	1568.16
386.92	1614.97
387.11	1689.87
387.31	1661.78
387.50	1668.80
387.70	1650.08
387.89	1678.16
388.09	1724.97
388.28	1706.25
388.48	1753.06
388.67	1710.93
388.86	1687.53
389.06	1633.69
389.25	1671.14
389.45	1706.25
389.64	1680.50
389.84	1842.00
390.03	1856.04
390.22	1837.32
390.42	1776.47
390.61	1818.60
390.81	1867.75
391.00	1760.08
391.19	1856.04
391.39	1811.57
391.58	1879.45
391.78	1839.66
391.97	1912.22
392.16	1877.11
392.36	1942.64
392.55	1921.58
392.75	1961.37
392.94	1930.94
393.13	1928.60
393.33	1977.75
393.52	1977.75
393.71	2054.99
393.91	1872.43
394.10	1907.54
394.29	2052.65
394.49	2015.20
394.68	2064.35
394.88	2094.78
395.07	2160.31
395.26	2054.99
395.46	2108.82
395.65	2066.69
395.84	2160.31
396.04	2216.49
396.23	2157.97
396.42	2195.42
396.62	2289.04
396.81	2253.94
397.00	2207.13
397.19	2174.36
397.39	2153.29
397.58	2228.19
397.77	2218.83
397.97	2284.36
398.16	2249.25
398.35	2347.56
398.55	2352.24
398.74	2235.21
398.93	2380.32
399.12	2413.09
399.32	2427.14
399.51	2368.62
399.70	2434.16
399.90	2321.81
400.09	2478.63
400.28	2509.05
400.47	2497.35
400.67	2448.20
400.86	2495.01
401.05	2668.21
401.24	2495.01
401.44	2595.65
401.63	2581.61
401.82	2607.36
402.01	2614.38
402.21	2623.74
402.40	2722.04
402.59	2635.44
402.78	2665.87
402.97	2703.32
403.17	2665.87
403.36	2740.77
403.55	2684.59
403.74	2857.79
403.93	2848.43
404.13	2822.69
404.32	2932.69
404.51	2897.58
404.70	2906.95
404.89	2935.03
405.09	2944.39
405.28	2897.58
405.47	2958.44
405.66	2974.82
405.85	3061.42
406.05	2967.80
406.24	2981.84
406.43	3049.72
406.62	3187.81
406.81	3126.96
407.00	3225.26
407.20	3089.51
407.39	3112.91
407.58	3269.73
407.77	3276.75
407.96	3211.22
408.15	3169.09
408.34	3197.17
408.54	3351.65
408.73	3328.24
408.92	3215.90
409.11	3372.71
409.30	3353.99
409.49	3515.48
409.68	3480.38
409.87	3414.84
410.07	3487.40
410.26	3377.39
410.45	3471.01
410.64	3576.34
410.83	3536.55
411.02	3562.30
411.21	3768.26
411.40	3681.66
411.59	3796.35
411.78	3768.26
411.98	3747.20
412.17	3838.48
412.36	3840.82
412.55	3770.60
412.74	3885.29
412.93	3941.46
413.12	3847.84
413.31	4142.75
413.50	4219.99
413.69	4037.42
413.88	4219.99
414.07	4051.47
414.26	4156.79
414.45	4290.20
414.64	4205.94
414.83	4173.18
415.02	4299.56
415.22	4395.53
415.41	4418.93
415.60	4411.91
415.79	4489.15
415.98	4416.59
416.17	4418.93
416.36	4575.75
416.55	4617.88
416.74	4629.58
416.93	4465.74
417.12	4587.45
417.31	4613.20
417.50	4638.94
417.69	4896.40
417.88	4805.12
418.07	4873.00
418.26	4978.32
418.45	4896.40
418.64	5008.75
418.83	4997.04
419.02	5006.41
419.21	5121.09
419.39	5076.62
419.58	5149.18
419.77	5043.85
419.96	5064.92
420.15	5074.28
420.34	5343.44
420.53	5146.84
420.72	5198.33
420.91	5270.89
421.10	5350.46
421.29	5350.46
421.48	5142.16
421.67	5336.42
421.86	5287.27
422.05	5270.89
422.24	5191.31
422.43	5469.83
422.61	5441.75
422.80	5298.97
422.99	5544.73
423.18	5547.07
423.37	5502.60
423.56	5355.15
423.75	5528.35
423.94	5352.81
424.13	5205.35
424.32	5240.46
424.50	5612.60
424.69	5671.12
424.88	5472.17
425.07	5495.58
425.26	5533.03
425.45	5565.79
425.64	5462.81
425.83	5523.66
426.01	5472.17
426.20	5565.79
426.39	5603.24
426.58	5607.92
426.77	5657.07
426.96	5551.75
427.15	5722.61
427.33	5771.76
427.52	5837.30
427.71	5818.57
427.90	5767.08
428.09	5624.31
428.28	5980.07
428.46	5942.62
428.65	5788.14
428.84	6069.01
429.03	6146.25
429.22	5834.96
429.40	5919.21
429.59	5982.41
429.78	5923.90
429.97	5788.14
430.16	6279.66
430.34	6307.74
430.53	6153.27
430.72	6113.48
430.91	6118.16
431.10	6094.76
431.28	6267.95
431.47	6258.59
431.66	6394.34
431.85	6167.31
432.03	6424.77
432.22	6586.27
432.41	6445.84
432.60	6492.65
432.79	6527.75
432.97	6707.98
433.16	6633.08
433.35	6663.51
433.54	6513.71
433.72	6750.10
433.91	6640.10
434.10	6497.33
434.28	6546.48
434.47	6724.36
434.66	6780.53
434.85	6850.75
435.03	6918.62
435.22	7070.76
435.41	7295.45
435.59	7136.29
435.78	7349.28
435.97	7091.82
436.16	7066.08
436.34	7208.85
436.53	7012.24
436.72	7286.09
436.90	6958.41
437.09	7330.56
437.28	7082.46
437.46	7159.70
437.65	7335.24
437.84	7368.01
438.02	7400.77
438.21	7456.95
438.40	7293.11
438.58	7461.63
438.77	7667.60
438.96	7424.18
439.14	7662.91
439.33	7791.64
439.52	7756.54
439.70	7859.52
439.89	8084.21
440.08	8086.55
440.26	8060.80
440.45	7875.90
440.63	8177.83
440.82	8358.05
441.01	8243.37
441.19	8194.22
441.38	8414.23
441.57	8198.90
441.75	8428.27
441.94	8681.05
442.12	8526.57
442.31	8514.87
442.50	8582.74
442.68	8435.29
442.87	8688.07
443.05	8596.79
443.24	8910.42
443.43	8767.65
443.61	8589.77
443.80	9107.02
443.98	8870.63
444.17	8418.91
444.35	8823.82
444.54	8980.64
444.73	8868.29
444.91	8954.89
445.10	8987.66
445.28	8957.23
445.47	8999.36
445.65	9097.66
445.84	9188.94
446.02	9036.81
446.21	9006.38
446.39	9053.19
446.58	9034.47
446.77	9116.39
446.95	8861.27
447.14	8894.04
447.32	9198.31
447.51	9177.24
447.69	9046.17
447.88	9132.77
448.06	9404.27
448.25	9217.03
448.43	9366.82
448.62	9200.65
448.80	9184.26
448.99	9338.74
449.17	9486.19
449.36	9301.29
449.54	9245.12
449.73	9666.41
449.91	9598.54
450.10	9528.32
450.28	9633.64
450.46	9919.19
450.65	9638.33
450.83	9753.01
451.02	9729.61
451.20	9933.23
451.39	10012.81
451.57	9900.47
451.76	9729.61
451.94	9949.62
452.13	9982.38
452.31	10047.92
452.49	9975.36
452.68	10024.51
452.86	10026.86
453.05	10047.92
453.23	10038.56
453.42	10111.11
453.60	9867.70
453.78	10204.74
453.97	10078.35
454.15	10136.86
454.34	10090.05
454.52	10441.13
454.70	10375.59
454.89	10473.90
455.07	10621.35
455.26	10616.67
455.44	10483.26
455.62	10567.52
455.81	10803.91
455.99	10574.54
456.17	10766.46
456.36	10803.91
456.54	10726.68
456.73	11014.56
456.91	10843.70
457.09	11019.24
457.28	11178.40
457.46	11035.63
457.64	11239.25
457.83	11337.56
458.01	11314.15
458.19	11534.16
458.38	11353.94
458.56	11342.24
458.74	11171.38
458.93	11424.15
459.11	11552.88
459.29	11604.38
459.48	11599.70
459.66	11587.99
459.84	11592.67
460.03	11620.76
460.21	11815.02
460.39	11599.70
460.57	11744.81
460.76	11852.47
460.94	11789.28
461.12	11850.13
461.31	11962.48
461.49	11812.68
461.67	11997.59
461.85	12105.25
462.04	11889.92
462.22	12390.80
462.40	12435.27
462.59	12367.39
462.77	12306.54
462.95	12402.50
463.13	12278.45
463.32	12140.36
463.50	12397.82
463.68	12566.34
463.86	12388.46
464.05	12255.04
464.23	12549.95
464.41	12599.10
464.59	12351.01
464.78	12994.65
464.96	12631.87
465.14	12681.02
465.32	13004.02
465.50	12919.76
465.69	12779.32
465.87	12828.48
466.05	12695.07
466.23	13043.81
466.41	13184.24
466.60	13275.52
466.78	12835.50
466.96	12931.46
467.14	13181.90
467.32	12996.99
467.51	13399.57
467.69	13004.02
467.87	13303.60
468.05	13479.15
468.23	13322.33
468.41	13254.45
468.60	13439.36
468.78	13561.06
468.96	13540.00
469.14	13455.74
469.32	13661.71
469.50	13467.44
469.69	13738.94
469.87	13804.48
470.05	14024.49
470.23	13919.17
470.41	13947.25
470.59	14115.77
470.77	13965.98
470.95	14239.82
471.14	14464.51
471.32	14195.35
471.50	14382.59
471.68	14363.87
471.86	14366.21
472.04	14398.98
472.22	14867.08
472.40	14626.01
472.58	14686.86
472.77	14965.39
472.95	14883.47
473.13	15454.56
473.31	14923.26
473.49	15190.08
473.67	15147.95
473.85	14979.43
474.03	15449.88
474.21	15412.43
474.39	15517.75
474.57	15587.97
474.75	15576.27
474.93	15988.20
475.12	15892.24
475.30	16135.65
475.48	15716.70
475.66	16163.74
475.84	16133.31
476.02	16283.11
476.20	16325.24
476.38	16383.75
476.56	16947.82
476.74	16966.54
476.92	16854.20
477.10	16666.95
477.28	17118.68
477.46	17212.30
477.64	17364.43
477.82	17242.73
478.00	17682.75
478.18	17839.56
478.36	17743.60
478.54	18171.92
478.72	17968.29
478.90	18239.79
479.08	18614.28
479.26	18834.29
479.44	18441.08
479.62	18963.02
479.80	19077.71
479.98	19281.33
480.16	19772.85
480.34	19173.67
480.52	19929.66
480.70	19646.46
480.88	19644.12
481.06	19910.94
481.24	19999.88
481.41	20311.17
481.59	20470.33
481.77	20655.23
481.95	20643.52
482.13	20793.32
482.31	20992.26
482.49	21436.97
482.67	21198.23
482.85	21586.76
483.03	22024.44
483.21	21813.79
483.39	22221.05
483.57	22120.40
483.74	22349.78
483.92	22422.33
484.10	22637.66
484.28	22895.12
484.46	23550.47
484.64	23791.55
484.82	23379.61
485.00	23611.32
485.18	23978.79
485.35	24442.21
485.53	23882.83
485.71	24554.56
485.89	24608.39
486.07	24449.24
486.25	24723.08
486.43	25083.52
486.61	25127.99
486.78	25535.24
486.96	25722.49
487.14	25816.11
487.32	25628.87
487.50	26096.97
487.68	26476.14
487.85	26635.30
488.03	27005.10
488.21	27222.77
488.39	27473.21
488.57	27285.97
488.75	27569.17
488.92	27754.07
489.10	28156.64
489.28	28217.50
489.46	28811.99
489.64	28673.90
489.81	28666.88
489.99	28823.70
490.17	29191.16
490.35	29312.87
490.53	29956.52
490.70	29851.19
490.88	29628.84
491.06	30457.39
491.24	30506.54
491.41	30555.69
491.59	30703.15
491.77	30691.44
491.95	31276.58
492.13	31101.04
492.30	31356.16
492.48	31566.81
492.66	31405.31
492.84	31667.45
493.01	32233.86
493.19	32446.85
493.37	32360.25
493.54	32638.77
493.72	32980.49
493.90	33053.05
494.08	33303.48
494.25	33706.05
494.43	33710.74
494.61	33872.23
494.79	33748.18
494.96	34087.56
495.14	34110.97
495.32	34946.54
495.49	34595.46
495.67	35035.48
495.85	35140.80
496.02	35201.66
496.20	35840.62
496.38	35505.93
496.55	35777.43
496.73	36294.69
496.91	36070.00
497.09	36526.40
497.26	36673.85
497.44	36821.31
497.62	36804.92
497.79	37046.00
497.97	36891.52
498.14	37790.29
498.32	38059.45
498.50	37914.34
498.67	38330.95
498.85	37446.23
499.03	38092.22
499.20	38237.33
499.38	38703.10
499.56	38675.01
499.73	38806.08
499.91	39292.91
500.08	39634.63
500.26	39072.90
500.44	39601.86
500.61	39686.12
500.79	39878.05
500.97	40378.92
501.14	40439.78
501.32	40493.61
501.49	40271.26
501.67	40381.26
501.84	40474.88
502.02	41167.68
502.20	41050.66
502.37	40921.93
502.55	40842.35
502.72	40830.65
502.90	41064.70
503.07	41301.09
503.25	41656.85
503.43	41684.94
503.60	42057.09
503.78	41621.75
503.95	41535.15
504.13	42131.98
504.30	42586.05
504.48	42396.46
504.65	42457.32
504.83	43274.16
505.01	42698.39
505.18	42958.19
505.36	43430.98
505.53	43096.28
505.71	43440.34
505.88	43510.56
506.06	43346.72
506.23	44318.04
506.41	43777.38
506.58	44149.53
506.76	44023.14
506.93	44816.58
507.11	44238.47
507.28	44451.45
507.46	44168.25
507.63	44741.68
507.81	45057.65
507.98	44463.16
508.16	44793.17
508.33	45174.68
508.50	45364.26
508.68	45586.61
508.85	45448.52
509.03	45701.30
509.20	45155.96
509.38	46368.35
509.55	45909.61
509.73	46291.12
509.90	46440.91
510.08	46401.12
510.25	46466.66
510.42	46571.98
510.60	46848.16
510.77	46836.46
510.95	47192.22
511.12	47084.56
511.30	47117.32
511.47	47702.46
511.64	47159.45
511.82	47517.56
511.99	47585.43
512.17	47856.93
512.34	47646.29
512.51	48439.73
512.69	48804.85
512.86	47985.66
513.04	48453.77
513.21	48367.17
513.38	48390.58
513.56	48491.22
513.73	48250.14
513.90	49062.31
514.08	48879.75
514.25	49226.15
514.43	49422.75
514.60	49364.24
514.77	49507.01
514.95	48987.41
515.12	49174.66
515.29	49113.80
515.47	50064.06
515.64	49979.80
515.81	49860.43
515.99	49937.67
516.16	50019.59
516.33	50059.38
516.51	50389.39
516.68	50300.45
516.85	50546.21
517.03	50525.14
517.20	50810.69
517.37	50815.37
517.54	50810.69
517.72	50543.87
517.89	50628.13
518.06	50817.71
518.24	50908.99
518.41	51040.06
518.58	50979.21
518.75	50908.99
518.93	51255.39
519.10	50953.46
519.27	51290.50
519.45	51377.10
519.62	51686.05
519.79	51817.12
519.96	51171.13
520.14	52013.73
520.31	51779.67
520.48	52055.85
520.65	51814.78
520.83	52203.31
521.00	52121.39
521.17	51913.08
521.34	52116.71
521.52	52257.14
521.69	52123.73
521.86	52444.38
522.03	52547.37
522.20	52793.12
522.38	52963.98
522.55	52793.12
522.72	52940.58
522.89	53024.84
523.07	52921.85
523.24	52825.89
523.41	53499.97
523.58	53076.33
523.75	53265.91
523.92	53284.64
524.10	53638.06
524.27	53488.26
524.44	53588.91
524.61	53607.63
524.78	53787.85
524.96	53829.98
525.13	53689.55
525.30	53827.64
525.47	54262.98
525.64	53935.30
525.81	54162.34
525.98	54120.21
526.16	53937.65
526.33	54026.59
526.50	54511.08
526.67	54370.64
526.84	54611.72
527.01	54497.03
527.18	54593.00
527.36	54422.14
527.53	54445.54
527.70	54873.86
527.87	54822.37
528.04	54466.61
528.21	54969.82
528.38	54908.97
528.55	54829.39
528.72	54995.57
528.89	55042.38
529.07	54831.73
529.24	55044.72
529.41	55215.58
529.58	55292.82
529.75	55201.53
529.92	55482.40
530.09	55248.35
530.26	55119.62
530.43	55208.56
530.60	55033.02
530.77	55461.33
530.94	55714.11
531.11	55522.19
531.28	55814.76
531.46	55718.79
531.63	55679.00
531.80	55604.11
531.97	55922.42
532.14	55985.61
532.31	56079.24
532.48	55856.88
532.65	56154.13
532.82	56074.55
532.99	56011.36
533.16	56058.17
533.33	56275.84
533.50	56275.84
533.67	56425.64
533.84	56240.73
534.01	56212.65
534.18	56343.72
534.35	56875.02
534.52	56521.60
534.69	56640.96
534.86	56367.12
535.03	56158.81
535.20	56521.60
535.37	56687.78
535.54	56842.25
535.71	56671.39
535.88	56713.52
536.05	56650.33
536.22	56776.72
536.38	56889.06
536.55	56980.34
536.72	56912.47
536.89	56956.94
537.06	57130.14
537.23	57411.00
537.40	57450.79
537.57	56750.97
537.74	56889.06
537.91	57350.15
538.08	57153.54
538.25	57247.16
538.42	57434.41
538.59	57476.54
538.75	57378.23
538.92	57389.94
539.09	57631.01
539.26	57322.06
539.43	57310.36
539.60	57586.54
539.77	57668.46
539.94	58010.18
540.11	57762.08
540.28	57893.15
540.44	57888.47
540.61	57867.40
540.78	57881.45
540.95	58131.89
541.12	57944.64
541.29	57946.98
541.46	58031.24
541.62	58183.38
541.79	58218.49
541.96	57799.53
542.13	57944.64
542.30	58157.63
542.47	58099.12
542.63	58220.83
542.80	58284.02
542.97	58714.68
543.14	58693.61
543.31	58599.99
543.48	58628.08
543.64	58670.21
543.81	58735.74
543.98	58745.11
544.15	58585.95
544.32	58958.09
544.48	59077.46
544.65	58773.19
544.82	59192.15
544.99	58635.10
545.16	59051.72
545.32	58829.37
545.49	58990.86
545.66	59351.30
545.83	59367.69
546.00	59473.01
546.16	59295.13
546.33	59157.04
546.50	59161.72
546.67	59119.59
546.83	58965.12
547.00	59100.87
547.17	58894.90
547.34	59220.23
547.50	59306.83
547.67	59587.70
547.84	59529.19
548.00	59529.19
548.17	59505.78
548.34	59243.64
548.51	59480.03
548.67	59285.77
548.84	59592.38
549.01	59435.56
549.18	59505.78
549.34	59463.65
549.51	59435.56
549.68	59796.01
549.84	59327.90
550.01	59639.19
550.18	59208.53
550.34	59627.49
550.51	59554.93
550.68	59758.56
550.84	59625.15
551.01	59901.33
551.18	59800.69
551.34	59702.38
551.51	59728.13
551.68	59894.31
551.84	59648.55
552.01	60027.72
552.18	59866.22
552.34	59931.76
552.51	60074.53
552.68	60030.06
552.84	60046.44
553.01	60198.58
553.18	59999.63
553.34	59976.23
553.51	59737.49
553.67	60053.47
553.84	60390.50
554.01	60240.71
554.17	60465.40
554.34	60339.01
554.51	60163.47
554.67	60280.50
554.84	60095.60
555.00	60083.89
555.17	60186.88
555.33	60322.63
555.50	60236.03
555.67	60430.29
555.83	60327.31
556.00	60582.43
556.16	60633.92
556.33	60350.71
556.50	60523.91
556.66	60584.77
556.83	60406.89
556.99	60720.52
557.16	60521.57
557.32	60870.31
557.49	61022.45
557.65	60458.38
557.82	60662.00
557.98	60383.48
558.15	60479.44
558.32	60650.30
558.48	60610.51
558.65	60851.59
558.81	60727.54
558.98	60722.86
559.14	60842.23
559.31	60713.50
559.47	60889.04
559.64	61036.49
559.80	60872.65
559.97	60938.19
560.13	60636.26
560.30	60907.76
560.46	61036.49
560.63	61008.40
560.79	61010.74
560.96	61078.62
561.12	61080.96
561.29	60830.52
561.45	61113.73
561.61	61031.81
561.78	60961.59
561.94	61099.68
562.11	61223.73
562.27	61193.31
562.44	61368.85
562.60	61179.26
562.77	61277.57
562.93	61090.32
563.10	61375.87
563.26	61015.43
563.42	61406.30
563.59	61172.24
563.75	61193.31
563.92	61574.81
564.08	61401.61
564.24	61223.73
564.41	61368.85
564.57	61410.98
564.74	61359.48
564.90	61333.74
565.07	61425.02
565.23	61352.46
565.39	61448.42
565.56	61689.50
565.72	61612.26
565.88	61595.88
566.05	61471.83
566.21	61448.42
566.38	61223.73
566.54	61317.35
566.70	61598.22
566.87	61673.12
567.03	61509.28
567.19	61818.23
567.36	61722.27
567.52	61483.53
567.68	61591.20
567.85	61396.93
568.01	61621.62
568.17	61485.87
568.34	61621.62
568.50	61602.90
568.66	61525.66
568.83	61799.50
568.99	61385.23
569.15	61628.65
569.32	61687.16
569.48	61581.84
569.64	61677.80
569.81	61614.60
569.97	61605.24
570.13	61839.29
570.30	61647.37
570.46	61780.78
570.62	61687.16
570.78	61874.40
570.95	61612.26
571.11	61755.03
571.27	61544.39
571.43	61567.79
571.60	61755.03
571.76	61736.31
571.92	61748.01
572.09	61916.53
572.25	61890.79
572.41	61846.32
572.57	61801.85
572.74	61958.66
572.90	61764.40
573.06	61792.48
573.22	61600.56
573.38	61820.57
573.55	61822.91
573.71	62066.33
573.87	61715.25
574.03	61984.41
574.20	61876.74
574.36	61890.79
574.52	62103.77
574.68	61806.53
574.84	62159.95
575.01	61937.60
575.17	62012.49
575.33	61890.79
575.49	62012.49
575.65	62028.88
575.82	62129.52
575.98	62000.79
576.14	62066.33
576.30	61982.07
576.46	62094.41
576.62	61829.93
576.79	61825.25
576.95	61813.55
577.11	62045.26
577.27	62103.77
577.43	62148.24
577.59	62075.69
577.75	62021.86
577.92	61811.21
578.08	61946.96
578.24	61888.45
578.40	62045.26
578.56	62035.90
578.72	62101.43
578.88	62429.11
579.04	62309.74
579.21	62169.31
579.37	62337.83
579.53	62143.56
579.69	61865.04
579.85	61921.21
580.01	62136.54
580.17	62080.37
580.33	61886.10
580.49	62127.18
580.65	62211.44
580.82	62092.07
580.98	62087.39
581.14	62199.74
581.30	62440.81
581.46	62129.52
581.62	62218.46
581.78	62166.97
581.94	62204.42
582.10	62054.62
582.26	62253.57
582.42	62157.61
582.58	62148.24
582.74	62162.29
582.90	62328.47
583.06	62408.04
583.22	62234.84
583.38	62312.08
583.54	61982.07
583.70	62237.19
583.86	62323.78
584.02	62227.82
584.18	62595.29
584.34	62410.38
584.50	62382.30
584.66	62248.89
584.82	62157.61
584.98	62190.37
585.14	62241.87
585.30	62202.08
585.46	62152.93
585.62	62080.37
585.78	62365.91
585.94	62101.43
586.10	62405.70
586.26	62496.98
586.42	62461.88
586.58	62415.07
586.74	62190.37
586.90	62092.07
587.06	62279.31
587.22	62529.75
587.38	62482.94
587.54	62426.77
587.70	62595.29
587.86	62663.16
