SpectraSuite Data File
++++++++++++++++++++++++++++++++++++
Date: Thu Oct 24 13:21:20 EDT 2013
User: stostad
Dark Spectrum Present: No
Reference Spectrum Present: No
Number of Sampled Component Spectra: 1
Spectrometers: USB2+H05261
Integration Time (usec): 100000 (USB2+H05261)
Spectra Averaged: 1 (USB2+H05261)
Boxcar Smoothing: 0 (USB2+H05261)
Correct for Electrical Dark: No (USB2+H05261)
Strobe/Lamp Enabled: No (USB2+H05261)
Correct for Detector Non-linearity: No (USB2+H05261)
Correct for Stray Light: No (USB2+H05261)
Number of Pixels in Processed Spectrum: 2048
>>>>>Begin Processed Spectral Data<<<<<
365.73	543.00
365.92	543.00
366.12	543.00
366.32	507.90
366.52	470.45
366.72	468.11
366.91	475.13
367.11	463.43
367.31	451.72
367.51	461.09
367.70	393.21
367.90	561.73
368.10	430.66
368.30	442.36
368.49	411.93
368.69	454.06
368.89	545.34
369.09	454.06
369.28	505.56
369.48	512.58
369.68	507.90
369.87	592.16
370.07	521.94
370.27	538.32
370.47	657.69
370.66	833.23
370.86	894.08
371.06	891.74
371.25	882.38
371.45	858.98
371.65	968.98
371.84	994.73
372.04	912.81
372.24	877.70
372.44	866.00
372.63	931.53
372.83	943.24
373.03	929.19
373.22	992.39
373.42	954.94
373.62	1027.50
373.81	1020.47
374.01	1055.58
374.21	1043.88
374.40	1029.84
374.60	1041.54
374.79	1116.44
374.99	1029.84
375.19	1029.84
375.38	1048.56
375.58	985.37
375.78	1097.71
375.97	1149.20
376.17	1107.07
376.37	999.41
376.56	1062.60
376.76	992.39
376.95	1097.71
377.15	1109.41
377.35	1074.31
377.54	1050.90
377.74	1163.25
377.93	1069.62
378.13	1062.60
378.33	1043.88
378.52	1104.73
378.72	1132.82
378.91	1060.26
379.11	1057.92
379.31	1064.94
379.50	1114.10
379.70	1109.41
379.89	1177.29
380.09	1205.38
380.28	1132.82
380.48	1130.48
380.68	1114.10
380.87	1128.14
381.07	1184.31
381.26	1144.52
381.46	1217.08
381.65	1181.97
381.85	1177.29
382.04	1277.93
382.24	1123.46
382.43	1139.84
382.63	1268.57
382.83	1221.76
383.02	1203.04
383.22	1226.44
383.41	1259.21
383.61	1254.53
383.80	1359.85
384.00	1266.23
384.19	1233.46
384.39	1294.32
384.58	1231.12
384.78	1313.04
384.97	1266.23
385.17	1277.93
385.36	1235.80
385.56	1240.48
385.75	1275.59
385.95	1268.57
386.14	1399.64
386.34	1291.98
386.53	1284.95
386.72	1273.25
386.92	1327.08
387.11	1343.47
387.31	1329.42
387.50	1371.55
387.70	1348.15
387.89	1350.49
388.09	1387.94
388.28	1474.54
388.48	1350.49
388.67	1411.34
388.86	1469.86
389.06	1348.15
389.25	1348.15
389.45	1380.92
389.64	1350.49
389.84	1432.41
390.03	1467.52
390.22	1418.36
390.42	1373.89
390.61	1352.83
390.81	1430.07
391.00	1437.09
391.19	1404.32
391.39	1516.67
391.58	1488.58
391.78	1451.13
391.97	1521.35
392.16	1547.09
392.36	1603.27
392.55	1582.20
392.75	1469.86
392.94	1579.86
393.13	1565.82
393.33	1540.07
393.52	1621.99
393.71	1565.82
393.91	1586.88
394.10	1610.29
394.29	1500.28
394.49	1640.72
394.68	1572.84
394.88	1605.61
395.07	1713.27
395.26	1650.08
395.46	1748.38
395.65	1689.87
395.84	1680.50
396.04	1736.68
396.23	1701.57
396.42	1659.44
396.62	1713.27
396.81	1657.10
397.00	1675.82
397.19	1748.38
397.39	1687.53
397.58	1753.06
397.77	1746.04
397.97	1827.96
398.16	1771.79
398.35	1846.68
398.55	1722.63
398.74	1788.17
398.93	1947.33
399.12	1867.75
399.32	1919.24
399.51	1858.39
399.70	1827.96
399.90	1874.77
400.09	1991.80
400.28	2057.33
400.47	1905.20
400.67	1989.46
400.86	1928.60
401.05	1984.77
401.24	2026.90
401.44	2001.16
401.63	2064.35
401.82	2069.03
402.01	2031.58
402.21	2050.31
402.40	2043.29
402.59	2101.80
402.78	2097.12
402.97	2094.78
403.17	2204.78
403.36	2167.34
403.55	2127.55
403.74	2211.81
403.93	2193.08
404.13	2251.60
404.32	2284.36
404.51	2310.11
404.70	2342.88
404.89	2289.04
405.09	2249.25
405.28	2282.02
405.47	2408.41
405.66	2377.98
405.85	2457.56
406.05	2366.28
406.24	2312.45
406.43	2420.11
406.62	2478.63
406.81	2473.95
407.00	2356.92
407.20	2480.97
407.39	2506.71
407.58	2511.39
407.77	2513.74
407.96	2511.39
408.15	2530.12
408.34	2502.03
408.54	2579.27
408.73	2583.95
408.92	2574.59
409.11	2548.84
409.30	2724.38
409.49	2590.97
409.68	2801.62
409.87	2689.28
410.07	2651.83
410.26	2626.08
410.45	2637.78
410.64	2736.09
410.83	2888.22
411.02	2827.37
411.21	2841.41
411.40	2913.97
411.59	2846.09
411.78	2874.18
411.98	2899.92
412.17	2920.99
412.36	3030.99
412.55	3091.85
412.74	3169.09
412.93	3112.91
413.12	3091.85
413.31	3194.83
413.50	3169.09
413.69	3129.30
413.88	3304.84
414.07	3304.84
414.26	3222.92
414.45	3222.92
414.64	3286.11
414.83	3323.56
415.02	3414.84
415.22	3400.80
415.41	3489.74
415.60	3438.25
415.79	3253.34
415.98	3531.87
416.17	3513.14
416.36	3531.87
416.55	3606.77
416.74	3569.32
416.93	3597.40
417.12	3655.92
417.31	3550.59
417.50	3733.15
417.69	3726.13
417.88	3758.90
418.07	3613.79
418.26	3702.73
418.45	3850.18
418.64	3845.50
418.83	3808.05
419.02	3782.31
419.21	3850.18
419.39	4009.34
419.58	3983.59
419.77	3754.22
419.96	3978.91
420.15	3911.04
420.34	3990.61
420.53	3981.25
420.72	4117.00
420.91	4065.51
421.10	4102.96
421.29	4159.13
421.48	4046.79
421.67	4156.79
421.86	4102.96
422.05	4091.26
422.24	4138.07
422.43	4393.19
422.61	4208.28
422.80	4320.63
422.99	4140.41
423.18	4292.54
423.37	4271.48
423.56	4325.31
423.75	4273.82
423.94	4095.94
424.13	3843.16
424.32	4074.87
424.50	4191.90
424.69	4414.25
424.88	4294.88
425.07	4278.50
425.26	4217.65
425.45	4297.22
425.64	4161.47
425.83	4313.61
426.01	4360.42
426.20	4404.89
426.39	4348.72
426.58	4175.52
426.77	4259.78
426.96	4447.02
427.15	4308.93
427.33	4496.17
427.52	4397.87
427.71	4650.64
427.90	4442.34
428.09	4557.02
428.28	4521.92
428.46	4531.28
428.65	4645.96
428.84	4671.71
429.03	4800.44
429.22	4564.04
429.40	4655.33
429.59	4667.03
429.78	4559.36
429.97	4470.42
430.16	4725.54
430.34	4650.64
430.53	4793.42
430.72	4800.44
430.91	4819.16
431.10	4842.57
431.28	4880.02
431.47	4882.36
431.66	4905.76
431.85	4844.91
432.03	5022.79
432.22	5151.52
432.41	4952.57
432.60	4964.28
432.79	4863.63
432.97	4975.98
433.16	5034.49
433.35	5179.61
433.54	5104.71
433.72	5064.92
433.91	5170.24
434.10	5301.31
434.28	5170.24
434.47	5221.74
434.66	5203.01
434.85	5343.44
435.03	5334.08
435.22	5385.57
435.41	5631.33
435.59	5521.32
435.78	5666.44
435.97	5514.30
436.16	5448.77
436.34	5364.51
436.53	5394.93
436.72	5593.88
436.90	5453.45
437.09	5420.68
437.28	5366.85
437.46	5366.85
437.65	5502.60
437.84	5607.92
438.02	5671.12
438.21	5551.75
438.40	5696.86
438.58	5851.34
438.77	5989.43
438.96	5738.99
439.14	5937.94
439.33	5872.40
439.52	6099.44
439.70	5951.98
439.89	6141.57
440.08	6113.48
440.26	6230.51
440.45	6108.80
440.63	6375.62
440.82	6293.70
441.01	6235.19
441.19	6328.81
441.38	6310.08
441.57	6363.92
441.75	6415.41
441.94	6736.06
442.12	6602.65
442.31	6656.48
442.50	6586.27
442.68	6490.31
442.87	6658.82
443.05	6705.63
443.24	6869.47
443.43	6679.89
443.61	6827.34
443.80	6963.09
443.98	6661.16
444.17	6473.92
444.35	6600.31
444.54	6853.09
444.73	6850.75
444.91	6956.07
445.10	6862.45
445.28	6759.47
445.47	6736.06
445.65	6895.22
445.84	6958.41
446.02	7035.65
446.21	7000.54
446.39	6869.47
446.58	7009.90
446.77	6885.86
446.95	6796.92
447.14	6942.03
447.32	6988.84
447.51	6925.65
447.69	7000.54
447.88	6970.12
448.06	7021.61
448.25	6984.16
448.43	7131.61
448.62	7105.87
448.80	7178.42
448.99	7180.76
449.17	7042.67
449.36	7002.88
449.54	7255.66
449.73	7330.56
449.91	7417.16
450.10	7370.35
450.28	7431.20
450.46	7590.36
450.65	7438.22
450.83	7407.80
451.02	7267.36
451.20	7536.52
451.39	7400.77
451.57	7634.83
451.76	7520.14
451.94	7644.19
452.13	7557.59
452.31	7676.96
452.49	7407.80
452.68	7777.60
452.86	7817.39
453.05	7536.52
453.23	7609.08
453.42	7606.74
453.60	7632.49
453.78	7810.37
453.97	7676.96
454.15	7557.59
454.34	7763.56
454.52	7822.07
454.70	7969.52
454.89	7864.20
455.07	8013.99
455.26	8091.23
455.44	8177.83
455.62	8077.19
455.81	8180.17
455.99	7981.23
456.17	7964.84
456.36	8257.41
456.54	8369.76
456.73	8493.80
456.91	8456.36
457.09	8374.44
457.28	8493.80
457.46	8428.27
457.64	8374.44
457.83	8652.96
458.01	8177.83
458.19	8828.50
458.38	8774.67
458.56	8720.84
458.74	8631.90
458.93	8753.60
459.11	8662.32
459.29	8727.86
459.48	8891.70
459.66	8517.21
459.84	8800.41
460.03	8723.18
460.21	8896.38
460.39	8898.72
460.57	9022.77
460.76	8950.21
460.94	9069.58
461.12	9181.92
461.31	9027.45
461.49	9100.00
461.67	9240.44
461.85	9195.96
462.04	9092.98
462.22	9577.47
462.40	9378.53
462.59	9390.23
462.77	9179.58
462.95	9366.82
463.13	9322.35
463.32	9266.18
463.50	9352.78
463.68	9408.95
463.86	9518.96
464.05	9420.66
464.23	9324.69
464.41	9554.07
464.59	9411.29
464.78	9851.31
464.96	9715.56
465.14	9397.25
465.32	9654.71
465.50	9755.35
465.69	9680.46
465.87	9902.81
466.05	9760.03
466.23	9966.00
466.41	9827.91
466.60	10157.92
466.78	9980.04
466.96	9671.09
467.14	9991.75
467.32	9748.33
467.51	10064.30
467.69	9874.72
467.87	9937.91
468.05	10157.92
468.23	9916.85
468.41	10019.83
468.60	10085.37
468.78	10352.19
468.96	10026.86
469.14	10373.25
469.32	10427.09
469.50	10164.95
469.69	10300.70
469.87	10562.84
470.05	10576.88
470.23	10473.90
470.41	10644.76
470.59	10611.99
470.77	10647.10
470.95	10588.58
471.14	10803.91
471.32	10576.88
471.50	10817.96
471.68	10834.34
471.86	10677.52
472.04	10775.83
472.22	10942.00
472.40	10925.62
472.58	11159.67
472.77	11239.25
472.95	11356.28
473.13	11515.44
473.31	11229.89
473.49	11389.05
473.67	11272.02
473.85	11461.60
474.03	11543.52
474.21	11510.75
474.39	11742.47
474.57	11730.76
474.75	11737.79
474.93	11861.84
475.12	11896.94
475.30	12166.10
475.48	11880.56
475.66	12088.87
475.84	12049.08
476.02	12189.51
476.20	12308.88
476.38	12336.96
476.56	12681.02
476.74	12603.78
476.92	12580.38
477.10	12688.04
477.28	12812.09
477.46	12840.18
477.64	13062.53
477.82	13006.36
478.00	13413.61
478.18	13233.39
478.36	13460.42
478.54	13514.25
478.72	13621.92
478.90	13750.65
479.08	13884.06
479.26	13860.65
479.44	14090.02
479.62	14134.50
479.80	14193.01
479.98	14207.05
480.16	14583.88
480.34	14387.27
480.52	14679.84
480.70	14523.02
480.88	14541.75
481.06	14951.34
481.24	14967.73
481.41	15157.31
481.59	15290.72
481.77	15630.10
481.95	15316.47
482.13	15611.37
482.31	15587.97
482.49	15946.07
482.67	15765.85
482.85	15920.32
483.03	16290.13
483.21	16659.93
483.39	16365.03
483.57	16575.67
483.74	16308.85
483.92	17092.93
484.10	16657.59
484.28	17153.79
484.46	17289.54
484.64	17554.02
484.82	17219.32
485.00	17582.10
485.18	17521.25
485.35	18307.67
485.53	17935.53
485.71	17972.97
485.89	18300.65
486.07	18707.90
486.25	18347.46
486.43	18518.32
486.61	18803.86
486.78	18946.64
486.96	19323.46
487.14	19250.91
487.32	19594.96
487.50	19571.56
487.68	19697.95
487.85	19866.47
488.03	20453.94
488.21	20343.94
488.39	20217.55
488.57	20315.85
488.75	20489.05
488.92	20727.78
489.10	20741.83
489.28	20861.19
489.46	21472.07
489.64	21291.85
489.81	21523.57
489.99	21619.53
490.17	21907.41
490.35	22036.14
490.53	22012.74
490.70	22342.75
490.88	22057.21
491.06	22562.76
491.24	22466.80
491.41	22670.43
491.59	22703.20
491.77	22876.40
491.95	23173.64
492.13	23075.34
492.30	23297.69
492.48	23318.76
492.66	23349.18
492.84	23878.15
493.01	24063.05
493.19	23819.63
493.37	24147.31
493.54	24620.10
493.72	24868.19
493.90	24430.51
494.08	24697.33
494.25	25216.93
494.43	24907.98
494.61	25170.12
494.79	25214.59
494.96	25427.58
495.14	25493.12
495.32	25696.74
495.49	26029.10
495.67	26075.91
495.85	26204.64
496.02	26232.72
496.20	26380.18
496.38	26518.27
496.55	26679.77
496.73	27173.62
496.91	26883.39
497.09	27152.55
497.26	27182.98
497.44	27082.34
497.62	27520.02
497.79	27810.25
497.97	27548.11
498.14	27784.50
498.32	28215.16
498.50	28343.89
498.67	28156.64
498.85	28077.07
499.03	28362.61
499.20	28500.70
499.38	28830.72
499.56	28835.40
499.73	28830.72
499.91	28954.77
500.08	29095.20
500.26	29134.99
500.44	29322.23
500.61	29500.11
500.79	29324.57
500.97	29942.47
501.14	29933.11
501.32	30122.69
501.49	30221.00
501.67	30335.68
501.84	30050.14
502.02	30661.02
502.20	30377.81
502.37	30644.63
502.55	30223.34
502.72	30389.52
502.90	30551.01
503.07	30464.41
503.25	31040.18
503.43	30569.74
503.60	31288.28
503.78	31072.95
503.95	31005.08
504.13	31367.86
504.30	31227.43
504.48	31496.59
504.65	32128.53
504.83	31920.23
505.01	32229.18
505.18	32025.55
505.36	32311.10
505.53	32144.92
505.71	32664.52
505.88	32510.04
506.06	32889.21
506.23	32641.11
506.41	32652.81
506.58	32765.16
506.76	32957.08
506.93	33015.60
507.11	33256.67
507.28	33677.97
507.46	33418.17
507.63	33273.06
507.81	33797.34
507.98	33312.84
508.16	33582.01
508.33	33689.67
508.50	33942.45
508.68	34267.78
508.85	34440.98
509.03	33883.94
509.20	34113.31
509.38	34197.57
509.55	34717.17
509.73	34991.01
509.90	34513.54
510.08	35030.80
510.25	34558.01
510.42	35089.31
510.60	35299.96
510.77	35440.39
510.95	35508.27
511.12	35250.81
511.30	35377.20
511.47	35346.77
511.64	35828.92
511.82	35899.14
511.99	35672.10
512.17	35957.65
512.34	36364.90
512.51	35985.74
512.69	36521.72
512.86	36306.39
513.04	36886.84
513.21	36601.30
513.38	36608.32
513.56	36591.94
513.73	36360.22
513.90	36598.96
514.08	37345.59
514.25	37163.03
514.43	37312.82
514.60	37352.61
514.77	37319.84
514.95	37373.67
515.12	37008.55
515.29	37837.10
515.47	37633.47
515.64	38033.71
515.81	37654.54
515.99	37764.54
516.16	37862.85
516.33	38249.03
516.51	38092.22
516.68	38064.13
516.85	38288.82
517.03	38260.74
517.20	38972.26
517.37	38394.15
517.54	38256.06
517.72	38618.84
517.89	38565.01
518.06	38923.11
518.24	38740.55
518.41	38787.36
518.58	39147.80
518.75	39192.27
518.93	39168.87
519.10	39538.67
519.27	39309.30
519.45	39278.87
519.62	39311.64
519.79	39913.16
519.96	39618.25
520.14	40016.14
520.31	39578.46
520.48	39641.65
520.65	39866.34
520.83	40247.85
521.00	40119.12
521.17	40282.96
521.34	40105.08
521.52	40531.06
521.69	40495.95
521.86	40935.97
522.03	40629.36
522.20	40802.56
522.38	41230.88
522.55	41464.93
522.72	41282.37
522.89	40727.66
523.07	41139.60
523.24	40872.78
523.41	41443.87
523.58	41024.91
523.75	41614.72
523.92	41713.03
524.10	41579.62
524.27	41708.35
524.44	41675.58
524.61	42190.50
524.78	41806.65
524.96	42082.83
525.13	42237.31
525.30	42660.94
525.47	42478.38
525.64	42574.34
525.81	42373.06
525.98	42651.58
526.16	42534.56
526.33	42588.39
526.50	42784.99
526.67	42836.48
526.84	43065.86
527.01	42731.16
527.18	42969.90
527.36	42904.36
527.53	43194.59
527.70	43564.39
527.87	43213.31
528.04	43168.84
528.21	44135.48
528.38	43784.40
528.55	43779.72
528.72	43604.18
528.89	43463.75
529.07	43566.73
529.24	43512.90
529.41	43873.34
529.58	44406.98
529.75	43917.81
529.92	44245.49
530.09	44053.56
530.26	43969.30
530.43	44411.67
530.60	43913.13
530.77	44041.86
530.94	44657.42
531.11	44182.29
531.28	44622.31
531.46	44540.39
531.63	44814.24
531.80	44458.48
531.97	44577.84
532.14	44793.17
532.31	44818.92
532.48	44828.28
532.65	45464.91
532.82	45118.51
532.99	44615.29
533.16	44940.63
533.33	45380.65
533.50	45640.45
533.67	45588.95
533.84	45022.54
534.01	45394.69
534.18	45319.79
534.35	45916.63
534.52	45235.53
534.69	46232.60
534.86	45649.81
535.03	45174.68
535.20	45572.57
535.37	45661.51
535.54	46246.65
535.71	45972.80
535.88	45748.11
536.05	46169.41
536.22	46206.86
536.38	46021.95
536.55	46176.43
536.72	46518.15
536.89	46461.97
537.06	46829.44
537.23	46286.43
537.40	46843.48
537.57	46607.09
537.74	46937.10
537.91	46892.63
538.08	46258.35
538.25	46344.95
538.42	46852.84
538.59	46939.44
538.75	46782.63
538.92	47206.26
539.09	47220.31
539.26	46967.53
539.43	46892.63
539.60	47283.50
539.77	47201.58
539.94	47704.80
540.11	47753.95
540.28	47676.71
540.44	47627.56
540.61	47489.47
540.78	47466.06
540.95	47592.45
541.12	47690.76
541.29	47709.48
541.46	48198.65
541.62	47950.56
541.79	48315.68
541.96	47494.15
542.13	47913.11
542.30	47966.94
542.47	47770.33
542.63	47964.60
542.80	48303.98
542.97	48591.86
543.14	48910.17
543.31	48952.30
543.48	48699.53
543.64	48870.39
543.81	48818.89
543.98	48804.85
544.15	49106.78
544.32	49298.70
544.48	49347.86
544.65	49125.50
544.82	49256.57
544.99	48774.42
545.16	49378.28
545.32	48868.05
545.49	49413.39
545.66	49497.65
545.83	49666.17
546.00	49883.84
546.16	49883.84
546.33	49612.34
546.50	49518.71
546.67	49287.00
546.83	49471.90
547.00	49074.01
547.17	49064.65
547.34	49537.44
547.50	49509.35
547.67	50209.17
547.84	49902.56
548.00	50239.60
548.17	50103.85
548.34	49914.26
548.51	50064.06
548.67	49914.26
548.84	50239.60
549.01	49811.28
549.18	49940.01
549.34	50017.25
549.51	50071.08
549.68	49993.84
549.84	49565.52
550.01	49963.42
550.18	49752.77
550.34	50255.98
550.51	49918.95
550.68	50375.35
550.84	50068.74
551.01	50012.57
551.18	50115.55
551.34	50157.68
551.51	50061.72
551.68	50307.47
551.84	49940.01
552.01	50248.96
552.18	50291.09
552.34	50452.59
552.51	50656.21
552.68	50286.41
552.84	50831.75
553.01	50981.55
553.18	50340.24
553.34	50768.56
553.51	50588.34
553.67	50426.84
553.84	51023.68
554.01	51086.87
554.17	51208.58
554.34	51002.61
554.51	50967.51
554.67	51051.76
554.84	50887.93
555.00	50749.84
555.17	50508.76
555.33	51103.26
555.50	51110.28
555.67	50908.99
555.83	51100.92
556.00	51393.48
556.16	51655.62
556.33	51524.55
556.50	51367.74
556.66	51157.09
556.83	51356.03
556.99	51615.83
557.16	51318.59
557.32	51419.23
557.49	51608.81
557.65	51426.25
557.82	51508.17
557.98	51444.98
558.15	51447.32
558.32	51751.59
558.48	50965.17
558.65	51985.64
558.81	51620.52
558.98	51578.39
559.14	51618.17
559.31	51833.50
559.47	51421.57
559.64	51877.97
559.80	51672.01
559.97	51978.62
560.13	51704.77
560.30	51653.28
560.46	51833.50
560.63	52133.09
560.79	51789.03
560.96	52266.50
561.12	52189.27
561.29	51828.82
561.45	51955.21
561.61	52027.77
561.78	52060.54
561.94	51985.64
562.11	52126.07
562.27	52530.98
562.44	52271.18
562.60	52250.12
562.77	52119.05
562.93	51969.26
563.10	52231.40
563.26	51674.35
563.42	52818.87
563.59	51985.64
563.75	51899.04
563.92	52685.46
564.08	52203.31
564.24	52437.36
564.41	52161.18
564.57	52041.81
564.74	51966.91
564.90	52350.76
565.07	52397.57
565.23	52362.46
565.39	52521.62
565.56	52650.35
565.72	52439.70
565.88	52439.70
566.05	52322.68
566.21	52175.22
566.38	52215.01
566.54	52184.58
566.70	52435.02
566.87	52666.73
567.03	52631.63
567.19	52924.19
567.36	52903.13
567.52	52596.52
567.68	52671.42
567.85	52535.66
568.01	52687.80
568.17	52736.95
568.34	52584.82
568.50	52790.78
568.66	52762.70
568.83	53064.63
568.99	52657.37
569.15	52561.41
569.32	52444.38
569.48	52453.75
569.64	52697.16
569.81	52416.30
569.97	52629.29
570.13	52823.55
570.30	52598.86
570.46	52549.71
570.62	52750.99
570.78	52666.73
570.95	52736.95
571.11	52704.18
571.27	52783.76
571.43	52652.69
571.60	52662.05
571.76	52802.49
571.92	53359.53
572.09	53017.82
572.25	53148.88
572.41	52924.19
572.57	52914.83
572.74	53092.71
572.90	52891.43
573.06	52683.12
573.22	53034.20
573.38	53020.16
573.55	53113.78
573.71	53279.96
573.87	53022.50
574.03	52952.28
574.20	52825.89
574.36	53085.69
574.52	53006.11
574.68	52985.05
574.84	53183.99
575.01	53113.78
575.17	53085.69
575.33	53059.94
575.49	52968.66
575.65	53375.92
575.82	53036.54
575.98	53226.12
576.14	53179.31
576.30	53411.02
576.46	52959.30
576.62	52987.39
576.79	52907.81
576.95	52963.98
577.11	53195.70
577.27	53212.08
577.43	53387.62
577.59	53249.53
577.75	53359.53
577.92	53015.47
578.08	53202.72
578.24	53223.78
578.40	53352.51
578.56	53326.77
578.72	53174.63
578.88	53661.46
579.04	53176.97
579.21	53207.40
579.37	53434.43
579.53	53413.37
579.69	53380.60
579.85	53282.30
580.01	52999.09
580.17	53450.81
580.33	53425.07
580.49	53258.89
580.65	53371.24
580.82	53425.07
580.98	53427.41
581.14	53022.50
581.30	53249.53
581.46	53371.24
581.62	53509.33
581.78	52987.39
581.94	53329.11
582.10	53286.98
582.26	53242.51
582.42	53408.68
582.58	53221.44
582.74	53499.97
582.90	53457.84
583.06	53298.68
583.22	53029.52
583.38	53102.07
583.54	53345.49
583.70	53137.18
583.86	53478.90
584.02	53265.91
584.18	53268.25
584.34	53366.55
584.50	53242.51
584.66	53488.26
584.82	53289.32
584.98	53446.13
585.14	53432.09
585.30	53429.75
585.46	53490.60
585.62	53404.00
585.78	53518.69
585.94	53553.80
586.10	53607.63
586.26	53724.66
586.42	53591.25
586.58	53312.72
586.74	53392.30
586.90	53371.24
587.06	53497.62
587.22	53677.85
587.38	53535.07
587.54	54057.01
587.70	53947.01
587.86	53516.35
588.02	53572.52
588.18	53762.11
588.34	53921.26
588.49	53584.22
588.65	53382.94
588.81	53595.93
