SpectraSuite Data File
++++++++++++++++++++++++++++++++++++
Date: Thu Oct 24 13:21:24 EDT 2013
User: stostad
Dark Spectrum Present: No
Reference Spectrum Present: No
Number of Sampled Component Spectra: 1
Spectrometers: USB2+H05261
Integration Time (usec): 100000 (USB2+H05261)
Spectra Averaged: 1 (USB2+H05261)
Boxcar Smoothing: 0 (USB2+H05261)
Correct for Electrical Dark: No (USB2+H05261)
Strobe/Lamp Enabled: No (USB2+H05261)
Correct for Detector Non-linearity: No (USB2+H05261)
Correct for Stray Light: No (USB2+H05261)
Number of Pixels in Processed Spectrum: 2048
>>>>>Begin Processed Spectral Data<<<<<
365.73	543.00
365.92	543.00
366.12	543.00
366.32	514.92
366.52	510.24
366.72	524.28
366.91	461.09
367.11	449.38
367.31	428.32
367.51	425.98
367.70	437.68
367.90	435.34
368.10	409.59
368.30	491.51
368.49	437.68
368.69	456.40
368.89	447.04
369.09	491.51
369.28	505.56
369.48	533.64
369.68	472.79
369.87	545.34
370.07	489.17
370.27	477.47
370.47	699.82
370.66	931.53
370.86	954.94
371.06	1048.56
371.25	1081.33
371.45	1046.22
371.65	980.68
371.84	936.21
372.04	1013.45
372.24	983.02
372.44	976.00
372.63	1050.90
372.83	1027.50
373.03	1067.28
373.22	1062.60
373.42	985.37
373.62	1020.47
373.81	1071.97
374.01	1071.97
374.21	1142.18
374.40	1036.86
374.60	1039.20
374.79	1118.78
374.99	1107.07
375.19	1132.82
375.38	1086.01
375.58	1125.80
375.78	1093.03
375.97	1153.88
376.17	1100.05
376.37	1095.37
376.56	1184.31
376.76	1179.63
376.95	1090.69
377.15	1137.50
377.35	1116.44
377.54	1247.51
377.74	1139.84
377.93	1123.46
378.13	1210.06
378.33	1151.54
378.52	1125.80
378.72	1179.63
378.91	1191.33
379.11	1132.82
379.31	1249.85
379.50	1200.69
379.70	1268.57
379.89	1221.76
380.09	1252.19
380.28	1205.38
380.48	1217.08
380.68	1254.53
380.87	1308.36
381.07	1280.27
381.26	1341.13
381.46	1294.32
381.65	1247.51
381.85	1338.79
382.04	1310.70
382.24	1334.11
382.43	1343.47
382.63	1350.49
382.83	1306.02
383.02	1329.42
383.22	1350.49
383.41	1308.36
383.61	1404.32
383.80	1373.89
384.00	1320.06
384.19	1373.89
384.39	1425.39
384.58	1327.08
384.78	1425.39
384.97	1413.68
385.17	1460.49
385.36	1516.67
385.56	1406.66
385.75	1420.71
385.95	1474.54
386.14	1469.86
386.34	1404.32
386.53	1500.28
386.72	1420.71
386.92	1472.20
387.11	1514.33
387.31	1519.01
387.50	1540.07
387.70	1504.96
387.89	1551.78
388.09	1612.63
388.28	1495.60
388.48	1530.71
388.67	1614.97
388.86	1516.67
389.06	1526.03
389.25	1600.93
389.45	1547.09
389.64	1664.12
389.84	1647.74
390.03	1579.86
390.22	1614.97
390.42	1696.89
390.61	1617.31
390.81	1584.54
391.00	1610.29
391.19	1717.95
391.39	1699.23
391.58	1687.53
391.78	1619.65
391.97	1703.91
392.16	1596.25
392.36	1685.19
392.55	1753.06
392.75	1764.76
392.94	1771.79
393.13	1762.42
393.33	1757.74
393.52	1720.29
393.71	1834.98
393.91	1792.85
394.10	1741.36
394.29	1785.83
394.49	1797.53
394.68	1914.56
394.88	1830.30
395.07	1860.73
395.26	1888.81
395.46	1923.92
395.65	1919.24
395.84	1947.33
396.04	1966.05
396.23	1968.39
396.42	1914.56
396.62	2031.58
396.81	1963.71
397.00	1954.35
397.19	2038.61
397.39	1947.33
397.58	1984.77
397.77	1989.46
397.97	2115.84
398.16	2047.97
398.35	2148.61
398.55	2062.01
398.74	1942.64
398.93	2113.50
399.12	2155.63
399.32	2146.27
399.51	2040.95
399.70	2113.50
399.90	2087.76
400.09	2115.84
400.28	2335.85
400.47	2204.78
400.67	2260.96
400.86	2225.85
401.05	2239.89
401.24	2314.79
401.44	2209.47
401.63	2251.60
401.82	2249.25
402.01	2305.43
402.21	2289.04
402.40	2382.67
402.59	2387.35
402.78	2434.16
402.97	2422.45
403.17	2429.48
403.36	2509.05
403.55	2438.84
403.74	2511.39
403.93	2548.84
404.13	2621.40
404.32	2623.74
404.51	2520.76
404.70	2635.44
404.89	2614.38
405.09	2595.65
405.28	2506.71
405.47	2605.02
405.66	2729.06
405.85	2623.74
406.05	2663.53
406.24	2691.62
406.43	2761.83
406.62	2799.28
406.81	2843.75
407.00	2640.12
407.20	2668.21
407.39	2710.34
407.58	2848.43
407.77	2881.20
407.96	2799.28
408.15	2874.18
408.34	2822.69
408.54	2876.52
408.73	2892.90
408.92	3007.59
409.11	2949.08
409.30	2956.10
409.49	3063.76
409.68	3007.59
409.87	3016.95
410.07	2981.84
410.26	3082.49
410.45	3073.12
410.64	3096.53
410.83	3225.26
411.02	3213.56
411.21	3143.34
411.40	3229.94
411.59	3255.69
411.78	3206.53
411.98	3321.22
412.17	3274.41
412.36	3302.50
412.55	3543.57
412.74	3487.40
412.93	3564.64
413.12	3489.74
413.31	3747.20
413.50	3562.30
413.69	3585.70
413.88	3716.77
414.07	3585.70
414.26	3676.98
414.45	3824.44
414.64	3751.88
414.83	3775.28
415.02	3829.12
415.22	3962.53
415.41	3868.91
415.60	3808.05
415.79	3969.55
415.98	3946.14
416.17	4117.00
416.36	4030.40
416.55	4037.42
416.74	3999.98
416.93	3983.59
417.12	4290.20
417.31	4124.02
417.50	4161.47
417.69	4315.95
417.88	4189.56
418.07	4283.18
418.26	4404.89
418.45	4173.18
418.64	4449.36
418.83	4259.78
419.02	4477.44
419.21	4440.00
419.39	4489.15
419.58	4512.55
419.77	4437.66
419.96	4503.19
420.15	4510.21
420.34	4496.17
420.53	4617.88
420.72	4596.81
420.91	4683.41
421.10	4521.92
421.29	4571.07
421.48	4800.44
421.67	4786.40
421.86	4711.50
422.05	4809.80
422.24	4702.14
422.43	4692.77
422.61	4781.71
422.80	4908.10
422.99	4910.44
423.18	4966.62
423.37	4863.63
423.56	4798.10
423.75	4755.97
423.94	4798.10
424.13	4519.57
424.32	4748.95
424.50	5020.45
424.69	4926.83
424.88	4961.94
425.07	4873.00
425.26	4915.12
425.45	4755.97
425.64	4870.65
425.83	4847.25
426.01	4971.30
426.20	4880.02
426.39	4924.49
426.58	4877.68
426.77	5011.09
426.96	4943.21
427.15	4940.87
427.33	5259.18
427.52	5062.58
427.71	5032.15
427.90	5160.88
428.09	5097.69
428.28	5226.42
428.46	5188.97
428.65	5238.12
428.84	5401.96
429.03	5329.40
429.22	5231.10
429.40	5193.65
429.59	5296.63
429.78	5191.31
429.97	5111.73
430.16	5495.58
430.34	5408.98
430.53	5476.85
430.72	5500.26
430.91	5460.47
431.10	5441.75
431.28	5643.03
431.47	5575.16
431.66	5661.76
431.85	5598.56
432.03	5760.06
432.22	5738.99
432.41	5785.80
432.60	5757.72
432.79	5799.85
432.97	5769.42
433.16	5863.04
433.35	5947.30
433.54	5870.06
433.72	5916.87
433.91	5921.56
434.10	5797.51
434.28	5966.03
434.47	5987.09
434.66	6076.03
434.85	6022.20
435.03	6403.71
435.22	6174.33
435.41	6375.62
435.59	6471.58
435.78	6270.30
435.97	6289.02
436.16	6267.95
436.34	6331.15
436.53	6190.72
436.72	6380.30
436.90	6146.25
437.09	6356.90
437.28	6153.27
437.46	6298.38
437.65	6408.39
437.84	6565.20
438.02	6394.34
438.21	6445.84
438.40	6476.26
438.58	6597.97
438.77	6724.36
438.96	6609.67
439.14	6736.06
439.33	6942.03
439.52	6906.92
439.70	6977.14
439.89	6874.15
440.08	7112.89
440.26	6993.52
440.45	6984.16
440.63	7171.40
440.82	7255.66
441.01	7215.87
441.19	7365.67
441.38	7433.54
441.57	7393.75
441.75	7372.69
441.94	7662.91
442.12	7508.44
442.31	7639.51
442.50	7557.59
442.68	7817.39
442.87	7599.72
443.05	7707.38
443.24	7847.82
443.43	7936.76
443.61	7754.19
443.80	7971.86
443.98	7644.19
444.17	7452.27
444.35	7730.79
444.54	7826.75
444.73	7838.45
444.91	8107.62
445.10	7873.56
445.28	7981.23
445.47	7878.24
445.65	7798.66
445.84	8135.70
446.02	7878.24
446.21	8093.57
446.39	7992.93
446.58	7946.12
446.77	7819.73
446.95	7899.31
447.14	8006.97
447.32	8159.11
447.51	8081.87
447.69	7922.71
447.88	8035.06
448.06	8009.31
448.25	7976.55
448.43	7990.59
448.62	8149.75
448.80	8131.02
448.99	8346.35
449.17	8315.92
449.36	8304.22
449.54	8409.54
449.73	8547.64
449.91	8594.45
450.10	8535.93
450.28	8596.79
450.46	8678.71
450.65	8498.49
450.83	8531.25
451.02	8510.19
451.20	8791.05
451.39	8826.16
451.57	8489.12
451.76	8372.10
451.94	8519.55
452.13	8940.85
452.31	8894.04
452.49	8676.37
452.68	8702.11
452.86	8812.12
453.05	8915.10
453.23	8903.40
453.42	8725.52
453.60	8713.81
453.78	8905.74
453.97	9020.42
454.15	9083.62
454.34	8879.99
454.52	9153.84
454.70	9151.49
454.89	9179.58
455.07	9172.56
455.26	9121.07
455.44	9312.99
455.62	9198.31
455.81	9334.06
455.99	9303.63
456.17	9376.19
456.36	9652.37
456.54	9610.24
456.73	9715.56
456.91	9968.34
457.09	9612.58
457.28	9678.12
457.46	9898.13
457.64	9804.50
457.83	9736.63
458.01	9987.07
458.19	10106.43
458.38	9867.70
458.56	9949.62
458.74	10129.84
458.93	10129.84
459.11	10326.44
459.29	10001.11
459.48	9930.89
459.66	10040.90
459.84	10246.87
460.03	10457.51
460.21	10310.06
460.39	10195.37
460.57	10441.13
460.76	10499.64
460.94	10537.09
461.12	10614.33
461.31	10567.52
461.49	10487.94
461.67	10441.13
461.85	10494.96
462.04	10593.26
462.22	10857.75
462.40	10998.18
462.59	10778.17
462.77	10754.76
462.95	10621.35
463.13	10656.46
463.32	11096.48
463.50	10946.69
463.68	10764.12
463.86	11162.01
464.05	10871.79
464.23	10801.57
464.41	11056.69
464.59	10853.06
464.78	11309.47
464.96	11164.36
465.14	10932.64
465.32	11136.27
465.50	11309.47
465.69	11566.93
465.87	11288.40
466.05	11346.92
466.23	11428.84
466.41	11300.11
466.60	11723.74
466.78	11152.65
466.96	11449.90
467.14	11431.18
467.32	11569.27
467.51	11566.93
467.69	11534.16
467.87	11410.11
468.05	11939.07
468.23	11393.73
468.41	11379.68
468.60	11637.14
468.78	11964.82
468.96	11770.55
469.14	11976.52
469.32	12208.23
469.50	11910.99
469.69	11882.90
469.87	12079.50
470.05	12100.57
470.23	11981.20
470.41	12276.11
470.59	12063.12
470.77	12191.85
470.95	12219.94
471.14	12578.04
471.32	12390.80
471.50	12608.47
471.68	12624.85
471.86	12451.65
472.04	12409.52
472.22	12996.99
472.40	12587.40
472.58	12947.84
472.77	12753.58
472.95	13135.09
473.13	13415.95
473.31	13022.74
473.49	13233.39
473.67	13076.57
473.85	13202.96
474.03	13586.81
474.21	13511.91
474.39	13589.15
474.57	13635.96
474.75	13738.94
474.93	13956.61
475.12	13956.61
475.30	13692.13
475.48	13914.48
475.66	14071.30
475.84	13987.04
476.02	13951.93
476.20	14251.52
476.38	14649.41
476.56	14829.63
476.74	14895.17
476.92	14593.24
477.10	14846.02
477.28	15021.56
477.46	15110.50
477.64	14719.63
477.82	15190.08
478.00	15742.44
478.18	15557.54
478.36	15503.71
478.54	16203.53
478.72	15758.83
478.90	15990.54
479.08	16067.78
479.26	16369.71
479.44	16460.99
479.62	16329.92
479.80	16744.19
479.98	16802.71
480.16	17025.06
480.34	16865.90
480.52	17355.07
480.70	17128.04
480.88	16851.86
481.06	17362.09
481.24	17390.18
481.41	17654.66
481.59	18059.57
481.77	18167.24
481.95	18101.70
482.13	18204.69
482.31	18017.44
482.49	18691.52
482.67	18373.21
482.85	18764.07
483.03	19117.50
483.21	18986.43
483.39	19218.14
483.57	19281.33
483.74	19580.92
483.92	19676.88
484.10	19527.09
484.28	20170.74
484.46	20170.74
484.64	20489.05
484.82	20489.05
485.00	20575.65
485.18	20774.60
485.35	21242.70
485.53	21067.16
485.71	21198.23
485.89	21476.76
486.07	21298.88
486.25	21378.45
486.43	21614.85
486.61	21970.61
486.78	22104.02
486.96	22188.28
487.14	22885.76
487.32	22511.27
487.50	22719.58
487.68	22595.53
487.85	23257.90
488.03	23438.12
488.21	23882.83
488.39	23798.57
488.57	23836.02
488.75	24032.62
488.92	24135.60
489.10	24322.85
489.28	24816.70
489.46	24772.23
489.64	25230.98
489.81	25160.76
489.99	25139.69
490.17	25282.47
490.35	25844.20
490.53	26113.36
490.70	26082.93
490.88	25867.60
491.06	26258.47
491.24	26412.95
491.41	26483.16
491.59	26869.35
491.77	26913.82
491.95	27075.32
492.13	27178.30
492.30	27393.63
492.48	27517.68
492.66	27388.95
492.84	27718.96
493.01	28063.02
493.19	28236.22
493.37	28348.57
493.54	28575.60
493.72	28807.31
493.90	28608.37
494.08	29085.84
494.25	29006.26
494.43	29270.74
494.61	29528.20
494.79	29397.13
494.96	29486.07
495.14	29748.21
495.32	30064.18
495.49	30263.13
495.67	30560.37
495.85	30235.04
496.02	30913.80
496.20	30607.19
496.38	31185.30
496.55	31164.23
496.73	31690.85
496.91	31475.52
497.09	31899.16
497.26	31735.32
497.44	31828.95
497.62	31857.03
497.79	32163.64
497.97	32687.92
498.14	32797.93
498.32	33060.07
498.50	33024.96
498.67	33261.35
498.85	32601.32
499.03	33193.48
499.20	33436.89
499.38	33731.80
499.56	33912.02
499.73	34284.17
499.91	33888.62
500.08	34522.90
500.26	34267.78
500.44	34068.84
500.61	34412.90
500.79	34726.53
500.97	34759.30
501.14	34983.99
501.32	34852.92
501.49	35239.11
501.67	35164.21
501.84	35407.62
502.02	35604.23
502.20	35730.62
502.37	35519.97
502.55	35798.49
502.72	35948.29
502.90	36299.37
503.07	35730.62
503.25	36292.35
503.43	36212.77
503.60	36596.62
503.78	36615.34
503.95	35976.37
504.13	36935.99
504.30	37062.38
504.48	36629.38
504.65	36994.51
504.83	37811.35
505.01	37930.72
505.18	37350.27
505.36	38143.71
505.53	37366.65
505.71	37617.09
505.88	38061.79
506.06	38014.98
506.23	37989.24
506.41	38447.98
506.58	38375.42
506.76	38565.01
506.93	38822.47
507.11	39021.41
507.28	38951.20
507.46	39414.62
507.63	39398.24
507.81	39096.31
507.98	38976.94
508.16	39161.84
508.33	39302.28
508.50	39416.96
508.68	39957.63
508.85	40189.34
509.03	39725.91
509.20	39936.56
509.38	40631.70
509.55	40175.30
509.73	40378.92
509.90	40662.13
510.08	41050.66
510.25	40734.68
510.42	40795.54
510.60	41034.27
510.77	41109.17
510.95	41425.14
511.12	41256.62
511.30	41453.23
511.47	41813.67
511.64	41406.42
511.82	42220.92
511.99	41631.11
512.17	41741.11
512.34	42241.99
512.51	42586.05
512.69	42443.27
512.86	42066.45
513.04	42824.78
513.21	43047.13
513.38	42298.16
513.56	42579.03
513.73	42637.54
513.90	43164.16
514.08	43290.55
514.25	43419.28
514.43	43564.39
514.60	43606.52
514.77	43328.00
514.95	43433.32
515.12	43452.05
515.29	43903.77
515.47	43929.51
515.64	43981.01
515.81	44004.41
515.99	44320.38
516.16	44091.01
516.33	44289.96
516.51	44737.00
516.68	44208.04
516.85	44758.06
517.03	44793.17
517.20	44790.83
517.37	44842.32
517.54	44629.34
517.72	44996.80
517.89	45312.77
518.06	45254.26
518.24	45680.24
518.41	45429.80
518.58	45366.60
518.75	45530.44
518.93	45343.20
519.10	45514.06
519.27	45853.44
519.45	45748.11
519.62	45977.48
519.79	46274.73
519.96	46209.20
520.14	46340.27
520.31	46028.98
520.48	46117.92
520.65	46096.85
520.83	46759.22
521.00	46887.95
521.17	46829.44
521.34	46658.58
521.52	46843.48
521.69	46887.95
521.86	47068.17
522.03	47393.51
522.20	47168.82
522.38	47847.57
522.55	47676.71
522.72	47550.32
522.89	47145.41
523.07	47590.11
523.24	47297.55
523.41	47894.38
523.58	47875.66
523.75	48215.04
523.92	47686.07
524.10	48451.43
524.27	48044.18
524.44	48633.99
524.61	48486.54
524.78	48615.27
524.96	48292.27
525.13	48980.39
525.30	48964.01
525.47	49198.06
525.64	48685.48
525.81	49069.33
525.98	49113.80
526.16	49020.18
526.33	49095.08
526.50	49420.41
526.67	49392.33
526.84	49347.86
527.01	49677.87
527.18	49642.76
527.36	49593.61
527.53	49785.54
527.70	49635.74
527.87	50061.72
528.04	49544.46
528.21	50211.51
528.38	49808.94
528.55	50162.36
528.72	50035.97
528.89	50110.87
529.07	50066.40
529.24	49869.79
529.41	50239.60
529.58	50735.79
529.75	50408.12
529.92	50279.39
530.09	50281.73
530.26	50536.85
530.43	50536.85
530.60	50604.72
530.77	50571.96
530.94	50850.48
531.11	50836.44
531.28	51000.27
531.46	50927.72
531.63	50955.80
531.80	51187.52
531.97	51236.67
532.14	51002.61
532.31	51463.70
532.48	51213.26
532.65	51349.01
532.82	51419.23
532.99	51201.56
533.16	51239.01
533.33	51515.19
533.50	51725.84
533.67	51566.68
533.84	51447.32
534.01	51625.20
534.18	51807.76
534.35	52133.09
534.52	51772.65
534.69	51990.32
534.86	52006.70
535.03	51688.39
535.20	52280.55
535.37	52179.90
535.54	52261.82
535.71	52140.11
535.88	52144.80
536.05	52200.97
536.22	52484.17
536.38	52390.55
536.55	52622.26
536.72	52687.80
536.89	52467.79
537.06	52851.64
537.23	52875.04
537.40	52856.32
537.57	52725.25
537.74	52659.71
537.91	52781.42
538.08	52640.99
538.25	52760.36
538.42	52629.29
538.59	53244.85
538.75	52842.27
538.92	53272.93
539.09	53258.89
539.26	53261.23
539.43	53310.38
539.60	53326.77
539.77	53155.91
539.94	53785.51
540.11	53418.05
540.28	53631.04
540.44	53626.35
540.61	53343.15
540.78	53385.28
540.95	53595.93
541.12	53429.75
541.29	53708.27
541.46	53708.27
541.62	54014.88
541.79	54085.10
541.96	53738.70
542.13	53694.23
542.30	53829.98
542.47	54202.13
542.63	53897.86
542.80	54101.48
542.97	54536.82
543.14	54707.68
543.31	54480.65
543.48	54431.50
543.64	54653.85
543.81	54529.80
543.98	54356.60
544.15	54628.10
544.32	54646.83
544.48	54698.32
544.65	54990.89
544.82	54677.25
544.99	54688.96
545.16	54714.70
545.32	54691.30
545.49	54934.71
545.66	55054.08
545.83	55461.33
546.00	55721.13
546.16	55267.07
546.33	55182.81
546.50	55063.44
546.67	55033.02
546.83	54871.52
547.00	55091.53
547.17	54920.67
547.34	55126.64
547.50	55157.06
547.67	55473.04
547.84	55444.95
548.00	55433.25
548.17	55578.36
548.34	55344.31
548.51	55503.46
548.67	55400.48
548.84	55604.11
549.01	55229.62
549.18	55295.16
549.34	55632.19
549.51	55379.42
549.68	55707.09
549.84	55639.22
550.01	55550.27
550.18	55351.33
550.34	55594.74
550.51	56006.68
550.68	55608.79
550.84	55461.33
551.01	55756.24
551.18	55901.36
551.34	55646.24
551.51	55697.73
551.68	55922.42
551.84	55774.97
552.01	55899.01
552.18	55943.48
552.34	56097.96
552.51	56264.14
552.68	55997.32
552.84	56114.34
553.01	56310.95
553.18	56231.37
553.34	56205.62
553.51	56128.39
553.67	56200.94
553.84	56289.88
554.01	56287.54
554.17	56603.52
554.34	56547.34
554.51	56530.96
554.67	56521.60
554.84	56446.70
555.00	56315.63
555.17	56275.84
555.33	56303.93
555.50	56411.59
555.67	56619.90
555.83	56320.31
556.00	56807.14
556.16	56580.11
556.33	56570.75
556.50	56460.74
556.66	56420.95
556.83	56498.19
556.99	56725.22
557.16	56825.87
557.32	57036.51
557.49	56711.18
557.65	56741.61
557.82	56837.57
557.98	56769.69
558.15	56732.25
558.32	56692.46
558.48	56708.84
558.65	57015.45
558.81	56933.53
558.98	56938.21
559.14	56926.51
559.31	57095.03
559.47	56975.66
559.64	57104.39
559.80	56769.69
559.97	57010.77
560.13	57055.24
560.30	56975.66
560.46	57235.46
560.63	57240.14
560.79	57361.85
560.96	57263.55
561.12	57188.65
561.29	56940.55
561.45	57095.03
561.61	57144.18
561.78	57413.34
561.94	57443.77
562.11	57485.90
562.27	57450.79
562.44	57148.86
562.60	57291.63
562.77	57258.87
562.93	57165.24
563.10	57254.18
563.26	57261.21
563.42	57448.45
563.59	57418.02
563.75	57286.95
563.92	57553.77
564.08	57455.47
564.24	57691.86
564.41	57329.08
564.57	57476.54
564.74	57258.87
564.90	57518.67
565.07	57584.20
565.23	57654.42
565.39	57804.21
565.56	57670.80
565.72	57574.84
565.88	57698.89
566.05	57682.50
566.21	57783.15
566.38	57413.34
566.54	57326.74
566.70	58021.88
566.87	57673.14
567.03	57752.72
567.19	58164.65
567.36	57783.15
567.52	57626.33
567.68	57638.03
567.85	57694.21
568.01	57696.55
568.17	57666.12
568.34	57874.43
568.50	57801.87
568.66	57733.99
568.83	57935.28
568.99	57832.30
569.15	57811.23
569.32	58071.03
569.48	57619.31
569.64	57684.84
569.81	57895.49
569.97	57513.98
570.13	57726.97
570.30	57670.80
570.46	57715.27
570.62	57780.81
570.78	57932.94
570.95	57736.34
571.11	57907.19
571.27	57745.70
571.43	57738.68
571.60	57787.83
571.76	57743.36
571.92	57982.09
572.09	58045.29
572.25	58230.19
572.41	58232.53
572.57	57979.75
572.74	57972.73
572.90	57827.62
573.06	58073.37
573.22	57893.15
573.38	58000.82
573.55	58033.58
573.71	58279.34
573.87	58005.50
574.03	57979.75
574.20	58152.95
574.36	58042.95
574.52	58101.46
574.68	58087.42
574.84	58075.71
575.01	57935.28
575.17	58258.27
575.33	58106.14
575.49	58064.01
575.65	58300.40
575.82	58218.49
575.98	57851.02
576.14	58199.76
576.30	58305.09
576.46	58068.69
576.62	58021.88
576.79	58267.64
576.95	58108.48
577.11	58258.27
577.27	58300.40
577.43	58159.97
577.59	58089.76
577.75	58087.42
577.92	58206.78
578.08	58220.83
578.24	58042.95
578.40	58288.70
578.56	58204.44
578.72	58176.36
578.88	58539.14
579.04	58511.05
579.21	58377.64
579.37	58461.90
579.53	58447.86
579.69	58071.03
579.85	58511.05
580.01	58246.57
580.17	58141.25
580.33	58499.35
580.49	58389.34
580.65	58169.33
580.82	58298.06
580.98	58225.51
581.14	58202.10
581.30	58604.67
581.46	58255.93
581.62	58269.98
581.78	58183.38
581.94	58356.58
582.10	58188.06
582.26	58401.05
582.42	58391.68
582.58	58312.11
582.74	58447.86
582.90	58466.58
583.06	58436.16
583.22	58525.10
583.38	58216.14
583.54	58286.36
583.70	58307.43
583.86	58607.01
584.02	58457.22
584.18	58365.94
584.34	58459.56
584.50	58688.93
584.66	58438.50
584.82	58281.68
584.98	58401.05
585.14	58497.01
585.30	58466.58
585.46	58422.11
585.62	58262.96
585.78	58471.26
585.94	58494.67
586.10	58513.39
586.26	58583.61
586.42	58710.00
586.58	58592.97
586.74	58347.21
586.90	58394.03
587.06	58438.50
587.22	58656.17
587.38	58319.13
587.54	58651.48
587.70	58866.81
587.86	58876.18
588.02	58651.48
588.18	58838.73
