SpectraSuite Data File
++++++++++++++++++++++++++++++++++++
Date: Thu Oct 24 13:21:04 EDT 2013
User: stostad
Dark Spectrum Present: No
Reference Spectrum Present: No
Number of Sampled Component Spectra: 1
Spectrometers: USB2+H05261
Integration Time (usec): 100000 (USB2+H05261)
Spectra Averaged: 1 (USB2+H05261)
Boxcar Smoothing: 0 (USB2+H05261)
Correct for Electrical Dark: No (USB2+H05261)
Strobe/Lamp Enabled: No (USB2+H05261)
Correct for Detector Non-linearity: No (USB2+H05261)
Correct for Stray Light: No (USB2+H05261)
Number of Pixels in Processed Spectrum: 2048
>>>>>Begin Processed Spectral Data<<<<<
365.73	592.16
365.92	592.16
366.12	592.16
366.32	463.43
366.52	423.64
366.72	521.94
366.91	484.49
367.11	461.09
367.31	451.72
367.51	498.53
367.70	451.72
367.90	447.04
368.10	482.15
368.30	435.34
368.49	463.43
368.69	526.62
368.89	472.79
369.09	433.00
369.28	477.47
369.48	477.47
369.68	526.62
369.87	500.87
370.07	521.94
370.27	559.39
370.47	557.05
370.66	655.35
370.86	608.54
371.06	718.54
371.25	723.23
371.45	690.46
371.65	739.61
371.84	685.78
372.04	727.91
372.24	767.70
372.44	685.78
372.63	730.25
372.83	753.65
373.03	746.63
373.22	727.91
373.42	788.76
373.62	760.67
373.81	812.17
374.01	748.97
374.21	805.14
374.40	805.14
374.60	772.38
374.79	851.96
374.99	798.12
375.19	821.53
375.38	704.50
375.58	844.93
375.78	868.34
375.97	835.57
376.17	823.87
376.37	833.23
376.56	763.01
376.76	840.25
376.95	723.23
377.15	805.14
377.35	786.42
377.54	800.46
377.74	758.33
377.93	793.44
378.13	842.59
378.33	746.63
378.52	772.38
378.72	908.13
378.91	791.10
379.11	748.97
379.31	814.51
379.50	842.59
379.70	805.14
379.89	800.46
380.09	840.25
380.28	875.36
380.48	828.55
380.68	809.83
380.87	748.97
381.07	866.00
381.26	828.55
381.46	940.90
381.65	870.68
381.85	847.27
382.04	798.12
382.24	851.96
382.43	891.74
382.63	828.55
382.83	866.00
383.02	870.68
383.22	875.36
383.41	812.17
383.61	837.91
383.80	903.45
384.00	833.23
384.19	912.81
384.39	891.74
384.58	833.23
384.78	915.15
384.97	912.81
385.17	919.83
385.36	821.53
385.56	866.00
385.75	875.36
385.95	821.53
386.14	924.51
386.34	931.53
386.53	844.93
386.72	922.17
386.92	868.34
387.11	823.87
387.31	950.26
387.50	875.36
387.70	922.17
387.89	983.02
388.09	994.73
388.28	947.92
388.48	1001.75
388.67	950.26
388.86	940.90
389.06	1006.43
389.25	971.32
389.45	978.34
389.64	919.83
389.84	903.45
390.03	922.17
390.22	954.94
390.42	985.37
390.61	943.24
390.81	919.83
391.00	983.02
391.19	1048.56
391.39	976.00
391.58	940.90
391.78	992.39
391.97	966.64
392.16	987.71
392.36	994.73
392.55	994.73
392.75	1006.43
392.94	971.32
393.13	985.37
393.33	964.30
393.52	952.60
393.71	997.07
393.91	976.00
394.10	945.58
394.29	997.07
394.49	971.32
394.68	1043.88
394.88	966.64
395.07	1011.11
395.26	1025.15
395.46	1029.84
395.65	1006.43
395.84	1015.79
396.04	1156.22
396.23	1114.10
396.42	1104.73
396.62	1041.54
396.81	1046.22
397.00	1034.52
397.19	1093.03
397.39	1107.07
397.58	1097.71
397.77	1071.97
397.97	1046.22
398.16	1139.84
398.35	1107.07
398.55	1064.94
398.74	1083.67
398.93	1064.94
399.12	1050.90
399.32	1170.27
399.51	1109.41
399.70	1121.12
399.90	1137.50
400.09	1116.44
400.28	1214.74
400.47	1238.14
400.67	1167.93
400.86	1111.75
401.05	1186.65
401.24	1111.75
401.44	1156.22
401.63	1174.95
401.82	1132.82
402.01	1179.63
402.21	1172.61
402.40	1254.53
402.59	1242.82
402.78	1203.04
402.97	1200.69
403.17	1217.08
403.36	1226.44
403.55	1170.27
403.74	1303.68
403.93	1418.36
404.13	1261.55
404.32	1392.62
404.51	1348.15
404.70	1343.47
404.89	1226.44
405.09	1336.45
405.28	1284.95
405.47	1334.11
405.66	1270.91
405.85	1324.74
406.05	1324.74
406.24	1275.59
406.43	1320.06
406.62	1376.24
406.81	1409.00
407.00	1432.41
407.20	1444.11
407.39	1343.47
407.58	1401.98
407.77	1439.43
407.96	1343.47
408.15	1401.98
408.34	1380.92
408.54	1430.07
408.73	1352.83
408.92	1409.00
409.11	1502.62
409.30	1493.26
409.49	1448.79
409.68	1465.18
409.87	1460.49
410.07	1444.11
410.26	1451.13
410.45	1448.79
410.64	1472.20
410.83	1441.77
411.02	1589.22
411.21	1565.82
411.40	1486.24
411.59	1504.96
411.78	1551.78
411.98	1458.15
412.17	1575.18
412.36	1591.56
412.55	1647.74
412.74	1610.29
412.93	1640.72
413.12	1654.76
413.31	1638.38
413.50	1603.27
413.69	1678.16
413.88	1729.66
414.07	1729.66
414.26	1703.91
414.45	1661.78
414.64	1729.66
414.83	1720.29
415.02	1743.70
415.22	1769.44
415.41	1746.04
415.60	1792.85
415.79	1809.23
415.98	1839.66
416.17	1792.85
416.36	1764.76
416.55	1832.64
416.74	1926.26
416.93	1961.37
417.12	1891.15
417.31	1923.92
417.50	1837.32
417.69	1834.98
417.88	1923.92
418.07	1811.57
418.26	1860.73
418.45	1834.98
418.64	1851.36
418.83	1900.52
419.02	1881.79
419.21	1860.73
419.39	1907.54
419.58	1919.24
419.77	1949.67
419.96	1961.37
420.15	1959.03
420.34	1956.69
420.53	1975.41
420.72	2069.03
420.91	1902.86
421.10	1984.77
421.29	1989.46
421.48	2071.37
421.67	2019.88
421.86	2043.29
422.05	2050.31
422.24	2029.24
422.43	2101.80
422.61	2092.44
422.80	2139.25
422.99	2080.74
423.18	2059.67
423.37	2157.97
423.56	2113.50
423.75	2087.76
423.94	1980.09
424.13	2026.90
424.32	2026.90
424.50	2045.63
424.69	2200.10
424.88	2054.99
425.07	2062.01
425.26	2108.82
425.45	2134.57
425.64	2003.50
425.83	2052.65
426.01	2209.47
426.20	2139.25
426.39	2148.61
426.58	2101.80
426.77	1989.46
426.96	2141.59
427.15	2139.25
427.33	2153.29
427.52	2148.61
427.71	2204.78
427.90	2111.16
428.09	2174.36
428.28	2113.50
428.46	2272.66
428.65	2183.72
428.84	2275.00
429.03	2218.83
429.22	2162.66
429.40	2225.85
429.59	2150.95
429.78	2232.87
429.97	2246.91
430.16	2181.38
430.34	2228.19
430.53	2286.70
430.72	2307.77
430.91	2289.04
431.10	2324.15
431.28	2366.28
431.47	2284.36
431.66	2251.60
431.85	2319.47
432.03	2340.54
432.22	2352.24
432.41	2375.64
432.60	2352.24
432.79	2413.09
432.97	2394.37
433.16	2314.79
433.35	2368.62
433.54	2511.39
433.72	2377.98
433.91	2471.61
434.10	2457.56
434.28	2420.11
434.47	2438.84
434.66	2448.20
434.85	2586.29
435.03	2619.06
435.22	2759.49
435.41	2981.84
435.59	2801.62
435.78	2761.83
435.97	2726.72
436.16	2703.32
436.34	2558.21
436.53	2607.36
436.72	2696.30
436.90	2602.68
437.09	2597.99
437.28	2511.39
437.46	2546.50
437.65	2476.29
437.84	2640.12
438.02	2600.34
438.21	2703.32
438.40	2581.61
438.58	2672.89
438.77	2661.19
438.96	2719.70
439.14	2719.70
439.33	2815.66
439.52	2799.28
439.70	2796.94
439.89	2757.15
440.08	2663.53
440.26	2850.77
440.45	2878.86
440.63	2850.77
440.82	2871.84
441.01	2766.51
441.19	3000.57
441.38	2949.08
441.57	2902.26
441.75	3002.91
441.94	3110.57
442.12	2867.16
442.31	3066.10
442.50	3054.40
442.68	3012.27
442.87	2986.52
443.05	3108.23
443.24	3021.63
443.43	3073.12
443.61	2935.03
443.80	3047.38
443.98	2935.03
444.17	2979.50
444.35	3180.79
444.54	3084.83
444.73	3056.74
444.91	3061.42
445.10	3070.78
445.28	3234.62
445.47	2979.50
445.65	3080.14
445.84	3108.23
446.02	3164.40
446.21	3068.44
446.39	3026.31
446.58	3192.49
446.77	3068.44
446.95	3080.14
447.14	3274.41
447.32	3164.40
447.51	3201.85
447.69	3117.59
447.88	3021.63
448.06	3084.83
448.25	3155.04
448.43	2960.78
448.62	3204.19
448.80	3267.39
448.99	3124.62
449.17	3145.68
449.36	3208.87
449.54	3290.79
449.73	3211.22
449.91	3243.98
450.10	3253.34
450.28	3295.47
450.46	3363.35
450.65	3300.16
450.83	3393.78
451.02	3356.33
451.20	3384.41
451.39	3398.46
451.57	3428.88
451.76	3300.16
451.94	3389.10
452.13	3480.38
452.31	3391.44
452.49	3496.76
452.68	3349.31
452.86	3328.24
453.05	3396.12
453.23	3449.95
453.42	3506.12
453.60	3433.57
453.78	3475.70
453.97	3321.22
454.15	3445.27
454.34	3393.78
454.52	3522.51
454.70	3478.04
454.89	3515.48
455.07	3456.97
455.26	3552.93
455.44	3499.10
455.62	3552.93
455.81	3508.46
455.99	3597.40
456.17	3496.76
456.36	3630.17
456.54	3637.19
456.73	3786.99
456.91	3714.43
457.09	3667.62
457.28	3786.99
457.46	3611.45
457.64	3847.84
457.83	3679.32
458.01	3651.24
458.19	3838.48
458.38	3667.62
458.56	3749.54
458.74	3777.62
458.93	3758.90
459.11	3889.97
459.29	3768.26
459.48	3840.82
459.66	3859.54
459.84	3948.48
460.03	3992.95
460.21	3803.37
460.39	3964.87
460.57	3871.25
460.76	4042.11
460.94	3868.91
461.12	3981.25
461.31	4021.04
461.49	3929.76
461.67	3796.35
461.85	4072.53
462.04	3885.29
462.22	4273.82
462.40	4135.73
462.59	4002.32
462.77	3990.61
462.95	4046.79
463.13	3974.23
463.32	4201.26
463.50	4032.74
463.68	4203.60
463.86	4187.22
464.05	4145.09
464.23	3995.29
464.41	4173.18
464.59	4023.38
464.78	4250.41
464.96	4002.32
465.14	4142.75
465.32	4149.77
465.50	4163.81
465.69	4271.48
465.87	4236.37
466.05	4231.69
466.23	4173.18
466.41	4114.66
466.60	4238.71
466.78	4229.35
466.96	4175.52
467.14	4250.41
467.32	4159.13
467.51	4313.61
467.69	4098.28
467.87	4318.29
468.05	4388.50
468.23	4318.29
468.41	4280.84
468.60	4341.69
468.78	4432.97
468.96	4344.03
469.14	4393.19
469.32	4507.87
469.50	4287.86
469.69	4337.01
469.87	4456.38
470.05	4603.83
470.23	4484.47
470.41	4528.94
470.59	4629.58
470.77	4610.86
470.95	4531.28
471.14	4580.43
471.32	4599.15
471.50	4542.98
471.68	4660.01
471.86	4578.09
472.04	4650.64
472.22	4741.93
472.40	4674.05
472.58	4704.48
472.77	4521.92
472.95	4716.18
473.13	4964.28
473.31	4800.44
473.49	4844.91
473.67	4695.11
473.85	4762.99
474.03	4919.81
474.21	4938.53
474.39	4957.25
474.57	4889.38
474.75	5015.77
474.93	5013.43
475.12	5074.28
475.30	5064.92
475.48	5004.07
475.66	5039.17
475.84	5174.92
476.02	5198.33
476.20	5128.11
476.38	5242.80
476.56	5301.31
476.74	5242.80
476.92	5345.78
477.10	5221.74
477.28	5472.17
477.46	5472.17
477.64	5343.44
477.82	5490.90
478.00	5488.56
478.18	5586.86
478.36	5509.62
478.54	5713.25
478.72	5586.86
478.90	5743.67
479.08	5776.44
479.26	5858.36
479.44	5706.23
479.62	5893.47
479.80	5951.98
479.98	5947.30
480.16	6017.52
480.34	6106.46
480.52	6080.71
480.70	6083.05
480.88	5846.66
481.06	6080.71
481.24	6125.18
481.41	6153.27
481.59	6232.85
481.77	6356.90
481.95	6267.95
482.13	6396.68
482.31	6441.15
482.49	6726.70
482.67	6469.24
482.85	6534.78
483.03	6644.78
483.21	6719.68
483.39	6661.16
483.57	6707.98
483.74	6820.32
483.92	6803.94
484.10	6874.15
484.28	7103.53
484.46	6960.75
484.64	7119.91
484.82	7059.06
485.00	7023.95
485.18	7227.57
485.35	7290.77
485.53	7199.49
485.71	7220.55
485.89	7564.61
486.07	7372.69
486.25	7440.56
486.43	7478.01
486.61	7569.29
486.78	7812.71
486.96	7665.25
487.14	7793.98
487.32	7581.00
487.50	7899.31
487.68	8049.10
487.85	7887.61
488.03	8180.17
488.21	8006.97
488.39	8243.37
488.57	8042.08
488.75	8234.00
488.92	8306.56
489.10	8348.69
489.28	8432.95
489.46	8379.12
489.64	8388.48
489.81	8681.05
489.99	8524.23
490.17	8819.14
490.35	8685.73
490.53	8606.15
490.70	8718.50
490.88	8805.10
491.06	9156.18
491.24	8992.34
491.41	8929.14
491.59	9015.74
491.77	9137.45
491.95	9179.58
492.13	9380.87
492.30	9043.83
492.48	9486.19
492.66	9259.16
492.84	9280.22
493.01	9650.03
493.19	9497.89
493.37	9570.45
493.54	9589.17
493.72	9760.03
493.90	9792.80
494.08	9666.41
494.25	9664.07
494.43	9776.42
494.61	9942.60
494.79	9944.94
494.96	9958.98
495.14	9984.73
495.32	10106.43
495.49	10296.02
495.67	10162.61
495.85	10099.41
496.02	10253.89
496.20	10349.85
496.38	10562.84
496.55	10225.80
496.73	10621.35
496.91	10726.68
497.09	10885.83
497.26	10689.23
497.44	10616.67
497.62	10726.68
497.79	10696.25
497.97	10693.91
498.14	10860.09
498.32	11173.72
498.50	11080.10
498.67	10911.58
498.85	11119.89
499.03	11131.59
499.20	11105.84
499.38	11236.91
499.56	11157.33
499.73	11386.71
499.91	11290.74
500.08	11473.31
500.26	11197.12
500.44	11246.27
500.61	11342.24
500.79	11447.56
500.97	11604.38
501.14	11878.22
501.32	11609.06
501.49	11630.12
501.67	11683.95
501.84	11599.70
502.02	11723.74
502.20	11782.26
502.37	11997.59
502.55	11700.34
502.72	11606.72
502.90	11868.86
503.07	11852.47
503.25	11981.20
503.43	11927.37
503.60	12140.36
503.78	12191.85
503.95	12231.64
504.13	12184.83
504.30	12070.14
504.48	12322.92
504.65	12489.10
504.83	12404.84
505.01	12358.03
505.18	12463.35
505.36	12500.80
505.53	12592.08
505.71	12327.60
505.88	12449.31
506.06	12458.67
506.23	12676.34
506.41	12699.75
506.58	12697.41
506.76	12734.85
506.93	12847.20
507.11	12809.75
507.28	12697.41
507.46	12716.13
507.63	12924.44
507.81	12938.48
507.98	12798.05
508.16	12772.30
508.33	13191.26
508.50	13018.06
508.68	13291.90
508.85	13254.45
509.03	13142.11
509.20	13172.54
509.38	13268.50
509.55	13319.99
509.73	13247.43
509.90	13437.02
510.08	13373.82
510.25	13652.34
510.42	13214.66
510.60	13376.16
510.77	13645.32
510.95	13556.38
511.12	13657.03
511.30	13514.25
511.47	13624.26
511.64	13837.25
511.82	13797.46
511.99	13872.36
512.17	13694.47
512.34	13970.66
512.51	13783.41
512.69	14108.75
512.86	14153.22
513.04	14057.26
513.21	13659.37
513.38	13996.40
513.56	14118.11
513.73	14286.63
513.90	14155.56
514.08	13902.78
514.25	14246.84
514.43	14216.41
514.60	14228.12
514.77	14185.99
514.95	14225.78
515.12	14452.81
515.29	14480.89
515.47	14471.53
515.64	14466.85
515.81	14513.66
515.99	14567.49
516.16	14560.47
516.33	14565.15
516.51	14630.69
516.68	14623.67
516.85	14604.94
517.03	14703.25
517.20	14670.48
517.37	14635.37
517.54	14871.76
517.72	14951.34
517.89	14843.68
518.06	15012.20
518.24	14733.67
518.41	14939.64
518.58	15176.03
518.75	14895.17
518.93	15176.03
519.10	15063.69
519.27	14855.38
519.45	15208.80
519.62	15208.80
519.79	15014.54
519.96	15098.80
520.14	15133.90
520.31	15330.51
520.48	15372.64
520.65	15253.27
520.83	15695.63
521.00	15719.04
521.17	15211.14
521.34	15688.61
521.52	15482.64
521.69	15550.52
521.86	15356.25
522.03	15555.20
522.20	15632.44
522.38	15786.91
522.55	15606.69
522.72	15543.50
522.89	15826.70
523.07	15728.40
523.24	15880.53
523.41	15871.17
523.58	15906.28
523.75	15943.73
523.92	15936.71
524.10	15976.50
524.27	16086.50
524.44	16027.99
524.61	16119.27
524.78	16095.86
524.96	16362.69
525.13	16201.19
525.30	16510.14
525.47	16187.14
525.64	16313.53
525.81	16271.40
525.98	16196.51
526.16	16208.21
526.33	16390.77
526.50	16252.68
526.67	16343.96
526.84	16395.45
527.01	16374.39
527.18	16259.70
527.36	16458.65
527.53	16294.81
527.70	16898.67
527.87	16587.38
528.04	16423.54
528.21	16702.06
528.38	16819.09
528.55	16760.58
528.72	16746.53
528.89	16517.16
529.07	16470.35
529.24	16528.86
529.41	16875.26
529.58	16968.88
529.75	16725.47
529.92	16978.25
530.09	16664.61
530.26	16652.91
530.43	16837.81
530.60	16683.34
530.77	16938.46
530.94	17053.14
531.11	16980.59
531.28	17097.61
531.46	17149.11
531.63	17303.58
531.80	16908.03
531.97	16898.67
532.14	17151.45
532.31	16833.13
532.48	17291.88
532.65	17535.29
532.82	17261.45
532.99	17352.73
533.16	17413.59
533.33	17352.73
533.50	17532.95
533.67	17261.45
533.84	16950.16
534.01	17219.32
534.18	17418.27
534.35	17479.12
534.52	17357.41
534.69	17605.51
534.86	17401.88
535.03	17224.00
535.20	17331.67
535.37	17483.80
535.54	17762.33
535.71	17877.01
535.88	17764.67
536.05	17675.73
536.22	17839.56
536.38	17619.55
536.55	17848.93
536.72	17991.70
536.89	17788.07
537.06	17891.06
537.23	18094.68
537.40	17781.05
537.57	18031.49
537.74	17762.33
537.91	17902.76
538.08	17844.24
538.25	17792.75
538.42	17811.48
538.59	18218.73
538.75	17872.33
538.92	18052.55
539.09	18141.49
539.26	17806.80
539.43	17923.82
539.60	18043.19
539.77	18040.85
539.94	18530.02
540.11	18384.91
540.28	18401.29
540.44	18324.05
540.61	18361.50
540.78	18560.45
540.95	18382.57
541.12	18370.86
541.29	18445.76
541.46	18920.89
541.62	18640.03
541.79	18799.18
541.96	18677.48
542.13	18696.20
542.30	19131.54
542.47	18930.25
542.63	19318.78
542.80	19496.66
542.97	18979.40
543.14	19339.85
543.31	19066.00
543.48	19096.43
543.64	19068.34
543.81	19183.03
543.98	19115.16
544.15	19019.19
544.32	19239.20
544.48	19344.53
544.65	18988.77
544.82	19042.60
544.99	19264.95
545.16	19037.92
545.32	19335.17
545.49	19730.72
545.66	19758.80
545.83	20152.01
546.00	20287.76
546.16	20018.60
546.33	19522.41
546.50	19227.50
546.67	19536.45
546.83	19227.50
547.00	19110.47
547.17	19173.67
547.34	19286.01
547.50	19304.74
547.67	19562.20
547.84	19211.12
548.00	19510.71
548.17	19414.74
548.34	19545.81
548.51	19410.06
548.67	19466.24
548.84	19566.88
549.01	18946.64
549.18	19506.02
549.34	19257.93
549.51	19836.04
549.68	19527.09
549.84	19632.41
550.01	19330.48
550.18	19403.04
550.34	19466.24
550.51	19381.98
550.68	19768.16
550.84	19234.52
551.01	19396.02
551.18	19484.96
551.34	19611.35
551.51	19307.08
551.68	19393.68
551.84	19236.86
552.01	19283.67
552.18	19793.91
552.34	19580.92
552.51	19885.19
552.68	19583.26
552.84	19740.08
553.01	19735.40
553.18	19524.75
553.34	19920.30
553.51	19473.26
553.67	19789.23
553.84	19754.12
554.01	19683.91
554.17	19667.52
554.34	19580.92
554.51	19616.03
554.67	19644.12
554.84	20051.37
555.00	19475.60
555.17	19295.38
555.33	19578.58
555.50	20044.35
555.67	19777.53
555.83	19857.10
556.00	19761.14
556.16	19894.55
556.33	20065.41
556.50	19789.23
556.66	19754.12
556.83	19775.19
556.99	20112.22
557.16	20077.12
557.32	19896.89
557.49	20020.94
557.65	19868.81
557.82	19894.55
557.98	19711.99
558.15	19646.46
558.32	19962.43
558.48	19974.13
558.65	20229.25
558.81	19976.47
558.98	19901.58
559.14	20245.63
559.31	20037.33
559.47	20126.27
559.64	20163.72
559.80	20175.42
559.97	20512.46
560.13	19978.81
560.30	19728.38
560.46	19740.08
560.63	20060.73
560.79	20201.16
560.96	19861.79
561.12	19829.02
561.29	19768.16
561.45	19824.34
561.61	19964.77
561.78	20311.17
561.94	20561.61
562.11	20695.02
562.27	20418.83
562.44	20568.63
562.60	20154.35
562.77	20280.74
562.93	20168.40
563.10	20156.69
563.26	19983.49
563.42	20327.55
563.59	20460.96
563.75	20360.32
563.92	20538.20
564.08	20292.44
564.24	20325.21
564.41	20592.03
564.57	20362.66
564.74	20077.12
564.90	20444.58
565.07	20503.09
565.23	20428.20
565.39	20070.09
565.56	20365.00
565.72	20463.30
565.88	20538.20
566.05	20526.50
566.21	20329.89
566.38	20123.93
566.54	20170.74
566.70	20428.20
566.87	20788.64
567.03	20563.95
567.19	20570.97
567.36	20535.86
567.52	20350.96
567.68	20299.47
567.85	20318.19
568.01	20407.13
568.17	20446.92
568.34	20259.68
568.50	20329.89
568.66	20776.94
568.83	20809.70
568.99	20608.42
569.15	20648.21
569.32	20152.01
569.48	20444.58
569.64	20648.21
569.81	20517.14
569.97	19927.32
570.13	20166.06
570.30	20327.55
570.46	20514.80
570.62	20711.40
570.78	20638.84
570.95	20266.70
571.11	20727.78
571.27	20266.70
571.43	20505.43
571.60	20706.72
571.76	20477.35
571.92	20666.93
572.09	20460.96
572.25	20727.78
572.41	20915.03
572.57	20989.92
572.74	21001.63
572.90	20374.36
573.06	21015.67
573.22	20786.30
573.38	20460.96
573.55	20575.65
573.71	20748.85
573.87	20498.41
574.03	20657.57
574.20	20849.49
574.36	20774.60
574.52	20697.36
574.68	20432.88
574.84	20737.15
575.01	20936.09
575.17	20716.08
575.33	20482.03
575.49	20575.65
575.65	20748.85
575.82	20844.81
575.98	20868.22
576.14	20940.77
576.30	20491.39
576.46	20730.12
576.62	20683.31
576.79	20783.96
576.95	20865.88
577.11	20631.82
577.27	20755.87
577.43	20739.49
577.59	20790.98
577.75	20643.52
577.92	20769.91
578.08	20776.94
578.24	20489.05
578.40	20851.83
578.56	20915.03
578.72	20702.04
578.88	21221.64
579.04	20603.74
579.21	20526.50
579.37	20585.01
579.53	21006.31
579.69	20688.00
579.85	20854.17
580.01	20842.47
580.17	20980.56
580.33	21008.65
580.49	20585.01
580.65	20460.96
580.82	20629.48
580.98	20409.47
581.14	20805.02
581.30	20636.50
581.46	20589.69
581.62	20648.21
581.78	20528.84
581.94	20767.57
582.10	20762.89
582.26	20847.15
582.42	21331.64
582.58	20999.29
582.74	20648.21
582.90	21125.68
583.06	20898.64
583.22	20938.43
583.38	20943.11
583.54	20449.26
583.70	20718.42
583.86	21001.63
584.02	20945.45
584.18	20922.05
584.34	20858.85
584.50	20723.10
584.66	20854.17
584.82	20746.51
584.98	21137.38
585.14	20809.70
585.30	20819.07
585.46	20973.54
585.62	20582.67
585.78	20996.95
585.94	20842.47
586.10	20795.66
586.26	20648.21
586.42	21050.78
586.58	20624.80
586.74	20966.52
586.90	21060.14
587.06	20896.30
587.22	21060.14
587.38	20893.96
587.54	21102.27
587.70	21355.05
587.86	20938.43
588.02	20826.09
588.18	21207.59
588.34	20828.43
588.49	21172.49
588.65	21029.71
588.81	20936.09
588.97	20805.02
589.13	21088.23
589.29	20985.24
589.45	20996.95
589.61	21062.48
589.77	21076.52
589.93	21130.36
590.08	21291.85
590.24	20985.24
590.40	21106.95
590.56	20886.94
590.72	20821.41
590.88	20800.34
591.04	21275.47
591.20	20671.61
591.35	20840.13
