SpectraSuite Data File
++++++++++++++++++++++++++++++++++++
Date: Thu Oct 24 13:21:10 EDT 2013
User: stostad
Dark Spectrum Present: No
Reference Spectrum Present: No
Number of Sampled Component Spectra: 1
Spectrometers: USB2+H05261
Integration Time (usec): 100000 (USB2+H05261)
Spectra Averaged: 1 (USB2+H05261)
Boxcar Smoothing: 0 (USB2+H05261)
Correct for Electrical Dark: No (USB2+H05261)
Strobe/Lamp Enabled: No (USB2+H05261)
Correct for Detector Non-linearity: No (USB2+H05261)
Correct for Stray Light: No (USB2+H05261)
Number of Pixels in Processed Spectrum: 2048
>>>>>Begin Processed Spectral Data<<<<<
365.73	545.34
365.92	545.34
366.12	545.34
366.32	484.49
366.52	468.11
366.72	517.26
366.91	475.13
367.11	444.70
367.31	444.70
367.51	498.53
367.70	423.64
367.90	463.43
368.10	510.24
368.30	454.06
368.49	442.36
368.69	510.24
368.89	425.98
369.09	465.77
369.28	461.09
369.48	500.87
369.68	517.26
369.87	538.32
370.07	514.92
370.27	585.13
370.47	587.47
370.66	681.10
370.86	720.88
371.06	709.18
371.25	746.63
371.45	660.03
371.65	800.46
371.84	777.06
372.04	765.36
372.24	793.44
372.44	779.40
372.63	795.78
372.83	765.36
373.03	669.39
373.22	840.25
373.42	819.19
373.62	802.80
373.81	791.10
374.01	858.98
374.21	767.70
374.40	854.30
374.60	870.68
374.79	828.55
374.99	788.76
375.19	847.27
375.38	784.08
375.58	823.87
375.78	870.68
375.97	833.23
376.17	884.72
376.37	896.43
376.56	889.40
376.76	779.40
376.95	847.27
377.15	835.57
377.35	842.59
377.54	854.30
377.74	819.19
377.93	898.77
378.13	870.68
378.33	919.83
378.52	833.23
378.72	910.47
378.91	905.79
379.11	868.34
379.31	809.83
379.50	840.25
379.70	866.00
379.89	978.34
380.09	875.36
380.28	887.06
380.48	917.49
380.68	910.47
380.87	889.40
381.07	863.66
381.26	905.79
381.46	947.92
381.65	971.32
381.85	926.85
382.04	950.26
382.24	854.30
382.43	894.08
382.63	905.79
382.83	842.59
383.02	940.90
383.22	950.26
383.41	915.15
383.61	954.94
383.80	809.83
384.00	866.00
384.19	889.40
384.39	943.24
384.58	882.38
384.78	997.07
384.97	915.15
385.17	905.79
385.36	910.47
385.56	990.05
385.75	929.19
385.95	922.17
386.14	997.07
386.34	980.68
386.53	968.98
386.72	952.60
386.92	966.64
387.11	966.64
387.31	947.92
387.50	929.19
387.70	961.96
387.89	971.32
388.09	924.51
388.28	957.28
388.48	985.37
388.67	1036.86
388.86	964.30
389.06	961.96
389.25	973.66
389.45	994.73
389.64	1025.15
389.84	971.32
390.03	1015.79
390.22	987.71
390.42	929.19
390.61	966.64
390.81	1095.37
391.00	1025.15
391.19	1071.97
391.39	990.05
391.58	1011.11
391.78	1032.18
391.97	1076.65
392.16	1055.58
392.36	1069.62
392.55	1053.24
392.75	1088.35
392.94	1081.33
393.13	1135.16
393.33	1081.33
393.52	1083.67
393.71	1135.16
393.91	1095.37
394.10	1027.50
394.29	1095.37
394.49	1039.20
394.68	1128.14
394.88	1078.99
395.07	1121.12
395.26	1032.18
395.46	1121.12
395.65	1057.92
395.84	1118.78
396.04	1107.07
396.23	1095.37
396.42	1205.38
396.62	1203.04
396.81	1198.35
397.00	1165.59
397.19	1186.65
397.39	1153.88
397.58	1198.35
397.77	1212.40
397.97	1184.31
398.16	1205.38
398.35	1212.40
398.55	1184.31
398.74	1242.82
398.93	1329.42
399.12	1226.44
399.32	1266.23
399.51	1289.64
399.70	1242.82
399.90	1296.66
400.09	1268.57
400.28	1315.38
400.47	1203.04
400.67	1256.87
400.86	1270.91
401.05	1308.36
401.24	1352.83
401.44	1336.45
401.63	1390.28
401.82	1280.27
402.01	1277.93
402.21	1313.04
402.40	1371.55
402.59	1369.21
402.78	1315.38
402.97	1327.08
403.17	1252.19
403.36	1324.74
403.55	1315.38
403.74	1369.21
403.93	1504.96
404.13	1572.84
404.32	1495.60
404.51	1392.62
404.70	1481.56
404.89	1465.18
405.09	1474.54
405.28	1430.07
405.47	1343.47
405.66	1502.62
405.85	1521.35
406.05	1537.73
406.24	1474.54
406.43	1650.08
406.62	1493.26
406.81	1547.09
407.00	1423.05
407.20	1469.86
407.39	1544.75
407.58	1533.05
407.77	1570.50
407.96	1624.33
408.15	1547.09
408.34	1572.84
408.54	1661.78
408.73	1483.90
408.92	1596.25
409.11	1631.35
409.30	1659.44
409.49	1640.72
409.68	1636.03
409.87	1633.69
410.07	1743.70
410.26	1722.63
410.45	1741.36
410.64	1689.87
410.83	1591.56
411.02	1696.89
411.21	1837.32
411.40	1748.38
411.59	1753.06
411.78	1671.14
411.98	1762.42
412.17	1914.56
412.36	1846.68
412.55	1804.55
412.74	1865.41
412.93	1837.32
413.12	1799.87
413.31	1954.35
413.50	1940.30
413.69	2012.86
413.88	1980.09
414.07	1944.99
414.26	1914.56
414.45	1966.05
414.64	2054.99
414.83	1982.43
415.02	1933.28
415.22	2071.37
415.41	1982.43
415.60	2054.99
415.79	2047.97
415.98	2015.20
416.17	2083.08
416.36	2115.84
416.55	2092.44
416.74	2113.50
416.93	2148.61
417.12	2209.47
417.31	2134.57
417.50	2129.89
417.69	2249.25
417.88	2146.27
418.07	2225.85
418.26	2244.57
418.45	2193.08
418.64	2282.02
418.83	2251.60
419.02	2298.41
419.21	2251.60
419.39	2270.32
419.58	2237.55
419.77	2305.43
419.96	2331.17
420.15	2335.85
420.34	2333.51
420.53	2366.28
420.72	2363.94
420.91	2359.26
421.10	2354.58
421.29	2452.88
421.48	2317.13
421.67	2417.77
421.86	2410.75
422.05	2347.56
422.24	2349.90
422.43	2422.45
422.61	2485.65
422.80	2506.71
422.99	2403.73
423.18	2380.32
423.37	2478.63
423.56	2473.95
423.75	2525.44
423.94	2373.30
424.13	2275.00
424.32	2300.75
424.50	2438.84
424.69	2417.77
424.88	2441.18
425.07	2504.37
425.26	2537.14
425.45	2492.67
425.64	2513.74
425.83	2441.18
426.01	2438.84
426.20	2483.31
426.39	2448.20
426.58	2497.35
426.77	2623.74
426.96	2621.40
427.15	2448.20
427.33	2502.03
427.52	2546.50
427.71	2607.36
427.90	2665.87
428.09	2572.25
428.28	2520.76
428.46	2661.19
428.65	2541.82
428.84	2642.46
429.03	2724.38
429.22	2649.49
429.40	2647.15
429.59	2724.38
429.78	2614.38
429.97	2602.68
430.16	2703.32
430.34	2698.64
430.53	2668.21
430.72	2693.96
430.91	2832.05
431.10	2672.89
431.28	2839.07
431.47	2867.16
431.66	2829.71
431.85	2757.15
432.03	2752.47
432.22	2902.26
432.41	2810.98
432.60	2897.58
432.79	2839.07
432.97	2906.95
433.16	2920.99
433.35	2942.05
433.54	2864.82
433.72	2862.48
433.91	2846.09
434.10	2967.80
434.28	2808.64
434.47	3007.59
434.66	3012.27
434.85	3007.59
435.03	3098.87
435.22	3241.64
435.41	3538.89
435.59	3307.18
435.78	3286.11
435.97	3229.94
436.16	3192.49
436.34	3094.19
436.53	3070.78
436.72	3073.12
436.90	2998.23
437.09	3021.63
437.28	2995.89
437.46	2998.23
437.65	3234.62
437.84	3253.34
438.02	3171.43
438.21	3035.67
438.40	3131.64
438.58	3253.34
438.77	3131.64
438.96	3241.64
439.14	3307.18
439.33	3361.01
439.52	3325.90
439.70	3330.58
439.89	3377.39
440.08	3442.93
440.26	3321.22
440.45	3297.81
440.63	3368.03
440.82	3459.31
441.01	3466.33
441.19	3332.92
441.38	3438.25
441.57	3487.40
441.75	3574.00
441.94	3588.04
442.12	3616.13
442.31	3576.34
442.50	3545.91
442.68	3569.32
442.87	3597.40
443.05	3623.15
443.24	3733.15
443.43	3758.90
443.61	3714.43
443.80	3779.97
443.98	3620.81
444.17	3658.26
444.35	3758.90
444.54	3772.94
444.73	3726.13
444.91	3761.24
445.10	3838.48
445.28	3819.75
445.47	3730.81
445.65	3796.35
445.84	3749.54
446.02	4018.70
446.21	3798.69
446.39	3765.92
446.58	3873.59
446.77	3770.60
446.95	3655.92
447.14	3819.75
447.32	3723.79
447.51	3782.31
447.69	3868.91
447.88	3791.67
448.06	3892.31
448.25	3831.46
448.43	3779.97
448.62	3911.04
448.80	3873.59
448.99	3962.53
449.17	3878.27
449.36	3695.71
449.54	3843.16
449.73	4021.04
449.91	4037.42
450.10	3983.59
450.28	4039.76
450.46	4124.02
450.65	4023.38
450.83	3990.61
451.02	4058.49
451.20	4063.17
451.39	3901.67
451.57	3992.95
451.76	4081.89
451.94	3967.21
452.13	4121.68
452.31	4021.04
452.49	4166.15
452.68	4124.02
452.86	4032.74
453.05	4051.47
453.23	4140.41
453.42	4184.88
453.60	4058.49
453.78	4306.59
453.97	4229.35
454.15	4152.11
454.34	4285.52
454.52	4329.99
454.70	4219.99
454.89	4322.97
455.07	4290.20
455.26	4409.57
455.44	4379.14
455.62	4287.86
455.81	4229.35
455.99	4318.29
456.17	4306.59
456.36	4407.23
456.54	4561.70
456.73	4400.21
456.91	4655.33
457.09	4503.19
457.28	4470.42
457.46	4517.23
457.64	4648.30
457.83	4552.34
458.01	4634.26
458.19	4718.52
458.38	4559.36
458.56	4636.60
458.74	4535.96
458.93	4648.30
459.11	4697.46
459.29	4744.27
459.48	4559.36
459.66	4636.60
459.84	4730.22
460.03	4842.57
460.21	4748.95
460.39	4725.54
460.57	4926.83
460.76	4896.40
460.94	4997.04
461.12	4774.69
461.31	4938.53
461.49	4655.33
461.67	4851.93
461.85	4910.44
462.04	5022.79
462.22	5313.02
462.40	4947.89
462.59	4947.89
462.77	4889.38
462.95	4943.21
463.13	4880.02
463.32	5078.96
463.50	5107.05
463.68	5207.69
463.86	5217.05
464.05	4959.60
464.23	4931.51
464.41	5060.24
464.59	5043.85
464.78	5191.31
464.96	5004.07
465.14	5069.60
465.32	5104.71
465.50	5069.60
465.69	5181.95
465.87	5078.96
466.05	5142.16
466.23	5210.03
466.41	5149.18
466.60	5399.62
466.78	5188.97
466.96	5350.46
467.14	5371.53
467.32	5181.95
467.51	5322.38
467.69	4997.04
467.87	5235.78
468.05	5359.83
468.23	5242.80
468.41	5261.52
468.60	5242.80
468.78	5191.31
468.96	5256.84
469.14	5458.13
469.32	5504.94
469.50	5308.34
469.69	5369.19
469.87	5736.65
470.05	5490.90
470.23	5626.65
470.41	5474.51
470.59	5731.97
470.77	5481.53
470.95	5593.88
471.14	5636.01
471.32	5671.12
471.50	5607.92
471.68	5748.36
471.86	5710.91
472.04	5666.44
472.22	5809.21
472.40	5715.59
472.58	5748.36
472.77	5783.46
472.95	5809.21
473.13	6061.99
473.31	5942.62
473.49	5886.45
473.67	5987.09
473.85	5973.05
474.03	5954.32
474.21	6104.12
474.39	6036.24
474.57	6258.59
474.75	6024.54
474.93	6153.27
475.12	6300.72
475.30	6237.53
475.48	6277.32
475.66	6249.23
475.84	6305.40
476.02	6356.90
476.20	6347.53
476.38	6569.88
476.56	6628.40
476.74	6373.28
476.92	6532.44
477.10	6546.48
477.28	6729.04
477.46	6497.33
477.64	6782.87
477.82	6806.28
478.00	6857.77
478.18	6764.15
478.36	6904.58
478.54	6857.77
478.72	7019.27
478.90	7016.93
479.08	7307.15
479.26	7087.14
479.44	7267.36
479.62	7225.23
479.80	7321.20
479.98	7466.31
480.16	7452.27
480.34	7482.69
480.52	7564.61
480.70	7665.25
480.88	7428.86
481.06	7595.04
481.24	7723.77
481.41	7719.09
481.59	7864.20
481.77	7726.11
481.95	7868.88
482.13	7801.01
482.31	7831.43
482.49	8037.40
482.67	8145.06
482.85	8243.37
483.03	8184.85
483.21	8341.67
483.39	8458.70
483.57	8369.76
483.74	8383.80
483.92	8585.08
484.10	8554.66
484.28	8568.70
484.46	8814.46
484.64	8898.72
484.82	8697.43
485.00	8954.89
485.18	9022.77
485.35	9137.45
485.53	9214.69
485.71	9174.90
485.89	9125.75
486.07	9364.48
486.25	9205.33
486.43	9322.35
486.61	9610.24
486.78	9694.50
486.96	9551.73
487.14	9797.48
487.32	9825.57
487.50	9912.17
487.68	10008.13
487.85	10064.30
488.03	10045.58
488.21	10186.01
488.39	10279.63
488.57	10256.23
488.75	10321.76
488.92	10459.85
489.10	10389.64
489.28	10384.96
489.46	10733.70
489.64	10581.56
489.81	10745.40
489.99	10920.94
490.17	10857.75
490.35	10841.36
490.53	11108.18
490.70	11166.70
490.88	11162.01
491.06	11375.00
491.24	11220.53
491.41	11379.68
491.59	11470.97
491.77	11543.52
491.95	11653.53
492.13	11590.33
492.30	11625.44
492.48	11658.21
492.66	11786.94
492.84	11683.95
493.01	11817.36
493.19	11918.01
493.37	12013.97
493.54	12196.53
493.72	12210.57
493.90	12105.25
494.08	12156.74
494.25	12306.54
494.43	12376.75
494.61	12526.55
494.79	12472.71
494.96	12622.51
495.14	12772.30
495.32	12800.39
495.49	12978.27
495.67	12910.40
495.85	12938.48
496.02	12805.07
496.20	13043.81
496.38	13331.69
496.55	13228.71
496.73	13289.56
496.91	13420.63
497.09	13408.93
497.26	13411.27
497.44	13256.79
497.62	13607.87
497.79	13495.53
497.97	13507.23
498.14	13621.92
498.32	13900.44
498.50	13799.80
498.67	14026.83
498.85	13998.74
499.03	14029.17
499.20	14136.84
499.38	13961.30
499.56	14272.59
499.73	14230.46
499.91	14504.30
500.08	14356.85
500.26	14066.62
500.44	14176.62
500.61	14373.23
500.79	14450.47
500.97	14562.81
501.14	14937.30
501.32	14490.26
501.49	14588.56
501.67	14759.42
501.84	14817.93
502.02	14831.97
502.20	14913.89
502.37	14883.47
502.55	14829.63
502.72	15091.77
502.90	15049.64
503.07	15063.69
503.25	15035.60
503.43	15166.67
503.60	15648.82
503.78	15585.63
503.95	15286.04
504.13	15026.24
504.30	15548.18
504.48	15461.58
504.65	15943.73
504.83	15819.68
505.01	15719.04
505.18	15969.48
505.36	16095.86
505.53	15536.48
505.71	16060.76
505.88	15901.60
506.06	15861.81
506.23	16180.12
506.41	16086.50
506.58	15857.13
506.76	16114.59
506.93	16311.19
507.11	16283.11
507.28	16210.55
507.46	16119.27
507.63	16428.22
507.81	16765.26
507.98	16229.27
508.16	16233.96
508.33	16692.70
508.50	16655.25
508.68	16755.90
508.85	17008.67
509.03	16767.60
509.20	16800.37
509.38	16872.92
509.55	17172.51
509.73	16858.88
509.90	17097.61
510.08	17046.12
510.25	17401.88
510.42	17390.18
510.60	17282.52
510.77	17469.76
510.95	17235.70
511.12	17528.27
511.30	17495.50
511.47	17312.94
511.64	17661.68
511.82	17352.73
511.99	17750.62
512.17	17373.80
512.34	17401.88
512.51	17867.65
512.69	17844.24
512.86	17982.34
513.04	17867.65
513.21	17884.03
513.38	18019.78
513.56	17947.23
513.73	18162.56
513.90	18134.47
514.08	17970.63
514.25	18340.44
514.43	18164.90
514.60	18291.29
514.77	18237.45
514.95	18202.35
515.12	18160.22
515.29	18408.31
515.47	18422.36
515.64	18558.11
515.81	18490.23
515.99	18567.47
516.16	18738.33
516.33	18611.94
516.51	18824.93
516.68	18883.44
516.85	18899.83
517.03	18700.88
517.20	19073.03
517.37	18909.19
517.54	18941.96
517.72	18956.00
517.89	18827.27
518.06	19164.31
518.24	19131.54
518.41	19073.03
518.58	19023.87
518.75	18998.13
518.93	19491.98
519.10	19477.94
519.27	19159.63
519.45	19332.82
519.62	19590.28
519.79	19468.58
519.96	19424.11
520.14	19470.92
520.31	19302.40
520.48	19534.11
520.65	19716.67
520.83	19791.57
521.00	19756.46
521.17	19669.86
521.34	19604.33
521.52	19747.10
521.69	19639.44
521.86	19583.26
522.03	19754.12
522.20	20086.48
522.38	20219.89
522.55	20315.85
522.72	20044.35
522.89	20196.48
523.07	20259.68
523.24	20259.68
523.41	20355.64
523.58	19939.02
523.75	20577.99
523.92	20393.09
524.10	20524.16
524.27	20439.90
524.44	20334.57
524.61	20510.11
524.78	20446.92
524.96	20510.11
525.13	20702.04
525.30	20793.32
525.47	20933.75
525.64	20849.49
525.81	20758.21
525.98	20938.43
526.16	20938.43
526.33	20917.37
526.50	21097.59
526.67	21085.89
526.84	21078.86
527.01	21064.82
527.18	20744.17
527.36	21146.74
527.53	20950.14
527.70	21039.08
527.87	21153.76
528.04	21247.38
528.21	21963.59
528.38	21385.47
528.55	21181.85
528.72	21434.63
528.89	21443.99
529.07	21462.71
529.24	21081.21
529.41	21486.12
529.58	21216.96
529.75	21411.22
529.92	21607.83
530.09	21734.21
530.26	21783.37
530.43	21790.39
530.60	21696.77
530.77	21303.56
530.94	21537.61
531.11	21654.64
531.28	21869.97
531.46	21837.20
531.63	21610.17
531.80	21820.81
531.97	21802.09
532.14	22146.15
532.31	21921.46
532.48	22111.04
532.65	22398.93
532.82	21895.71
532.99	22139.13
533.16	22008.06
533.33	22054.87
533.50	22061.89
533.67	22352.12
533.84	21827.84
534.01	22214.02
534.18	22441.06
534.35	22256.15
534.52	22649.36
534.69	22579.15
534.86	22452.76
535.03	22164.87
535.20	22656.39
535.37	22354.46
535.54	22312.33
535.71	22368.50
535.88	22576.81
536.05	22698.52
536.22	22623.62
536.38	22820.22
536.55	22810.86
536.72	22649.36
536.89	22803.84
537.06	22829.59
537.23	23075.34
537.40	22792.14
537.57	22618.94
537.74	22834.27
537.91	22822.56
538.08	23084.70
538.25	23012.15
538.42	23047.26
538.59	23325.78
538.75	22939.59
538.92	23349.18
539.09	23105.77
539.26	23143.22
539.43	23314.08
539.60	23398.34
539.77	23681.54
539.94	23648.77
540.11	23524.72
540.28	23440.47
540.44	23417.06
540.61	23007.47
540.78	23194.71
540.95	23332.80
541.12	23674.52
541.29	23866.44
541.46	24006.87
541.62	24098.16
541.79	24119.22
541.96	24079.43
542.13	23847.72
542.30	23866.44
542.47	24016.24
542.63	24020.92
542.80	24194.12
542.97	24451.58
543.14	24531.15
543.31	24180.07
543.48	24166.03
543.64	24659.88
543.81	24449.24
543.98	24458.60
544.15	24563.92
544.32	24343.91
544.48	24638.82
544.65	24542.86
544.82	24702.01
544.99	24547.54
545.16	24650.52
545.32	24587.33
545.49	25380.77
545.66	25497.80
545.83	25359.70
546.00	25596.10
546.16	25291.83
546.33	24996.92
546.50	24861.17
546.67	24865.85
546.83	24341.57
547.00	24556.90
547.17	24577.97
547.34	24685.63
547.50	24755.85
547.67	25039.05
547.84	25163.10
548.00	25282.47
548.17	24746.48
548.34	25088.20
548.51	25043.73
548.67	25085.86
548.84	24751.17
549.01	24861.17
549.18	25057.78
549.34	24940.75
549.51	24875.21
549.68	25153.74
549.84	24903.30
550.01	25069.48
550.18	24856.49
550.34	24753.51
550.51	24966.49
550.68	24971.18
550.84	24877.55
551.01	25074.16
551.18	24709.04
551.34	24819.04
551.51	25109.27
551.68	25563.33
551.84	25380.77
552.01	24882.24
552.18	24924.36
552.34	24903.30
552.51	25523.54
552.68	25125.65
552.84	25383.11
553.01	24978.20
553.18	25212.25
553.34	25245.02
553.51	25256.72
553.67	25273.10
553.84	25626.53
554.01	25907.39
554.17	25064.80
554.34	25450.99
554.51	25326.94
554.67	25291.83
554.84	25476.73
555.00	25177.14
555.17	25357.36
555.33	25060.12
555.50	25490.77
555.67	25308.21
555.83	25509.50
556.00	25703.76
556.16	25429.92
556.33	25488.43
556.50	25603.12
556.66	25434.60
556.83	25078.84
556.99	25680.36
557.16	25591.42
557.32	25907.39
557.49	25799.73
557.65	25205.23
557.82	25834.83
557.98	25420.56
558.15	25736.53
558.32	25710.78
558.48	25497.80
558.65	25893.35
558.81	25998.67
558.98	26024.42
559.14	25741.21
559.31	25752.91
559.47	25752.91
559.64	25776.32
559.80	25703.76
559.97	26380.18
560.13	25804.41
560.30	25645.25
560.46	26129.74
560.63	26108.68
560.79	25816.11
560.96	25949.52
561.12	26143.78
561.29	25858.24
561.45	25888.67
561.61	26010.37
561.78	25797.38
561.94	25851.22
562.11	26422.31
562.27	26059.52
562.44	26354.43
562.60	25965.90
562.77	26066.55
562.93	26216.34
563.10	26244.43
563.26	25923.77
563.42	26511.25
563.59	26022.08
563.75	25883.98
563.92	26728.92
564.08	25998.67
564.24	26412.95
564.41	26199.96
564.57	26185.91
564.74	26005.69
564.90	26155.49
565.07	26136.76
565.23	26312.30
565.39	26057.18
565.56	25979.95
565.72	25846.54
565.88	26015.05
566.05	26349.75
566.21	26099.31
566.38	26225.70
566.54	26001.01
566.70	26581.46
566.87	26689.13
567.03	26389.54
567.19	26663.38
567.36	26408.26
567.52	26288.90
567.68	26462.10
567.85	26532.31
568.01	26384.86
568.17	26487.84
568.34	26169.53
568.50	26494.86
568.66	26529.97
568.83	26544.02
568.99	26614.23
569.15	26281.88
569.32	26471.46
569.48	26445.71
569.64	26471.46
569.81	26267.83
569.97	26185.91
570.13	26419.97
570.30	26384.86
570.46	26536.99
570.62	26639.98
570.78	26342.73
570.95	26419.97
571.11	26382.52
571.27	26068.89
571.43	26375.50
571.60	26607.21
571.76	26494.86
571.92	26651.68
572.09	26705.51
572.25	26717.22
572.41	26883.39
572.57	26679.77
572.74	26874.03
572.90	26419.97
573.06	26403.58
573.22	26398.90
573.38	26899.78
573.55	26192.94
573.71	26831.90
573.87	27070.64
574.03	26962.97
574.20	26871.69
574.36	26417.63
574.52	26576.78
574.68	26906.80
574.84	26679.77
575.01	26370.82
575.17	26551.04
575.33	26728.92
575.49	26663.38
575.65	26649.34
575.82	26595.51
575.98	26499.55
576.14	26890.41
576.30	27250.86
576.46	26944.25
576.62	26991.06
576.79	26518.27
576.95	26611.89
577.11	26721.90
577.27	26691.47
577.43	27218.09
577.59	26871.69
577.75	27026.17
577.92	26920.84
578.08	26558.06
578.24	26569.76
578.40	26438.69
578.56	26754.66
578.72	27250.86
578.88	27218.09
579.04	26817.86
579.21	26700.83
579.37	27009.78
579.53	27150.21
579.69	26876.37
579.85	26920.84
580.01	27112.77
580.17	26904.46
580.33	26560.40
580.49	26546.36
580.65	26637.64
580.82	26902.12
580.98	26639.98
581.14	26738.28
581.30	26881.05
581.46	26527.63
581.62	26501.89
581.78	26941.91
581.94	26836.58
582.10	26434.01
582.26	26815.52
582.42	26377.84
582.58	26813.18
582.74	26773.39
582.90	26649.34
583.06	26710.19
583.22	26649.34
583.38	26977.01
583.54	27072.98
583.70	26843.60
583.86	27040.21
584.02	26845.94
584.18	27124.47
584.34	26932.54
584.50	26565.08
584.66	27068.30
584.82	26817.86
584.98	26874.03
585.14	26909.14
585.30	26878.71
585.46	26855.31
585.62	26567.42
585.78	26941.91
585.94	26761.69
586.10	27243.84
586.26	26953.61
586.42	27117.45
586.58	27246.18
586.74	27126.81
586.90	27115.11
587.06	26761.69
587.22	26841.26
587.38	27143.19
587.54	27208.73
587.70	27129.15
587.86	27072.98
588.02	27213.41
588.18	27297.67
588.34	26955.95
588.49	26965.31
588.65	26967.65
588.81	27204.05
588.97	27040.21
589.13	26789.77
589.29	26909.14
589.45	27192.34
589.61	27208.73
589.77	27637.05
589.93	27164.26
590.08	26607.21
590.24	27131.49
590.40	27351.50
590.56	27070.64
590.72	26789.77
