SpectraSuite Data File
++++++++++++++++++++++++++++++++++++
Date: Thu Oct 24 13:21:42 EDT 2013
User: stostad
Dark Spectrum Present: No
Reference Spectrum Present: No
Number of Sampled Component Spectra: 1
Spectrometers: USB2+H05261
Integration Time (usec): 100000 (USB2+H05261)
Spectra Averaged: 1 (USB2+H05261)
Boxcar Smoothing: 0 (USB2+H05261)
Correct for Electrical Dark: No (USB2+H05261)
Strobe/Lamp Enabled: No (USB2+H05261)
Correct for Detector Non-linearity: No (USB2+H05261)
Correct for Stray Light: No (USB2+H05261)
Number of Pixels in Processed Spectrum: 2048
>>>>>Begin Processed Spectral Data<<<<<
365.73	559.39
365.92	559.39
366.12	559.39
366.32	512.58
366.52	489.17
366.72	543.00
366.91	514.92
367.11	442.36
367.31	491.51
367.51	477.47
367.70	433.00
367.90	545.34
368.10	482.15
368.30	491.51
368.49	496.19
368.69	528.96
368.89	526.62
369.09	489.17
369.28	489.17
369.48	479.81
369.68	507.90
369.87	498.53
370.07	479.81
370.27	540.66
370.47	828.55
370.66	1341.13
370.86	1362.19
371.06	1486.24
371.25	1523.69
371.45	1451.13
371.65	1462.83
371.84	1530.71
372.04	1458.15
372.24	1528.37
372.44	1565.82
372.63	1600.93
372.83	1584.54
373.03	1600.93
373.22	1549.43
373.42	1607.95
373.62	1661.78
373.81	1689.87
374.01	1659.44
374.21	1703.91
374.40	1717.95
374.60	1687.53
374.79	1743.70
374.99	1746.04
375.19	1809.23
375.38	1755.40
375.58	1713.27
375.78	1774.13
375.97	1746.04
376.17	1881.79
376.37	1830.30
376.56	1907.54
376.76	1888.81
376.95	1820.94
377.15	1907.54
377.35	1863.07
377.54	1891.15
377.74	1865.41
377.93	1919.24
378.13	1940.30
378.33	1975.41
378.52	1923.92
378.72	1949.67
378.91	2136.91
379.11	1977.75
379.31	1935.62
379.50	2043.29
379.70	2036.27
379.89	2087.76
380.09	2017.54
380.28	2115.84
380.48	2190.74
380.68	2080.74
380.87	2083.08
381.07	2216.49
381.26	2146.27
381.46	2097.12
381.65	2052.65
381.85	2256.28
382.04	2165.00
382.24	2157.97
382.43	2260.96
382.63	2197.76
382.83	2256.28
383.02	2204.78
383.22	2321.81
383.41	2382.67
383.61	2235.21
383.80	2305.43
384.00	2314.79
384.19	2459.90
384.39	2312.45
384.58	2303.09
384.78	2459.90
384.97	2483.31
385.17	2406.07
385.36	2401.39
385.56	2459.90
385.75	2492.67
385.95	2448.20
386.14	2377.98
386.34	2567.57
386.53	2485.65
386.72	2457.56
386.92	2647.15
387.11	2581.61
387.31	2672.89
387.50	2656.51
387.70	2605.02
387.89	2675.23
388.09	2637.78
388.28	2726.72
388.48	2733.75
388.67	2792.26
388.86	2700.98
389.06	2785.24
389.25	2745.45
389.45	2729.06
389.64	2642.46
389.84	2839.07
390.03	2803.96
390.22	2822.69
390.42	3016.95
390.61	2836.73
390.81	2871.84
391.00	2909.29
391.19	2813.32
391.39	2885.88
391.58	3094.19
391.78	3028.65
391.97	2958.44
392.16	3073.12
392.36	3101.21
392.55	3115.25
392.75	3197.17
392.94	3185.47
393.13	3164.40
393.33	3110.57
393.52	3258.03
393.71	3148.02
393.91	3126.96
394.10	3162.06
394.29	3309.52
394.49	3363.35
394.68	3339.94
394.88	3295.47
395.07	3468.67
395.26	3353.99
395.46	3377.39
395.65	3421.86
395.84	3501.44
396.04	3639.53
396.23	3641.87
396.42	3515.48
396.62	3499.10
396.81	3550.59
397.00	3604.42
397.19	3522.51
397.39	3611.45
397.58	3801.03
397.77	3646.55
397.97	3775.28
398.16	3794.01
398.35	3801.03
398.55	3740.18
398.74	3789.33
398.93	3878.27
399.12	3822.09
399.32	3946.14
399.51	3906.35
399.70	3995.29
399.90	3913.38
400.09	3999.98
400.28	4117.00
400.47	4077.21
400.67	4114.66
400.86	4250.41
401.05	4201.26
401.24	4166.15
401.44	4095.94
401.63	4149.77
401.82	4264.46
402.01	4292.54
402.21	4278.50
402.40	4423.61
402.59	4301.90
402.78	4521.92
402.97	4533.62
403.17	4512.55
403.36	4573.41
403.55	4402.55
403.74	4554.68
403.93	4578.09
404.13	4648.30
404.32	4779.37
404.51	4858.95
404.70	4681.07
404.89	4594.47
405.09	4821.50
405.28	4861.29
405.47	4840.23
405.66	4987.68
405.85	4903.42
406.05	4997.04
406.24	4873.00
406.43	4910.44
406.62	5027.47
406.81	5074.28
407.00	5032.15
407.20	4975.98
407.39	5071.94
407.58	5238.12
407.77	5404.30
407.96	5259.18
408.15	5228.76
408.34	5245.14
408.54	5338.76
408.73	5289.61
408.92	5359.83
409.11	5406.64
409.30	5460.47
409.49	5738.99
409.68	5476.85
409.87	5530.69
410.07	5647.71
410.26	5652.39
410.45	5696.86
410.64	5785.80
410.83	5954.32
411.02	5872.40
411.21	5982.41
411.40	5771.76
411.59	5837.30
411.78	6003.47
411.98	6097.10
412.17	6104.12
412.36	6164.97
412.55	6368.60
412.74	6305.40
412.93	6176.67
413.12	6319.45
413.31	6745.42
413.50	6384.98
413.69	6464.56
413.88	6684.57
414.07	6754.79
414.26	6595.63
414.45	6913.94
414.64	6888.20
414.83	6918.62
415.02	6794.58
415.22	7080.12
415.41	7258.00
415.60	7208.85
415.79	7178.42
415.98	7206.51
416.17	7332.90
416.36	7236.94
416.55	7396.09
416.74	7559.93
416.93	7393.75
417.12	7527.16
417.31	7726.11
417.50	7581.00
417.69	7866.54
417.88	7971.86
418.07	7847.82
418.26	7981.23
418.45	7772.92
418.64	8025.70
418.83	7978.89
419.02	8126.34
419.21	8135.70
419.39	8269.11
419.58	8215.28
419.77	8168.47
419.96	8219.96
420.15	8266.77
420.34	8454.02
420.53	8224.64
420.72	8594.45
420.91	8601.47
421.10	8505.51
421.29	8725.52
421.48	8486.78
421.67	8772.33
421.86	8702.11
422.05	8615.51
422.24	8592.11
422.43	8863.61
422.61	8755.94
422.80	8889.35
422.99	8868.29
423.18	9100.00
423.37	9188.94
423.56	8959.57
423.75	8943.19
423.94	8734.88
424.13	8224.64
424.32	8573.38
424.50	9088.30
424.69	9200.65
424.88	9224.05
425.07	9050.85
425.26	8973.61
425.45	9135.11
425.64	9090.64
425.83	8952.55
426.01	9174.90
426.20	9053.19
426.39	9235.75
426.58	9327.03
426.77	9191.28
426.96	9390.23
427.15	9364.48
427.33	9514.28
427.52	9378.53
427.71	9659.39
427.90	9427.68
428.09	9607.90
428.28	9863.02
428.46	9823.23
428.65	9673.43
428.84	9991.75
429.03	9820.89
429.22	9722.59
429.40	10106.43
429.59	9933.23
429.78	9778.76
429.97	9703.86
430.16	9996.43
430.34	10202.40
430.53	10265.59
430.72	10305.38
430.91	10099.41
431.10	10244.52
431.28	10497.30
431.47	10490.28
431.66	10637.73
431.85	10527.73
432.03	10766.46
432.22	10803.91
432.41	10991.16
432.60	10595.61
432.79	10860.09
432.97	10745.40
433.16	10981.79
433.35	10689.23
433.54	11037.97
433.72	11101.16
433.91	10899.87
434.10	11084.78
434.28	11115.20
434.47	11117.54
434.66	11318.83
434.85	11644.17
435.03	11758.85
435.22	11709.70
435.41	12126.32
435.59	11992.90
435.78	11957.80
435.97	11721.40
436.16	11566.93
436.34	11726.08
436.53	11955.46
436.72	11960.14
436.90	11721.40
437.09	12037.38
437.28	11831.41
437.46	11948.43
437.65	11988.22
437.84	12287.81
438.02	12297.17
438.21	12395.48
438.40	12114.61
438.58	12638.89
438.77	12917.42
438.96	12648.26
439.14	12966.57
439.33	13233.39
439.52	13209.98
439.70	13209.98
439.89	13415.95
440.08	13500.21
440.26	13345.73
440.45	13652.34
440.63	13544.68
440.82	13804.48
441.01	13474.46
441.19	13862.99
441.38	13790.44
441.57	13977.68
441.75	14047.90
441.94	14497.28
442.12	14551.11
442.31	14541.75
442.50	14843.68
442.68	14743.03
442.87	14822.61
443.05	14939.64
443.24	15007.52
443.43	15073.05
443.61	15028.58
443.80	15346.89
443.98	14766.44
444.17	14410.68
444.35	15087.09
444.54	15365.62
444.73	15243.91
444.91	15164.33
445.10	15365.62
445.28	15484.98
445.47	15239.23
445.65	15360.94
445.84	15477.96
446.02	15477.96
446.21	15653.50
446.39	15318.81
446.58	15435.83
446.77	15527.11
446.95	15117.52
447.14	15442.85
447.32	15667.55
447.51	15679.25
447.69	15449.88
447.88	15499.03
448.06	15653.50
448.25	15632.44
448.43	15960.11
448.62	15882.88
448.80	15798.62
448.99	15690.95
449.17	16126.29
449.36	15674.57
449.54	16159.06
449.73	16336.94
449.91	16416.52
450.10	16690.36
450.28	16615.46
450.46	17036.76
450.65	16346.30
450.83	16901.01
451.02	16769.94
451.20	17001.65
451.39	16854.20
451.57	16891.65
451.76	16776.96
451.94	16863.56
452.13	17114.00
452.31	17064.85
452.49	17046.12
452.68	17238.05
452.86	17326.99
453.05	17109.32
453.23	17638.28
453.42	17329.33
453.60	17139.74
453.78	17481.46
453.97	17301.24
454.15	17792.75
454.34	17671.04
454.52	17914.46
454.70	17788.07
454.89	18040.85
455.07	18012.76
455.26	18157.88
455.44	18281.92
455.62	18333.42
455.81	18462.15
455.99	18611.94
456.17	18530.02
456.36	18356.82
456.54	18766.42
456.73	18991.11
456.91	19363.25
457.09	19126.86
457.28	19522.41
457.46	19077.71
457.64	19534.11
457.83	19379.64
458.01	19508.37
458.19	19868.81
458.38	19754.12
458.56	19775.19
458.74	19688.59
458.93	19653.48
459.11	19903.92
459.29	19693.27
459.48	20002.22
459.66	19901.58
459.84	20477.35
460.03	20589.69
460.21	20533.52
460.39	20463.30
460.57	20580.33
460.76	20542.88
460.94	20699.70
461.12	20739.49
461.31	21029.71
461.49	20648.21
461.67	20730.12
461.85	21193.55
462.04	20966.52
462.22	21678.04
462.40	21788.05
462.59	21558.67
462.77	21401.86
462.95	21774.00
463.13	21544.63
463.32	21652.30
463.50	21912.10
463.68	22031.46
463.86	22045.51
464.05	21743.58
464.23	22277.22
464.41	22125.08
464.59	21755.28
464.78	22710.22
464.96	22614.26
465.14	21656.98
465.32	22281.90
465.50	22731.28
465.69	22609.58
465.87	22785.12
466.05	22232.75
466.23	22583.83
466.41	22829.59
466.60	23051.94
466.78	22698.52
466.96	22682.13
467.14	22794.48
467.32	22742.99
467.51	23105.77
467.69	22544.04
467.87	23147.90
468.05	23559.83
468.23	23058.96
468.41	23204.07
468.60	23789.20
468.78	23770.48
468.96	23421.74
469.14	24044.32
469.32	24205.82
469.50	23513.02
469.69	24105.18
469.87	24657.54
470.05	24512.43
470.23	24631.80
470.41	24657.54
470.59	24931.39
470.77	24566.26
470.95	24922.02
471.14	25029.69
471.32	24091.13
471.50	25404.17
471.68	25633.55
471.86	25893.35
472.04	25834.83
472.22	26216.34
472.40	25851.22
472.58	25874.62
472.77	26246.77
472.95	26572.10
473.13	27159.58
473.31	26328.69
473.49	26682.11
473.67	27091.70
473.85	26529.97
474.03	27335.12
474.21	27772.80
474.39	27733.01
474.57	27213.41
474.75	28112.17
474.93	27896.85
475.12	28147.28
475.30	28254.95
475.48	28247.93
475.66	28933.70
475.84	28575.60
476.02	28879.87
476.20	29050.73
476.38	29724.80
476.56	29921.41
476.74	30127.38
476.92	30120.35
477.10	29914.39
477.28	30450.37
477.46	30380.15
477.64	30614.21
477.82	31117.42
478.00	31952.99
478.18	31908.52
478.36	31489.57
478.54	32533.45
478.72	32383.65
478.90	32772.18
479.08	33350.29
479.26	33464.98
479.44	32982.83
479.62	33734.14
479.80	33888.62
479.98	34017.35
480.16	34653.97
480.34	34019.69
480.52	35204.00
480.70	34937.18
480.88	34686.74
481.06	35676.79
481.24	35431.03
481.41	36053.61
481.59	36435.12
481.77	36954.72
481.95	37069.40
482.13	37251.97
482.31	37413.46
482.49	38068.81
482.67	38342.66
482.85	38361.38
483.03	39241.42
483.21	39688.46
483.39	39360.79
483.57	39262.49
483.74	39732.93
483.92	40325.09
484.10	39805.49
484.28	41041.29
484.46	41280.03
484.64	42078.15
484.82	41560.89
485.00	42359.02
485.18	42588.39
485.35	43030.75
485.53	43168.84
485.71	43550.35
485.89	44282.94
486.07	43611.20
486.25	43875.68
486.43	44477.20
486.61	44732.32
486.78	45153.62
486.96	45399.37
487.14	46089.83
487.32	46066.42
487.50	46621.13
487.68	46689.01
487.85	47381.80
488.03	47730.54
488.21	48147.16
488.39	47971.62
488.57	48980.39
488.75	48753.36
488.92	48598.88
489.10	49397.01
489.28	49439.14
489.46	50110.87
489.64	50124.91
489.81	51241.35
489.99	50677.28
490.17	50925.38
490.35	51299.86
490.53	51842.87
490.70	51892.02
490.88	51756.27
491.06	51952.87
491.24	52278.21
491.41	52657.37
491.59	53090.37
491.77	53275.27
491.95	53104.41
492.13	53521.03
492.30	53652.10
492.48	53813.60
492.66	54012.54
492.84	54244.26
493.01	54578.95
493.19	54494.69
493.37	54660.87
493.54	54850.45
493.72	55152.38
493.90	55107.91
494.08	55655.60
494.25	55863.91
494.43	55810.07
494.61	55987.95
494.79	56210.31
494.96	56114.34
495.14	56051.15
495.32	56683.09
495.49	56905.44
495.67	57062.26
495.85	57226.10
496.02	57165.24
496.20	57471.85
496.38	57602.92
496.55	57549.09
496.73	58028.90
496.91	57963.37
497.09	58178.70
497.26	58188.06
497.44	58211.46
497.62	58216.14
497.79	58937.03
497.97	58607.01
498.14	59236.62
498.32	59222.58
498.50	59274.07
498.67	59465.99
498.85	59248.32
499.03	59440.24
499.20	59587.70
499.38	59847.50
499.56	59767.92
499.73	59821.75
499.91	59969.21
500.08	60268.79
500.26	60083.89
500.44	60425.61
500.61	60556.68
500.79	60346.03
500.97	60563.70
501.14	60938.19
501.32	60790.73
501.49	60767.33
501.67	60928.83
501.84	61006.06
502.02	61223.73
502.20	61268.20
502.37	61492.89
502.55	61272.88
502.72	61399.27
502.90	61715.25
503.07	61504.60
503.25	61785.46
503.43	61853.34
503.60	61951.64
503.78	62026.54
503.95	62087.39
504.13	62274.63
504.30	62124.84
504.48	62176.33
504.65	62326.13
504.83	62709.97
505.01	62810.62
505.18	62585.92
505.36	62979.14
505.53	62876.15
505.71	63037.65
505.88	63098.50
506.06	62831.68
506.23	63318.51
506.41	63215.53
506.58	63241.28
506.76	63182.76
506.93	63440.22
507.11	63365.32
507.28	63648.53
507.46	63898.97
507.63	63744.49
507.81	63941.10
507.98	63632.14
508.16	63739.81
508.33	63978.54
508.50	64226.64
508.68	64238.34
508.85	64542.61
509.03	64114.29
509.20	64378.78
509.38	64718.15
509.55	64575.38
509.73	64769.64
509.90	64970.93
510.08	64793.05
510.25	64870.29
510.42	64947.53
510.60	65055.19
510.77	65092.64
510.95	65195.62
511.12	64959.23
511.30	65272.86
511.47	65492.87
511.64	65462.44
511.82	65469.46
511.99	65394.57
512.17	65535.00
512.34	65474.15
512.51	65535.00
512.69	65535.00
512.86	65535.00
513.04	65535.00
513.21	65535.00
513.38	65535.00
513.56	65535.00
513.73	65535.00
513.90	65535.00
514.08	65535.00
514.25	65535.00
514.43	65535.00
514.60	65535.00
514.77	65535.00
514.95	65535.00
515.12	65535.00
515.29	65535.00
515.47	65535.00
515.64	65535.00
515.81	65535.00
515.99	65535.00
516.16	65535.00
516.33	65535.00
516.51	65535.00
516.68	65535.00
516.85	65535.00
517.03	65535.00
517.20	65535.00
517.37	65535.00
517.54	65535.00
517.72	65535.00
517.89	65535.00
518.06	65535.00
518.24	65535.00
518.41	65535.00
518.58	65535.00
518.75	65535.00
518.93	65535.00
519.10	65535.00
519.27	65535.00
519.45	65535.00
519.62	65535.00
519.79	65535.00
519.96	65535.00
520.14	65535.00
520.31	65535.00
520.48	65535.00
520.65	65535.00
520.83	65535.00
521.00	65535.00
521.17	65535.00
521.34	65535.00
521.52	65535.00
521.69	65535.00
521.86	65535.00
522.03	65535.00
522.20	65535.00
522.38	65535.00
522.55	65535.00
522.72	65535.00
522.89	65535.00
523.07	65535.00
523.24	65535.00
523.41	65535.00
523.58	65535.00
523.75	65535.00
523.92	65535.00
524.10	65535.00
524.27	65535.00
524.44	65535.00
524.61	65535.00
524.78	65535.00
524.96	65535.00
525.13	65535.00
525.30	65535.00
525.47	65535.00
525.64	65535.00
525.81	65535.00
525.98	65535.00
526.16	65535.00
526.33	65535.00
526.50	65535.00
526.67	65535.00
526.84	65535.00
527.01	65535.00
527.18	65535.00
527.36	65535.00
527.53	65535.00
527.70	65535.00
527.87	65535.00
528.04	65535.00
528.21	65535.00
528.38	65535.00
528.55	65535.00
528.72	65535.00
528.89	65535.00
529.07	65535.00
529.24	65535.00
529.41	65535.00
529.58	65535.00
529.75	65535.00
529.92	65535.00
530.09	65535.00
530.26	65535.00
530.43	65535.00
530.60	65535.00
530.77	65535.00
530.94	65535.00
531.11	65535.00
531.28	65535.00
531.46	65535.00
531.63	65535.00
531.80	65535.00
531.97	65535.00
532.14	65535.00
532.31	65535.00
532.48	65535.00
532.65	65535.00
532.82	65535.00
532.99	65535.00
533.16	65535.00
533.33	65535.00
533.50	65535.00
533.67	65535.00
533.84	65535.00
534.01	65535.00
534.18	65535.00
534.35	65535.00
534.52	65535.00
534.69	65535.00
534.86	65535.00
535.03	65535.00
535.20	65535.00
535.37	65535.00
535.54	65535.00
535.71	65535.00
535.88	65535.00
536.05	65535.00
536.22	65535.00
536.38	65535.00
536.55	65535.00
536.72	65535.00
536.89	65535.00
537.06	65535.00
537.23	65535.00
537.40	65535.00
537.57	65535.00
537.74	65535.00
537.91	65535.00
538.08	65535.00
538.25	65535.00
538.42	65535.00
538.59	65535.00
538.75	65535.00
538.92	65535.00
539.09	65535.00
539.26	65535.00
539.43	65535.00
539.60	65535.00
539.77	65535.00
539.94	65535.00
540.11	65535.00
540.28	65535.00
540.44	65535.00
540.61	65535.00
540.78	65535.00
540.95	65535.00
541.12	65535.00
541.29	65535.00
541.46	65535.00
541.62	65535.00
541.79	65535.00
541.96	65535.00
542.13	65535.00
542.30	65535.00
542.47	65535.00
542.63	65535.00
542.80	65535.00
542.97	65535.00
543.14	65535.00
543.31	65535.00
543.48	65535.00
543.64	65535.00
543.81	65535.00
543.98	65535.00
544.15	65535.00
544.32	65535.00
544.48	65535.00
544.65	65535.00
544.82	65535.00
544.99	65535.00
545.16	65535.00
545.32	65535.00
545.49	65535.00
545.66	65535.00
545.83	65535.00
546.00	65535.00
546.16	65535.00
546.33	65535.00
546.50	65535.00
546.67	65535.00
546.83	65535.00
547.00	65535.00
547.17	65535.00
547.34	65535.00
547.50	65535.00
547.67	65535.00
547.84	65535.00
548.00	65535.00
548.17	65535.00
548.34	65535.00
548.51	65535.00
548.67	65535.00
548.84	65535.00
549.01	65535.00
549.18	65535.00
549.34	65535.00
549.51	65535.00
549.68	65535.00
549.84	65535.00
550.01	65535.00
550.18	65535.00
550.34	65535.00
550.51	65535.00
550.68	65535.00
550.84	65535.00
551.01	65535.00
551.18	65535.00
551.34	65535.00
551.51	65535.00
551.68	65535.00
551.84	65535.00
552.01	65535.00
552.18	65535.00
552.34	65535.00
552.51	65535.00
552.68	65535.00
552.84	65535.00
553.01	65535.00
553.18	65535.00
553.34	65535.00
553.51	65535.00
553.67	65535.00
553.84	65535.00
554.01	65535.00
554.17	65535.00
554.34	65535.00
554.51	65535.00
554.67	65535.00
554.84	65535.00
555.00	65535.00
555.17	65535.00
555.33	65535.00
555.50	65535.00
555.67	65535.00
555.83	65535.00
556.00	65535.00
556.16	65535.00
556.33	65535.00
556.50	65535.00
556.66	65535.00
556.83	65535.00
556.99	65535.00
557.16	65535.00
557.32	65535.00
557.49	65535.00
557.65	65535.00
557.82	65535.00
557.98	65535.00
558.15	65535.00
558.32	65535.00
558.48	65535.00
558.65	65535.00
558.81	65535.00
558.98	65535.00
559.14	65535.00
559.31	65535.00
559.47	65535.00
559.64	65535.00
559.80	65535.00
559.97	65535.00
560.13	65535.00
560.30	65535.00
560.46	65535.00
560.63	65535.00
560.79	65535.00
560.96	65535.00
561.12	65535.00
561.29	65535.00
561.45	65535.00
561.61	65535.00
561.78	65535.00
561.94	65535.00
562.11	65535.00
562.27	65535.00
562.44	65535.00
562.60	65535.00
562.77	65535.00
562.93	65535.00
563.10	65535.00
563.26	65535.00
563.42	65535.00
563.59	65535.00
563.75	65535.00
563.92	65535.00
564.08	65535.00
564.24	65535.00
564.41	65535.00
564.57	65535.00
564.74	65535.00
564.90	65535.00
565.07	65535.00
565.23	65535.00
565.39	65535.00
565.56	65535.00
565.72	65535.00
565.88	65535.00
566.05	65535.00
566.21	65535.00
566.38	65535.00
566.54	65535.00
566.70	65535.00
566.87	65535.00
567.03	65535.00
567.19	65535.00
567.36	65535.00
567.52	65535.00
567.68	65535.00
567.85	65535.00
568.01	65535.00
568.17	65535.00
568.34	65535.00
568.50	65535.00
568.66	65535.00
568.83	65535.00
568.99	65535.00
569.15	65535.00
569.32	65535.00
569.48	65535.00
569.64	65535.00
569.81	65535.00
569.97	65535.00
570.13	65535.00
570.30	65535.00
570.46	65535.00
570.62	65535.00
570.78	65535.00
570.95	65535.00
571.11	65535.00
571.27	65535.00
571.43	65535.00
571.60	65535.00
571.76	65535.00
571.92	65535.00
572.09	65535.00
572.25	65535.00
572.41	65535.00
572.57	65535.00
572.74	65535.00
572.90	65535.00
573.06	65535.00
573.22	65535.00
573.38	65535.00
573.55	65535.00
573.71	65535.00
573.87	65535.00
574.03	65535.00
574.20	65535.00
574.36	65535.00
574.52	65535.00
574.68	65535.00
574.84	65535.00
575.01	65535.00
575.17	65535.00
575.33	65535.00
575.49	65535.00
575.65	65535.00
575.82	65535.00
575.98	65535.00
576.14	65535.00
576.30	65535.00
576.46	65535.00
576.62	65535.00
576.79	65535.00
576.95	65535.00
577.11	65535.00
577.27	65535.00
577.43	65535.00
577.59	65535.00
577.75	65535.00
577.92	65535.00
578.08	65535.00
578.24	65535.00
578.40	65535.00
578.56	65535.00
578.72	65535.00
578.88	65535.00
579.04	65535.00
579.21	65535.00
579.37	65535.00
579.53	65535.00
579.69	65535.00
579.85	65535.00
580.01	65535.00
580.17	65535.00
580.33	65535.00
580.49	65535.00
580.65	65535.00
580.82	65535.00
580.98	65535.00
581.14	65535.00
581.30	65535.00
581.46	65535.00
581.62	65535.00
581.78	65535.00
581.94	65535.00
582.10	65535.00
582.26	65535.00
582.42	65535.00
582.58	65535.00
582.74	65535.00
582.90	65535.00
583.06	65535.00
583.22	65535.00
583.38	65535.00
583.54	65535.00
583.70	65535.00
583.86	65535.00
584.02	65535.00
584.18	65535.00
584.34	65535.00
584.50	65535.00
584.66	65535.00
584.82	65535.00
584.98	65535.00
585.14	65535.00
585.30	65535.00
585.46	65535.00
585.62	65535.00
585.78	65535.00
585.94	65535.00
586.10	65535.00
586.26	65535.00
586.42	65535.00
586.58	65535.00
