SpectraSuite Data File
++++++++++++++++++++++++++++++++++++
Date: Thu Oct 24 13:21:10 EDT 2013
User: stostad
Dark Spectrum Present: No
Reference Spectrum Present: No
Number of Sampled Component Spectra: 1
Spectrometers: USB2+H05261
Integration Time (usec): 100000 (USB2+H05261)
Spectra Averaged: 1 (USB2+H05261)
Boxcar Smoothing: 0 (USB2+H05261)
Correct for Electrical Dark: No (USB2+H05261)
Strobe/Lamp Enabled: No (USB2+H05261)
Correct for Detector Non-linearity: No (USB2+H05261)
Correct for Stray Light: No (USB2+H05261)
Number of Pixels in Processed Spectrum: 2048
>>>>>Begin Processed Spectral Data<<<<<
365.73	603.86
365.92	603.86
366.12	603.86
366.32	543.00
366.52	484.49
366.72	507.90
366.91	461.09
367.11	447.04
367.31	500.87
367.51	463.43
367.70	425.98
367.90	498.53
368.10	418.96
368.30	477.47
368.49	482.15
368.69	447.04
368.89	500.87
369.09	510.24
369.28	505.56
369.48	526.62
369.68	514.92
369.87	552.37
370.07	571.09
370.27	545.34
370.47	585.13
370.66	723.23
370.86	678.76
371.06	645.99
371.25	809.83
371.45	798.12
371.65	765.36
371.84	774.72
372.04	774.72
372.24	709.18
372.44	727.91
372.63	809.83
372.83	791.10
373.03	793.44
373.22	781.74
373.42	765.36
373.62	800.46
373.81	779.40
374.01	877.70
374.21	812.17
374.40	823.87
374.60	884.72
374.79	842.59
374.99	807.48
375.19	833.23
375.38	887.06
375.58	905.79
375.78	884.72
375.97	821.53
376.17	882.38
376.37	807.48
376.56	807.48
376.76	816.85
376.95	800.46
377.15	711.52
377.35	828.55
377.54	870.68
377.74	809.83
377.93	837.91
378.13	924.51
378.33	823.87
378.52	847.27
378.72	870.68
378.91	807.48
379.11	863.66
379.31	800.46
379.50	856.64
379.70	851.96
379.89	849.61
380.09	840.25
380.28	863.66
380.48	835.57
380.68	830.89
380.87	786.42
381.07	887.06
381.26	936.21
381.46	1011.11
381.65	870.68
381.85	887.06
382.04	863.66
382.24	936.21
382.43	926.85
382.63	926.85
382.83	882.38
383.02	887.06
383.22	985.37
383.41	898.77
383.61	926.85
383.80	896.43
384.00	917.49
384.19	819.19
384.39	910.47
384.58	912.81
384.78	933.87
384.97	929.19
385.17	912.81
385.36	994.73
385.56	917.49
385.75	926.85
385.95	983.02
386.14	905.79
386.34	952.60
386.53	877.70
386.72	954.94
386.92	943.24
387.11	880.04
387.31	931.53
387.50	1001.75
387.70	968.98
387.89	952.60
388.09	966.64
388.28	936.21
388.48	905.79
388.67	1034.52
388.86	968.98
389.06	957.28
389.25	933.87
389.45	1022.81
389.64	1076.65
389.84	1041.54
390.03	1013.45
390.22	980.68
390.42	985.37
390.61	1008.77
390.81	1095.37
391.00	940.90
391.19	983.02
391.39	1015.79
391.58	1046.22
391.78	1107.07
391.97	1093.03
392.16	1088.35
392.36	1013.45
392.55	1025.15
392.75	1090.69
392.94	1109.41
393.13	1076.65
393.33	985.37
393.52	1036.86
393.71	1050.90
393.91	1053.24
394.10	1029.84
394.29	1167.93
394.49	1081.33
394.68	1158.57
394.88	1111.75
395.07	1135.16
395.26	1111.75
395.46	1132.82
395.65	1179.63
395.84	1163.25
396.04	1179.63
396.23	1132.82
396.42	1130.48
396.62	1254.53
396.81	1196.01
397.00	1125.80
397.19	1210.06
397.39	1219.42
397.58	1228.78
397.77	1191.33
397.97	1177.29
398.16	1184.31
398.35	1170.27
398.55	1219.42
398.74	1235.80
398.93	1235.80
399.12	1221.76
399.32	1210.06
399.51	1219.42
399.70	1261.55
399.90	1249.85
400.09	1249.85
400.28	1327.08
400.47	1320.06
400.67	1327.08
400.86	1352.83
401.05	1369.21
401.24	1369.21
401.44	1306.02
401.63	1362.19
401.82	1320.06
402.01	1291.98
402.21	1266.23
402.40	1341.13
402.59	1343.47
402.78	1369.21
402.97	1423.05
403.17	1345.81
403.36	1306.02
403.55	1373.89
403.74	1469.86
403.93	1418.36
404.13	1533.05
404.32	1535.39
404.51	1486.24
404.70	1455.81
404.89	1469.86
405.09	1514.33
405.28	1488.58
405.47	1441.77
405.66	1490.92
405.85	1500.28
406.05	1465.18
406.24	1502.62
406.43	1565.82
406.62	1509.65
406.81	1614.97
407.00	1547.09
407.20	1612.63
407.39	1563.48
407.58	1631.35
407.77	1626.67
407.96	1631.35
408.15	1607.95
408.34	1621.99
408.54	1717.95
408.73	1600.93
408.92	1565.82
409.11	1741.36
409.30	1650.08
409.49	1650.08
409.68	1694.55
409.87	1671.14
410.07	1706.25
410.26	1750.72
410.45	1776.47
410.64	1739.02
410.83	1839.66
411.02	1781.15
411.21	1764.76
411.40	1760.08
411.59	1701.57
411.78	1769.44
411.98	1755.40
412.17	1797.53
412.36	1785.83
412.55	1856.04
412.74	1832.64
412.93	1874.77
413.12	1853.70
413.31	2069.03
413.50	1966.05
413.69	1905.20
413.88	1935.62
414.07	1942.64
414.26	1973.07
414.45	1996.48
414.64	1970.73
414.83	1989.46
415.02	1998.82
415.22	2150.95
415.41	2019.88
415.60	2069.03
415.79	2078.40
415.98	2115.84
416.17	2101.80
416.36	2108.82
416.55	2127.55
416.74	2155.63
416.93	2193.08
417.12	2193.08
417.31	2197.76
417.50	2160.31
417.69	2244.57
417.88	2218.83
418.07	2289.04
418.26	2267.98
418.45	2396.71
418.64	2244.57
418.83	2319.47
419.02	2328.83
419.21	2237.55
419.39	2303.09
419.58	2387.35
419.77	2377.98
419.96	2349.90
420.15	2284.36
420.34	2293.72
420.53	2368.62
420.72	2375.64
420.91	2396.71
421.10	2387.35
421.29	2420.11
421.48	2410.75
421.67	2504.37
421.86	2321.81
422.05	2370.96
422.24	2441.18
422.43	2462.24
422.61	2417.77
422.80	2492.67
422.99	2576.93
423.18	2581.61
423.37	2560.55
423.56	2513.74
423.75	2473.95
423.94	2448.20
424.13	2370.96
424.32	2422.45
424.50	2476.29
424.69	2506.71
424.88	2504.37
425.07	2476.29
425.26	2516.08
425.45	2558.21
425.64	2527.78
425.83	2431.82
426.01	2527.78
426.20	2513.74
426.39	2459.90
426.58	2593.31
426.77	2555.86
426.96	2455.22
427.15	2628.42
427.33	2569.91
427.52	2567.57
427.71	2630.76
427.90	2560.55
428.09	2621.40
428.28	2647.15
428.46	2626.08
428.65	2670.55
428.84	2724.38
429.03	2754.81
429.22	2593.31
429.40	2705.66
429.59	2750.13
429.78	2555.86
429.97	2593.31
430.16	2750.13
430.34	2724.38
430.53	2874.18
430.72	2700.98
430.91	2729.06
431.10	2801.62
431.28	2745.45
431.47	2768.85
431.66	2829.71
431.85	2778.22
432.03	2883.54
432.22	2899.92
432.41	2925.67
432.60	2764.17
432.79	2839.07
432.97	2897.58
433.16	2890.56
433.35	2736.09
433.54	2909.29
433.72	2944.39
433.91	2965.46
434.10	2904.60
434.28	2967.80
434.47	2932.69
434.66	3009.93
434.85	3023.97
435.03	3164.40
435.22	3316.54
435.41	3478.04
435.59	3506.12
435.78	3297.81
435.97	3335.26
436.16	3229.94
436.34	3096.53
436.53	3094.19
436.72	3187.81
436.90	3089.51
437.09	3211.22
437.28	3159.72
437.46	3110.57
437.65	3155.04
437.84	3112.91
438.02	3211.22
438.21	3220.58
438.40	3173.77
438.58	3145.68
438.77	3332.92
438.96	3351.65
439.14	3342.28
439.33	3363.35
439.52	3412.50
439.70	3311.86
439.89	3398.46
440.08	3581.02
440.26	3375.05
440.45	3293.13
440.63	3606.77
440.82	3515.48
441.01	3445.27
441.19	3496.76
441.38	3590.38
441.57	3655.92
441.75	3602.08
441.94	3585.70
442.12	3655.92
442.31	3695.71
442.50	3716.77
442.68	3707.41
442.87	3679.32
443.05	3641.87
443.24	3840.82
443.43	3763.58
443.61	3838.48
443.80	3749.54
443.98	3744.86
444.17	3646.55
444.35	3763.58
444.54	3892.31
444.73	3749.54
444.91	3784.65
445.10	3857.20
445.28	3899.33
445.47	3808.05
445.65	3868.91
445.84	3798.69
446.02	3819.75
446.21	3754.22
446.39	3868.91
446.58	3887.63
446.77	3801.03
446.95	3768.26
447.14	3768.26
447.32	3925.08
447.51	3777.62
447.69	3838.48
447.88	4051.47
448.06	3990.61
448.25	3990.61
448.43	3819.75
448.62	3920.40
448.80	3889.97
448.99	3892.31
449.17	3892.31
449.36	3981.25
449.54	3894.65
449.73	3955.51
449.91	4117.00
450.10	4028.06
450.28	4084.23
450.46	4175.52
450.65	4126.36
450.83	4011.68
451.02	4173.18
451.20	4095.94
451.39	4095.94
451.57	4007.00
451.76	4119.34
451.94	4095.94
452.13	4194.24
452.31	4109.98
452.49	4159.13
452.68	4154.45
452.86	4217.65
453.05	4166.15
453.23	4215.30
453.42	4266.80
453.60	4173.18
453.78	4241.05
453.97	4227.01
454.15	4294.88
454.34	4217.65
454.52	4346.37
454.70	4276.16
454.89	4276.16
455.07	4365.10
455.26	4322.97
455.44	4465.74
455.62	4479.79
455.81	4430.63
455.99	4390.84
456.17	4470.42
456.36	4477.44
456.54	4486.81
456.73	4547.66
456.91	4542.98
457.09	4676.39
457.28	4615.54
457.46	4423.61
457.64	4587.45
457.83	4723.20
458.01	4660.01
458.19	4631.92
458.38	4730.22
458.56	4697.46
458.74	4641.28
458.93	4781.71
459.11	4840.23
459.29	4812.14
459.48	4751.29
459.66	4699.80
459.84	4919.81
460.03	4929.17
460.21	4791.08
460.39	4690.43
460.57	4744.27
460.76	4875.34
460.94	4983.00
461.12	4805.12
461.31	4819.16
461.49	4837.89
461.67	4837.89
461.85	4898.74
462.04	5114.07
462.22	5282.59
462.40	5018.11
462.59	4997.04
462.77	5015.77
462.95	4994.70
463.13	4933.85
463.32	5167.90
463.50	5245.14
463.68	5144.50
463.86	5116.41
464.05	4905.76
464.23	5128.11
464.41	5144.50
464.59	5048.54
464.78	5067.26
464.96	5139.82
465.14	5109.39
465.32	5212.37
465.50	5226.42
465.69	5069.60
465.87	5245.14
466.05	5177.26
466.23	5270.89
466.41	5294.29
466.60	5338.76
466.78	5341.10
466.96	5193.65
467.14	5394.93
467.32	5273.23
467.51	5537.71
467.69	5151.52
467.87	5425.36
468.05	5376.21
468.23	5404.30
468.41	5268.55
468.60	5408.98
468.78	5586.86
468.96	5366.85
469.14	5385.57
469.32	5469.83
469.50	5336.42
469.69	5511.96
469.87	5582.18
470.05	5603.24
470.23	5614.95
470.41	5696.86
470.59	5636.01
470.77	5666.44
470.95	5692.18
471.14	5706.23
471.32	5521.32
471.50	5727.29
471.68	5827.93
471.86	5746.02
472.04	5788.14
472.22	5951.98
472.40	5778.78
472.58	5928.58
472.77	5863.04
472.95	5966.03
473.13	6139.23
473.31	6033.90
473.49	5951.98
473.67	6038.58
473.85	6101.78
474.03	6092.41
474.21	6129.86
474.39	6310.08
474.57	6249.23
474.75	6209.44
474.93	6384.98
475.12	6249.23
475.30	6380.30
475.48	6345.19
475.66	6125.18
475.84	6532.44
476.02	6462.22
476.20	6403.71
476.38	6459.88
476.56	6710.32
476.74	6696.27
476.92	6567.54
477.10	6691.59
477.28	6789.89
477.46	6885.86
477.64	6839.05
477.82	6846.07
478.00	7089.48
478.18	6995.86
478.36	7218.21
478.54	7007.56
478.72	7162.04
478.90	7201.83
479.08	7143.32
479.26	7307.15
479.44	7309.49
479.62	7321.20
479.80	7353.96
479.98	7330.56
480.16	7786.96
480.34	7503.76
480.52	7564.61
480.70	7662.91
480.88	7721.43
481.06	7698.02
481.24	7824.41
481.41	7595.04
481.59	7901.65
481.77	8006.97
481.95	8039.74
482.13	8098.25
482.31	8241.03
482.49	8074.85
482.67	8107.62
482.85	8456.36
483.03	8465.72
483.21	8475.08
483.39	8449.33
483.57	8428.27
483.74	8549.98
483.92	8795.73
484.10	8732.54
484.28	8812.12
484.46	8926.80
484.64	9085.96
484.82	8938.51
485.00	9006.38
485.18	9287.25
485.35	9341.08
485.53	9224.05
485.71	9167.88
485.89	9254.48
486.07	9476.83
486.25	9507.26
486.43	9446.40
486.61	9544.70
486.78	9844.29
486.96	9760.03
487.14	9940.26
487.32	9905.15
487.50	9907.49
487.68	9877.06
487.85	10099.41
488.03	10169.63
488.21	10499.64
488.39	10317.08
488.57	10537.09
488.75	10579.22
488.92	10729.02
489.10	10714.97
489.28	10745.40
489.46	10970.09
489.64	10843.70
489.81	10855.40
489.99	10869.45
490.17	11094.14
490.35	11197.12
490.53	11159.67
490.70	11421.81
490.88	11162.01
491.06	11346.92
491.24	11438.20
491.41	11405.43
491.59	11393.73
491.77	11768.21
491.95	11726.08
492.13	11861.84
492.30	11800.98
492.48	11805.66
492.66	12065.46
492.84	12020.99
493.01	12154.40
493.19	12067.80
493.37	12147.38
493.54	12278.45
493.72	12320.58
493.90	12273.77
494.08	12582.72
494.25	12446.97
494.43	12650.60
494.61	12610.81
494.79	12688.04
494.96	12727.83
495.14	12795.71
495.32	13163.17
495.49	13092.96
495.67	12856.56
495.85	13069.55
496.02	13158.49
496.20	13441.70
496.38	13486.17
496.55	13331.69
496.73	13680.43
496.91	13493.19
497.09	13511.91
497.26	13783.41
497.44	13673.41
497.62	13839.59
497.79	13818.52
497.97	14071.30
498.14	14132.15
498.32	14090.02
498.50	14150.88
498.67	13916.83
498.85	14001.08
499.03	14171.94
499.20	14218.75
499.38	14307.69
499.56	14574.52
499.73	14307.69
499.91	14672.82
500.08	14831.97
500.26	14757.08
500.44	14541.75
500.61	14740.69
500.79	14611.96
500.97	14841.34
501.14	14782.82
501.32	14909.21
501.49	14740.69
501.67	14827.29
501.84	14941.98
502.02	15009.86
502.20	14984.11
502.37	15316.47
502.55	14995.81
502.72	15239.23
502.90	15264.97
503.07	15241.57
503.25	15389.02
503.43	15452.22
503.60	15604.35
503.78	15630.10
503.95	15625.42
504.13	15749.46
504.30	15609.03
504.48	15674.57
504.65	16056.08
504.83	15990.54
505.01	15733.08
505.18	16133.31
505.36	16042.03
505.53	15971.82
505.71	15969.48
505.88	16353.32
506.06	16049.05
506.23	16580.36
506.41	16545.25
506.58	16070.12
506.76	15978.84
506.93	16535.88
507.11	16695.04
507.28	16748.87
507.46	16444.60
507.63	16521.84
507.81	16798.02
507.98	16578.01
508.16	16765.26
508.33	16842.50
508.50	16786.32
508.68	17032.08
508.85	17069.53
509.03	17322.30
509.20	16961.86
509.38	17165.49
509.55	17144.42
509.73	17376.14
509.90	17453.37
510.08	17481.46
510.25	16940.80
510.42	17474.44
510.60	17345.71
510.77	17413.59
510.95	17434.65
511.12	17710.83
511.30	17467.42
511.47	17504.87
511.64	17820.84
511.82	17834.88
511.99	17891.06
512.17	17851.27
512.34	17743.60
512.51	18101.70
512.69	18052.55
512.86	17961.27
513.04	18263.20
513.21	18155.54
513.38	18003.40
513.56	17980.00
513.73	17930.84
513.90	18382.57
514.08	18455.12
514.25	18448.10
514.43	18670.45
514.60	18724.29
514.77	18317.03
514.95	18630.66
515.12	18511.30
515.29	18904.51
515.47	18864.72
515.64	18829.61
515.81	18773.44
515.99	18663.43
516.16	18906.85
516.33	18876.42
516.51	19110.47
516.68	19344.53
516.85	19080.05
517.03	19028.56
517.20	19208.78
517.37	19215.80
517.54	19147.92
517.72	19066.00
517.89	19302.40
518.06	19555.18
518.24	19456.87
518.41	19620.71
518.58	19489.64
518.75	19164.31
518.93	19410.06
519.10	19491.98
519.27	19475.60
519.45	19356.23
519.62	19538.79
519.79	19641.78
519.96	19960.09
520.14	19995.20
520.31	19665.18
520.48	19688.59
520.65	19646.46
520.83	20065.41
521.00	20276.06
521.17	20056.05
521.34	20210.53
521.52	20137.97
521.69	20084.14
521.86	20130.95
522.03	20016.26
522.20	20070.09
522.38	20528.84
522.55	20624.80
522.72	20355.64
522.89	20512.46
523.07	20592.03
523.24	20510.11
523.41	20514.80
523.58	20313.51
523.75	20680.97
523.92	20798.00
524.10	20716.08
524.27	20943.11
524.44	20889.28
524.61	20767.57
524.78	20800.34
524.96	20774.60
525.13	20982.90
525.30	21200.57
525.47	21266.11
525.64	21223.98
525.81	20987.58
525.98	21099.93
526.16	21125.68
526.33	20996.95
526.50	20971.20
526.67	21074.18
526.84	21359.73
527.01	21324.62
527.18	21397.18
527.36	21322.28
527.53	21298.88
527.70	21783.37
527.87	21516.54
528.04	21436.97
528.21	21532.93
528.38	21593.78
528.55	21649.96
528.72	21455.69
528.89	21912.10
529.07	21359.73
529.24	21635.91
529.41	21745.92
529.58	21584.42
529.75	21888.69
529.92	21757.62
530.09	21809.11
530.26	22071.25
530.43	22019.76
530.60	21722.51
530.77	21907.41
530.94	22417.65
531.11	21930.82
531.28	21944.86
531.46	22265.52
531.63	22195.30
531.80	22155.51
531.97	22284.24
532.14	22167.21
532.31	22295.94
532.48	22555.74
532.65	22525.32
532.82	22232.75
532.99	22361.48
533.16	22455.10
533.33	22476.16
533.50	22562.76
533.67	22473.82
533.84	22546.38
534.01	22661.07
534.18	22504.25
534.35	22796.82
534.52	22319.35
534.69	22658.73
534.86	22455.10
535.03	22665.75
535.20	22801.50
535.37	22841.29
535.54	23208.75
535.71	22946.61
535.88	22960.66
536.05	22778.09
536.22	23236.84
536.38	22920.87
536.55	23159.60
536.72	23241.52
536.89	23215.77
537.06	23218.11
537.23	23440.47
537.40	23124.49
537.57	23330.46
537.74	22965.34
537.91	23419.40
538.08	23484.94
538.25	23550.47
538.42	23882.83
538.59	23405.36
538.75	23477.91
538.92	23569.19
539.09	23573.88
539.26	23108.11
539.43	23358.55
539.60	23421.74
539.77	23438.12
539.94	24070.07
540.11	23770.48
540.28	23597.28
540.44	24058.37
540.61	23943.68
540.78	24067.73
540.95	23812.61
541.12	24173.05
541.29	24039.64
541.46	24837.76
541.62	24386.04
541.79	24655.20
541.96	24093.47
542.13	24386.04
542.30	24231.57
542.47	24465.62
542.63	24306.46
542.80	24650.52
542.97	24837.76
543.14	24671.59
543.31	24767.55
543.48	24510.09
543.64	24893.94
543.81	24678.61
543.98	25116.29
544.15	24760.53
544.32	24865.85
544.48	24723.08
544.65	24968.84
544.82	25088.20
544.99	24732.44
545.16	25071.82
545.32	24947.77
545.49	25591.42
545.66	26082.93
545.83	26115.70
546.00	25818.45
546.16	25645.25
546.33	25184.16
546.50	25610.14
546.67	25184.16
546.83	24903.30
547.00	25001.60
547.17	25228.63
547.34	25090.54
547.50	24987.56
547.67	24943.09
547.84	25252.04
548.00	25715.47
548.17	25387.79
548.34	24989.90
548.51	25441.62
548.67	25509.50
548.84	25270.76
549.01	25099.90
549.18	25652.27
549.34	25415.88
549.51	25315.23
549.68	25495.46
549.84	25607.80
550.01	25605.46
550.18	25301.19
550.34	25420.56
550.51	25305.87
550.68	25216.93
550.84	25467.37
551.01	25488.43
551.18	25291.83
551.34	25083.52
551.51	25413.54
551.68	25057.78
551.84	25458.01
552.01	25422.90
552.18	25322.26
552.34	25631.21
552.51	25659.29
552.68	25458.01
552.84	25860.58
553.01	25671.00
553.18	25546.95
553.34	25560.99
553.51	25303.53
553.67	25680.36
553.84	25703.76
554.01	25916.75
554.17	25701.42
554.34	25783.34
554.51	25596.10
554.67	26033.78
554.84	25521.20
555.00	25556.31
555.17	25823.13
555.33	25659.29
555.50	25820.79
555.67	25659.29
555.83	25855.90
556.00	25593.76
556.16	26150.81
556.33	25600.78
556.50	26001.01
556.66	25923.77
556.83	25848.88
556.99	26298.26
557.16	26352.09
557.32	26073.57
557.49	26139.10
557.65	26003.35
557.82	25965.90
557.98	25556.31
558.15	26068.89
558.32	26106.34
558.48	26265.49
558.65	25958.88
558.81	26642.32
558.98	26246.77
559.14	26295.92
559.31	26300.60
559.47	26244.43
559.64	26040.80
559.80	25823.13
559.97	26277.19
560.13	25975.27
560.30	26082.93
560.46	26120.38
560.63	26263.15
560.79	26553.38
560.96	26242.09
561.12	26347.41
561.29	26298.26
561.45	26345.07
561.61	26698.49
561.78	26572.10
561.94	26419.97
562.11	26658.70
562.27	26647.00
562.44	26639.98
562.60	26670.40
562.77	26663.38
562.93	26457.42
563.10	26771.05
563.26	26239.75
563.42	26700.83
563.59	26504.23
563.75	26366.13
563.92	26459.76
564.08	26459.76
564.24	27089.36
564.41	26551.04
564.57	26394.22
564.74	26560.40
564.90	26689.13
565.07	26815.52
565.23	26693.81
565.39	26408.26
565.56	26810.84
565.72	26532.31
565.88	26920.84
566.05	26602.53
566.21	26572.10
566.38	26405.92
566.54	26742.96
566.70	26637.64
566.87	27012.12
567.03	26749.98
567.19	26972.33
567.36	26958.29
567.52	26263.15
567.68	26731.26
567.85	26810.84
568.01	26867.01
568.17	26986.38
568.34	26925.52
568.50	26918.50
568.66	26759.34
568.83	27159.58
568.99	26590.83
569.15	26654.02
569.32	27068.30
569.48	26766.37
569.64	27112.77
569.81	26611.89
569.97	26773.39
570.13	26527.63
570.30	26600.19
570.46	27030.85
570.62	26672.74
570.78	26960.63
570.95	26742.96
571.11	27239.15
571.27	26682.11
571.43	26515.93
571.60	26841.26
571.76	26834.24
571.92	27253.20
572.09	27016.80
572.25	27171.28
572.41	27271.92
572.57	26979.36
572.74	27290.65
572.90	26766.37
573.06	27131.49
573.22	26689.13
573.38	26771.05
573.55	27040.21
573.71	27180.64
573.87	26904.46
574.03	26721.90
574.20	26881.05
574.36	27171.28
574.52	26906.80
574.68	26941.91
574.84	26902.12
575.01	27058.93
575.17	26511.25
575.33	27227.45
575.49	26918.50
575.65	27150.21
575.82	26991.06
575.98	27192.34
576.14	27290.65
576.30	26909.14
576.46	27325.75
576.62	26862.33
576.79	27356.18
576.95	26567.42
577.11	27042.55
577.27	27335.12
577.43	27136.17
577.59	27264.90
577.75	27316.39
577.92	26850.63
578.08	27061.27
578.24	27260.22
578.40	27346.82
578.56	27594.92
578.72	27466.19
578.88	27749.39
579.04	27999.83
579.21	27489.59
579.37	27241.50
579.53	27187.66
579.69	26909.14
579.85	27171.28
580.01	27498.95
580.17	26969.99
580.33	26946.59
580.49	27475.55
580.65	27461.51
580.82	27042.55
580.98	27262.56
581.14	27094.04
581.30	27454.48
581.46	27182.98
581.62	27222.77
581.78	27197.02
581.94	26862.33
582.10	26960.63
582.26	27241.50
582.42	27569.17
582.58	27442.78
582.74	27337.46
582.90	27115.11
583.06	27033.19
583.22	27309.37
583.38	27583.21
583.54	27665.13
583.70	27126.81
583.86	27646.41
584.02	27339.80
584.18	27517.68
584.34	27445.12
584.50	27395.97
584.66	27316.39
584.82	27159.58
584.98	27164.26
585.14	27033.19
585.30	27573.85
585.46	27267.24
585.62	27192.34
585.78	27470.87
585.94	27253.20
586.10	27449.80
586.26	27438.10
586.42	27775.14
586.58	27632.36
586.74	27332.78
586.90	27587.89
587.06	27466.19
587.22	27442.78
587.38	27417.04
587.54	27470.87
587.70	27648.75
587.86	27807.90
588.02	27520.02
588.18	27810.25
588.34	27690.88
588.49	27672.15
588.65	27180.64
588.81	26967.65
588.97	27424.06
589.13	27108.08
589.29	27246.18
589.45	27374.91
589.61	27449.80
589.77	27571.51
589.93	27281.28
590.08	27704.92
590.24	27433.42
590.40	27466.19
590.56	27599.60
590.72	27505.98
