SpectraSuite Data File
++++++++++++++++++++++++++++++++++++
Date: Thu Oct 24 13:21:32 EDT 2013
User: stostad
Dark Spectrum Present: No
Reference Spectrum Present: No
Number of Sampled Component Spectra: 1
Spectrometers: USB2+H05261
Integration Time (usec): 100000 (USB2+H05261)
Spectra Averaged: 1 (USB2+H05261)
Boxcar Smoothing: 0 (USB2+H05261)
Correct for Electrical Dark: No (USB2+H05261)
Strobe/Lamp Enabled: No (USB2+H05261)
Correct for Detector Non-linearity: No (USB2+H05261)
Correct for Stray Light: No (USB2+H05261)
Number of Pixels in Processed Spectrum: 2048
>>>>>Begin Processed Spectral Data<<<<<
365.73	655.35
365.92	655.35
366.12	655.35
366.32	465.77
366.52	517.26
366.72	475.13
366.91	437.68
367.11	500.87
367.31	470.45
367.51	503.22
367.70	433.00
367.90	468.11
368.10	468.11
368.30	510.24
368.49	435.34
368.69	475.13
368.89	496.19
369.09	498.53
369.28	482.15
369.48	582.79
369.68	585.13
369.87	568.75
370.07	547.69
370.27	561.73
370.47	800.46
370.66	1095.37
370.86	1149.20
371.06	1132.82
371.25	1203.04
371.45	1156.22
371.65	1193.67
371.84	1212.40
372.04	1179.63
372.24	1193.67
372.44	1273.25
372.63	1224.10
372.83	1310.70
373.03	1254.53
373.22	1310.70
373.42	1334.11
373.62	1373.89
373.81	1437.09
374.01	1336.45
374.21	1394.96
374.40	1488.58
374.60	1399.64
374.79	1310.70
374.99	1448.79
375.19	1355.17
375.38	1439.43
375.58	1432.41
375.78	1444.11
375.97	1458.15
376.17	1521.35
376.37	1432.41
376.56	1490.92
376.76	1502.62
376.95	1558.80
377.15	1526.03
377.35	1554.12
377.54	1519.01
377.74	1497.94
377.93	1537.73
378.13	1472.20
378.33	1593.90
378.52	1654.76
378.72	1619.65
378.91	1500.28
379.11	1551.78
379.31	1605.61
379.50	1542.41
379.70	1664.12
379.89	1664.12
380.09	1734.34
380.28	1666.46
380.48	1722.63
380.68	1661.78
380.87	1647.74
381.07	1673.48
381.26	1661.78
381.46	1746.04
381.65	1795.19
381.85	1668.80
382.04	1795.19
382.24	1727.32
382.43	1806.89
382.63	1839.66
382.83	1666.46
383.02	1834.98
383.22	1816.26
383.41	1764.76
383.61	1837.32
383.80	1879.45
384.00	1949.67
384.19	1923.92
384.39	1842.00
384.58	1856.04
384.78	1851.36
384.97	1944.99
385.17	1886.47
385.36	1865.41
385.56	1792.85
385.75	1914.56
385.95	1926.26
386.14	2001.16
386.34	1914.56
386.53	2066.69
386.72	1975.41
386.92	1982.43
387.11	2019.88
387.31	2054.99
387.50	2073.71
387.70	2073.71
387.89	2010.52
388.09	2038.61
388.28	2183.72
388.48	2181.38
388.67	2040.95
388.86	2253.94
389.06	2155.63
389.25	2235.21
389.45	2202.44
389.64	2125.21
389.84	2188.40
390.03	2277.34
390.22	2277.34
390.42	2232.87
390.61	2282.02
390.81	2385.01
391.00	2223.51
391.19	2279.68
391.39	2300.75
391.58	2352.24
391.78	2375.64
391.97	2319.47
392.16	2417.77
392.36	2450.54
392.55	2523.10
392.75	2476.29
392.94	2413.09
393.13	2445.86
393.33	2431.82
393.52	2490.33
393.71	2551.18
393.91	2562.89
394.10	2511.39
394.29	2506.71
394.49	2530.12
394.68	2579.27
394.88	2518.42
395.07	2581.61
395.26	2677.57
395.46	2703.32
395.65	2736.09
395.84	2703.32
396.04	2789.92
396.23	2722.04
396.42	2839.07
396.62	2771.19
396.81	2792.26
397.00	2855.45
397.19	2818.00
397.39	2850.77
397.58	2794.60
397.77	2768.85
397.97	2902.26
398.16	2860.13
398.35	2972.48
398.55	2874.18
398.74	2993.55
398.93	2986.52
399.12	2944.39
399.32	3012.27
399.51	2960.78
399.70	3173.77
399.90	3152.70
400.09	3183.13
400.28	3255.69
400.47	3045.04
400.67	3243.98
400.86	3232.28
401.05	3239.30
401.24	3293.13
401.44	3246.32
401.63	3337.60
401.82	3412.50
402.01	3243.98
402.21	3356.33
402.40	3407.82
402.59	3344.63
402.78	3328.24
402.97	3459.31
403.17	3447.61
403.36	3414.84
403.55	3407.82
403.74	3449.95
403.93	3716.77
404.13	3613.79
404.32	3712.09
404.51	3691.02
404.70	3627.83
404.89	3623.15
405.09	3749.54
405.28	3721.45
405.47	3772.94
405.66	3646.55
405.85	3658.26
406.05	3913.38
406.24	3840.82
406.43	3906.35
406.62	4016.36
406.81	4049.13
407.00	3868.91
407.20	3852.52
407.39	3880.61
407.58	4056.15
407.77	3999.98
407.96	4121.68
408.15	4098.28
408.34	4011.68
408.54	4283.18
408.73	4117.00
408.92	4187.22
409.11	4273.82
409.30	4266.80
409.49	4400.21
409.68	4337.01
409.87	4205.94
410.07	4484.47
410.26	4407.23
410.45	4468.08
410.64	4435.32
410.83	4465.74
411.02	4601.49
411.21	4568.73
411.40	4748.95
411.59	4683.41
411.78	4713.84
411.98	4739.58
412.17	4800.44
412.36	4793.42
412.55	5004.07
412.74	4983.00
412.93	4865.97
413.12	5039.17
413.31	5097.69
413.50	5032.15
413.69	4997.04
413.88	5235.78
414.07	5280.25
414.26	5362.17
414.45	5488.56
414.64	5263.86
414.83	5430.04
415.02	5345.78
415.22	5518.98
415.41	5497.92
415.60	5579.84
415.79	5586.86
415.98	5717.93
416.17	5738.99
416.36	5724.95
416.55	5743.67
416.74	5937.94
416.93	5692.18
417.12	5816.23
417.31	5902.83
417.50	6050.28
417.69	6195.40
417.88	6019.86
418.07	6087.73
418.26	6113.48
418.45	6202.42
418.64	6282.00
418.83	6176.67
419.02	6265.61
419.21	6509.03
419.39	6492.65
419.58	6377.96
419.77	6368.60
419.96	6527.75
420.15	6604.99
420.34	6494.99
420.53	6572.22
420.72	6612.01
420.91	6750.10
421.10	6595.63
421.29	6850.75
421.48	6509.03
421.67	6733.72
421.86	6600.31
422.05	6789.89
422.24	6789.89
422.43	6822.66
422.61	7021.61
422.80	6902.24
422.99	6951.39
423.18	6995.86
423.37	7169.06
423.56	7012.24
423.75	6986.50
423.94	6661.16
424.13	6647.12
424.32	6775.85
424.50	6843.73
424.69	7073.10
424.88	7059.06
425.07	6913.94
425.26	6843.73
425.45	6998.20
425.64	6932.67
425.83	7145.66
426.01	7091.82
426.20	7056.72
426.39	7112.89
426.58	7096.50
426.77	6979.48
426.96	7206.51
427.15	7112.89
427.33	7412.48
427.52	7349.28
427.71	7485.03
427.90	7353.96
428.09	7452.27
428.28	7602.06
428.46	7581.00
428.65	7389.07
428.84	7831.43
429.03	7707.38
429.22	7463.97
429.40	7492.05
429.59	7550.57
429.78	7435.88
429.97	7368.01
430.16	7882.92
430.34	7882.92
430.53	8023.36
430.72	7985.91
430.91	7667.60
431.10	7887.61
431.28	8058.46
431.47	8131.02
431.66	8224.64
431.85	8002.29
432.03	8318.26
432.22	8245.71
432.41	8273.79
432.60	8304.22
432.79	8308.90
432.97	8365.07
433.16	8575.72
433.35	8397.84
433.54	8622.53
433.72	8470.40
433.91	8540.61
434.10	8580.40
434.28	8444.65
434.47	8645.94
434.66	8610.83
434.85	8901.06
435.03	8929.14
435.22	8793.39
435.41	9352.78
435.59	9195.96
435.78	9142.13
435.97	9163.20
436.16	9135.11
436.34	9163.20
436.53	9088.30
436.72	9163.20
436.90	9074.26
437.09	9252.14
437.28	9067.24
437.46	9109.36
437.65	9247.46
437.84	9338.74
438.02	9334.06
438.21	9373.85
438.40	9511.94
438.58	9781.10
438.77	9851.31
438.96	9631.30
439.14	9996.43
439.33	10068.98
439.52	9961.32
439.70	10111.11
439.89	10085.37
440.08	10200.05
440.26	10293.68
440.45	10300.70
440.63	10576.88
440.82	10775.83
441.01	10420.06
441.19	10527.73
441.38	10750.08
441.57	10719.65
441.75	10794.55
441.94	11307.13
442.12	11147.97
442.31	11136.27
442.50	11171.38
442.68	10977.11
442.87	11098.82
443.05	11325.85
443.24	11485.01
443.43	11360.96
443.61	11412.45
443.80	11705.02
443.98	11321.17
444.17	10843.70
444.35	11122.23
444.54	11573.95
444.73	11501.39
444.91	11438.20
445.10	11786.94
445.28	11435.86
445.47	11339.90
445.65	11606.72
445.84	11756.51
446.02	11662.89
446.21	11744.81
446.39	11758.85
446.58	11772.89
446.77	11562.25
446.95	11265.00
447.14	11676.93
447.32	11819.71
447.51	11929.71
447.69	11782.26
447.88	11878.22
448.06	11824.39
448.25	11786.94
448.43	11892.26
448.62	11768.21
448.80	11705.02
448.99	12072.48
449.17	12032.69
449.36	11971.84
449.54	12173.13
449.73	12191.85
449.91	12325.26
450.10	12554.63
450.28	12458.67
450.46	12517.18
450.65	12652.94
450.83	12711.45
451.02	12744.22
451.20	12861.24
451.39	12449.31
451.57	12648.26
451.76	12596.76
451.94	12744.22
452.13	12980.61
452.31	12940.82
452.49	12706.77
452.68	13109.34
452.86	13004.02
453.05	13060.19
453.23	13107.00
453.42	13025.08
453.60	13041.46
453.78	13221.69
453.97	13174.88
454.15	13081.25
454.34	12980.61
454.52	13235.73
454.70	13296.58
454.89	13514.25
455.07	13605.53
455.26	13652.34
455.44	13706.18
455.62	13820.86
455.81	13727.24
455.99	14043.21
456.17	13865.33
456.36	13834.91
456.54	14272.59
456.73	14061.94
456.91	14413.02
457.09	14462.17
457.28	14724.31
457.46	14607.28
457.64	14539.41
457.83	14490.26
458.01	14408.34
458.19	15061.35
458.38	14750.06
458.56	15061.35
458.74	14707.93
458.93	14806.23
459.11	14862.40
459.29	14951.34
459.48	14799.21
459.66	14731.33
459.84	15014.54
460.03	15332.85
460.21	15154.97
460.39	15126.88
460.57	15396.04
460.76	15484.98
460.94	15693.29
461.12	15667.55
461.31	15239.23
461.49	15316.47
461.67	15377.32
461.85	15758.83
462.04	15360.94
462.22	15873.51
462.40	16255.02
462.59	15667.55
462.77	15896.92
462.95	16027.99
463.13	15974.16
463.32	16390.77
463.50	16320.56
463.68	16273.74
463.86	16231.62
464.05	16065.44
464.23	16137.99
464.41	16486.73
464.59	16191.83
464.78	16999.31
464.96	16470.35
465.14	16428.22
465.32	16812.07
465.50	16908.03
465.69	16952.50
465.87	17020.38
466.05	16877.60
466.23	17060.16
466.41	17013.35
466.60	17118.68
466.78	16980.59
466.96	16947.82
467.14	16819.09
467.32	16999.31
467.51	17235.70
467.69	17034.42
467.87	17465.08
468.05	17408.90
468.23	17034.42
468.41	17619.55
468.60	17341.03
468.78	17764.67
468.96	17432.31
469.14	18115.75
469.32	18143.83
469.50	17619.55
469.69	18101.70
469.87	18160.22
470.05	17968.29
470.23	18317.03
470.41	18115.75
470.59	18387.25
470.77	18118.09
470.95	18291.29
471.14	18721.95
471.32	18190.64
471.50	18579.17
471.68	18593.22
471.86	18824.93
472.04	18911.53
472.22	19344.53
472.40	18864.72
472.58	19246.23
472.77	19255.59
472.95	19854.76
473.13	20042.01
473.31	19262.61
473.49	19646.46
473.67	19777.53
473.85	19803.27
474.03	20119.24
474.21	20144.99
474.39	20449.26
474.57	20322.87
474.75	20912.69
474.93	20673.95
475.12	20535.86
475.30	21018.01
475.48	20788.64
475.66	20917.37
475.84	21146.74
476.02	21228.66
476.20	21439.31
476.38	21713.15
476.56	22089.98
476.74	22054.87
476.92	21804.43
477.10	21778.68
477.28	22295.94
477.46	22602.55
477.64	22590.85
477.82	22759.37
478.00	23435.78
478.18	23374.93
478.36	23463.87
478.54	23529.41
478.72	23674.52
478.90	23812.61
479.08	24521.79
479.26	24552.22
479.44	24386.04
479.62	24907.98
479.80	25053.09
479.98	25158.42
480.16	25799.73
480.34	25420.56
480.52	26012.71
480.70	25685.04
480.88	25970.58
481.06	26082.93
481.24	26328.69
481.41	26141.44
481.59	27030.85
481.77	27180.64
481.95	27255.54
482.13	27351.50
482.31	27332.78
482.49	27845.35
482.67	27910.89
482.85	28444.53
483.03	28404.74
483.21	28556.88
483.39	29181.80
483.57	28973.49
483.74	29296.49
483.92	29308.19
484.10	29560.97
484.28	29933.11
484.46	30422.28
484.64	31087.00
484.82	30698.47
485.00	30948.90
485.18	31412.33
485.35	31601.91
485.53	31641.70
485.71	31725.96
485.89	32421.10
486.07	32552.17
486.25	32479.61
486.43	32573.24
486.61	33198.16
486.78	33097.52
486.96	33525.83
487.14	33773.93
487.32	33799.68
487.50	34216.29
487.68	34731.21
487.85	35058.88
488.03	35257.83
488.21	35744.66
488.39	35917.86
488.57	36222.13
488.75	36037.23
488.92	36278.30
489.10	36573.21
489.28	36673.85
489.46	37687.31
489.64	37244.94
489.81	38153.07
489.99	38087.54
490.17	37855.82
490.35	39110.35
490.53	38483.09
490.70	39234.40
490.88	39077.58
491.06	39620.59
491.24	39880.39
491.41	39878.05
491.59	40524.04
491.77	40687.87
491.95	41064.70
492.13	40699.58
492.30	41177.04
492.48	41401.74
492.66	41373.65
492.84	41464.93
493.01	42288.80
493.19	42270.08
493.37	42511.15
493.54	42192.84
493.72	43150.12
493.90	43292.89
494.08	43447.36
494.25	43878.02
494.43	44088.67
494.61	44395.28
494.79	44807.22
494.96	44411.67
495.14	44516.99
495.32	45167.66
495.49	45682.58
495.67	45642.79
495.85	45375.97
496.02	46000.89
496.20	46160.05
496.38	46085.15
496.55	46667.94
496.73	47526.92
496.91	47004.98
497.09	47196.90
497.26	47306.91
497.44	47243.71
497.62	47863.96
497.79	48367.17
497.97	47889.70
498.14	48577.82
498.32	48746.34
498.50	48760.38
498.67	49008.48
498.85	48875.07
499.03	49230.83
499.20	49574.89
499.38	49191.04
499.56	49937.67
499.73	50241.94
499.91	50080.44
500.08	50213.85
500.26	50471.31
500.44	50314.50
500.61	50794.31
500.79	50710.05
500.97	50885.59
501.14	51110.28
501.32	50939.42
501.49	51040.06
501.67	51559.66
501.84	51475.40
502.02	51793.71
502.20	51931.81
502.37	51941.17
502.55	51779.67
502.72	52112.03
502.90	51934.15
503.07	52362.46
503.25	52502.90
503.43	52332.04
503.60	53109.10
503.78	52676.10
503.95	52711.20
504.13	52849.30
504.30	53233.14
504.48	53291.66
504.65	53488.26
504.83	53521.03
505.01	53790.19
505.18	53291.66
505.36	53792.53
505.53	53570.18
505.71	53883.81
505.88	54054.67
506.06	53944.67
506.23	54316.81
506.41	54244.26
506.58	54468.95
506.76	54419.80
506.93	54866.84
507.11	54508.74
507.28	54859.82
507.46	55000.25
507.63	54836.41
507.81	55023.65
507.98	54775.56
508.16	54733.43
508.33	55276.43
508.50	55421.55
508.68	55594.74
508.85	55601.77
509.03	55618.15
509.20	55875.61
509.38	55884.97
509.55	55861.57
509.73	55908.38
509.90	56381.16
510.08	56016.04
510.25	56247.75
510.42	56418.61
510.60	56268.82
510.77	56542.66
510.95	56821.19
511.12	56526.28
511.30	56718.20
511.47	56765.01
511.64	56708.84
511.82	57279.93
511.99	56811.82
512.17	56970.98
512.34	57230.78
512.51	57532.71
512.69	57492.92
512.86	57626.33
513.04	57715.27
513.21	57411.00
513.38	57680.16
513.56	57865.06
513.73	57799.53
513.90	57893.15
514.08	57961.03
514.25	58117.84
514.43	57965.71
514.60	58120.18
514.77	57963.37
514.95	58166.99
515.12	58073.37
515.29	58082.73
515.47	58747.45
515.64	58691.27
515.81	58333.17
515.99	58721.70
516.16	58789.58
516.33	58752.13
516.51	58885.54
516.68	58820.00
516.85	58983.84
517.03	59281.09
517.20	59215.55
517.37	58990.86
517.54	59004.91
517.72	59199.17
517.89	59271.73
518.06	59590.04
518.24	59519.82
518.41	59458.97
518.58	59622.81
518.75	59306.83
518.93	59442.59
519.10	59508.12
519.27	59681.32
519.45	59810.05
519.62	60039.42
519.79	59819.41
519.96	59882.61
520.14	60027.72
520.31	59840.48
520.48	59896.65
520.65	60100.28
520.83	60444.33
521.00	60294.54
521.17	60423.27
521.34	60341.35
521.52	60441.99
521.69	60441.99
521.86	60484.12
522.03	60619.88
522.20	60580.09
522.38	60940.53
522.55	61183.94
522.72	60968.61
522.89	60975.64
523.07	60924.14
523.24	60992.02
523.41	61078.62
523.58	60851.59
523.75	61134.79
523.92	61359.48
524.10	61265.86
524.27	61425.02
524.44	61282.25
524.61	61490.55
524.78	61485.87
524.96	61450.77
525.13	61691.84
525.30	61886.10
525.47	61764.40
525.64	61806.53
525.81	61785.46
525.98	61991.43
526.16	61691.84
526.33	61815.89
526.50	61949.30
526.67	61881.42
526.84	62101.43
527.01	61904.83
527.18	62190.37
527.36	62286.34
527.53	62150.59
527.70	62354.21
527.87	62206.76
528.04	62288.68
528.21	62635.08
528.38	62368.26
528.55	62590.61
528.72	62408.04
528.89	62457.20
529.07	62293.36
529.24	62590.61
529.41	62485.28
529.58	62588.27
529.75	62738.06
529.92	62700.61
530.09	62653.80
530.26	62698.27
530.43	62808.28
530.60	62740.40
530.77	62761.47
530.94	62995.52
531.11	62901.90
531.28	63119.57
531.46	63044.67
531.63	63117.23
531.80	63082.12
531.97	63112.55
532.14	63039.99
532.31	63112.55
532.48	63449.58
532.65	63447.24
532.82	63245.96
532.99	63412.13
533.16	63278.72
533.33	63538.52
533.50	63508.10
533.67	63454.26
533.84	63522.14
534.01	63561.93
534.18	63793.64
534.35	63927.05
534.52	63751.51
534.69	63714.06
534.86	63788.96
535.03	63611.08
535.20	63856.84
535.37	63985.57
535.54	64032.38
535.71	63852.15
535.88	64069.82
536.05	63957.48
536.22	64116.64
536.38	64142.38
536.55	64015.99
536.72	64231.32
536.89	64278.13
537.06	64121.32
537.23	64502.82
537.40	64331.96
537.57	64205.58
537.74	64236.00
537.91	64367.07
538.08	64133.02
538.25	64331.96
538.42	64566.02
538.59	64633.89
538.75	64626.87
538.92	64491.12
539.09	64774.33
539.26	64694.75
539.43	64507.50
539.60	64631.55
539.77	64582.40
539.94	64881.99
540.11	64910.08
540.28	65015.40
540.44	64907.74
540.61	64970.93
540.78	64874.97
540.95	64830.50
541.12	64905.40
541.29	64928.80
541.46	65038.81
541.62	65169.88
541.79	65462.44
541.96	65069.23
542.13	65193.28
542.30	65013.06
542.47	65151.15
542.63	65155.83
542.80	65298.61
542.97	65535.00
543.14	65535.00
543.31	65535.00
543.48	65535.00
543.64	65535.00
543.81	65535.00
543.98	65535.00
544.15	65535.00
544.32	65535.00
544.48	65535.00
544.65	65535.00
544.82	65535.00
544.99	65535.00
545.16	65535.00
545.32	65535.00
545.49	65535.00
545.66	65535.00
545.83	65535.00
546.00	65535.00
546.16	65535.00
546.33	65535.00
546.50	65535.00
546.67	65535.00
546.83	65535.00
547.00	65535.00
547.17	65535.00
547.34	65535.00
547.50	65535.00
547.67	65535.00
547.84	65535.00
548.00	65535.00
548.17	65535.00
548.34	65535.00
548.51	65535.00
548.67	65535.00
548.84	65535.00
549.01	65535.00
549.18	65535.00
549.34	65535.00
549.51	65535.00
549.68	65535.00
549.84	65535.00
550.01	65535.00
550.18	65535.00
550.34	65535.00
550.51	65535.00
550.68	65535.00
550.84	65535.00
551.01	65535.00
551.18	65535.00
551.34	65535.00
551.51	65535.00
551.68	65535.00
551.84	65535.00
552.01	65535.00
552.18	65535.00
552.34	65535.00
552.51	65535.00
552.68	65535.00
552.84	65535.00
553.01	65535.00
553.18	65535.00
553.34	65535.00
553.51	65535.00
553.67	65535.00
553.84	65535.00
554.01	65535.00
554.17	65535.00
554.34	65535.00
554.51	65535.00
554.67	65535.00
554.84	65535.00
555.00	65535.00
555.17	65535.00
555.33	65535.00
555.50	65535.00
555.67	65535.00
555.83	65535.00
556.00	65535.00
556.16	65535.00
556.33	65535.00
556.50	65535.00
556.66	65535.00
556.83	65535.00
556.99	65535.00
557.16	65535.00
557.32	65535.00
557.49	65535.00
557.65	65535.00
557.82	65535.00
557.98	65535.00
558.15	65535.00
558.32	65535.00
558.48	65535.00
558.65	65535.00
558.81	65535.00
558.98	65535.00
559.14	65535.00
559.31	65535.00
559.47	65535.00
559.64	65535.00
559.80	65535.00
559.97	65535.00
560.13	65535.00
560.30	65535.00
560.46	65535.00
560.63	65535.00
560.79	65535.00
560.96	65535.00
561.12	65535.00
561.29	65535.00
561.45	65535.00
561.61	65535.00
561.78	65535.00
561.94	65535.00
562.11	65535.00
562.27	65535.00
562.44	65535.00
562.60	65535.00
562.77	65535.00
562.93	65535.00
563.10	65535.00
563.26	65535.00
563.42	65535.00
563.59	65535.00
563.75	65535.00
563.92	65535.00
564.08	65535.00
564.24	65535.00
564.41	65535.00
564.57	65535.00
564.74	65535.00
564.90	65535.00
565.07	65535.00
565.23	65535.00
565.39	65535.00
565.56	65535.00
565.72	65535.00
565.88	65535.00
566.05	65535.00
566.21	65535.00
566.38	65535.00
566.54	65535.00
566.70	65535.00
566.87	65535.00
567.03	65535.00
567.19	65535.00
567.36	65535.00
567.52	65535.00
567.68	65535.00
567.85	65535.00
568.01	65535.00
568.17	65535.00
568.34	65535.00
568.50	65535.00
568.66	65535.00
568.83	65535.00
568.99	65535.00
569.15	65535.00
569.32	65535.00
569.48	65535.00
569.64	65535.00
569.81	65535.00
569.97	65535.00
570.13	65535.00
570.30	65535.00
570.46	65535.00
570.62	65535.00
570.78	65535.00
570.95	65535.00
571.11	65535.00
571.27	65535.00
571.43	65535.00
571.60	65535.00
571.76	65535.00
571.92	65535.00
572.09	65535.00
572.25	65535.00
572.41	65535.00
572.57	65535.00
572.74	65535.00
572.90	65535.00
573.06	65535.00
573.22	65535.00
573.38	65535.00
573.55	65535.00
573.71	65535.00
573.87	65535.00
574.03	65535.00
574.20	65535.00
574.36	65535.00
574.52	65535.00
574.68	65535.00
574.84	65535.00
575.01	65535.00
575.17	65535.00
575.33	65535.00
575.49	65535.00
575.65	65535.00
575.82	65535.00
575.98	65535.00
576.14	65535.00
576.30	65535.00
576.46	65535.00
576.62	65535.00
576.79	65535.00
576.95	65535.00
577.11	65535.00
577.27	65535.00
577.43	65535.00
577.59	65535.00
577.75	65535.00
577.92	65535.00
578.08	65535.00
578.24	65535.00
578.40	65535.00
578.56	65535.00
578.72	65535.00
578.88	65535.00
579.04	65535.00
579.21	65535.00
579.37	65535.00
579.53	65535.00
579.69	65535.00
579.85	65535.00
580.01	65535.00
580.17	65535.00
580.33	65535.00
580.49	65535.00
580.65	65535.00
580.82	65535.00
580.98	65535.00
581.14	65535.00
581.30	65535.00
581.46	65535.00
581.62	65535.00
581.78	65535.00
581.94	65535.00
582.10	65535.00
582.26	65535.00
582.42	65535.00
582.58	65535.00
582.74	65535.00
582.90	65535.00
583.06	65535.00
583.22	65535.00
583.38	65535.00
583.54	65535.00
583.70	65535.00
583.86	65535.00
584.02	65535.00
584.18	65535.00
584.34	65535.00
584.50	65535.00
584.66	65535.00
584.82	65535.00
584.98	65535.00
585.14	65535.00
585.30	65535.00
585.46	65535.00
585.62	65535.00
585.78	65535.00
585.94	65535.00
586.10	65535.00
586.26	65535.00
586.42	65535.00
586.58	65535.00
586.74	65535.00
586.90	65535.00
587.06	65535.00
