SpectraSuite Data File
++++++++++++++++++++++++++++++++++++
Date: Thu Oct 24 13:21:18 EDT 2013
User: stostad
Dark Spectrum Present: No
Reference Spectrum Present: No
Number of Sampled Component Spectra: 1
Spectrometers: USB2+H05261
Integration Time (usec): 100000 (USB2+H05261)
Spectra Averaged: 1 (USB2+H05261)
Boxcar Smoothing: 0 (USB2+H05261)
Correct for Electrical Dark: No (USB2+H05261)
Strobe/Lamp Enabled: No (USB2+H05261)
Correct for Detector Non-linearity: No (USB2+H05261)
Correct for Stray Light: No (USB2+H05261)
Number of Pixels in Processed Spectrum: 2048
>>>>>Begin Processed Spectral Data<<<<<
365.73	550.03
365.92	550.03
366.12	550.03
366.32	486.83
366.52	451.72
366.72	505.56
366.91	468.11
367.11	491.51
367.31	484.49
367.51	397.89
367.70	491.51
367.90	538.32
368.10	416.62
368.30	456.40
368.49	491.51
368.69	496.19
368.89	507.90
369.09	500.87
369.28	533.64
369.48	489.17
369.68	479.81
369.87	564.07
370.07	498.53
370.27	566.41
370.47	641.31
370.66	720.88
370.86	821.53
371.06	870.68
371.25	849.61
371.45	856.64
371.65	912.81
371.84	917.49
372.04	844.93
372.24	866.00
372.44	873.02
372.63	997.07
372.83	894.08
373.03	866.00
373.22	919.83
373.42	940.90
373.62	873.02
373.81	1041.54
374.01	968.98
374.21	990.05
374.40	919.83
374.60	999.41
374.79	1050.90
374.99	929.19
375.19	980.68
375.38	945.58
375.58	1083.67
375.78	1078.99
375.97	1125.80
376.17	983.02
376.37	971.32
376.56	961.96
376.76	1048.56
376.95	1100.05
377.15	1053.24
377.35	954.94
377.54	983.02
377.74	1093.03
377.93	1039.20
378.13	957.28
378.33	992.39
378.52	1081.33
378.72	1153.88
378.91	1081.33
379.11	1034.52
379.31	980.68
379.50	1135.16
379.70	1123.46
379.89	1114.10
380.09	1078.99
380.28	1181.97
380.48	1114.10
380.68	1203.04
380.87	1067.28
381.07	1104.73
381.26	1135.16
381.46	1109.41
381.65	1109.41
381.85	1170.27
382.04	1149.20
382.24	1170.27
382.43	1174.95
382.63	1219.42
382.83	1149.20
383.02	1280.27
383.22	1214.74
383.41	1240.48
383.61	1107.07
383.80	1221.76
384.00	1224.10
384.19	1245.16
384.39	1156.22
384.58	1198.35
384.78	1196.01
384.97	1212.40
385.17	1196.01
385.36	1188.99
385.56	1181.97
385.75	1137.50
385.95	1334.11
386.14	1289.64
386.34	1308.36
386.53	1263.89
386.72	1203.04
386.92	1296.66
387.11	1334.11
387.31	1261.55
387.50	1259.21
387.70	1345.81
387.89	1219.42
388.09	1263.89
388.28	1284.95
388.48	1273.25
388.67	1336.45
388.86	1313.04
389.06	1362.19
389.25	1364.53
389.45	1329.42
389.64	1329.42
389.84	1301.34
390.03	1371.55
390.22	1427.73
390.42	1425.39
390.61	1348.15
390.81	1334.11
391.00	1343.47
391.19	1404.32
391.39	1460.49
391.58	1373.89
391.78	1453.47
391.97	1439.43
392.16	1455.81
392.36	1488.58
392.55	1472.20
392.75	1458.15
392.94	1582.20
393.13	1423.05
393.33	1455.81
393.52	1448.79
393.71	1607.95
393.91	1523.69
394.10	1486.24
394.29	1572.84
394.49	1542.41
394.68	1605.61
394.88	1605.61
395.07	1610.29
395.26	1519.01
395.46	1568.16
395.65	1636.03
395.84	1624.33
396.04	1617.31
396.23	1617.31
396.42	1689.87
396.62	1689.87
396.81	1708.59
397.00	1654.76
397.19	1739.02
397.39	1624.33
397.58	1650.08
397.77	1692.21
397.97	1673.48
398.16	1708.59
398.35	1760.08
398.55	1694.55
398.74	1757.74
398.93	1860.73
399.12	1827.96
399.32	1717.95
399.51	1776.47
399.70	1781.15
399.90	1736.68
400.09	1853.70
400.28	1804.55
400.47	1837.32
400.67	1893.49
400.86	1846.68
401.05	1907.54
401.24	1834.98
401.44	1930.94
401.63	1994.14
401.82	1865.41
402.01	1839.66
402.21	1902.86
402.40	1881.79
402.59	1867.75
402.78	1952.01
402.97	1968.39
403.17	2005.84
403.36	2047.97
403.55	2054.99
403.74	2136.91
403.93	2153.29
404.13	2230.53
404.32	2260.96
404.51	2122.87
404.70	2160.31
404.89	2150.95
405.09	2073.71
405.28	2040.95
405.47	2284.36
405.66	2216.49
405.85	2291.38
406.05	2221.17
406.24	2232.87
406.43	2244.57
406.62	2347.56
406.81	2361.60
407.00	2225.85
407.20	2237.55
407.39	2326.49
407.58	2317.13
407.77	2244.57
407.96	2431.82
408.15	2476.29
408.34	2457.56
408.54	2310.11
408.73	2530.12
408.92	2466.92
409.11	2553.52
409.30	2523.10
409.49	2555.86
409.68	2527.78
409.87	2590.97
410.07	2590.97
410.26	2649.49
410.45	2602.68
410.64	2492.67
410.83	2668.21
411.02	2733.75
411.21	2729.06
411.40	2712.68
411.59	2782.90
411.78	2799.28
411.98	2752.47
412.17	2745.45
412.36	2785.24
412.55	2885.88
412.74	2939.71
412.93	2958.44
413.12	2890.56
413.31	3098.87
413.50	2981.84
413.69	3000.57
413.88	3077.80
414.07	2998.23
414.26	3063.76
414.45	3136.32
414.64	3033.33
414.83	3059.08
415.02	3201.85
415.22	3234.62
415.41	3148.02
415.60	3103.55
415.79	3246.32
415.98	3323.56
416.17	3276.75
416.36	3307.18
416.55	3337.60
416.74	3302.50
416.93	3442.93
417.12	3410.16
417.31	3396.12
417.50	3510.80
417.69	3492.08
417.88	3438.25
418.07	3562.30
418.26	3424.20
418.45	3529.53
418.64	3597.40
418.83	3597.40
419.02	3555.27
419.21	3772.94
419.39	3576.34
419.58	3712.09
419.77	3602.08
419.96	3714.43
420.15	3700.39
420.34	3784.65
420.53	3707.41
420.72	3836.14
420.91	3768.26
421.10	3838.48
421.29	3702.73
421.48	3819.75
421.67	3812.73
421.86	3796.35
422.05	3838.48
422.24	3950.82
422.43	3843.16
422.61	3983.59
422.80	3964.87
422.99	3943.80
423.18	4070.19
423.37	4166.15
423.56	4044.45
423.75	3969.55
423.94	3992.95
424.13	3808.05
424.32	3824.44
424.50	4088.92
424.69	4037.42
424.88	4215.30
425.07	4032.74
425.26	4014.02
425.45	4145.09
425.64	4060.83
425.83	4014.02
426.01	4091.26
426.20	4147.43
426.39	4140.41
426.58	4035.08
426.77	4166.15
426.96	4039.76
427.15	4201.26
427.33	4259.78
427.52	4128.70
427.71	4184.88
427.90	4072.53
428.09	4304.25
428.28	4308.93
428.46	4257.43
428.65	4224.67
428.84	4500.85
429.03	4461.06
429.22	4299.56
429.40	4390.84
429.59	4346.37
429.78	4301.90
429.97	4184.88
430.16	4287.86
430.34	4414.25
430.53	4606.17
430.72	4561.70
430.91	4414.25
431.10	4468.08
431.28	4482.13
431.47	4617.88
431.66	4685.75
431.85	4624.90
432.03	4681.07
432.22	4798.10
432.41	4758.31
432.60	4636.60
432.79	4898.74
432.97	4723.20
433.16	4692.77
433.35	4599.15
433.54	4744.27
433.72	4858.95
433.91	4856.61
434.10	5020.45
434.28	4863.63
434.47	4905.76
434.66	4821.50
434.85	4903.42
435.03	5240.46
435.22	5064.92
435.41	5338.76
435.59	5245.14
435.78	5270.89
435.97	5200.67
436.16	5107.05
436.34	5011.09
436.53	5114.07
436.72	5219.39
436.90	5071.94
437.09	5006.41
437.28	4945.55
437.46	5188.97
437.65	5142.16
437.84	5406.64
438.02	5338.76
438.21	5294.29
438.40	5371.53
438.58	5327.06
438.77	5313.02
438.96	5554.09
439.14	5717.93
439.33	5720.27
439.52	5551.75
439.70	5603.24
439.89	5722.61
440.08	5781.12
440.26	5701.54
440.45	5767.08
440.63	5764.74
440.82	6146.25
441.01	5813.89
441.19	5870.06
441.38	5944.96
441.57	6108.80
441.75	5820.91
441.94	6174.33
442.12	6167.31
442.31	6239.87
442.50	6251.57
442.68	6223.48
442.87	6125.18
443.05	6272.64
443.24	6361.58
443.43	6274.98
443.61	6300.72
443.80	6558.18
443.98	6167.31
444.17	6223.48
444.35	6176.67
444.54	6368.60
444.73	6265.61
444.91	6469.24
445.10	6443.49
445.28	6399.02
445.47	6312.42
445.65	6586.27
445.84	6527.75
446.02	6736.06
446.21	6469.24
446.39	6450.52
446.58	6494.99
446.77	6684.57
446.95	6480.94
447.14	6525.41
447.32	6787.55
447.51	6480.94
447.69	6516.05
447.88	6548.82
448.06	6588.61
448.25	6555.84
448.43	6548.82
448.62	6424.77
448.80	6473.92
448.99	6640.10
449.17	6764.15
449.36	6530.09
449.54	6839.05
449.73	7023.95
449.91	6813.30
450.10	6993.52
450.28	6963.09
450.46	6764.15
450.65	6857.77
450.83	7030.97
451.02	6839.05
451.20	7002.88
451.39	7180.76
451.57	6869.47
451.76	6876.49
451.94	7012.24
452.13	7178.42
452.31	7246.30
452.49	7045.01
452.68	7258.00
452.86	7155.02
453.05	7194.81
453.23	7222.89
453.42	7185.44
453.60	7148.00
453.78	7302.47
453.97	7328.22
454.15	7276.73
454.34	7131.61
454.52	7372.69
454.70	7480.35
454.89	7492.05
455.07	7531.84
455.26	7522.48
455.44	7529.50
455.62	7573.97
455.81	7581.00
455.99	7595.04
456.17	7683.98
456.36	7611.42
456.54	7770.58
456.73	7957.82
456.91	8009.31
457.09	8030.38
457.28	8042.08
457.46	7758.88
457.64	8299.54
457.83	7997.61
458.01	7995.27
458.19	8018.68
458.38	8044.42
458.56	7953.14
458.74	8107.62
458.93	8201.24
459.11	8271.45
459.29	8191.88
459.48	8229.32
459.66	8222.30
459.84	8009.31
460.03	8315.92
460.21	8538.27
460.39	8299.54
460.57	8271.45
460.76	8472.74
460.94	8407.20
461.12	8465.72
461.31	8444.65
461.49	8461.04
461.67	8514.87
461.85	8503.17
462.04	8594.45
462.22	8912.76
462.40	9083.62
462.59	8645.94
462.77	8664.66
462.95	8692.75
463.13	9055.53
463.32	8699.77
463.50	8887.01
463.68	8858.93
463.86	8833.18
464.05	8828.50
464.23	8795.73
464.41	8961.91
464.59	8842.54
464.78	9029.79
464.96	8865.95
465.14	8901.06
465.32	8891.70
465.50	9050.85
465.69	9336.40
465.87	9097.66
466.05	9013.40
466.23	9177.24
466.41	9156.18
466.60	9415.98
466.78	9032.13
466.96	9191.28
467.14	9277.88
467.32	9296.61
467.51	9334.06
467.69	9282.56
467.87	9385.55
468.05	9568.11
468.23	9146.81
468.41	9418.32
468.60	9530.66
468.78	9584.49
468.96	9277.88
469.14	9633.64
469.32	9774.08
469.50	9404.27
469.69	9570.45
469.87	9657.05
470.05	9858.34
470.23	9769.40
470.41	9799.82
470.59	9795.14
470.77	9724.93
470.95	9933.23
471.14	10045.58
471.32	9795.14
471.50	10111.11
471.68	10167.29
471.86	10237.50
472.04	10195.37
472.22	10401.34
472.40	10211.76
472.58	10279.63
472.77	10186.01
472.95	10520.71
473.13	10693.91
473.31	10530.07
473.49	10480.92
473.67	10558.16
473.85	10705.61
474.03	10953.71
474.21	11122.23
474.39	11037.97
474.57	11068.39
474.75	11094.14
474.93	10775.83
475.12	10970.09
475.30	11087.12
475.48	11035.63
475.66	11400.75
475.84	11157.33
476.02	11424.15
476.20	11351.60
476.38	11602.04
476.56	11836.09
476.74	11396.07
476.92	11578.63
477.10	11733.11
477.28	11719.06
477.46	12084.19
477.64	12030.35
477.82	11943.75
478.00	12526.55
478.18	12390.80
478.36	12318.24
478.54	12489.10
478.72	12601.44
478.90	12720.81
479.08	12755.92
479.26	12929.12
479.44	12898.69
479.62	13242.75
479.80	12919.76
479.98	13448.72
480.16	13654.69
480.34	13268.50
480.52	13654.69
480.70	13846.61
480.88	13678.09
481.06	13579.79
481.24	13752.99
481.41	13870.01
481.59	14256.20
481.77	14305.35
481.95	14331.10
482.13	14560.47
482.31	14607.28
482.49	14874.10
482.67	14670.48
482.85	14984.11
483.03	15131.56
483.21	15056.67
483.39	15372.64
483.57	15192.42
483.74	15557.54
483.92	15796.28
484.10	15674.57
484.28	15793.94
484.46	15950.75
484.64	16102.89
484.82	16130.97
485.00	16350.98
485.18	16442.26
485.35	16865.90
485.53	16498.44
485.71	17130.38
485.89	17268.47
486.07	16809.73
486.25	17153.79
486.43	17191.23
486.61	17523.59
486.78	17759.98
486.96	17855.95
487.14	17980.00
487.32	17956.59
487.50	17961.27
487.68	18286.61
487.85	18312.35
488.03	18677.48
488.21	18754.71
488.39	18853.02
488.57	19166.65
488.75	19044.94
488.92	19445.17
489.10	19487.30
489.28	19552.84
489.46	19761.14
489.64	19726.04
489.81	20130.95
489.99	19936.68
490.17	20177.76
490.35	20409.47
490.53	20475.01
490.70	20540.54
490.88	20844.81
491.06	21324.62
491.24	20849.49
491.41	21036.74
491.59	21383.13
491.77	21383.13
491.95	21518.89
492.13	21846.56
492.30	21879.33
492.48	21937.84
492.66	21781.03
492.84	22345.09
493.01	22309.99
493.19	22338.07
493.37	22356.80
493.54	22558.08
493.72	22862.35
493.90	22595.53
494.08	22927.89
494.25	23260.24
494.43	23264.92
494.61	23723.67
494.79	23711.97
494.96	23281.31
495.14	23852.40
495.32	24072.41
495.49	24030.28
495.67	24189.44
495.85	24297.10
496.02	24173.05
496.20	24577.97
496.38	24243.27
496.55	24781.59
496.73	25085.86
496.91	24982.88
497.09	25568.01
497.26	25460.35
497.44	25188.85
497.62	25167.78
497.79	25600.78
497.97	25790.36
498.14	26015.05
498.32	26298.26
498.50	26167.19
498.67	26375.50
498.85	26457.42
499.03	26508.91
499.20	26525.29
499.38	26710.19
499.56	26806.16
499.73	27037.87
499.91	27023.83
500.08	27070.64
500.26	26775.73
500.44	27309.37
500.61	27302.35
500.79	27618.32
500.97	27630.02
501.14	27995.15
501.32	27454.48
501.49	27613.64
501.67	27470.87
501.84	28203.46
502.02	28332.18
502.20	28283.03
502.37	28491.34
502.55	28187.07
502.72	28294.74
502.90	28460.91
503.07	28671.56
503.25	28760.50
503.43	28638.80
503.60	29198.18
503.78	28774.55
503.95	28992.22
504.13	28940.72
504.30	29397.13
504.48	29317.55
504.65	29603.10
504.83	29900.34
505.01	29736.51
505.18	29846.51
505.36	29947.15
505.53	29963.54
505.71	30033.75
505.88	30239.72
506.06	29879.28
506.23	30597.82
506.41	30817.83
506.58	30527.61
506.76	30143.76
506.93	30899.75
507.11	30448.03
507.28	30668.04
507.46	31152.53
507.63	31288.28
507.81	31349.14
507.98	30962.95
508.16	31075.29
508.33	31152.53
508.50	31639.36
508.68	31644.04
508.85	32161.30
509.03	31662.77
509.20	31826.60
509.38	32025.55
509.55	32140.24
509.73	32189.39
509.90	32666.86
510.08	32519.40
510.25	32694.94
510.42	32521.74
510.60	32940.70
510.77	33198.16
510.95	32636.43
511.12	32886.87
511.30	33053.05
511.47	33376.04
511.64	33207.52
511.82	33371.36
511.99	32776.86
512.17	33111.56
512.34	33502.43
512.51	33762.23
512.69	33610.09
512.86	33762.23
513.04	33986.92
513.21	34155.44
513.38	33914.36
513.56	34321.62
513.73	33968.19
513.90	34630.57
514.08	34586.10
514.25	35049.52
514.43	34581.42
514.60	34972.28
514.77	34508.86
514.95	35117.40
515.12	34930.16
515.29	34878.66
515.47	35597.21
515.64	35297.62
515.81	35124.42
515.99	35236.77
516.16	35225.06
516.33	35318.68
516.51	35573.80
516.68	35735.30
516.85	35812.54
517.03	35842.96
517.20	35852.33
517.37	35927.22
517.54	35793.81
517.72	35562.10
517.89	36306.39
518.06	36257.24
518.24	36266.60
518.41	36201.07
518.58	36753.43
518.75	36013.82
518.93	36854.08
519.10	36287.67
519.27	36528.74
519.45	36790.88
519.62	37186.43
519.79	36912.59
519.96	36982.80
520.14	36957.06
520.31	36844.71
520.48	37043.66
520.65	37301.12
520.83	37411.12
521.00	37591.34
521.17	37247.29
521.34	37787.95
521.52	37816.04
521.69	37670.92
521.86	37581.98
522.03	37895.61
522.20	38335.63
522.38	38583.73
522.55	38295.85
522.72	38562.67
522.89	38361.38
523.07	38550.96
523.24	38345.00
523.41	38483.09
523.58	38672.67
523.75	39014.39
523.92	38511.17
524.10	39019.07
524.27	39564.42
524.44	39196.95
524.61	39271.85
524.78	39005.03
524.96	38693.74
525.13	39271.85
525.30	39391.22
525.47	39416.96
525.64	39248.44
525.81	39606.55
525.98	39615.91
526.16	39667.40
526.33	39632.29
526.50	40187.00
526.67	39856.98
526.84	39924.86
527.01	39852.30
527.18	40332.11
527.36	40170.61
527.53	39976.35
527.70	40533.40
527.87	40390.62
528.04	40336.79
528.21	40587.23
528.38	40517.01
528.55	40879.80
528.72	40114.44
528.89	40435.10
529.07	40428.07
529.24	40500.63
529.41	40886.82
529.58	40886.82
529.75	40818.94
529.92	41263.64
530.09	41134.92
530.26	40741.71
530.43	40996.82
530.60	41048.32
530.77	41476.63
530.94	41745.80
531.11	41624.09
531.28	41268.33
531.46	41532.81
531.63	41490.68
531.80	41804.31
531.97	41771.54
532.14	41830.05
532.31	41937.72
532.48	41308.11
532.65	42511.15
532.82	41710.69
532.99	42096.88
533.16	42204.54
533.33	41956.44
533.50	42541.58
533.67	42183.48
533.84	42150.71
534.01	42230.29
534.18	42246.67
534.35	42962.87
534.52	42384.76
534.69	42689.03
534.86	42616.47
535.03	42361.36
535.20	43058.84
535.37	42918.40
535.54	43065.86
535.71	42911.38
535.88	43274.16
536.05	43133.73
536.22	43203.95
536.38	43548.01
536.55	43409.92
536.72	43419.28
536.89	43419.28
537.06	43835.89
537.23	44158.89
537.40	43412.26
537.57	43391.19
537.74	43295.23
537.91	43770.36
538.08	44252.51
538.25	43409.92
538.42	43751.63
538.59	44491.24
538.75	43548.01
538.92	44708.91
539.09	44264.21
539.26	44222.08
539.43	43728.23
539.60	43971.64
539.77	44439.75
539.94	44460.82
540.11	44577.84
540.28	44837.64
540.44	44708.91
540.61	44608.27
540.78	44402.30
540.95	44931.26
541.12	44465.50
541.29	44729.98
541.46	44903.18
541.62	44896.16
541.79	45242.56
541.96	44912.54
542.13	45207.45
542.30	44793.17
542.47	45074.04
542.63	45055.31
542.80	45361.92
542.97	46174.09
543.14	45626.40
543.31	45584.27
543.48	45731.73
543.64	46295.80
543.81	45855.78
543.98	45759.81
544.15	45886.20
544.32	46768.58
544.48	46635.17
544.65	45794.92
544.82	46124.94
544.99	46150.68
545.16	46621.13
545.32	46251.33
545.49	46761.56
545.66	46859.87
545.83	47243.71
546.00	47065.83
546.16	47065.83
546.33	46775.61
546.50	46471.34
546.67	46536.87
546.83	46092.17
547.00	46396.44
547.17	46138.98
547.34	46319.20
547.50	46642.20
547.67	46852.84
547.84	46770.93
548.00	47105.62
548.17	47171.16
548.34	47021.36
548.51	47185.20
548.67	46995.62
548.84	47414.57
549.01	46866.89
549.18	47302.23
549.34	46848.16
549.51	47295.21
549.68	47594.79
549.84	47353.72
550.01	47185.20
550.18	46871.57
550.34	47086.90
550.51	47419.25
550.68	47501.17
550.84	47037.75
551.01	47702.46
551.18	47388.83
551.34	47255.42
551.51	47255.42
551.68	47672.03
551.84	47873.32
552.01	47374.78
552.18	47730.54
552.34	47414.57
552.51	48189.29
552.68	47646.29
552.84	47779.70
553.01	48189.29
553.18	47466.06
553.34	48193.97
553.51	47767.99
553.67	47901.40
553.84	48397.60
554.01	48507.60
554.17	48673.78
554.34	48449.09
554.51	48280.57
554.67	48275.89
554.84	47922.47
555.00	48032.47
555.17	48208.01
555.33	48121.41
555.50	48133.12
555.67	48229.08
555.83	48301.64
556.00	48409.30
556.16	48531.01
556.33	48678.46
556.50	48137.80
556.66	48549.73
556.83	48428.02
556.99	48631.65
557.16	48334.40
557.32	48999.12
557.49	49368.92
557.65	48566.12
557.82	48521.65
557.98	48430.36
558.15	48671.44
558.32	48868.05
558.48	48708.89
558.65	48722.93
558.81	48989.75
558.98	49127.84
559.14	49008.48
559.31	48631.65
559.47	49137.21
559.64	49205.08
559.80	48825.92
559.97	49198.06
560.13	48601.22
560.30	48978.05
560.46	49137.21
560.63	49120.82
560.79	49331.47
560.96	49659.15
561.12	49425.09
561.29	49027.20
561.45	49074.01
561.61	49289.34
561.78	49619.36
561.94	49418.07
562.11	49591.27
562.27	49474.24
562.44	49567.87
562.60	49591.27
562.77	49296.36
562.93	49034.22
563.10	49558.50
563.26	49240.19
563.42	49588.93
563.59	49581.91
563.75	49553.82
563.92	49680.21
564.08	49205.08
564.24	49563.18
564.41	49581.91
564.57	49366.58
564.74	49483.61
564.90	49710.64
565.07	49783.19
565.23	49780.85
565.39	49902.56
565.56	49865.11
565.72	49741.06
565.88	49848.73
566.05	49560.84
566.21	49787.88
566.38	49617.02
566.54	49600.63
566.70	50059.38
566.87	49731.70
567.03	49705.96
567.19	50557.91
567.36	50202.15
567.52	49825.32
567.68	49797.24
567.85	49755.11
568.01	49935.33
568.17	49811.28
568.34	50108.53
568.50	49750.43
568.66	49998.52
568.83	49982.14
568.99	50042.99
569.15	50010.23
569.32	50106.19
569.48	50267.69
569.64	49876.82
569.81	49738.72
569.97	49677.87
570.13	50050.02
570.30	49888.52
570.46	49886.18
570.62	50087.46
570.78	50190.45
570.95	49977.46
571.11	50480.67
571.27	49902.56
571.43	50141.30
571.60	50042.99
571.76	50106.19
571.92	50195.13
572.09	50454.93
572.25	50424.50
572.41	50202.15
572.57	50438.54
572.74	50520.46
572.90	49998.52
573.06	50337.90
573.22	50382.37
573.38	50361.31
573.55	50185.77
573.71	50798.99
573.87	50080.44
574.03	50195.13
574.20	49841.71
574.36	50548.55
574.52	50309.82
574.68	50185.77
574.84	50658.56
575.01	50447.91
575.17	50209.17
575.33	50337.90
575.49	49975.12
575.65	50576.64
575.82	50487.70
575.98	50340.24
576.14	50588.34
576.30	50967.51
576.46	50637.49
576.62	50220.87
576.79	50258.32
576.95	50288.75
577.11	50426.84
577.27	50836.44
577.43	50740.47
577.59	50408.12
577.75	50419.82
577.92	50426.84
578.08	50295.77
578.24	50494.72
578.40	50836.44
578.56	50876.22
578.72	50967.51
578.88	50997.93
579.04	50841.12
579.21	50892.61
579.37	50838.78
579.53	51126.66
579.69	50604.72
579.85	50681.96
580.01	50782.60
580.17	50546.21
580.33	50836.44
580.49	50965.17
580.65	50946.44
580.82	50686.64
580.98	50588.34
581.14	50848.14
581.30	50976.87
581.46	50520.46
581.62	50483.01
581.78	50703.03
581.94	50967.51
582.10	50506.42
582.26	50876.22
582.42	50663.24
582.58	50419.82
582.74	50714.73
582.90	51119.64
583.06	50361.31
583.22	50466.63
583.38	50883.25
583.54	50827.07
583.70	50443.23
583.86	50923.04
584.02	50988.57
584.18	50721.75
584.34	51185.18
584.50	50752.18
584.66	50534.51
584.82	50712.39
584.98	50894.95
585.14	50733.45
585.30	50974.53
585.46	51089.21
585.62	50417.48
585.78	51473.06
585.94	51100.92
586.10	51011.98
586.26	51002.61
586.42	51178.15
586.58	50787.28
586.74	51002.61
586.90	50653.87
587.06	50604.72
587.22	51239.01
587.38	50740.47
587.54	51002.61
587.70	51590.09
587.86	51096.24
588.02	51182.84
588.18	51309.22
588.34	50913.67
588.49	51145.39
588.65	50719.41
588.81	51058.79
588.97	51152.41
589.13	50974.53
