SpectraSuite Data File
++++++++++++++++++++++++++++++++++++
Date: Thu Oct 24 13:21:00 EDT 2013
User: stostad
Dark Spectrum Present: No
Reference Spectrum Present: No
Number of Sampled Component Spectra: 1
Spectrometers: USB2+H05261
Integration Time (usec): 100000 (USB2+H05261)
Spectra Averaged: 1 (USB2+H05261)
Boxcar Smoothing: 0 (USB2+H05261)
Correct for Electrical Dark: No (USB2+H05261)
Strobe/Lamp Enabled: No (USB2+H05261)
Correct for Detector Non-linearity: No (USB2+H05261)
Correct for Stray Light: No (USB2+H05261)
Number of Pixels in Processed Spectrum: 2048
>>>>>Begin Processed Spectral Data<<<<<
365.73	669.39
365.92	669.39
366.12	669.39
366.32	543.00
366.52	512.58
366.72	482.15
366.91	458.74
367.11	482.15
367.31	421.30
367.51	489.17
367.70	465.77
367.90	447.04
368.10	451.72
368.30	510.24
368.49	472.79
368.69	423.64
368.89	566.41
369.09	514.92
369.28	491.51
369.48	493.85
369.68	489.17
369.87	514.92
370.07	568.75
370.27	573.43
370.47	543.00
370.66	505.56
370.86	610.88
371.06	543.00
371.25	596.84
371.45	575.77
371.65	603.86
371.84	638.97
372.04	596.84
372.24	561.73
372.44	676.41
372.63	627.26
372.83	627.26
373.03	636.63
373.22	662.37
373.42	641.31
373.62	629.60
373.81	606.20
374.01	692.80
374.21	629.60
374.40	685.78
374.60	629.60
374.79	653.01
374.99	622.58
375.19	636.63
375.38	622.58
375.58	634.29
375.78	697.48
375.97	610.88
376.17	667.05
376.37	641.31
376.56	669.39
376.76	603.86
376.95	599.18
377.15	655.35
377.35	608.54
377.54	627.26
377.74	554.71
377.93	657.69
378.13	641.31
378.33	610.88
378.52	645.99
378.72	599.18
378.91	648.33
379.11	667.05
379.31	699.82
379.50	627.26
379.70	638.97
379.89	653.01
380.09	610.88
380.28	608.54
380.48	634.29
380.68	564.07
380.87	617.90
381.07	594.50
381.26	629.60
381.46	620.24
381.65	636.63
381.85	620.24
382.04	613.22
382.24	592.16
382.43	599.18
382.63	676.41
382.83	571.09
383.02	751.31
383.22	638.97
383.41	653.01
383.61	664.71
383.80	664.71
384.00	643.65
384.19	655.35
384.39	587.47
384.58	580.45
384.78	655.35
384.97	751.31
385.17	650.67
385.36	641.31
385.56	681.10
385.75	664.71
385.95	568.75
386.14	592.16
386.34	648.33
386.53	631.94
386.72	601.52
386.92	662.37
387.11	634.29
387.31	594.50
387.50	641.31
387.70	638.97
387.89	582.79
388.09	655.35
388.28	634.29
388.48	608.54
388.67	620.24
388.86	606.20
389.06	566.41
389.25	638.97
389.45	664.71
389.64	554.71
389.84	681.10
390.03	662.37
390.22	622.58
390.42	608.54
390.61	620.24
390.81	704.50
391.00	561.73
391.19	655.35
391.39	594.50
391.58	657.69
391.78	627.26
391.97	638.97
392.16	592.16
392.36	685.78
392.55	589.82
392.75	676.41
392.94	571.09
393.13	568.75
393.33	599.18
393.52	638.97
393.71	662.37
393.91	596.84
394.10	653.01
394.29	585.13
394.49	599.18
394.68	613.22
394.88	683.44
395.07	671.73
395.26	650.67
395.46	660.03
395.65	645.99
395.84	657.69
396.04	615.56
396.23	683.44
396.42	608.54
396.62	613.22
396.81	641.31
397.00	645.99
397.19	594.50
397.39	599.18
397.58	667.05
397.77	702.16
397.97	599.18
398.16	664.71
398.35	622.58
398.55	631.94
398.74	596.84
398.93	613.22
399.12	638.97
399.32	585.13
399.51	685.78
399.70	645.99
399.90	564.07
400.09	709.18
400.28	627.26
400.47	557.05
400.67	664.71
400.86	594.50
401.05	608.54
401.24	610.88
401.44	660.03
401.63	587.47
401.82	653.01
402.01	622.58
402.21	624.92
402.40	641.31
402.59	587.47
402.78	631.94
402.97	709.18
403.17	613.22
403.36	655.35
403.55	613.22
403.74	676.41
403.93	676.41
404.13	737.27
404.32	655.35
404.51	669.39
404.70	594.50
404.89	678.76
405.09	615.56
405.28	648.33
405.47	657.69
405.66	573.43
405.85	678.76
406.05	629.60
406.24	580.45
406.43	608.54
406.62	631.94
406.81	688.12
407.00	702.16
407.20	685.78
407.39	608.54
407.58	634.29
407.77	631.94
407.96	653.01
408.15	617.90
408.34	615.56
408.54	678.76
408.73	580.45
408.92	599.18
409.11	617.90
409.30	596.84
409.49	561.73
409.68	638.97
409.87	561.73
410.07	699.82
410.26	601.52
410.45	627.26
410.64	578.11
410.83	571.09
411.02	582.79
411.21	667.05
411.40	622.58
411.59	641.31
411.78	655.35
411.98	594.50
412.17	643.65
412.36	631.94
412.55	592.16
412.74	594.50
412.93	662.37
413.12	643.65
413.31	655.35
413.50	589.82
413.69	667.05
413.88	716.20
414.07	554.71
414.26	589.82
414.45	608.54
414.64	636.63
414.83	650.67
415.02	615.56
415.22	629.60
415.41	622.58
415.60	631.94
415.79	622.58
415.98	594.50
416.17	575.77
416.36	655.35
416.55	617.90
416.74	690.46
416.93	681.10
417.12	617.90
417.31	641.31
417.50	681.10
417.69	624.92
417.88	643.65
418.07	580.45
418.26	615.56
418.45	606.20
418.64	660.03
418.83	643.65
419.02	629.60
419.21	636.63
419.39	660.03
419.58	627.26
419.77	578.11
419.96	585.13
420.15	641.31
420.34	603.86
420.53	662.37
420.72	636.63
420.91	697.48
421.10	599.18
421.29	620.24
421.48	674.07
421.67	664.71
421.86	713.86
422.05	582.79
422.24	615.56
422.43	631.94
422.61	636.63
422.80	669.39
422.99	643.65
423.18	627.26
423.37	671.73
423.56	613.22
423.75	636.63
423.94	575.77
424.13	608.54
424.32	627.26
424.50	648.33
424.69	571.09
424.88	657.69
425.07	692.80
425.26	636.63
425.45	720.88
425.64	671.73
425.83	615.56
426.01	613.22
426.20	617.90
426.39	606.20
426.58	559.39
426.77	669.39
426.96	683.44
427.15	629.60
427.33	634.29
427.52	641.31
427.71	681.10
427.90	671.73
428.09	622.58
428.28	631.94
428.46	624.92
428.65	615.56
428.84	645.99
429.03	599.18
429.22	615.56
429.40	678.76
429.59	669.39
429.78	664.71
429.97	592.16
430.16	645.99
430.34	620.24
430.53	575.77
430.72	624.92
430.91	669.39
431.10	608.54
431.28	613.22
431.47	599.18
431.66	683.44
431.85	599.18
432.03	720.88
432.22	692.80
432.41	657.69
432.60	685.78
432.79	643.65
432.97	662.37
433.16	620.24
433.35	634.29
433.54	720.88
433.72	629.60
433.91	585.13
434.10	678.76
434.28	676.41
434.47	638.97
434.66	627.26
434.85	662.37
435.03	800.46
435.22	1022.81
435.41	1123.46
435.59	1090.69
435.78	983.02
435.97	840.25
436.16	868.34
436.34	695.14
436.53	697.48
436.72	699.82
436.90	695.14
437.09	629.60
437.28	653.01
437.46	674.07
437.65	585.13
437.84	561.73
438.02	582.79
438.21	631.94
438.40	622.58
438.58	631.94
438.77	643.65
438.96	678.76
439.14	685.78
439.33	603.86
439.52	592.16
439.70	732.59
439.89	706.84
440.08	667.05
440.26	601.52
440.45	664.71
440.63	589.82
440.82	657.69
441.01	624.92
441.19	716.20
441.38	608.54
441.57	627.26
441.75	676.41
441.94	622.58
442.12	692.80
442.31	589.82
442.50	655.35
442.68	657.69
442.87	631.94
443.05	617.90
443.24	634.29
443.43	690.46
443.61	730.25
443.80	674.07
443.98	615.56
444.17	643.65
444.35	610.88
444.54	645.99
444.73	653.01
444.91	624.92
445.10	617.90
445.28	690.46
445.47	631.94
445.65	650.67
445.84	657.69
446.02	636.63
446.21	641.31
446.39	685.78
446.58	664.71
446.77	678.76
446.95	589.82
447.14	568.75
447.32	662.37
447.51	683.44
447.69	662.37
447.88	622.58
448.06	716.20
448.25	624.92
448.43	634.29
448.62	641.31
448.80	650.67
448.99	725.57
449.17	653.01
449.36	655.35
449.54	580.45
449.73	706.84
449.91	641.31
450.10	634.29
450.28	716.20
450.46	608.54
450.65	617.90
450.83	650.67
451.02	650.67
451.20	629.60
451.39	734.93
451.57	634.29
451.76	617.90
451.94	578.11
452.13	688.12
452.31	638.97
452.49	634.29
452.68	594.50
452.86	683.44
453.05	617.90
453.23	660.03
453.42	613.22
453.60	685.78
453.78	589.82
453.97	638.97
454.15	613.22
454.34	585.13
454.52	648.33
454.70	638.97
454.89	678.76
455.07	589.82
455.26	585.13
455.44	627.26
455.62	678.76
455.81	631.94
455.99	657.69
456.17	624.92
456.36	650.67
456.54	697.48
456.73	636.63
456.91	676.41
457.09	592.16
457.28	704.50
457.46	697.48
457.64	603.86
457.83	613.22
458.01	552.37
458.19	617.90
458.38	695.14
458.56	629.60
458.74	620.24
458.93	657.69
459.11	564.07
459.29	608.54
459.48	638.97
459.66	681.10
459.84	648.33
460.03	667.05
460.21	657.69
460.39	631.94
460.57	641.31
460.76	641.31
460.94	643.65
461.12	713.86
461.31	641.31
461.49	662.37
461.67	674.07
461.85	664.71
462.04	631.94
462.22	990.05
462.40	631.94
462.59	662.37
462.77	610.88
462.95	594.50
463.13	606.20
463.32	653.01
463.50	629.60
463.68	664.71
463.86	627.26
464.05	510.24
464.23	667.05
464.41	688.12
464.59	671.73
464.78	561.73
464.96	627.26
465.14	650.67
465.32	627.26
465.50	648.33
465.69	592.16
465.87	610.88
466.05	653.01
466.23	674.07
466.41	594.50
466.60	634.29
466.78	617.90
466.96	636.63
467.14	674.07
467.32	657.69
467.51	695.14
467.69	643.65
467.87	685.78
468.05	606.20
468.23	674.07
468.41	636.63
468.60	685.78
468.78	648.33
468.96	692.80
469.14	589.82
469.32	734.93
469.50	648.33
469.69	606.20
469.87	655.35
470.05	578.11
470.23	585.13
470.41	627.26
470.59	676.41
470.77	634.29
470.95	634.29
471.14	674.07
471.32	592.16
471.50	676.41
471.68	622.58
471.86	608.54
472.04	662.37
472.22	664.71
472.40	634.29
472.58	613.22
472.77	650.67
472.95	657.69
473.13	664.71
473.31	634.29
473.49	650.67
473.67	653.01
473.85	697.48
474.03	674.07
474.21	615.56
474.39	638.97
474.57	648.33
474.75	653.01
474.93	664.71
475.12	606.20
475.30	667.05
475.48	660.03
475.66	634.29
475.84	575.77
476.02	650.67
476.20	638.97
476.38	592.16
476.56	617.90
476.74	723.23
476.92	585.13
477.10	636.63
477.28	676.41
477.46	660.03
477.64	650.67
477.82	650.67
478.00	582.79
478.18	641.31
478.36	678.76
478.54	601.52
478.72	695.14
478.90	606.20
479.08	662.37
479.26	606.20
479.44	692.80
479.62	622.58
479.80	645.99
479.98	627.26
480.16	671.73
480.34	657.69
480.52	589.82
480.70	634.29
480.88	627.26
481.06	550.03
481.24	568.75
481.41	585.13
481.59	629.60
481.77	711.52
481.95	613.22
482.13	699.82
482.31	648.33
482.49	699.82
482.67	645.99
482.85	683.44
483.03	671.73
483.21	678.76
483.39	660.03
483.57	683.44
483.74	702.16
483.92	657.69
484.10	662.37
484.28	641.31
484.46	678.76
484.64	653.01
484.82	685.78
485.00	688.12
485.18	702.16
485.35	683.44
485.53	699.82
485.71	786.42
485.89	699.82
486.07	770.04
486.25	744.29
486.43	706.84
486.61	723.23
486.78	669.39
486.96	667.05
487.14	706.84
487.32	779.40
487.50	674.07
487.68	716.20
487.85	681.10
488.03	763.01
488.21	681.10
488.39	805.14
488.57	695.14
488.75	702.16
488.92	751.31
489.10	681.10
489.28	690.46
489.46	702.16
489.64	695.14
489.81	613.22
489.99	603.86
490.17	697.48
490.35	772.38
490.53	699.82
490.70	674.07
490.88	699.82
491.06	690.46
491.24	737.27
491.41	709.18
491.59	655.35
491.77	720.88
491.95	692.80
492.13	730.25
492.30	706.84
492.48	636.63
492.66	650.67
492.84	702.16
493.01	727.91
493.19	669.39
493.37	713.86
493.54	706.84
493.72	699.82
493.90	664.71
494.08	744.29
494.25	788.76
494.43	669.39
494.61	667.05
494.79	664.71
494.96	697.48
495.14	706.84
495.32	767.70
495.49	660.03
495.67	683.44
495.85	681.10
496.02	697.48
496.20	786.42
496.38	685.78
496.55	702.16
496.73	704.50
496.91	655.35
497.09	641.31
497.26	702.16
497.44	713.86
497.62	725.57
497.79	617.90
497.97	655.35
498.14	702.16
498.32	727.91
498.50	725.57
498.67	655.35
498.85	699.82
499.03	695.14
499.20	634.29
499.38	657.69
499.56	660.03
499.73	741.95
499.91	678.76
500.08	657.69
500.26	674.07
500.44	676.41
500.61	653.01
500.79	653.01
500.97	643.65
501.14	730.25
501.32	662.37
501.49	641.31
501.67	631.94
501.84	580.45
502.02	638.97
502.20	582.79
502.37	641.31
502.55	638.97
502.72	671.73
502.90	683.44
503.07	681.10
503.25	650.67
503.43	683.44
503.60	641.31
503.78	589.82
503.95	695.14
504.13	669.39
504.30	695.14
504.48	695.14
504.65	676.41
504.83	723.23
505.01	620.24
505.18	685.78
505.36	636.63
505.53	596.84
505.71	627.26
505.88	660.03
506.06	594.50
506.23	638.97
506.41	667.05
506.58	641.31
506.76	655.35
506.93	603.86
507.11	624.92
507.28	636.63
507.46	610.88
507.63	634.29
507.81	688.12
507.98	643.65
508.16	613.22
508.33	653.01
508.50	713.86
508.68	561.73
508.85	641.31
509.03	617.90
509.20	645.99
509.38	599.18
509.55	624.92
509.73	678.76
509.90	709.18
510.08	615.56
510.25	662.37
510.42	606.20
510.60	636.63
510.77	695.14
510.95	653.01
511.12	645.99
511.30	678.76
511.47	608.54
511.64	678.76
511.82	653.01
511.99	709.18
512.17	638.97
512.34	645.99
512.51	638.97
512.69	559.39
512.86	615.56
513.04	559.39
513.21	699.82
513.38	641.31
513.56	617.90
513.73	662.37
513.90	620.24
514.08	629.60
514.25	669.39
514.43	594.50
514.60	561.73
514.77	669.39
514.95	636.63
515.12	674.07
515.29	613.22
515.47	678.76
515.64	608.54
515.81	638.97
515.99	685.78
516.16	681.10
516.33	655.35
516.51	669.39
516.68	664.71
516.85	690.46
517.03	608.54
517.20	631.94
517.37	608.54
517.54	650.67
517.72	622.58
517.89	575.77
518.06	662.37
518.24	667.05
518.41	660.03
518.58	678.76
518.75	638.97
518.93	669.39
519.10	634.29
519.27	636.63
519.45	627.26
519.62	596.84
519.79	681.10
519.96	676.41
520.14	653.01
520.31	702.16
520.48	650.67
520.65	660.03
520.83	725.57
521.00	718.54
521.17	662.37
521.34	599.18
521.52	657.69
521.69	594.50
521.86	716.20
522.03	683.44
522.20	638.97
522.38	706.84
522.55	627.26
522.72	615.56
522.89	692.80
523.07	648.33
523.24	587.47
523.41	608.54
523.58	650.67
523.75	655.35
523.92	622.58
524.10	636.63
524.27	594.50
524.44	657.69
524.61	587.47
524.78	585.13
524.96	732.59
525.13	606.20
525.30	636.63
525.47	620.24
525.64	638.97
525.81	671.73
525.98	629.60
526.16	664.71
526.33	592.16
526.50	615.56
526.67	636.63
526.84	681.10
527.01	664.71
527.18	629.60
527.36	620.24
527.53	692.80
527.70	641.31
527.87	674.07
528.04	638.97
528.21	627.26
528.38	723.23
528.55	660.03
528.72	683.44
528.89	699.82
529.07	674.07
529.24	716.20
529.41	718.54
529.58	617.90
529.75	690.46
529.92	723.23
530.09	667.05
530.26	603.86
530.43	697.48
530.60	629.60
530.77	697.48
530.94	608.54
531.11	718.54
531.28	678.76
531.46	564.07
531.63	685.78
531.80	702.16
531.97	638.97
532.14	629.60
532.31	688.12
532.48	674.07
532.65	760.67
532.82	657.69
532.99	678.76
533.16	711.52
533.33	671.73
533.50	624.92
533.67	571.09
533.84	606.20
534.01	678.76
534.18	709.18
534.35	690.46
534.52	676.41
534.69	725.57
534.86	671.73
535.03	674.07
535.20	674.07
535.37	727.91
535.54	725.57
535.71	725.57
535.88	711.52
536.05	716.20
536.22	674.07
536.38	685.78
536.55	711.52
536.72	751.31
536.89	713.86
537.06	697.48
537.23	706.84
537.40	772.38
537.57	737.27
537.74	727.91
537.91	685.78
538.08	734.93
538.25	723.23
538.42	692.80
538.59	842.59
538.75	816.85
538.92	751.31
539.09	751.31
539.26	760.67
539.43	786.42
539.60	873.02
539.77	795.78
539.94	889.40
540.11	947.92
540.28	837.91
540.44	961.96
540.61	990.05
540.78	1064.94
540.95	1116.44
541.12	1123.46
541.29	1261.55
541.46	1327.08
541.62	1336.45
541.79	1352.83
541.96	1188.99
542.13	1273.25
542.30	1310.70
542.47	1343.47
542.63	1280.27
542.80	1233.46
542.97	1252.19
543.14	1249.85
543.31	1282.61
543.48	1240.48
543.64	1247.51
543.81	1179.63
543.98	1233.46
544.15	1203.04
544.32	1212.40
544.48	1217.08
544.65	1149.20
544.82	1240.48
544.99	1156.22
545.16	1149.20
545.32	1268.57
545.49	1521.35
545.66	1977.75
545.83	2176.70
546.00	2033.93
546.16	1708.59
546.33	1462.83
546.50	1425.39
546.67	1245.16
546.83	1132.82
547.00	1043.88
547.17	1064.94
547.34	966.64
547.50	987.71
547.67	1018.13
547.84	985.37
548.00	950.26
548.17	1006.43
548.34	905.79
548.51	905.79
548.67	952.60
548.84	968.98
549.01	903.45
549.18	877.70
549.34	882.38
549.51	800.46
549.68	898.77
549.84	868.34
550.01	819.19
550.18	814.51
550.34	826.21
550.51	758.33
550.68	842.59
550.84	823.87
551.01	765.36
551.18	763.01
551.34	732.59
551.51	711.52
551.68	760.67
551.84	791.10
552.01	802.80
552.18	821.53
552.34	751.31
552.51	690.46
552.68	765.36
552.84	781.74
553.01	788.76
553.18	753.65
553.34	676.41
553.51	692.80
553.67	678.76
553.84	744.29
554.01	671.73
554.17	671.73
554.34	683.44
554.51	697.48
554.67	606.20
554.84	709.18
555.00	624.92
555.17	627.26
555.33	685.78
555.50	730.25
555.67	727.91
555.83	681.10
556.00	681.10
556.16	774.72
556.33	725.57
556.50	695.14
556.66	706.84
556.83	709.18
556.99	669.39
557.16	741.95
557.32	730.25
557.49	681.10
557.65	645.99
557.82	624.92
557.98	650.67
558.15	648.33
558.32	622.58
558.48	681.10
558.65	720.88
558.81	653.01
558.98	650.67
559.14	685.78
559.31	699.82
559.47	695.14
559.64	585.13
559.80	702.16
559.97	620.24
560.13	674.07
560.30	716.20
560.46	599.18
560.63	713.86
560.79	674.07
560.96	688.12
561.12	669.39
561.29	716.20
561.45	650.67
561.61	608.54
561.78	688.12
561.94	690.46
562.11	723.23
562.27	617.90
562.44	660.03
562.60	699.82
562.77	734.93
562.93	737.27
563.10	645.99
563.26	723.23
563.42	697.48
563.59	676.41
563.75	695.14
563.92	674.07
564.08	653.01
564.24	587.47
564.41	685.78
564.57	653.01
564.74	620.24
564.90	702.16
565.07	704.50
565.23	648.33
565.39	629.60
565.56	624.92
565.72	662.37
565.88	641.31
566.05	585.13
566.21	545.34
566.38	615.56
566.54	643.65
566.70	629.60
566.87	660.03
567.03	617.90
567.19	706.84
567.36	765.36
567.52	580.45
567.68	608.54
567.85	578.11
568.01	634.29
568.17	643.65
568.34	634.29
568.50	704.50
568.66	601.52
568.83	706.84
568.99	589.82
569.15	643.65
569.32	634.29
569.48	678.76
569.64	683.44
569.81	746.63
569.97	674.07
570.13	613.22
570.30	603.86
570.46	716.20
570.62	624.92
570.78	620.24
570.95	585.13
571.11	697.48
571.27	669.39
571.43	676.41
571.60	674.07
571.76	610.88
571.92	629.60
572.09	638.97
572.25	622.58
572.41	660.03
572.57	685.78
572.74	650.67
572.90	702.16
573.06	695.14
573.22	683.44
573.38	748.97
573.55	716.20
573.71	678.76
573.87	716.20
574.03	629.60
574.20	667.05
574.36	734.93
574.52	617.90
574.68	606.20
574.84	699.82
575.01	634.29
575.17	699.82
575.33	606.20
575.49	662.37
575.65	699.82
575.82	624.92
575.98	692.80
576.14	629.60
576.30	718.54
576.46	755.99
576.62	896.43
576.79	863.66
576.95	943.24
577.11	826.21
577.27	786.42
577.43	772.38
577.59	746.63
577.75	697.48
577.92	716.20
578.08	706.84
578.24	660.03
578.40	678.76
578.56	706.84
578.72	833.23
578.88	866.00
579.04	870.68
579.21	816.85
579.37	800.46
579.53	812.17
579.69	844.93
579.85	800.46
580.01	774.72
580.17	730.25
580.33	739.61
580.49	791.10
580.65	713.86
580.82	727.91
580.98	758.33
581.14	791.10
581.30	821.53
581.46	732.59
581.62	767.70
581.78	805.14
581.94	755.99
582.10	716.20
582.26	702.16
582.42	791.10
582.58	725.57
582.74	732.59
582.90	758.33
583.06	821.53
583.22	774.72
583.38	833.23
583.54	725.57
583.70	791.10
583.86	826.21
584.02	784.08
584.18	791.10
584.34	753.65
584.50	819.19
584.66	828.55
584.82	753.65
584.98	732.59
585.14	786.42
585.30	772.38
585.46	758.33
585.62	723.23
585.78	788.76
585.94	706.84
586.10	760.67
586.26	755.99
586.42	763.01
586.58	767.70
586.74	779.40
586.90	784.08
587.06	842.59
587.22	861.32
587.38	917.49
587.54	814.51
587.70	833.23
587.86	755.99
588.02	826.21
588.18	760.67
588.34	774.72
588.49	772.38
588.65	739.61
588.81	720.88
588.97	709.18
589.13	709.18
589.29	704.50
589.45	730.25
589.61	748.97
589.77	774.72
589.93	779.40
590.08	772.38
590.24	732.59
590.40	711.52
590.56	793.44
590.72	685.78
590.88	805.14
591.04	779.40
591.20	727.91
591.35	706.84
591.51	730.25
591.67	725.57
591.83	751.31
591.99	760.67
592.15	802.80
592.31	837.91
592.46	788.76
592.62	802.80
592.78	847.27
592.94	807.48
593.10	809.83
593.26	748.97
593.41	781.74
593.57	763.01
593.73	720.88
593.89	753.65
594.05	737.27
594.20	725.57
594.36	702.16
594.52	725.57
594.68	791.10
594.84	734.93
594.99	681.10
595.15	739.61
595.31	709.18
595.47	784.08
595.62	676.41
595.78	657.69
595.94	704.50
596.10	699.82
596.25	669.39
596.41	767.70
596.57	629.60
596.73	718.54
596.88	727.91
597.04	723.23
597.20	688.12
597.36	741.95
597.51	662.37
597.67	770.04
597.83	777.06
597.99	767.70
598.14	727.91
598.30	753.65
598.46	683.44
598.61	732.59
598.77	734.93
598.93	774.72
599.09	746.63
599.24	760.67
599.40	741.95
599.56	732.59
599.71	681.10
599.87	725.57
600.03	655.35
600.18	734.93
600.34	695.14
600.50	746.63
600.65	753.65
600.81	732.59
600.97	657.69
601.12	634.29
601.28	723.23
601.44	711.52
601.59	634.29
601.75	702.16
601.91	620.24
602.06	650.67
602.22	734.93
602.37	641.31
602.53	601.52
602.69	688.12
602.84	615.56
603.00	627.26
603.16	739.61
603.31	674.07
603.47	746.63
603.62	655.35
603.78	678.76
603.94	650.67
604.09	695.14
604.25	725.57
604.40	641.31
604.56	741.95
604.71	662.37
604.87	690.46
605.03	648.33
605.18	660.03
605.34	641.31
605.49	664.71
605.65	755.99
605.80	676.41
605.96	683.44
606.12	681.10
606.27	704.50
606.43	702.16
606.58	690.46
606.74	727.91
606.89	725.57
607.05	777.06
607.20	704.50
607.36	685.78
607.51	737.27
607.67	772.38
607.82	716.20
607.98	760.67
608.13	695.14
608.29	763.01
608.44	753.65
608.60	744.29
608.75	842.59
608.91	795.78
609.06	912.81
609.22	908.13
609.37	828.55
609.53	837.91
609.68	933.87
