SpectraSuite Data File
++++++++++++++++++++++++++++++++++++
Date: Thu Oct 24 13:20:58 EDT 2013
User: stostad
Dark Spectrum Present: No
Reference Spectrum Present: No
Number of Sampled Component Spectra: 1
Spectrometers: USB2+H05261
Integration Time (usec): 100000 (USB2+H05261)
Spectra Averaged: 1 (USB2+H05261)
Boxcar Smoothing: 0 (USB2+H05261)
Correct for Electrical Dark: No (USB2+H05261)
Strobe/Lamp Enabled: No (USB2+H05261)
Correct for Detector Non-linearity: No (USB2+H05261)
Correct for Stray Light: No (USB2+H05261)
Number of Pixels in Processed Spectrum: 2048
>>>>>Begin Processed Spectral Data<<<<<
365.73	601.52
365.92	601.52
366.12	601.52
366.32	482.15
366.52	482.15
366.72	552.37
366.91	421.30
367.11	465.77
367.31	461.09
367.51	428.32
367.70	493.85
367.90	482.15
368.10	482.15
368.30	400.23
368.49	458.74
368.69	383.85
368.89	472.79
369.09	477.47
369.28	482.15
369.48	514.92
369.68	505.56
369.87	444.70
370.07	477.47
370.27	521.94
370.47	557.05
370.66	559.39
370.86	554.71
371.06	603.86
371.25	622.58
371.45	664.71
371.65	674.07
371.84	603.86
372.04	660.03
372.24	580.45
372.44	601.52
372.63	571.09
372.83	645.99
373.03	643.65
373.22	643.65
373.42	711.52
373.62	594.50
373.81	758.33
374.01	671.73
374.21	624.92
374.40	669.39
374.60	573.43
374.79	627.26
374.99	613.22
375.19	660.03
375.38	643.65
375.58	692.80
375.78	664.71
375.97	578.11
376.17	664.71
376.37	608.54
376.56	629.60
376.76	622.58
376.95	608.54
377.15	596.84
377.35	676.41
377.54	645.99
377.74	620.24
377.93	592.16
378.13	573.43
378.33	617.90
378.52	650.67
378.72	613.22
378.91	650.67
379.11	610.88
379.31	592.16
379.50	645.99
379.70	671.73
379.89	657.69
380.09	627.26
380.28	550.03
380.48	643.65
380.68	622.58
380.87	622.58
381.07	571.09
381.26	624.92
381.46	573.43
381.65	596.84
381.85	566.41
382.04	662.37
382.24	599.18
382.43	650.67
382.63	622.58
382.83	615.56
383.02	657.69
383.22	601.52
383.41	688.12
383.61	634.29
383.80	528.96
384.00	603.86
384.19	636.63
384.39	594.50
384.58	580.45
384.78	620.24
384.97	592.16
385.17	608.54
385.36	643.65
385.56	587.47
385.75	564.07
385.95	641.31
386.14	627.26
386.34	624.92
386.53	667.05
386.72	610.88
386.92	601.52
387.11	624.92
387.31	667.05
387.50	638.97
387.70	643.65
387.89	695.14
388.09	599.18
388.28	603.86
388.48	559.39
388.67	596.84
388.86	620.24
389.06	547.69
389.25	650.67
389.45	603.86
389.64	592.16
389.84	603.86
390.03	674.07
390.22	606.20
390.42	564.07
390.61	601.52
390.81	641.31
391.00	634.29
391.19	599.18
391.39	559.39
391.58	662.37
391.78	627.26
391.97	620.24
392.16	645.99
392.36	627.26
392.55	653.01
392.75	699.82
392.94	650.67
393.13	690.46
393.33	606.20
393.52	650.67
393.71	631.94
393.91	641.31
394.10	631.94
394.29	620.24
394.49	603.86
394.68	636.63
394.88	575.77
395.07	648.33
395.26	615.56
395.46	601.52
395.65	699.82
395.84	599.18
396.04	643.65
396.23	629.60
396.42	580.45
396.62	695.14
396.81	674.07
397.00	653.01
397.19	657.69
397.39	566.41
397.58	681.10
397.77	657.69
397.97	636.63
398.16	645.99
398.35	629.60
398.55	589.82
398.74	667.05
398.93	667.05
399.12	559.39
399.32	650.67
399.51	629.60
399.70	629.60
399.90	587.47
400.09	587.47
400.28	657.69
400.47	624.92
400.67	615.56
400.86	582.79
401.05	561.73
401.24	617.90
401.44	601.52
401.63	641.31
401.82	594.50
402.01	657.69
402.21	617.90
402.40	550.03
402.59	571.09
402.78	629.60
402.97	592.16
403.17	657.69
403.36	599.18
403.55	575.77
403.74	624.92
403.93	732.59
404.13	716.20
404.32	692.80
404.51	748.97
404.70	615.56
404.89	641.31
405.09	657.69
405.28	641.31
405.47	650.67
405.66	608.54
405.85	716.20
406.05	629.60
406.24	615.56
406.43	585.13
406.62	643.65
406.81	631.94
407.00	629.60
407.20	594.50
407.39	622.58
407.58	641.31
407.77	622.58
407.96	594.50
408.15	667.05
408.34	575.77
408.54	557.05
408.73	613.22
408.92	655.35
409.11	608.54
409.30	688.12
409.49	664.71
409.68	589.82
409.87	638.97
410.07	638.97
410.26	645.99
410.45	620.24
410.64	634.29
410.83	667.05
411.02	566.41
411.21	706.84
411.40	645.99
411.59	608.54
411.78	645.99
411.98	617.90
412.17	638.97
412.36	620.24
412.55	650.67
412.74	578.11
412.93	636.63
413.12	622.58
413.31	657.69
413.50	634.29
413.69	655.35
413.88	643.65
414.07	641.31
414.26	615.56
414.45	620.24
414.64	643.65
414.83	615.56
415.02	653.01
415.22	641.31
415.41	624.92
415.60	627.26
415.79	648.33
415.98	660.03
416.17	629.60
416.36	636.63
416.55	638.97
416.74	697.48
416.93	610.88
417.12	657.69
417.31	660.03
417.50	568.75
417.69	641.31
417.88	650.67
418.07	550.03
418.26	641.31
418.45	683.44
418.64	620.24
418.83	697.48
419.02	622.58
419.21	629.60
419.39	674.07
419.58	657.69
419.77	641.31
419.96	669.39
420.15	608.54
420.34	662.37
420.53	657.69
420.72	669.39
420.91	650.67
421.10	615.56
421.29	587.47
421.48	599.18
421.67	573.43
421.86	578.11
422.05	582.79
422.24	603.86
422.43	587.47
422.61	650.67
422.80	634.29
422.99	599.18
423.18	622.58
423.37	596.84
423.56	594.50
423.75	599.18
423.94	641.31
424.13	634.29
424.32	606.20
424.50	725.57
424.69	592.16
424.88	608.54
425.07	552.37
425.26	610.88
425.45	634.29
425.64	645.99
425.83	660.03
426.01	643.65
426.20	629.60
426.39	624.92
426.58	557.05
426.77	638.97
426.96	683.44
427.15	627.26
427.33	638.97
427.52	660.03
427.71	559.39
427.90	620.24
428.09	613.22
428.28	667.05
428.46	624.92
428.65	713.86
428.84	690.46
429.03	638.97
429.22	622.58
429.40	688.12
429.59	606.20
429.78	634.29
429.97	594.50
430.16	660.03
430.34	617.90
430.53	615.56
430.72	613.22
430.91	648.33
431.10	638.97
431.28	638.97
431.47	657.69
431.66	704.50
431.85	620.24
432.03	631.94
432.22	681.10
432.41	608.54
432.60	676.41
432.79	676.41
432.97	685.78
433.16	627.26
433.35	620.24
433.54	620.24
433.72	662.37
433.91	645.99
434.10	613.22
434.28	660.03
434.47	585.13
434.66	662.37
434.85	697.48
435.03	819.19
435.22	1001.75
435.41	1144.52
435.59	1053.24
435.78	952.60
435.97	826.21
436.16	706.84
436.34	744.29
436.53	650.67
436.72	620.24
436.90	638.97
437.09	615.56
437.28	624.92
437.46	671.73
437.65	641.31
437.84	671.73
438.02	660.03
438.21	650.67
438.40	578.11
438.58	543.00
438.77	706.84
438.96	617.90
439.14	596.84
439.33	669.39
439.52	608.54
439.70	606.20
439.89	643.65
440.08	629.60
440.26	709.18
440.45	657.69
440.63	667.05
440.82	564.07
441.01	653.01
441.19	610.88
441.38	580.45
441.57	648.33
441.75	589.82
441.94	678.76
442.12	631.94
442.31	648.33
442.50	671.73
442.68	674.07
442.87	629.60
443.05	681.10
443.24	683.44
443.43	620.24
443.61	627.26
443.80	629.60
443.98	674.07
444.17	594.50
444.35	643.65
444.54	653.01
444.73	685.78
444.91	669.39
445.10	650.67
445.28	613.22
445.47	617.90
445.65	624.92
445.84	634.29
446.02	624.92
446.21	608.54
446.39	634.29
446.58	638.97
446.77	636.63
446.95	617.90
447.14	681.10
447.32	671.73
447.51	660.03
447.69	669.39
447.88	671.73
448.06	657.69
448.25	636.63
448.43	671.73
448.62	634.29
448.80	627.26
448.99	634.29
449.17	587.47
449.36	599.18
449.54	624.92
449.73	634.29
449.91	706.84
450.10	610.88
450.28	697.48
450.46	678.76
450.65	624.92
450.83	676.41
451.02	662.37
451.20	645.99
451.39	613.22
451.57	613.22
451.76	638.97
451.94	599.18
452.13	613.22
452.31	624.92
452.49	643.65
452.68	690.46
452.86	688.12
453.05	617.90
453.23	638.97
453.42	655.35
453.60	622.58
453.78	617.90
453.97	622.58
454.15	653.01
454.34	671.73
454.52	643.65
454.70	697.48
454.89	643.65
455.07	627.26
455.26	664.71
455.44	692.80
455.62	599.18
455.81	589.82
455.99	629.60
456.17	655.35
456.36	578.11
456.54	594.50
456.73	664.71
456.91	638.97
457.09	688.12
457.28	636.63
457.46	676.41
457.64	617.90
457.83	653.01
458.01	603.86
458.19	631.94
458.38	704.50
458.56	645.99
458.74	657.69
458.93	622.58
459.11	634.29
459.29	624.92
459.48	615.56
459.66	660.03
459.84	636.63
460.03	683.44
460.21	645.99
460.39	566.41
460.57	678.76
460.76	662.37
460.94	683.44
461.12	692.80
461.31	697.48
461.49	699.82
461.67	601.52
461.85	653.01
462.04	608.54
462.22	987.71
462.40	678.76
462.59	636.63
462.77	622.58
462.95	613.22
463.13	641.31
463.32	636.63
463.50	669.39
463.68	648.33
463.86	662.37
464.05	643.65
464.23	643.65
464.41	629.60
464.59	601.52
464.78	643.65
464.96	653.01
465.14	674.07
465.32	589.82
465.50	674.07
465.69	613.22
465.87	638.97
466.05	674.07
466.23	601.52
466.41	559.39
466.60	578.11
466.78	664.71
466.96	660.03
467.14	662.37
467.32	641.31
467.51	699.82
467.69	664.71
467.87	629.60
468.05	603.86
468.23	746.63
468.41	706.84
468.60	746.63
468.78	688.12
468.96	681.10
469.14	636.63
469.32	613.22
469.50	599.18
469.69	599.18
469.87	706.84
470.05	627.26
470.23	629.60
470.41	599.18
470.59	622.58
470.77	678.76
470.95	613.22
471.14	664.71
471.32	685.78
471.50	641.31
471.68	594.50
471.86	660.03
472.04	580.45
472.22	615.56
472.40	624.92
472.58	638.97
472.77	655.35
472.95	674.07
473.13	678.76
473.31	695.14
473.49	571.09
473.67	601.52
473.85	648.33
474.03	620.24
474.21	695.14
474.39	638.97
474.57	683.44
474.75	695.14
474.93	627.26
475.12	671.73
475.30	690.46
475.48	685.78
475.66	645.99
475.84	657.69
476.02	624.92
476.20	702.16
476.38	638.97
476.56	692.80
476.74	627.26
476.92	645.99
477.10	643.65
477.28	627.26
477.46	634.29
477.64	662.37
477.82	676.41
478.00	606.20
478.18	674.07
478.36	655.35
478.54	620.24
478.72	648.33
478.90	620.24
479.08	685.78
479.26	573.43
479.44	624.92
479.62	711.52
479.80	622.58
479.98	650.67
480.16	653.01
480.34	561.73
480.52	648.33
480.70	631.94
480.88	638.97
481.06	657.69
481.24	622.58
481.41	622.58
481.59	704.50
481.77	706.84
481.95	678.76
482.13	650.67
482.31	622.58
482.49	638.97
482.67	601.52
482.85	634.29
483.03	648.33
483.21	695.14
483.39	685.78
483.57	683.44
483.74	699.82
483.92	662.37
484.10	615.56
484.28	657.69
484.46	774.72
484.64	723.23
484.82	737.27
485.00	606.20
485.18	676.41
485.35	751.31
485.53	695.14
485.71	725.57
485.89	643.65
486.07	746.63
486.25	690.46
486.43	725.57
486.61	711.52
486.78	713.86
486.96	653.01
487.14	681.10
487.32	777.06
487.50	734.93
487.68	690.46
487.85	713.86
488.03	699.82
488.21	706.84
488.39	704.50
488.57	657.69
488.75	704.50
488.92	732.59
489.10	704.50
489.28	751.31
489.46	739.61
489.64	650.67
489.81	734.93
489.99	669.39
490.17	774.72
490.35	760.67
490.53	753.65
490.70	685.78
490.88	734.93
491.06	660.03
491.24	706.84
491.41	725.57
491.59	758.33
491.77	718.54
491.95	704.50
492.13	653.01
492.30	683.44
492.48	662.37
492.66	634.29
492.84	711.52
493.01	641.31
493.19	676.41
493.37	711.52
493.54	674.07
493.72	653.01
493.90	615.56
494.08	737.27
494.25	676.41
494.43	645.99
494.61	716.20
494.79	676.41
494.96	725.57
495.14	709.18
495.32	709.18
495.49	723.23
495.67	718.54
495.85	695.14
496.02	638.97
496.20	641.31
496.38	634.29
496.55	699.82
496.73	655.35
496.91	674.07
497.09	655.35
497.26	720.88
497.44	655.35
497.62	667.05
497.79	664.71
497.97	638.97
498.14	711.52
498.32	627.26
498.50	683.44
498.67	720.88
498.85	685.78
499.03	650.67
499.20	657.69
499.38	613.22
499.56	657.69
499.73	723.23
499.91	641.31
500.08	681.10
500.26	627.26
500.44	631.94
500.61	697.48
500.79	678.76
500.97	648.33
501.14	697.48
501.32	674.07
501.49	664.71
501.67	620.24
501.84	671.73
502.02	655.35
502.20	681.10
502.37	648.33
502.55	683.44
502.72	690.46
502.90	692.80
503.07	624.92
503.25	636.63
503.43	664.71
503.60	667.05
503.78	643.65
503.95	653.01
504.13	631.94
504.30	723.23
504.48	669.39
504.65	657.69
504.83	732.59
505.01	660.03
505.18	676.41
505.36	615.56
505.53	671.73
505.71	657.69
505.88	695.14
506.06	615.56
506.23	643.65
506.41	655.35
506.58	650.67
506.76	650.67
506.93	664.71
507.11	671.73
507.28	645.99
507.46	648.33
507.63	669.39
507.81	594.50
507.98	709.18
508.16	711.52
508.33	667.05
508.50	655.35
508.68	662.37
508.85	678.76
509.03	662.37
509.20	655.35
509.38	610.88
509.55	704.50
509.73	667.05
509.90	702.16
510.08	631.94
510.25	650.67
510.42	699.82
510.60	650.67
510.77	648.33
510.95	683.44
511.12	624.92
511.30	725.57
511.47	636.63
511.64	653.01
511.82	641.31
511.99	660.03
512.17	608.54
512.34	641.31
512.51	589.82
512.69	667.05
512.86	671.73
513.04	753.65
513.21	650.67
513.38	638.97
513.56	699.82
513.73	697.48
513.90	683.44
514.08	638.97
514.25	629.60
514.43	634.29
514.60	676.41
514.77	655.35
514.95	617.90
515.12	585.13
515.29	667.05
515.47	678.76
515.64	629.60
515.81	653.01
515.99	634.29
516.16	622.58
516.33	657.69
516.51	608.54
516.68	578.11
516.85	599.18
517.03	648.33
517.20	664.71
517.37	660.03
517.54	681.10
517.72	674.07
517.89	657.69
518.06	613.22
518.24	723.23
518.41	720.88
518.58	610.88
518.75	671.73
518.93	608.54
519.10	662.37
519.27	561.73
519.45	645.99
519.62	620.24
519.79	697.48
519.96	629.60
520.14	683.44
520.31	660.03
520.48	664.71
520.65	636.63
520.83	655.35
521.00	671.73
521.17	678.76
521.34	674.07
521.52	552.37
521.69	664.71
521.86	610.88
522.03	676.41
522.20	706.84
522.38	732.59
522.55	676.41
522.72	641.31
522.89	671.73
523.07	713.86
523.24	674.07
523.41	648.33
523.58	645.99
523.75	578.11
523.92	641.31
524.10	681.10
524.27	636.63
524.44	552.37
524.61	697.48
524.78	631.94
524.96	615.56
525.13	669.39
525.30	676.41
525.47	697.48
525.64	620.24
525.81	709.18
525.98	662.37
526.16	660.03
526.33	589.82
526.50	638.97
526.67	610.88
526.84	638.97
527.01	617.90
527.18	688.12
527.36	657.69
527.53	641.31
527.70	655.35
527.87	631.94
528.04	716.20
528.21	638.97
528.38	648.33
528.55	688.12
528.72	664.71
528.89	662.37
529.07	645.99
529.24	683.44
529.41	711.52
529.58	650.67
529.75	678.76
529.92	601.52
530.09	641.31
530.26	669.39
530.43	685.78
530.60	664.71
530.77	645.99
530.94	624.92
531.11	610.88
531.28	592.16
531.46	622.58
531.63	709.18
531.80	695.14
531.97	657.69
532.14	655.35
532.31	688.12
532.48	739.61
532.65	765.36
532.82	706.84
532.99	650.67
533.16	692.80
533.33	674.07
533.50	690.46
533.67	723.23
533.84	671.73
534.01	669.39
534.18	676.41
534.35	692.80
534.52	709.18
534.69	730.25
534.86	620.24
535.03	638.97
535.20	692.80
535.37	678.76
535.54	627.26
535.71	660.03
535.88	688.12
536.05	685.78
536.22	737.27
536.38	713.86
536.55	716.20
536.72	720.88
536.89	674.07
537.06	716.20
537.23	753.65
537.40	664.71
537.57	702.16
537.74	760.67
537.91	793.44
538.08	795.78
538.25	779.40
538.42	819.19
538.59	763.01
538.75	746.63
538.92	767.70
539.09	791.10
539.26	833.23
539.43	814.51
539.60	786.42
539.77	903.45
539.94	873.02
540.11	912.81
540.28	929.19
540.44	950.26
540.61	1060.26
540.78	1039.20
540.95	1055.58
541.12	1132.82
541.29	1275.59
541.46	1221.76
541.62	1296.66
541.79	1266.23
541.96	1352.83
542.13	1261.55
542.30	1275.59
542.47	1256.87
542.63	1313.04
542.80	1146.86
542.97	1130.48
543.14	1228.78
543.31	1191.33
543.48	1205.38
543.64	1240.48
543.81	1163.25
543.98	1207.72
544.15	1247.51
544.32	1270.91
544.48	1188.99
544.65	1128.14
544.82	1144.52
544.99	1233.46
545.16	1188.99
545.32	1280.27
545.49	1584.54
545.66	2017.54
545.83	2139.25
546.00	2008.18
546.16	1652.42
546.33	1451.13
546.50	1324.74
546.67	1240.48
546.83	1100.05
547.00	1074.31
547.17	901.11
547.34	1018.13
547.50	938.55
547.67	940.90
547.84	877.70
548.00	987.71
548.17	873.02
548.34	898.77
548.51	973.66
548.67	919.83
548.84	884.72
549.01	868.34
549.18	945.58
549.34	917.49
549.51	868.34
549.68	868.34
549.84	908.13
550.01	814.51
550.18	894.08
550.34	870.68
550.51	823.87
550.68	856.64
550.84	812.17
551.01	814.51
551.18	873.02
551.34	821.53
551.51	793.44
551.68	784.08
551.84	770.04
552.01	748.97
552.18	702.16
552.34	744.29
552.51	746.63
552.68	770.04
552.84	704.50
553.01	800.46
553.18	753.65
553.34	695.14
553.51	725.57
553.67	713.86
553.84	706.84
554.01	688.12
554.17	767.70
554.34	763.01
554.51	681.10
554.67	695.14
554.84	718.54
555.00	688.12
555.17	704.50
555.33	685.78
555.50	692.80
555.67	683.44
555.83	620.24
556.00	706.84
556.16	819.19
556.33	727.91
556.50	674.07
556.66	676.41
556.83	688.12
556.99	664.71
557.16	620.24
557.32	657.69
557.49	678.76
557.65	678.76
557.82	793.44
557.98	636.63
558.15	603.86
558.32	634.29
558.48	571.09
558.65	697.48
558.81	720.88
558.98	657.69
559.14	657.69
559.31	650.67
559.47	641.31
559.64	662.37
559.80	702.16
559.97	660.03
560.13	636.63
560.30	620.24
560.46	603.86
560.63	671.73
560.79	676.41
560.96	676.41
561.12	657.69
561.29	664.71
561.45	685.78
561.61	627.26
561.78	755.99
561.94	685.78
562.11	697.48
562.27	667.05
562.44	638.97
562.60	648.33
562.77	718.54
562.93	744.29
563.10	688.12
563.26	620.24
563.42	713.86
563.59	608.54
563.75	631.94
563.92	702.16
564.08	645.99
564.24	683.44
564.41	620.24
564.57	615.56
564.74	638.97
564.90	582.79
565.07	599.18
565.23	622.58
565.39	716.20
565.56	697.48
565.72	617.90
565.88	676.41
566.05	739.61
566.21	648.33
566.38	627.26
566.54	650.67
566.70	669.39
566.87	692.80
567.03	608.54
567.19	648.33
567.36	660.03
567.52	655.35
567.68	648.33
567.85	681.10
568.01	697.48
568.17	723.23
568.34	702.16
568.50	718.54
568.66	660.03
568.83	671.73
568.99	601.52
569.15	667.05
569.32	627.26
569.48	601.52
569.64	657.69
569.81	627.26
569.97	545.34
570.13	678.76
570.30	657.69
570.46	657.69
570.62	631.94
570.78	720.88
570.95	610.88
571.11	739.61
571.27	772.38
571.43	638.97
571.60	704.50
571.76	648.33
571.92	748.97
572.09	631.94
572.25	662.37
572.41	636.63
572.57	678.76
572.74	594.50
572.90	704.50
573.06	613.22
573.22	660.03
573.38	638.97
573.55	664.71
573.71	613.22
573.87	727.91
574.03	655.35
574.20	713.86
574.36	681.10
574.52	662.37
574.68	681.10
574.84	690.46
575.01	697.48
575.17	662.37
575.33	667.05
575.49	662.37
575.65	725.57
575.82	716.20
575.98	657.69
576.14	634.29
576.30	706.84
576.46	835.57
576.62	844.93
576.79	964.30
576.95	830.89
577.11	826.21
577.27	737.27
577.43	692.80
577.59	676.41
577.75	725.57
577.92	650.67
578.08	711.52
578.24	650.67
578.40	704.50
578.56	777.06
578.72	882.38
578.88	884.72
579.04	849.61
579.21	835.57
579.37	772.38
579.53	779.40
579.69	767.70
579.85	681.10
580.01	777.06
580.17	755.99
580.33	734.93
580.49	748.97
580.65	688.12
580.82	791.10
580.98	732.59
581.14	758.33
581.30	751.31
581.46	748.97
581.62	730.25
581.78	816.85
581.94	751.31
582.10	662.37
582.26	727.91
582.42	755.99
582.58	823.87
582.74	777.06
582.90	770.04
583.06	755.99
583.22	833.23
583.38	713.86
583.54	753.65
583.70	765.36
583.86	758.33
584.02	770.04
584.18	812.17
584.34	753.65
584.50	784.08
584.66	784.08
584.82	645.99
584.98	704.50
585.14	688.12
585.30	809.83
585.46	763.01
585.62	788.76
585.78	774.72
585.94	767.70
586.10	760.67
586.26	819.19
586.42	788.76
586.58	795.78
586.74	798.12
586.90	802.80
587.06	903.45
587.22	936.21
587.38	847.27
587.54	861.32
587.70	830.89
587.86	819.19
588.02	760.67
588.18	849.61
588.34	755.99
588.49	784.08
588.65	713.86
588.81	727.91
588.97	699.82
589.13	753.65
589.29	737.27
589.45	725.57
589.61	748.97
589.77	786.42
589.93	702.16
590.08	727.91
590.24	746.63
590.40	767.70
590.56	695.14
590.72	760.67
590.88	730.25
591.04	753.65
591.20	718.54
591.35	821.53
591.51	791.10
591.67	713.86
591.83	882.38
591.99	767.70
592.15	720.88
592.31	800.46
592.46	770.04
592.62	837.91
592.78	795.78
592.94	746.63
593.10	821.53
593.26	791.10
593.41	847.27
593.57	856.64
593.73	723.23
593.89	807.48
594.05	748.97
594.20	678.76
594.36	777.06
594.52	763.01
594.68	690.46
594.84	734.93
594.99	753.65
595.15	709.18
595.31	720.88
595.47	678.76
595.62	688.12
595.78	727.91
595.94	657.69
596.10	784.08
596.25	706.84
596.41	723.23
596.57	669.39
596.73	751.31
596.88	716.20
597.04	683.44
597.20	662.37
597.36	713.86
597.51	655.35
597.67	699.82
597.83	688.12
597.99	683.44
598.14	791.10
598.30	711.52
598.46	676.41
598.61	723.23
598.77	758.33
598.93	777.06
599.09	748.97
599.24	732.59
599.40	826.21
599.56	772.38
599.71	760.67
599.87	737.27
600.03	685.78
600.18	692.80
600.34	709.18
600.50	772.38
600.65	725.57
600.81	669.39
600.97	695.14
601.12	711.52
601.28	723.23
601.44	655.35
601.59	732.59
601.75	704.50
601.91	692.80
602.06	641.31
602.22	727.91
602.37	688.12
602.53	643.65
602.69	685.78
602.84	662.37
603.00	638.97
603.16	685.78
603.31	648.33
603.47	711.52
603.62	629.60
603.78	709.18
603.94	688.12
604.09	596.84
604.25	730.25
604.40	744.29
604.56	734.93
604.71	657.69
604.87	695.14
605.03	704.50
605.18	720.88
605.34	758.33
605.49	676.41
605.65	704.50
605.80	709.18
605.96	683.44
606.12	718.54
606.27	772.38
606.43	748.97
606.58	697.48
606.74	601.52
606.89	636.63
607.05	779.40
607.20	755.99
607.36	746.63
607.51	734.93
607.67	730.25
607.82	730.25
607.98	765.36
608.13	713.86
608.29	777.06
608.44	770.04
608.60	779.40
608.75	779.40
608.91	842.59
609.06	882.38
609.22	781.74
609.37	807.48
609.53	812.17
609.68	947.92
