SpectraSuite Data File
++++++++++++++++++++++++++++++++++++
Date: Thu Oct 24 13:21:02 EDT 2013
User: stostad
Dark Spectrum Present: No
Reference Spectrum Present: No
Number of Sampled Component Spectra: 1
Spectrometers: USB2+H05261
Integration Time (usec): 100000 (USB2+H05261)
Spectra Averaged: 1 (USB2+H05261)
Boxcar Smoothing: 0 (USB2+H05261)
Correct for Electrical Dark: No (USB2+H05261)
Strobe/Lamp Enabled: No (USB2+H05261)
Correct for Detector Non-linearity: No (USB2+H05261)
Correct for Stray Light: No (USB2+H05261)
Number of Pixels in Processed Spectrum: 2048
>>>>>Begin Processed Spectral Data<<<<<
365.73	589.82
365.92	589.82
366.12	589.82
366.32	409.59
366.52	503.22
366.72	463.43
366.91	402.57
367.11	388.53
367.31	461.09
367.51	381.51
367.70	440.02
367.90	491.51
368.10	484.49
368.30	475.13
368.49	517.26
368.69	585.13
368.89	456.40
369.09	463.43
369.28	461.09
369.48	470.45
369.68	512.58
369.87	524.28
370.07	496.19
370.27	599.18
370.47	510.24
370.66	533.64
370.86	629.60
371.06	582.79
371.25	599.18
371.45	578.11
371.65	667.05
371.84	550.03
372.04	667.05
372.24	634.29
372.44	582.79
372.63	610.88
372.83	638.97
373.03	627.26
373.22	552.37
373.42	592.16
373.62	636.63
373.81	683.44
374.01	676.41
374.21	692.80
374.40	655.35
374.60	720.88
374.79	566.41
374.99	634.29
375.19	624.92
375.38	610.88
375.58	655.35
375.78	720.88
375.97	606.20
376.17	720.88
376.37	587.47
376.56	688.12
376.76	575.77
376.95	564.07
377.15	650.67
377.35	653.01
377.54	657.69
377.74	648.33
377.93	561.73
378.13	585.13
378.33	629.60
378.52	617.90
378.72	624.92
378.91	657.69
379.11	608.54
379.31	610.88
379.50	592.16
379.70	622.58
379.89	695.14
380.09	624.92
380.28	582.79
380.48	589.82
380.68	603.86
380.87	613.22
381.07	620.24
381.26	650.67
381.46	610.88
381.65	624.92
381.85	592.16
382.04	688.12
382.24	557.05
382.43	561.73
382.63	578.11
382.83	660.03
383.02	655.35
383.22	655.35
383.41	573.43
383.61	641.31
383.80	676.41
384.00	638.97
384.19	585.13
384.39	648.33
384.58	578.11
384.78	690.46
384.97	620.24
385.17	564.07
385.36	669.39
385.56	660.03
385.75	545.34
385.95	608.54
386.14	655.35
386.34	589.82
386.53	599.18
386.72	559.39
386.92	655.35
387.11	685.78
387.31	636.63
387.50	667.05
387.70	596.84
387.89	657.69
388.09	615.56
388.28	580.45
388.48	608.54
388.67	662.37
388.86	578.11
389.06	622.58
389.25	580.45
389.45	615.56
389.64	615.56
389.84	615.56
390.03	606.20
390.22	582.79
390.42	582.79
390.61	648.33
390.81	641.31
391.00	599.18
391.19	547.69
391.39	594.50
391.58	641.31
391.78	629.60
391.97	568.75
392.16	589.82
392.36	655.35
392.55	566.41
392.75	681.10
392.94	662.37
393.13	613.22
393.33	627.26
393.52	643.65
393.71	676.41
393.91	667.05
394.10	699.82
394.29	634.29
394.49	615.56
394.68	653.01
394.88	650.67
395.07	587.47
395.26	629.60
395.46	638.97
395.65	629.60
395.84	603.86
396.04	737.27
396.23	608.54
396.42	629.60
396.62	688.12
396.81	599.18
397.00	613.22
397.19	650.67
397.39	627.26
397.58	706.84
397.77	629.60
397.97	620.24
398.16	648.33
398.35	667.05
398.55	713.86
398.74	643.65
398.93	538.32
399.12	606.20
399.32	664.71
399.51	596.84
399.70	631.94
399.90	634.29
400.09	664.71
400.28	587.47
400.47	603.86
400.67	617.90
400.86	631.94
401.05	599.18
401.24	589.82
401.44	601.52
401.63	613.22
401.82	650.67
402.01	636.63
402.21	627.26
402.40	617.90
402.59	629.60
402.78	645.99
402.97	564.07
403.17	601.52
403.36	622.58
403.55	643.65
403.74	669.39
403.93	727.91
404.13	720.88
404.32	676.41
404.51	669.39
404.70	648.33
404.89	617.90
405.09	601.52
405.28	624.92
405.47	624.92
405.66	620.24
405.85	566.41
406.05	645.99
406.24	671.73
406.43	620.24
406.62	559.39
406.81	653.01
407.00	664.71
407.20	613.22
407.39	660.03
407.58	585.13
407.77	695.14
407.96	695.14
408.15	671.73
408.34	641.31
408.54	660.03
408.73	671.73
408.92	669.39
409.11	622.58
409.30	613.22
409.49	592.16
409.68	559.39
409.87	662.37
410.07	571.09
410.26	655.35
410.45	645.99
410.64	624.92
410.83	629.60
411.02	622.58
411.21	592.16
411.40	566.41
411.59	613.22
411.78	606.20
411.98	650.67
412.17	606.20
412.36	601.52
412.55	594.50
412.74	533.64
412.93	674.07
413.12	594.50
413.31	671.73
413.50	575.77
413.69	627.26
413.88	608.54
414.07	601.52
414.26	627.26
414.45	645.99
414.64	636.63
414.83	643.65
415.02	613.22
415.22	688.12
415.41	643.65
415.60	599.18
415.79	596.84
415.98	552.37
416.17	608.54
416.36	629.60
416.55	624.92
416.74	683.44
416.93	725.57
417.12	657.69
417.31	561.73
417.50	662.37
417.69	624.92
417.88	631.94
418.07	662.37
418.26	657.69
418.45	634.29
418.64	575.77
418.83	655.35
419.02	634.29
419.21	648.33
419.39	641.31
419.58	653.01
419.77	578.11
419.96	617.90
420.15	662.37
420.34	650.67
420.53	594.50
420.72	585.13
420.91	669.39
421.10	688.12
421.29	653.01
421.48	620.24
421.67	681.10
421.86	653.01
422.05	550.03
422.24	657.69
422.43	634.29
422.61	571.09
422.80	645.99
422.99	667.05
423.18	645.99
423.37	660.03
423.56	645.99
423.75	601.52
423.94	606.20
424.13	636.63
424.32	564.07
424.50	606.20
424.69	622.58
424.88	645.99
425.07	636.63
425.26	671.73
425.45	636.63
425.64	521.94
425.83	620.24
426.01	634.29
426.20	592.16
426.39	657.69
426.58	653.01
426.77	648.33
426.96	667.05
427.15	629.60
427.33	667.05
427.52	629.60
427.71	620.24
427.90	601.52
428.09	624.92
428.28	631.94
428.46	725.57
428.65	676.41
428.84	622.58
429.03	678.76
429.22	641.31
429.40	561.73
429.59	601.52
429.78	592.16
429.97	599.18
430.16	589.82
430.34	580.45
430.53	613.22
430.72	554.71
430.91	638.97
431.10	620.24
431.28	627.26
431.47	645.99
431.66	582.79
431.85	655.35
432.03	674.07
432.22	674.07
432.41	615.56
432.60	681.10
432.79	552.37
432.97	657.69
433.16	610.88
433.35	587.47
433.54	667.05
433.72	643.65
433.91	610.88
434.10	699.82
434.28	617.90
434.47	608.54
434.66	704.50
434.85	755.99
435.03	732.59
435.22	1006.43
435.41	1158.57
435.59	1071.97
435.78	952.60
435.97	784.08
436.16	800.46
436.34	657.69
436.53	695.14
436.72	603.86
436.90	608.54
437.09	674.07
437.28	669.39
437.46	601.52
437.65	603.86
437.84	638.97
438.02	674.07
438.21	688.12
438.40	606.20
438.58	622.58
438.77	624.92
438.96	629.60
439.14	613.22
439.33	636.63
439.52	547.69
439.70	603.86
439.89	683.44
440.08	622.58
440.26	566.41
440.45	676.41
440.63	575.77
440.82	645.99
441.01	592.16
441.19	594.50
441.38	641.31
441.57	674.07
441.75	594.50
441.94	643.65
442.12	631.94
442.31	566.41
442.50	631.94
442.68	669.39
442.87	617.90
443.05	622.58
443.24	655.35
443.43	620.24
443.61	648.33
443.80	657.69
443.98	603.86
444.17	627.26
444.35	657.69
444.54	650.67
444.73	669.39
444.91	725.57
445.10	610.88
445.28	645.99
445.47	624.92
445.65	643.65
445.84	634.29
446.02	582.79
446.21	631.94
446.39	571.09
446.58	627.26
446.77	660.03
446.95	564.07
447.14	631.94
447.32	643.65
447.51	622.58
447.69	650.67
447.88	681.10
448.06	575.77
448.25	695.14
448.43	688.12
448.62	580.45
448.80	655.35
448.99	648.33
449.17	641.31
449.36	671.73
449.54	629.60
449.73	709.18
449.91	631.94
450.10	653.01
450.28	688.12
450.46	627.26
450.65	669.39
450.83	683.44
451.02	561.73
451.20	617.90
451.39	641.31
451.57	571.09
451.76	638.97
451.94	653.01
452.13	596.84
452.31	727.91
452.49	662.37
452.68	596.84
452.86	631.94
453.05	664.71
453.23	608.54
453.42	594.50
453.60	596.84
453.78	706.84
453.97	631.94
454.15	660.03
454.34	624.92
454.52	655.35
454.70	678.76
454.89	692.80
455.07	638.97
455.26	592.16
455.44	608.54
455.62	683.44
455.81	596.84
455.99	631.94
456.17	669.39
456.36	568.75
456.54	641.31
456.73	641.31
456.91	657.69
457.09	589.82
457.28	702.16
457.46	606.20
457.64	634.29
457.83	631.94
458.01	676.41
458.19	690.46
458.38	660.03
458.56	573.43
458.74	697.48
458.93	648.33
459.11	688.12
459.29	636.63
459.48	755.99
459.66	671.73
459.84	643.65
460.03	732.59
460.21	620.24
460.39	713.86
460.57	589.82
460.76	678.76
460.94	638.97
461.12	657.69
461.31	655.35
461.49	601.52
461.67	671.73
461.85	615.56
462.04	636.63
462.22	924.51
462.40	653.01
462.59	674.07
462.77	648.33
462.95	704.50
463.13	662.37
463.32	671.73
463.50	650.67
463.68	669.39
463.86	650.67
464.05	585.13
464.23	641.31
464.41	620.24
464.59	610.88
464.78	653.01
464.96	676.41
465.14	676.41
465.32	660.03
465.50	526.62
465.69	620.24
465.87	636.63
466.05	662.37
466.23	638.97
466.41	653.01
466.60	592.16
466.78	695.14
466.96	683.44
467.14	650.67
467.32	662.37
467.51	634.29
467.69	676.41
467.87	704.50
468.05	641.31
468.23	674.07
468.41	671.73
468.60	587.47
468.78	692.80
468.96	631.94
469.14	617.90
469.32	638.97
469.50	655.35
469.69	723.23
469.87	587.47
470.05	613.22
470.23	660.03
470.41	578.11
470.59	697.48
470.77	543.00
470.95	617.90
471.14	650.67
471.32	589.82
471.50	727.91
471.68	641.31
471.86	648.33
472.04	692.80
472.22	615.56
472.40	674.07
472.58	620.24
472.77	643.65
472.95	667.05
473.13	674.07
473.31	599.18
473.49	660.03
473.67	552.37
473.85	671.73
474.03	723.23
474.21	645.99
474.39	662.37
474.57	641.31
474.75	624.92
474.93	643.65
475.12	669.39
475.30	678.76
475.48	627.26
475.66	631.94
475.84	676.41
476.02	634.29
476.20	674.07
476.38	634.29
476.56	716.20
476.74	645.99
476.92	622.58
477.10	587.47
477.28	601.52
477.46	596.84
477.64	704.50
477.82	631.94
478.00	589.82
478.18	699.82
478.36	650.67
478.54	636.63
478.72	638.97
478.90	674.07
479.08	636.63
479.26	617.90
479.44	643.65
479.62	589.82
479.80	631.94
479.98	606.20
480.16	585.13
480.34	730.25
480.52	629.60
480.70	699.82
480.88	507.90
481.06	561.73
481.24	683.44
481.41	620.24
481.59	571.09
481.77	692.80
481.95	615.56
482.13	676.41
482.31	648.33
482.49	704.50
482.67	760.67
482.85	608.54
483.03	564.07
483.21	638.97
483.39	671.73
483.57	648.33
483.74	671.73
483.92	636.63
484.10	685.78
484.28	690.46
484.46	744.29
484.64	655.35
484.82	727.91
485.00	667.05
485.18	716.20
485.35	681.10
485.53	617.90
485.71	671.73
485.89	617.90
486.07	706.84
486.25	835.57
486.43	702.16
486.61	720.88
486.78	704.50
486.96	615.56
487.14	730.25
487.32	676.41
487.50	732.59
487.68	711.52
487.85	709.18
488.03	744.29
488.21	688.12
488.39	753.65
488.57	683.44
488.75	674.07
488.92	730.25
489.10	734.93
489.28	753.65
489.46	685.78
489.64	709.18
489.81	667.05
489.99	676.41
490.17	697.48
490.35	734.93
490.53	730.25
490.70	655.35
490.88	709.18
491.06	685.78
491.24	688.12
491.41	725.57
491.59	650.67
491.77	596.84
491.95	688.12
492.13	695.14
492.30	692.80
492.48	674.07
492.66	791.10
492.84	690.46
493.01	678.76
493.19	688.12
493.37	709.18
493.54	671.73
493.72	704.50
493.90	671.73
494.08	650.67
494.25	664.71
494.43	681.10
494.61	685.78
494.79	629.60
494.96	622.58
495.14	723.23
495.32	664.71
495.49	704.50
495.67	671.73
495.85	676.41
496.02	685.78
496.20	678.76
496.38	727.91
496.55	634.29
496.73	683.44
496.91	699.82
497.09	667.05
497.26	655.35
497.44	667.05
497.62	690.46
497.79	695.14
497.97	592.16
498.14	643.65
498.32	662.37
498.50	669.39
498.67	695.14
498.85	699.82
499.03	657.69
499.20	627.26
499.38	709.18
499.56	688.12
499.73	629.60
499.91	655.35
500.08	657.69
500.26	617.90
500.44	678.76
500.61	643.65
500.79	636.63
500.97	638.97
501.14	685.78
501.32	697.48
501.49	615.56
501.67	585.13
501.84	664.71
502.02	655.35
502.20	676.41
502.37	727.91
502.55	636.63
502.72	610.88
502.90	669.39
503.07	695.14
503.25	613.22
503.43	692.80
503.60	629.60
503.78	613.22
503.95	671.73
504.13	655.35
504.30	741.95
504.48	664.71
504.65	669.39
504.83	587.47
505.01	631.94
505.18	739.61
505.36	638.97
505.53	713.86
505.71	669.39
505.88	711.52
506.06	643.65
506.23	709.18
506.41	622.58
506.58	664.71
506.76	638.97
506.93	543.00
507.11	638.97
507.28	643.65
507.46	737.27
507.63	697.48
507.81	599.18
507.98	690.46
508.16	664.71
508.33	627.26
508.50	641.31
508.68	690.46
508.85	723.23
509.03	631.94
509.20	660.03
509.38	594.50
509.55	622.58
509.73	643.65
509.90	674.07
510.08	657.69
510.25	671.73
510.42	594.50
510.60	599.18
510.77	631.94
510.95	608.54
511.12	641.31
511.30	617.90
511.47	603.86
511.64	704.50
511.82	655.35
511.99	662.37
512.17	645.99
512.34	613.22
512.51	664.71
512.69	608.54
512.86	627.26
513.04	645.99
513.21	650.67
513.38	634.29
513.56	667.05
513.73	599.18
513.90	681.10
514.08	685.78
514.25	688.12
514.43	690.46
514.60	648.33
514.77	603.86
514.95	629.60
515.12	709.18
515.29	692.80
515.47	603.86
515.64	631.94
515.81	641.31
515.99	582.79
516.16	622.58
516.33	662.37
516.51	643.65
516.68	578.11
516.85	688.12
517.03	706.84
517.20	606.20
517.37	664.71
517.54	723.23
517.72	681.10
517.89	550.03
518.06	641.31
518.24	716.20
518.41	711.52
518.58	692.80
518.75	613.22
518.93	608.54
519.10	636.63
519.27	627.26
519.45	645.99
519.62	645.99
519.79	660.03
519.96	657.69
520.14	702.16
520.31	662.37
520.48	690.46
520.65	629.60
520.83	599.18
521.00	554.71
521.17	610.88
521.34	533.64
521.52	601.52
521.69	592.16
521.86	617.90
522.03	692.80
522.20	599.18
522.38	620.24
522.55	650.67
522.72	533.64
522.89	624.92
523.07	692.80
523.24	706.84
523.41	564.07
523.58	643.65
523.75	650.67
523.92	636.63
524.10	634.29
524.27	669.39
524.44	678.76
524.61	697.48
524.78	667.05
524.96	681.10
525.13	657.69
525.30	629.60
525.47	678.76
525.64	624.92
525.81	660.03
525.98	566.41
526.16	681.10
526.33	603.86
526.50	641.31
526.67	697.48
526.84	603.86
527.01	608.54
527.18	606.20
527.36	617.90
527.53	671.73
527.70	676.41
527.87	571.09
528.04	662.37
528.21	603.86
528.38	690.46
528.55	667.05
528.72	676.41
528.89	774.72
529.07	634.29
529.24	779.40
529.41	608.54
529.58	683.44
529.75	629.60
529.92	650.67
530.09	660.03
530.26	643.65
530.43	601.52
530.60	650.67
530.77	620.24
530.94	702.16
531.11	650.67
531.28	645.99
531.46	631.94
531.63	662.37
531.80	629.60
531.97	650.67
532.14	664.71
532.31	692.80
532.48	681.10
532.65	631.94
532.82	631.94
532.99	676.41
533.16	692.80
533.33	671.73
533.50	674.07
533.67	688.12
533.84	641.31
534.01	681.10
534.18	695.14
534.35	634.29
534.52	634.29
534.69	638.97
534.86	608.54
535.03	653.01
535.20	662.37
535.37	657.69
535.54	697.48
535.71	678.76
535.88	657.69
536.05	638.97
536.22	662.37
536.38	676.41
536.55	737.27
536.72	739.61
536.89	730.25
537.06	676.41
537.23	730.25
537.40	723.23
537.57	730.25
537.74	786.42
537.91	751.31
538.08	711.52
538.25	751.31
538.42	709.18
538.59	760.67
538.75	760.67
538.92	718.54
539.09	763.01
539.26	791.10
539.43	779.40
539.60	915.15
539.77	868.34
539.94	894.08
540.11	908.13
540.28	936.21
540.44	957.28
540.61	966.64
540.78	990.05
540.95	1050.90
541.12	1109.41
541.29	1151.54
541.46	1315.38
541.62	1303.68
541.79	1224.10
541.96	1327.08
542.13	1291.98
542.30	1308.36
542.47	1303.68
542.63	1245.16
542.80	1235.80
542.97	1247.51
543.14	1153.88
543.31	1259.21
543.48	1280.27
543.64	1233.46
543.81	1083.67
543.98	1252.19
544.15	1240.48
544.32	1123.46
544.48	1125.80
544.65	1158.57
544.82	1221.76
544.99	1165.59
545.16	1181.97
545.32	1219.42
545.49	1624.33
545.66	1987.11
545.83	2111.16
546.00	1816.26
546.16	1685.19
546.33	1458.15
546.50	1284.95
546.67	1254.53
546.83	1158.57
547.00	1034.52
547.17	1088.35
547.34	889.40
547.50	896.43
547.67	898.77
547.84	908.13
548.00	997.07
548.17	959.62
548.34	891.74
548.51	875.36
548.67	851.96
548.84	889.40
549.01	894.08
549.18	910.47
549.34	889.40
549.51	866.00
549.68	912.81
549.84	849.61
550.01	809.83
550.18	816.85
550.34	894.08
550.51	765.36
550.68	856.64
550.84	737.27
551.01	826.21
551.18	751.31
551.34	770.04
551.51	770.04
551.68	830.89
551.84	786.42
552.01	784.08
552.18	746.63
552.34	730.25
552.51	767.70
552.68	786.42
552.84	674.07
553.01	690.46
553.18	699.82
553.34	657.69
553.51	716.20
553.67	751.31
553.84	732.59
554.01	720.88
554.17	704.50
554.34	706.84
554.51	709.18
554.67	690.46
554.84	634.29
555.00	667.05
555.17	695.14
555.33	669.39
555.50	730.25
555.67	720.88
555.83	636.63
556.00	720.88
556.16	713.86
556.33	681.10
556.50	676.41
556.66	636.63
556.83	688.12
556.99	650.67
557.16	657.69
557.32	624.92
557.49	664.71
557.65	723.23
557.82	704.50
557.98	627.26
558.15	678.76
558.32	641.31
558.48	674.07
558.65	667.05
558.81	695.14
558.98	676.41
559.14	692.80
559.31	676.41
559.47	638.97
559.64	648.33
559.80	676.41
559.97	620.24
560.13	695.14
560.30	641.31
560.46	657.69
560.63	622.58
560.79	657.69
560.96	624.92
561.12	650.67
561.29	699.82
561.45	660.03
561.61	641.31
561.78	692.80
561.94	643.65
562.11	702.16
562.27	653.01
562.44	610.88
562.60	641.31
562.77	650.67
562.93	645.99
563.10	603.86
563.26	664.71
563.42	653.01
563.59	650.67
563.75	629.60
563.92	671.73
564.08	624.92
564.24	606.20
564.41	685.78
564.57	629.60
564.74	645.99
564.90	695.14
565.07	624.92
565.23	685.78
565.39	662.37
565.56	704.50
565.72	636.63
565.88	709.18
566.05	678.76
566.21	657.69
566.38	643.65
566.54	695.14
566.70	683.44
566.87	702.16
567.03	671.73
567.19	674.07
567.36	599.18
567.52	662.37
567.68	674.07
567.85	648.33
568.01	615.56
568.17	608.54
568.34	657.69
568.50	692.80
568.66	645.99
568.83	709.18
568.99	615.56
569.15	697.48
569.32	599.18
569.48	610.88
569.64	624.92
569.81	624.92
569.97	636.63
570.13	660.03
570.30	653.01
570.46	688.12
570.62	622.58
570.78	688.12
570.95	629.60
571.11	718.54
571.27	688.12
571.43	634.29
571.60	585.13
571.76	617.90
571.92	660.03
572.09	636.63
572.25	638.97
572.41	631.94
572.57	634.29
572.74	709.18
572.90	615.56
573.06	624.92
573.22	648.33
573.38	709.18
573.55	676.41
573.71	667.05
573.87	664.71
574.03	713.86
574.20	664.71
574.36	662.37
574.52	657.69
574.68	667.05
574.84	557.05
575.01	653.01
575.17	622.58
575.33	681.10
575.49	667.05
575.65	613.22
575.82	695.14
575.98	627.26
576.14	610.88
576.30	720.88
576.46	863.66
576.62	903.45
576.79	880.04
576.95	777.06
577.11	835.57
577.27	746.63
577.43	741.95
577.59	744.29
577.75	718.54
577.92	660.03
578.08	744.29
578.24	734.93
578.40	674.07
578.56	821.53
578.72	861.32
578.88	856.64
579.04	805.14
579.21	786.42
579.37	812.17
579.53	760.67
579.69	751.31
579.85	748.97
580.01	912.81
580.17	781.74
580.33	767.70
580.49	718.54
580.65	793.44
580.82	784.08
580.98	709.18
581.14	748.97
581.30	770.04
581.46	753.65
581.62	706.84
581.78	763.01
581.94	772.38
582.10	760.67
582.26	767.70
582.42	706.84
582.58	739.61
582.74	784.08
582.90	823.87
583.06	823.87
583.22	758.33
583.38	791.10
583.54	849.61
583.70	835.57
583.86	873.02
584.02	781.74
584.18	821.53
584.34	772.38
584.50	816.85
584.66	748.97
584.82	779.40
584.98	730.25
585.14	667.05
585.30	791.10
585.46	737.27
585.62	732.59
585.78	730.25
585.94	720.88
586.10	793.44
586.26	748.97
586.42	800.46
586.58	744.29
586.74	835.57
586.90	868.34
587.06	947.92
587.22	901.11
587.38	858.98
587.54	802.80
587.70	798.12
587.86	812.17
588.02	784.08
588.18	744.29
588.34	805.14
588.49	744.29
588.65	685.78
588.81	755.99
588.97	755.99
589.13	798.12
589.29	772.38
589.45	603.86
589.61	779.40
589.77	788.76
589.93	758.33
590.08	741.95
590.24	746.63
590.40	727.91
590.56	746.63
590.72	767.70
590.88	748.97
591.04	718.54
591.20	744.29
591.35	763.01
591.51	697.48
591.67	751.31
591.83	755.99
591.99	753.65
592.15	777.06
592.31	723.23
592.46	800.46
592.62	795.78
592.78	835.57
592.94	830.89
593.10	826.21
593.26	791.10
593.41	739.61
593.57	755.99
593.73	798.12
593.89	765.36
594.05	737.27
594.20	732.59
594.36	674.07
594.52	718.54
594.68	716.20
594.84	720.88
594.99	699.82
595.15	748.97
595.31	671.73
595.47	739.61
595.62	697.48
595.78	674.07
595.94	720.88
596.10	676.41
596.25	716.20
596.41	744.29
596.57	723.23
596.73	723.23
596.88	662.37
597.04	650.67
597.20	685.78
597.36	711.52
597.51	770.04
597.67	755.99
597.83	727.91
597.99	709.18
598.14	683.44
598.30	655.35
598.46	720.88
598.61	718.54
598.77	760.67
598.93	751.31
599.09	690.46
599.24	723.23
599.40	816.85
599.56	730.25
599.71	720.88
599.87	699.82
600.03	748.97
600.18	685.78
600.34	784.08
600.50	678.76
600.65	720.88
600.81	688.12
600.97	713.86
601.12	685.78
601.28	784.08
601.44	606.20
601.59	716.20
601.75	718.54
601.91	655.35
602.06	674.07
602.22	709.18
602.37	702.16
602.53	681.10
602.69	711.52
602.84	620.24
603.00	669.39
603.16	653.01
603.31	669.39
603.47	627.26
603.62	709.18
603.78	702.16
603.94	620.24
604.09	730.25
604.25	681.10
604.40	706.84
604.56	725.57
604.71	641.31
604.87	709.18
605.03	702.16
605.18	690.46
605.34	718.54
605.49	727.91
605.65	681.10
605.80	613.22
605.96	627.26
606.12	711.52
606.27	741.95
606.43	660.03
606.58	767.70
606.74	655.35
606.89	681.10
607.05	704.50
607.20	650.67
607.36	692.80
607.51	746.63
607.67	653.01
607.82	723.23
607.98	763.01
608.13	753.65
608.29	760.67
608.44	837.91
608.60	842.59
608.75	809.83
608.91	779.40
609.06	807.48
609.22	809.83
609.37	847.27
609.53	887.06
609.68	868.34
609.84	978.34
