SpectraSuite Data File
++++++++++++++++++++++++++++++++++++
Date: Thu Oct 24 13:21:00 EDT 2013
User: stostad
Dark Spectrum Present: No
Reference Spectrum Present: No
Number of Sampled Component Spectra: 1
Spectrometers: USB2+H05261
Integration Time (usec): 100000 (USB2+H05261)
Spectra Averaged: 1 (USB2+H05261)
Boxcar Smoothing: 0 (USB2+H05261)
Correct for Electrical Dark: No (USB2+H05261)
Strobe/Lamp Enabled: No (USB2+H05261)
Correct for Detector Non-linearity: No (USB2+H05261)
Correct for Stray Light: No (USB2+H05261)
Number of Pixels in Processed Spectrum: 2048
>>>>>Begin Processed Spectral Data<<<<<
365.73	573.43
365.92	573.43
366.12	573.43
366.32	498.53
366.52	479.81
366.72	484.49
366.91	428.32
367.11	416.62
367.31	461.09
367.51	454.06
367.70	442.36
367.90	449.38
368.10	486.83
368.30	461.09
368.49	575.77
368.69	498.53
368.89	411.93
369.09	416.62
369.28	465.77
369.48	545.34
369.68	496.19
369.87	503.22
370.07	615.56
370.27	571.09
370.47	470.45
370.66	606.20
370.86	561.73
371.06	596.84
371.25	638.97
371.45	592.16
371.65	585.13
371.84	678.76
372.04	622.58
372.24	596.84
372.44	582.79
372.63	580.45
372.83	599.18
373.03	617.90
373.22	589.82
373.42	627.26
373.62	571.09
373.81	624.92
374.01	617.90
374.21	561.73
374.40	629.60
374.60	608.54
374.79	624.92
374.99	617.90
375.19	690.46
375.38	641.31
375.58	669.39
375.78	559.39
375.97	578.11
376.17	667.05
376.37	657.69
376.56	622.58
376.76	645.99
376.95	655.35
377.15	638.97
377.35	636.63
377.54	599.18
377.74	608.54
377.93	662.37
378.13	643.65
378.33	608.54
378.52	587.47
378.72	631.94
378.91	683.44
379.11	568.75
379.31	550.03
379.50	561.73
379.70	662.37
379.89	629.60
380.09	624.92
380.28	601.52
380.48	631.94
380.68	580.45
380.87	578.11
381.07	671.73
381.26	676.41
381.46	592.16
381.65	613.22
381.85	638.97
382.04	653.01
382.24	589.82
382.43	585.13
382.63	585.13
382.83	606.20
383.02	678.76
383.22	643.65
383.41	622.58
383.61	702.16
383.80	624.92
384.00	606.20
384.19	575.77
384.39	608.54
384.58	617.90
384.78	657.69
384.97	610.88
385.17	645.99
385.36	648.33
385.56	603.86
385.75	610.88
385.95	692.80
386.14	643.65
386.34	603.86
386.53	540.66
386.72	596.84
386.92	596.84
387.11	648.33
387.31	610.88
387.50	545.34
387.70	716.20
387.89	624.92
388.09	599.18
388.28	620.24
388.48	641.31
388.67	571.09
388.86	631.94
389.06	627.26
389.25	645.99
389.45	617.90
389.64	575.77
389.84	629.60
390.03	620.24
390.22	589.82
390.42	622.58
390.61	603.86
390.81	622.58
391.00	608.54
391.19	697.48
391.39	676.41
391.58	655.35
391.78	702.16
391.97	671.73
392.16	613.22
392.36	653.01
392.55	613.22
392.75	615.56
392.94	641.31
393.13	585.13
393.33	568.75
393.52	636.63
393.71	645.99
393.91	568.75
394.10	589.82
394.29	608.54
394.49	594.50
394.68	561.73
394.88	585.13
395.07	643.65
395.26	615.56
395.46	617.90
395.65	702.16
395.84	603.86
396.04	622.58
396.23	662.37
396.42	617.90
396.62	676.41
396.81	660.03
397.00	624.92
397.19	599.18
397.39	550.03
397.58	561.73
397.77	564.07
397.97	622.58
398.16	615.56
398.35	608.54
398.55	585.13
398.74	634.29
398.93	641.31
399.12	620.24
399.32	624.92
399.51	638.97
399.70	594.50
399.90	571.09
400.09	580.45
400.28	622.58
400.47	645.99
400.67	617.90
400.86	645.99
401.05	655.35
401.24	671.73
401.44	620.24
401.63	697.48
401.82	669.39
402.01	561.73
402.21	631.94
402.40	641.31
402.59	564.07
402.78	603.86
402.97	578.11
403.17	610.88
403.36	615.56
403.55	615.56
403.74	648.33
403.93	655.35
404.13	676.41
404.32	657.69
404.51	704.50
404.70	763.01
404.89	648.33
405.09	671.73
405.28	688.12
405.47	543.00
405.66	561.73
405.85	613.22
406.05	657.69
406.24	592.16
406.43	716.20
406.62	643.65
406.81	606.20
407.00	643.65
407.20	589.82
407.39	599.18
407.58	653.01
407.77	624.92
407.96	634.29
408.15	641.31
408.34	697.48
408.54	657.69
408.73	622.58
408.92	589.82
409.11	620.24
409.30	678.76
409.49	636.63
409.68	634.29
409.87	587.47
410.07	596.84
410.26	599.18
410.45	580.45
410.64	641.31
410.83	615.56
411.02	582.79
411.21	603.86
411.40	624.92
411.59	631.94
411.78	629.60
411.98	664.71
412.17	554.71
412.36	678.76
412.55	568.75
412.74	631.94
412.93	641.31
413.12	631.94
413.31	676.41
413.50	561.73
413.69	636.63
413.88	631.94
414.07	631.94
414.26	606.20
414.45	624.92
414.64	627.26
414.83	603.86
415.02	599.18
415.22	720.88
415.41	667.05
415.60	648.33
415.79	650.67
415.98	629.60
416.17	667.05
416.36	599.18
416.55	592.16
416.74	638.97
416.93	676.41
417.12	610.88
417.31	603.86
417.50	615.56
417.69	688.12
417.88	582.79
418.07	615.56
418.26	683.44
418.45	634.29
418.64	660.03
418.83	557.05
419.02	655.35
419.21	615.56
419.39	643.65
419.58	571.09
419.77	685.78
419.96	599.18
420.15	615.56
420.34	610.88
420.53	606.20
420.72	603.86
420.91	641.31
421.10	589.82
421.29	638.97
421.48	617.90
421.67	552.37
421.86	636.63
422.05	657.69
422.24	566.41
422.43	624.92
422.61	620.24
422.80	578.11
422.99	617.90
423.18	622.58
423.37	683.44
423.56	692.80
423.75	657.69
423.94	617.90
424.13	624.92
424.32	608.54
424.50	695.14
424.69	685.78
424.88	641.31
425.07	692.80
425.26	615.56
425.45	585.13
425.64	676.41
425.83	603.86
426.01	657.69
426.20	615.56
426.39	613.22
426.58	662.37
426.77	676.41
426.96	709.18
427.15	564.07
427.33	606.20
427.52	636.63
427.71	678.76
427.90	620.24
428.09	638.97
428.28	723.23
428.46	603.86
428.65	613.22
428.84	566.41
429.03	648.33
429.22	617.90
429.40	662.37
429.59	606.20
429.78	645.99
429.97	587.47
430.16	620.24
430.34	627.26
430.53	603.86
430.72	645.99
430.91	685.78
431.10	692.80
431.28	587.47
431.47	620.24
431.66	573.43
431.85	636.63
432.03	650.67
432.22	702.16
432.41	669.39
432.60	695.14
432.79	669.39
432.97	610.88
433.16	678.76
433.35	692.80
433.54	634.29
433.72	617.90
433.91	645.99
434.10	692.80
434.28	624.92
434.47	660.03
434.66	711.52
434.85	669.39
435.03	823.87
435.22	954.94
435.41	1121.12
435.59	1062.60
435.78	954.94
435.97	891.74
436.16	786.42
436.34	674.07
436.53	624.92
436.72	638.97
436.90	650.67
437.09	664.71
437.28	667.05
437.46	571.09
437.65	636.63
437.84	631.94
438.02	690.46
438.21	664.71
438.40	638.97
438.58	629.60
438.77	587.47
438.96	631.94
439.14	627.26
439.33	601.52
439.52	692.80
439.70	608.54
439.89	578.11
440.08	660.03
440.26	709.18
440.45	653.01
440.63	627.26
440.82	645.99
441.01	627.26
441.19	674.07
441.38	566.41
441.57	601.52
441.75	629.60
441.94	624.92
442.12	627.26
442.31	650.67
442.50	709.18
442.68	582.79
442.87	657.69
443.05	718.54
443.24	627.26
443.43	711.52
443.61	692.80
443.80	695.14
443.98	704.50
444.17	641.31
444.35	631.94
444.54	671.73
444.73	674.07
444.91	634.29
445.10	624.92
445.28	603.86
445.47	674.07
445.65	629.60
445.84	561.73
446.02	617.90
446.21	667.05
446.39	634.29
446.58	627.26
446.77	580.45
446.95	723.23
447.14	650.67
447.32	655.35
447.51	667.05
447.69	557.05
447.88	641.31
448.06	627.26
448.25	629.60
448.43	674.07
448.62	648.33
448.80	587.47
448.99	702.16
449.17	638.97
449.36	648.33
449.54	690.46
449.73	641.31
449.91	648.33
450.10	664.71
450.28	676.41
450.46	709.18
450.65	580.45
450.83	655.35
451.02	676.41
451.20	688.12
451.39	587.47
451.57	638.97
451.76	610.88
451.94	631.94
452.13	648.33
452.31	610.88
452.49	627.26
452.68	603.86
452.86	631.94
453.05	636.63
453.23	641.31
453.42	678.76
453.60	622.58
453.78	592.16
453.97	643.65
454.15	622.58
454.34	617.90
454.52	643.65
454.70	627.26
454.89	697.48
455.07	657.69
455.26	683.44
455.44	620.24
455.62	645.99
455.81	655.35
455.99	606.20
456.17	662.37
456.36	695.14
456.54	653.01
456.73	674.07
456.91	667.05
457.09	667.05
457.28	624.92
457.46	571.09
457.64	695.14
457.83	660.03
458.01	631.94
458.19	645.99
458.38	667.05
458.56	730.25
458.74	706.84
458.93	641.31
459.11	704.50
459.29	669.39
459.48	641.31
459.66	617.90
459.84	688.12
460.03	636.63
460.21	683.44
460.39	613.22
460.57	617.90
460.76	627.26
460.94	617.90
461.12	676.41
461.31	671.73
461.49	617.90
461.67	622.58
461.85	582.79
462.04	617.90
462.22	952.60
462.40	667.05
462.59	664.71
462.77	634.29
462.95	620.24
463.13	592.16
463.32	617.90
463.50	678.76
463.68	669.39
463.86	650.67
464.05	620.24
464.23	645.99
464.41	638.97
464.59	690.46
464.78	643.65
464.96	594.50
465.14	610.88
465.32	638.97
465.50	592.16
465.69	631.94
465.87	613.22
466.05	638.97
466.23	664.71
466.41	615.56
466.60	622.58
466.78	648.33
466.96	662.37
467.14	653.01
467.32	643.65
467.51	653.01
467.69	685.78
467.87	706.84
468.05	678.76
468.23	669.39
468.41	685.78
468.60	613.22
468.78	737.27
468.96	702.16
469.14	603.86
469.32	664.71
469.50	585.13
469.69	578.11
469.87	587.47
470.05	669.39
470.23	599.18
470.41	685.78
470.59	571.09
470.77	617.90
470.95	662.37
471.14	653.01
471.32	608.54
471.50	634.29
471.68	667.05
471.86	615.56
472.04	660.03
472.22	624.92
472.40	669.39
472.58	594.50
472.77	669.39
472.95	587.47
473.13	648.33
473.31	671.73
473.49	641.31
473.67	674.07
473.85	713.86
474.03	617.90
474.21	648.33
474.39	641.31
474.57	594.50
474.75	610.88
474.93	657.69
475.12	627.26
475.30	699.82
475.48	657.69
475.66	671.73
475.84	660.03
476.02	685.78
476.20	690.46
476.38	596.84
476.56	688.12
476.74	653.01
476.92	688.12
477.10	622.58
477.28	648.33
477.46	629.60
477.64	617.90
477.82	608.54
478.00	711.52
478.18	643.65
478.36	660.03
478.54	608.54
478.72	610.88
478.90	587.47
479.08	552.37
479.26	650.67
479.44	660.03
479.62	587.47
479.80	629.60
479.98	622.58
480.16	674.07
480.34	676.41
480.52	709.18
480.70	664.71
480.88	608.54
481.06	575.77
481.24	568.75
481.41	683.44
481.59	636.63
481.77	613.22
481.95	676.41
482.13	648.33
482.31	699.82
482.49	695.14
482.67	608.54
482.85	634.29
483.03	709.18
483.21	723.23
483.39	688.12
483.57	657.69
483.74	692.80
483.92	734.93
484.10	650.67
484.28	725.57
484.46	781.74
484.64	713.86
484.82	699.82
485.00	676.41
485.18	681.10
485.35	718.54
485.53	685.78
485.71	702.16
485.89	723.23
486.07	718.54
486.25	716.20
486.43	709.18
486.61	690.46
486.78	734.93
486.96	739.61
487.14	730.25
487.32	669.39
487.50	697.48
487.68	702.16
487.85	725.57
488.03	704.50
488.21	713.86
488.39	734.93
488.57	758.33
488.75	723.23
488.92	842.59
489.10	765.36
489.28	767.70
489.46	697.48
489.64	660.03
489.81	676.41
489.99	725.57
490.17	629.60
490.35	709.18
490.53	763.01
490.70	713.86
490.88	662.37
491.06	690.46
491.24	767.70
491.41	638.97
491.59	798.12
491.77	725.57
491.95	727.91
492.13	667.05
492.30	678.76
492.48	725.57
492.66	653.01
492.84	657.69
493.01	643.65
493.19	674.07
493.37	704.50
493.54	695.14
493.72	692.80
493.90	695.14
494.08	660.03
494.25	641.31
494.43	720.88
494.61	650.67
494.79	683.44
494.96	690.46
495.14	720.88
495.32	678.76
495.49	662.37
495.67	699.82
495.85	685.78
496.02	685.78
496.20	697.48
496.38	622.58
496.55	587.47
496.73	704.50
496.91	664.71
497.09	641.31
497.26	622.58
497.44	629.60
497.62	655.35
497.79	690.46
497.97	739.61
498.14	725.57
498.32	688.12
498.50	706.84
498.67	641.31
498.85	674.07
499.03	727.91
499.20	648.33
499.38	608.54
499.56	664.71
499.73	699.82
499.91	678.76
500.08	692.80
500.26	634.29
500.44	519.60
500.61	610.88
500.79	697.48
500.97	667.05
501.14	601.52
501.32	629.60
501.49	737.27
501.67	683.44
501.84	655.35
502.02	697.48
502.20	734.93
502.37	737.27
502.55	685.78
502.72	683.44
502.90	688.12
503.07	690.46
503.25	671.73
503.43	568.75
503.60	650.67
503.78	653.01
503.95	613.22
504.13	685.78
504.30	592.16
504.48	645.99
504.65	676.41
504.83	662.37
505.01	681.10
505.18	678.76
505.36	613.22
505.53	643.65
505.71	629.60
505.88	608.54
506.06	617.90
506.23	669.39
506.41	643.65
506.58	617.90
506.76	608.54
506.93	667.05
507.11	643.65
507.28	667.05
507.46	671.73
507.63	678.76
507.81	645.99
507.98	613.22
508.16	620.24
508.33	587.47
508.50	578.11
508.68	678.76
508.85	603.86
509.03	634.29
509.20	636.63
509.38	692.80
509.55	631.94
509.73	629.60
509.90	678.76
510.08	669.39
510.25	631.94
510.42	709.18
510.60	671.73
510.77	653.01
510.95	674.07
511.12	648.33
511.30	601.52
511.47	685.78
511.64	662.37
511.82	622.58
511.99	662.37
512.17	755.99
512.34	629.60
512.51	641.31
512.69	685.78
512.86	702.16
513.04	624.92
513.21	648.33
513.38	571.09
513.56	566.41
513.73	674.07
513.90	671.73
514.08	636.63
514.25	615.56
514.43	615.56
514.60	655.35
514.77	613.22
514.95	683.44
515.12	627.26
515.29	669.39
515.47	643.65
515.64	629.60
515.81	631.94
515.99	620.24
516.16	638.97
516.33	594.50
516.51	648.33
516.68	606.20
516.85	648.33
517.03	643.65
517.20	653.01
517.37	704.50
517.54	561.73
517.72	622.58
517.89	606.20
518.06	641.31
518.24	615.56
518.41	653.01
518.58	688.12
518.75	645.99
518.93	657.69
519.10	638.97
519.27	655.35
519.45	617.90
519.62	671.73
519.79	606.20
519.96	624.92
520.14	608.54
520.31	681.10
520.48	594.50
520.65	533.64
520.83	671.73
521.00	624.92
521.17	627.26
521.34	599.18
521.52	657.69
521.69	683.44
521.86	634.29
522.03	634.29
522.20	678.76
522.38	613.22
522.55	655.35
522.72	681.10
522.89	678.76
523.07	678.76
523.24	601.52
523.41	641.31
523.58	566.41
523.75	617.90
523.92	568.75
524.10	608.54
524.27	582.79
524.44	704.50
524.61	648.33
524.78	667.05
524.96	657.69
525.13	676.41
525.30	655.35
525.47	617.90
525.64	627.26
525.81	603.86
525.98	641.31
526.16	610.88
526.33	650.67
526.50	706.84
526.67	615.56
526.84	578.11
527.01	606.20
527.18	688.12
527.36	678.76
527.53	655.35
527.70	596.84
527.87	643.65
528.04	552.37
528.21	575.77
528.38	627.26
528.55	657.69
528.72	685.78
528.89	606.20
529.07	648.33
529.24	631.94
529.41	587.47
529.58	678.76
529.75	669.39
529.92	676.41
530.09	650.67
530.26	716.20
530.43	648.33
530.60	645.99
530.77	648.33
530.94	709.18
531.11	636.63
531.28	650.67
531.46	741.95
531.63	643.65
531.80	720.88
531.97	690.46
532.14	650.67
532.31	697.48
532.48	678.76
532.65	720.88
532.82	702.16
532.99	681.10
533.16	655.35
533.33	711.52
533.50	692.80
533.67	585.13
533.84	624.92
534.01	634.29
534.18	641.31
534.35	667.05
534.52	697.48
534.69	763.01
534.86	660.03
535.03	720.88
535.20	706.84
535.37	681.10
535.54	720.88
535.71	706.84
535.88	676.41
536.05	688.12
536.22	641.31
536.38	671.73
536.55	671.73
536.72	777.06
536.89	748.97
537.06	697.48
537.23	697.48
537.40	704.50
537.57	702.16
537.74	772.38
537.91	706.84
538.08	788.76
538.25	779.40
538.42	772.38
538.59	779.40
538.75	711.52
538.92	819.19
539.09	791.10
539.26	798.12
539.43	861.32
539.60	896.43
539.77	919.83
539.94	828.55
540.11	870.68
540.28	863.66
540.44	966.64
540.61	1043.88
540.78	940.90
540.95	1055.58
541.12	1240.48
541.29	1219.42
541.46	1210.06
541.62	1299.00
541.79	1352.83
541.96	1284.95
542.13	1217.08
542.30	1287.29
542.47	1329.42
542.63	1268.57
542.80	1252.19
542.97	1233.46
543.14	1247.51
543.31	1210.06
543.48	1242.82
543.64	1198.35
543.81	1259.21
543.98	1186.65
544.15	1268.57
544.32	1191.33
544.48	1179.63
544.65	1247.51
544.82	1203.04
544.99	1177.29
545.16	1135.16
545.32	1198.35
545.49	1607.95
545.66	1968.39
545.83	2155.63
546.00	1952.01
546.16	1673.48
546.33	1511.99
546.50	1376.24
546.67	1291.98
546.83	1151.54
547.00	1039.20
547.17	1015.79
547.34	945.58
547.50	936.21
547.67	936.21
547.84	931.53
548.00	877.70
548.17	952.60
548.34	894.08
548.51	901.11
548.67	910.47
548.84	891.74
549.01	861.32
549.18	940.90
549.34	814.51
549.51	926.85
549.68	833.23
549.84	800.46
550.01	870.68
550.18	912.81
550.34	870.68
550.51	788.76
550.68	798.12
550.84	751.31
551.01	716.20
551.18	816.85
551.34	784.08
551.51	779.40
551.68	763.01
551.84	755.99
552.01	793.44
552.18	765.36
552.34	753.65
552.51	713.86
552.68	788.76
552.84	748.97
553.01	667.05
553.18	751.31
553.34	772.38
553.51	681.10
553.67	718.54
553.84	723.23
554.01	760.67
554.17	720.88
554.34	706.84
554.51	706.84
554.67	674.07
554.84	751.31
555.00	709.18
555.17	627.26
555.33	720.88
555.50	704.50
555.67	718.54
555.83	657.69
556.00	765.36
556.16	746.63
556.33	664.71
556.50	648.33
556.66	669.39
556.83	641.31
556.99	660.03
557.16	730.25
557.32	716.20
557.49	692.80
557.65	678.76
557.82	664.71
557.98	681.10
558.15	664.71
558.32	692.80
558.48	638.97
558.65	655.35
558.81	709.18
558.98	692.80
559.14	713.86
559.31	732.59
559.47	657.69
559.64	638.97
559.80	699.82
559.97	648.33
560.13	624.92
560.30	648.33
560.46	648.33
560.63	634.29
560.79	657.69
560.96	634.29
561.12	631.94
561.29	706.84
561.45	657.69
561.61	678.76
561.78	727.91
561.94	664.71
562.11	667.05
562.27	620.24
562.44	653.01
562.60	599.18
562.77	678.76
562.93	725.57
563.10	667.05
563.26	653.01
563.42	681.10
563.59	683.44
563.75	655.35
563.92	706.84
564.08	662.37
564.24	678.76
564.41	650.67
564.57	550.03
564.74	718.54
564.90	669.39
565.07	596.84
565.23	732.59
565.39	671.73
565.56	662.37
565.72	683.44
565.88	638.97
566.05	655.35
566.21	638.97
566.38	631.94
566.54	627.26
566.70	601.52
566.87	617.90
567.03	606.20
567.19	688.12
567.36	638.97
567.52	727.91
567.68	692.80
567.85	662.37
568.01	648.33
568.17	657.69
568.34	671.73
568.50	636.63
568.66	603.86
568.83	727.91
568.99	641.31
569.15	671.73
569.32	660.03
569.48	653.01
569.64	615.56
569.81	685.78
569.97	629.60
570.13	683.44
570.30	641.31
570.46	681.10
570.62	585.13
570.78	685.78
570.95	617.90
571.11	681.10
571.27	725.57
571.43	660.03
571.60	662.37
571.76	664.71
571.92	692.80
572.09	669.39
572.25	713.86
572.41	631.94
572.57	629.60
572.74	650.67
572.90	671.73
573.06	643.65
573.22	777.06
573.38	690.46
573.55	655.35
573.71	725.57
573.87	683.44
574.03	601.52
574.20	674.07
574.36	678.76
574.52	585.13
574.68	676.41
574.84	713.86
575.01	638.97
575.17	688.12
575.33	695.14
575.49	697.48
575.65	613.22
575.82	664.71
575.98	622.58
576.14	643.65
576.30	812.17
576.46	894.08
576.62	896.43
576.79	950.26
576.95	837.91
577.11	737.27
577.27	737.27
577.43	739.61
577.59	725.57
577.75	727.91
577.92	692.80
578.08	683.44
578.24	678.76
578.40	678.76
578.56	821.53
578.72	896.43
578.88	912.81
579.04	884.72
579.21	903.45
579.37	842.59
579.53	840.25
579.69	795.78
579.85	786.42
580.01	748.97
580.17	784.08
580.33	704.50
580.49	758.33
580.65	760.67
580.82	798.12
580.98	706.84
581.14	613.22
581.30	737.27
581.46	725.57
581.62	730.25
581.78	671.73
581.94	779.40
582.10	798.12
582.26	760.67
582.42	741.95
582.58	744.29
582.74	828.55
582.90	800.46
583.06	770.04
583.22	847.27
583.38	784.08
583.54	732.59
583.70	807.48
583.86	809.83
584.02	800.46
584.18	842.59
584.34	772.38
584.50	699.82
584.66	788.76
584.82	741.95
584.98	786.42
585.14	739.61
585.30	816.85
585.46	784.08
585.62	751.31
585.78	791.10
585.94	748.97
586.10	805.14
586.26	748.97
586.42	805.14
586.58	716.20
586.74	851.96
586.90	903.45
587.06	875.36
587.22	856.64
587.38	915.15
587.54	854.30
587.70	828.55
587.86	739.61
588.02	812.17
588.18	807.48
588.34	774.72
588.49	751.31
588.65	755.99
588.81	753.65
588.97	660.03
589.13	709.18
589.29	674.07
589.45	734.93
589.61	720.88
589.77	725.57
589.93	699.82
590.08	678.76
590.24	737.27
590.40	704.50
590.56	828.55
590.72	737.27
590.88	718.54
591.04	779.40
591.20	744.29
591.35	748.97
591.51	734.93
591.67	739.61
591.83	793.44
591.99	791.10
592.15	772.38
592.31	798.12
592.46	784.08
592.62	777.06
592.78	851.96
592.94	910.47
593.10	763.01
593.26	870.68
593.41	755.99
593.57	816.85
593.73	784.08
593.89	795.78
594.05	748.97
594.20	674.07
594.36	779.40
594.52	774.72
594.68	702.16
594.84	718.54
594.99	732.59
595.15	688.12
595.31	681.10
595.47	720.88
595.62	713.86
595.78	690.46
595.94	671.73
596.10	697.48
596.25	657.69
596.41	660.03
596.57	704.50
596.73	697.48
596.88	634.29
597.04	657.69
597.20	674.07
597.36	744.29
597.51	657.69
597.67	697.48
597.83	732.59
597.99	709.18
598.14	674.07
598.30	627.26
598.46	720.88
598.61	777.06
598.77	702.16
598.93	678.76
599.09	784.08
599.24	739.61
599.40	821.53
599.56	716.20
599.71	683.44
599.87	702.16
600.03	774.72
600.18	720.88
600.34	772.38
600.50	702.16
600.65	690.46
600.81	741.95
600.97	622.58
601.12	688.12
601.28	730.25
601.44	718.54
601.59	629.60
601.75	744.29
601.91	669.39
602.06	643.65
602.22	734.93
602.37	732.59
602.53	657.69
602.69	631.94
602.84	629.60
603.00	664.71
603.16	734.93
603.31	774.72
603.47	737.27
603.62	657.69
603.78	704.50
603.94	711.52
604.09	702.16
604.25	660.03
604.40	606.20
604.56	720.88
604.71	669.39
604.87	645.99
605.03	664.71
605.18	674.07
605.34	741.95
605.49	685.78
605.65	720.88
605.80	718.54
605.96	678.76
606.12	606.20
606.27	706.84
606.43	678.76
606.58	706.84
606.74	741.95
606.89	676.41
607.05	734.93
607.20	713.86
607.36	667.05
607.51	695.14
607.67	758.33
607.82	795.78
607.98	695.14
608.13	660.03
608.29	730.25
608.44	784.08
608.60	830.89
608.75	767.70
608.91	823.87
609.06	788.76
609.22	821.53
609.37	814.51
609.53	880.04
609.68	901.11
609.84	983.02
