SpectraSuite Data File
++++++++++++++++++++++++++++++++++++
Date: Thu Oct 24 13:21:29 EDT 2013
User: stostad
Dark Spectrum Present: No
Reference Spectrum Present: No
Number of Sampled Component Spectra: 1
Spectrometers: USB2+H05261
Integration Time (usec): 100000 (USB2+H05261)
Spectra Averaged: 1 (USB2+H05261)
Boxcar Smoothing: 0 (USB2+H05261)
Correct for Electrical Dark: No (USB2+H05261)
Strobe/Lamp Enabled: No (USB2+H05261)
Correct for Detector Non-linearity: No (USB2+H05261)
Correct for Stray Light: No (USB2+H05261)
Number of Pixels in Processed Spectrum: 2048
>>>>>Begin Processed Spectral Data<<<<<
365.73	547.69
365.92	547.69
366.12	547.69
366.32	531.30
366.52	456.40
366.72	482.15
366.91	449.38
367.11	498.53
367.31	428.32
367.51	461.09
367.70	437.68
367.90	444.70
368.10	470.45
368.30	449.38
368.49	507.90
368.69	503.22
368.89	465.77
369.09	472.79
369.28	540.66
369.48	535.98
369.68	458.74
369.87	524.28
370.07	528.96
370.27	540.66
370.47	763.01
370.66	1041.54
370.86	1076.65
371.06	1050.90
371.25	1090.69
371.45	1107.07
371.65	1172.61
371.84	1102.39
372.04	1109.41
372.24	1104.73
372.44	1095.37
372.63	1203.04
372.83	1205.38
373.03	1235.80
373.22	1238.14
373.42	1200.69
373.62	1282.61
373.81	1181.97
374.01	1263.89
374.21	1355.17
374.40	1320.06
374.60	1191.33
374.79	1308.36
374.99	1254.53
375.19	1235.80
375.38	1270.91
375.58	1277.93
375.78	1282.61
375.97	1369.21
376.17	1313.04
376.37	1315.38
376.56	1320.06
376.76	1263.89
376.95	1336.45
377.15	1310.70
377.35	1385.60
377.54	1315.38
377.74	1348.15
377.93	1411.34
378.13	1362.19
378.33	1401.98
378.52	1420.71
378.72	1458.15
378.91	1460.49
379.11	1416.02
379.31	1418.36
379.50	1401.98
379.70	1418.36
379.89	1472.20
380.09	1380.92
380.28	1383.26
380.48	1392.62
380.68	1394.96
380.87	1556.46
381.07	1516.67
381.26	1570.50
381.46	1511.99
381.65	1523.69
381.85	1472.20
382.04	1640.72
382.24	1540.07
382.43	1528.37
382.63	1540.07
382.83	1511.99
383.02	1540.07
383.22	1629.01
383.41	1504.96
383.61	1593.90
383.80	1664.12
384.00	1603.27
384.19	1542.41
384.39	1633.69
384.58	1626.67
384.78	1626.67
384.97	1647.74
385.17	1696.89
385.36	1643.06
385.56	1696.89
385.75	1746.04
385.95	1706.25
386.14	1701.57
386.34	1729.66
386.53	1743.70
386.72	1729.66
386.92	1776.47
387.11	1692.21
387.31	1734.34
387.50	1734.34
387.70	1743.70
387.89	1806.89
388.09	1774.13
388.28	1781.15
388.48	1771.79
388.67	1834.98
388.86	1811.57
389.06	1895.83
389.25	1888.81
389.45	1849.02
389.64	1849.02
389.84	1975.41
390.03	1905.20
390.22	2003.50
390.42	1863.07
390.61	1846.68
390.81	2015.20
391.00	1940.30
391.19	1998.82
391.39	2073.71
391.58	1998.82
391.78	1968.39
391.97	2012.86
392.16	1991.80
392.36	2090.10
392.55	2101.80
392.75	2111.16
392.94	2059.67
393.13	2174.36
393.33	2125.21
393.52	2155.63
393.71	2174.36
393.91	2141.59
394.10	2186.06
394.29	2104.14
394.49	2157.97
394.68	2258.62
394.88	2204.78
395.07	2172.02
395.26	2157.97
395.46	2303.09
395.65	2314.79
395.84	2338.20
396.04	2370.96
396.23	2392.03
396.42	2385.01
396.62	2333.51
396.81	2307.77
397.00	2354.58
397.19	2377.98
397.39	2375.64
397.58	2448.20
397.77	2478.63
397.97	2448.20
398.16	2459.90
398.35	2415.43
398.55	2490.33
398.74	2513.74
398.93	2635.44
399.12	2527.78
399.32	2509.05
399.51	2518.42
399.70	2686.94
399.90	2593.31
400.09	2686.94
400.28	2684.59
400.47	2600.34
400.67	2743.11
400.86	2745.45
401.05	2705.66
401.24	2771.19
401.44	2663.53
401.63	2825.03
401.82	2808.64
402.01	2775.88
402.21	2841.41
402.40	2818.00
402.59	2771.19
402.78	2920.99
402.97	2932.69
403.17	2986.52
403.36	3026.31
403.55	3061.42
403.74	3087.17
403.93	3045.04
404.13	2916.31
404.32	3070.78
404.51	3075.46
404.70	3131.64
404.89	3089.51
405.09	3126.96
405.28	3187.81
405.47	3164.40
405.66	3269.73
405.85	3344.63
406.05	3218.24
406.24	3173.77
406.43	3349.31
406.62	3424.20
406.81	3417.18
407.00	3288.45
407.20	3351.65
407.39	3293.13
407.58	3330.58
407.77	3508.46
407.96	3482.72
408.15	3440.59
408.34	3506.12
408.54	3576.34
408.73	3510.80
408.92	3557.61
409.11	3681.66
409.30	3658.26
409.49	3653.58
409.68	3592.72
409.87	3737.84
410.07	3810.39
410.26	3826.78
410.45	3693.37
410.64	3887.63
410.83	3925.08
411.02	3941.46
411.21	3988.27
411.40	3808.05
411.59	4037.42
411.78	3997.64
411.98	3999.98
412.17	4007.00
412.36	4250.41
412.55	4222.33
412.74	4212.96
412.93	4243.39
413.12	4269.14
413.31	4339.35
413.50	4470.42
413.69	4236.37
413.88	4285.52
414.07	4449.36
414.26	4493.83
414.45	4559.36
414.64	4566.39
414.83	4512.55
415.02	4594.47
415.22	4650.64
415.41	4678.73
415.60	4676.39
415.79	4994.70
415.98	4753.63
416.17	4922.15
416.36	4795.76
416.55	4800.44
416.74	5008.75
416.93	4954.91
417.12	4882.36
417.31	5109.39
417.50	5188.97
417.69	5287.27
417.88	5322.38
418.07	5273.23
418.26	5203.01
418.45	5273.23
418.64	5523.66
418.83	5308.34
419.02	5320.04
419.21	5298.97
419.39	5378.55
419.58	5322.38
419.77	5359.83
419.96	5643.03
420.15	5610.26
420.34	5572.82
420.53	5507.28
420.72	5764.74
420.91	5612.60
421.10	5673.46
421.29	5666.44
421.48	5652.39
421.67	5818.57
421.86	5720.27
422.05	5628.99
422.24	5621.97
422.43	5771.76
422.61	5816.23
422.80	5870.06
422.99	5834.96
423.18	5970.71
423.37	5893.47
423.56	5888.79
423.75	5795.17
423.94	5851.34
424.13	5462.81
424.32	5598.56
424.50	5895.81
424.69	6033.90
424.88	6132.20
425.07	5930.92
425.26	5923.90
425.45	6108.80
425.64	5867.72
425.83	6097.10
426.01	6225.82
426.20	5982.41
426.39	6052.63
426.58	6111.14
426.77	5959.00
426.96	6197.74
427.15	6253.91
427.33	6155.61
427.52	6289.02
427.71	6080.71
427.90	6260.93
428.09	6267.95
428.28	6328.81
428.46	6328.81
428.65	6422.43
428.84	6476.26
429.03	6509.03
429.22	6324.13
429.40	6544.14
429.59	6513.71
429.78	6370.94
429.97	6104.12
430.16	6600.31
430.34	6731.38
430.53	6731.38
430.72	6623.72
430.91	6677.55
431.10	6513.71
431.28	6909.26
431.47	6874.15
431.66	6953.73
431.85	6719.68
432.03	6944.37
432.22	7075.44
432.41	6960.75
432.60	6897.56
432.79	6977.14
432.97	7133.95
433.16	7136.29
433.35	7197.15
433.54	7208.85
433.72	7311.83
433.91	7215.87
434.10	7325.88
434.28	7222.89
434.47	7276.73
434.66	7360.98
434.85	7424.18
435.03	7632.49
435.22	7569.29
435.41	7653.55
435.59	7866.54
435.78	7728.45
435.97	7683.98
436.16	7590.36
436.34	7733.13
436.53	7733.13
436.72	7735.47
436.90	7513.12
437.09	7941.44
437.28	7719.09
437.46	7550.57
437.65	7791.64
437.84	7943.78
438.02	7978.89
438.21	8004.63
438.40	7918.03
438.58	8180.17
438.77	8395.50
438.96	8114.64
439.14	8472.74
439.33	8477.42
439.52	8730.20
439.70	8386.14
439.89	8603.81
440.08	8610.83
440.26	8650.62
440.45	8573.38
440.63	8755.94
440.82	8961.91
441.01	8795.73
441.19	8926.80
441.38	9036.81
441.57	9177.24
441.75	9102.34
441.94	9214.69
442.12	9383.21
442.31	9348.10
442.50	9301.29
442.68	9195.96
442.87	9298.95
443.05	9413.63
443.24	9696.84
443.43	9312.99
443.61	9659.39
443.80	9961.32
443.98	9516.62
444.17	9092.98
444.35	9724.93
444.54	9596.20
444.73	9675.77
444.91	9666.41
445.10	9841.95
445.28	9853.66
445.47	9661.73
445.65	9664.07
445.84	9858.34
446.02	9888.76
446.21	9872.38
446.39	9687.48
446.58	9818.55
446.77	9846.63
446.95	9760.03
447.14	9788.12
447.32	9966.00
447.51	9823.23
447.69	9750.67
447.88	10012.81
448.06	9973.02
448.25	9956.64
448.43	10122.82
448.62	10005.79
448.80	9863.02
448.99	10010.47
449.17	10127.50
449.36	9954.30
449.54	10354.53
449.73	10401.34
449.91	10651.78
450.10	10366.23
450.28	10567.52
450.46	10647.10
450.65	10551.14
450.83	10642.42
451.02	10600.29
451.20	10888.17
451.39	10541.77
451.57	10672.84
451.76	10792.21
451.94	10707.95
452.13	10977.11
452.31	10726.68
452.49	10530.07
452.68	10729.02
452.86	10836.68
453.05	10939.66
453.23	11187.76
453.42	10822.64
453.60	10810.93
453.78	11243.93
453.97	11009.88
454.15	11037.97
454.34	10993.50
454.52	11393.73
454.70	11218.19
454.89	11220.53
455.07	11571.61
455.26	11571.61
455.44	11370.32
455.62	11515.44
455.81	11414.79
455.99	11513.10
456.17	11674.59
456.36	11800.98
456.54	11585.65
456.73	12009.29
456.91	12161.42
457.09	11859.49
457.28	12145.04
457.46	12128.66
457.64	12404.84
457.83	12423.56
458.01	12060.78
458.19	12613.15
458.38	12250.36
458.56	12400.16
458.74	12519.53
458.93	12505.48
459.11	12643.57
459.29	12484.42
459.48	12578.04
459.66	12615.49
459.84	12620.17
460.03	12886.99
460.21	12828.48
460.39	12781.67
460.57	12688.04
460.76	13046.15
460.94	13252.11
461.12	13111.68
461.31	13151.47
461.49	12975.93
461.67	13036.78
461.85	13001.68
462.04	13135.09
462.22	13556.38
462.40	13373.82
462.59	13345.73
462.77	13296.58
462.95	13408.93
463.13	13280.20
463.32	13181.90
463.50	13832.57
463.68	13661.71
463.86	13446.38
464.05	13425.31
464.23	13406.59
464.41	13720.22
464.59	13551.70
464.78	13846.61
464.96	14094.71
465.14	13736.60
465.32	14083.00
465.50	13865.33
465.69	14190.67
465.87	13987.04
466.05	13916.83
466.23	14040.87
466.41	14085.34
466.60	14726.65
466.78	14260.88
466.96	14120.45
467.14	14249.18
467.32	14321.74
467.51	14494.94
467.69	14204.71
467.87	14600.26
468.05	14541.75
468.23	14398.98
468.41	14544.09
468.60	14401.32
468.78	14691.54
468.96	14633.03
469.14	15002.83
469.32	14951.34
469.50	14537.07
469.69	15096.46
469.87	15103.48
470.05	14970.07
470.23	15272.00
470.41	15124.54
470.59	15316.47
470.77	15220.50
470.95	15398.38
471.14	15784.57
471.32	15288.38
471.50	15660.52
471.68	15543.50
471.86	15749.46
472.04	15817.34
472.22	16123.95
472.40	15910.96
472.58	16100.55
472.77	16168.42
472.95	16346.30
473.13	16760.58
473.31	16250.34
473.49	16198.85
473.67	16432.90
473.85	16510.14
474.03	16896.33
474.21	17125.70
474.39	17029.74
474.57	17074.21
474.75	17282.52
474.93	17486.14
475.12	17226.34
475.30	17198.26
475.48	17455.72
475.66	17500.19
475.84	17371.46
476.02	17902.76
476.20	17799.77
476.38	17783.39
476.56	18284.26
476.74	18436.40
476.92	18195.32
477.10	18277.24
477.28	18511.30
477.46	18654.07
477.64	19075.37
477.82	19066.00
478.00	19569.22
478.18	19414.74
478.36	19246.23
478.54	20034.99
478.72	19770.51
478.90	19978.81
479.08	20437.56
479.26	20505.43
479.44	20563.95
479.62	20786.30
479.80	20861.19
479.98	21032.05
480.16	21448.67
480.34	20982.90
480.52	21479.10
480.70	21638.25
480.88	21750.60
481.06	21895.71
481.24	21809.11
481.41	22082.95
481.59	22043.17
481.77	22515.95
481.95	22668.09
482.13	23007.47
482.31	22728.94
482.49	23234.50
482.67	23089.38
482.85	23777.50
483.03	23796.23
483.21	24060.71
483.39	24505.41
483.57	24027.94
483.74	24315.83
483.92	24507.75
484.10	24503.07
484.28	24975.86
484.46	25303.53
484.64	25570.35
484.82	25259.06
485.00	25963.56
485.18	26216.34
485.35	26852.97
485.53	26326.35
485.71	27005.10
485.89	27101.06
486.07	26775.73
486.25	26799.13
486.43	27487.25
486.61	27543.42
486.78	27723.65
486.96	28070.04
487.14	28116.86
487.32	28538.15
487.50	28631.77
487.68	28830.72
487.85	29230.95
488.03	29235.63
488.21	29769.27
488.39	29544.58
488.57	29834.81
488.75	30340.36
488.92	30040.78
489.10	30508.88
489.28	31173.60
489.46	31508.29
489.64	31316.37
489.81	31637.02
489.99	31428.71
490.17	31873.42
490.35	32107.47
490.53	32563.87
490.70	32673.88
490.88	32610.68
491.06	33214.54
491.24	33078.79
491.41	33191.14
491.59	33769.25
491.77	33900.32
491.95	34064.16
492.13	34218.63
492.30	34450.35
492.48	34466.73
492.66	34621.20
492.84	34834.19
493.01	35196.98
493.19	35182.93
493.37	35524.65
493.54	35021.44
493.72	35964.67
493.90	35922.54
494.08	36381.29
494.25	36495.97
494.43	36952.38
494.61	37144.30
494.79	37144.30
494.96	37111.53
495.14	37474.32
495.32	37689.65
495.49	38174.14
495.67	37902.64
495.85	38572.03
496.02	38665.65
496.20	38918.43
496.38	39037.80
496.55	38609.48
496.73	39803.15
496.91	39786.77
497.09	39789.11
497.26	40224.45
497.44	40126.14
497.62	39899.11
497.79	40989.80
497.97	40811.92
498.14	41127.89
498.32	41261.30
498.50	41027.25
498.67	41305.77
498.85	41146.62
499.03	41457.91
499.20	41258.96
499.38	41858.14
499.56	42288.80
499.73	42564.98
499.91	42684.35
500.08	42728.82
500.26	42684.35
500.44	43136.07
500.61	43299.91
500.79	43189.91
500.97	43519.92
501.14	43981.01
501.32	44011.43
501.49	43761.00
501.67	44299.32
501.84	44109.74
502.02	44378.90
502.20	44596.57
502.37	44641.04
502.55	44479.54
502.72	44842.32
502.90	44875.09
503.07	44938.29
503.25	45556.19
503.43	45343.20
503.60	45399.37
503.78	45375.97
503.95	45333.84
504.13	46075.79
504.30	45666.19
504.48	45951.74
504.65	45996.21
504.83	46560.28
505.01	46873.91
505.18	46384.74
505.36	47274.14
505.53	46925.40
505.71	46920.72
505.88	47550.32
506.06	47475.43
506.23	47306.91
506.41	47058.81
506.58	47814.80
506.76	47468.40
506.93	47529.26
507.11	47870.98
507.28	48147.16
507.46	48142.48
507.63	48339.08
507.81	48512.28
507.98	48348.45
508.16	48102.69
508.33	48786.13
508.50	48985.07
508.68	48938.26
508.85	49294.02
509.03	49167.63
509.20	49382.96
509.38	49741.06
509.55	50038.31
509.73	50059.38
509.90	49949.37
510.08	49893.20
510.25	49830.01
510.42	49942.35
510.60	50721.75
510.77	50483.01
510.95	50667.92
511.12	50616.43
511.30	50696.00
511.47	50878.57
511.64	50843.46
511.82	51274.12
511.99	50731.11
512.17	51096.24
512.34	51189.86
512.51	51341.99
512.69	51428.59
512.86	51512.85
513.04	52018.41
513.21	51910.74
513.38	51810.10
513.56	52058.20
513.73	51672.01
513.90	52184.58
514.08	52303.95
514.25	52430.34
514.43	52582.48
514.60	52474.81
514.77	52458.43
514.95	52629.29
515.12	52404.59
515.29	52547.37
515.47	53125.48
515.64	53308.04
515.81	52643.33
515.99	53104.41
516.16	53057.60
516.33	53336.13
516.51	53719.98
516.68	53382.94
516.85	53471.88
517.03	53764.45
517.20	53628.69
517.37	53837.00
517.54	53778.49
517.72	53895.52
517.89	53792.53
518.06	53897.86
518.24	54117.87
518.41	54195.10
518.58	54274.68
518.75	53579.54
518.93	54160.00
519.10	53949.35
519.27	54340.22
519.45	54302.77
519.62	54602.36
519.79	54763.85
519.96	54646.83
520.14	54667.89
520.31	54581.29
520.48	54948.76
520.65	54766.20
520.83	55014.29
521.00	55238.98
521.17	55346.65
521.34	55288.13
521.52	55384.10
521.69	55166.43
521.86	55524.53
522.03	55620.49
522.20	55636.87
522.38	55718.79
522.55	55987.95
522.72	55611.13
522.89	55873.27
523.07	55763.26
523.24	55735.18
523.41	55863.91
523.58	55667.30
523.75	56198.60
523.92	56315.63
524.10	56371.80
524.27	56406.91
524.44	56226.69
524.61	56519.26
524.78	56203.28
524.96	56231.37
525.13	56615.22
525.30	56816.50
525.47	56942.89
525.64	56835.23
525.81	56664.37
525.98	56800.12
526.16	56655.01
526.33	56521.60
526.50	56891.40
526.67	56849.27
526.84	56949.92
527.01	57127.80
527.18	57240.14
527.36	57038.86
527.53	57003.75
527.70	57609.95
527.87	57464.83
528.04	57038.86
528.21	57572.50
528.38	57324.40
528.55	57691.86
528.72	57535.05
528.89	57396.96
529.07	57518.67
529.24	57389.94
529.41	57755.06
529.58	58010.18
529.75	57499.94
529.92	57946.98
530.09	57975.07
530.26	57853.36
530.43	57743.36
530.60	57441.43
530.77	57977.41
530.94	58026.56
531.11	58012.52
531.28	58159.97
531.46	58169.33
531.63	58014.86
531.80	58298.06
531.97	58351.90
532.14	58546.16
532.31	58333.17
532.48	58473.60
532.65	58522.76
532.82	58520.41
532.99	58504.03
533.16	58429.13
533.33	58693.61
533.50	58857.45
533.67	58590.63
533.84	58660.85
534.01	58674.89
534.18	59138.32
534.35	58965.12
534.52	58810.64
534.69	59171.08
534.86	59110.23
535.03	58768.51
535.20	58951.07
535.37	59213.21
535.54	59482.37
535.71	59157.04
535.88	59227.26
536.05	59238.96
536.22	59365.35
536.38	59189.81
536.55	59470.67
536.72	59379.39
536.89	59379.39
537.06	59608.76
537.23	59714.09
537.40	59618.13
537.57	59573.66
537.74	59510.46
537.91	59859.20
538.08	59564.29
538.25	59477.69
538.42	59711.75
538.59	59847.50
538.75	59821.75
538.92	59987.93
539.09	59849.84
539.26	59847.50
539.43	59910.69
539.60	59880.27
539.77	59891.97
539.94	60200.92
540.11	60367.10
540.28	60315.61
540.44	60273.48
540.61	60226.66
540.78	59976.23
540.95	60140.07
541.12	60088.57
541.29	60320.29
541.46	60493.49
541.62	60736.90
541.79	60552.00
541.96	60292.20
542.13	60552.00
542.30	60463.06
542.47	60411.57
542.63	60481.78
542.80	60743.92
542.97	61123.09
543.14	61059.90
543.31	60874.99
543.48	61076.28
543.64	61249.48
543.81	61240.12
543.98	61045.85
544.15	61132.45
544.32	61099.68
544.48	61343.10
544.65	61240.12
544.82	61275.22
544.99	61148.84
545.16	61406.30
545.32	61181.60
545.49	61432.04
545.66	61556.09
545.83	61677.80
546.00	61577.15
546.16	61684.82
546.33	61560.77
546.50	61300.97
546.67	61476.51
546.83	61106.71
547.00	61378.21
547.17	61366.51
547.34	61317.35
547.50	61677.80
547.67	61881.42
547.84	61708.22
548.00	61719.93
548.17	61993.77
548.34	61666.09
548.51	61956.32
548.67	61867.38
548.84	61609.92
549.01	61879.08
549.18	61813.55
549.34	61848.66
549.51	62045.26
549.68	62068.67
549.84	61895.47
550.01	61818.23
550.18	62033.56
550.34	61853.34
550.51	62101.43
550.68	62209.10
550.84	61965.68
551.01	62155.27
551.18	62005.47
551.34	61975.05
551.51	62255.91
551.68	62042.92
551.84	62181.01
552.01	62056.96
552.18	62239.53
552.34	62157.61
552.51	62452.51
552.68	62417.41
552.84	62499.33
553.01	62482.94
553.18	62431.45
553.34	62555.50
553.51	62218.46
553.67	62239.53
553.84	62541.45
554.01	62642.10
554.17	62590.61
554.34	62658.48
554.51	62473.58
554.67	62508.69
554.84	62546.14
555.00	62433.79
555.17	62415.07
555.33	62410.38
555.50	62550.82
555.67	62637.42
555.83	62827.00
556.00	62752.10
556.16	62827.00
556.33	62829.34
556.50	62808.28
556.66	62901.90
556.83	62539.11
556.99	63185.10
557.16	62934.66
557.32	62894.88
557.49	63093.82
557.65	62829.34
557.82	62958.07
557.98	62810.62
558.15	63021.26
558.32	62883.17
558.48	63124.25
558.65	63098.50
558.81	63257.66
558.98	63025.95
559.14	63159.36
559.31	63065.73
559.47	63004.88
559.64	62941.69
559.80	63098.50
559.97	63208.51
560.13	63103.18
560.30	63149.99
560.46	63316.17
560.63	63306.81
560.79	63496.39
560.96	63465.97
561.12	63341.92
561.29	63327.87
561.45	63353.62
561.61	63388.73
561.78	63227.23
561.94	63505.76
562.11	63428.52
562.27	63472.99
562.44	63524.48
562.60	63337.24
562.77	63515.12
562.93	63304.47
563.10	63618.10
563.26	63227.23
563.42	63791.30
563.59	63360.64
563.75	63414.47
563.92	63688.32
564.08	63515.12
564.24	63777.26
564.41	63484.69
564.57	63590.01
564.74	63501.07
564.90	63646.19
565.07	63767.90
565.23	63753.85
565.39	63788.96
565.56	63969.18
565.72	63688.32
565.88	63840.45
566.05	63798.32
566.21	63716.40
566.38	63604.06
566.54	63711.72
566.70	63842.79
566.87	64034.72
567.03	63887.26
567.19	64144.72
567.36	64118.98
567.52	63952.80
567.68	63913.01
567.85	63707.04
568.01	63882.58
568.17	63828.75
568.34	63695.34
568.50	63950.46
568.66	63894.28
568.83	63877.90
568.99	63847.47
569.15	63803.00
569.32	63922.37
569.48	63685.98
569.64	63772.58
569.81	63814.71
569.97	63784.28
570.13	64062.80
570.30	63927.05
570.46	64076.85
570.62	63971.52
570.78	63987.91
570.95	63765.56
571.11	64102.59
571.27	63945.78
571.43	63992.59
571.60	64051.10
571.76	64027.70
571.92	64102.59
572.09	64097.91
572.25	64168.13
572.41	64062.80
572.57	64090.89
572.74	64402.18
572.90	64088.55
573.06	64109.61
573.22	63999.61
573.38	64168.13
573.55	64034.72
573.71	64425.59
573.87	64280.47
574.03	64037.06
574.20	64142.38
574.36	64282.81
574.52	64357.71
574.68	64102.59
574.84	64088.55
575.01	64294.52
575.17	64259.41
575.33	64149.40
575.49	64327.28
575.65	64371.75
575.82	64374.09
575.98	64198.55
576.14	64427.93
576.30	64481.76
576.46	64324.94
576.62	64090.89
576.79	64252.39
576.95	64006.63
577.11	64416.22
577.27	64369.41
577.43	64371.75
577.59	64465.38
577.75	64381.12
577.92	64381.12
578.08	64207.92
578.24	64212.60
578.40	64355.37
578.56	64317.92
578.72	64514.53
578.88	64486.44
579.04	64566.02
579.21	64582.40
579.37	64458.35
579.53	64516.87
579.69	64278.13
579.85	64334.31
580.01	64434.95
580.17	64362.39
580.33	64526.23
580.49	64409.20
580.65	64495.80
580.82	64481.76
580.98	64591.76
581.14	64535.59
581.30	64673.68
581.46	64423.25
581.62	64470.06
581.78	64144.72
581.94	64451.33
582.10	64502.82
582.26	64540.27
582.42	64458.35
582.58	64402.18
582.74	64556.66
582.90	64577.72
583.06	64526.23
583.22	64472.40
583.38	64467.72
583.54	64582.40
583.70	64444.31
583.86	64484.10
584.02	64448.99
584.18	64526.23
584.34	64477.08
584.50	64610.49
584.66	64374.09
584.82	64439.63
584.98	64514.53
585.14	64500.48
585.30	64362.39
585.46	64434.95
585.62	64425.59
585.78	64615.17
585.94	64411.54
586.10	64694.75
586.26	64647.94
586.42	64743.90
586.58	64816.46
586.74	64683.04
586.90	64666.66
587.06	64650.28
587.22	64645.60
587.38	64502.82
587.54	64650.28
