SpectraSuite Data File
++++++++++++++++++++++++++++++++++++
Date: Thu Oct 24 13:21:17 EDT 2013
User: stostad
Dark Spectrum Present: No
Reference Spectrum Present: No
Number of Sampled Component Spectra: 1
Spectrometers: USB2+H05261
Integration Time (usec): 100000 (USB2+H05261)
Spectra Averaged: 1 (USB2+H05261)
Boxcar Smoothing: 0 (USB2+H05261)
Correct for Electrical Dark: No (USB2+H05261)
Strobe/Lamp Enabled: No (USB2+H05261)
Correct for Detector Non-linearity: No (USB2+H05261)
Correct for Stray Light: No (USB2+H05261)
Number of Pixels in Processed Spectrum: 2048
>>>>>Begin Processed Spectral Data<<<<<
365.73	615.56
365.92	615.56
366.12	615.56
366.32	514.92
366.52	500.87
366.72	503.22
366.91	465.77
367.11	421.30
367.31	486.83
367.51	381.51
367.70	447.04
367.90	475.13
368.10	442.36
368.30	425.98
368.49	437.68
368.69	519.60
368.89	507.90
369.09	498.53
369.28	433.00
369.48	451.72
369.68	503.22
369.87	535.98
370.07	538.32
370.27	545.34
370.47	620.24
370.66	770.04
370.86	795.78
371.06	896.43
371.25	828.55
371.45	755.99
371.65	798.12
371.84	823.87
372.04	837.91
372.24	837.91
372.44	870.68
372.63	891.74
372.83	889.40
373.03	847.27
373.22	837.91
373.42	889.40
373.62	971.32
373.81	908.13
374.01	966.64
374.21	851.96
374.40	1008.77
374.60	901.11
374.79	954.94
374.99	978.34
375.19	966.64
375.38	901.11
375.58	908.13
375.78	1013.45
375.97	1064.94
376.17	980.68
376.37	910.47
376.56	926.85
376.76	947.92
376.95	926.85
377.15	968.98
377.35	968.98
377.54	992.39
377.74	966.64
377.93	891.74
378.13	882.38
378.33	950.26
378.52	931.53
378.72	1001.75
378.91	954.94
379.11	968.98
379.31	964.30
379.50	997.07
379.70	1053.24
379.89	999.41
380.09	990.05
380.28	945.58
380.48	997.07
380.68	961.96
380.87	1036.86
381.07	933.87
381.26	1027.50
381.46	1076.65
381.65	1060.26
381.85	1046.22
382.04	997.07
382.24	1034.52
382.43	992.39
382.63	1095.37
382.83	1043.88
383.02	1156.22
383.22	1043.88
383.41	1076.65
383.61	1039.20
383.80	1128.14
384.00	1046.22
384.19	1121.12
384.39	1053.24
384.58	1123.46
384.78	1083.67
384.97	1158.57
385.17	1090.69
385.36	1149.20
385.56	1130.48
385.75	1118.78
385.95	1053.24
386.14	1153.88
386.34	1095.37
386.53	1034.52
386.72	1107.07
386.92	1109.41
387.11	1177.29
387.31	1121.12
387.50	1198.35
387.70	1100.05
387.89	1114.10
388.09	1078.99
388.28	1212.40
388.48	1153.88
388.67	1165.59
388.86	1193.67
389.06	1174.95
389.25	1226.44
389.45	1193.67
389.64	1273.25
389.84	1224.10
390.03	1179.63
390.22	1226.44
390.42	1238.14
390.61	1221.76
390.81	1249.85
391.00	1214.74
391.19	1217.08
391.39	1299.00
391.58	1259.21
391.78	1291.98
391.97	1287.29
392.16	1235.80
392.36	1310.70
392.55	1310.70
392.75	1334.11
392.94	1240.48
393.13	1235.80
393.33	1287.29
393.52	1320.06
393.71	1341.13
393.91	1289.64
394.10	1411.34
394.29	1397.30
394.49	1401.98
394.68	1392.62
394.88	1430.07
395.07	1320.06
395.26	1369.21
395.46	1472.20
395.65	1352.83
395.84	1394.96
396.04	1462.83
396.23	1462.83
396.42	1458.15
396.62	1479.22
396.81	1540.07
397.00	1439.43
397.19	1437.09
397.39	1441.77
397.58	1544.75
397.77	1530.71
397.97	1561.14
398.16	1472.20
398.35	1497.94
398.55	1472.20
398.74	1476.88
398.93	1511.99
399.12	1554.12
399.32	1500.28
399.51	1636.03
399.70	1521.35
399.90	1542.41
400.09	1619.65
400.28	1647.74
400.47	1521.35
400.67	1584.54
400.86	1631.35
401.05	1652.42
401.24	1596.25
401.44	1685.19
401.63	1720.29
401.82	1666.46
402.01	1713.27
402.21	1727.32
402.40	1706.25
402.59	1666.46
402.78	1767.10
402.97	1764.76
403.17	1764.76
403.36	1678.16
403.55	1877.11
403.74	1757.74
403.93	1874.77
404.13	1851.36
404.32	1818.60
404.51	1832.64
404.70	1935.62
404.89	1968.39
405.09	1928.60
405.28	1879.45
405.47	1891.15
405.66	1888.81
405.85	2008.18
406.05	1842.00
406.24	1952.01
406.43	1914.56
406.62	2015.20
406.81	1987.11
407.00	2019.88
407.20	1902.86
407.39	1961.37
407.58	2092.44
407.77	2083.08
407.96	2050.31
408.15	2148.61
408.34	2024.56
408.54	2101.80
408.73	2069.03
408.92	2176.70
409.11	2167.34
409.30	2157.97
409.49	2270.32
409.68	2099.46
409.87	2169.68
410.07	2235.21
410.26	2141.59
410.45	2256.28
410.64	2267.98
410.83	2338.20
411.02	2307.77
411.21	2387.35
411.40	2279.68
411.59	2382.67
411.78	2375.64
411.98	2370.96
412.17	2363.94
412.36	2363.94
412.55	2518.42
412.74	2478.63
412.93	2485.65
413.12	2520.76
413.31	2495.01
413.50	2385.01
413.69	2466.92
413.88	2504.37
414.07	2504.37
414.26	2668.21
414.45	2588.63
414.64	2677.57
414.83	2616.72
415.02	2693.96
415.22	2724.38
415.41	2686.94
415.60	2733.75
415.79	2815.66
415.98	2801.62
416.17	2832.05
416.36	2855.45
416.55	2696.30
416.74	2857.79
416.93	2871.84
417.12	2960.78
417.31	2890.56
417.50	2862.48
417.69	3000.57
417.88	3023.97
418.07	2991.20
418.26	3026.31
418.45	3049.72
418.64	3145.68
418.83	2916.31
419.02	3070.78
419.21	3131.64
419.39	3101.21
419.58	3131.64
419.77	2970.14
419.96	3126.96
420.15	3253.34
420.34	3126.96
420.53	3213.56
420.72	3251.00
420.91	3234.62
421.10	3335.26
421.29	3213.56
421.48	3197.17
421.67	3325.90
421.86	3239.30
422.05	3274.41
422.24	3272.07
422.43	3281.43
422.61	3286.11
422.80	3405.48
422.99	3473.36
423.18	3405.48
423.37	3370.37
423.56	3323.56
423.75	3276.75
423.94	3274.41
424.13	3152.70
424.32	3229.94
424.50	3431.23
424.69	3431.23
424.88	3428.88
425.07	3342.28
425.26	3258.03
425.45	3428.88
425.64	3473.36
425.83	3414.84
426.01	3346.97
426.20	3438.25
426.39	3400.80
426.58	3356.33
426.77	3499.10
426.96	3510.80
427.15	3506.12
427.33	3599.74
427.52	3489.74
427.71	3571.66
427.90	3541.23
428.09	3571.66
428.28	3473.36
428.46	3616.13
428.65	3541.23
428.84	3679.32
429.03	3707.41
429.22	3618.47
429.40	3583.36
429.59	3707.41
429.78	3648.90
429.97	3576.34
430.16	3672.30
430.34	3651.24
430.53	3819.75
430.72	3749.54
430.91	3801.03
431.10	3714.43
431.28	3831.46
431.47	3868.91
431.66	4079.55
431.85	3681.66
432.03	3932.10
432.22	3864.22
432.41	3962.53
432.60	3941.46
432.79	4004.66
432.97	3941.46
433.16	4009.34
433.35	3955.51
433.54	4056.15
433.72	3971.89
433.91	4044.45
434.10	4147.43
434.28	3962.53
434.47	4046.79
434.66	4051.47
434.85	4154.45
435.03	4222.33
435.22	4451.70
435.41	4561.70
435.59	4627.24
435.78	4376.80
435.97	4346.37
436.16	4278.50
436.34	4219.99
436.53	4217.65
436.72	4397.87
436.90	4259.78
437.09	4432.97
437.28	4266.80
437.46	4208.28
437.65	4362.76
437.84	4313.61
438.02	4369.78
438.21	4514.89
438.40	4444.68
438.58	4514.89
438.77	4535.96
438.96	4519.57
439.14	4667.03
439.33	4552.34
439.52	4655.33
439.70	4652.98
439.89	4664.69
440.08	4755.97
440.26	4723.20
440.45	4718.52
440.63	4865.97
440.82	4999.38
441.01	4753.63
441.19	4812.14
441.38	4938.53
441.57	4940.87
441.75	4978.32
441.94	5109.39
442.12	5088.32
442.31	5167.90
442.50	5081.30
442.68	5188.97
442.87	5160.88
443.05	5198.33
443.24	5343.44
443.43	5275.57
443.61	5205.35
443.80	5364.51
443.98	5050.88
444.17	5064.92
444.35	5191.31
444.54	5294.29
444.73	5324.72
444.91	5418.34
445.10	5357.49
445.28	5308.34
445.47	5266.21
445.65	5317.70
445.84	5327.06
446.02	5507.28
446.21	5345.78
446.39	5420.68
446.58	5448.77
446.77	5350.46
446.95	5214.71
447.14	5252.16
447.32	5521.32
447.51	5427.70
447.69	5467.49
447.88	5425.36
448.06	5589.20
448.25	5341.10
448.43	5430.04
448.62	5486.22
448.80	5444.09
448.99	5411.32
449.17	5500.26
449.36	5537.71
449.54	5654.73
449.73	5696.86
449.91	5753.04
450.10	5605.58
450.28	5806.87
450.46	5816.23
450.65	5682.82
450.83	5706.23
451.02	5762.40
451.20	5818.57
451.39	5797.51
451.57	5949.64
451.76	5743.67
451.94	5841.98
452.13	5937.94
452.31	5930.92
452.49	5788.14
452.68	5982.41
452.86	5916.87
453.05	5959.00
453.23	5961.34
453.42	5834.96
453.60	5898.15
453.78	6104.12
453.97	5966.03
454.15	5884.11
454.34	5951.98
454.52	6209.44
454.70	5982.41
454.89	6146.25
455.07	5937.94
455.26	6038.58
455.44	6200.08
455.62	6223.48
455.81	6148.59
455.99	6389.66
456.17	6200.08
456.36	6214.12
456.54	6263.27
456.73	6260.93
456.91	6576.91
457.09	6502.01
457.28	6464.56
457.46	6319.45
457.64	6630.74
457.83	6525.41
458.01	6555.84
458.19	6686.91
458.38	6616.69
458.56	6642.44
458.74	6597.97
458.93	6686.91
459.11	6757.13
459.29	6626.06
459.48	6904.58
459.66	6619.04
459.84	6902.24
460.03	6815.64
460.21	7028.63
460.39	6923.30
460.57	6932.67
460.76	6963.09
460.94	6988.84
461.12	7014.59
461.31	6871.81
461.49	6911.60
461.67	6881.18
461.85	7096.50
462.04	7101.19
462.22	7466.31
462.40	7094.16
462.59	7136.29
462.77	7052.03
462.95	7206.51
463.13	7007.56
463.32	7143.32
463.50	7368.01
463.68	7269.70
463.86	7206.51
464.05	7269.70
464.23	7281.41
464.41	7243.96
464.59	7262.68
464.78	7515.46
464.96	7307.15
465.14	7145.66
465.32	7386.73
465.50	7459.29
465.69	7440.56
465.87	7426.52
466.05	7314.17
466.23	7585.68
466.41	7639.51
466.60	7536.52
466.78	7494.40
466.96	7487.37
467.14	7667.60
467.32	7786.96
467.51	7726.11
467.69	7527.16
467.87	7751.85
468.05	7852.50
468.23	7627.81
468.41	7576.31
468.60	7669.94
468.78	7726.11
468.96	7817.39
469.14	7721.43
469.32	7896.97
469.50	7676.96
469.69	7836.11
469.87	7943.78
470.05	7885.26
470.23	7981.23
470.41	7964.84
470.59	7981.23
470.77	8205.92
470.95	8184.85
471.14	8135.70
471.32	8028.04
471.50	8121.66
471.68	8182.51
471.86	8374.44
472.04	8304.22
472.22	8552.32
472.40	8280.82
472.58	8606.15
472.77	8512.53
472.95	8484.44
473.13	8772.33
473.31	8418.91
473.49	8542.96
473.67	8631.90
473.85	8594.45
474.03	8575.72
474.21	8875.31
474.39	8821.48
474.57	9015.74
474.75	8929.14
474.93	9167.88
475.12	8877.65
475.30	9114.05
475.48	9238.09
475.66	9317.67
475.84	9165.54
476.02	9151.49
476.20	9146.81
476.38	9432.36
476.56	9816.21
476.74	9460.45
476.92	9563.43
477.10	9458.10
477.28	9537.68
477.46	9703.86
477.64	9804.50
477.82	9991.75
478.00	10214.10
478.18	10146.22
478.36	10211.76
478.54	10293.68
478.72	10090.05
478.90	10399.00
479.08	10424.75
479.26	10471.56
479.44	10600.29
479.62	10679.86
479.80	10569.86
479.98	10785.19
480.16	11059.03
480.34	10822.64
480.52	11213.51
480.70	11119.89
480.88	11257.98
481.06	11236.91
481.24	11227.55
481.41	11510.75
481.59	11531.82
481.77	11590.33
481.95	11508.41
482.13	11836.09
482.31	11803.32
482.49	12126.32
482.67	12053.76
482.85	11960.14
483.03	12116.95
483.21	12390.80
483.39	12393.14
483.57	12161.42
483.74	12540.59
483.92	12575.70
484.10	12720.81
484.28	12854.22
484.46	13090.62
484.64	13111.68
484.82	12957.21
485.00	13071.89
485.18	13462.76
485.35	13645.32
485.53	13720.22
485.71	13612.56
485.89	13671.07
486.07	13724.90
486.25	13664.05
486.43	13975.34
486.61	14155.56
486.78	14188.33
486.96	14277.27
487.14	14487.92
487.32	14263.22
487.50	14551.11
487.68	14834.32
487.85	14656.43
488.03	15105.82
488.21	15267.31
488.39	15257.95
488.57	15571.58
488.75	15463.92
488.92	15515.41
489.10	15927.35
489.28	15744.78
489.46	15901.60
489.64	15609.03
489.81	16311.19
489.99	16086.50
490.17	16493.76
490.35	16554.61
490.53	16737.17
490.70	16463.33
490.88	16442.26
491.06	16936.12
491.24	16723.13
491.41	16924.41
491.59	16800.37
491.77	17270.81
491.95	17422.95
492.13	17490.82
492.30	17390.18
492.48	17392.52
492.66	17547.00
492.84	17631.26
493.01	17912.12
493.19	18015.10
493.37	18146.17
493.54	18260.86
493.72	18560.45
493.90	18221.07
494.08	18396.61
494.25	18721.95
494.43	18497.25
494.61	18874.08
494.79	18752.37
494.96	19269.63
495.14	19257.93
495.32	19236.86
495.49	19363.25
495.67	19522.41
495.85	19520.07
496.02	19763.48
496.20	19665.18
496.38	19789.23
496.55	19843.06
496.73	20336.91
496.91	20189.46
497.09	20493.73
497.26	20203.50
497.44	20294.79
497.62	20477.35
497.79	20788.64
497.97	20662.25
498.14	20727.78
498.32	21116.31
498.50	21120.99
498.67	21132.70
498.85	21062.48
499.03	21486.12
499.20	21411.22
499.38	21748.26
499.56	21282.49
499.73	21553.99
499.91	22078.27
500.08	21738.90
500.26	21523.57
500.44	22010.40
500.61	22068.91
500.79	22295.94
500.97	22120.40
501.14	22244.45
501.32	22525.32
501.49	22228.07
501.67	22302.96
501.84	22478.50
502.02	22632.98
502.20	22815.54
502.37	22951.29
502.55	22792.14
502.72	22855.33
502.90	23044.91
503.07	22955.97
503.25	23157.26
503.43	23129.17
503.60	23044.91
503.78	23007.47
503.95	23274.29
504.13	23658.14
504.30	23552.81
504.48	23491.96
504.65	23817.29
504.83	23875.80
505.01	24093.47
505.18	23960.06
505.36	23843.04
505.53	23805.59
505.71	24039.64
505.88	24355.61
506.06	24173.05
506.23	24189.44
506.41	24430.51
506.58	24065.39
506.76	24493.71
506.93	24835.42
507.11	24498.39
507.28	24812.02
507.46	24945.43
507.63	25268.42
507.81	24954.79
507.98	24823.72
508.16	25057.78
508.33	24905.64
508.50	25420.56
508.68	25584.40
508.85	25820.79
509.03	25507.16
509.20	25497.80
509.38	25610.14
509.55	25776.32
509.73	26094.63
509.90	26146.12
510.08	26176.55
510.25	26052.50
510.42	26272.51
510.60	26157.83
510.77	26031.44
510.95	26366.13
511.12	26513.59
511.30	26167.19
511.47	26773.39
511.64	26614.23
511.82	27002.76
511.99	26668.06
512.17	26581.46
512.34	26995.74
512.51	27271.92
512.69	27136.17
512.86	26930.20
513.04	27379.59
513.21	27328.10
513.38	27129.15
513.56	27513.00
513.73	27583.21
513.90	27421.72
514.08	27817.27
514.25	27782.16
514.43	27824.29
514.60	28098.13
514.77	27728.33
514.95	27882.80
515.12	27917.91
515.29	28163.67
515.47	28056.00
515.64	28276.01
515.81	28144.94
515.99	28357.93
516.16	28217.50
516.33	28421.13
516.51	28727.74
516.68	28435.17
516.85	29029.66
517.03	28727.74
517.20	28755.82
517.37	28566.24
517.54	29064.77
517.72	28704.33
517.89	28943.06
518.06	29172.44
518.24	29032.00
518.41	29053.07
518.58	29160.73
518.75	29090.52
518.93	29181.80
519.10	29076.48
519.27	29352.66
519.45	29745.87
519.62	29764.59
519.79	29476.71
519.96	29600.76
520.14	29961.20
520.31	29441.60
520.48	29696.72
520.65	29977.58
520.83	29958.86
521.00	29890.98
521.17	30026.73
521.34	30082.91
521.52	29738.85
521.69	30342.70
521.86	30167.16
522.03	30281.85
522.20	30511.22
522.38	30939.54
522.55	31115.08
522.72	30710.17
522.89	30670.38
523.07	30661.02
523.24	30862.30
523.41	30834.22
523.58	30948.90
523.75	31299.98
523.92	31342.11
524.10	31529.36
524.27	31452.12
524.44	31644.04
524.61	31173.60
524.78	31498.93
524.96	31248.49
525.13	31662.77
525.30	31786.82
525.47	31557.44
525.64	31679.15
525.81	31639.36
525.98	31793.84
526.16	31702.56
526.33	31615.96
526.50	31786.82
526.67	31835.97
526.84	31875.76
527.01	31985.76
527.18	32137.90
527.36	32318.12
527.53	32041.93
527.70	32334.50
527.87	32456.21
528.04	32254.92
528.21	32514.72
528.38	32545.15
528.55	32673.88
528.72	32549.83
528.89	32903.25
529.07	32826.01
529.24	32613.02
529.41	32547.49
529.58	33041.34
529.75	32634.09
529.92	33223.90
530.09	32816.65
530.26	32891.55
530.43	33642.86
530.60	32477.27
530.77	33010.92
530.94	33596.05
531.11	33158.37
531.28	33804.36
531.46	33448.60
531.63	33441.57
531.80	33596.05
531.97	33802.02
532.14	33687.33
532.31	33399.44
532.48	33937.77
532.65	34321.62
532.82	33893.30
532.99	33507.11
533.16	33511.79
533.33	34047.77
533.50	34319.28
533.67	33958.83
533.84	33457.96
534.01	33905.00
534.18	34146.08
534.35	34490.13
534.52	34370.77
534.69	34267.78
534.86	34494.82
535.03	34029.05
535.20	34515.88
535.37	34513.54
535.54	34539.29
535.71	34740.57
535.88	34728.87
536.05	34197.57
536.22	34602.48
536.38	35115.06
536.55	34536.94
536.72	35096.33
536.89	34817.81
537.06	34976.97
537.23	35274.21
537.40	35545.72
537.57	34838.87
537.74	34705.46
537.91	34710.14
538.08	35016.75
538.25	34892.71
538.42	35618.27
538.59	35512.95
538.75	35222.72
538.92	35143.14
539.09	35498.91
539.26	35686.15
539.43	35260.17
539.60	35367.84
539.77	35494.22
539.94	35892.12
540.11	36336.82
540.28	36151.91
540.44	36247.88
540.61	35562.10
540.78	35658.06
540.95	35906.16
541.12	36343.84
541.29	36460.87
541.46	35810.20
541.62	36676.19
541.79	36601.30
541.96	36430.44
542.13	36554.49
542.30	36830.67
542.47	36381.29
542.63	36776.84
542.80	36760.45
542.97	36823.65
543.14	36840.03
543.31	37074.09
543.48	37034.30
543.64	37518.79
543.81	37090.47
543.98	36982.80
544.15	37333.89
544.32	37310.48
544.48	37764.54
544.65	37127.92
544.82	37200.47
544.99	36598.96
545.16	37174.73
545.32	37521.13
545.49	37572.62
545.66	37879.23
545.83	38567.35
546.00	38410.53
546.16	38153.07
546.33	38284.14
546.50	37642.84
546.67	37699.01
546.83	37361.97
547.00	37148.98
547.17	37235.58
547.34	37497.72
547.50	37809.01
547.67	37820.72
547.84	37874.55
548.00	38071.15
548.17	38295.85
548.34	37951.79
548.51	38031.36
548.67	38082.86
548.84	38080.52
549.01	37738.80
549.18	38249.03
549.34	38497.13
549.51	38071.15
549.68	38686.71
549.84	38525.22
550.01	38258.40
550.18	37666.24
550.34	38010.30
550.51	37991.58
550.68	38288.82
550.84	38162.43
551.01	38190.52
551.18	38403.51
551.34	38778.00
551.51	38391.81
551.68	38429.26
551.84	38251.38
552.01	38000.94
552.18	38471.39
552.34	38382.45
552.51	39152.48
552.68	38457.34
552.84	38829.49
553.01	38965.24
553.18	38848.21
553.34	39152.48
553.51	38782.68
553.67	38534.58
553.84	39257.81
554.01	39367.81
554.17	38976.94
554.34	39152.48
554.51	39030.77
554.67	39318.66
554.84	38766.29
555.00	38689.06
555.17	38925.45
555.33	39236.74
555.50	38850.55
555.67	38703.10
555.83	39276.53
556.00	38897.36
556.16	39779.74
556.33	39185.25
556.50	39152.48
556.66	39269.51
556.83	38930.13
556.99	39005.03
557.16	39292.91
557.32	39583.14
557.49	39576.12
557.65	39519.95
557.82	39360.79
557.98	38892.68
558.15	39269.51
558.32	39835.92
558.48	39456.75
558.65	39653.36
558.81	39604.20
558.98	39501.22
559.14	39655.70
559.31	39456.75
559.47	39416.96
559.64	39386.54
559.80	39660.38
559.97	39796.13
560.13	39316.32
560.30	40084.01
560.46	39559.73
560.63	40252.53
560.79	40484.25
560.96	40027.84
561.12	39943.58
561.29	39805.49
561.45	40116.78
561.61	40292.32
561.78	39856.98
561.94	39864.00
562.11	40112.10
562.27	40430.41
562.44	40318.07
562.60	40034.86
562.77	40149.55
562.93	39831.24
563.10	40275.94
563.26	39669.74
563.42	40226.79
563.59	40018.48
563.75	40018.48
563.92	40233.81
564.08	40034.86
564.24	40329.77
564.41	40336.79
564.57	40664.47
564.74	40100.40
564.90	40657.45
565.07	40325.09
565.23	40528.72
565.39	40247.85
565.56	40748.73
565.72	40383.60
565.88	40889.16
566.05	40622.34
566.21	39849.96
566.38	40325.09
566.54	40507.65
566.70	40575.53
566.87	40947.67
567.03	40830.65
567.19	41184.07
567.36	40804.90
567.52	40776.81
567.68	40217.43
567.85	40222.11
568.01	40699.58
568.17	40624.68
568.34	40669.15
568.50	40786.18
568.66	40896.18
568.83	40931.29
568.99	40568.51
569.15	40561.48
569.32	40676.17
569.48	40711.28
569.64	40521.69
569.81	40662.13
569.97	40645.74
570.13	40371.90
570.30	40554.46
570.46	40774.47
570.62	40264.24
570.78	40662.13
570.95	40875.12
571.11	41184.07
571.27	40589.57
571.43	40240.83
571.60	40442.12
571.76	40505.31
571.92	41017.89
572.09	40631.70
572.25	41284.71
572.41	41008.53
572.57	41336.20
572.74	41324.50
572.90	41123.21
573.06	41249.60
573.22	40678.51
573.38	40905.54
573.55	40910.22
573.71	40910.22
573.87	41053.00
574.03	40790.86
574.20	41455.57
574.36	41055.34
574.52	40924.27
574.68	40872.78
574.84	41593.66
575.01	40978.10
575.17	41289.39
575.33	41296.41
575.49	40942.99
575.65	40935.97
575.82	41148.96
575.98	41198.11
576.14	41900.27
576.30	41336.20
576.46	41111.51
576.62	40966.40
576.79	41530.47
576.95	41010.87
577.11	41249.60
577.27	41280.03
577.43	41443.87
577.59	41287.05
577.75	41265.99
577.92	41092.79
578.08	40673.83
578.24	41057.68
578.40	41385.35
578.56	41647.49
578.72	41280.03
578.88	41930.70
579.04	41752.82
579.21	41453.23
579.37	41450.89
579.53	41064.70
579.69	40980.44
579.85	41277.69
580.01	41785.58
580.17	41633.45
580.33	41497.70
580.49	41406.42
580.65	41237.90
580.82	41200.45
580.98	41549.19
581.14	41443.87
581.30	41411.10
581.46	41212.15
581.62	41291.73
581.78	41301.09
581.94	41577.28
582.10	41546.85
582.26	41448.55
582.42	41214.49
582.58	41057.68
582.74	41617.07
582.90	41591.32
583.06	41607.70
583.22	41329.18
583.38	41361.95
583.54	40882.14
583.70	41085.76
583.86	41628.77
584.02	41691.96
584.18	41741.11
584.34	41385.35
584.50	42071.13
584.66	41193.43
584.82	41478.97
584.98	41455.57
585.14	42073.47
585.30	41202.79
585.46	41153.64
585.62	41155.98
585.78	41560.89
585.94	41640.47
586.10	41816.01
586.26	41848.78
586.42	41724.73
586.58	41886.23
586.74	41469.61
586.90	41420.46
587.06	41666.22
587.22	41900.27
587.38	41591.32
587.54	41708.35
587.70	41752.82
587.86	41687.28
588.02	41890.91
588.18	41762.18
588.34	41778.56
588.49	41560.89
588.65	41464.93
588.81	41694.30
588.97	41560.89
589.13	41567.91
589.29	41921.34
589.45	42492.43
589.61	41621.75
