SpectraSuite Data File
++++++++++++++++++++++++++++++++++++
Date: Thu Oct 24 13:21:00 EDT 2013
User: stostad
Dark Spectrum Present: No
Reference Spectrum Present: No
Number of Sampled Component Spectra: 1
Spectrometers: USB2+H05261
Integration Time (usec): 100000 (USB2+H05261)
Spectra Averaged: 1 (USB2+H05261)
Boxcar Smoothing: 0 (USB2+H05261)
Correct for Electrical Dark: No (USB2+H05261)
Strobe/Lamp Enabled: No (USB2+H05261)
Correct for Detector Non-linearity: No (USB2+H05261)
Correct for Stray Light: No (USB2+H05261)
Number of Pixels in Processed Spectrum: 2048
>>>>>Begin Processed Spectral Data<<<<<
365.73	561.73
365.92	561.73
366.12	561.73
366.32	472.79
366.52	388.53
366.72	425.98
366.91	468.11
367.11	447.04
367.31	388.53
367.51	514.92
367.70	404.91
367.90	461.09
368.10	425.98
368.30	482.15
368.49	503.22
368.69	498.53
368.89	519.60
369.09	486.83
369.28	526.62
369.48	465.77
369.68	454.06
369.87	540.66
370.07	517.26
370.27	510.24
370.47	554.71
370.66	557.05
370.86	512.58
371.06	585.13
371.25	587.47
371.45	594.50
371.65	498.53
371.84	620.24
372.04	613.22
372.24	634.29
372.44	582.79
372.63	667.05
372.83	650.67
373.03	615.56
373.22	615.56
373.42	641.31
373.62	613.22
373.81	641.31
374.01	596.84
374.21	582.79
374.40	575.77
374.60	676.41
374.79	683.44
374.99	610.88
375.19	573.43
375.38	610.88
375.58	688.12
375.78	594.50
375.97	634.29
376.17	697.48
376.37	589.82
376.56	653.01
376.76	606.20
376.95	622.58
377.15	634.29
377.35	587.47
377.54	622.58
377.74	589.82
377.93	655.35
378.13	681.10
378.33	617.90
378.52	655.35
378.72	690.46
378.91	624.92
379.11	594.50
379.31	631.94
379.50	575.77
379.70	627.26
379.89	594.50
380.09	629.60
380.28	594.50
380.48	617.90
380.68	641.31
380.87	531.30
381.07	610.88
381.26	615.56
381.46	678.76
381.65	648.33
381.85	571.09
382.04	622.58
382.24	641.31
382.43	571.09
382.63	662.37
382.83	631.94
383.02	662.37
383.22	550.03
383.41	575.77
383.61	585.13
383.80	648.33
384.00	664.71
384.19	575.77
384.39	617.90
384.58	594.50
384.78	601.52
384.97	629.60
385.17	613.22
385.36	589.82
385.56	709.18
385.75	624.92
385.95	634.29
386.14	594.50
386.34	627.26
386.53	622.58
386.72	599.18
386.92	634.29
387.11	641.31
387.31	603.86
387.50	545.34
387.70	650.67
387.89	589.82
388.09	622.58
388.28	645.99
388.48	596.84
388.67	606.20
388.86	636.63
389.06	638.97
389.25	620.24
389.45	587.47
389.64	638.97
389.84	634.29
390.03	641.31
390.22	664.71
390.42	610.88
390.61	512.58
390.81	627.26
391.00	624.92
391.19	676.41
391.39	629.60
391.58	624.92
391.78	526.62
391.97	631.94
392.16	594.50
392.36	617.90
392.55	620.24
392.75	599.18
392.94	615.56
393.13	629.60
393.33	641.31
393.52	608.54
393.71	667.05
393.91	643.65
394.10	592.16
394.29	657.69
394.49	547.69
394.68	592.16
394.88	657.69
395.07	681.10
395.26	688.12
395.46	697.48
395.65	622.58
395.84	587.47
396.04	709.18
396.23	606.20
396.42	615.56
396.62	629.60
396.81	617.90
397.00	641.31
397.19	578.11
397.39	645.99
397.58	636.63
397.77	657.69
397.97	627.26
398.16	631.94
398.35	557.05
398.55	566.41
398.74	596.84
398.93	622.58
399.12	608.54
399.32	667.05
399.51	596.84
399.70	643.65
399.90	653.01
400.09	636.63
400.28	566.41
400.47	545.34
400.67	667.05
400.86	634.29
401.05	573.43
401.24	667.05
401.44	589.82
401.63	608.54
401.82	624.92
402.01	641.31
402.21	543.00
402.40	622.58
402.59	603.86
402.78	664.71
402.97	596.84
403.17	615.56
403.36	603.86
403.55	620.24
403.74	685.78
403.93	706.84
404.13	748.97
404.32	685.78
404.51	688.12
404.70	629.60
404.89	617.90
405.09	713.86
405.28	603.86
405.47	676.41
405.66	580.45
405.85	669.39
406.05	662.37
406.24	566.41
406.43	610.88
406.62	718.54
406.81	683.44
407.00	662.37
407.20	641.31
407.39	643.65
407.58	629.60
407.77	688.12
407.96	706.84
408.15	667.05
408.34	603.86
408.54	622.58
408.73	613.22
408.92	566.41
409.11	631.94
409.30	610.88
409.49	585.13
409.68	667.05
409.87	650.67
410.07	692.80
410.26	692.80
410.45	667.05
410.64	592.16
410.83	674.07
411.02	690.46
411.21	603.86
411.40	603.86
411.59	589.82
411.78	653.01
411.98	643.65
412.17	615.56
412.36	582.79
412.55	571.09
412.74	573.43
412.93	645.99
413.12	664.71
413.31	676.41
413.50	610.88
413.69	674.07
413.88	627.26
414.07	645.99
414.26	620.24
414.45	606.20
414.64	641.31
414.83	606.20
415.02	594.50
415.22	706.84
415.41	638.97
415.60	676.41
415.79	655.35
415.98	657.69
416.17	585.13
416.36	650.67
416.55	650.67
416.74	620.24
416.93	655.35
417.12	631.94
417.31	660.03
417.50	603.86
417.69	624.92
417.88	631.94
418.07	594.50
418.26	603.86
418.45	610.88
418.64	641.31
418.83	653.01
419.02	636.63
419.21	650.67
419.39	610.88
419.58	564.07
419.77	559.39
419.96	594.50
420.15	667.05
420.34	638.97
420.53	730.25
420.72	620.24
420.91	674.07
421.10	573.43
421.29	613.22
421.48	660.03
421.67	645.99
421.86	622.58
422.05	657.69
422.24	641.31
422.43	582.79
422.61	601.52
422.80	564.07
422.99	653.01
423.18	601.52
423.37	671.73
423.56	655.35
423.75	634.29
423.94	622.58
424.13	620.24
424.32	631.94
424.50	594.50
424.69	606.20
424.88	608.54
425.07	622.58
425.26	660.03
425.45	641.31
425.64	636.63
425.83	671.73
426.01	650.67
426.20	669.39
426.39	610.88
426.58	571.09
426.77	596.84
426.96	615.56
427.15	678.76
427.33	638.97
427.52	692.80
427.71	655.35
427.90	638.97
428.09	634.29
428.28	683.44
428.46	566.41
428.65	683.44
428.84	568.75
429.03	669.39
429.22	683.44
429.40	580.45
429.59	662.37
429.78	634.29
429.97	575.77
430.16	643.65
430.34	627.26
430.53	582.79
430.72	648.33
430.91	697.48
431.10	550.03
431.28	638.97
431.47	664.71
431.66	620.24
431.85	617.90
432.03	587.47
432.22	594.50
432.41	547.69
432.60	662.37
432.79	587.47
432.97	662.37
433.16	683.44
433.35	667.05
433.54	648.33
433.72	648.33
433.91	662.37
434.10	636.63
434.28	624.92
434.47	667.05
434.66	629.60
434.85	643.65
435.03	805.14
435.22	952.60
435.41	1165.59
435.59	1132.82
435.78	884.72
435.97	915.15
436.16	755.99
436.34	662.37
436.53	660.03
436.72	671.73
436.90	643.65
437.09	662.37
437.28	704.50
437.46	685.78
437.65	599.18
437.84	676.41
438.02	697.48
438.21	636.63
438.40	629.60
438.58	615.56
438.77	636.63
438.96	610.88
439.14	592.16
439.33	596.84
439.52	641.31
439.70	580.45
439.89	608.54
440.08	613.22
440.26	603.86
440.45	650.67
440.63	667.05
440.82	648.33
441.01	613.22
441.19	580.45
441.38	667.05
441.57	634.29
441.75	638.97
441.94	650.67
442.12	631.94
442.31	638.97
442.50	676.41
442.68	634.29
442.87	660.03
443.05	650.67
443.24	634.29
443.43	634.29
443.61	587.47
443.80	615.56
443.98	594.50
444.17	629.60
444.35	674.07
444.54	636.63
444.73	617.90
444.91	638.97
445.10	622.58
445.28	580.45
445.47	653.01
445.65	692.80
445.84	615.56
446.02	676.41
446.21	601.52
446.39	606.20
446.58	610.88
446.77	667.05
446.95	645.99
447.14	685.78
447.32	645.99
447.51	620.24
447.69	610.88
447.88	660.03
448.06	671.73
448.25	615.56
448.43	692.80
448.62	606.20
448.80	653.01
448.99	678.76
449.17	653.01
449.36	587.47
449.54	615.56
449.73	643.65
449.91	617.90
450.10	648.33
450.28	725.57
450.46	741.95
450.65	681.10
450.83	676.41
451.02	662.37
451.20	629.60
451.39	706.84
451.57	601.52
451.76	599.18
451.94	634.29
452.13	587.47
452.31	678.76
452.49	648.33
452.68	662.37
452.86	599.18
453.05	603.86
453.23	641.31
453.42	573.43
453.60	648.33
453.78	669.39
453.97	650.67
454.15	585.13
454.34	655.35
454.52	603.86
454.70	615.56
454.89	634.29
455.07	606.20
455.26	622.58
455.44	589.82
455.62	596.84
455.81	667.05
455.99	669.39
456.17	624.92
456.36	634.29
456.54	573.43
456.73	627.26
456.91	613.22
457.09	620.24
457.28	599.18
457.46	641.31
457.64	669.39
457.83	603.86
458.01	638.97
458.19	662.37
458.38	538.32
458.56	688.12
458.74	678.76
458.93	711.52
459.11	585.13
459.29	671.73
459.48	631.94
459.66	664.71
459.84	589.82
460.03	671.73
460.21	638.97
460.39	664.71
460.57	678.76
460.76	650.67
460.94	620.24
461.12	692.80
461.31	657.69
461.49	631.94
461.67	650.67
461.85	671.73
462.04	594.50
462.22	840.25
462.40	634.29
462.59	667.05
462.77	662.37
462.95	688.12
463.13	641.31
463.32	636.63
463.50	629.60
463.68	610.88
463.86	692.80
464.05	727.91
464.23	706.84
464.41	608.54
464.59	671.73
464.78	657.69
464.96	636.63
465.14	655.35
465.32	622.58
465.50	641.31
465.69	636.63
465.87	559.39
466.05	634.29
466.23	671.73
466.41	594.50
466.60	629.60
466.78	627.26
466.96	711.52
467.14	648.33
467.32	638.97
467.51	671.73
467.69	669.39
467.87	643.65
468.05	653.01
468.23	725.57
468.41	641.31
468.60	704.50
468.78	688.12
468.96	636.63
469.14	643.65
469.32	669.39
469.50	638.97
469.69	634.29
469.87	620.24
470.05	695.14
470.23	643.65
470.41	655.35
470.59	622.58
470.77	589.82
470.95	645.99
471.14	674.07
471.32	664.71
471.50	706.84
471.68	692.80
471.86	634.29
472.04	676.41
472.22	648.33
472.40	615.56
472.58	634.29
472.77	547.69
472.95	606.20
473.13	683.44
473.31	622.58
473.49	629.60
473.67	629.60
473.85	655.35
474.03	603.86
474.21	645.99
474.39	697.48
474.57	699.82
474.75	622.58
474.93	645.99
475.12	578.11
475.30	643.65
475.48	653.01
475.66	603.86
475.84	617.90
476.02	688.12
476.20	636.63
476.38	622.58
476.56	624.92
476.74	585.13
476.92	608.54
477.10	678.76
477.28	716.20
477.46	681.10
477.64	643.65
477.82	610.88
478.00	610.88
478.18	678.76
478.36	697.48
478.54	669.39
478.72	622.58
478.90	554.71
479.08	606.20
479.26	596.84
479.44	620.24
479.62	674.07
479.80	636.63
479.98	657.69
480.16	624.92
480.34	645.99
480.52	638.97
480.70	655.35
480.88	589.82
481.06	613.22
481.24	631.94
481.41	690.46
481.59	620.24
481.77	613.22
481.95	629.60
482.13	667.05
482.31	660.03
482.49	671.73
482.67	730.25
482.85	727.91
483.03	737.27
483.21	711.52
483.39	706.84
483.57	655.35
483.74	727.91
483.92	711.52
484.10	713.86
484.28	643.65
484.46	697.48
484.64	685.78
484.82	690.46
485.00	716.20
485.18	678.76
485.35	681.10
485.53	699.82
485.71	720.88
485.89	732.59
486.07	727.91
486.25	720.88
486.43	753.65
486.61	758.33
486.78	746.63
486.96	678.76
487.14	739.61
487.32	650.67
487.50	760.67
487.68	683.44
487.85	667.05
488.03	723.23
488.21	739.61
488.39	725.57
488.57	709.18
488.75	706.84
488.92	746.63
489.10	727.91
489.28	739.61
489.46	697.48
489.64	690.46
489.81	683.44
489.99	678.76
490.17	650.67
490.35	723.23
490.53	791.10
490.70	631.94
490.88	734.93
491.06	690.46
491.24	716.20
491.41	730.25
491.59	674.07
491.77	653.01
491.95	723.23
492.13	702.16
492.30	692.80
492.48	685.78
492.66	706.84
492.84	645.99
493.01	660.03
493.19	592.16
493.37	695.14
493.54	669.39
493.72	655.35
493.90	631.94
494.08	692.80
494.25	645.99
494.43	671.73
494.61	662.37
494.79	692.80
494.96	716.20
495.14	667.05
495.32	723.23
495.49	709.18
495.67	671.73
495.85	688.12
496.02	678.76
496.20	629.60
496.38	716.20
496.55	669.39
496.73	662.37
496.91	711.52
497.09	692.80
497.26	723.23
497.44	692.80
497.62	664.71
497.79	650.67
497.97	660.03
498.14	648.33
498.32	683.44
498.50	653.01
498.67	671.73
498.85	692.80
499.03	706.84
499.20	660.03
499.38	662.37
499.56	596.84
499.73	634.29
499.91	685.78
500.08	688.12
500.26	671.73
500.44	624.92
500.61	664.71
500.79	624.92
500.97	636.63
501.14	727.91
501.32	683.44
501.49	627.26
501.67	660.03
501.84	657.69
502.02	615.56
502.20	655.35
502.37	676.41
502.55	615.56
502.72	566.41
502.90	650.67
503.07	681.10
503.25	662.37
503.43	603.86
503.60	601.52
503.78	685.78
503.95	695.14
504.13	603.86
504.30	613.22
504.48	631.94
504.65	709.18
504.83	655.35
505.01	653.01
505.18	678.76
505.36	578.11
505.53	624.92
505.71	695.14
505.88	688.12
506.06	638.97
506.23	580.45
506.41	664.71
506.58	678.76
506.76	678.76
506.93	653.01
507.11	648.33
507.28	638.97
507.46	585.13
507.63	636.63
507.81	585.13
507.98	634.29
508.16	664.71
508.33	692.80
508.50	685.78
508.68	662.37
508.85	617.90
509.03	662.37
509.20	669.39
509.38	601.52
509.55	629.60
509.73	657.69
509.90	624.92
510.08	627.26
510.25	650.67
510.42	599.18
510.60	641.31
510.77	645.99
510.95	622.58
511.12	699.82
511.30	727.91
511.47	622.58
511.64	699.82
511.82	615.56
511.99	634.29
512.17	653.01
512.34	695.14
512.51	688.12
512.69	622.58
512.86	732.59
513.04	615.56
513.21	727.91
513.38	655.35
513.56	660.03
513.73	676.41
513.90	641.31
514.08	613.22
514.25	599.18
514.43	578.11
514.60	660.03
514.77	610.88
514.95	662.37
515.12	641.31
515.29	648.33
515.47	657.69
515.64	709.18
515.81	648.33
515.99	702.16
516.16	631.94
516.33	688.12
516.51	683.44
516.68	695.14
516.85	627.26
517.03	653.01
517.20	617.90
517.37	660.03
517.54	634.29
517.72	664.71
517.89	615.56
518.06	594.50
518.24	716.20
518.41	688.12
518.58	655.35
518.75	592.16
518.93	599.18
519.10	634.29
519.27	667.05
519.45	667.05
519.62	699.82
519.79	643.65
519.96	620.24
520.14	648.33
520.31	657.69
520.48	638.97
520.65	648.33
520.83	678.76
521.00	716.20
521.17	671.73
521.34	594.50
521.52	603.86
521.69	653.01
521.86	713.86
522.03	650.67
522.20	706.84
522.38	638.97
522.55	599.18
522.72	641.31
522.89	676.41
523.07	723.23
523.24	660.03
523.41	657.69
523.58	667.05
523.75	650.67
523.92	678.76
524.10	645.99
524.27	690.46
524.44	592.16
524.61	697.48
524.78	636.63
524.96	664.71
525.13	594.50
525.30	674.07
525.47	713.86
525.64	608.54
525.81	645.99
525.98	720.88
526.16	690.46
526.33	653.01
526.50	688.12
526.67	664.71
526.84	650.67
527.01	608.54
527.18	664.71
527.36	662.37
527.53	685.78
527.70	746.63
527.87	676.41
528.04	688.12
528.21	627.26
528.38	678.76
528.55	638.97
528.72	692.80
528.89	629.60
529.07	615.56
529.24	662.37
529.41	699.82
529.58	599.18
529.75	596.84
529.92	620.24
530.09	601.52
530.26	622.58
530.43	636.63
530.60	608.54
530.77	681.10
530.94	681.10
531.11	657.69
531.28	674.07
531.46	603.86
531.63	697.48
531.80	702.16
531.97	564.07
532.14	688.12
532.31	606.20
532.48	655.35
532.65	711.52
532.82	631.94
532.99	695.14
533.16	688.12
533.33	657.69
533.50	585.13
533.67	624.92
533.84	725.57
534.01	716.20
534.18	667.05
534.35	643.65
534.52	622.58
534.69	763.01
534.86	685.78
535.03	645.99
535.20	662.37
535.37	655.35
535.54	650.67
535.71	620.24
535.88	685.78
536.05	709.18
536.22	674.07
536.38	655.35
536.55	631.94
536.72	737.27
536.89	718.54
537.06	678.76
537.23	657.69
537.40	732.59
537.57	781.74
537.74	793.44
537.91	788.76
538.08	699.82
538.25	748.97
538.42	723.23
538.59	737.27
538.75	737.27
538.92	779.40
539.09	781.74
539.26	830.89
539.43	875.36
539.60	795.78
539.77	788.76
539.94	905.79
540.11	884.72
540.28	905.79
540.44	983.02
540.61	971.32
540.78	938.55
540.95	976.00
541.12	1142.18
541.29	1203.04
541.46	1287.29
541.62	1210.06
541.79	1240.48
541.96	1296.66
542.13	1313.04
542.30	1329.42
542.47	1261.55
542.63	1249.85
542.80	1259.21
542.97	1226.44
543.14	1221.76
543.31	1254.53
543.48	1256.87
543.64	1289.64
543.81	1144.52
543.98	1203.04
544.15	1205.38
544.32	1200.69
544.48	1205.38
544.65	1160.91
544.82	1156.22
544.99	1128.14
545.16	1184.31
545.32	1233.46
545.49	1617.31
545.66	1980.09
545.83	2157.97
546.00	1916.90
546.16	1664.12
546.33	1455.81
546.50	1366.87
546.67	1259.21
546.83	1165.59
547.00	1069.62
547.17	1001.75
547.34	973.66
547.50	910.47
547.67	954.94
547.84	891.74
548.00	1011.11
548.17	931.53
548.34	945.58
548.51	915.15
548.67	896.43
548.84	849.61
549.01	901.11
549.18	915.15
549.34	873.02
549.51	856.64
549.68	924.51
549.84	915.15
550.01	866.00
550.18	915.15
550.34	884.72
550.51	816.85
550.68	828.55
550.84	814.51
551.01	858.98
551.18	819.19
551.34	786.42
551.51	737.27
551.68	774.72
551.84	765.36
552.01	725.57
552.18	786.42
552.34	812.17
552.51	716.20
552.68	784.08
552.84	758.33
553.01	737.27
553.18	751.31
553.34	697.48
553.51	660.03
553.67	678.76
553.84	760.67
554.01	723.23
554.17	755.99
554.34	650.67
554.51	706.84
554.67	685.78
554.84	744.29
555.00	662.37
555.17	760.67
555.33	690.46
555.50	636.63
555.67	718.54
555.83	681.10
556.00	709.18
556.16	795.78
556.33	695.14
556.50	638.97
556.66	610.88
556.83	582.79
556.99	660.03
557.16	624.92
557.32	650.67
557.49	676.41
557.65	617.90
557.82	676.41
557.98	671.73
558.15	674.07
558.32	664.71
558.48	674.07
558.65	720.88
558.81	683.44
558.98	720.88
559.14	720.88
559.31	660.03
559.47	674.07
559.64	634.29
559.80	638.97
559.97	603.86
560.13	645.99
560.30	589.82
560.46	648.33
560.63	629.60
560.79	692.80
560.96	669.39
561.12	631.94
561.29	653.01
561.45	709.18
561.61	657.69
561.78	723.23
561.94	671.73
562.11	751.31
562.27	638.97
562.44	624.92
562.60	636.63
562.77	704.50
562.93	676.41
563.10	641.31
563.26	681.10
563.42	685.78
563.59	723.23
563.75	599.18
563.92	596.84
564.08	685.78
564.24	678.76
564.41	671.73
564.57	585.13
564.74	685.78
564.90	622.58
565.07	676.41
565.23	671.73
565.39	636.63
565.56	711.52
565.72	627.26
565.88	564.07
566.05	645.99
566.21	629.60
566.38	674.07
566.54	645.99
566.70	678.76
566.87	603.86
567.03	610.88
567.19	655.35
567.36	606.20
567.52	699.82
567.68	688.12
567.85	678.76
568.01	641.31
568.17	603.86
568.34	692.80
568.50	711.52
568.66	650.67
568.83	669.39
568.99	627.26
569.15	662.37
569.32	627.26
569.48	645.99
569.64	636.63
569.81	697.48
569.97	617.90
570.13	636.63
570.30	589.82
570.46	564.07
570.62	688.12
570.78	688.12
570.95	711.52
571.11	723.23
571.27	636.63
571.43	655.35
571.60	627.26
571.76	641.31
571.92	650.67
572.09	704.50
572.25	615.56
572.41	582.79
572.57	713.86
572.74	706.84
572.90	674.07
573.06	690.46
573.22	725.57
573.38	592.16
573.55	622.58
573.71	669.39
573.87	606.20
574.03	617.90
574.20	624.92
574.36	692.80
574.52	695.14
574.68	648.33
574.84	685.78
575.01	664.71
575.17	676.41
575.33	653.01
575.49	716.20
575.65	704.50
575.82	641.31
575.98	683.44
576.14	664.71
576.30	774.72
576.46	739.61
576.62	866.00
576.79	917.49
576.95	903.45
577.11	751.31
577.27	734.93
577.43	755.99
577.59	660.03
577.75	758.33
577.92	606.20
578.08	704.50
578.24	683.44
578.40	713.86
578.56	819.19
578.72	947.92
578.88	863.66
579.04	840.25
579.21	830.89
579.37	814.51
579.53	793.44
579.69	760.67
579.85	779.40
580.01	849.61
580.17	819.19
580.33	786.42
580.49	786.42
580.65	720.88
580.82	678.76
580.98	734.93
581.14	814.51
581.30	758.33
581.46	706.84
581.62	730.25
581.78	732.59
581.94	779.40
582.10	713.86
582.26	791.10
582.42	755.99
582.58	854.30
582.74	819.19
582.90	781.74
583.06	795.78
583.22	837.91
583.38	847.27
583.54	816.85
583.70	793.44
583.86	753.65
584.02	763.01
584.18	828.55
584.34	765.36
584.50	807.48
584.66	734.93
584.82	840.25
584.98	809.83
585.14	709.18
585.30	781.74
585.46	753.65
585.62	739.61
585.78	805.14
585.94	777.06
586.10	809.83
586.26	711.52
586.42	807.48
586.58	758.33
586.74	802.80
586.90	880.04
587.06	856.64
587.22	912.81
587.38	898.77
587.54	887.06
587.70	861.32
587.86	844.93
588.02	777.06
588.18	746.63
588.34	793.44
588.49	720.88
588.65	720.88
588.81	795.78
588.97	772.38
589.13	753.65
589.29	655.35
589.45	763.01
589.61	748.97
589.77	786.42
589.93	641.31
590.08	706.84
590.24	713.86
590.40	737.27
590.56	718.54
590.72	734.93
590.88	716.20
591.04	807.48
591.20	744.29
591.35	760.67
591.51	711.52
591.67	795.78
591.83	664.71
591.99	725.57
592.15	793.44
592.31	772.38
592.46	798.12
592.62	760.67
592.78	800.46
592.94	791.10
593.10	805.14
593.26	805.14
593.41	823.87
593.57	774.72
593.73	730.25
593.89	709.18
594.05	753.65
594.20	641.31
594.36	751.31
594.52	704.50
594.68	725.57
594.84	716.20
594.99	784.08
595.15	730.25
595.31	741.95
595.47	734.93
595.62	692.80
595.78	779.40
595.94	730.25
596.10	685.78
596.25	767.70
596.41	683.44
596.57	746.63
596.73	653.01
596.88	730.25
597.04	737.27
597.20	706.84
597.36	695.14
597.51	627.26
597.67	779.40
597.83	739.61
597.99	699.82
598.14	725.57
598.30	713.86
598.46	690.46
598.61	690.46
598.77	755.99
598.93	748.97
599.09	751.31
599.24	690.46
599.40	786.42
599.56	807.48
599.71	840.25
599.87	706.84
600.03	753.65
600.18	671.73
600.34	765.36
600.50	697.48
600.65	760.67
600.81	692.80
600.97	709.18
601.12	690.46
601.28	671.73
601.44	669.39
601.59	669.39
601.75	718.54
601.91	685.78
602.06	643.65
602.22	688.12
602.37	594.50
602.53	622.58
602.69	671.73
602.84	601.52
603.00	638.97
603.16	683.44
603.31	753.65
603.47	653.01
603.62	678.76
603.78	643.65
603.94	699.82
604.09	702.16
604.25	744.29
604.40	634.29
604.56	585.13
604.71	662.37
604.87	690.46
605.03	603.86
605.18	730.25
605.34	681.10
605.49	683.44
605.65	702.16
605.80	711.52
605.96	699.82
606.12	746.63
606.27	760.67
606.43	704.50
606.58	741.95
606.74	716.20
606.89	699.82
607.05	713.86
607.20	713.86
607.36	709.18
607.51	688.12
607.67	765.36
607.82	777.06
607.98	798.12
608.13	786.42
608.29	795.78
608.44	765.36
608.60	774.72
608.75	791.10
608.91	828.55
609.06	821.53
609.22	856.64
609.37	901.11
609.53	847.27
609.68	891.74
609.84	880.04
