SpectraSuite Data File
++++++++++++++++++++++++++++++++++++
Date: Thu Oct 24 13:21:05 EDT 2013
User: stostad
Dark Spectrum Present: No
Reference Spectrum Present: No
Number of Sampled Component Spectra: 1
Spectrometers: USB2+H05261
Integration Time (usec): 100000 (USB2+H05261)
Spectra Averaged: 1 (USB2+H05261)
Boxcar Smoothing: 0 (USB2+H05261)
Correct for Electrical Dark: No (USB2+H05261)
Strobe/Lamp Enabled: No (USB2+H05261)
Correct for Detector Non-linearity: No (USB2+H05261)
Correct for Stray Light: No (USB2+H05261)
Number of Pixels in Processed Spectrum: 2048
>>>>>Begin Processed Spectral Data<<<<<
365.73	557.05
365.92	557.05
366.12	557.05
366.32	554.71
366.52	496.19
366.72	505.56
366.91	472.79
367.11	528.96
367.31	400.23
367.51	477.47
367.70	475.13
367.90	451.72
368.10	496.19
368.30	519.60
368.49	510.24
368.69	500.87
368.89	468.11
369.09	477.47
369.28	552.37
369.48	491.51
369.68	461.09
369.87	573.43
370.07	505.56
370.27	510.24
370.47	512.58
370.66	641.31
370.86	615.56
371.06	725.57
371.25	748.97
371.45	669.39
371.65	650.67
371.84	678.76
372.04	730.25
372.24	706.84
372.44	741.95
372.63	711.52
372.83	830.89
373.03	760.67
373.22	748.97
373.42	791.10
373.62	709.18
373.81	800.46
374.01	774.72
374.21	809.83
374.40	784.08
374.60	777.06
374.79	816.85
374.99	795.78
375.19	753.65
375.38	809.83
375.58	823.87
375.78	734.93
375.97	781.74
376.17	896.43
376.37	772.38
376.56	788.76
376.76	842.59
376.95	755.99
377.15	751.31
377.35	873.02
377.54	795.78
377.74	807.48
377.93	842.59
378.13	807.48
378.33	760.67
378.52	779.40
378.72	805.14
378.91	830.89
379.11	727.91
379.31	781.74
379.50	758.33
379.70	847.27
379.89	858.98
380.09	779.40
380.28	809.83
380.48	770.04
380.68	770.04
380.87	744.29
381.07	765.36
381.26	917.49
381.46	894.08
381.65	812.17
381.85	870.68
382.04	856.64
382.24	786.42
382.43	833.23
382.63	805.14
382.83	840.25
383.02	870.68
383.22	889.40
383.41	837.91
383.61	896.43
383.80	880.04
384.00	828.55
384.19	889.40
384.39	889.40
384.58	861.32
384.78	844.93
384.97	926.85
385.17	835.57
385.36	856.64
385.56	894.08
385.75	912.81
385.95	863.66
386.14	844.93
386.34	908.13
386.53	866.00
386.72	884.72
386.92	929.19
387.11	940.90
387.31	910.47
387.50	875.36
387.70	940.90
387.89	819.19
388.09	954.94
388.28	901.11
388.48	884.72
388.67	992.39
388.86	929.19
389.06	943.24
389.25	952.60
389.45	947.92
389.64	933.87
389.84	943.24
390.03	915.15
390.22	1006.43
390.42	861.32
390.61	931.53
390.81	887.06
391.00	924.51
391.19	1015.79
391.39	891.74
391.58	1006.43
391.78	933.87
391.97	1046.22
392.16	947.92
392.36	959.62
392.55	973.66
392.75	938.55
392.94	987.71
393.13	1034.52
393.33	987.71
393.52	910.47
393.71	936.21
393.91	1041.54
394.10	1022.81
394.29	952.60
394.49	926.85
394.68	1004.09
394.88	968.98
395.07	1086.01
395.26	994.73
395.46	1069.62
395.65	1123.46
395.84	1050.90
396.04	1041.54
396.23	1069.62
396.42	1046.22
396.62	1020.47
396.81	1081.33
397.00	1088.35
397.19	1100.05
397.39	1055.58
397.58	1025.15
397.77	1029.84
397.97	1135.16
398.16	1071.97
398.35	1135.16
398.55	1090.69
398.74	1153.88
398.93	1177.29
399.12	1116.44
399.32	1048.56
399.51	1160.91
399.70	1102.39
399.90	1104.73
400.09	1102.39
400.28	1097.71
400.47	1071.97
400.67	1109.41
400.86	1191.33
401.05	1198.35
401.24	1139.84
401.44	1144.52
401.63	1174.95
401.82	1284.95
402.01	1146.86
402.21	1132.82
402.40	1277.93
402.59	1170.27
402.78	1156.22
402.97	1193.67
403.17	1214.74
403.36	1174.95
403.55	1289.64
403.74	1275.59
403.93	1294.32
404.13	1270.91
404.32	1359.85
404.51	1238.14
404.70	1240.48
404.89	1303.68
405.09	1329.42
405.28	1226.44
405.47	1280.27
405.66	1280.27
405.85	1165.59
406.05	1327.08
406.24	1350.49
406.43	1284.95
406.62	1306.02
406.81	1348.15
407.00	1252.19
407.20	1308.36
407.39	1277.93
407.58	1394.96
407.77	1362.19
407.96	1376.24
408.15	1427.73
408.34	1425.39
408.54	1373.89
408.73	1270.91
408.92	1334.11
409.11	1448.79
409.30	1385.60
409.49	1275.59
409.68	1380.92
409.87	1413.68
410.07	1493.26
410.26	1420.71
410.45	1458.15
410.64	1451.13
410.83	1488.58
411.02	1500.28
411.21	1479.22
411.40	1483.90
411.59	1579.86
411.78	1474.54
411.98	1519.01
412.17	1488.58
412.36	1556.46
412.55	1542.41
412.74	1600.93
412.93	1629.01
413.12	1591.56
413.31	1624.33
413.50	1614.97
413.69	1519.01
413.88	1636.03
414.07	1675.82
414.26	1720.29
414.45	1640.72
414.64	1659.44
414.83	1694.55
415.02	1612.63
415.22	1727.32
415.41	1638.38
415.60	1722.63
415.79	1732.00
415.98	1781.15
416.17	1682.85
416.36	1717.95
416.55	1809.23
416.74	1806.89
416.93	1839.66
417.12	1797.53
417.31	1813.92
417.50	1842.00
417.69	1851.36
417.88	1914.56
418.07	1923.92
418.26	1813.92
418.45	1851.36
418.64	1914.56
418.83	1856.04
419.02	1956.69
419.21	1905.20
419.39	1820.94
419.58	1830.30
419.77	1834.98
419.96	1877.11
420.15	1935.62
420.34	1959.03
420.53	1921.58
420.72	1954.35
420.91	1930.94
421.10	1952.01
421.29	2080.74
421.48	1966.05
421.67	1898.17
421.86	1937.96
422.05	2012.86
422.24	1926.26
422.43	1947.33
422.61	2071.37
422.80	1940.30
422.99	2106.48
423.18	2026.90
423.37	2139.25
423.56	2073.71
423.75	2101.80
423.94	2040.95
424.13	1963.71
424.32	1963.71
424.50	2017.54
424.69	2097.12
424.88	2118.18
425.07	2036.27
425.26	1977.75
425.45	2005.84
425.64	2134.57
425.83	2132.23
426.01	2015.20
426.20	2022.22
426.39	2134.57
426.58	2073.71
426.77	2017.54
426.96	2106.48
427.15	2059.67
427.33	2101.80
427.52	2043.29
427.71	2129.89
427.90	2106.48
428.09	2111.16
428.28	2136.91
428.46	2305.43
428.65	2115.84
428.84	2143.93
429.03	2143.93
429.22	2289.04
429.40	2232.87
429.59	2165.00
429.78	2115.84
429.97	2104.14
430.16	2146.27
430.34	2125.21
430.53	2214.15
430.72	2235.21
430.91	2242.23
431.10	2228.19
431.28	2239.89
431.47	2282.02
431.66	2181.38
431.85	2223.51
432.03	2303.09
432.22	2305.43
432.41	2289.04
432.60	2392.03
432.79	2286.70
432.97	2359.26
433.16	2303.09
433.35	2289.04
433.54	2260.96
433.72	2392.03
433.91	2326.49
434.10	2408.41
434.28	2352.24
434.47	2310.11
434.66	2363.94
434.85	2422.45
435.03	2544.16
435.22	2792.26
435.41	2944.39
435.59	2796.94
435.78	2750.13
435.97	2661.19
436.16	2562.89
436.34	2452.88
436.53	2469.27
436.72	2693.96
436.90	2605.02
437.09	2532.46
437.28	2506.71
437.46	2530.12
437.65	2560.55
437.84	2623.74
438.02	2567.57
438.21	2569.91
438.40	2541.82
438.58	2621.40
438.77	2637.78
438.96	2696.30
439.14	2782.90
439.33	2649.49
439.52	2780.56
439.70	2635.44
439.89	2672.89
440.08	2698.64
440.26	2752.47
440.45	2724.38
440.63	2738.43
440.82	2829.71
441.01	2878.86
441.19	2766.51
441.38	2806.30
441.57	2827.37
441.75	2733.75
441.94	2818.00
442.12	3002.91
442.31	3030.99
442.50	3009.93
442.68	2979.50
442.87	2937.37
443.05	3002.91
443.24	2857.79
443.43	3038.02
443.61	3082.49
443.80	3138.66
443.98	2848.43
444.17	2771.19
444.35	3042.70
444.54	3066.10
444.73	2972.48
444.91	2906.95
445.10	3038.02
445.28	3007.59
445.47	2972.48
445.65	2956.10
445.84	3007.59
446.02	3073.12
446.21	3103.55
446.39	3066.10
446.58	2944.39
446.77	3033.33
446.95	2967.80
447.14	3082.49
447.32	3180.79
447.51	3042.70
447.69	3199.51
447.88	3049.72
448.06	3026.31
448.25	2871.84
448.43	3136.32
448.62	3080.14
448.80	3087.17
448.99	2974.82
449.17	3049.72
449.36	3129.30
449.54	3133.98
449.73	3225.26
449.91	3129.30
450.10	3070.78
450.28	3199.51
450.46	3164.40
450.65	3246.32
450.83	3131.64
451.02	3213.56
451.20	3318.88
451.39	3229.94
451.57	3253.34
451.76	3295.47
451.94	3304.84
452.13	3328.24
452.31	3473.36
452.49	3307.18
452.68	3225.26
452.86	3302.50
453.05	3339.94
453.23	3405.48
453.42	3208.87
453.60	3389.10
453.78	3361.01
453.97	3332.92
454.15	3379.73
454.34	3377.39
454.52	3356.33
454.70	3456.97
454.89	3513.14
455.07	3370.37
455.26	3335.26
455.44	3496.76
455.62	3398.46
455.81	3396.12
455.99	3478.04
456.17	3478.04
456.36	3410.16
456.54	3417.18
456.73	3691.02
456.91	3604.42
457.09	3627.83
457.28	3555.27
457.46	3623.15
457.64	3595.06
457.83	3751.88
458.01	3611.45
458.19	3674.64
458.38	3602.08
458.56	3559.95
458.74	3569.32
458.93	3637.19
459.11	3693.37
459.29	3651.24
459.48	3653.58
459.66	3742.52
459.84	3625.49
460.03	3749.54
460.21	3817.41
460.39	3758.90
460.57	3728.47
460.76	3768.26
460.94	3779.97
461.12	3866.56
461.31	3669.96
461.49	3871.25
461.67	3698.05
461.85	3833.80
462.04	3868.91
462.22	4234.03
462.40	3854.86
462.59	3932.10
462.77	3782.31
462.95	3894.65
463.13	3871.25
463.32	4051.47
463.50	4004.66
463.68	4023.38
463.86	4077.21
464.05	3852.52
464.23	3964.87
464.41	3955.51
464.59	3983.59
464.78	3918.06
464.96	3978.91
465.14	4007.00
465.32	4072.53
465.50	4053.81
465.69	4161.47
465.87	4093.60
466.05	4063.17
466.23	3992.95
466.41	4060.83
466.60	4119.34
466.78	4079.55
466.96	4145.09
467.14	4166.15
467.32	4269.14
467.51	4184.88
467.69	4042.11
467.87	4065.51
468.05	4231.69
468.23	4154.45
468.41	4135.73
468.60	4243.39
468.78	4189.56
468.96	4273.82
469.14	4273.82
469.32	4257.43
469.50	4117.00
469.69	4271.48
469.87	4299.56
470.05	4219.99
470.23	4329.99
470.41	4447.02
470.59	4416.59
470.77	4325.31
470.95	4374.46
471.14	4428.29
471.32	4432.97
471.50	4407.23
471.68	4531.28
471.86	4496.17
472.04	4491.49
472.22	4557.02
472.40	4505.53
472.58	4507.87
472.77	4470.42
472.95	4505.53
473.13	4608.51
473.31	4627.24
473.49	4692.77
473.67	4447.02
473.85	4554.68
474.03	4636.60
474.21	4706.82
474.39	4774.69
474.57	4929.17
474.75	4805.12
474.93	4880.02
475.12	4835.55
475.30	4786.40
475.48	4887.04
475.66	4954.91
475.84	4858.95
476.02	5011.09
476.20	4931.51
476.38	5053.22
476.56	5277.91
476.74	5090.67
476.92	4957.25
477.10	5008.75
477.28	5195.99
477.46	5144.50
477.64	5181.95
477.82	5118.75
478.00	5380.89
478.18	5343.44
478.36	5275.57
478.54	5493.24
478.72	5493.24
478.90	5493.24
479.08	5472.17
479.26	5542.39
479.44	5694.52
479.62	5458.13
479.80	5720.27
479.98	5769.42
480.16	5816.23
480.34	5652.39
480.52	5760.06
480.70	5731.97
480.88	5675.80
481.06	5813.89
481.24	5921.56
481.41	5959.00
481.59	6066.67
481.77	6118.16
481.95	6024.54
482.13	6122.84
482.31	6038.58
482.49	6274.98
482.67	6202.42
482.85	6291.36
483.03	6359.24
483.21	6345.19
483.39	6326.47
483.57	6445.84
483.74	6504.35
483.92	6672.87
484.10	6511.37
484.28	6736.06
484.46	6750.10
484.64	6906.92
484.82	6738.40
485.00	6717.34
485.18	6986.50
485.35	7169.06
485.53	6972.46
485.71	7218.21
485.89	7131.61
486.07	7255.66
486.25	7030.97
486.43	7080.12
486.61	7426.52
486.78	7353.96
486.96	7353.96
487.14	7606.74
487.32	7424.18
487.50	7510.78
487.68	7859.52
487.85	7660.57
488.03	7920.37
488.21	8023.36
488.39	7833.77
488.57	7967.18
488.75	8046.76
488.92	7969.52
489.10	8028.04
489.28	8362.73
489.46	8077.19
489.64	8229.32
489.81	8203.58
489.99	8367.42
490.17	8196.56
490.35	8479.76
490.53	8482.10
490.70	8533.59
490.88	8657.64
491.06	8695.09
491.24	8491.46
491.41	8887.01
491.59	8702.11
491.77	8788.71
491.95	8837.86
492.13	8833.18
492.30	8887.01
492.48	9233.41
492.66	8968.93
492.84	9095.32
493.01	9193.62
493.19	9219.37
493.37	9247.46
493.54	9184.26
493.72	9392.57
493.90	9348.10
494.08	9446.40
494.25	9270.86
494.43	9645.35
494.61	9582.15
494.79	9659.39
494.96	9556.41
495.14	9619.60
495.32	9863.02
495.49	9767.06
495.67	9949.62
495.85	9926.21
496.02	9893.44
496.20	10092.39
496.38	9874.72
496.55	9977.70
496.73	10162.61
496.91	10246.87
497.09	9951.96
497.26	10146.22
497.44	10052.60
497.62	10263.25
497.79	10471.56
497.97	10331.12
498.14	10455.17
498.32	10464.54
498.50	10597.95
498.67	10684.55
498.85	10551.14
499.03	10619.01
499.20	10984.13
499.38	10953.71
499.56	10890.51
499.73	10822.64
499.91	10888.17
500.08	10995.84
500.26	10721.99
500.44	11005.20
500.61	11014.56
500.79	11124.57
500.97	11166.70
501.14	11157.33
501.32	11215.85
501.49	11143.29
501.67	11250.96
501.84	11332.87
502.02	11375.00
502.20	11424.15
502.37	11166.70
502.55	11456.92
502.72	11379.68
502.90	11386.71
503.07	11339.90
503.25	11524.80
503.43	11545.86
503.60	11555.22
503.78	11672.25
503.95	11665.23
504.13	11772.89
504.30	11698.00
504.48	11819.71
504.65	11683.95
504.83	12135.68
505.01	12023.33
505.18	11960.14
505.36	11936.73
505.53	11709.70
505.71	12109.93
505.88	12161.42
506.06	11831.41
506.23	12109.93
506.41	11896.94
506.58	12128.66
506.76	12070.14
506.93	12189.51
507.11	12308.88
507.28	12278.45
507.46	12444.63
507.63	12322.92
507.81	12512.50
507.98	12531.23
508.16	12173.13
508.33	12456.33
508.50	12343.99
508.68	12629.53
508.85	12503.14
509.03	12575.70
509.20	12451.65
509.38	12844.86
509.55	12805.07
509.73	12802.73
509.90	12877.63
510.08	13266.16
510.25	13125.72
510.42	12905.71
510.60	13067.21
510.77	13022.74
510.95	12980.61
511.12	13191.26
511.30	13083.59
511.47	13263.82
511.64	13331.69
511.82	13224.03
511.99	13294.24
512.17	13123.38
512.34	13170.19
512.51	13455.74
512.69	13355.10
512.86	13577.45
513.04	13558.72
513.21	13540.00
513.38	13397.23
513.56	13565.74
513.73	13462.76
513.90	13570.43
514.08	13633.62
514.25	13830.23
514.43	13521.27
514.60	13745.97
514.77	13540.00
514.95	13645.32
515.12	13514.25
515.29	13977.68
515.47	13895.76
515.64	13813.84
515.81	13745.97
515.99	14052.58
516.16	14071.30
516.33	14040.87
516.51	14209.39
516.68	14209.39
516.85	14326.42
517.03	14193.01
517.20	14223.44
517.37	14366.21
517.54	14333.44
517.72	14167.26
517.89	14427.06
518.06	14214.07
518.24	14623.67
518.41	14258.54
518.58	14328.76
518.75	14490.26
518.93	14384.93
519.10	14485.58
519.27	14380.25
519.45	14789.85
519.62	14576.86
519.79	14579.20
519.96	14740.69
520.14	14682.18
520.31	14487.92
520.48	14546.43
520.65	14295.99
520.83	14869.42
521.00	14984.11
521.17	14782.82
521.34	14750.06
521.52	14916.23
521.69	14991.13
521.86	14965.39
522.03	14916.23
522.20	14843.68
522.38	15143.27
522.55	15204.12
522.72	14930.28
522.89	15089.43
523.07	15185.40
523.24	15103.48
523.41	15396.04
523.58	15246.25
523.75	15337.53
523.92	15199.44
524.10	15300.08
524.27	15396.04
524.44	15417.11
524.61	15459.24
524.78	15281.36
524.96	15159.65
525.13	15468.60
525.30	15396.04
525.47	15896.92
525.64	15133.90
525.81	15555.20
525.98	15791.59
526.16	15557.54
526.33	15714.36
526.50	15719.04
526.67	15714.36
526.84	15908.62
527.01	15775.21
527.18	15873.51
527.36	15754.15
527.53	15599.67
527.70	16023.31
527.87	15950.75
528.04	15955.43
528.21	16084.16
528.38	15819.68
528.55	16123.95
528.72	15999.90
528.89	15796.28
529.07	16027.99
529.24	15943.73
529.41	16105.23
529.58	16018.63
529.75	16198.85
529.92	16346.30
530.09	16044.37
530.26	15957.77
530.43	16018.63
530.60	16084.16
530.77	15847.77
530.94	16042.03
531.11	16170.76
531.28	16578.01
531.46	16601.42
531.63	16306.51
531.80	16229.27
531.97	16482.05
532.14	16386.09
532.31	16346.30
532.48	16423.54
532.65	16388.43
532.82	16409.50
532.99	16538.23
533.16	16386.09
533.33	16437.58
533.50	16620.14
533.67	16671.64
533.84	16592.06
534.01	16821.43
534.18	16711.42
534.35	16842.50
534.52	16819.09
534.69	16751.21
534.86	16769.94
535.03	16444.60
535.20	16730.15
535.37	16762.92
535.54	17277.83
535.71	16865.90
535.88	16624.83
536.05	16718.45
536.22	16833.13
536.38	17228.68
536.55	16957.18
536.72	17039.10
536.89	16926.75
537.06	16964.20
537.23	16929.09
537.40	17025.06
537.57	16943.14
537.74	17060.16
537.91	17111.66
538.08	17057.82
538.25	17142.08
538.42	16950.16
538.59	17427.63
538.75	17238.05
538.92	17483.80
539.09	17364.43
539.26	17474.44
539.43	17401.88
539.60	17390.18
539.77	17394.86
539.94	17598.49
540.11	17666.36
540.28	17476.78
540.44	17649.98
540.61	17434.65
540.78	17453.37
540.95	17797.43
541.12	17724.88
541.29	17853.61
541.46	18003.40
541.62	17951.91
541.79	17862.97
541.96	17914.46
542.13	17589.13
542.30	18075.96
542.47	18101.70
542.63	18230.43
542.80	18302.99
542.97	18597.90
543.14	18415.34
543.31	18508.96
543.48	18373.21
543.64	18342.78
543.81	18302.99
543.98	18642.37
544.15	18349.80
544.32	18288.95
544.48	18190.64
544.65	18471.51
544.82	18455.12
544.99	18120.43
545.16	18274.90
545.32	18579.17
545.49	18995.79
545.66	19510.71
545.83	19625.39
546.00	19697.95
546.16	19260.27
546.33	18927.91
546.50	18759.39
546.67	18537.04
546.83	18441.08
547.00	18705.56
547.17	18436.40
547.34	18588.53
547.50	18640.03
547.67	18726.63
547.84	18633.00
548.00	18661.09
548.17	18799.18
548.34	18930.25
548.51	19021.53
548.67	18721.95
548.84	18644.71
549.01	18792.16
549.18	18778.12
549.34	18724.29
549.51	18630.66
549.68	18705.56
549.84	18658.75
550.01	18707.90
550.18	18754.71
550.34	18356.82
550.51	18789.82
550.68	18757.05
550.84	18429.38
551.01	18420.02
551.18	18721.95
551.34	18511.30
551.51	18462.15
551.68	18726.63
551.84	18897.49
552.01	18534.70
552.18	18801.52
552.34	18792.16
552.51	18850.67
552.68	19061.32
552.84	18728.97
553.01	18963.02
553.18	19084.73
553.34	18906.85
553.51	18647.05
553.67	18761.73
553.84	19159.63
554.01	19328.14
554.17	18913.87
554.34	18773.44
554.51	19087.07
554.67	18824.93
554.84	19220.48
555.00	18925.57
555.17	18572.15
555.33	18939.62
555.50	18829.61
555.67	18827.27
555.83	19147.92
556.00	18944.30
556.16	19054.30
556.33	18974.72
556.50	18752.37
556.66	19061.32
556.83	18857.70
556.99	18946.64
557.16	19124.52
557.32	19187.71
557.49	19087.07
557.65	19236.86
557.82	18867.06
557.98	18874.08
558.15	19098.77
558.32	19321.12
558.48	18944.30
558.65	19178.35
558.81	19201.76
558.98	19342.19
559.14	19239.20
559.31	19274.31
559.47	19339.85
559.64	19190.05
559.80	19232.18
559.97	19318.78
560.13	18710.24
560.30	18902.17
560.46	19194.73
560.63	19187.71
560.79	19398.36
560.96	19438.15
561.12	19213.46
561.29	19229.84
561.45	19396.02
561.61	19161.97
561.78	19452.19
561.94	19534.11
562.11	19379.64
562.27	19260.27
562.44	19536.45
562.60	19594.96
562.77	19517.73
562.93	19358.57
563.10	19454.53
563.26	19255.59
563.42	19428.79
563.59	19403.04
563.75	19609.01
563.92	19683.91
564.08	19466.24
564.24	19662.84
564.41	19386.66
564.57	19480.28
564.74	19396.02
564.90	19592.62
565.07	19405.38
565.23	19594.96
565.39	19253.25
565.56	19983.49
565.72	19419.42
565.88	19442.83
566.05	19590.28
566.21	19690.93
566.38	19604.33
566.54	19419.42
566.70	19573.90
566.87	19868.81
567.03	19587.94
567.19	19737.74
567.36	19868.81
567.52	19590.28
567.68	19779.87
567.85	19463.90
568.01	19213.46
568.17	19475.60
568.34	19449.85
568.50	19555.18
568.66	19470.92
568.83	19779.87
568.99	19564.54
569.15	19606.67
569.32	19599.65
569.48	19611.35
569.64	19335.17
569.81	19857.10
569.97	19264.95
570.13	19606.67
570.30	19281.33
570.46	19559.86
570.62	19510.71
570.78	19545.81
570.95	19697.95
571.11	19648.80
571.27	19517.73
571.43	19351.55
571.60	19882.85
571.76	19620.71
571.92	19426.45
572.09	19578.58
572.25	19929.66
572.41	19726.04
572.57	19758.80
572.74	19960.09
572.90	19896.89
573.06	19847.74
573.22	19618.37
573.38	19779.87
573.55	19665.18
573.71	19859.45
573.87	19716.67
574.03	19566.88
574.20	20053.71
574.36	19756.46
574.52	19885.19
574.68	19609.01
574.84	19737.74
575.01	19901.58
575.17	20027.96
575.33	19681.56
575.49	19789.23
575.65	19737.74
575.82	19901.58
575.98	19850.08
576.14	20018.60
576.30	19927.32
576.46	19948.39
576.62	20006.90
576.79	19988.18
576.95	19562.20
577.11	19737.74
577.27	20123.93
577.43	19896.89
577.59	20034.99
577.75	19735.40
577.92	19646.46
578.08	20156.69
578.24	19786.89
578.40	20013.92
578.56	19995.20
578.72	20201.16
578.88	20196.48
579.04	19999.88
579.21	19812.63
579.37	20163.72
579.53	20034.99
579.69	20011.58
579.85	19974.13
580.01	19709.65
580.17	20030.30
580.33	20023.28
580.49	20025.62
580.65	20180.10
580.82	19939.02
580.98	20102.86
581.14	19978.81
581.30	19847.74
581.46	19960.09
581.62	19513.05
581.78	19976.47
581.94	19861.79
582.10	19702.63
582.26	19744.76
582.42	20058.39
582.58	19761.14
582.74	20037.33
582.90	19913.28
583.06	20112.22
583.22	19768.16
583.38	20081.80
583.54	19772.85
583.70	20044.35
583.86	20304.15
584.02	20297.13
584.18	20215.21
584.34	19850.08
584.50	19924.98
584.66	20084.14
584.82	19665.18
584.98	19946.05
585.14	19974.13
585.30	19711.99
585.46	20065.41
585.62	19793.91
585.78	20027.96
585.94	20102.86
586.10	20002.22
586.26	19845.40
586.42	20016.26
586.58	20023.28
586.74	20154.35
586.90	20065.41
587.06	20205.84
587.22	20285.42
587.38	20081.80
587.54	20318.19
587.70	20393.09
587.86	20191.80
588.02	19878.17
588.18	20154.35
588.34	20208.19
588.49	20374.36
588.65	19964.77
588.81	20121.59
588.97	19660.50
589.13	20100.52
589.29	20418.83
589.45	20149.67
589.61	20077.12
589.77	20292.44
589.93	19955.41
590.08	19875.83
590.24	19967.11
590.40	20088.82
590.56	20205.84
590.72	20039.67
590.88	19740.08
591.04	19880.51
591.20	20369.68
591.35	20006.90
