SpectraSuite Data File
++++++++++++++++++++++++++++++++++++
Date: Thu Oct 24 13:21:09 EDT 2013
User: stostad
Dark Spectrum Present: No
Reference Spectrum Present: No
Number of Sampled Component Spectra: 1
Spectrometers: USB2+H05261
Integration Time (usec): 100000 (USB2+H05261)
Spectra Averaged: 1 (USB2+H05261)
Boxcar Smoothing: 0 (USB2+H05261)
Correct for Electrical Dark: No (USB2+H05261)
Strobe/Lamp Enabled: No (USB2+H05261)
Correct for Detector Non-linearity: No (USB2+H05261)
Correct for Stray Light: No (USB2+H05261)
Number of Pixels in Processed Spectrum: 2048
>>>>>Begin Processed Spectral Data<<<<<
365.73	554.71
365.92	554.71
366.12	554.71
366.32	468.11
366.52	435.34
366.72	521.94
366.91	388.53
367.11	486.83
367.31	547.69
367.51	414.27
367.70	447.04
367.90	479.81
368.10	451.72
368.30	454.06
368.49	491.51
368.69	500.87
368.89	423.64
369.09	477.47
369.28	496.19
369.48	463.43
369.68	461.09
369.87	615.56
370.07	543.00
370.27	491.51
370.47	514.92
370.66	669.39
370.86	758.33
371.06	774.72
371.25	744.29
371.45	725.57
371.65	805.14
371.84	798.12
372.04	744.29
372.24	784.08
372.44	760.67
372.63	758.33
372.83	737.27
373.03	851.96
373.22	835.57
373.42	779.40
373.62	748.97
373.81	856.64
374.01	889.40
374.21	854.30
374.40	807.48
374.60	840.25
374.79	784.08
374.99	842.59
375.19	840.25
375.38	837.91
375.58	816.85
375.78	833.23
375.97	814.51
376.17	840.25
376.37	802.80
376.56	781.74
376.76	802.80
376.95	826.21
377.15	807.48
377.35	856.64
377.54	840.25
377.74	891.74
377.93	821.53
378.13	873.02
378.33	826.21
378.52	917.49
378.72	952.60
378.91	816.85
379.11	870.68
379.31	849.61
379.50	849.61
379.70	835.57
379.89	894.08
380.09	823.87
380.28	898.77
380.48	842.59
380.68	842.59
380.87	858.98
381.07	858.98
381.26	849.61
381.46	912.81
381.65	884.72
381.85	880.04
382.04	828.55
382.24	823.87
382.43	894.08
382.63	912.81
382.83	863.66
383.02	905.79
383.22	861.32
383.41	894.08
383.61	851.96
383.80	959.62
384.00	917.49
384.19	938.55
384.39	940.90
384.58	919.83
384.78	1018.13
384.97	866.00
385.17	1041.54
385.36	884.72
385.56	912.81
385.75	945.58
385.95	894.08
386.14	870.68
386.34	954.94
386.53	950.26
386.72	915.15
386.92	992.39
387.11	901.11
387.31	910.47
387.50	997.07
387.70	912.81
387.89	978.34
388.09	915.15
388.28	1001.75
388.48	976.00
388.67	924.51
388.86	987.71
389.06	980.68
389.25	987.71
389.45	964.30
389.64	1053.24
389.84	1020.47
390.03	1032.18
390.22	980.68
390.42	945.58
390.61	961.96
390.81	1055.58
391.00	1027.50
391.19	1116.44
391.39	1114.10
391.58	1029.84
391.78	1013.45
391.97	1011.11
392.16	985.37
392.36	1039.20
392.55	1018.13
392.75	1043.88
392.94	1032.18
393.13	999.41
393.33	1067.28
393.52	1102.39
393.71	1046.22
393.91	1029.84
394.10	1006.43
394.29	1139.84
394.49	1064.94
394.68	1029.84
394.88	1086.01
395.07	1114.10
395.26	1142.18
395.46	1160.91
395.65	1139.84
395.84	1116.44
396.04	1146.86
396.23	1137.50
396.42	1139.84
396.62	1174.95
396.81	1167.93
397.00	1060.26
397.19	1177.29
397.39	1193.67
397.58	1186.65
397.77	1196.01
397.97	1107.07
398.16	1226.44
398.35	1240.48
398.55	1170.27
398.74	1196.01
398.93	1191.33
399.12	1191.33
399.32	1245.16
399.51	1231.12
399.70	1320.06
399.90	1263.89
400.09	1249.85
400.28	1240.48
400.47	1179.63
400.67	1207.72
400.86	1181.97
401.05	1247.51
401.24	1341.13
401.44	1345.81
401.63	1228.78
401.82	1219.42
402.01	1338.79
402.21	1238.14
402.40	1373.89
402.59	1373.89
402.78	1331.76
402.97	1378.58
403.17	1357.51
403.36	1315.38
403.55	1434.75
403.74	1390.28
403.93	1423.05
404.13	1577.52
404.32	1493.26
404.51	1371.55
404.70	1350.49
404.89	1394.96
405.09	1383.26
405.28	1308.36
405.47	1472.20
405.66	1427.73
405.85	1453.47
406.05	1411.34
406.24	1462.83
406.43	1472.20
406.62	1437.09
406.81	1504.96
407.00	1451.13
407.20	1521.35
407.39	1444.11
407.58	1579.86
407.77	1486.24
407.96	1537.73
408.15	1558.80
408.34	1577.52
408.54	1610.29
408.73	1563.48
408.92	1591.56
409.11	1652.42
409.30	1626.67
409.49	1605.61
409.68	1610.29
409.87	1664.12
410.07	1638.38
410.26	1551.78
410.45	1624.33
410.64	1699.23
410.83	1687.53
411.02	1596.25
411.21	1748.38
411.40	1708.59
411.59	1736.68
411.78	1750.72
411.98	1806.89
412.17	1706.25
412.36	1678.16
412.55	1753.06
412.74	1776.47
412.93	1837.32
413.12	1795.19
413.31	1846.68
413.50	1813.92
413.69	1806.89
413.88	1830.30
414.07	1926.26
414.26	1968.39
414.45	1874.77
414.64	1886.47
414.83	1963.71
415.02	1907.54
415.22	1944.99
415.41	1963.71
415.60	2050.31
415.79	2064.35
415.98	2059.67
416.17	2054.99
416.36	2026.90
416.55	2057.33
416.74	2136.91
416.93	2036.27
417.12	2092.44
417.31	1935.62
417.50	2120.53
417.69	2256.28
417.88	2125.21
418.07	2073.71
418.26	2174.36
418.45	2239.89
418.64	2141.59
418.83	2134.57
419.02	2111.16
419.21	2157.97
419.39	2221.17
419.58	2071.37
419.77	2237.55
419.96	2349.90
420.15	2228.19
420.34	2282.02
420.53	2314.79
420.72	2387.35
420.91	2303.09
421.10	2246.91
421.29	2326.49
421.48	2256.28
421.67	2321.81
421.86	2270.32
422.05	2314.79
422.24	2399.05
422.43	2345.22
422.61	2392.03
422.80	2408.41
422.99	2321.81
423.18	2380.32
423.37	2352.24
423.56	2310.11
423.75	2359.26
423.94	2275.00
424.13	2263.30
424.32	2356.92
424.50	2338.20
424.69	2464.58
424.88	2466.92
425.07	2300.75
425.26	2403.73
425.45	2317.13
425.64	2436.50
425.83	2434.16
426.01	2445.86
426.20	2450.54
426.39	2347.56
426.58	2394.37
426.77	2408.41
426.96	2495.01
427.15	2546.50
427.33	2513.74
427.52	2415.43
427.71	2469.27
427.90	2413.09
428.09	2394.37
428.28	2464.58
428.46	2567.57
428.65	2469.27
428.84	2469.27
429.03	2523.10
429.22	2476.29
429.40	2616.72
429.59	2546.50
429.78	2492.67
429.97	2487.99
430.16	2607.36
430.34	2623.74
430.53	2764.17
430.72	2698.64
430.91	2548.84
431.10	2649.49
431.28	2677.57
431.47	2738.43
431.66	2717.36
431.85	2670.55
432.03	2799.28
432.22	2789.92
432.41	2731.41
432.60	2768.85
432.79	2677.57
432.97	2745.45
433.16	2738.43
433.35	2834.39
433.54	2677.57
433.72	2750.13
433.91	2768.85
434.10	2754.81
434.28	2843.75
434.47	2888.22
434.66	2860.13
434.85	2834.39
435.03	3054.40
435.22	3178.45
435.41	3318.88
435.59	3169.09
435.78	3190.15
435.97	3141.00
436.16	3028.65
436.34	2841.41
436.53	3002.91
436.72	2920.99
436.90	2946.73
437.09	3016.95
437.28	2836.73
437.46	2897.58
437.65	2916.31
437.84	2991.20
438.02	3115.25
438.21	3068.44
438.40	3061.42
438.58	3124.62
438.77	3199.51
438.96	2995.89
439.14	3115.25
439.33	3267.39
439.52	3129.30
439.70	3185.47
439.89	3295.47
440.08	3269.73
440.26	3236.96
440.45	3239.30
440.63	3227.60
440.82	3536.55
441.01	3372.71
441.19	3330.58
441.38	3398.46
441.57	3379.73
441.75	3454.63
441.94	3499.10
442.12	3513.14
442.31	3421.86
442.50	3473.36
442.68	3356.33
442.87	3515.48
443.05	3529.53
443.24	3669.96
443.43	3499.10
443.61	3597.40
443.80	3742.52
443.98	3508.46
444.17	3379.73
444.35	3581.02
444.54	3552.93
444.73	3723.79
444.91	3592.72
445.10	3669.96
445.28	3712.09
445.47	3772.94
445.65	3442.93
445.84	3618.47
446.02	3714.43
446.21	3712.09
446.39	3698.05
446.58	3733.15
446.77	3637.19
446.95	3646.55
447.14	3517.83
447.32	3730.81
447.51	3669.96
447.69	3611.45
447.88	3583.36
448.06	3676.98
448.25	3801.03
448.43	3747.20
448.62	3630.17
448.80	3545.91
448.99	3749.54
449.17	3763.58
449.36	3651.24
449.54	3744.86
449.73	3880.61
449.91	3880.61
450.10	3744.86
450.28	3833.80
450.46	3873.59
450.65	3889.97
450.83	3936.78
451.02	3866.56
451.20	3857.20
451.39	3948.48
451.57	3946.14
451.76	3763.58
451.94	3880.61
452.13	3969.55
452.31	3983.59
452.49	4046.79
452.68	3969.55
452.86	3866.56
453.05	4042.11
453.23	4065.51
453.42	4037.42
453.60	3962.53
453.78	4198.92
453.97	3936.78
454.15	4058.49
454.34	4063.17
454.52	4072.53
454.70	4060.83
454.89	3985.93
455.07	4205.94
455.26	4135.73
455.44	4208.28
455.62	4189.56
455.81	4112.32
455.99	4128.70
456.17	4030.40
456.36	4187.22
456.54	4194.24
456.73	4285.52
456.91	4320.63
457.09	4339.35
457.28	4339.35
457.46	4362.76
457.64	4393.19
457.83	4304.25
458.01	4301.90
458.19	4463.40
458.38	4489.15
458.56	4395.53
458.74	4585.11
458.93	4472.76
459.11	4386.16
459.29	4444.68
459.48	4503.19
459.66	4482.13
459.84	4535.96
460.03	4800.44
460.21	4472.76
460.39	4559.36
460.57	4540.64
460.76	4645.96
460.94	4585.11
461.12	4652.98
461.31	4596.81
461.49	4655.33
461.67	4702.14
461.85	4594.47
462.04	4809.80
462.22	4926.83
462.40	4786.40
462.59	4641.28
462.77	4674.05
462.95	4772.35
463.13	4812.14
463.32	4767.67
463.50	4943.21
463.68	4741.93
463.86	4847.25
464.05	4760.65
464.23	4868.31
464.41	4940.87
464.59	4732.56
464.78	4880.02
464.96	5004.07
465.14	4835.55
465.32	4912.78
465.50	4957.25
465.69	4964.28
465.87	4992.36
466.05	4891.72
466.23	4894.06
466.41	4861.29
466.60	5078.96
466.78	4975.98
466.96	5071.94
467.14	4922.15
467.32	5186.63
467.51	5135.14
467.69	4947.89
467.87	5085.98
468.05	5114.07
468.23	5085.98
468.41	5036.83
468.60	5146.84
468.78	5081.30
468.96	5027.47
469.14	5146.84
469.32	5181.95
469.50	5018.11
469.69	5214.71
469.87	5177.26
470.05	5245.14
470.23	5348.12
470.41	5373.87
470.59	5376.21
470.77	5294.29
470.95	5313.02
471.14	5465.15
471.32	5296.63
471.50	5423.02
471.68	5497.92
471.86	5479.19
472.04	5544.73
472.22	5577.50
472.40	5425.36
472.58	5387.91
472.77	5565.79
472.95	5603.24
473.13	5778.78
473.31	5612.60
473.49	5572.82
473.67	5619.63
473.85	5778.78
474.03	5825.59
474.21	5804.53
474.39	5877.09
474.57	5806.87
474.75	5827.93
474.93	5900.49
475.12	5991.77
475.30	5944.96
475.48	5961.34
475.66	5877.09
475.84	5870.06
476.02	6092.41
476.20	6111.14
476.38	6314.77
476.56	6310.08
476.74	6132.20
476.92	6289.02
477.10	6171.99
477.28	6408.39
477.46	6342.85
477.64	6576.91
477.82	6377.96
478.00	6736.06
478.18	6410.73
478.36	6670.53
478.54	6736.06
478.72	6586.27
478.90	6782.87
479.08	6668.19
479.26	6733.72
479.44	6647.12
479.62	7026.29
479.80	6986.50
479.98	7129.27
480.16	7148.00
480.34	7171.40
480.52	7243.96
480.70	7260.34
480.88	7089.48
481.06	7208.85
481.24	7372.69
481.41	7255.66
481.59	7571.63
481.77	7489.71
481.95	7632.49
482.13	7583.34
482.31	7487.37
482.49	7866.54
482.67	7922.71
482.85	7819.73
483.03	8042.08
483.21	8013.99
483.39	8042.08
483.57	7847.82
483.74	8142.72
483.92	8086.55
484.10	8156.77
484.28	8301.88
484.46	8442.31
484.64	8280.82
484.82	8245.71
485.00	8566.36
485.18	8603.81
485.35	8865.95
485.53	8744.24
485.71	8734.88
485.89	8784.03
486.07	8865.95
486.25	9062.55
486.43	8959.57
486.61	9004.04
486.78	9170.22
486.96	9179.58
487.14	9364.48
487.32	9348.10
487.50	9362.14
487.68	9387.89
487.85	9703.86
488.03	9591.52
488.21	9685.14
488.39	9781.10
488.57	9624.28
488.75	9778.76
488.92	9860.68
489.10	9966.00
489.28	9781.10
489.46	10331.12
489.64	10356.87
489.81	10375.59
489.99	10249.21
490.17	10452.83
490.35	10562.84
490.53	10333.47
490.70	10511.35
490.88	10410.70
491.06	10607.31
491.24	10719.65
491.41	10923.28
491.59	10899.87
491.77	10965.41
491.95	11009.88
492.13	11070.73
492.30	11215.85
492.48	11126.91
492.66	11220.53
492.84	11183.08
493.01	11187.76
493.19	11382.03
493.37	11648.85
493.54	11300.11
493.72	11793.96
493.90	11651.19
494.08	11468.62
494.25	11925.03
494.43	11929.71
494.61	11936.73
494.79	11737.79
494.96	12119.29
495.14	12156.74
495.32	12245.68
495.49	12170.79
495.67	12418.88
495.85	12053.76
496.02	12278.45
496.20	12404.84
496.38	12489.10
496.55	12659.96
496.73	13008.70
496.91	12769.96
497.09	12648.26
497.26	12657.62
497.44	12601.44
497.62	12816.77
497.79	13008.70
497.97	13139.77
498.14	12961.89
498.32	13170.19
498.50	13350.42
498.67	13380.84
498.85	13270.84
499.03	13458.08
499.20	13408.93
499.38	13607.87
499.56	13525.96
499.73	13465.10
499.91	13724.90
500.08	13942.57
500.26	13680.43
500.44	13488.51
500.61	13755.33
500.79	13638.30
500.97	13928.53
501.14	13970.66
501.32	13968.32
501.49	14143.86
501.67	14003.43
501.84	14092.37
502.02	14190.67
502.20	14312.38
502.37	14202.37
502.55	14380.25
502.72	14221.10
502.90	14480.89
503.07	14422.38
503.25	14560.47
503.43	14349.82
503.60	14579.20
503.78	14324.08
503.95	14366.21
504.13	14733.67
504.30	14644.73
504.48	14635.37
504.65	14864.74
504.83	14878.79
505.01	14916.23
505.18	14696.22
505.36	15009.86
505.53	14754.74
505.71	15119.86
505.88	15396.04
506.06	15192.42
506.23	15470.94
506.41	15321.15
506.58	15000.49
506.76	15307.10
506.93	15482.64
507.11	15445.20
507.28	15470.94
507.46	15620.74
507.63	15721.38
507.81	15882.88
507.98	15267.31
508.16	15637.12
508.33	15740.10
508.50	15880.53
508.68	15906.28
508.85	16240.98
509.03	15749.46
509.20	16077.14
509.38	16154.38
509.55	16358.00
509.73	15983.52
509.90	16290.13
510.08	16116.93
510.25	16145.02
510.42	16154.38
510.60	16238.64
510.77	16472.69
510.95	16627.17
511.12	16666.95
511.30	16395.45
511.47	16575.67
511.64	16671.64
511.82	16496.10
511.99	16617.80
512.17	16851.86
512.34	16989.95
512.51	16989.95
512.69	17039.10
512.86	16917.39
513.04	16765.26
513.21	17177.19
513.38	17008.67
513.56	17139.74
513.73	17270.81
513.90	17123.36
514.08	17357.41
514.25	17224.00
514.43	17273.15
514.60	17240.39
514.77	17179.53
514.95	17336.35
515.12	17523.59
515.29	17614.87
515.47	17549.34
515.64	17678.07
515.81	17617.21
515.99	17544.66
516.16	17951.91
516.33	17584.44
516.51	17872.33
516.68	17949.57
516.85	18085.32
517.03	18115.75
517.20	17848.93
517.37	17980.00
517.54	17975.31
517.72	17895.74
517.89	17970.63
518.06	18235.11
518.24	18242.14
518.41	18169.58
518.58	18141.49
518.75	17965.95
518.93	18113.41
519.10	18099.36
519.27	18185.96
519.45	17994.04
519.62	18499.59
519.79	18595.56
519.96	18555.77
520.14	18270.22
520.31	18492.57
520.48	18417.68
520.65	18693.86
520.83	18913.87
521.00	18700.88
521.17	18869.40
521.34	18661.09
521.52	18948.98
521.69	18476.19
521.86	18745.35
522.03	19014.51
522.20	19117.50
522.38	18965.36
522.55	19227.50
522.72	19300.06
522.89	18951.32
523.07	19370.27
523.24	19082.39
523.41	19112.81
523.58	19274.31
523.75	19576.24
523.92	19276.65
524.10	19475.60
524.27	19389.00
524.44	19440.49
524.61	19566.88
524.78	19412.40
524.96	19536.45
525.13	19658.16
525.30	19765.82
525.47	19719.01
525.64	19868.81
525.81	19782.21
525.98	19779.87
526.16	19583.26
526.33	19744.76
526.50	20037.33
526.67	19927.32
526.84	19920.30
527.01	19833.70
527.18	20332.23
527.36	19946.05
527.53	19964.77
527.70	20210.53
527.87	19707.31
528.04	20088.82
528.21	20231.59
528.38	20503.09
528.55	20472.67
528.72	20327.55
528.89	20329.89
529.07	20421.17
529.24	20308.83
529.41	20477.35
529.58	20173.08
529.75	20327.55
529.92	20608.42
530.09	20318.19
530.26	20517.14
530.43	20638.84
530.60	20643.52
530.77	20453.94
530.94	20601.40
531.11	20821.41
531.28	20943.11
531.46	21139.72
531.63	20493.73
531.80	20704.38
531.97	20842.47
532.14	20816.72
532.31	20856.51
532.48	20737.15
532.65	21273.13
532.82	21128.02
532.99	20844.81
533.16	21010.99
533.33	21001.63
533.50	21071.84
533.67	20924.39
533.84	20884.60
534.01	20870.56
534.18	21029.71
534.35	21549.31
534.52	21144.40
534.69	21207.59
534.86	21057.80
535.03	21099.93
535.20	21266.11
535.37	21652.30
535.54	21434.63
535.71	21516.54
535.88	21736.56
536.05	21394.84
536.22	21635.91
536.38	21575.06
536.55	21582.08
536.72	21626.55
536.89	21633.57
537.06	21713.15
537.23	22272.54
537.40	21907.41
537.57	21851.24
537.74	21673.36
537.91	21860.60
538.08	22031.46
538.25	21759.96
538.42	21816.13
538.59	22307.65
538.75	21947.20
538.92	21891.03
539.09	21736.56
539.26	21881.67
539.43	22108.70
539.60	21858.26
539.77	22338.07
539.94	22317.01
540.11	22707.88
540.28	22352.12
540.44	22134.45
540.61	22515.95
540.78	22178.92
540.95	22361.48
541.12	22480.85
541.29	22712.56
541.46	22892.78
541.62	22647.02
541.79	23098.75
541.96	22845.97
542.13	22628.30
542.30	23101.09
542.47	22867.03
542.63	23168.96
542.80	23211.09
542.97	23178.33
543.14	23007.47
543.31	23037.89
543.48	23342.16
543.64	23412.38
543.81	23281.31
543.98	23316.42
544.15	23419.40
544.32	23644.09
544.48	23332.80
544.65	23056.62
544.82	23285.99
544.99	23302.37
545.16	23335.14
545.32	23447.49
545.49	23821.97
545.66	24486.68
545.83	24479.66
546.00	24589.67
546.16	24114.54
546.33	23943.68
546.50	23765.80
546.67	23889.85
546.83	23199.39
547.00	23403.02
547.17	23391.31
547.34	23442.81
547.50	23281.31
547.67	23917.93
547.84	23625.37
548.00	23641.75
548.17	23920.28
548.34	23372.59
548.51	23756.44
548.67	23903.89
548.84	23747.08
549.01	23749.42
549.18	23728.35
549.34	24027.94
549.51	23623.03
549.68	23929.64
549.84	24159.01
550.01	23573.88
550.18	23381.95
550.34	23576.22
550.51	23606.64
550.68	23548.13
550.84	23431.10
551.01	23651.11
551.18	23772.82
551.34	23346.84
551.51	23721.33
551.68	23857.08
551.84	23290.67
552.01	23866.44
552.18	23859.42
552.34	23805.59
552.51	24144.97
552.68	23941.34
552.84	23824.31
553.01	24109.86
553.18	23821.97
553.34	24308.80
553.51	23779.84
553.67	24379.02
553.84	24217.52
554.01	24105.18
554.17	24051.34
554.34	24142.63
554.51	24156.67
554.67	24428.17
554.84	24219.86
555.00	23894.53
555.17	23658.14
555.33	24095.82
555.50	24114.54
555.67	23955.38
555.83	24051.34
556.00	24336.89
556.16	24617.75
556.33	24449.24
556.50	24353.27
556.66	23988.15
556.83	24254.97
556.99	24269.01
557.16	24432.85
557.32	24397.74
557.49	24540.52
557.65	24390.72
557.82	24369.66
557.98	24079.43
558.15	23901.55
558.32	24423.49
558.48	24074.75
558.65	24648.18
558.81	24676.27
558.98	24592.01
559.14	24430.51
559.31	24451.58
559.47	24760.53
559.64	24826.06
559.80	24826.06
559.97	24247.95
560.13	24432.85
560.30	24559.24
560.46	24306.46
560.63	24610.73
560.79	24840.11
560.96	24453.92
561.12	24599.03
561.29	24816.70
561.45	24479.66
561.61	25039.05
561.78	24643.50
561.94	24751.17
562.11	24854.15
562.27	25352.68
562.44	24788.61
562.60	24964.15
562.77	24907.98
562.93	24346.25
563.10	24797.98
563.26	24519.45
563.42	25006.28
563.59	24910.32
563.75	24687.97
563.92	24528.81
564.08	24748.82
564.24	24741.80
564.41	24641.16
564.57	25050.75
564.74	24570.94
564.90	24840.11
565.07	24898.62
565.23	24975.86
565.39	25111.61
565.56	25123.31
565.72	24929.05
565.88	24786.27
566.05	24868.19
566.21	24755.85
566.38	24760.53
566.54	25132.67
566.70	25135.01
566.87	25219.27
567.03	25010.96
567.19	25198.21
567.36	25179.48
567.52	24844.79
567.68	25137.35
567.85	24793.29
568.01	25125.65
568.17	25025.01
568.34	25010.96
568.50	25064.80
568.66	25022.67
568.83	25116.29
568.99	24807.34
569.15	24905.64
569.32	25034.37
569.48	24915.00
569.64	25287.15
569.81	25053.09
569.97	24861.17
570.13	24851.81
570.30	25172.46
570.46	25202.89
570.62	24945.43
570.78	24985.22
570.95	25238.00
571.11	25177.14
571.27	25212.25
571.43	24938.41
571.60	25153.74
571.76	25216.93
571.92	25373.75
572.09	25099.90
572.25	25357.36
572.41	25418.22
572.57	25284.81
572.74	25797.38
572.90	25373.75
573.06	24903.30
573.22	25230.98
573.38	25015.65
573.55	25088.20
573.71	25067.14
573.87	25270.76
574.03	24994.58
574.20	25312.89
574.36	25291.83
574.52	25092.88
574.68	25137.35
574.84	25263.74
575.01	25223.95
575.17	25654.61
575.33	25364.39
575.49	25717.81
575.65	25663.97
575.82	25530.56
575.98	25212.25
576.14	25539.93
576.30	25472.05
576.46	25493.12
576.62	25401.83
576.79	25715.47
576.95	25252.04
577.11	25252.04
577.27	25724.83
577.43	25582.06
577.59	25563.33
577.75	25565.67
577.92	25017.99
578.08	25167.78
578.24	25406.52
578.40	25364.39
578.56	26052.50
578.72	25797.38
578.88	26045.48
579.04	25827.81
579.21	25799.73
579.37	25935.48
579.53	25502.48
579.69	25441.62
579.85	25586.74
580.01	25530.56
580.17	25427.58
580.33	25294.17
580.49	25371.41
580.65	25610.14
580.82	25483.75
580.98	25572.69
581.14	25694.40
581.30	25549.29
581.46	25355.02
581.62	25448.64
581.78	25322.26
581.94	25682.70
582.10	25277.79
582.26	25432.26
582.42	25434.60
582.58	25350.34
582.74	25324.60
582.90	25717.81
583.06	25766.96
583.22	25238.00
583.38	25490.77
583.54	25542.27
583.70	25659.29
583.86	25797.38
584.02	25446.30
584.18	25713.13
584.34	25626.53
584.50	25481.41
584.66	25553.97
584.82	25678.02
584.98	25764.62
585.14	25668.66
585.30	25537.59
585.46	25685.04
585.62	25469.71
585.78	25607.80
585.94	25247.36
586.10	25647.59
586.26	25731.85
586.42	25830.15
586.58	25504.82
586.74	25607.80
586.90	25490.77
587.06	25472.05
587.22	25989.31
587.38	25710.78
587.54	25778.66
587.70	26019.74
587.86	25804.41
588.02	25699.08
588.18	25846.54
588.34	25284.81
588.49	26155.49
588.65	25600.78
588.81	25450.99
588.97	25846.54
589.13	25883.98
589.29	25699.08
589.45	25722.49
589.61	25748.23
589.77	25982.29
589.93	25825.47
590.08	25617.16
590.24	25642.91
590.40	25617.16
590.56	25795.04
590.72	25820.79
