SpectraSuite Data File
++++++++++++++++++++++++++++++++++++
Date: Thu Oct 24 13:21:21 EDT 2013
User: stostad
Dark Spectrum Present: No
Reference Spectrum Present: No
Number of Sampled Component Spectra: 1
Spectrometers: USB2+H05261
Integration Time (usec): 100000 (USB2+H05261)
Spectra Averaged: 1 (USB2+H05261)
Boxcar Smoothing: 0 (USB2+H05261)
Correct for Electrical Dark: No (USB2+H05261)
Strobe/Lamp Enabled: No (USB2+H05261)
Correct for Detector Non-linearity: No (USB2+H05261)
Correct for Stray Light: No (USB2+H05261)
Number of Pixels in Processed Spectrum: 2048
>>>>>Begin Processed Spectral Data<<<<<
365.73	650.67
365.92	650.67
366.12	650.67
366.32	465.77
366.52	484.49
366.72	496.19
366.91	496.19
367.11	449.38
367.31	435.34
367.51	447.04
367.70	500.87
367.90	545.34
368.10	440.02
368.30	564.07
368.49	498.53
368.69	444.70
368.89	472.79
369.09	486.83
369.28	521.94
369.48	416.62
369.68	486.83
369.87	468.11
370.07	552.37
370.27	564.07
370.47	622.58
370.66	788.76
370.86	919.83
371.06	926.85
371.25	873.02
371.45	922.17
371.65	950.26
371.84	891.74
372.04	929.19
372.24	1008.77
372.44	966.64
372.63	933.87
372.83	978.34
373.03	1081.33
373.22	1057.92
373.42	1060.26
373.62	983.02
373.81	994.73
374.01	985.37
374.21	1163.25
374.40	1062.60
374.60	1041.54
374.79	1144.52
374.99	1060.26
375.19	1060.26
375.38	1011.11
375.58	1100.05
375.78	1043.88
375.97	1048.56
376.17	1149.20
376.37	1053.24
376.56	1116.44
376.76	1090.69
376.95	1060.26
377.15	1107.07
377.35	1107.07
377.54	1078.99
377.74	1090.69
377.93	1107.07
378.13	1165.59
378.33	1149.20
378.52	1050.90
378.72	1111.75
378.91	1083.67
379.11	1090.69
379.31	1172.61
379.50	1210.06
379.70	1170.27
379.89	1188.99
380.09	1181.97
380.28	1165.59
380.48	1123.46
380.68	1137.50
380.87	1116.44
381.07	1277.93
381.26	1245.16
381.46	1263.89
381.65	1193.67
381.85	1203.04
382.04	1228.78
382.24	1177.29
382.43	1261.55
382.63	1224.10
382.83	1256.87
383.02	1252.19
383.22	1277.93
383.41	1261.55
383.61	1245.16
383.80	1277.93
384.00	1240.48
384.19	1289.64
384.39	1357.51
384.58	1320.06
384.78	1277.93
384.97	1275.59
385.17	1331.76
385.36	1249.85
385.56	1186.65
385.75	1256.87
385.95	1348.15
386.14	1352.83
386.34	1345.81
386.53	1299.00
386.72	1378.58
386.92	1385.60
387.11	1397.30
387.31	1343.47
387.50	1343.47
387.70	1418.36
387.89	1345.81
388.09	1315.38
388.28	1341.13
388.48	1434.75
388.67	1385.60
388.86	1423.05
389.06	1373.89
389.25	1458.15
389.45	1481.56
389.64	1446.45
389.84	1432.41
390.03	1504.96
390.22	1481.56
390.42	1497.94
390.61	1514.33
390.81	1516.67
391.00	1474.54
391.19	1563.48
391.39	1535.39
391.58	1528.37
391.78	1504.96
391.97	1544.75
392.16	1570.50
392.36	1654.76
392.55	1610.29
392.75	1633.69
392.94	1612.63
393.13	1619.65
393.33	1675.82
393.52	1600.93
393.71	1645.40
393.91	1647.74
394.10	1699.23
394.29	1579.86
394.49	1694.55
394.68	1743.70
394.88	1701.57
395.07	1724.97
395.26	1713.27
395.46	1708.59
395.65	1729.66
395.84	1792.85
396.04	1858.39
396.23	1767.10
396.42	1830.30
396.62	1788.17
396.81	1757.74
397.00	1846.68
397.19	1767.10
397.39	1781.15
397.58	1867.75
397.77	1849.02
397.97	1872.43
398.16	1907.54
398.35	1975.41
398.55	1879.45
398.74	1987.11
398.93	2024.56
399.12	1858.39
399.32	1954.35
399.51	2045.63
399.70	1982.43
399.90	1954.35
400.09	2099.46
400.28	1987.11
400.47	1970.73
400.67	2043.29
400.86	2059.67
401.05	1952.01
401.24	2111.16
401.44	2162.66
401.63	2193.08
401.82	2087.76
402.01	2122.87
402.21	2132.23
402.40	2052.65
402.59	2148.61
402.78	2225.85
402.97	2172.02
403.17	2179.04
403.36	2181.38
403.55	2235.21
403.74	2394.37
403.93	2310.11
404.13	2373.30
404.32	2354.58
404.51	2476.29
404.70	2319.47
404.89	2317.13
405.09	2382.67
405.28	2373.30
405.47	2305.43
405.66	2335.85
405.85	2436.50
406.05	2340.54
406.24	2427.14
406.43	2581.61
406.62	2452.88
406.81	2588.63
407.00	2476.29
407.20	2380.32
407.39	2441.18
407.58	2579.27
407.77	2616.72
407.96	2551.18
408.15	2726.72
408.34	2689.28
408.54	2630.76
408.73	2747.79
408.92	2747.79
409.11	2710.34
409.30	2705.66
409.49	2820.35
409.68	2785.24
409.87	2890.56
410.07	2925.67
410.26	2801.62
410.45	2827.37
410.64	2846.09
410.83	2946.73
411.02	2909.29
411.21	2977.16
411.40	3007.59
411.59	2946.73
411.78	3054.40
411.98	2967.80
412.17	3068.44
412.36	3124.62
412.55	3131.64
412.74	3225.26
412.93	3190.15
413.12	3279.09
413.31	3403.14
413.50	3262.71
413.69	3208.87
413.88	3215.90
414.07	3211.22
414.26	3447.61
414.45	3487.40
414.64	3260.37
414.83	3349.31
415.02	3405.48
415.22	3557.61
415.41	3581.02
415.60	3545.91
415.79	3679.32
415.98	3637.19
416.17	3702.73
416.36	3637.19
416.55	3569.32
416.74	3735.50
416.93	3646.55
417.12	3684.00
417.31	3922.74
417.50	3824.44
417.69	3887.63
417.88	3838.48
418.07	3801.03
418.26	3911.04
418.45	3922.74
418.64	4039.76
418.83	3946.14
419.02	3995.29
419.21	4182.54
419.39	3995.29
419.58	4121.68
419.77	4018.70
419.96	4156.79
420.15	4107.64
420.34	4091.26
420.53	4117.00
420.72	4231.69
420.91	4182.54
421.10	4355.74
421.29	4332.33
421.48	4332.33
421.67	4290.20
421.86	4259.78
422.05	4332.33
422.24	4390.84
422.43	4430.63
422.61	4470.42
422.80	4512.55
422.99	4395.53
423.18	4468.08
423.37	4479.79
423.56	4409.57
423.75	4367.44
423.94	4468.08
424.13	4161.47
424.32	4231.69
424.50	4367.44
424.69	4573.41
424.88	4535.96
425.07	4388.50
425.26	4521.92
425.45	4444.68
425.64	4461.06
425.83	4507.87
426.01	4575.75
426.20	4458.72
426.39	4542.98
426.58	4465.74
426.77	4610.86
426.96	4631.92
427.15	4610.86
427.33	4709.16
427.52	4596.81
427.71	4706.82
427.90	4667.03
428.09	4678.73
428.28	4828.53
428.46	4746.61
428.65	4737.24
428.84	4830.87
429.03	4877.68
429.22	4809.80
429.40	4870.65
429.59	4938.53
429.78	4709.16
429.97	4819.16
430.16	4936.19
430.34	4978.32
430.53	5104.71
430.72	4999.38
430.91	5004.07
431.10	5050.88
431.28	5130.45
431.47	5078.96
431.66	5109.39
431.85	4997.04
432.03	5153.86
432.22	5301.31
432.41	5252.16
432.60	5069.60
432.79	5165.56
432.97	5287.27
433.16	5287.27
433.35	5268.55
433.54	5268.55
433.72	5458.13
433.91	5373.87
434.10	5408.98
434.28	5355.15
434.47	5556.43
434.66	5509.62
434.85	5467.49
435.03	5673.46
435.22	5837.30
435.41	5977.73
435.59	5844.32
435.78	5727.29
435.97	5975.39
436.16	5621.97
436.34	5633.67
436.53	5605.58
436.72	5692.18
436.90	5643.03
437.09	5802.19
437.28	5678.14
437.46	5750.70
437.65	5863.04
437.84	5959.00
438.02	5851.34
438.21	5916.87
438.40	5806.87
438.58	6078.37
438.77	6087.73
438.96	5989.43
439.14	6207.10
439.33	6204.76
439.52	6214.12
439.70	6162.63
439.89	6417.75
440.08	6314.77
440.26	6305.40
440.45	6511.37
440.63	6537.12
440.82	6712.66
441.01	6480.94
441.19	6604.99
441.38	6750.10
441.57	6864.79
441.75	6647.12
441.94	6698.61
442.12	6925.65
442.31	6944.37
442.50	6974.80
442.68	6935.01
442.87	6986.50
443.05	6787.55
443.24	7185.44
443.43	6862.45
443.61	7152.68
443.80	7368.01
443.98	7037.99
444.17	6738.40
444.35	7089.48
444.54	7267.36
444.73	6984.16
444.91	7042.67
445.10	7183.10
445.28	7187.79
445.47	6979.48
445.65	7108.21
445.84	7325.88
446.02	7180.76
446.21	7126.93
446.39	7311.83
446.58	7391.41
446.77	7283.75
446.95	7068.42
447.14	7232.26
447.32	7265.02
447.51	7368.01
447.69	7288.43
447.88	7353.96
448.06	7272.04
448.25	7351.62
448.43	7410.14
448.62	7424.18
448.80	7360.98
448.99	7499.08
449.17	7323.54
449.36	7370.35
449.54	7588.02
449.73	7728.45
449.91	7660.57
450.10	7705.04
450.28	7683.98
450.46	7737.81
450.65	7822.07
450.83	7700.36
451.02	7812.71
451.20	7903.99
451.39	7782.28
451.57	7857.18
451.76	7728.45
451.94	7747.17
452.13	7983.57
452.31	7885.26
452.49	7808.03
452.68	7988.25
452.86	8095.91
453.05	8100.59
453.23	8212.94
453.42	7939.10
453.60	8011.65
453.78	8210.60
453.97	8011.65
454.15	8058.46
454.34	8135.70
454.52	8109.96
454.70	8290.18
454.89	8252.73
455.07	8503.17
455.26	8248.05
455.44	8540.61
455.62	8418.91
455.81	8461.04
455.99	8758.28
456.17	8526.57
456.36	8547.64
456.54	8622.53
456.73	8674.03
456.91	9055.53
457.09	8887.01
457.28	8931.48
457.46	8784.03
457.64	8891.70
457.83	9022.77
458.01	8779.35
458.19	9125.75
458.38	8990.00
458.56	9062.55
458.74	8894.04
458.93	8992.34
459.11	9088.30
459.29	9188.94
459.48	9210.01
459.66	9151.49
459.84	9205.33
460.03	9378.53
460.21	9427.68
460.39	9418.32
460.57	9280.22
460.76	9451.08
460.94	9479.17
461.12	9617.26
461.31	9692.16
461.49	9479.17
461.67	9441.72
461.85	9745.99
462.04	9619.60
462.22	10092.39
462.40	9788.12
462.59	9699.18
462.77	9399.59
462.95	9867.70
463.13	9827.91
463.32	9818.55
463.50	10003.45
463.68	9863.02
463.86	9954.30
464.05	9776.42
464.23	9809.19
464.41	9961.32
464.59	9844.29
464.78	10307.72
464.96	10033.88
465.14	9900.47
465.32	10146.22
465.50	10057.28
465.69	10324.10
465.87	10265.59
466.05	10003.45
466.23	10356.87
466.41	10160.27
466.60	10572.20
466.78	10279.63
466.96	10342.83
467.14	10462.19
467.32	10431.77
467.51	10516.03
467.69	10382.62
467.87	10466.88
468.05	10665.82
468.23	10225.80
468.41	10340.49
468.60	10712.63
468.78	10839.02
468.96	10459.85
469.14	10909.24
469.32	10946.69
469.50	10644.76
469.69	10806.25
469.87	10902.22
470.05	11075.42
470.23	11000.52
470.41	10867.11
470.59	10991.16
470.77	11061.37
470.95	10888.17
471.14	11644.17
471.32	11199.46
471.50	11360.96
471.68	11159.67
471.86	11449.90
472.04	11384.37
472.22	11524.80
472.40	11480.33
472.58	11702.68
472.77	11548.20
472.95	12070.14
473.13	12070.14
473.31	11805.66
473.49	12016.31
473.67	12046.74
473.85	12081.85
474.03	12142.70
474.21	11985.88
474.39	12105.25
474.57	12219.94
474.75	12360.37
474.93	12800.39
475.12	12360.37
475.30	12784.01
475.48	12535.91
475.66	12652.94
475.84	12592.08
476.02	12629.53
476.20	12629.53
476.38	13069.55
476.56	13422.97
476.74	13069.55
476.92	12854.22
477.10	13074.23
477.28	13446.38
477.46	13245.09
477.64	13591.49
477.82	13860.65
478.00	14015.13
478.18	14008.11
478.36	14143.86
478.54	14193.01
478.72	14274.93
478.90	14279.61
479.08	14443.45
479.26	14810.91
479.44	14658.78
479.62	14864.74
479.80	15026.24
479.98	14998.15
480.16	15405.41
480.34	14988.79
480.52	15365.62
480.70	15452.22
480.88	15447.54
481.06	15363.28
481.24	15508.39
481.41	15674.57
481.59	15917.98
481.77	16240.98
481.95	16072.46
482.13	16526.52
482.31	16430.56
482.49	16879.94
482.67	17090.59
482.85	16929.09
483.03	17156.13
483.21	17139.74
483.39	17322.30
483.57	16994.63
483.74	17500.19
483.92	17507.21
484.10	17561.04
484.28	18129.79
484.46	18104.04
484.64	18595.56
484.82	18162.56
485.00	18497.25
485.18	18738.33
485.35	18972.38
485.53	18986.43
485.71	18934.93
485.89	19484.96
486.07	19470.92
486.25	19400.70
486.43	19651.14
486.61	19538.79
486.78	19679.22
486.96	20184.78
487.14	20353.30
487.32	20201.16
487.50	20264.36
487.68	20713.74
487.85	20992.26
488.03	21219.30
488.21	21158.44
488.39	21202.91
488.57	21532.93
488.75	21607.83
488.92	21659.32
489.10	21984.65
489.28	22312.33
489.46	22237.43
489.64	22127.42
489.81	22450.42
489.99	22747.67
490.17	22860.01
490.35	23405.36
490.53	23248.54
490.70	23412.38
490.88	23510.68
491.06	23857.08
491.24	23896.87
491.41	24079.43
491.59	24245.61
491.77	24514.77
491.95	24467.96
492.13	24102.84
492.30	24769.89
492.48	24446.90
492.66	24821.38
492.84	24702.01
493.01	25268.42
493.19	25287.15
493.37	25195.87
493.54	25420.56
493.72	25516.52
493.90	25458.01
494.08	25708.44
494.25	26267.83
494.43	26225.70
494.61	26221.02
494.79	26583.80
494.96	26724.24
495.14	26944.25
495.32	27000.42
495.49	26934.88
495.67	26955.95
495.85	27388.95
496.02	27796.20
496.20	27592.58
496.38	27873.44
496.55	28105.15
496.73	28582.62
496.91	28264.31
497.09	28304.10
497.26	28573.26
497.44	28556.88
497.62	28727.74
497.79	29165.42
497.97	29149.03
498.14	29439.26
498.32	29804.38
498.50	29619.48
498.67	29689.70
498.85	29926.09
499.03	30080.56
499.20	30059.50
499.38	30380.15
499.56	30216.32
499.73	30382.49
499.91	30525.27
500.08	30796.77
500.26	30485.48
500.44	30742.94
500.61	30874.01
500.79	30946.56
500.97	30976.99
501.14	31391.26
501.32	31564.46
501.49	31351.48
501.67	31529.36
501.84	31548.08
502.02	31922.57
502.20	31782.13
502.37	31894.48
502.55	31660.43
502.72	31777.45
502.90	32591.96
503.07	32308.76
503.25	32294.71
503.43	32395.35
503.60	32865.80
503.78	32821.33
503.95	33013.26
504.13	32921.98
504.30	33029.64
504.48	32685.58
504.65	33511.79
504.83	33844.15
505.01	34099.26
505.18	33469.66
505.36	34422.26
505.53	33734.14
505.71	34279.49
505.88	34080.54
506.06	33940.11
506.23	34382.47
506.41	34333.32
506.58	34609.50
506.76	34316.93
506.93	35030.80
507.11	34270.12
507.28	35150.17
507.46	35339.75
507.63	34946.54
507.81	35501.25
507.98	34735.89
508.16	35386.56
508.33	35496.56
508.50	35292.94
508.68	35615.93
508.85	35868.71
509.03	36095.74
509.20	35747.00
509.38	36392.99
509.55	36458.52
509.73	36397.67
509.90	36657.47
510.08	37081.11
510.25	36697.26
510.42	36638.75
510.60	36730.03
510.77	37060.04
510.95	36835.35
511.12	37212.18
511.30	37038.98
511.47	37600.71
511.64	37823.06
511.82	37567.94
511.99	37404.10
512.17	37858.17
512.34	37764.54
512.51	38422.23
512.69	38586.07
512.86	38352.02
513.04	38536.92
513.21	38361.38
513.38	38483.09
513.56	38490.11
513.73	38703.10
513.90	38796.72
514.08	39033.11
514.25	39112.69
514.43	39335.04
514.60	39159.50
514.77	39035.45
514.95	39009.71
515.12	39477.82
515.29	39407.60
515.47	39634.63
515.64	39873.37
515.81	39442.71
515.99	39880.39
516.16	40378.92
516.33	39728.25
516.51	39845.28
516.68	40058.27
516.85	40795.54
517.03	40662.13
517.20	40568.51
517.37	40603.61
517.54	40395.31
517.72	40229.13
517.89	40643.40
518.06	40931.29
518.24	40900.86
518.41	41247.26
518.58	41317.48
518.75	41273.01
518.93	41141.94
519.10	40727.66
519.27	41436.84
519.45	41053.00
519.62	41509.40
519.79	41635.79
519.96	41916.65
520.14	41769.20
520.31	41848.78
520.48	42080.49
520.65	41869.84
520.83	42150.71
521.00	42146.03
521.17	42075.81
521.34	42319.23
521.52	42597.75
521.69	42843.51
521.86	42337.95
522.03	42665.63
522.20	42462.00
522.38	43138.41
522.55	43292.89
522.72	43068.20
522.89	43107.99
523.07	43143.09
523.24	43084.58
523.41	43826.53
523.58	43342.04
523.75	43737.59
523.92	43512.90
524.10	43835.89
524.27	43819.51
524.44	43981.01
524.61	43871.00
524.78	43793.76
524.96	44287.62
525.13	43770.36
525.30	44680.83
525.47	44577.84
525.64	44542.74
525.81	44526.35
525.98	44821.26
526.16	44575.50
526.33	44458.48
526.50	44409.32
526.67	44711.25
526.84	45258.94
527.01	44987.44
527.18	45460.23
527.36	44809.56
527.53	45059.99
527.70	45237.87
527.87	45462.57
528.04	45357.24
528.21	45673.21
528.38	45277.66
528.55	45813.65
528.72	45647.47
528.89	45595.98
529.07	45521.08
529.24	45572.57
529.41	46260.69
529.58	45897.91
529.75	46431.55
529.92	46466.66
530.09	46316.86
530.26	45670.87
530.43	46178.77
530.60	46064.08
530.77	46328.56
530.94	46351.97
531.11	46436.23
531.28	46672.62
531.46	46358.99
531.63	46564.96
531.80	46464.32
531.97	46988.60
532.14	47124.35
532.31	46794.33
532.48	47154.77
532.65	47325.63
532.82	47051.79
532.99	47278.82
533.16	46918.38
533.33	46951.15
533.50	47124.35
533.67	47126.69
533.84	47166.48
534.01	47047.11
534.18	47222.65
534.35	48360.15
534.52	47629.90
534.69	47592.45
534.86	47519.90
535.03	47484.79
535.20	47910.77
535.37	47917.79
535.54	48032.47
535.71	48023.11
535.88	48189.29
536.05	48069.92
536.22	48282.91
536.38	48168.22
536.55	48282.91
536.72	48542.71
536.89	48451.43
537.06	48839.96
537.23	49272.96
537.40	48673.78
537.57	48348.45
537.74	48942.94
537.91	48690.16
538.08	48692.50
538.25	48699.53
538.42	48994.43
538.59	49015.50
538.75	48985.07
538.92	49240.19
539.09	49052.95
539.26	49144.23
539.43	48996.77
539.60	49277.64
539.77	49279.98
539.94	49638.08
540.11	49441.48
540.28	49649.78
540.44	49724.68
540.61	49883.84
540.78	49394.67
540.95	49289.34
541.12	49724.68
541.29	50054.70
541.46	49825.32
541.62	50295.77
541.79	50312.16
541.96	49916.61
542.13	50026.61
542.30	49895.54
542.47	50145.98
542.63	50209.17
542.80	50754.52
542.97	50693.66
543.14	50756.86
543.31	50955.80
543.48	50630.47
543.64	50953.46
543.81	50745.15
543.98	50614.08
544.15	51105.60
544.32	50993.25
544.48	51213.26
544.65	50920.70
544.82	51061.13
544.99	50717.07
545.16	51304.54
545.32	50890.27
545.49	51536.26
545.66	51569.02
545.83	51782.01
546.00	52076.92
546.16	51524.55
546.33	51650.94
546.50	51426.25
546.67	51466.04
546.83	51075.17
547.00	51019.00
547.17	51281.14
547.34	51480.08
547.50	51449.66
547.67	51892.02
547.84	51941.17
548.00	51817.12
548.17	52554.39
548.34	51674.35
548.51	51924.78
548.67	51760.95
548.84	51613.49
549.01	51700.09
549.18	52165.86
549.34	52032.45
549.51	51885.00
549.68	52097.98
549.84	52074.58
550.01	52055.85
550.18	51777.33
550.34	51845.21
550.51	51707.12
550.68	52048.83
550.84	51714.14
551.01	52245.44
551.18	52411.62
551.34	51877.97
551.51	52245.44
551.68	52336.72
551.84	51892.02
552.01	52257.14
552.18	52273.52
552.34	52411.62
552.51	52624.60
552.68	52362.46
552.84	52165.86
553.01	52870.36
553.18	52680.78
553.34	52287.57
553.51	52179.90
553.67	52619.92
553.84	53022.50
554.01	53066.97
554.17	52851.64
554.34	52947.60
554.51	52666.73
554.67	53097.39
554.84	52807.17
555.00	52495.88
555.17	52566.09
555.33	53038.88
555.50	52743.97
555.67	53045.90
555.83	53109.10
556.00	53132.50
556.16	53457.84
556.33	53179.31
556.50	53034.20
556.66	53092.71
556.83	52996.75
556.99	53504.65
557.16	53621.67
557.32	53748.06
557.49	53446.13
557.65	53368.90
557.82	53148.88
557.98	52959.30
558.15	53322.08
558.32	53474.22
558.48	53539.75
558.65	53495.28
558.81	53581.88
558.98	53382.94
559.14	53652.10
559.31	53443.79
559.47	53434.43
559.64	53633.38
559.80	53631.04
559.97	53549.12
560.13	53640.40
560.30	53469.54
560.46	53521.03
560.63	53689.55
560.79	54195.10
560.96	54117.87
561.12	53907.22
561.29	53794.87
561.45	53719.98
561.61	53593.59
561.78	53502.31
561.94	54052.33
562.11	54365.96
562.27	53984.46
562.44	53825.30
562.60	54267.66
562.77	53954.03
562.93	53837.00
563.10	54368.30
563.26	53731.68
563.42	53998.50
563.59	54019.56
563.75	54089.78
563.92	54218.51
564.08	54047.65
564.24	54155.32
564.41	54085.10
564.57	53867.43
564.74	54106.16
564.90	53841.68
565.07	54234.89
565.23	54293.41
565.39	54335.54
565.56	54571.93
565.72	54443.20
565.88	54260.64
566.05	54475.97
566.21	54066.38
566.38	53996.16
566.54	54309.79
566.70	54660.87
566.87	54609.38
567.03	54120.21
567.19	54930.03
567.36	54377.67
567.52	54340.22
567.68	54651.51
567.85	54174.04
568.01	54546.18
568.17	54363.62
568.34	54511.08
568.50	54468.95
568.66	54403.41
568.83	54789.60
568.99	54384.69
569.15	54700.66
569.32	54415.11
569.48	54295.75
569.64	54602.36
569.81	53998.50
569.97	54237.23
570.13	54724.07
570.30	54555.55
570.46	54518.10
570.62	54658.53
570.78	54356.60
570.95	54326.17
571.11	54824.71
571.27	54181.06
571.43	54607.04
571.60	54534.48
571.76	54361.28
571.92	54529.80
572.09	54953.44
572.25	54894.92
572.41	54986.21
572.57	54927.69
572.74	54913.65
572.90	54607.04
573.06	54611.72
573.22	54578.95
573.38	54628.10
573.55	54777.90
573.71	54869.18
573.87	54974.50
574.03	54721.72
574.20	54686.62
574.36	54630.44
574.52	54784.92
574.68	54674.91
574.84	54850.45
575.01	54932.37
575.17	55227.28
575.33	54674.91
575.49	54665.55
575.65	54644.49
575.82	54958.12
575.98	54632.78
576.14	54925.35
576.30	55121.96
576.46	54693.64
576.62	54712.36
576.79	54803.64
576.95	54525.12
577.11	54829.39
577.27	54834.07
577.43	55128.98
577.59	54777.90
577.75	54850.45
577.92	54803.64
578.08	54829.39
578.24	54670.23
578.40	54962.80
578.56	55164.09
578.72	54752.15
578.88	55131.32
579.04	55002.59
579.21	54906.63
579.37	55278.77
579.53	55325.58
579.69	55030.68
579.85	54986.21
580.01	54918.33
580.17	55021.31
580.33	55093.87
580.49	54976.84
580.65	55114.94
580.82	55269.41
580.98	55168.77
581.14	54969.82
581.30	55168.77
581.46	55082.17
581.62	55114.94
581.78	55070.46
581.94	55182.81
582.10	55054.08
582.26	55192.17
582.42	55098.55
582.58	54955.78
582.74	55206.22
582.90	55348.99
583.06	55388.78
583.22	54873.86
583.38	55140.68
583.54	54976.84
583.70	54761.51
583.86	55128.98
584.02	54801.30
584.18	55044.72
584.34	55267.07
584.50	55121.96
584.66	54969.82
584.82	55051.74
584.98	55093.87
585.14	55241.32
585.30	55014.29
585.46	55337.29
585.62	54820.03
585.78	55290.48
585.94	55173.45
586.10	55346.65
586.26	55466.02
586.42	55384.10
586.58	55285.79
586.74	55250.69
586.90	55140.68
587.06	55267.07
587.22	55180.47
587.38	55086.85
587.54	55714.11
587.70	55388.78
587.86	55571.34
588.02	55566.66
588.18	55386.44
588.34	55615.81
588.49	55374.73
