SpectraSuite Data File
++++++++++++++++++++++++++++++++++++
Date: Thu Oct 24 13:21:11 EDT 2013
User: stostad
Dark Spectrum Present: No
Reference Spectrum Present: No
Number of Sampled Component Spectra: 1
Spectrometers: USB2+H05261
Integration Time (usec): 100000 (USB2+H05261)
Spectra Averaged: 1 (USB2+H05261)
Boxcar Smoothing: 0 (USB2+H05261)
Correct for Electrical Dark: No (USB2+H05261)
Strobe/Lamp Enabled: No (USB2+H05261)
Correct for Detector Non-linearity: No (USB2+H05261)
Correct for Stray Light: No (USB2+H05261)
Number of Pixels in Processed Spectrum: 2048
>>>>>Begin Processed Spectral Data<<<<<
365.73	573.43
365.92	573.43
366.12	573.43
366.32	442.36
366.52	435.34
366.72	470.45
366.91	425.98
367.11	463.43
367.31	447.04
367.51	472.79
367.70	475.13
367.90	414.27
368.10	482.15
368.30	489.17
368.49	416.62
368.69	444.70
368.89	440.02
369.09	442.36
369.28	540.66
369.48	526.62
369.68	531.30
369.87	500.87
370.07	533.64
370.27	547.69
370.47	547.69
370.66	650.67
370.86	699.82
371.06	751.31
371.25	767.70
371.45	732.59
371.65	791.10
371.84	765.36
372.04	744.29
372.24	767.70
372.44	753.65
372.63	784.08
372.83	770.04
373.03	746.63
373.22	765.36
373.42	800.46
373.62	758.33
373.81	774.72
374.01	833.23
374.21	802.80
374.40	809.83
374.60	812.17
374.79	805.14
374.99	734.93
375.19	835.57
375.38	793.44
375.58	826.21
375.78	809.83
375.97	868.34
376.17	887.06
376.37	849.61
376.56	748.97
376.76	833.23
376.95	772.38
377.15	842.59
377.35	793.44
377.54	842.59
377.74	779.40
377.93	779.40
378.13	835.57
378.33	849.61
378.52	854.30
378.72	826.21
378.91	875.36
379.11	863.66
379.31	821.53
379.50	851.96
379.70	922.17
379.89	812.17
380.09	873.02
380.28	786.42
380.48	873.02
380.68	819.19
380.87	844.93
381.07	903.45
381.26	961.96
381.46	858.98
381.65	849.61
381.85	821.53
382.04	856.64
382.24	891.74
382.43	807.48
382.63	924.51
382.83	880.04
383.02	802.80
383.22	908.13
383.41	905.79
383.61	901.11
383.80	943.24
384.00	940.90
384.19	887.06
384.39	957.28
384.58	910.47
384.78	922.17
384.97	919.83
385.17	905.79
385.36	947.92
385.56	863.66
385.75	940.90
385.95	938.55
386.14	931.53
386.34	926.85
386.53	976.00
386.72	973.66
386.92	971.32
387.11	976.00
387.31	980.68
387.50	924.51
387.70	919.83
387.89	1025.15
388.09	957.28
388.28	1025.15
388.48	954.94
388.67	957.28
388.86	1025.15
389.06	990.05
389.25	973.66
389.45	1001.75
389.64	980.68
389.84	1121.12
390.03	1032.18
390.22	983.02
390.42	1048.56
390.61	926.85
390.81	1020.47
391.00	1015.79
391.19	1076.65
391.39	1027.50
391.58	1025.15
391.78	1062.60
391.97	1055.58
392.16	1128.14
392.36	1109.41
392.55	1104.73
392.75	1086.01
392.94	1022.81
393.13	1006.43
393.33	1032.18
393.52	1020.47
393.71	1088.35
393.91	1057.92
394.10	1001.75
394.29	1107.07
394.49	1090.69
394.68	1104.73
394.88	1102.39
395.07	1128.14
395.26	1139.84
395.46	1196.01
395.65	1083.67
395.84	1207.72
396.04	1130.48
396.23	1181.97
396.42	1210.06
396.62	1158.57
396.81	1184.31
397.00	1125.80
397.19	1158.57
397.39	1156.22
397.58	1217.08
397.77	1123.46
397.97	1170.27
398.16	1252.19
398.35	1263.89
398.55	1191.33
398.74	1273.25
398.93	1263.89
399.12	1289.64
399.32	1172.61
399.51	1151.54
399.70	1172.61
399.90	1177.29
400.09	1198.35
400.28	1299.00
400.47	1277.93
400.67	1296.66
400.86	1280.27
401.05	1207.72
401.24	1306.02
401.44	1369.21
401.63	1308.36
401.82	1259.21
402.01	1327.08
402.21	1249.85
402.40	1296.66
402.59	1275.59
402.78	1289.64
402.97	1270.91
403.17	1338.79
403.36	1411.34
403.55	1385.60
403.74	1392.62
403.93	1423.05
404.13	1523.69
404.32	1460.49
404.51	1390.28
404.70	1441.77
404.89	1427.73
405.09	1385.60
405.28	1432.41
405.47	1444.11
405.66	1432.41
405.85	1516.67
406.05	1439.43
406.24	1448.79
406.43	1399.64
406.62	1572.84
406.81	1544.75
407.00	1519.01
407.20	1516.67
407.39	1537.73
407.58	1600.93
407.77	1568.16
407.96	1584.54
408.15	1579.86
408.34	1551.78
408.54	1624.33
408.73	1596.25
408.92	1654.76
409.11	1659.44
409.30	1657.10
409.49	1682.85
409.68	1645.40
409.87	1743.70
410.07	1692.21
410.26	1689.87
410.45	1596.25
410.64	1687.53
410.83	1689.87
411.02	1764.76
411.21	1713.27
411.40	1743.70
411.59	1874.77
411.78	1764.76
411.98	1762.42
412.17	1851.36
412.36	1790.51
412.55	1842.00
412.74	1877.11
412.93	1886.47
413.12	1783.49
413.31	1839.66
413.50	1968.39
413.69	1858.39
413.88	1923.92
414.07	1893.49
414.26	1909.88
414.45	1989.46
414.64	1947.33
414.83	1947.33
415.02	2001.16
415.22	2001.16
415.41	1982.43
415.60	2010.52
415.79	2022.22
415.98	2176.70
416.17	2003.50
416.36	2080.74
416.55	2080.74
416.74	2087.76
416.93	2092.44
417.12	2188.40
417.31	2176.70
417.50	2197.76
417.69	2188.40
417.88	2106.48
418.07	2165.00
418.26	2165.00
418.45	2125.21
418.64	2303.09
418.83	2305.43
419.02	2209.47
419.21	2282.02
419.39	2267.98
419.58	2230.53
419.77	2169.68
419.96	2317.13
420.15	2331.17
420.34	2291.38
420.53	2275.00
420.72	2392.03
420.91	2382.67
421.10	2340.54
421.29	2380.32
421.48	2394.37
421.67	2445.86
421.86	2387.35
422.05	2441.18
422.24	2396.71
422.43	2387.35
422.61	2373.30
422.80	2466.92
422.99	2457.56
423.18	2504.37
423.37	2466.92
423.56	2466.92
423.75	2464.58
423.94	2399.05
424.13	2342.88
424.32	2312.45
424.50	2480.97
424.69	2509.05
424.88	2438.84
425.07	2403.73
425.26	2361.60
425.45	2530.12
425.64	2518.42
425.83	2499.69
426.01	2487.99
426.20	2450.54
426.39	2497.35
426.58	2516.08
426.77	2450.54
426.96	2562.89
427.15	2406.07
427.33	2572.25
427.52	2539.48
427.71	2668.21
427.90	2487.99
428.09	2560.55
428.28	2661.19
428.46	2623.74
428.65	2656.51
428.84	2668.21
429.03	2670.55
429.22	2675.23
429.40	2710.34
429.59	2626.08
429.78	2569.91
429.97	2572.25
430.16	2649.49
430.34	2670.55
430.53	2785.24
430.72	2703.32
430.91	2693.96
431.10	2672.89
431.28	2677.57
431.47	2663.53
431.66	2761.83
431.85	2752.47
432.03	2752.47
432.22	2839.07
432.41	2794.60
432.60	2834.39
432.79	2743.11
432.97	2796.94
433.16	2670.55
433.35	2881.20
433.54	3002.91
433.72	2766.51
433.91	2906.95
434.10	2942.05
434.28	2843.75
434.47	2839.07
434.66	3077.80
434.85	2942.05
435.03	3232.28
435.22	3286.11
435.41	3428.88
435.59	3370.37
435.78	3262.71
435.97	3084.83
436.16	3215.90
436.34	3049.72
436.53	3213.56
436.72	3136.32
436.90	3049.72
437.09	3145.68
437.28	3115.25
437.46	3038.02
437.65	3059.08
437.84	3136.32
438.02	3103.55
438.21	3000.57
438.40	3119.93
438.58	3084.83
438.77	3096.53
438.96	3241.64
439.14	3220.58
439.33	3255.69
439.52	3365.69
439.70	3377.39
439.89	3447.61
440.08	3241.64
440.26	3368.03
440.45	3246.32
440.63	3424.20
440.82	3428.88
441.01	3403.14
441.19	3487.40
441.38	3494.42
441.57	3473.36
441.75	3581.02
441.94	3485.06
442.12	3569.32
442.31	3538.89
442.50	3522.51
442.68	3623.15
442.87	3475.70
443.05	3613.79
443.24	3775.28
443.43	3712.09
443.61	3604.42
443.80	3728.47
443.98	3538.89
444.17	3510.80
444.35	3698.05
444.54	3758.90
444.73	3604.42
444.91	3749.54
445.10	3672.30
445.28	3639.53
445.47	3529.53
445.65	3634.85
445.84	3798.69
446.02	3796.35
446.21	3784.65
446.39	3641.87
446.58	3850.18
446.77	3747.20
446.95	3754.22
447.14	3866.56
447.32	3775.28
447.51	3747.20
447.69	3950.82
447.88	3761.24
448.06	3723.79
448.25	3843.16
448.43	3906.35
448.62	3873.59
448.80	3812.73
448.99	3845.50
449.17	3805.71
449.36	3796.35
449.54	3976.57
449.73	3939.12
449.91	3992.95
450.10	3983.59
450.28	3983.59
450.46	4016.36
450.65	3948.48
450.83	3969.55
451.02	4035.08
451.20	4112.32
451.39	3901.67
451.57	4028.06
451.76	3939.12
451.94	4042.11
452.13	4138.07
452.31	4126.36
452.49	4058.49
452.68	4093.60
452.86	4081.89
453.05	4191.90
453.23	4126.36
453.42	4105.30
453.60	3988.27
453.78	4128.70
453.97	4128.70
454.15	4109.98
454.34	3974.23
454.52	4243.39
454.70	4105.30
454.89	4215.30
455.07	4320.63
455.26	4299.56
455.44	4175.52
455.62	4234.03
455.81	4248.07
455.99	4241.05
456.17	4318.29
456.36	4285.52
456.54	4388.50
456.73	4435.32
456.91	4362.76
457.09	4545.32
457.28	4479.79
457.46	4411.91
457.64	4540.64
457.83	4369.78
458.01	4468.08
458.19	4662.35
458.38	4475.10
458.56	4475.10
458.74	4622.56
458.93	4610.86
459.11	4674.05
459.29	4503.19
459.48	4709.16
459.66	4685.75
459.84	4662.35
460.03	4713.84
460.21	4784.06
460.39	4858.95
460.57	4784.06
460.76	4814.48
460.94	4849.59
461.12	4910.44
461.31	4842.57
461.49	4720.86
461.67	4873.00
461.85	4887.04
462.04	4889.38
462.22	5149.18
462.40	4945.55
462.59	4814.48
462.77	4945.55
462.95	4889.38
463.13	5015.77
463.32	4856.61
463.50	5074.28
463.68	4968.96
463.86	5008.75
464.05	4987.68
464.23	5067.26
464.41	5135.14
464.59	4858.95
464.78	5053.22
464.96	4889.38
465.14	5018.11
465.32	5123.43
465.50	5064.92
465.69	5074.28
465.87	4999.38
466.05	5088.32
466.23	5132.79
466.41	5221.74
466.60	5268.55
466.78	5139.82
466.96	5142.16
467.14	5139.82
467.32	5315.36
467.51	5224.08
467.69	5172.58
467.87	5256.84
468.05	5226.42
468.23	5231.10
468.41	5256.84
468.60	5228.76
468.78	5266.21
468.96	5179.61
469.14	5221.74
469.32	5472.17
469.50	5296.63
469.69	5437.06
469.87	5511.96
470.05	5493.24
470.23	5444.09
470.41	5469.83
470.59	5603.24
470.77	5448.77
470.95	5568.13
471.14	5640.69
471.32	5593.88
471.50	5661.76
471.68	5659.42
471.86	5738.99
472.04	5614.95
472.22	5872.40
472.40	5764.74
472.58	5514.30
472.77	5659.42
472.95	5811.55
473.13	6031.56
473.31	5755.38
473.49	5856.02
473.67	5844.32
473.85	5748.36
474.03	5914.53
474.21	6005.81
474.39	5935.60
474.57	5991.77
474.75	6120.50
474.93	6097.10
475.12	5994.11
475.30	6197.74
475.48	6188.38
475.66	6305.40
475.84	6359.24
476.02	6272.64
476.20	6174.33
476.38	6429.45
476.56	6544.14
476.74	6532.44
476.92	6527.75
477.10	6537.12
477.28	6724.36
477.46	6588.61
477.64	6511.37
477.82	6651.80
478.00	6761.81
478.18	6834.36
478.36	6883.52
478.54	6932.67
478.72	7012.24
478.90	6904.58
479.08	7030.97
479.26	7054.37
479.44	7148.00
479.62	7250.98
479.80	7225.23
479.98	7316.51
480.16	7314.17
480.34	7398.43
480.52	7360.98
480.70	7459.29
480.88	7461.63
481.06	7508.44
481.24	7639.51
481.41	7566.95
481.59	7744.83
481.77	7674.62
481.95	7864.20
482.13	7833.77
482.31	7723.77
482.49	7953.14
482.67	7967.18
482.85	7934.42
483.03	8163.79
483.21	8203.58
483.39	8100.59
483.57	8159.11
483.74	8348.69
483.92	8341.67
484.10	8411.89
484.28	8559.34
484.46	8535.93
484.64	8961.91
484.82	8601.47
485.00	8678.71
485.18	8720.84
485.35	9004.04
485.53	9053.19
485.71	8964.25
485.89	9191.28
486.07	9186.60
486.25	9273.20
486.43	9275.54
486.61	9341.08
486.78	9500.23
486.96	9528.32
487.14	9565.77
487.32	9528.32
487.50	9717.90
487.68	9706.20
487.85	9853.66
488.03	9872.38
488.21	10178.99
488.39	10214.10
488.57	10169.63
488.75	10258.57
488.92	10106.43
489.10	10235.16
489.28	10345.17
489.46	10511.35
489.64	10548.79
489.81	10691.57
489.99	10799.23
490.17	10743.06
490.35	11103.50
490.53	11103.50
490.70	10993.50
490.88	10937.32
491.06	11164.36
491.24	10923.28
491.41	11185.42
491.59	11300.11
491.77	11239.25
491.95	11468.62
492.13	11339.90
492.30	11398.41
492.48	11391.39
492.66	11639.48
492.84	11740.13
493.01	11587.99
493.19	11660.55
493.37	11882.90
493.54	11913.33
493.72	12063.12
493.90	11878.22
494.08	12091.21
494.25	12060.78
494.43	12210.57
494.61	12182.49
494.79	12304.20
494.96	12248.02
495.14	12631.87
495.32	12575.70
495.49	12746.56
495.67	12746.56
495.85	12713.79
496.02	12837.84
496.20	12924.44
496.38	13048.49
496.55	12828.48
496.73	13357.44
496.91	13202.96
497.09	13448.72
497.26	13177.22
497.44	13139.77
497.62	13369.14
497.79	13516.59
497.97	13556.38
498.14	13607.87
498.32	13879.38
498.50	13640.64
498.67	13825.54
498.85	13788.10
499.03	13715.54
499.20	14010.45
499.38	13977.68
499.56	14129.81
499.73	14083.00
499.91	14139.18
500.08	14310.04
500.26	14047.90
500.44	14504.30
500.61	14445.79
500.79	14434.08
500.97	14455.15
501.14	14300.67
501.32	14633.03
501.49	14457.49
501.67	14438.76
501.84	14618.99
502.02	14949.00
502.20	14934.96
502.37	14782.82
502.55	14853.04
502.72	14703.25
502.90	14836.66
503.07	14792.19
503.25	14960.70
503.43	14956.02
503.60	15370.30
503.78	15190.08
503.95	15243.91
504.13	15307.10
504.30	15232.21
504.48	15414.77
504.65	15365.62
504.83	15421.79
505.01	15829.04
505.18	15499.03
505.36	15807.98
505.53	15606.69
505.71	15625.42
505.88	15714.36
506.06	15946.07
506.23	15807.98
506.41	15791.59
506.58	15768.19
506.76	15789.25
506.93	15985.86
507.11	16002.24
507.28	16231.62
507.46	15815.00
507.63	16439.92
507.81	16152.04
507.98	15889.90
508.16	16053.73
508.33	16222.25
508.50	16395.45
508.68	16531.20
508.85	16379.07
509.03	16549.93
509.20	16329.92
509.38	16727.81
509.55	16636.53
509.73	16554.61
509.90	17083.57
510.08	16683.34
510.25	16830.79
510.42	17006.33
510.60	16957.18
510.77	16608.44
510.95	17172.51
511.12	17083.57
511.30	17130.38
511.47	17343.37
511.64	17245.07
511.82	17355.07
511.99	17343.37
512.17	17518.91
512.34	17429.97
512.51	17542.32
512.69	17635.94
512.86	17722.54
513.04	17610.19
513.21	17722.54
513.38	17666.36
513.56	17563.38
513.73	17687.43
513.90	17827.86
514.08	17802.11
514.25	18230.43
514.43	18059.57
514.60	18122.77
514.77	17991.70
514.95	18104.04
515.12	18012.76
515.29	18167.24
515.47	18391.93
515.64	18415.34
515.81	18368.52
515.99	18363.84
516.16	18410.65
516.33	18633.00
516.51	18661.09
516.68	18824.93
516.85	18478.53
517.03	18647.05
517.20	18520.66
517.37	18427.04
517.54	18672.79
517.72	18782.80
517.89	18590.88
518.06	19119.84
518.24	18853.02
518.41	19129.20
518.58	18845.99
518.75	18775.78
518.93	18883.44
519.10	19058.98
519.27	18869.40
519.45	19124.52
519.62	18869.40
519.79	19019.19
519.96	19283.67
520.14	19190.05
520.31	19030.90
520.48	19323.46
520.65	19271.97
520.83	19477.94
521.00	19662.84
521.17	19489.64
521.34	19328.14
521.52	19428.79
521.69	19517.73
521.86	19501.34
522.03	19683.91
522.20	19885.19
522.38	19871.15
522.55	19817.32
522.72	19861.79
522.89	19798.59
523.07	19861.79
523.24	19686.25
523.41	19786.89
523.58	19609.01
523.75	20135.63
523.92	20093.50
524.10	20262.02
524.27	20137.97
524.44	20025.62
524.61	20233.93
524.78	20226.91
524.96	20140.31
525.13	20416.49
525.30	20304.15
525.47	20760.55
525.64	20563.95
525.81	20135.63
525.98	20559.27
526.16	20538.20
526.33	20229.25
526.50	20650.55
526.67	20732.47
526.84	20643.52
527.01	20589.69
527.18	20636.50
527.36	20755.87
527.53	20975.88
527.70	20798.00
527.87	20891.62
528.04	21193.55
528.21	21109.29
528.38	20828.43
528.55	20954.82
528.72	20989.92
528.89	21212.28
529.07	20999.29
529.24	20734.81
529.41	20823.75
529.58	21069.50
529.75	21427.60
529.92	21280.15
530.09	21376.11
530.26	21167.80
530.43	21390.16
530.60	21062.48
530.77	21329.30
530.94	21425.26
531.11	21289.51
531.28	21420.58
531.46	21383.13
531.63	21406.54
531.80	21586.76
531.97	21710.81
532.14	21537.61
532.31	21551.65
532.48	21762.30
532.65	21813.79
532.82	21724.85
532.99	21942.52
533.16	21682.72
533.33	21811.45
533.50	21565.70
533.67	22036.14
533.84	21626.55
534.01	22059.55
534.18	21858.26
534.35	22260.84
534.52	22132.11
534.69	22120.40
534.86	21865.28
535.03	22024.44
535.20	22026.78
535.37	22216.36
535.54	22349.78
535.71	22127.42
535.88	22094.66
536.05	22387.22
536.22	22319.35
536.38	22267.86
536.55	22387.22
536.72	22199.98
536.89	22555.74
537.06	22412.97
537.23	22635.32
537.40	22824.90
537.57	22696.17
537.74	22625.96
537.91	22579.15
538.08	22515.95
538.25	22698.52
538.42	22930.23
538.59	22904.48
538.75	22654.05
538.92	22551.06
539.09	22986.40
539.26	22958.31
539.43	22864.69
539.60	23161.94
539.77	23143.22
539.94	22771.07
540.11	23199.39
540.28	23435.78
540.44	22948.95
540.61	23040.23
540.78	23290.67
540.95	23407.70
541.12	23288.33
541.29	23821.97
541.46	23590.26
541.62	23702.61
541.79	24088.79
541.96	23470.89
542.13	23861.76
542.30	23601.96
542.47	23730.69
542.63	23524.72
542.80	23674.52
542.97	24245.61
543.14	24240.93
543.31	23770.48
543.48	23903.89
543.64	24020.92
543.81	24088.79
543.98	23962.40
544.15	24027.94
544.32	24063.05
544.48	24135.60
544.65	24109.86
544.82	24290.08
544.99	24273.70
545.16	24144.97
545.32	24088.79
545.49	24493.71
545.66	25479.07
545.83	25296.51
546.00	25048.41
546.16	25029.69
546.33	24680.95
546.50	24496.05
546.67	24704.35
546.83	24044.32
547.00	24367.32
547.17	24250.29
547.34	24372.00
547.50	24592.01
547.67	24814.36
547.84	24231.57
548.00	24393.06
548.17	24823.72
548.34	24582.65
548.51	24458.60
548.67	24505.41
548.84	24271.36
549.01	24643.50
549.18	24430.51
549.34	24821.38
549.51	24610.73
549.68	24657.54
549.84	24498.39
550.01	24575.62
550.18	24559.24
550.34	24528.81
550.51	24685.63
550.68	24725.42
550.84	24402.43
551.01	24762.87
551.18	24617.75
551.34	24606.05
551.51	24638.82
551.68	24673.93
551.84	24795.64
552.01	24460.94
552.18	24807.34
552.34	24470.30
552.51	24823.72
552.68	24856.49
552.84	24760.53
553.01	24819.04
553.18	24694.99
553.34	24800.32
553.51	25055.43
553.67	24847.13
553.84	25317.57
554.01	25177.14
554.17	24994.58
554.34	25048.41
554.51	24966.49
554.67	25137.35
554.84	24973.52
555.00	24774.57
555.17	24664.57
555.33	24781.59
555.50	24872.87
555.67	24985.22
555.83	25130.33
556.00	24907.98
556.16	25127.99
556.33	25399.49
556.50	25099.90
556.66	25090.54
556.83	25296.51
556.99	24982.88
557.16	25439.28
557.32	25582.06
557.49	25336.30
557.65	25268.42
557.82	25081.18
557.98	25149.06
558.15	25078.84
558.32	25673.34
558.48	25223.95
558.65	25649.93
558.81	25408.86
558.98	25191.19
559.14	25394.81
559.31	25369.07
559.47	25933.14
559.64	25338.64
559.80	25523.54
559.97	25797.38
560.13	25212.25
560.30	25465.03
560.46	25465.03
560.63	25355.02
560.79	25734.19
560.96	25802.07
561.12	25582.06
561.29	25465.03
561.45	25605.46
561.61	25720.15
561.78	25427.58
561.94	25605.46
562.11	25715.47
562.27	25741.21
562.44	25572.69
562.60	25544.61
562.77	25441.62
562.93	25504.82
563.10	26036.12
563.26	25539.93
563.42	25642.91
563.59	25926.11
563.75	25654.61
563.92	25876.96
564.08	25413.54
564.24	25926.11
564.41	25628.87
564.57	25759.94
564.74	25511.84
564.90	25970.58
565.07	25762.28
565.23	25813.77
565.39	25961.22
565.56	25841.85
565.72	25792.70
565.88	25926.11
566.05	25837.17
566.21	25682.70
566.38	25682.70
566.54	25687.38
566.70	25879.30
566.87	26321.66
567.03	25729.51
567.19	26134.42
567.36	25755.26
567.52	25701.42
567.68	26019.74
567.85	25694.40
568.01	26064.21
568.17	25607.80
568.34	25989.31
568.50	26223.36
568.66	26099.31
568.83	25603.12
568.99	25991.65
569.15	25610.14
569.32	25851.22
569.48	25413.54
569.64	26181.23
569.81	25900.37
569.97	25869.94
570.13	25692.06
570.30	25736.53
570.46	26312.30
570.62	25979.95
570.78	25886.32
570.95	25986.97
571.11	26342.73
571.27	26162.51
571.43	26314.64
571.60	26373.16
571.76	26225.70
571.92	26148.46
572.09	26080.59
572.25	26057.18
572.41	25942.50
572.57	26230.38
572.74	26375.50
572.90	26038.46
573.06	25872.28
573.22	26232.72
573.38	26064.21
573.55	26434.01
573.71	26108.68
573.87	26305.28
574.03	26188.25
574.20	26632.96
574.36	26106.34
574.52	26089.95
574.68	26019.74
574.84	26178.89
575.01	26445.71
575.17	26010.37
575.33	26462.10
575.49	26384.86
575.65	26274.85
575.82	26089.95
575.98	26218.68
576.14	26635.30
576.30	26347.41
576.46	26459.76
576.62	26412.95
576.79	26560.40
576.95	26302.94
577.11	26382.52
577.27	26286.56
577.43	26506.57
577.59	26469.12
577.75	26054.84
577.92	26532.31
578.08	26050.16
578.24	26251.45
578.40	26422.31
578.56	26478.48
578.72	26452.73
578.88	26408.26
579.04	26199.96
579.21	26300.60
579.37	26408.26
579.53	26682.11
579.69	26478.48
579.85	26103.99
580.01	26480.82
580.17	26682.11
580.33	26331.03
580.49	26520.61
580.65	26728.92
580.82	26214.00
580.98	26331.03
581.14	26284.22
581.30	26843.60
581.46	26096.97
581.62	26405.92
581.78	26305.28
581.94	26204.64
582.10	26120.38
582.26	26391.88
582.42	26274.85
582.58	26232.72
582.74	26518.27
582.90	26204.64
583.06	26562.74
583.22	26286.56
583.38	26525.29
583.54	26136.76
583.70	26448.05
583.86	26569.76
584.02	26452.73
584.18	26733.60
584.34	26656.36
584.50	26349.75
584.66	26008.03
584.82	26380.18
584.98	26518.27
585.14	26462.10
585.30	26408.26
585.46	26312.30
585.62	26558.06
585.78	26719.56
585.94	26265.49
586.10	26532.31
586.26	26609.55
586.42	26794.45
586.58	26492.52
586.74	26197.62
586.90	26782.75
587.06	26689.13
587.22	26899.78
587.38	26302.94
587.54	26398.90
587.70	26946.59
587.86	26967.65
588.02	26281.88
588.18	26419.97
588.34	26703.17
588.49	26745.30
588.65	26394.22
588.81	26094.63
588.97	26658.70
589.13	26675.09
589.29	26602.53
589.45	26576.78
589.61	26614.23
589.77	27122.13
589.93	26614.23
590.08	26721.90
590.24	26539.33
590.40	26536.99
590.56	26937.23
590.72	26480.82
