SpectraSuite Data File
++++++++++++++++++++++++++++++++++++
Date: Thu Oct 24 13:21:12 EDT 2013
User: stostad
Dark Spectrum Present: No
Reference Spectrum Present: No
Number of Sampled Component Spectra: 1
Spectrometers: USB2+H05261
Integration Time (usec): 100000 (USB2+H05261)
Spectra Averaged: 1 (USB2+H05261)
Boxcar Smoothing: 0 (USB2+H05261)
Correct for Electrical Dark: No (USB2+H05261)
Strobe/Lamp Enabled: No (USB2+H05261)
Correct for Detector Non-linearity: No (USB2+H05261)
Correct for Stray Light: No (USB2+H05261)
Number of Pixels in Processed Spectrum: 2048
>>>>>Begin Processed Spectral Data<<<<<
365.73	566.41
365.92	566.41
366.12	566.41
366.32	507.90
366.52	496.19
366.72	493.85
366.91	411.93
367.11	489.17
367.31	418.96
367.51	397.89
367.70	477.47
367.90	489.17
368.10	430.66
368.30	489.17
368.49	472.79
368.69	482.15
368.89	395.55
369.09	425.98
369.28	472.79
369.48	519.60
369.68	517.26
369.87	580.45
370.07	585.13
370.27	594.50
370.47	528.96
370.66	734.93
370.86	676.41
371.06	678.76
371.25	732.59
371.45	748.97
371.65	655.35
371.84	631.94
372.04	812.17
372.24	795.78
372.44	744.29
372.63	730.25
372.83	791.10
373.03	784.08
373.22	753.65
373.42	760.67
373.62	835.57
373.81	816.85
374.01	809.83
374.21	741.95
374.40	741.95
374.60	828.55
374.79	851.96
374.99	826.21
375.19	863.66
375.38	828.55
375.58	833.23
375.78	755.99
375.97	760.67
376.17	849.61
376.37	786.42
376.56	847.27
376.76	814.51
376.95	798.12
377.15	774.72
377.35	812.17
377.54	807.48
377.74	800.46
377.93	814.51
378.13	917.49
378.33	798.12
378.52	798.12
378.72	903.45
378.91	823.87
379.11	748.97
379.31	842.59
379.50	774.72
379.70	870.68
379.89	882.38
380.09	788.76
380.28	828.55
380.48	880.04
380.68	894.08
380.87	809.83
381.07	786.42
381.26	901.11
381.46	840.25
381.65	816.85
381.85	943.24
382.04	915.15
382.24	908.13
382.43	917.49
382.63	849.61
382.83	835.57
383.02	915.15
383.22	938.55
383.41	938.55
383.61	833.23
383.80	908.13
384.00	926.85
384.19	877.70
384.39	837.91
384.58	929.19
384.78	910.47
384.97	856.64
385.17	861.32
385.36	884.72
385.56	931.53
385.75	901.11
385.95	884.72
386.14	950.26
386.34	922.17
386.53	910.47
386.72	1001.75
386.92	950.26
387.11	894.08
387.31	917.49
387.50	847.27
387.70	856.64
387.89	952.60
388.09	933.87
388.28	947.92
388.48	901.11
388.67	926.85
388.86	1001.75
389.06	936.21
389.25	987.71
389.45	957.28
389.64	978.34
389.84	973.66
390.03	992.39
390.22	957.28
390.42	915.15
390.61	1004.09
390.81	973.66
391.00	1029.84
391.19	990.05
391.39	980.68
391.58	966.64
391.78	936.21
391.97	1076.65
392.16	992.39
392.36	1046.22
392.55	1107.07
392.75	1036.86
392.94	1015.79
393.13	1050.90
393.33	1046.22
393.52	1025.15
393.71	1071.97
393.91	1057.92
394.10	1139.84
394.29	1128.14
394.49	1107.07
394.68	1137.50
394.88	1069.62
395.07	1123.46
395.26	1013.45
395.46	1088.35
395.65	1130.48
395.84	1130.48
396.04	1198.35
396.23	1165.59
396.42	1224.10
396.62	1100.05
396.81	1114.10
397.00	1233.46
397.19	1102.39
397.39	1060.26
397.58	1146.86
397.77	1132.82
397.97	1149.20
398.16	1151.54
398.35	1116.44
398.55	1137.50
398.74	1231.12
398.93	1184.31
399.12	1142.18
399.32	1146.86
399.51	1186.65
399.70	1118.78
399.90	1188.99
400.09	1291.98
400.28	1210.06
400.47	1205.38
400.67	1240.48
400.86	1329.42
401.05	1240.48
401.24	1273.25
401.44	1266.23
401.63	1238.14
401.82	1240.48
402.01	1291.98
402.21	1261.55
402.40	1373.89
402.59	1231.12
402.78	1273.25
402.97	1266.23
403.17	1329.42
403.36	1238.14
403.55	1385.60
403.74	1380.92
403.93	1376.24
404.13	1425.39
404.32	1451.13
404.51	1352.83
404.70	1481.56
404.89	1441.77
405.09	1366.87
405.28	1416.02
405.47	1376.24
405.66	1394.96
405.85	1441.77
406.05	1380.92
406.24	1462.83
406.43	1460.49
406.62	1514.33
406.81	1483.90
407.00	1453.47
407.20	1425.39
407.39	1486.24
407.58	1570.50
407.77	1619.65
407.96	1558.80
408.15	1472.20
408.34	1551.78
408.54	1502.62
408.73	1589.22
408.92	1537.73
409.11	1666.46
409.30	1675.82
409.49	1570.50
409.68	1570.50
409.87	1547.09
410.07	1722.63
410.26	1502.62
410.45	1661.78
410.64	1668.80
410.83	1713.27
411.02	1600.93
411.21	1647.74
411.40	1664.12
411.59	1720.29
411.78	1713.27
411.98	1788.17
412.17	1673.48
412.36	1748.38
412.55	1757.74
412.74	1783.49
412.93	1830.30
413.12	1802.21
413.31	1842.00
413.50	1811.57
413.69	1849.02
413.88	1888.81
414.07	1846.68
414.26	1781.15
414.45	1935.62
414.64	1949.67
414.83	1987.11
415.02	1907.54
415.22	1968.39
415.41	1977.75
415.60	1930.94
415.79	1935.62
415.98	2036.27
416.17	2038.61
416.36	2045.63
416.55	2040.95
416.74	2033.93
416.93	2015.20
417.12	2090.10
417.31	2003.50
417.50	2036.27
417.69	2120.53
417.88	2169.68
418.07	2148.61
418.26	2242.23
418.45	2078.40
418.64	2209.47
418.83	2136.91
419.02	2200.10
419.21	2211.81
419.39	2235.21
419.58	2190.74
419.77	2190.74
419.96	2237.55
420.15	2216.49
420.34	2326.49
420.53	2277.34
420.72	2267.98
420.91	2235.21
421.10	2293.72
421.29	2275.00
421.48	2197.76
421.67	2277.34
421.86	2324.15
422.05	2366.28
422.24	2352.24
422.43	2312.45
422.61	2249.25
422.80	2387.35
422.99	2251.60
423.18	2303.09
423.37	2424.80
423.56	2324.15
423.75	2314.79
423.94	2417.77
424.13	2256.28
424.32	2303.09
424.50	2413.09
424.69	2492.67
424.88	2483.31
425.07	2359.26
425.26	2305.43
425.45	2408.41
425.64	2352.24
425.83	2317.13
426.01	2356.92
426.20	2345.22
426.39	2438.84
426.58	2300.75
426.77	2406.07
426.96	2448.20
427.15	2289.04
427.33	2490.33
427.52	2466.92
427.71	2464.58
427.90	2438.84
428.09	2429.48
428.28	2497.35
428.46	2511.39
428.65	2485.65
428.84	2518.42
429.03	2609.70
429.22	2523.10
429.40	2593.31
429.59	2576.93
429.78	2457.56
429.97	2417.77
430.16	2605.02
430.34	2523.10
430.53	2609.70
430.72	2609.70
430.91	2647.15
431.10	2551.18
431.28	2593.31
431.47	2672.89
431.66	2562.89
431.85	2703.32
432.03	2560.55
432.22	2801.62
432.41	2640.12
432.60	2731.41
432.79	2691.62
432.97	2745.45
433.16	2715.02
433.35	2696.30
433.54	2757.15
433.72	2696.30
433.91	2775.88
434.10	2834.39
434.28	2832.05
434.47	2810.98
434.66	2839.07
434.85	2864.82
435.03	3042.70
435.22	3000.57
435.41	3288.45
435.59	3307.18
435.78	3122.27
435.97	3061.42
436.16	3096.53
436.34	2949.08
436.53	2895.24
436.72	2974.82
436.90	2946.73
437.09	3112.91
437.28	2836.73
437.46	2949.08
437.65	3066.10
437.84	3082.49
438.02	3080.14
438.21	2974.82
438.40	2869.50
438.58	3145.68
438.77	3192.49
438.96	3119.93
439.14	3173.77
439.33	3197.17
439.52	3194.83
439.70	3110.57
439.89	3148.02
440.08	3295.47
440.26	3255.69
440.45	3255.69
440.63	3218.24
440.82	3370.37
441.01	3309.52
441.19	3316.54
441.38	3293.13
441.57	3283.77
441.75	3389.10
441.94	3370.37
442.12	3487.40
442.31	3445.27
442.50	3335.26
442.68	3480.38
442.87	3548.25
443.05	3597.40
443.24	3506.12
443.43	3548.25
443.61	3564.64
443.80	3583.36
443.98	3571.66
444.17	3447.61
444.35	3536.55
444.54	3468.67
444.73	3613.79
444.91	3543.57
445.10	3623.15
445.28	3646.55
445.47	3545.91
445.65	3499.10
445.84	3522.51
446.02	3698.05
446.21	3557.61
446.39	3632.51
446.58	3555.27
446.77	3751.88
446.95	3548.25
447.14	3700.39
447.32	3648.90
447.51	3716.77
447.69	3562.30
447.88	3700.39
448.06	3559.95
448.25	3520.17
448.43	3639.53
448.62	3564.64
448.80	3590.38
448.99	3777.62
449.17	3775.28
449.36	3639.53
449.54	3772.94
449.73	3709.75
449.91	3875.93
450.10	3779.97
450.28	3957.85
450.46	3829.12
450.65	3922.74
450.83	3822.09
451.02	3978.91
451.20	3761.24
451.39	3808.05
451.57	3896.99
451.76	3817.41
451.94	3878.27
452.13	3932.10
452.31	3918.06
452.49	3873.59
452.68	3962.53
452.86	3939.12
453.05	3946.14
453.23	4014.02
453.42	3936.78
453.60	4011.68
453.78	4070.19
453.97	3894.65
454.15	3974.23
454.34	4035.08
454.52	4091.26
454.70	4140.41
454.89	4009.34
455.07	3960.19
455.26	4198.92
455.44	4126.36
455.62	4037.42
455.81	4189.56
455.99	4194.24
456.17	4184.88
456.36	4117.00
456.54	4109.98
456.73	4175.52
456.91	4262.12
457.09	4262.12
457.28	4337.01
457.46	4332.33
457.64	4358.08
457.83	4367.44
458.01	4257.43
458.19	4533.62
458.38	4348.72
458.56	4339.35
458.74	4414.25
458.93	4308.93
459.11	4407.23
459.29	4362.76
459.48	4400.21
459.66	4386.16
459.84	4404.89
460.03	4465.74
460.21	4432.97
460.39	4477.44
460.57	4535.96
460.76	4601.49
460.94	4458.72
461.12	4599.15
461.31	4603.83
461.49	4550.00
461.67	4505.53
461.85	4702.14
462.04	4641.28
462.22	4975.98
462.40	4564.04
462.59	4713.84
462.77	4671.71
462.95	4758.31
463.13	4800.44
463.32	4805.12
463.50	4858.95
463.68	4830.87
463.86	4884.70
464.05	4779.37
464.23	4781.71
464.41	4861.29
464.59	4844.91
464.78	4781.71
464.96	4847.25
465.14	4800.44
465.32	4861.29
465.50	4954.91
465.69	5036.83
465.87	4865.97
466.05	4858.95
466.23	4945.55
466.41	4919.81
466.60	5034.49
466.78	4784.06
466.96	5046.20
467.14	4840.23
467.32	4861.29
467.51	5046.20
467.69	4971.30
467.87	4968.96
468.05	5083.64
468.23	4933.85
468.41	5057.90
468.60	5036.83
468.78	5165.56
468.96	5093.01
469.14	5095.35
469.32	5226.42
469.50	5025.13
469.69	5191.31
469.87	5210.03
470.05	5198.33
470.23	5373.87
470.41	5069.60
470.59	5273.23
470.77	5226.42
470.95	5275.57
471.14	5268.55
471.32	5114.07
471.50	5334.08
471.68	5350.46
471.86	5327.06
472.04	5518.98
472.22	5636.01
472.40	5500.26
472.58	5430.04
472.77	5537.71
472.95	5521.32
473.13	5785.80
473.31	5474.51
473.49	5689.84
473.67	5575.16
473.85	5673.46
474.03	5643.03
474.21	5720.27
474.39	5724.95
474.57	5720.27
474.75	5802.19
474.93	5881.77
475.12	5998.79
475.30	6001.13
475.48	5865.38
475.66	5788.14
475.84	5980.07
476.02	6040.92
476.20	6064.33
476.38	6040.92
476.56	6296.04
476.74	6120.50
476.92	6181.35
477.10	6104.12
477.28	6164.97
477.46	6150.93
477.64	6190.72
477.82	6345.19
478.00	6583.93
478.18	6466.90
478.36	6682.23
478.54	6604.99
478.72	6726.70
478.90	6670.53
479.08	6602.65
479.26	6874.15
479.44	6724.36
479.62	6874.15
479.80	6775.85
479.98	6984.16
480.16	7101.19
480.34	7054.37
480.52	6899.90
480.70	7035.65
480.88	7059.06
481.06	7005.22
481.24	7096.50
481.41	7339.92
481.59	7412.48
481.77	7424.18
481.95	7468.65
482.13	7672.28
482.31	7602.06
482.49	7784.62
482.67	7578.65
482.85	7705.04
483.03	7915.69
483.21	7730.79
483.39	7868.88
483.57	8023.36
483.74	7880.58
483.92	8198.90
484.10	7978.89
484.28	8273.79
484.46	8381.46
484.64	8456.36
484.82	8088.89
485.00	8311.24
485.18	8601.47
485.35	8617.85
485.53	8561.68
485.71	8531.25
485.89	8697.43
486.07	8755.94
486.25	9144.47
486.43	8980.64
486.61	8912.76
486.78	8894.04
486.96	8997.02
487.14	9242.78
487.32	9092.98
487.50	9212.35
487.68	9355.12
487.85	9490.87
488.03	9525.98
488.21	9593.86
488.39	9378.53
488.57	9680.46
488.75	9666.41
488.92	9678.12
489.10	9888.76
489.28	9963.66
489.46	10036.22
489.64	10036.22
489.81	10153.24
489.99	10176.65
490.17	10431.77
490.35	10298.36
490.53	10347.51
490.70	10534.75
490.88	10387.30
491.06	10586.24
491.24	10396.66
491.41	10537.09
491.59	10677.52
491.77	10689.23
491.95	10588.58
492.13	10888.17
492.30	11014.56
492.48	11138.61
492.66	10946.69
492.84	11087.12
493.01	11098.82
493.19	10963.07
493.37	11103.50
493.54	11363.30
493.72	11398.41
493.90	11440.54
494.08	11515.44
494.25	11630.12
494.43	11541.18
494.61	11754.17
494.79	11878.22
494.96	12039.72
495.14	11749.49
495.32	12060.78
495.49	12140.36
495.67	12327.60
495.85	12159.08
496.02	12074.82
496.20	12294.83
496.38	12285.47
496.55	12264.41
496.73	12681.02
496.91	12554.63
497.09	12549.95
497.26	12594.42
497.44	12788.69
497.62	12573.36
497.79	12767.62
497.97	12779.32
498.14	12786.35
498.32	13135.09
498.50	12961.89
498.67	13011.04
498.85	13118.70
499.03	13074.23
499.20	13247.43
499.38	13242.75
499.56	13341.05
499.73	13121.04
499.91	13329.35
500.08	13542.34
500.26	13453.40
500.44	13617.24
500.61	13305.95
500.79	13497.87
500.97	13783.41
501.14	14001.08
501.32	13778.73
501.49	13839.59
501.67	13872.36
501.84	13940.23
502.02	13951.93
502.20	14150.88
502.37	14045.55
502.55	13923.85
502.72	14101.73
502.90	14146.20
503.07	13907.46
503.25	14083.00
503.43	14239.82
503.60	14518.34
503.78	14204.71
503.95	14162.58
504.13	14434.08
504.30	14492.60
504.48	14780.48
504.65	14523.02
504.83	14551.11
505.01	14874.10
505.18	14787.50
505.36	14867.08
505.53	14363.87
505.71	14815.59
505.88	15040.28
506.06	14817.93
506.23	14876.44
506.41	15208.80
506.58	14813.25
506.76	14965.39
506.93	15279.02
507.11	15140.93
507.28	15370.30
507.46	15365.62
507.63	15286.04
507.81	15213.48
507.98	15367.96
508.16	15236.89
508.33	15585.63
508.50	15552.86
508.68	15775.21
508.85	15641.80
509.03	15466.26
509.20	15611.37
509.38	15915.64
509.55	15920.32
509.73	16233.96
509.90	15976.50
510.08	15922.66
510.25	16016.29
510.42	16086.50
510.60	16060.76
510.77	16053.73
510.95	16393.11
511.12	16229.27
511.30	16353.32
511.47	16236.30
511.64	16360.34
511.82	16563.97
511.99	16376.73
512.17	16570.99
512.34	16458.65
512.51	16720.79
512.69	16695.04
512.86	16622.48
513.04	16861.22
513.21	16760.58
513.38	16959.52
513.56	16547.59
513.73	16884.62
513.90	17383.16
514.08	16919.73
514.25	16947.82
514.43	17057.82
514.60	17050.80
514.77	17202.94
514.95	17221.66
515.12	16805.05
515.29	17083.57
515.47	17249.75
515.64	17537.63
515.81	17270.81
515.99	17535.29
516.16	17462.74
516.33	17385.50
516.51	17387.84
516.68	17521.25
516.85	17476.78
517.03	17858.29
517.20	17504.87
517.37	17525.93
517.54	17600.83
517.72	17493.16
517.89	17710.83
518.06	17539.97
518.24	17940.21
518.41	17795.09
518.58	17998.72
518.75	17977.65
518.93	17867.65
519.10	18061.91
519.27	18256.18
519.45	18064.25
519.62	18244.48
519.79	18090.00
519.96	17853.61
520.14	18260.86
520.31	18019.78
520.48	18099.36
520.65	18565.13
520.83	18368.52
521.00	18590.88
521.17	18214.05
521.34	18462.15
521.52	18415.34
521.69	18597.90
521.86	18640.03
522.03	18572.15
522.20	18881.10
522.38	19073.03
522.55	18806.20
522.72	18649.39
522.89	18712.58
523.07	18869.40
523.24	18850.67
523.41	18717.26
523.58	18869.40
523.75	19105.79
523.92	19044.94
524.10	18925.57
524.27	19173.67
524.44	19227.50
524.61	19253.25
524.78	19138.56
524.96	18923.23
525.13	19150.26
525.30	19475.60
525.47	19550.49
525.64	19154.94
525.81	19403.04
525.98	19161.97
526.16	19517.73
526.33	19503.68
526.50	19262.61
526.67	19417.08
526.84	19672.20
527.01	19440.49
527.18	19353.89
527.36	19662.84
527.53	19836.04
527.70	19740.08
527.87	19702.63
528.04	19672.20
528.21	20060.73
528.38	19770.51
528.55	19812.63
528.72	19751.78
528.89	19676.88
529.07	19758.80
529.24	19843.06
529.41	20088.82
529.58	20374.36
529.75	20173.08
529.92	20205.84
530.09	20184.78
530.26	19880.51
530.43	20196.48
530.60	20299.47
530.77	20283.08
530.94	20180.10
531.11	20376.70
531.28	20556.93
531.46	20212.87
531.63	20280.74
531.80	20173.08
531.97	20603.74
532.14	20559.27
532.31	20491.39
532.48	20339.26
532.65	20713.74
532.82	20414.15
532.99	20549.90
533.16	20821.41
533.33	20800.34
533.50	20840.13
533.67	20711.40
533.84	20547.56
534.01	20805.02
534.18	20634.16
534.35	20931.41
534.52	20718.42
534.69	20982.90
534.86	20800.34
535.03	20613.10
535.20	20882.26
535.37	21085.89
535.54	21315.26
535.71	20961.84
535.88	21205.25
536.05	21235.68
536.22	21338.66
536.38	21415.90
536.55	21010.99
536.72	21249.72
536.89	21277.81
537.06	21355.05
537.23	21247.38
537.40	21357.39
537.57	21511.86
537.74	21193.55
537.91	21570.38
538.08	21537.61
538.25	21207.59
538.42	21399.52
538.59	21638.25
538.75	21219.30
538.92	21385.47
539.09	21682.72
539.26	21837.20
539.43	21635.91
539.60	21659.32
539.77	21825.50
539.94	22045.51
540.11	22223.39
540.28	21898.05
540.44	21738.90
540.61	22125.08
540.78	22265.52
540.95	21624.21
541.12	22218.71
541.29	22347.44
541.46	22466.80
541.62	22457.44
541.79	22478.50
541.96	22202.32
542.13	22171.89
542.30	22347.44
542.47	22508.93
542.63	22530.00
542.80	22771.07
542.97	22801.50
543.14	22920.87
543.31	22522.98
543.48	22640.00
543.64	23178.33
543.81	22951.29
543.98	23122.15
544.15	22808.52
544.32	22314.67
544.48	23159.60
544.65	22967.68
544.82	22979.38
544.99	22958.31
545.16	22934.91
545.32	22955.97
545.49	23321.10
545.66	23817.29
545.83	23889.85
546.00	24063.05
546.16	23517.70
546.33	23360.89
546.50	23304.71
546.67	23129.17
546.83	23194.71
547.00	23063.64
547.17	22946.61
547.34	22923.21
547.50	22981.72
547.67	23466.21
547.84	23323.44
548.00	23175.98
548.17	23250.88
548.34	23096.41
548.51	23042.57
548.67	23168.96
548.84	23236.84
549.01	22984.06
549.18	23531.75
549.34	23206.41
549.51	22920.87
549.68	23330.46
549.84	23044.91
550.01	23260.24
550.18	23199.39
550.34	22766.39
550.51	23290.67
550.68	23318.76
550.84	22794.48
551.01	23330.46
551.18	23295.35
551.34	23105.77
551.51	23234.50
551.68	23552.81
551.84	23302.37
552.01	23276.63
552.18	23304.71
552.34	23262.58
552.51	23763.46
552.68	23208.75
552.84	23660.48
553.01	23548.13
553.18	23459.19
553.34	23491.96
553.51	23559.83
553.67	23679.20
553.84	23594.94
554.01	23896.87
554.17	23828.99
554.34	23885.17
554.51	23718.99
554.67	23697.92
554.84	23679.20
555.00	23211.09
555.17	23491.96
555.33	23639.41
555.50	23562.17
555.67	23545.79
555.83	23683.88
556.00	23660.48
556.16	23955.38
556.33	23763.46
556.50	23812.61
556.66	23700.26
556.83	23702.61
556.99	23772.82
557.16	24020.92
557.32	24041.98
557.49	23828.99
557.65	23704.95
557.82	23889.85
557.98	23726.01
558.15	23728.35
558.32	23653.45
558.48	23510.68
558.65	23906.23
558.81	24133.26
558.98	24219.86
559.14	23990.49
559.31	24074.75
559.47	23814.95
559.64	23950.70
559.80	23721.33
559.97	24222.20
560.13	23943.68
560.30	23716.65
560.46	23688.56
560.63	24362.64
560.79	24133.26
560.96	24465.62
561.12	24254.97
561.29	23840.70
561.45	24168.37
561.61	24215.18
561.78	23761.12
561.94	24137.94
562.11	24393.06
562.27	24044.32
562.44	23810.27
562.60	24280.72
562.77	24208.16
562.93	24350.93
563.10	24226.89
563.26	24044.32
563.42	23943.68
563.59	24137.94
563.75	24056.03
563.92	24400.08
564.08	24364.98
564.24	24467.96
564.41	24210.50
564.57	24095.82
564.74	24217.52
564.90	24215.18
565.07	24318.17
565.23	24414.13
565.39	24755.85
565.56	24678.61
565.72	24376.68
565.88	24402.43
566.05	24367.32
566.21	24341.57
566.38	24322.85
566.54	24278.38
566.70	24592.01
566.87	24657.54
567.03	24439.87
567.19	24671.59
567.36	24222.20
567.52	24510.09
567.68	24144.97
567.85	24643.50
568.01	24512.43
568.17	24470.30
568.34	24374.34
568.50	24442.21
568.66	24329.87
568.83	24577.97
568.99	24493.71
569.15	24357.96
569.32	24765.21
569.48	24442.21
569.64	24596.69
569.81	24271.36
569.97	24355.61
570.13	24657.54
570.30	24716.06
570.46	24472.64
570.62	24339.23
570.78	24631.80
570.95	24114.54
571.11	24606.05
571.27	24357.96
571.43	24582.65
571.60	24599.03
571.76	24439.87
571.92	24517.11
572.09	24486.68
572.25	24781.59
572.41	24430.51
572.57	24372.00
572.74	24561.58
572.90	24538.18
573.06	24538.18
573.22	24613.07
573.38	24755.85
573.55	24687.97
573.71	24758.19
573.87	24760.53
574.03	24196.46
574.20	24786.27
574.36	24559.24
574.52	24395.40
574.68	24933.73
574.84	24603.71
575.01	24727.76
575.17	24634.14
575.33	24451.58
575.49	24524.13
575.65	24552.22
575.82	24819.04
575.98	24716.06
576.14	25284.81
576.30	24540.52
576.46	24790.95
576.62	24961.81
576.79	24863.51
576.95	24690.31
577.11	24790.95
577.27	24779.25
577.43	25010.96
577.59	24617.75
577.75	24938.41
577.92	24400.08
578.08	24606.05
578.24	24886.92
578.40	24985.22
578.56	25062.46
578.72	25015.65
578.88	25144.38
579.04	24973.52
579.21	24634.14
579.37	25008.62
579.53	24769.89
579.69	24765.21
579.85	25158.42
580.01	24915.00
580.17	24865.85
580.33	24851.81
580.49	25029.69
580.65	24978.20
580.82	24907.98
580.98	24769.89
581.14	24519.45
581.30	24964.15
581.46	24812.02
581.62	24517.11
581.78	24727.76
581.94	24978.20
582.10	24376.68
582.26	24617.75
582.42	24959.47
582.58	24542.86
582.74	24755.85
582.90	24893.94
583.06	24795.64
583.22	24898.62
583.38	25343.32
583.54	24980.54
583.70	25064.80
583.86	24865.85
584.02	24666.91
584.18	24917.34
584.34	24760.53
584.50	24727.76
584.66	24528.81
584.82	24641.16
584.98	24933.73
585.14	24924.36
585.30	24620.10
585.46	25069.48
585.62	24732.44
585.78	24666.91
585.94	24659.88
586.10	24786.27
586.26	25200.55
586.42	25039.05
586.58	25083.52
586.74	24945.43
586.90	25123.31
587.06	24767.55
587.22	24938.41
587.38	25120.97
587.54	25001.60
587.70	24975.86
587.86	25373.75
588.02	24629.46
588.18	25177.14
588.34	25102.25
588.49	24961.81
588.65	25041.39
588.81	24528.81
588.97	25032.03
589.13	24844.79
589.29	24973.52
589.45	24919.68
589.61	24868.19
589.77	25216.93
589.93	24994.58
590.08	25041.39
590.24	25127.99
590.40	24978.20
590.56	25345.66
590.72	24858.83
590.88	24535.84
