SpectraSuite Data File
++++++++++++++++++++++++++++++++++++
Date: Thu Oct 24 13:21:06 EDT 2013
User: stostad
Dark Spectrum Present: No
Reference Spectrum Present: No
Number of Sampled Component Spectra: 1
Spectrometers: USB2+H05261
Integration Time (usec): 100000 (USB2+H05261)
Spectra Averaged: 1 (USB2+H05261)
Boxcar Smoothing: 0 (USB2+H05261)
Correct for Electrical Dark: No (USB2+H05261)
Strobe/Lamp Enabled: No (USB2+H05261)
Correct for Detector Non-linearity: No (USB2+H05261)
Correct for Stray Light: No (USB2+H05261)
Number of Pixels in Processed Spectrum: 2048
>>>>>Begin Processed Spectral Data<<<<<
365.73	489.17
365.92	489.17
366.12	489.17
366.32	547.69
366.52	489.17
366.72	425.98
366.91	421.30
367.11	517.26
367.31	397.89
367.51	484.49
367.70	383.85
367.90	402.57
368.10	437.68
368.30	416.62
368.49	477.47
368.69	498.53
368.89	521.94
369.09	493.85
369.28	449.38
369.48	440.02
369.68	468.11
369.87	582.79
370.07	514.92
370.27	521.94
370.47	564.07
370.66	589.82
370.86	676.41
371.06	741.95
371.25	678.76
371.45	725.57
371.65	753.65
371.84	795.78
372.04	767.70
372.24	772.38
372.44	744.29
372.63	763.01
372.83	777.06
373.03	765.36
373.22	751.31
373.42	802.80
373.62	777.06
373.81	739.61
374.01	851.96
374.21	866.00
374.40	774.72
374.60	772.38
374.79	823.87
374.99	819.19
375.19	772.38
375.38	774.72
375.58	840.25
375.78	809.83
375.97	835.57
376.17	844.93
376.37	774.72
376.56	774.72
376.76	772.38
376.95	774.72
377.15	851.96
377.35	821.53
377.54	802.80
377.74	826.21
377.93	784.08
378.13	847.27
378.33	873.02
378.52	905.79
378.72	858.98
378.91	882.38
379.11	788.76
379.31	786.42
379.50	812.17
379.70	830.89
379.89	833.23
380.09	910.47
380.28	814.51
380.48	835.57
380.68	851.96
380.87	837.91
381.07	781.74
381.26	919.83
381.46	873.02
381.65	887.06
381.85	840.25
382.04	889.40
382.24	863.66
382.43	891.74
382.63	842.59
382.83	880.04
383.02	957.28
383.22	905.79
383.41	915.15
383.61	891.74
383.80	940.90
384.00	910.47
384.19	882.38
384.39	924.51
384.58	898.77
384.78	812.17
384.97	910.47
385.17	924.51
385.36	856.64
385.56	971.32
385.75	938.55
385.95	917.49
386.14	903.45
386.34	915.15
386.53	891.74
386.72	880.04
386.92	997.07
387.11	924.51
387.31	905.79
387.50	889.40
387.70	877.70
387.89	929.19
388.09	990.05
388.28	966.64
388.48	896.43
388.67	952.60
388.86	985.37
389.06	896.43
389.25	957.28
389.45	915.15
389.64	929.19
389.84	950.26
390.03	1006.43
390.22	952.60
390.42	940.90
390.61	943.24
390.81	980.68
391.00	976.00
391.19	1055.58
391.39	1071.97
391.58	931.53
391.78	1048.56
391.97	924.51
392.16	964.30
392.36	1055.58
392.55	940.90
392.75	1001.75
392.94	931.53
393.13	1039.20
393.33	1015.79
393.52	1064.94
393.71	1041.54
393.91	1036.86
394.10	1027.50
394.29	1029.84
394.49	1069.62
394.68	1060.26
394.88	994.73
395.07	1107.07
395.26	1029.84
395.46	1100.05
395.65	1078.99
395.84	1107.07
396.04	1074.31
396.23	1165.59
396.42	1090.69
396.62	1149.20
396.81	1130.48
397.00	1083.67
397.19	1132.82
397.39	1118.78
397.58	1198.35
397.77	1095.37
397.97	1100.05
398.16	1118.78
398.35	1160.91
398.55	1107.07
398.74	1214.74
398.93	1163.25
399.12	1139.84
399.32	1174.95
399.51	1165.59
399.70	1277.93
399.90	1181.97
400.09	1238.14
400.28	1306.02
400.47	1207.72
400.67	1217.08
400.86	1224.10
401.05	1284.95
401.24	1238.14
401.44	1261.55
401.63	1247.51
401.82	1249.85
402.01	1221.76
402.21	1270.91
402.40	1317.72
402.59	1249.85
402.78	1252.19
402.97	1352.83
403.17	1357.51
403.36	1291.98
403.55	1268.57
403.74	1252.19
403.93	1397.30
404.13	1357.51
404.32	1399.64
404.51	1329.42
404.70	1357.51
404.89	1245.16
405.09	1427.73
405.28	1350.49
405.47	1343.47
405.66	1338.79
405.85	1373.89
406.05	1401.98
406.24	1392.62
406.43	1458.15
406.62	1397.30
406.81	1413.68
407.00	1444.11
407.20	1418.36
407.39	1413.68
407.58	1453.47
407.77	1446.45
407.96	1416.02
408.15	1500.28
408.34	1519.01
408.54	1514.33
408.73	1561.14
408.92	1432.41
409.11	1493.26
409.30	1486.24
409.49	1467.52
409.68	1465.18
409.87	1488.58
410.07	1558.80
410.26	1629.01
410.45	1547.09
410.64	1523.69
410.83	1673.48
411.02	1554.12
411.21	1544.75
411.40	1607.95
411.59	1645.40
411.78	1549.43
411.98	1605.61
412.17	1605.61
412.36	1640.72
412.55	1694.55
412.74	1678.16
412.93	1643.06
413.12	1750.72
413.31	1696.89
413.50	1736.68
413.69	1666.46
413.88	1781.15
414.07	1792.85
414.26	1713.27
414.45	1739.02
414.64	1769.44
414.83	1804.55
415.02	1795.19
415.22	1832.64
415.41	1881.79
415.60	1842.00
415.79	1832.64
415.98	1867.75
416.17	1970.73
416.36	1895.83
416.55	1966.05
416.74	1959.03
416.93	1888.81
417.12	1853.70
417.31	1959.03
417.50	2031.58
417.69	2012.86
417.88	1984.77
418.07	2036.27
418.26	1952.01
418.45	1954.35
418.64	2083.08
418.83	2069.03
419.02	2092.44
419.21	2069.03
419.39	2050.31
419.58	2052.65
419.77	2071.37
419.96	2153.29
420.15	2104.14
420.34	2118.18
420.53	2052.65
420.72	2143.93
420.91	2050.31
421.10	2181.38
421.29	2324.15
421.48	2113.50
421.67	2267.98
421.86	2195.42
422.05	2150.95
422.24	2078.40
422.43	2202.44
422.61	2136.91
422.80	2253.94
422.99	2167.34
423.18	2258.62
423.37	2263.30
423.56	2303.09
423.75	2228.19
423.94	2270.32
424.13	2019.88
424.32	2146.27
424.50	2321.81
424.69	2300.75
424.88	2289.04
425.07	2263.30
425.26	2251.60
425.45	2286.70
425.64	2181.38
425.83	2181.38
426.01	2211.81
426.20	2237.55
426.39	2263.30
426.58	2291.38
426.77	2256.28
426.96	2291.38
427.15	2359.26
427.33	2251.60
427.52	2286.70
427.71	2349.90
427.90	2293.72
428.09	2300.75
428.28	2394.37
428.46	2356.92
428.65	2380.32
428.84	2480.97
429.03	2478.63
429.22	2373.30
429.40	2326.49
429.59	2473.95
429.78	2317.13
429.97	2282.02
430.16	2443.52
430.34	2396.71
430.53	2483.31
430.72	2569.91
430.91	2420.11
431.10	2417.77
431.28	2576.93
431.47	2478.63
431.66	2387.35
431.85	2509.05
432.03	2452.88
432.22	2649.49
432.41	2588.63
432.60	2588.63
432.79	2593.31
432.97	2576.93
433.16	2661.19
433.35	2616.72
433.54	2590.97
433.72	2640.12
433.91	2525.44
434.10	2677.57
434.28	2527.78
434.47	2605.02
434.66	2658.85
434.85	2670.55
435.03	2689.28
435.22	3038.02
435.41	3232.28
435.59	3091.85
435.78	2892.90
435.97	2906.95
436.16	2841.41
436.34	2813.32
436.53	2656.51
436.72	2761.83
436.90	2719.70
437.09	2846.09
437.28	2724.38
437.46	2827.37
437.65	2782.90
437.84	2932.69
438.02	2813.32
438.21	2757.15
438.40	2834.39
438.58	2895.24
438.77	3068.44
438.96	2958.44
439.14	3002.91
439.33	3000.57
439.52	2920.99
439.70	2984.18
439.89	2979.50
440.08	2951.42
440.26	2995.89
440.45	3054.40
440.63	3019.29
440.82	3016.95
441.01	3148.02
441.19	3028.65
441.38	3082.49
441.57	3103.55
441.75	3176.11
441.94	3290.79
442.12	3258.03
442.31	3213.56
442.50	3269.73
442.68	3169.09
442.87	3318.88
443.05	3115.25
443.24	3328.24
443.43	3173.77
443.61	3157.38
443.80	3349.31
443.98	3246.32
444.17	3218.24
444.35	3267.39
444.54	3328.24
444.73	3276.75
444.91	3260.37
445.10	3307.18
445.28	3300.16
445.47	3417.18
445.65	3389.10
445.84	3496.76
446.02	3426.54
446.21	3351.65
446.39	3260.37
446.58	3356.33
446.77	3438.25
446.95	3442.93
447.14	3353.99
447.32	3485.06
447.51	3272.07
447.69	3382.07
447.88	3382.07
448.06	3499.10
448.25	3410.16
448.43	3365.69
448.62	3421.86
448.80	3435.91
448.99	3414.84
449.17	3503.78
449.36	3342.28
449.54	3480.38
449.73	3531.87
449.91	3618.47
450.10	3473.36
450.28	3536.55
450.46	3590.38
450.65	3548.25
450.83	3576.34
451.02	3564.64
451.20	3723.79
451.39	3618.47
451.57	3749.54
451.76	3506.12
451.94	3662.94
452.13	3637.19
452.31	3627.83
452.49	3634.85
452.68	3569.32
452.86	3658.26
453.05	3721.45
453.23	3665.28
453.42	3698.05
453.60	3712.09
453.78	3707.41
453.97	3728.47
454.15	3660.60
454.34	3684.00
454.52	3763.58
454.70	3756.56
454.89	3796.35
455.07	3716.77
455.26	3786.99
455.44	3904.01
455.62	3777.62
455.81	3852.52
455.99	3911.04
456.17	3859.54
456.36	3878.27
456.54	3941.46
456.73	3981.25
456.91	4028.06
457.09	3906.35
457.28	4131.05
457.46	3962.53
457.64	4128.70
457.83	3885.29
458.01	3946.14
458.19	3983.59
458.38	3899.33
458.56	4149.77
458.74	4023.38
458.93	4170.83
459.11	4023.38
459.29	4100.62
459.48	4042.11
459.66	4152.11
459.84	4100.62
460.03	4208.28
460.21	4196.58
460.39	4278.50
460.57	4229.35
460.76	4280.84
460.94	4229.35
461.12	4311.27
461.31	4285.52
461.49	4210.62
461.67	4227.01
461.85	4271.48
462.04	4231.69
462.22	4650.64
462.40	4262.12
462.59	4320.63
462.77	4456.38
462.95	4542.98
463.13	4461.06
463.32	4447.02
463.50	4468.08
463.68	4498.51
463.86	4400.21
464.05	4351.06
464.23	4402.55
464.41	4463.40
464.59	4444.68
464.78	4550.00
464.96	4414.25
465.14	4411.91
465.32	4578.09
465.50	4648.30
465.69	4608.51
465.87	4587.45
466.05	4528.94
466.23	4643.62
466.41	4482.13
466.60	4643.62
466.78	4472.76
466.96	4634.26
467.14	4608.51
467.32	4781.71
467.51	4849.59
467.69	4425.95
467.87	4594.47
468.05	4634.26
468.23	4650.64
468.41	4638.94
468.60	4781.71
468.78	4753.63
468.96	4765.33
469.14	4744.27
469.32	4894.06
469.50	4791.08
469.69	4863.63
469.87	4814.48
470.05	4596.81
470.23	4835.55
470.41	4851.93
470.59	4891.72
470.77	4671.71
470.95	5071.94
471.14	5088.32
471.32	4903.42
471.50	4896.40
471.68	4975.98
471.86	4959.60
472.04	5015.77
472.22	5142.16
472.40	4957.25
472.58	5088.32
472.77	5125.77
472.95	5029.81
473.13	5275.57
473.31	5163.22
473.49	5053.22
473.67	5102.37
473.85	5305.99
474.03	5341.10
474.21	5301.31
474.39	5305.99
474.57	5289.61
474.75	5411.32
474.93	5514.30
475.12	5397.28
475.30	5479.19
475.48	5378.55
475.66	5432.38
475.84	5586.86
476.02	5523.66
476.20	5540.05
476.38	5544.73
476.56	5692.18
476.74	5774.10
476.92	5727.29
477.10	5701.54
477.28	5746.02
477.46	5717.93
477.64	5804.53
477.82	5802.19
478.00	5968.37
478.18	6040.92
478.36	6040.92
478.54	6106.46
478.72	6127.52
478.90	6228.17
479.08	6324.13
479.26	6331.15
479.44	6263.27
479.62	6260.93
479.80	6415.41
479.98	6356.90
480.16	6689.25
480.34	6548.82
480.52	6462.22
480.70	6506.69
480.88	6553.50
481.06	6494.99
481.24	6715.00
481.41	6792.23
481.59	6710.32
481.77	6911.60
481.95	6911.60
482.13	6932.67
482.31	6869.47
482.49	6920.96
482.67	6984.16
482.85	7220.55
483.03	7272.04
483.21	7311.83
483.39	7480.35
483.57	7438.22
483.74	7267.36
483.92	7438.22
484.10	7372.69
484.28	7557.59
484.46	7672.28
484.64	7770.58
484.82	7777.60
485.00	7742.49
485.18	7796.32
485.35	7918.03
485.53	7997.61
485.71	8074.85
485.89	8121.66
486.07	8168.47
486.25	8187.19
486.43	8304.22
486.61	8257.41
486.78	8215.28
486.96	8383.80
487.14	8318.26
487.32	8493.80
487.50	8596.79
487.68	8510.19
487.85	8777.01
488.03	9027.45
488.21	8896.38
488.39	8940.85
488.57	8980.64
488.75	8791.05
488.92	8912.76
489.10	9004.04
489.28	9191.28
489.46	9413.63
489.64	9071.92
489.81	9315.33
489.99	9528.32
490.17	9392.57
490.35	9687.48
490.53	9624.28
490.70	9591.52
490.88	9685.14
491.06	9774.08
491.24	9680.46
491.41	10068.98
491.59	10083.03
491.77	10010.47
491.95	10080.69
492.13	10059.62
492.30	10354.53
492.48	10207.08
492.66	10134.52
492.84	10157.92
493.01	10303.04
493.19	10333.47
493.37	10490.28
493.54	10342.83
493.72	10590.92
493.90	10485.60
494.08	10558.16
494.25	10724.33
494.43	10785.19
494.61	10930.30
494.79	10773.49
494.96	10946.69
495.14	10974.77
495.32	11042.65
495.49	10890.51
495.67	11098.82
495.85	11218.19
496.02	11136.27
496.20	11499.05
496.38	11349.26
496.55	11360.96
496.73	11798.64
496.91	11606.72
497.09	11765.87
497.26	11695.66
497.44	11683.95
497.62	11772.89
497.79	11761.19
497.97	11808.00
498.14	11681.61
498.32	11941.41
498.50	11929.71
498.67	12182.49
498.85	12166.10
499.03	12037.38
499.20	12236.32
499.38	12414.20
499.56	12428.24
499.73	12280.79
499.91	12219.94
500.08	12182.49
500.26	12266.75
500.44	12439.95
500.61	12692.73
500.79	12493.78
500.97	12744.22
501.14	12603.78
501.32	12730.17
501.49	12910.40
501.67	12772.30
501.84	13055.51
502.02	12847.20
502.20	12676.34
502.37	12980.61
502.55	12922.10
502.72	12971.25
502.90	13116.36
503.07	13097.64
503.25	13027.42
503.43	13275.52
503.60	13343.39
503.78	13301.26
503.95	13221.69
504.13	13371.48
504.30	13397.23
504.48	13586.81
504.65	13647.66
504.83	13561.06
505.01	13511.91
505.18	13472.12
505.36	13661.71
505.53	13862.99
505.71	13722.56
505.88	13909.80
506.06	13717.88
506.23	14083.00
506.41	13877.04
506.58	13872.36
506.76	13781.07
506.93	14232.80
507.11	13994.06
507.28	14174.28
507.46	14099.39
507.63	14171.94
507.81	14174.28
507.98	13989.38
508.16	13963.64
508.33	14193.01
508.50	14321.74
508.68	14239.82
508.85	14534.73
509.03	14581.54
509.20	14480.89
509.38	14677.50
509.55	14743.03
509.73	14668.14
509.90	14913.89
510.08	14562.81
510.25	14595.58
510.42	14710.27
510.60	14857.72
510.77	14913.89
510.95	14846.02
511.12	14810.91
511.30	14937.30
511.47	14925.60
511.64	15248.59
511.82	15124.54
511.99	14953.68
512.17	15311.78
512.34	15199.44
512.51	15365.62
512.69	15571.58
512.86	15496.69
513.04	15543.50
513.21	15538.82
513.38	15379.66
513.56	15288.38
513.73	15557.54
513.90	15880.53
514.08	15562.22
514.25	15433.49
514.43	15634.78
514.60	15747.12
514.77	15779.89
514.95	15798.62
515.12	15840.75
515.29	15861.81
515.47	15922.66
515.64	16135.65
515.81	15796.28
515.99	15824.36
516.16	16381.41
516.33	15976.50
516.51	16093.52
516.68	16060.76
516.85	16135.65
517.03	16116.93
517.20	16217.57
517.37	16208.21
517.54	16123.95
517.72	16409.50
517.89	16388.43
518.06	16482.05
518.24	16250.34
518.41	16556.95
518.58	16383.75
518.75	16397.79
518.93	16493.76
519.10	16542.91
519.27	16430.56
519.45	16650.57
519.62	16809.73
519.79	16816.75
519.96	16716.11
520.14	16631.85
520.31	16650.57
520.48	16685.68
520.65	16758.24
520.83	16760.58
521.00	16931.44
521.17	16727.81
521.34	17015.69
521.52	17158.47
521.69	17252.09
521.86	17502.53
522.03	17226.34
522.20	17106.98
522.38	17181.87
522.55	17249.75
522.72	17380.82
522.89	17408.90
523.07	17465.08
523.24	17420.61
523.41	17181.87
523.58	17305.92
523.75	17401.88
523.92	17287.20
524.10	17490.82
524.27	17771.69
524.44	17338.69
524.61	17397.20
524.78	17411.25
524.96	17811.48
525.13	17504.87
525.30	18017.44
525.47	18036.17
525.64	17919.14
525.81	17825.52
525.98	17855.95
526.16	17914.46
526.33	17783.39
526.50	18106.38
526.67	17914.46
526.84	18059.57
527.01	17972.97
527.18	18134.47
527.36	18326.39
527.53	18094.68
527.70	18108.72
527.87	18431.72
528.04	18455.12
528.21	18459.81
528.38	18235.11
528.55	18513.64
528.72	18595.56
528.89	18403.63
529.07	18389.59
529.24	18274.90
529.41	18265.54
529.58	18504.28
529.75	18747.69
529.92	18733.65
530.09	18848.33
530.26	18586.19
530.43	18574.49
530.60	18567.47
530.77	18712.58
530.94	18625.98
531.11	18911.53
531.28	19073.03
531.46	18719.60
531.63	18827.27
531.80	18689.18
531.97	18838.97
532.14	19063.66
532.31	18862.38
532.48	19171.33
532.65	19140.90
532.82	18752.37
532.99	18656.41
533.16	18897.49
533.33	18899.83
533.50	19185.37
533.67	19061.32
533.84	18824.93
534.01	19066.00
534.18	19101.11
534.35	19204.10
534.52	19246.23
534.69	19323.46
534.86	19435.81
535.03	19122.18
535.20	19447.51
535.37	19442.83
535.54	19393.68
535.71	19325.80
535.88	19405.38
536.05	19770.51
536.22	19592.62
536.38	19494.32
536.55	19513.05
536.72	19538.79
536.89	19770.51
537.06	19868.81
537.23	19742.42
537.40	19538.79
537.57	19924.98
537.74	19314.10
537.91	19915.62
538.08	19737.74
538.25	19763.48
538.42	19473.26
538.59	20133.29
538.75	20030.30
538.92	19779.87
539.09	20208.19
539.26	19845.40
539.43	20072.43
539.60	20065.41
539.77	19836.04
539.94	20439.90
540.11	20486.71
540.28	20313.51
540.44	20365.00
540.61	20147.33
540.78	19843.06
540.95	20542.88
541.12	20739.49
541.29	20449.26
541.46	20676.29
541.62	20666.93
541.79	20985.24
541.96	20353.30
542.13	20765.23
542.30	21092.91
542.47	20816.72
542.63	20985.24
542.80	20781.62
542.97	20975.88
543.14	21216.96
543.31	21303.56
543.48	21092.91
543.64	21179.51
543.81	21245.04
543.98	21010.99
544.15	21039.08
544.32	21411.22
544.48	21212.28
544.65	21074.18
544.82	21214.62
544.99	21240.36
545.16	21153.76
545.32	21345.69
545.49	21642.93
545.66	21994.01
545.83	22370.84
546.00	22015.08
546.16	21743.58
546.33	21399.52
546.50	21355.05
546.67	21570.38
546.83	21366.75
547.00	21385.47
547.17	21195.89
547.34	21172.49
547.50	21273.13
547.67	21479.10
547.84	21570.38
548.00	21823.16
548.17	21523.57
548.34	21380.79
548.51	21235.68
548.67	21345.69
548.84	21642.93
549.01	21261.43
549.18	21722.51
549.34	21699.11
549.51	21638.25
549.68	21233.34
549.84	21345.69
550.01	21514.20
550.18	21598.46
550.34	21111.63
550.51	21151.42
550.68	21551.65
550.84	21219.30
551.01	21542.29
551.18	21458.03
551.34	21596.12
551.51	21202.91
551.68	21408.88
551.84	21207.59
552.01	21593.78
552.18	21724.85
552.34	21324.62
552.51	22111.04
552.68	21537.61
552.84	21813.79
553.01	21975.29
553.18	21542.29
553.34	21394.84
553.51	21724.85
553.67	21685.06
553.84	21759.96
554.01	21865.28
554.17	21837.20
554.34	21734.21
554.51	21881.67
554.67	21858.26
554.84	21977.63
555.00	21682.72
555.17	21759.96
555.33	22082.95
555.50	21621.87
555.67	21862.94
555.83	21600.80
556.00	21671.02
556.16	22223.39
556.33	21977.63
556.50	21886.35
556.66	22066.57
556.83	21977.63
556.99	22036.14
557.16	21900.39
557.32	22209.34
557.49	22202.32
557.65	22195.30
557.82	22216.36
557.98	21846.56
558.15	21869.97
558.32	22118.06
558.48	22080.61
558.65	22239.77
558.81	22045.51
558.98	22043.17
559.14	22029.12
559.31	22087.64
559.47	22260.84
559.64	22345.09
559.80	22338.07
559.97	22146.15
560.13	22094.66
560.30	22380.20
560.46	22345.09
560.63	22274.88
560.79	22429.35
560.96	22260.84
561.12	22223.39
561.29	22258.49
561.45	22162.53
561.61	22499.57
561.78	22522.98
561.94	22616.60
562.11	22469.14
562.27	22654.05
562.44	22368.50
562.60	22560.42
562.77	22487.87
562.93	22630.64
563.10	22595.53
563.26	22209.34
563.42	22530.00
563.59	22408.29
563.75	22427.01
563.92	22656.39
564.08	22487.87
564.24	22565.10
564.41	22527.66
564.57	22581.49
564.74	22801.50
564.90	22728.94
565.07	22824.90
565.23	22457.44
565.39	22588.51
565.56	22759.37
565.72	22548.72
565.88	22906.82
566.05	22466.80
566.21	22288.92
566.38	22623.62
566.54	22738.30
566.70	22728.94
566.87	22705.54
567.03	22621.28
567.19	22970.02
567.36	22841.29
567.52	22625.96
567.68	22696.17
567.85	22548.72
568.01	22588.51
568.17	22457.44
568.34	22815.54
568.50	22724.26
568.66	22611.92
568.83	22986.40
568.99	22445.74
569.15	22614.26
569.32	22944.27
569.48	22534.68
569.64	22841.29
569.81	22574.47
569.97	22806.18
570.13	22649.36
570.30	22618.94
570.46	22892.78
570.62	22515.95
570.78	22581.49
570.95	22586.17
571.11	22852.99
571.27	23112.79
571.43	22277.22
571.60	22700.86
571.76	22988.74
571.92	22979.38
572.09	22754.69
572.25	23232.16
572.41	22902.14
572.57	23044.91
572.74	23065.98
572.90	22724.26
573.06	23065.98
573.22	22623.62
573.38	22576.81
573.55	22625.96
573.71	22382.54
573.87	22817.88
574.03	22689.15
574.20	23094.07
574.36	22836.61
574.52	22993.42
574.68	22782.77
574.84	22883.42
575.01	22953.63
575.17	22925.55
575.33	22792.14
575.49	22778.09
575.65	22918.53
575.82	22965.34
575.98	23388.97
576.14	23229.82
576.30	22944.27
576.46	23089.38
576.62	22916.19
576.79	23051.94
576.95	23023.85
577.11	22883.42
577.27	23026.19
577.43	22897.46
577.59	22888.10
577.75	22981.72
577.92	22654.05
578.08	23012.15
578.24	23035.55
578.40	22911.50
578.56	23058.96
578.72	23159.60
578.88	23264.92
579.04	23154.92
579.21	23049.60
579.37	23105.77
579.53	23145.56
579.69	23002.78
579.85	22998.10
580.01	23185.35
580.17	22860.01
580.33	23084.70
580.49	23283.65
580.65	23681.54
580.82	22965.34
580.98	22862.35
581.14	23117.47
581.30	23152.58
581.46	23065.98
581.62	22838.95
581.78	22611.92
581.94	22724.26
582.10	23028.53
582.26	22860.01
582.42	23220.45
582.58	22981.72
582.74	22951.29
582.90	22995.76
583.06	22867.03
583.22	23089.38
583.38	23054.28
583.54	23075.34
583.70	23042.57
583.86	23080.02
584.02	23168.96
584.18	23206.41
584.34	23264.92
584.50	23080.02
584.66	23360.89
584.82	23171.30
584.98	22883.42
585.14	22960.66
585.30	23115.13
585.46	23049.60
585.62	22541.70
585.78	23101.09
585.94	23225.14
586.10	23295.35
586.26	23166.62
586.42	23496.64
586.58	23267.27
586.74	23178.33
586.90	22906.82
587.06	23058.96
587.22	23445.15
587.38	23316.42
587.54	23314.08
587.70	23407.70
587.86	23307.05
588.02	23412.38
588.18	23358.55
588.34	23112.79
588.49	23578.56
588.65	23042.57
588.81	23285.99
588.97	23337.48
589.13	23051.94
589.29	23225.14
589.45	23117.47
589.61	23065.98
589.77	23475.57
589.93	23143.22
590.08	23300.03
590.24	23009.81
590.40	22925.55
590.56	23185.35
590.72	23028.53
590.88	23168.96
591.04	23082.36
