SpectraSuite Data File
++++++++++++++++++++++++++++++++++++
Date: Thu Oct 24 13:21:30 EDT 2013
User: stostad
Dark Spectrum Present: No
Reference Spectrum Present: No
Number of Sampled Component Spectra: 1
Spectrometers: USB2+H05261
Integration Time (usec): 100000 (USB2+H05261)
Spectra Averaged: 1 (USB2+H05261)
Boxcar Smoothing: 0 (USB2+H05261)
Correct for Electrical Dark: No (USB2+H05261)
Strobe/Lamp Enabled: No (USB2+H05261)
Correct for Detector Non-linearity: No (USB2+H05261)
Correct for Stray Light: No (USB2+H05261)
Number of Pixels in Processed Spectrum: 2048
>>>>>Begin Processed Spectral Data<<<<<
365.73	512.58
365.92	512.58
366.12	512.58
366.32	521.94
366.52	524.28
366.72	463.43
366.91	379.17
367.11	449.38
367.31	379.17
367.51	433.00
367.70	461.09
367.90	418.96
368.10	458.74
368.30	484.49
368.49	486.83
368.69	514.92
368.89	451.72
369.09	472.79
369.28	482.15
369.48	503.22
369.68	470.45
369.87	528.96
370.07	580.45
370.27	557.05
370.47	744.29
370.66	1062.60
370.86	1020.47
371.06	1109.41
371.25	1062.60
371.45	1053.24
371.65	1130.48
371.84	1088.35
372.04	1109.41
372.24	1083.67
372.44	1231.12
372.63	1203.04
372.83	1174.95
373.03	1289.64
373.22	1296.66
373.42	1289.64
373.62	1226.44
373.81	1270.91
374.01	1200.69
374.21	1266.23
374.40	1289.64
374.60	1238.14
374.79	1181.97
374.99	1252.19
375.19	1404.32
375.38	1277.93
375.58	1308.36
375.78	1352.83
375.97	1399.64
376.17	1451.13
376.37	1411.34
376.56	1387.94
376.76	1334.11
376.95	1336.45
377.15	1439.43
377.35	1357.51
377.54	1390.28
377.74	1373.89
377.93	1460.49
378.13	1500.28
378.33	1460.49
378.52	1416.02
378.72	1399.64
378.91	1423.05
379.11	1455.81
379.31	1495.60
379.50	1465.18
379.70	1406.66
379.89	1486.24
380.09	1504.96
380.28	1600.93
380.48	1563.48
380.68	1523.69
380.87	1455.81
381.07	1535.39
381.26	1535.39
381.46	1488.58
381.65	1591.56
381.85	1624.33
382.04	1638.38
382.24	1537.73
382.43	1664.12
382.63	1565.82
382.83	1579.86
383.02	1666.46
383.22	1694.55
383.41	1710.93
383.61	1687.53
383.80	1736.68
384.00	1657.10
384.19	1741.36
384.39	1771.79
384.58	1706.25
384.78	1715.61
384.97	1748.38
385.17	1729.66
385.36	1703.91
385.56	1678.16
385.75	1724.97
385.95	1844.34
386.14	1792.85
386.34	1783.49
386.53	1792.85
386.72	1694.55
386.92	1795.19
387.11	1856.04
387.31	1893.49
387.50	1811.57
387.70	1884.13
387.89	1830.30
388.09	1884.13
388.28	1961.37
388.48	1877.11
388.67	1944.99
388.86	1989.46
389.06	1994.14
389.25	1994.14
389.45	2008.18
389.64	1954.35
389.84	1982.43
390.03	1961.37
390.22	1980.09
390.42	2040.95
390.61	2031.58
390.81	2111.16
391.00	2122.87
391.19	2083.08
391.39	2094.78
391.58	2174.36
391.78	2129.89
391.97	2202.44
392.16	2101.80
392.36	2242.23
392.55	2221.17
392.75	2172.02
392.94	2207.13
393.13	2218.83
393.33	2148.61
393.52	2167.34
393.71	2221.17
393.91	2237.55
394.10	2277.34
394.29	2328.83
394.49	2335.85
394.68	2282.02
394.88	2333.51
395.07	2385.01
395.26	2340.54
395.46	2394.37
395.65	2473.95
395.84	2324.15
396.04	2396.71
396.23	2574.59
396.42	2457.56
396.62	2490.33
396.81	2523.10
397.00	2487.99
397.19	2520.76
397.39	2572.25
397.58	2544.16
397.77	2670.55
397.97	2541.82
398.16	2504.37
398.35	2738.43
398.55	2656.51
398.74	2733.75
398.93	2693.96
399.12	2656.51
399.32	2672.89
399.51	2775.88
399.70	2806.30
399.90	2754.81
400.09	2841.41
400.28	2794.60
400.47	2722.04
400.67	2801.62
400.86	2775.88
401.05	2813.32
401.24	2834.39
401.44	2946.73
401.63	2935.03
401.82	2888.22
402.01	2853.11
402.21	3082.49
402.40	2951.42
402.59	2965.46
402.78	3052.06
402.97	3019.29
403.17	3159.72
403.36	3094.19
403.55	3225.26
403.74	3178.45
403.93	3192.49
404.13	3225.26
404.32	3307.18
404.51	3220.58
404.70	3396.12
404.89	3281.43
405.09	3321.22
405.28	3323.56
405.47	3363.35
405.66	3372.71
405.85	3290.79
406.05	3356.33
406.24	3405.48
406.43	3454.63
406.62	3611.45
406.81	3583.36
407.00	3396.12
407.20	3529.53
407.39	3566.98
407.58	3604.42
407.77	3611.45
407.96	3557.61
408.15	3705.07
408.34	3681.66
408.54	3831.46
408.73	3660.60
408.92	3684.00
409.11	3815.07
409.30	3871.25
409.49	3737.84
409.68	3845.50
409.87	3936.78
410.07	3896.99
410.26	4037.42
410.45	3983.59
410.64	4007.00
410.83	4088.92
411.02	3974.23
411.21	4135.73
411.40	4128.70
411.59	4079.55
411.78	4145.09
411.98	4196.58
412.17	4358.08
412.36	4238.71
412.55	4402.55
412.74	4475.10
412.93	4561.70
413.12	4278.50
413.31	4554.68
413.50	4447.02
413.69	4470.42
413.88	4634.26
414.07	4655.33
414.26	4685.75
414.45	4755.97
414.64	4709.16
414.83	4863.63
415.02	4847.25
415.22	4952.57
415.41	4924.49
415.60	5085.98
415.79	4985.34
415.98	5144.50
416.17	5179.61
416.36	5128.11
416.55	5050.88
416.74	5221.74
416.93	5238.12
417.12	5214.71
417.31	5345.78
417.50	5373.87
417.69	5476.85
417.88	5364.51
418.07	5537.71
418.26	5446.43
418.45	5664.10
418.64	5741.33
418.83	5493.24
419.02	5792.83
419.21	5624.31
419.39	5640.69
419.58	5624.31
419.77	5746.02
419.96	5783.46
420.15	5907.51
420.34	5891.13
420.53	5921.56
420.72	6104.12
420.91	5799.85
421.10	5968.37
421.29	5797.51
421.48	5980.07
421.67	5991.77
421.86	6050.28
422.05	6141.57
422.24	6171.99
422.43	6033.90
422.61	6171.99
422.80	6284.34
422.99	6197.74
423.18	6408.39
423.37	6270.30
423.56	6310.08
423.75	6150.93
423.94	6141.57
424.13	6005.81
424.32	6036.24
424.50	6228.17
424.69	6455.20
424.88	6307.74
425.07	6157.95
425.26	6153.27
425.45	6279.66
425.64	6216.46
425.83	6267.95
426.01	6422.43
426.20	6244.55
426.39	6420.09
426.58	6284.34
426.77	6373.28
426.96	6349.87
427.15	6354.55
427.33	6621.38
427.52	6471.58
427.71	6544.14
427.90	6619.04
428.09	6668.19
428.28	6649.46
428.46	6663.51
428.65	6787.55
428.84	7073.10
429.03	6803.94
429.22	6492.65
429.40	6888.20
429.59	6970.12
429.78	6649.46
429.97	6537.12
430.16	6869.47
430.34	6991.18
430.53	7173.74
430.72	6949.05
430.91	7023.95
431.10	6944.37
431.28	7272.04
431.47	7243.96
431.66	7227.57
431.85	7272.04
432.03	7452.27
432.22	7314.17
432.41	7550.57
432.60	7351.62
432.79	7499.08
432.97	7463.97
433.16	7365.67
433.35	7438.22
433.54	7662.91
433.72	7765.90
433.91	7695.68
434.10	7651.21
434.28	7676.96
434.47	7602.06
434.66	7824.41
434.85	7728.45
435.03	7936.76
435.22	8124.00
435.41	8301.88
435.59	8161.45
435.78	8339.33
435.97	8292.52
436.16	8142.72
436.34	7985.91
436.53	8135.70
436.72	8315.92
436.90	8238.69
437.09	8250.39
437.28	8229.32
437.46	8042.08
437.65	8182.51
437.84	8290.18
438.02	8418.91
438.21	8334.65
438.40	8423.59
438.58	8744.24
438.77	8732.54
438.96	8753.60
439.14	8814.46
439.33	8730.20
439.52	9034.47
439.70	9064.89
439.89	9261.50
440.08	9100.00
440.26	9177.24
440.45	9184.26
440.63	9289.59
440.82	9547.05
441.01	9320.01
441.19	9504.92
441.38	9481.51
441.57	9568.11
441.75	9797.48
441.94	9902.81
442.12	9860.68
442.31	9944.94
442.50	10073.67
442.68	9956.64
442.87	9839.61
443.05	10078.35
443.24	10026.86
443.43	10218.78
443.61	10237.50
443.80	10349.85
443.98	9853.66
444.17	9556.41
444.35	10029.20
444.54	10562.84
444.73	10113.45
444.91	10230.48
445.10	10501.98
445.28	10195.37
445.47	10132.18
445.65	10345.17
445.84	10389.64
446.02	10513.69
446.21	10626.03
446.39	10408.36
446.58	10499.64
446.77	10300.70
446.95	10228.14
447.14	10408.36
447.32	10604.97
447.51	10544.11
447.69	10445.81
447.88	10492.62
448.06	10583.90
448.25	10431.77
448.43	10621.35
448.62	10696.25
448.80	10754.76
448.99	10740.72
449.17	10853.06
449.36	10668.16
449.54	10644.76
449.73	10883.49
449.91	11115.20
450.10	10909.24
450.28	11218.19
450.46	11150.31
450.65	11080.10
450.83	11122.23
451.02	11227.55
451.20	11229.89
451.39	11431.18
451.57	11335.21
451.76	11274.36
451.94	11239.25
452.13	11599.70
452.31	11321.17
452.49	11485.01
452.68	11477.99
452.86	11566.93
453.05	11590.33
453.23	11681.61
453.42	11477.99
453.60	11405.43
453.78	11765.87
453.97	11506.07
454.15	11800.98
454.34	11566.93
454.52	12053.76
454.70	11845.45
454.89	11995.25
455.07	11957.80
455.26	12049.08
455.44	12414.20
455.62	12187.17
455.81	12091.21
455.99	12299.52
456.17	12074.82
456.36	12573.36
456.54	12655.28
456.73	12514.84
456.91	12786.35
457.09	12882.31
457.28	12985.29
457.46	12486.76
457.64	12982.95
457.83	12849.54
458.01	12879.97
458.19	13020.40
458.38	12943.16
458.56	13247.43
458.74	13240.41
458.93	13048.49
459.11	13256.79
459.29	13261.48
459.48	13296.58
459.66	12943.16
459.84	13317.65
460.03	13504.89
460.21	13689.79
460.39	13542.34
460.57	13638.30
460.76	13605.53
460.94	13867.67
461.12	13748.31
461.31	13731.92
461.49	13685.11
461.67	13905.12
461.85	14185.99
462.04	13771.71
462.22	14218.75
462.40	14293.65
462.59	14099.39
462.77	14080.66
462.95	14104.07
463.13	14333.44
463.32	14380.25
463.50	14340.46
463.68	14450.47
463.86	14611.96
464.05	14352.16
464.23	14389.61
464.41	14455.15
464.59	14193.01
464.78	14768.78
464.96	14721.97
465.14	14668.14
465.32	14712.61
465.50	14843.68
465.69	15108.16
465.87	14937.30
466.05	14953.68
466.23	14867.08
466.41	15023.90
466.60	15225.18
466.78	15080.07
466.96	14864.74
467.14	15211.14
467.32	15269.66
467.51	15403.07
467.69	14862.40
467.87	15382.00
468.05	15428.81
468.23	14944.32
468.41	14967.73
468.60	15712.02
468.78	15693.29
468.96	15587.97
469.14	15594.99
469.32	15962.45
469.50	15447.54
469.69	16397.79
469.87	16152.04
470.05	15697.97
470.23	16100.55
470.41	16180.12
470.59	16217.57
470.77	16063.10
470.95	16168.42
471.14	16507.80
471.32	16056.08
471.50	16805.05
471.68	16650.57
471.86	16720.79
472.04	16875.26
472.22	17345.71
472.40	16734.83
472.58	16669.30
472.77	17149.11
472.95	17362.09
473.13	17694.45
473.31	17106.98
473.49	17593.81
473.67	17254.43
473.85	17378.48
474.03	17853.61
474.21	18029.15
474.39	18061.91
474.57	18141.49
474.75	18150.85
474.93	18333.42
475.12	18424.70
475.30	18342.78
475.48	18672.79
475.66	18728.97
475.84	18841.31
476.02	19047.28
476.20	18527.68
476.38	19381.98
476.56	19620.71
476.74	19527.09
476.92	19213.46
477.10	19398.36
477.28	19843.06
477.46	19817.32
477.64	19988.18
477.82	20063.07
478.00	20734.81
478.18	20306.49
478.36	20711.40
478.54	21043.76
478.72	21322.28
478.90	21568.04
479.08	21617.19
479.26	21778.68
479.44	21713.15
479.62	21727.19
479.80	22066.57
479.98	22319.35
480.16	22857.67
480.34	21851.24
480.52	22628.30
480.70	22782.77
480.88	22593.19
481.06	23028.53
481.24	23077.68
481.41	23545.79
481.59	23653.45
481.77	23943.68
481.95	23868.78
482.13	24201.14
482.31	23939.00
482.49	24861.17
482.67	24814.36
482.85	24753.51
483.03	25394.81
483.21	24954.79
483.39	25455.67
483.57	25319.92
483.74	26047.82
483.92	26047.82
484.10	26008.03
484.28	26668.06
484.46	26979.36
484.64	27225.11
484.82	26813.18
485.00	27316.39
485.18	27920.25
485.35	28074.73
485.53	28107.49
485.71	28294.74
485.89	28496.02
486.07	28690.29
486.25	28638.80
486.43	29149.03
486.61	28865.83
486.78	29359.68
486.96	29579.69
487.14	30239.72
487.32	29975.24
487.50	30513.56
487.68	30326.32
487.85	31241.47
488.03	31236.79
488.21	31566.81
488.39	31360.84
488.57	31779.79
488.75	32095.77
488.92	32437.48
489.10	32807.29
489.28	32917.29
489.46	33053.05
489.64	32882.19
489.81	33549.24
489.99	33748.18
490.17	34066.50
490.35	34653.97
490.53	34836.53
490.70	34742.91
490.88	34387.15
491.06	35016.75
491.24	34967.60
491.41	35526.99
491.59	35679.13
491.77	35365.49
491.95	35903.82
492.13	36037.23
492.30	36795.56
492.48	36720.66
492.66	36254.90
492.84	36968.76
493.01	37228.56
493.19	36928.97
493.37	37965.83
493.54	37647.52
493.72	37954.13
493.90	38377.76
494.08	38490.11
494.25	38927.79
494.43	39248.44
494.61	39019.07
494.79	39428.66
494.96	39173.55
495.14	39473.13
495.32	40128.48
495.49	40477.22
495.67	40353.18
495.85	40879.80
496.02	40774.47
496.20	41242.58
496.38	41198.11
496.55	41504.72
496.73	42527.53
496.91	42188.16
497.09	41813.67
497.26	42478.38
497.44	41975.17
497.62	42440.93
497.79	43012.02
497.97	42642.22
498.14	43552.69
498.32	43758.66
498.50	43704.82
498.67	44179.95
498.85	43606.52
499.03	44069.95
499.20	44067.61
499.38	44184.63
499.56	44821.26
499.73	44797.85
499.91	44919.56
500.08	45418.10
500.26	45572.57
500.44	45184.04
500.61	45560.87
500.79	45890.88
500.97	45743.43
501.14	46019.61
501.32	46185.79
501.49	46293.46
501.67	46586.02
501.84	46689.01
502.02	46401.12
502.20	46646.88
502.37	46983.91
502.55	46429.21
502.72	46962.85
502.90	47271.80
503.07	47381.80
503.25	47646.29
503.43	47709.48
503.60	47924.81
503.78	48306.32
503.95	48027.79
504.13	48271.21
504.30	48048.86
504.48	48339.08
504.65	48715.91
504.83	49029.54
505.01	49216.78
505.18	48624.63
505.36	49034.22
505.53	49265.94
505.71	49408.71
505.88	49762.13
506.06	49560.84
506.23	50305.13
506.41	49867.45
506.58	49993.84
506.76	50052.36
506.93	50548.55
507.11	50387.05
507.28	50525.14
507.46	50382.37
507.63	50808.35
507.81	51086.87
507.98	50361.31
508.16	50892.61
508.33	51112.62
508.50	51196.88
508.68	51442.63
508.85	51782.01
509.03	51494.13
509.20	51444.98
509.38	51746.90
509.55	52229.05
509.73	51664.99
509.90	52112.03
510.08	52231.40
510.25	52275.87
510.42	52353.10
510.60	52418.64
510.77	52750.99
510.95	52839.93
511.12	52624.60
511.30	53092.71
511.47	53207.40
511.64	53240.17
511.82	53467.20
511.99	52877.38
512.17	53425.07
512.34	53418.05
512.51	53804.24
512.69	53783.17
512.86	53712.95
513.04	53745.72
513.21	53907.22
513.38	53921.26
513.56	53780.83
513.73	53851.05
513.90	54284.04
514.08	54255.96
514.25	54438.52
514.43	54529.80
514.60	54305.11
514.77	54382.35
514.95	54660.87
515.12	54625.76
515.29	54417.46
515.47	54808.32
515.64	54864.50
515.81	54930.03
515.99	55021.31
516.16	55175.79
516.33	54983.86
516.51	55231.96
516.68	55522.19
516.85	55477.72
517.03	55758.58
517.20	55461.33
517.37	55454.31
517.54	55854.54
517.72	55632.19
517.89	55554.96
518.06	55547.93
518.24	55569.00
518.41	55880.29
518.58	55852.20
518.75	55849.86
518.93	56074.55
519.10	55906.04
519.27	56212.65
519.45	56137.75
519.62	56374.14
519.79	56374.14
519.96	56615.22
520.14	56530.96
520.31	56294.56
520.48	56631.60
520.65	56493.51
520.83	56924.17
521.00	56842.25
521.17	57003.75
521.34	57118.43
521.52	56956.94
521.69	56975.66
521.86	57195.67
522.03	57125.46
522.20	57216.74
522.38	57572.50
522.55	57661.44
522.72	57361.85
522.89	57366.53
523.07	57804.21
523.24	57626.33
523.41	57900.17
523.58	57464.83
523.75	57986.77
523.92	58181.04
524.10	57907.19
524.27	58028.90
524.44	58003.16
524.61	57977.41
524.78	58185.72
524.96	58120.18
525.13	58197.42
525.30	58246.57
525.47	58581.27
525.64	58246.57
525.81	58272.32
525.98	58494.67
526.16	58525.10
526.33	58518.07
526.50	58749.79
526.67	58468.92
526.84	58829.37
527.01	58808.30
527.18	58862.13
527.36	58843.41
527.53	58946.39
527.70	59084.48
527.87	58986.18
528.04	59173.42
528.21	59028.31
528.38	59262.36
528.55	59398.12
528.72	59028.31
528.89	59014.27
529.07	59243.64
529.24	59133.63
529.41	59367.69
529.58	59480.03
529.75	59564.29
529.92	59447.27
530.09	59554.93
530.26	59533.87
530.43	59470.67
530.60	59381.73
530.77	59498.76
530.94	59894.31
531.11	59831.11
531.28	59896.65
531.46	59632.17
531.63	59957.50
531.80	59760.90
531.97	59821.75
532.14	59906.01
532.31	59826.43
532.48	60137.72
532.65	60327.31
532.82	60009.00
532.99	60074.53
533.16	60107.30
533.33	60374.12
533.50	60367.10
533.67	60250.07
533.84	60158.79
534.01	60390.50
534.18	60493.49
534.35	60596.47
534.52	60491.15
534.69	60575.40
534.86	60292.20
535.03	60456.04
535.20	60741.58
535.37	60779.03
535.54	61057.56
535.71	60678.39
535.88	60748.60
536.05	60914.78
536.22	60851.59
536.38	60900.74
536.55	60994.36
536.72	60938.19
536.89	60980.32
537.06	61230.75
537.23	61183.94
537.40	61265.86
537.57	61057.56
537.74	61048.19
537.91	61249.48
538.08	61167.56
538.25	61162.88
538.42	61197.99
538.59	61469.49
538.75	61415.66
538.92	61427.36
539.09	61427.36
539.26	61439.06
539.43	61251.82
539.60	61560.77
539.77	61495.24
539.94	61815.89
540.11	61726.95
540.28	61729.29
540.44	61752.69
540.61	61684.82
540.78	61790.14
540.95	61834.61
541.12	61769.08
541.29	61792.48
541.46	61921.21
541.62	61986.75
541.79	62052.28
541.96	61799.50
542.13	61956.32
542.30	62021.86
542.47	62183.35
542.63	62274.63
542.80	62155.27
542.97	62408.04
543.14	62714.65
543.31	62539.11
543.48	62419.75
543.64	62642.10
543.81	62492.30
543.98	62464.22
544.15	62553.16
544.32	62651.46
544.48	62925.30
544.65	62782.53
544.82	62726.36
544.99	62639.76
545.16	62632.74
545.32	62761.47
545.49	62894.88
545.66	63077.44
545.83	62967.43
546.00	63124.25
546.16	63164.04
546.33	63199.15
546.50	62890.19
546.67	63098.50
546.83	62747.42
547.00	62789.55
547.17	62862.11
547.34	63061.05
547.50	63051.69
547.67	63276.38
547.84	63206.17
548.00	63180.42
548.17	63381.71
548.34	63472.99
548.51	63215.53
548.67	63222.55
548.84	63227.23
549.01	63440.22
549.18	63477.67
549.34	63393.41
549.51	63372.34
549.68	63334.90
549.84	63348.94
550.01	63384.05
550.18	63238.93
550.34	63554.91
550.51	63615.76
550.68	63519.80
550.84	63398.09
551.01	63756.19
551.18	63608.74
551.34	63285.75
551.51	63650.87
551.68	63732.79
551.84	63594.70
552.01	63601.72
552.18	63763.21
552.34	63592.36
552.51	63985.57
552.68	63798.32
552.84	64058.12
553.01	64001.95
553.18	63784.28
553.34	63990.25
553.51	63758.53
553.67	63873.22
553.84	64313.24
554.01	64051.10
554.17	64069.82
554.34	64086.21
554.51	64100.25
554.67	64140.04
554.84	64088.55
555.00	64034.72
555.17	64095.57
555.33	64137.70
555.50	64102.59
555.67	64104.93
555.83	64226.64
556.00	64149.40
556.16	64320.26
556.33	64264.09
556.50	64163.45
556.66	64282.81
556.83	64184.51
556.99	64498.14
557.16	64666.66
557.32	64645.60
557.49	64559.00
557.65	64170.47
557.82	64423.25
557.98	64357.71
558.15	64275.79
558.32	64441.97
558.48	64238.34
558.65	64411.54
558.81	64753.26
558.98	64645.60
559.14	64718.15
559.31	64636.23
559.47	64577.72
559.64	64783.69
559.80	64654.96
559.97	64666.66
560.13	64582.40
560.30	64718.15
560.46	64938.16
560.63	64914.76
560.79	64779.01
560.96	65027.10
561.12	64921.78
561.29	64793.05
561.45	64896.03
561.61	64764.96
561.78	64842.20
561.94	65099.66
562.11	65144.13
562.27	65041.15
562.44	64774.33
562.60	64961.57
562.77	65024.76
562.93	65045.83
563.10	65226.05
563.26	64860.93
563.42	65048.17
563.59	65155.83
563.75	65113.70
563.92	65055.19
564.08	65029.44
564.24	65123.07
564.41	65015.40
564.57	65001.36
564.74	65062.21
564.90	65130.09
565.07	65244.77
565.23	65254.14
565.39	65233.07
565.56	65305.63
565.72	65268.18
565.88	65317.33
566.05	65123.07
566.21	65013.06
566.38	65139.45
566.54	65167.54
566.70	65144.13
566.87	65361.80
567.03	65336.05
567.19	65535.00
567.36	65520.96
567.52	65254.14
567.68	65380.52
567.85	65202.64
568.01	65378.18
568.17	65263.50
568.34	65492.87
568.50	65394.57
568.66	65329.03
568.83	65448.40
568.99	65380.52
569.15	65420.31
569.32	65434.36
569.48	65221.37
569.64	65293.92
569.81	65270.52
569.97	65279.88
570.13	65453.08
570.30	65270.52
570.46	65535.00
570.62	65469.46
570.78	65436.70
570.95	65258.82
571.11	65535.00
571.27	65432.02
571.43	65314.99
571.60	65488.19
571.76	65499.89
571.92	65535.00
572.09	65535.00
572.25	65535.00
572.41	65535.00
572.57	65535.00
572.74	65535.00
572.90	65420.31
573.06	65535.00
573.22	65535.00
573.38	65535.00
573.55	65535.00
573.71	65535.00
573.87	65535.00
574.03	65535.00
574.20	65535.00
574.36	65535.00
574.52	65535.00
574.68	65535.00
574.84	65535.00
575.01	65535.00
575.17	65535.00
575.33	65535.00
575.49	65535.00
575.65	65535.00
575.82	65535.00
575.98	65535.00
576.14	65535.00
576.30	65535.00
576.46	65535.00
576.62	65535.00
576.79	65535.00
576.95	65535.00
577.11	65535.00
577.27	65535.00
577.43	65535.00
577.59	65535.00
577.75	65535.00
577.92	65535.00
578.08	65535.00
578.24	65535.00
578.40	65535.00
578.56	65535.00
578.72	65535.00
578.88	65535.00
579.04	65535.00
579.21	65535.00
579.37	65535.00
579.53	65535.00
579.69	65535.00
579.85	65535.00
580.01	65535.00
580.17	65535.00
580.33	65535.00
580.49	65535.00
580.65	65535.00
580.82	65535.00
580.98	65535.00
581.14	65535.00
581.30	65535.00
581.46	65535.00
581.62	65535.00
581.78	65535.00
581.94	65535.00
582.10	65535.00
582.26	65535.00
582.42	65535.00
582.58	65535.00
582.74	65535.00
582.90	65535.00
583.06	65535.00
583.22	65535.00
583.38	65535.00
583.54	65535.00
583.70	65535.00
583.86	65535.00
584.02	65535.00
584.18	65535.00
584.34	65535.00
584.50	65535.00
584.66	65535.00
584.82	65535.00
584.98	65535.00
585.14	65535.00
585.30	65535.00
585.46	65535.00
585.62	65535.00
585.78	65535.00
585.94	65535.00
586.10	65535.00
586.26	65535.00
586.42	65535.00
586.58	65535.00
586.74	65535.00
586.90	65535.00
587.06	65535.00
587.22	65535.00
