SpectraSuite Data File
++++++++++++++++++++++++++++++++++++
Date: Thu Oct 24 13:21:37 EDT 2013
User: stostad
Dark Spectrum Present: No
Reference Spectrum Present: No
Number of Sampled Component Spectra: 1
Spectrometers: USB2+H05261
Integration Time (usec): 100000 (USB2+H05261)
Spectra Averaged: 1 (USB2+H05261)
Boxcar Smoothing: 0 (USB2+H05261)
Correct for Electrical Dark: No (USB2+H05261)
Strobe/Lamp Enabled: No (USB2+H05261)
Correct for Detector Non-linearity: No (USB2+H05261)
Correct for Stray Light: No (USB2+H05261)
Number of Pixels in Processed Spectrum: 2048
>>>>>Begin Processed Spectral Data<<<<<
365.73	594.50
365.92	594.50
366.12	594.50
366.32	463.43
366.52	475.13
366.72	489.17
366.91	454.06
367.11	543.00
367.31	500.87
367.51	430.66
367.70	425.98
367.90	493.85
368.10	449.38
368.30	433.00
368.49	484.49
368.69	486.83
368.89	552.37
369.09	521.94
369.28	400.23
369.48	524.28
369.68	559.39
369.87	519.60
370.07	526.62
370.27	547.69
370.47	737.27
370.66	1210.06
370.86	1196.01
371.06	1284.95
371.25	1338.79
371.45	1291.98
371.65	1310.70
371.84	1214.74
372.04	1366.87
372.24	1345.81
372.44	1308.36
372.63	1399.64
372.83	1401.98
373.03	1352.83
373.22	1427.73
373.42	1465.18
373.62	1437.09
373.81	1418.36
374.01	1446.45
374.21	1476.88
374.40	1488.58
374.60	1624.33
374.79	1420.71
374.99	1589.22
375.19	1523.69
375.38	1544.75
375.58	1593.90
375.78	1516.67
375.97	1507.30
376.17	1528.37
376.37	1535.39
376.56	1521.35
376.76	1668.80
376.95	1640.72
377.15	1727.32
377.35	1673.48
377.54	1549.43
377.74	1668.80
377.93	1692.21
378.13	1701.57
378.33	1699.23
378.52	1682.85
378.72	1694.55
378.91	1753.06
379.11	1666.46
379.31	1762.42
379.50	1633.69
379.70	1806.89
379.89	1762.42
380.09	1795.19
380.28	1680.50
380.48	1790.51
380.68	1762.42
380.87	1806.89
381.07	1846.68
381.26	1851.36
381.46	1909.88
381.65	1884.13
381.85	2005.84
382.04	1891.15
382.24	1949.67
382.43	1959.03
382.63	1909.88
382.83	1977.75
383.02	1980.09
383.22	1914.56
383.41	1970.73
383.61	1987.11
383.80	2005.84
384.00	2052.65
384.19	2064.35
384.39	2015.20
384.58	2029.24
384.78	2045.63
384.97	2115.84
385.17	2043.29
385.36	1998.82
385.56	2078.40
385.75	2216.49
385.95	2094.78
386.14	2143.93
386.34	2204.78
386.53	2172.02
386.72	2162.66
386.92	2172.02
387.11	2193.08
387.31	2186.06
387.50	2172.02
387.70	2193.08
387.89	2232.87
388.09	2113.50
388.28	2284.36
388.48	2225.85
388.67	2272.66
388.86	2289.04
389.06	2284.36
389.25	2370.96
389.45	2457.56
389.64	2382.67
389.84	2473.95
390.03	2408.41
390.22	2490.33
390.42	2373.30
390.61	2462.24
390.81	2532.46
391.00	2513.74
391.19	2523.10
391.39	2588.63
391.58	2572.25
391.78	2525.44
391.97	2602.68
392.16	2677.57
392.36	2724.38
392.55	2663.53
392.75	2663.53
392.94	2642.46
393.13	2640.12
393.33	2686.94
393.52	2813.32
393.71	2724.38
393.91	2712.68
394.10	2717.36
394.29	2789.92
394.49	2661.19
394.68	2808.64
394.88	2818.00
395.07	2972.48
395.26	2850.77
395.46	2827.37
395.65	2932.69
395.84	2993.55
396.04	2958.44
396.23	3133.98
396.42	3005.25
396.62	2951.42
396.81	3038.02
397.00	3112.91
397.19	3038.02
397.39	2986.52
397.58	2995.89
397.77	3176.11
397.97	3152.70
398.16	3105.89
398.35	3227.60
398.55	3183.13
398.74	3133.98
398.93	3129.30
399.12	3239.30
399.32	3258.03
399.51	3414.84
399.70	3267.39
399.90	3353.99
400.09	3365.69
400.28	3459.31
400.47	3332.92
400.67	3548.25
400.86	3513.14
401.05	3524.85
401.24	3475.70
401.44	3548.25
401.63	3588.04
401.82	3478.04
402.01	3473.36
402.21	3616.13
402.40	3691.02
402.59	3684.00
402.78	3726.13
402.97	3625.49
403.17	3749.54
403.36	3667.62
403.55	3885.29
403.74	3964.87
403.93	3950.82
404.13	4035.08
404.32	3866.56
404.51	3960.19
404.70	3908.69
404.89	4035.08
405.09	4086.58
405.28	4032.74
405.47	4159.13
405.66	4058.49
405.85	4037.42
406.05	4032.74
406.24	4227.01
406.43	4208.28
406.62	4182.54
406.81	4262.12
407.00	4236.37
407.20	4227.01
407.39	4231.69
407.58	4341.69
407.77	4318.29
407.96	4432.97
408.15	4498.51
408.34	4395.53
408.54	4540.64
408.73	4540.64
408.92	4580.43
409.11	4683.41
409.30	4449.36
409.49	4692.77
409.68	4660.01
409.87	4711.50
410.07	4812.14
410.26	4734.90
410.45	4807.46
410.64	4896.40
410.83	4868.31
411.02	4922.15
411.21	5013.43
411.40	4943.21
411.59	5048.54
411.78	4985.34
411.98	4994.70
412.17	5383.23
412.36	5167.90
412.55	5275.57
412.74	5483.88
412.93	5338.76
413.12	5434.72
413.31	5528.35
413.50	5490.90
413.69	5542.39
413.88	5729.63
414.07	5547.07
414.26	5621.97
414.45	5727.29
414.64	5668.78
414.83	5795.17
415.02	5886.45
415.22	6010.50
415.41	5961.34
415.60	6136.88
415.79	5956.66
415.98	6155.61
416.17	6008.16
416.36	6033.90
416.55	6090.07
416.74	6265.61
416.93	6363.92
417.12	6420.09
417.31	6532.44
417.50	6387.32
417.69	6590.95
417.88	6614.35
418.07	6602.65
418.26	6427.11
418.45	6553.50
418.64	6918.62
418.83	6736.06
419.02	6761.81
419.21	6949.05
419.39	6717.34
419.58	6939.69
419.77	6782.87
419.96	7110.55
420.15	6949.05
420.34	6972.46
420.53	6932.67
420.72	7159.70
420.91	7190.13
421.10	7225.23
421.29	7183.10
421.48	7124.59
421.67	7243.96
421.86	7368.01
422.05	7428.86
422.24	7262.68
422.43	7454.61
422.61	7386.73
422.80	7674.62
422.99	7449.93
423.18	7545.89
423.37	7597.38
423.56	7641.85
423.75	7499.08
423.94	7351.62
424.13	6974.80
424.32	7236.94
424.50	7681.64
424.69	7588.02
424.88	7552.91
425.07	7602.06
425.26	7648.87
425.45	7726.11
425.64	7510.78
425.83	7573.97
426.01	7559.93
426.20	7737.81
426.39	7688.66
426.58	7602.06
426.77	7686.32
426.96	7672.28
427.15	7665.25
427.33	7829.09
427.52	7901.65
427.71	7988.25
427.90	7850.16
428.09	8037.40
428.28	8109.96
428.46	8044.42
428.65	8016.33
428.84	8283.16
429.03	8159.11
429.22	8149.75
429.40	8315.92
429.59	8276.13
429.78	8126.34
429.97	7988.25
430.16	8435.29
430.34	8540.61
430.53	8461.04
430.72	8657.64
430.91	8486.78
431.10	8582.74
431.28	8538.27
431.47	8870.63
431.66	8847.22
431.85	8842.54
432.03	8807.44
432.22	9076.60
432.41	8840.20
432.60	8847.22
432.79	8959.57
432.97	8851.91
433.16	9006.38
433.35	9050.85
433.54	9219.37
433.72	9228.73
433.91	9380.87
434.10	9252.14
434.28	9235.75
434.47	9401.93
434.66	9294.27
434.85	9544.70
435.03	9731.95
435.22	9703.86
435.41	10235.16
435.59	9804.50
435.78	9710.88
435.97	9841.95
436.16	9699.18
436.34	9783.44
436.53	9795.14
436.72	9923.87
436.90	9635.99
437.09	9937.91
437.28	9865.36
437.46	10026.86
437.65	10169.63
437.84	10045.58
438.02	10183.67
438.21	10164.95
438.40	10319.42
438.58	10574.54
438.77	10630.71
438.96	10342.83
439.14	10712.63
439.33	10771.15
439.52	10846.04
439.70	10885.83
439.89	11185.42
440.08	11047.33
440.26	11033.29
440.45	11122.23
440.63	11143.29
440.82	11438.20
441.01	11267.34
441.19	11470.97
441.38	11562.25
441.57	11782.26
441.75	11613.74
441.94	11824.39
442.12	11758.85
442.31	12301.86
442.50	12210.57
442.68	12184.83
442.87	12107.59
443.05	12187.17
443.24	12362.71
443.43	12334.62
443.61	12266.75
443.80	12538.25
443.98	12091.21
444.17	11854.81
444.35	12360.37
444.54	12610.81
444.73	12430.59
444.91	12479.74
445.10	12615.49
445.28	12465.69
445.47	12262.07
445.65	12418.88
445.84	12613.15
446.02	12496.12
446.21	12807.41
446.39	12468.03
446.58	12964.23
446.77	12954.87
446.95	12556.97
447.14	12655.28
447.32	12987.63
447.51	12844.86
447.69	12936.14
447.88	12760.60
448.06	12828.48
448.25	12671.66
448.43	12886.99
448.62	12755.92
448.80	12849.54
448.99	13083.59
449.17	13146.79
449.36	12989.97
449.54	13226.37
449.73	13483.83
449.91	13633.62
450.10	13462.76
450.28	13642.98
450.46	13542.34
450.65	13540.00
450.83	13509.57
451.02	13635.96
451.20	13891.08
451.39	13626.60
451.57	13722.56
451.76	13671.07
451.94	13743.63
452.13	14307.69
452.31	14150.88
452.49	13731.92
452.68	14284.29
452.86	13874.70
453.05	14033.85
453.23	14242.16
453.42	14164.92
453.60	14298.33
453.78	14193.01
453.97	14232.80
454.15	14298.33
454.34	14279.61
454.52	14656.43
454.70	14712.61
454.89	14635.37
455.07	14794.53
455.26	15037.94
455.44	15066.03
455.62	14773.46
455.81	14949.00
455.99	15082.41
456.17	14874.10
456.36	15108.16
456.54	15169.01
456.73	15426.47
456.91	15749.46
457.09	15826.70
457.28	15866.49
457.46	15492.01
457.64	15784.57
457.83	15833.72
458.01	15838.41
458.19	16208.21
458.38	16086.50
458.56	16102.89
458.74	16130.97
458.93	16301.83
459.11	16329.92
459.29	16432.90
459.48	16348.64
459.66	16287.79
459.84	16439.92
460.03	16659.93
460.21	16442.26
460.39	16549.93
460.57	16470.35
460.76	16856.54
460.94	16802.71
461.12	16893.99
461.31	16833.13
461.49	16800.37
461.67	16746.53
461.85	17174.85
462.04	17043.78
462.22	17874.67
462.40	17570.40
462.59	17226.34
462.77	17490.82
462.95	17685.09
463.13	17657.00
463.32	17532.95
463.50	17853.61
463.68	17855.95
463.86	18026.81
464.05	17467.42
464.23	17774.03
464.41	17886.37
464.59	17535.29
464.78	18443.42
464.96	18150.85
465.14	18087.66
465.32	18139.15
465.50	18286.61
465.69	18473.85
465.87	18436.40
466.05	18005.74
466.23	18408.31
466.41	18431.72
466.60	18817.91
466.78	18506.62
466.96	18228.09
467.14	18370.86
467.32	18752.37
467.51	18829.61
467.69	18288.95
467.87	18775.78
468.05	19075.37
468.23	18766.42
468.41	18649.39
468.60	19019.19
468.78	19124.52
468.96	19117.50
469.14	19538.79
469.32	19744.76
469.50	19260.27
469.69	19889.87
469.87	19690.93
470.05	19737.74
470.23	19735.40
470.41	19892.21
470.59	20161.37
470.77	19887.53
470.95	20156.69
471.14	20456.28
471.32	19744.76
471.50	20718.42
471.68	20585.01
471.86	20762.89
472.04	20669.27
472.22	21528.25
472.40	20493.73
472.58	21048.44
472.77	20957.16
472.95	21163.12
473.13	21853.58
473.31	20924.39
473.49	21348.03
473.67	21568.04
473.85	21766.98
474.03	22036.14
474.21	21935.50
474.39	22342.75
474.57	22064.23
474.75	22661.07
474.93	22855.33
475.12	22565.10
475.30	22555.74
475.48	22857.67
475.66	22885.76
475.84	22672.77
476.02	23220.45
476.20	23302.37
476.38	23903.89
476.56	24060.71
476.74	24308.80
476.92	24098.16
477.10	24341.57
477.28	24538.18
477.46	24304.12
477.64	24671.59
477.82	25015.65
478.00	25523.54
478.18	25905.05
478.36	25626.53
478.54	26279.54
478.72	25944.84
478.90	26214.00
479.08	26326.35
479.26	26965.31
479.44	27129.15
479.62	26796.79
479.80	27651.09
479.98	27505.98
480.16	28327.50
480.34	27559.81
480.52	28116.86
480.70	28329.84
480.88	28037.28
481.06	28741.78
481.24	28500.70
481.41	28769.86
481.59	29558.63
481.77	29539.90
481.95	29890.98
482.13	30185.89
482.31	30029.07
482.49	30752.30
482.67	30565.06
482.85	30820.17
483.03	31393.61
483.21	31756.39
483.39	31814.90
483.57	31487.23
483.74	32306.41
483.92	32348.54
484.10	32486.64
484.28	32723.03
484.46	33261.35
484.64	34462.05
484.82	33165.39
485.00	33652.22
485.18	34565.03
485.35	35143.14
485.53	34644.61
485.71	35140.80
485.89	35400.60
486.07	35526.99
486.25	35585.50
486.43	35969.35
486.61	36254.90
486.78	36290.01
486.96	36769.82
487.14	37006.21
487.32	37132.60
487.50	37979.87
487.68	38103.92
487.85	38410.53
488.03	39093.97
488.21	39007.37
488.39	39138.44
488.57	39040.14
488.75	39459.09
488.92	39763.36
489.10	40458.50
489.28	40308.71
489.46	41284.71
489.64	40659.79
489.81	41563.23
489.99	41879.21
490.17	41848.78
490.35	42328.59
490.53	42866.91
490.70	42672.65
490.88	42731.16
491.06	43445.02
491.24	43091.60
491.41	43613.54
491.59	44041.86
491.77	43929.51
491.95	44463.16
492.13	44856.37
492.30	45057.65
492.48	44659.76
492.66	45088.08
492.84	45537.46
493.01	45998.55
493.19	46382.40
493.37	46251.33
493.54	46457.29
493.72	47063.49
493.90	47054.13
494.08	47356.06
494.25	47765.65
494.43	47657.99
494.61	47992.68
494.79	48184.61
494.96	48526.33
495.14	48505.26
495.32	49043.59
495.49	48910.17
495.67	49298.70
495.85	49542.12
496.02	49975.12
496.20	49853.41
496.38	50183.43
496.55	50183.43
496.73	50918.35
496.91	50698.34
497.09	50859.84
497.26	51037.72
497.44	51065.81
497.62	51285.82
497.79	51906.06
497.97	51901.38
498.14	52294.59
498.32	52533.32
498.50	52420.98
498.67	52416.30
498.85	52196.29
499.03	52956.96
499.20	52823.55
499.38	52989.73
499.56	53265.91
499.73	53724.66
499.91	53385.28
500.08	53647.42
500.26	53291.66
500.44	53907.22
500.61	53918.92
500.79	53904.88
500.97	53897.86
501.14	54653.85
501.32	54431.50
501.49	54597.68
501.67	54735.77
501.84	54822.37
502.02	54822.37
502.20	55023.65
502.37	55238.98
502.55	55178.13
502.72	55260.05
502.90	55302.18
503.07	55173.45
503.25	55620.49
503.43	55360.69
503.60	55573.68
503.78	55618.15
503.95	55889.65
504.13	56126.05
504.30	56156.47
504.48	56114.34
504.65	56357.76
504.83	56662.03
505.01	56919.49
505.18	56566.07
505.36	56882.04
505.53	56739.27
505.71	56858.63
505.88	57031.83
506.06	56818.84
506.23	57542.07
506.41	57031.83
506.58	57116.09
506.76	57130.14
506.93	57553.77
507.11	57312.70
507.28	57769.10
507.46	57682.50
507.63	57755.06
507.81	58136.57
507.98	57607.61
508.16	57726.97
508.33	58092.10
508.50	58260.62
508.68	58560.20
508.85	58475.94
509.03	58489.99
509.20	58429.13
509.38	58906.60
509.55	58651.48
509.73	58922.99
509.90	59058.74
510.08	58944.05
510.25	58908.94
510.42	59000.22
510.60	59309.18
510.77	59079.80
510.95	59245.98
511.12	59253.00
511.30	59388.75
511.47	59456.63
511.64	59552.59
511.82	59826.43
511.99	59522.16
512.17	59807.71
512.34	59700.04
512.51	60058.15
512.69	60205.60
512.86	60081.55
513.04	60367.10
513.21	60320.29
513.38	60186.88
513.56	60420.93
513.73	60350.71
513.90	60676.05
514.08	60456.04
514.25	60631.58
514.43	60685.41
514.60	60783.71
514.77	60809.46
514.95	60732.22
515.12	60687.75
515.29	60891.38
515.47	61064.58
515.64	61357.14
515.81	61162.88
515.99	61268.20
516.16	61212.03
516.33	61303.31
516.51	61502.26
516.68	61261.18
516.85	61556.09
517.03	61740.99
517.20	61710.56
517.37	61630.99
517.54	61666.09
517.72	61422.68
517.89	61689.50
518.06	61932.92
518.24	61907.17
518.41	62005.47
518.58	62246.55
518.75	61907.17
518.93	62028.88
519.10	61963.34
519.27	62419.75
519.45	62042.92
519.62	62471.24
519.79	62473.58
519.96	62487.62
520.14	62738.06
520.31	62471.24
520.48	62616.35
520.65	62590.61
520.83	62782.53
521.00	62929.98
521.17	62787.21
521.34	62990.84
521.52	62782.53
521.69	62911.26
521.86	62979.14
522.03	63035.31
522.20	63430.86
522.38	63416.82
522.55	63370.00
522.72	63468.31
522.89	63262.34
523.07	63444.90
523.24	63231.91
523.41	63678.96
523.58	63484.69
523.75	63807.68
523.92	63795.98
524.10	63817.05
524.27	63807.68
524.44	63807.68
524.61	64046.42
524.78	64048.76
524.96	63983.22
525.13	64044.08
525.30	64212.60
525.47	64285.15
525.64	64083.87
525.81	64156.42
525.98	64264.09
526.16	64149.40
526.33	64264.09
526.50	64472.40
526.67	64404.52
526.84	64566.02
527.01	64647.94
527.18	64725.17
527.36	64764.96
527.53	64685.39
527.70	64746.24
527.87	64853.90
528.04	64877.31
528.21	64963.91
528.38	64818.80
528.55	65109.02
528.72	64720.49
528.89	65022.42
529.07	64881.99
529.24	64790.71
529.41	65193.28
529.58	65310.31
529.75	65249.45
529.92	65380.52
530.09	65251.80
530.26	65127.75
530.43	65230.73
530.60	65162.85
530.77	65368.82
530.94	65448.40
531.11	65469.46
531.28	65535.00
531.46	65488.19
531.63	65535.00
531.80	65535.00
531.97	65535.00
532.14	65535.00
532.31	65535.00
532.48	65535.00
532.65	65535.00
532.82	65535.00
532.99	65535.00
533.16	65535.00
533.33	65535.00
533.50	65535.00
533.67	65535.00
533.84	65535.00
534.01	65535.00
534.18	65535.00
534.35	65535.00
534.52	65535.00
534.69	65535.00
534.86	65535.00
535.03	65535.00
535.20	65535.00
535.37	65535.00
535.54	65535.00
535.71	65535.00
535.88	65535.00
536.05	65535.00
536.22	65535.00
536.38	65535.00
536.55	65535.00
536.72	65535.00
536.89	65535.00
537.06	65535.00
537.23	65535.00
537.40	65535.00
537.57	65535.00
537.74	65535.00
537.91	65535.00
538.08	65535.00
538.25	65535.00
538.42	65535.00
538.59	65535.00
538.75	65535.00
538.92	65535.00
539.09	65535.00
539.26	65535.00
539.43	65535.00
539.60	65535.00
539.77	65535.00
539.94	65535.00
540.11	65535.00
540.28	65535.00
540.44	65535.00
540.61	65535.00
540.78	65535.00
540.95	65535.00
541.12	65535.00
541.29	65535.00
541.46	65535.00
541.62	65535.00
541.79	65535.00
541.96	65535.00
542.13	65535.00
542.30	65535.00
542.47	65535.00
542.63	65535.00
542.80	65535.00
542.97	65535.00
543.14	65535.00
543.31	65535.00
543.48	65535.00
543.64	65535.00
543.81	65535.00
543.98	65535.00
544.15	65535.00
544.32	65535.00
544.48	65535.00
544.65	65535.00
544.82	65535.00
544.99	65535.00
545.16	65535.00
545.32	65535.00
545.49	65535.00
545.66	65535.00
545.83	65535.00
546.00	65535.00
546.16	65535.00
546.33	65535.00
546.50	65535.00
546.67	65535.00
546.83	65535.00
547.00	65535.00
547.17	65535.00
547.34	65535.00
547.50	65535.00
547.67	65535.00
547.84	65535.00
548.00	65535.00
548.17	65535.00
548.34	65535.00
548.51	65535.00
548.67	65535.00
548.84	65535.00
549.01	65535.00
549.18	65535.00
549.34	65535.00
549.51	65535.00
549.68	65535.00
549.84	65535.00
550.01	65535.00
550.18	65535.00
550.34	65535.00
550.51	65535.00
550.68	65535.00
550.84	65535.00
551.01	65535.00
551.18	65535.00
551.34	65535.00
551.51	65535.00
551.68	65535.00
551.84	65535.00
552.01	65535.00
552.18	65535.00
552.34	65535.00
552.51	65535.00
552.68	65535.00
552.84	65535.00
553.01	65535.00
553.18	65535.00
553.34	65535.00
553.51	65535.00
553.67	65535.00
553.84	65535.00
554.01	65535.00
554.17	65535.00
554.34	65535.00
554.51	65535.00
554.67	65535.00
554.84	65535.00
555.00	65535.00
555.17	65535.00
555.33	65535.00
555.50	65535.00
555.67	65535.00
555.83	65535.00
556.00	65535.00
556.16	65535.00
556.33	65535.00
556.50	65535.00
556.66	65535.00
556.83	65535.00
556.99	65535.00
557.16	65535.00
557.32	65535.00
557.49	65535.00
557.65	65535.00
557.82	65535.00
557.98	65535.00
558.15	65535.00
558.32	65535.00
558.48	65535.00
558.65	65535.00
558.81	65535.00
558.98	65535.00
559.14	65535.00
559.31	65535.00
559.47	65535.00
559.64	65535.00
559.80	65535.00
559.97	65535.00
560.13	65535.00
560.30	65535.00
560.46	65535.00
560.63	65535.00
560.79	65535.00
560.96	65535.00
561.12	65535.00
561.29	65535.00
561.45	65535.00
561.61	65535.00
561.78	65535.00
561.94	65535.00
562.11	65535.00
562.27	65535.00
562.44	65535.00
562.60	65535.00
562.77	65535.00
562.93	65535.00
563.10	65535.00
563.26	65535.00
563.42	65535.00
563.59	65535.00
563.75	65535.00
563.92	65535.00
564.08	65535.00
564.24	65535.00
564.41	65535.00
564.57	65535.00
564.74	65535.00
564.90	65535.00
565.07	65535.00
565.23	65535.00
565.39	65535.00
565.56	65535.00
565.72	65535.00
565.88	65535.00
566.05	65535.00
566.21	65535.00
566.38	65535.00
566.54	65535.00
566.70	65535.00
566.87	65535.00
567.03	65535.00
567.19	65535.00
567.36	65535.00
567.52	65535.00
567.68	65535.00
567.85	65535.00
568.01	65535.00
568.17	65535.00
568.34	65535.00
568.50	65535.00
568.66	65535.00
568.83	65535.00
568.99	65535.00
569.15	65535.00
569.32	65535.00
569.48	65535.00
569.64	65535.00
569.81	65535.00
569.97	65535.00
570.13	65535.00
570.30	65535.00
570.46	65535.00
570.62	65535.00
570.78	65535.00
570.95	65535.00
571.11	65535.00
571.27	65535.00
571.43	65535.00
571.60	65535.00
571.76	65535.00
571.92	65535.00
572.09	65535.00
572.25	65535.00
572.41	65535.00
572.57	65535.00
572.74	65535.00
572.90	65535.00
573.06	65535.00
573.22	65535.00
573.38	65535.00
573.55	65535.00
573.71	65535.00
573.87	65535.00
574.03	65535.00
574.20	65535.00
574.36	65535.00
574.52	65535.00
574.68	65535.00
574.84	65535.00
575.01	65535.00
575.17	65535.00
575.33	65535.00
575.49	65535.00
575.65	65535.00
575.82	65535.00
575.98	65535.00
576.14	65535.00
576.30	65535.00
576.46	65535.00
576.62	65535.00
576.79	65535.00
576.95	65535.00
577.11	65535.00
577.27	65535.00
577.43	65535.00
577.59	65535.00
577.75	65535.00
577.92	65535.00
578.08	65535.00
578.24	65535.00
578.40	65535.00
578.56	65535.00
578.72	65535.00
578.88	65535.00
579.04	65535.00
579.21	65535.00
579.37	65535.00
579.53	65535.00
579.69	65535.00
579.85	65535.00
580.01	65535.00
580.17	65535.00
580.33	65535.00
580.49	65535.00
580.65	65535.00
580.82	65535.00
580.98	65535.00
581.14	65535.00
581.30	65535.00
581.46	65535.00
581.62	65535.00
581.78	65535.00
581.94	65535.00
582.10	65535.00
582.26	65535.00
582.42	65535.00
582.58	65535.00
582.74	65535.00
582.90	65535.00
583.06	65535.00
583.22	65535.00
583.38	65535.00
583.54	65535.00
583.70	65535.00
583.86	65535.00
584.02	65535.00
584.18	65535.00
584.34	65535.00
584.50	65535.00
584.66	65535.00
584.82	65535.00
584.98	65535.00
585.14	65535.00
585.30	65535.00
585.46	65535.00
585.62	65535.00
585.78	65535.00
585.94	65535.00
586.10	65535.00
586.26	65535.00
586.42	65535.00
586.58	65535.00
586.74	65535.00
586.90	65535.00
