SpectraSuite Data File
++++++++++++++++++++++++++++++++++++
Date: Thu Oct 24 13:21:00 EDT 2013
User: stostad
Dark Spectrum Present: No
Reference Spectrum Present: No
Number of Sampled Component Spectra: 1
Spectrometers: USB2+H05261
Integration Time (usec): 100000 (USB2+H05261)
Spectra Averaged: 1 (USB2+H05261)
Boxcar Smoothing: 0 (USB2+H05261)
Correct for Electrical Dark: No (USB2+H05261)
Strobe/Lamp Enabled: No (USB2+H05261)
Correct for Detector Non-linearity: No (USB2+H05261)
Correct for Stray Light: No (USB2+H05261)
Number of Pixels in Processed Spectrum: 2048
>>>>>Begin Processed Spectral Data<<<<<
365.73	547.69
365.92	547.69
366.12	547.69
366.32	477.47
366.52	498.53
366.72	461.09
366.91	395.55
367.11	493.85
367.31	400.23
367.51	482.15
367.70	547.69
367.90	440.02
368.10	489.17
368.30	500.87
368.49	470.45
368.69	449.38
368.89	491.51
369.09	533.64
369.28	449.38
369.48	421.30
369.68	470.45
369.87	519.60
370.07	519.60
370.27	587.47
370.47	528.96
370.66	559.39
370.86	627.26
371.06	540.66
371.25	608.54
371.45	566.41
371.65	631.94
371.84	566.41
372.04	629.60
372.24	589.82
372.44	564.07
372.63	631.94
372.83	627.26
373.03	603.86
373.22	664.71
373.42	669.39
373.62	631.94
373.81	622.58
374.01	638.97
374.21	631.94
374.40	627.26
374.60	636.63
374.79	603.86
374.99	615.56
375.19	613.22
375.38	608.54
375.58	629.60
375.78	697.48
375.97	643.65
376.17	758.33
376.37	667.05
376.56	643.65
376.76	601.52
376.95	636.63
377.15	662.37
377.35	585.13
377.54	624.92
377.74	641.31
377.93	545.34
378.13	613.22
378.33	653.01
378.52	685.78
378.72	592.16
378.91	547.69
379.11	578.11
379.31	594.50
379.50	610.88
379.70	690.46
379.89	599.18
380.09	627.26
380.28	603.86
380.48	575.77
380.68	608.54
380.87	634.29
381.07	624.92
381.26	629.60
381.46	697.48
381.65	561.73
381.85	578.11
382.04	627.26
382.24	615.56
382.43	627.26
382.63	585.13
382.83	594.50
383.02	648.33
383.22	552.37
383.41	655.35
383.61	627.26
383.80	596.84
384.00	650.67
384.19	608.54
384.39	613.22
384.58	638.97
384.78	620.24
384.97	650.67
385.17	643.65
385.36	599.18
385.56	648.33
385.75	575.77
385.95	620.24
386.14	716.20
386.34	550.03
386.53	573.43
386.72	667.05
386.92	629.60
387.11	580.45
387.31	601.52
387.50	610.88
387.70	589.82
387.89	603.86
388.09	620.24
388.28	601.52
388.48	660.03
388.67	564.07
388.86	636.63
389.06	580.45
389.25	634.29
389.45	624.92
389.64	585.13
389.84	566.41
390.03	716.20
390.22	634.29
390.42	629.60
390.61	620.24
390.81	615.56
391.00	667.05
391.19	596.84
391.39	650.67
391.58	664.71
391.78	547.69
391.97	592.16
392.16	624.92
392.36	638.97
392.55	627.26
392.75	585.13
392.94	603.86
393.13	587.47
393.33	552.37
393.52	613.22
393.71	608.54
393.91	587.47
394.10	645.99
394.29	627.26
394.49	622.58
394.68	662.37
394.88	669.39
395.07	732.59
395.26	627.26
395.46	582.79
395.65	629.60
395.84	650.67
396.04	699.82
396.23	624.92
396.42	552.37
396.62	617.90
396.81	587.47
397.00	631.94
397.19	690.46
397.39	599.18
397.58	674.07
397.77	601.52
397.97	585.13
398.16	631.94
398.35	573.43
398.55	608.54
398.74	564.07
398.93	610.88
399.12	585.13
399.32	601.52
399.51	653.01
399.70	655.35
399.90	662.37
400.09	727.91
400.28	657.69
400.47	685.78
400.67	624.92
400.86	566.41
401.05	634.29
401.24	631.94
401.44	599.18
401.63	650.67
401.82	671.73
402.01	594.50
402.21	683.44
402.40	596.84
402.59	552.37
402.78	681.10
402.97	580.45
403.17	617.90
403.36	643.65
403.55	582.79
403.74	606.20
403.93	669.39
404.13	758.33
404.32	608.54
404.51	695.14
404.70	704.50
404.89	699.82
405.09	641.31
405.28	592.16
405.47	559.39
405.66	589.82
405.85	667.05
406.05	610.88
406.24	601.52
406.43	603.86
406.62	620.24
406.81	662.37
407.00	596.84
407.20	699.82
407.39	596.84
407.58	690.46
407.77	711.52
407.96	655.35
408.15	758.33
408.34	657.69
408.54	636.63
408.73	669.39
408.92	608.54
409.11	638.97
409.30	664.71
409.49	643.65
409.68	620.24
409.87	664.71
410.07	620.24
410.26	615.56
410.45	671.73
410.64	582.79
410.83	671.73
411.02	664.71
411.21	601.52
411.40	573.43
411.59	610.88
411.78	662.37
411.98	608.54
412.17	554.71
412.36	638.97
412.55	575.77
412.74	685.78
412.93	636.63
413.12	622.58
413.31	564.07
413.50	709.18
413.69	667.05
413.88	636.63
414.07	599.18
414.26	535.98
414.45	545.34
414.64	596.84
414.83	629.60
415.02	688.12
415.22	638.97
415.41	613.22
415.60	561.73
415.79	592.16
415.98	648.33
416.17	622.58
416.36	568.75
416.55	545.34
416.74	603.86
416.93	662.37
417.12	667.05
417.31	648.33
417.50	641.31
417.69	709.18
417.88	638.97
418.07	594.50
418.26	622.58
418.45	594.50
418.64	617.90
418.83	641.31
419.02	608.54
419.21	617.90
419.39	603.86
419.58	601.52
419.77	615.56
419.96	596.84
420.15	592.16
420.34	645.99
420.53	650.67
420.72	653.01
420.91	648.33
421.10	594.50
421.29	578.11
421.48	606.20
421.67	636.63
421.86	613.22
422.05	643.65
422.24	660.03
422.43	620.24
422.61	571.09
422.80	627.26
422.99	606.20
423.18	657.69
423.37	678.76
423.56	662.37
423.75	662.37
423.94	636.63
424.13	685.78
424.32	664.71
424.50	589.82
424.69	634.29
424.88	638.97
425.07	580.45
425.26	681.10
425.45	624.92
425.64	545.34
425.83	617.90
426.01	608.54
426.20	610.88
426.39	594.50
426.58	627.26
426.77	613.22
426.96	624.92
427.15	641.31
427.33	587.47
427.52	685.78
427.71	648.33
427.90	634.29
428.09	613.22
428.28	615.56
428.46	575.77
428.65	648.33
428.84	650.67
429.03	592.16
429.22	638.97
429.40	594.50
429.59	601.52
429.78	589.82
429.97	608.54
430.16	594.50
430.34	655.35
430.53	660.03
430.72	622.58
430.91	627.26
431.10	636.63
431.28	610.88
431.47	648.33
431.66	629.60
431.85	613.22
432.03	664.71
432.22	645.99
432.41	550.03
432.60	669.39
432.79	599.18
432.97	615.56
433.16	662.37
433.35	643.65
433.54	566.41
433.72	638.97
433.91	592.16
434.10	599.18
434.28	690.46
434.47	634.29
434.66	610.88
434.85	692.80
435.03	800.46
435.22	997.07
435.41	1130.48
435.59	1170.27
435.78	945.58
435.97	814.51
436.16	683.44
436.34	695.14
436.53	685.78
436.72	664.71
436.90	557.05
437.09	650.67
437.28	655.35
437.46	606.20
437.65	608.54
437.84	641.31
438.02	645.99
438.21	664.71
438.40	627.26
438.58	601.52
438.77	627.26
438.96	592.16
439.14	596.84
439.33	671.73
439.52	681.10
439.70	613.22
439.89	653.01
440.08	650.67
440.26	585.13
440.45	667.05
440.63	674.07
440.82	655.35
441.01	641.31
441.19	695.14
441.38	603.86
441.57	631.94
441.75	615.56
441.94	683.44
442.12	720.88
442.31	699.82
442.50	615.56
442.68	610.88
442.87	653.01
443.05	683.44
443.24	648.33
443.43	624.92
443.61	613.22
443.80	533.64
443.98	610.88
444.17	610.88
444.35	653.01
444.54	573.43
444.73	669.39
444.91	683.44
445.10	624.92
445.28	681.10
445.47	678.76
445.65	622.58
445.84	657.69
446.02	678.76
446.21	596.84
446.39	624.92
446.58	603.86
446.77	559.39
446.95	657.69
447.14	671.73
447.32	660.03
447.51	660.03
447.69	638.97
447.88	636.63
448.06	678.76
448.25	641.31
448.43	695.14
448.62	664.71
448.80	627.26
448.99	650.67
449.17	648.33
449.36	585.13
449.54	706.84
449.73	653.01
449.91	760.67
450.10	706.84
450.28	669.39
450.46	657.69
450.65	664.71
450.83	547.69
451.02	550.03
451.20	608.54
451.39	585.13
451.57	613.22
451.76	638.97
451.94	692.80
452.13	688.12
452.31	662.37
452.49	622.58
452.68	678.76
452.86	655.35
453.05	641.31
453.23	638.97
453.42	622.58
453.60	622.58
453.78	638.97
453.97	631.94
454.15	596.84
454.34	660.03
454.52	685.78
454.70	622.58
454.89	594.50
455.07	655.35
455.26	653.01
455.44	683.44
455.62	624.92
455.81	636.63
455.99	676.41
456.17	624.92
456.36	657.69
456.54	580.45
456.73	643.65
456.91	695.14
457.09	674.07
457.28	601.52
457.46	596.84
457.64	648.33
457.83	645.99
458.01	589.82
458.19	634.29
458.38	582.79
458.56	662.37
458.74	664.71
458.93	620.24
459.11	678.76
459.29	690.46
459.48	610.88
459.66	615.56
459.84	645.99
460.03	678.76
460.21	692.80
460.39	676.41
460.57	594.50
460.76	629.60
460.94	550.03
461.12	624.92
461.31	643.65
461.49	608.54
461.67	599.18
461.85	615.56
462.04	650.67
462.22	915.15
462.40	622.58
462.59	624.92
462.77	657.69
462.95	678.76
463.13	645.99
463.32	631.94
463.50	697.48
463.68	699.82
463.86	603.86
464.05	620.24
464.23	641.31
464.41	641.31
464.59	645.99
464.78	636.63
464.96	655.35
465.14	697.48
465.32	669.39
465.50	627.26
465.69	608.54
465.87	671.73
466.05	580.45
466.23	645.99
466.41	664.71
466.60	617.90
466.78	629.60
466.96	662.37
467.14	664.71
467.32	692.80
467.51	627.26
467.69	617.90
467.87	627.26
468.05	638.97
468.23	608.54
468.41	641.31
468.60	638.97
468.78	650.67
468.96	690.46
469.14	535.98
469.32	557.05
469.50	631.94
469.69	608.54
469.87	650.67
470.05	674.07
470.23	645.99
470.41	683.44
470.59	655.35
470.77	629.60
470.95	601.52
471.14	624.92
471.32	580.45
471.50	613.22
471.68	641.31
471.86	631.94
472.04	716.20
472.22	599.18
472.40	573.43
472.58	641.31
472.77	648.33
472.95	564.07
473.13	671.73
473.31	636.63
473.49	603.86
473.67	592.16
473.85	660.03
474.03	643.65
474.21	601.52
474.39	603.86
474.57	622.58
474.75	561.73
474.93	624.92
475.12	627.26
475.30	615.56
475.48	683.44
475.66	575.77
475.84	610.88
476.02	664.71
476.20	638.97
476.38	624.92
476.56	681.10
476.74	634.29
476.92	681.10
477.10	622.58
477.28	678.76
477.46	622.58
477.64	631.94
477.82	610.88
478.00	627.26
478.18	645.99
478.36	678.76
478.54	660.03
478.72	645.99
478.90	617.90
479.08	638.97
479.26	655.35
479.44	655.35
479.62	709.18
479.80	580.45
479.98	653.01
480.16	657.69
480.34	711.52
480.52	695.14
480.70	638.97
480.88	634.29
481.06	603.86
481.24	622.58
481.41	716.20
481.59	692.80
481.77	615.56
481.95	695.14
482.13	678.76
482.31	671.73
482.49	564.07
482.67	716.20
482.85	744.29
483.03	678.76
483.21	716.20
483.39	688.12
483.57	674.07
483.74	720.88
483.92	645.99
484.10	653.01
484.28	688.12
484.46	758.33
484.64	709.18
484.82	669.39
485.00	683.44
485.18	643.65
485.35	737.27
485.53	667.05
485.71	690.46
485.89	690.46
486.07	730.25
486.25	805.14
486.43	777.06
486.61	772.38
486.78	688.12
486.96	793.44
487.14	669.39
487.32	664.71
487.50	692.80
487.68	730.25
487.85	774.72
488.03	669.39
488.21	709.18
488.39	699.82
488.57	774.72
488.75	720.88
488.92	737.27
489.10	737.27
489.28	645.99
489.46	688.12
489.64	718.54
489.81	720.88
489.99	748.97
490.17	720.88
490.35	695.14
490.53	720.88
490.70	650.67
490.88	727.91
491.06	758.33
491.24	711.52
491.41	699.82
491.59	807.48
491.77	638.97
491.95	706.84
492.13	706.84
492.30	676.41
492.48	587.47
492.66	758.33
492.84	627.26
493.01	674.07
493.19	718.54
493.37	648.33
493.54	744.29
493.72	678.76
493.90	734.93
494.08	678.76
494.25	678.76
494.43	777.06
494.61	702.16
494.79	704.50
494.96	650.67
495.14	718.54
495.32	655.35
495.49	727.91
495.67	685.78
495.85	685.78
496.02	741.95
496.20	648.33
496.38	720.88
496.55	655.35
496.73	645.99
496.91	662.37
497.09	641.31
497.26	634.29
497.44	641.31
497.62	688.12
497.79	667.05
497.97	718.54
498.14	723.23
498.32	669.39
498.50	624.92
498.67	643.65
498.85	685.78
499.03	608.54
499.20	697.48
499.38	695.14
499.56	617.90
499.73	688.12
499.91	606.20
500.08	624.92
500.26	580.45
500.44	664.71
500.61	674.07
500.79	610.88
500.97	676.41
501.14	667.05
501.32	620.24
501.49	599.18
501.67	674.07
501.84	716.20
502.02	636.63
502.20	615.56
502.37	674.07
502.55	653.01
502.72	657.69
502.90	671.73
503.07	662.37
503.25	596.84
503.43	739.61
503.60	699.82
503.78	669.39
503.95	561.73
504.13	645.99
504.30	709.18
504.48	657.69
504.65	678.76
504.83	617.90
505.01	636.63
505.18	641.31
505.36	645.99
505.53	601.52
505.71	638.97
505.88	720.88
506.06	657.69
506.23	674.07
506.41	669.39
506.58	692.80
506.76	610.88
506.93	655.35
507.11	683.44
507.28	653.01
507.46	620.24
507.63	641.31
507.81	681.10
507.98	692.80
508.16	734.93
508.33	643.65
508.50	636.63
508.68	681.10
508.85	704.50
509.03	601.52
509.20	685.78
509.38	627.26
509.55	641.31
509.73	601.52
509.90	629.60
510.08	620.24
510.25	650.67
510.42	620.24
510.60	608.54
510.77	631.94
510.95	627.26
511.12	718.54
511.30	713.86
511.47	655.35
511.64	650.67
511.82	657.69
511.99	622.58
512.17	720.88
512.34	643.65
512.51	582.79
512.69	662.37
512.86	688.12
513.04	692.80
513.21	599.18
513.38	641.31
513.56	599.18
513.73	589.82
513.90	610.88
514.08	592.16
514.25	596.84
514.43	681.10
514.60	664.71
514.77	655.35
514.95	704.50
515.12	629.60
515.29	624.92
515.47	678.76
515.64	716.20
515.81	657.69
515.99	713.86
516.16	596.84
516.33	657.69
516.51	660.03
516.68	645.99
516.85	547.69
517.03	650.67
517.20	662.37
517.37	683.44
517.54	624.92
517.72	657.69
517.89	667.05
518.06	674.07
518.24	634.29
518.41	671.73
518.58	664.71
518.75	638.97
518.93	669.39
519.10	636.63
519.27	631.94
519.45	648.33
519.62	603.86
519.79	615.56
519.96	568.75
520.14	692.80
520.31	678.76
520.48	631.94
520.65	671.73
520.83	608.54
521.00	737.27
521.17	662.37
521.34	585.13
521.52	662.37
521.69	627.26
521.86	702.16
522.03	671.73
522.20	671.73
522.38	674.07
522.55	667.05
522.72	697.48
522.89	699.82
523.07	706.84
523.24	596.84
523.41	634.29
523.58	629.60
523.75	594.50
523.92	587.47
524.10	681.10
524.27	631.94
524.44	613.22
524.61	624.92
524.78	674.07
524.96	660.03
525.13	690.46
525.30	660.03
525.47	685.78
525.64	664.71
525.81	629.60
525.98	629.60
526.16	620.24
526.33	678.76
526.50	669.39
526.67	638.97
526.84	524.28
527.01	671.73
527.18	671.73
527.36	641.31
527.53	645.99
527.70	528.96
527.87	657.69
528.04	648.33
528.21	695.14
528.38	629.60
528.55	727.91
528.72	664.71
528.89	718.54
529.07	681.10
529.24	664.71
529.41	674.07
529.58	657.69
529.75	596.84
529.92	638.97
530.09	690.46
530.26	709.18
530.43	709.18
530.60	704.50
530.77	613.22
530.94	697.48
531.11	711.52
531.28	683.44
531.46	653.01
531.63	653.01
531.80	688.12
531.97	655.35
532.14	683.44
532.31	678.76
532.48	650.67
532.65	718.54
532.82	669.39
532.99	692.80
533.16	655.35
533.33	685.78
533.50	695.14
533.67	650.67
533.84	669.39
534.01	720.88
534.18	692.80
534.35	704.50
534.52	692.80
534.69	681.10
534.86	657.69
535.03	678.76
535.20	636.63
535.37	702.16
535.54	734.93
535.71	688.12
535.88	692.80
536.05	645.99
536.22	678.76
536.38	678.76
536.55	723.23
536.72	755.99
536.89	669.39
537.06	676.41
537.23	720.88
537.40	739.61
537.57	748.97
537.74	753.65
537.91	725.57
538.08	765.36
538.25	763.01
538.42	697.48
538.59	788.76
538.75	809.83
538.92	755.99
539.09	791.10
539.26	718.54
539.43	788.76
539.60	870.68
539.77	915.15
539.94	875.36
540.11	922.17
540.28	985.37
540.44	954.94
540.61	894.08
540.78	964.30
540.95	1144.52
541.12	1245.16
541.29	1188.99
541.46	1228.78
541.62	1284.95
541.79	1282.61
541.96	1352.83
542.13	1313.04
542.30	1317.72
542.47	1289.64
542.63	1177.29
542.80	1228.78
542.97	1238.14
543.14	1306.02
543.31	1203.04
543.48	1207.72
543.64	1296.66
543.81	1273.25
543.98	1217.08
544.15	1198.35
544.32	1212.40
544.48	1224.10
544.65	1186.65
544.82	1186.65
544.99	1132.82
545.16	1104.73
545.32	1270.91
545.49	1568.16
545.66	2003.50
545.83	2078.40
546.00	1977.75
546.16	1741.36
546.33	1448.79
546.50	1362.19
546.67	1254.53
546.83	1158.57
547.00	1018.13
547.17	1025.15
547.34	938.55
547.50	1039.20
547.67	1001.75
547.84	945.58
548.00	905.79
548.17	945.58
548.34	945.58
548.51	961.96
548.67	870.68
548.84	858.98
549.01	917.49
549.18	866.00
549.34	887.06
549.51	908.13
549.68	870.68
549.84	924.51
550.01	858.98
550.18	889.40
550.34	933.87
550.51	816.85
550.68	835.57
550.84	793.44
551.01	753.65
551.18	833.23
551.34	819.19
551.51	774.72
551.68	788.76
551.84	734.93
552.01	713.86
552.18	805.14
552.34	739.61
552.51	755.99
552.68	795.78
552.84	725.57
553.01	725.57
553.18	699.82
553.34	669.39
553.51	758.33
553.67	758.33
553.84	791.10
554.01	772.38
554.17	697.48
554.34	716.20
554.51	718.54
554.67	690.46
554.84	777.06
555.00	669.39
555.17	613.22
555.33	711.52
555.50	716.20
555.67	755.99
555.83	662.37
556.00	734.93
556.16	819.19
556.33	699.82
556.50	582.79
556.66	685.78
556.83	629.60
556.99	713.86
557.16	636.63
557.32	657.69
557.49	676.41
557.65	669.39
557.82	681.10
557.98	671.73
558.15	667.05
558.32	648.33
558.48	568.75
558.65	641.31
558.81	706.84
558.98	720.88
559.14	620.24
559.31	636.63
559.47	662.37
559.64	671.73
559.80	692.80
559.97	709.18
560.13	645.99
560.30	617.90
560.46	634.29
560.63	613.22
560.79	634.29
560.96	720.88
561.12	615.56
561.29	622.58
561.45	638.97
561.61	720.88
561.78	760.67
561.94	688.12
562.11	653.01
562.27	674.07
562.44	559.39
562.60	648.33
562.77	648.33
562.93	669.39
563.10	681.10
563.26	613.22
563.42	676.41
563.59	667.05
563.75	702.16
563.92	685.78
564.08	599.18
564.24	578.11
564.41	699.82
564.57	676.41
564.74	617.90
564.90	683.44
565.07	685.78
565.23	737.27
565.39	624.92
565.56	655.35
565.72	732.59
565.88	603.86
566.05	627.26
566.21	613.22
566.38	664.71
566.54	627.26
566.70	716.20
566.87	638.97
567.03	620.24
567.19	643.65
567.36	606.20
567.52	683.44
567.68	688.12
567.85	655.35
568.01	695.14
568.17	648.33
568.34	683.44
568.50	620.24
568.66	664.71
568.83	636.63
568.99	634.29
569.15	660.03
569.32	615.56
569.48	690.46
569.64	678.76
569.81	596.84
569.97	716.20
570.13	716.20
570.30	660.03
570.46	706.84
570.62	610.88
570.78	667.05
570.95	587.47
571.11	720.88
571.27	716.20
571.43	634.29
571.60	695.14
571.76	641.31
571.92	671.73
572.09	660.03
572.25	671.73
572.41	641.31
572.57	613.22
572.74	676.41
572.90	662.37
573.06	627.26
573.22	690.46
573.38	674.07
573.55	723.23
573.71	704.50
573.87	624.92
574.03	603.86
574.20	688.12
574.36	702.16
574.52	641.31
574.68	683.44
574.84	641.31
575.01	653.01
575.17	669.39
575.33	685.78
575.49	690.46
575.65	760.67
575.82	699.82
575.98	734.93
576.14	671.73
576.30	758.33
576.46	755.99
576.62	901.11
576.79	961.96
576.95	854.30
577.11	828.55
577.27	788.76
577.43	723.23
577.59	695.14
577.75	688.12
577.92	711.52
578.08	763.01
578.24	650.67
578.40	692.80
578.56	854.30
578.72	938.55
578.88	884.72
579.04	866.00
579.21	842.59
579.37	802.80
579.53	795.78
579.69	777.06
579.85	720.88
580.01	746.63
580.17	784.08
580.33	716.20
580.49	779.40
580.65	837.91
580.82	730.25
580.98	770.04
581.14	732.59
581.30	758.33
581.46	704.50
581.62	737.27
581.78	765.36
581.94	819.19
582.10	699.82
582.26	688.12
582.42	788.76
582.58	760.67
582.74	770.04
582.90	727.91
583.06	767.70
583.22	718.54
583.38	807.48
583.54	767.70
583.70	800.46
583.86	798.12
584.02	812.17
584.18	798.12
584.34	683.44
584.50	784.08
584.66	770.04
584.82	767.70
584.98	751.31
585.14	765.36
585.30	772.38
585.46	763.01
585.62	755.99
585.78	702.16
585.94	795.78
586.10	697.48
586.26	734.93
586.42	795.78
586.58	795.78
586.74	800.46
586.90	842.59
587.06	887.06
587.22	903.45
587.38	851.96
587.54	901.11
587.70	786.42
587.86	866.00
588.02	823.87
588.18	781.74
588.34	753.65
588.49	755.99
588.65	781.74
588.81	734.93
588.97	751.31
589.13	765.36
589.29	720.88
589.45	730.25
589.61	732.59
589.77	734.93
589.93	734.93
590.08	784.08
590.24	737.27
590.40	727.91
590.56	746.63
590.72	739.61
590.88	664.71
591.04	690.46
591.20	690.46
591.35	706.84
591.51	727.91
591.67	772.38
591.83	734.93
591.99	807.48
592.15	823.87
592.31	821.53
592.46	800.46
592.62	802.80
592.78	805.14
592.94	851.96
593.10	823.87
593.26	763.01
593.41	812.17
593.57	816.85
593.73	809.83
593.89	716.20
594.05	739.61
594.20	718.54
594.36	734.93
594.52	727.91
594.68	669.39
594.84	791.10
594.99	788.76
595.15	751.31
595.31	702.16
595.47	739.61
595.62	727.91
595.78	674.07
595.94	676.41
596.10	725.57
596.25	709.18
596.41	671.73
596.57	690.46
596.73	784.08
596.88	784.08
597.04	711.52
597.20	643.65
597.36	671.73
597.51	730.25
597.67	669.39
597.83	638.97
597.99	723.23
598.14	755.99
598.30	739.61
598.46	755.99
598.61	741.95
598.77	711.52
598.93	688.12
599.09	758.33
599.24	706.84
599.40	798.12
599.56	751.31
599.71	699.82
599.87	702.16
600.03	758.33
600.18	720.88
600.34	737.27
600.50	727.91
600.65	697.48
600.81	685.78
600.97	667.05
601.12	683.44
601.28	723.23
601.44	697.48
601.59	631.94
601.75	690.46
601.91	702.16
602.06	643.65
602.22	732.59
602.37	702.16
602.53	641.31
602.69	664.71
602.84	653.01
603.00	688.12
603.16	650.67
603.31	653.01
603.47	688.12
603.62	615.56
603.78	704.50
603.94	674.07
604.09	657.69
604.25	657.69
604.40	690.46
604.56	636.63
604.71	603.86
604.87	692.80
605.03	688.12
605.18	727.91
605.34	690.46
605.49	763.01
605.65	660.03
605.80	709.18
605.96	702.16
606.12	683.44
606.27	746.63
606.43	702.16
606.58	793.44
606.74	765.36
606.89	760.67
607.05	716.20
607.20	667.05
607.36	713.86
607.51	734.93
607.67	690.46
607.82	741.95
607.98	800.46
608.13	727.91
608.29	725.57
608.44	786.42
608.60	784.08
608.75	723.23
608.91	788.76
609.06	866.00
609.22	917.49
609.37	854.30
609.53	922.17
609.68	1027.50
