SpectraSuite Data File
++++++++++++++++++++++++++++++++++++
Date: Thu Oct 24 13:21:12 EDT 2013
User: stostad
Dark Spectrum Present: No
Reference Spectrum Present: No
Number of Sampled Component Spectra: 1
Spectrometers: USB2+H05261
Integration Time (usec): 100000 (USB2+H05261)
Spectra Averaged: 1 (USB2+H05261)
Boxcar Smoothing: 0 (USB2+H05261)
Correct for Electrical Dark: No (USB2+H05261)
Strobe/Lamp Enabled: No (USB2+H05261)
Correct for Detector Non-linearity: No (USB2+H05261)
Correct for Stray Light: No (USB2+H05261)
Number of Pixels in Processed Spectrum: 2048
>>>>>Begin Processed Spectral Data<<<<<
365.73	603.86
365.92	603.86
366.12	603.86
366.32	517.26
366.52	442.36
366.72	498.53
366.91	517.26
367.11	498.53
367.31	507.90
367.51	430.66
367.70	437.68
367.90	489.17
368.10	383.85
368.30	456.40
368.49	456.40
368.69	496.19
368.89	470.45
369.09	411.93
369.28	561.73
369.48	603.86
369.68	500.87
369.87	535.98
370.07	507.90
370.27	535.98
370.47	535.98
370.66	709.18
370.86	755.99
371.06	716.20
371.25	798.12
371.45	716.20
371.65	674.07
371.84	657.69
372.04	711.52
372.24	723.23
372.44	805.14
372.63	748.97
372.83	802.80
373.03	809.83
373.22	774.72
373.42	821.53
373.62	720.88
373.81	748.97
374.01	718.54
374.21	788.76
374.40	830.89
374.60	887.06
374.79	898.77
374.99	896.43
375.19	835.57
375.38	835.57
375.58	823.87
375.78	814.51
375.97	816.85
376.17	767.70
376.37	837.91
376.56	791.10
376.76	830.89
376.95	814.51
377.15	819.19
377.35	800.46
377.54	765.36
377.74	774.72
377.93	823.87
378.13	739.61
378.33	779.40
378.52	770.04
378.72	784.08
378.91	835.57
379.11	795.78
379.31	828.55
379.50	856.64
379.70	830.89
379.89	863.66
380.09	910.47
380.28	826.21
380.48	884.72
380.68	802.80
380.87	837.91
381.07	866.00
381.26	861.32
381.46	828.55
381.65	870.68
381.85	826.21
382.04	912.81
382.24	903.45
382.43	823.87
382.63	826.21
382.83	856.64
383.02	840.25
383.22	847.27
383.41	851.96
383.61	936.21
383.80	915.15
384.00	959.62
384.19	866.00
384.39	858.98
384.58	863.66
384.78	877.70
384.97	814.51
385.17	847.27
385.36	868.34
385.56	936.21
385.75	835.57
385.95	926.85
386.14	950.26
386.34	915.15
386.53	898.77
386.72	940.90
386.92	964.30
387.11	947.92
387.31	936.21
387.50	861.32
387.70	915.15
387.89	961.96
388.09	882.38
388.28	1008.77
388.48	889.40
388.67	961.96
388.86	952.60
389.06	1004.09
389.25	1027.50
389.45	877.70
389.64	966.64
389.84	940.90
390.03	978.34
390.22	978.34
390.42	936.21
390.61	903.45
390.81	994.73
391.00	929.19
391.19	987.71
391.39	931.53
391.58	983.02
391.78	957.28
391.97	983.02
392.16	983.02
392.36	997.07
392.55	990.05
392.75	980.68
392.94	915.15
393.13	1018.13
393.33	983.02
393.52	1015.79
393.71	980.68
393.91	1046.22
394.10	1100.05
394.29	1046.22
394.49	1071.97
394.68	1027.50
394.88	1081.33
395.07	1015.79
395.26	1013.45
395.46	1029.84
395.65	1057.92
395.84	1053.24
396.04	1062.60
396.23	1128.14
396.42	1174.95
396.62	1114.10
396.81	1107.07
397.00	1064.94
397.19	1130.48
397.39	1001.75
397.58	1188.99
397.77	1121.12
397.97	1114.10
398.16	1102.39
398.35	1111.75
398.55	1029.84
398.74	1165.59
398.93	1205.38
399.12	1128.14
399.32	1235.80
399.51	1109.41
399.70	1153.88
399.90	1238.14
400.09	1160.91
400.28	1277.93
400.47	1125.80
400.67	1261.55
400.86	1174.95
401.05	1266.23
401.24	1207.72
401.44	1238.14
401.63	1151.54
401.82	1249.85
402.01	1240.48
402.21	1219.42
402.40	1263.89
402.59	1200.69
402.78	1247.51
402.97	1219.42
403.17	1233.46
403.36	1252.19
403.55	1355.17
403.74	1296.66
403.93	1313.04
404.13	1348.15
404.32	1404.32
404.51	1256.87
404.70	1404.32
404.89	1420.71
405.09	1331.76
405.28	1355.17
405.47	1420.71
405.66	1385.60
405.85	1390.28
406.05	1322.40
406.24	1385.60
406.43	1385.60
406.62	1348.15
406.81	1472.20
407.00	1460.49
407.20	1416.02
407.39	1418.36
407.58	1444.11
407.77	1479.22
407.96	1425.39
408.15	1418.36
408.34	1467.52
408.54	1430.07
408.73	1521.35
408.92	1416.02
409.11	1437.09
409.30	1554.12
409.49	1607.95
409.68	1509.65
409.87	1572.84
410.07	1502.62
410.26	1558.80
410.45	1596.25
410.64	1544.75
410.83	1570.50
411.02	1600.93
411.21	1631.35
411.40	1643.06
411.59	1544.75
411.78	1607.95
411.98	1621.99
412.17	1624.33
412.36	1593.90
412.55	1741.36
412.74	1647.74
412.93	1703.91
413.12	1671.14
413.31	1701.57
413.50	1748.38
413.69	1708.59
413.88	1757.74
414.07	1717.95
414.26	1781.15
414.45	1771.79
414.64	1811.57
414.83	1830.30
415.02	1785.83
415.22	1905.20
415.41	1893.49
415.60	1830.30
415.79	1874.77
415.98	1994.14
416.17	1853.70
416.36	1846.68
416.55	1806.89
416.74	2031.58
416.93	1919.24
417.12	1975.41
417.31	1966.05
417.50	2003.50
417.69	1996.48
417.88	1935.62
418.07	1856.04
418.26	1982.43
418.45	2008.18
418.64	2111.16
418.83	2143.93
419.02	2073.71
419.21	2080.74
419.39	2132.23
419.58	2022.22
419.77	2104.14
419.96	2108.82
420.15	2132.23
420.34	2122.87
420.53	2047.97
420.72	2127.55
420.91	2092.44
421.10	2242.23
421.29	2277.34
421.48	2190.74
421.67	2141.59
421.86	2204.78
422.05	2221.17
422.24	2125.21
422.43	2106.48
422.61	2197.76
422.80	2260.96
422.99	2230.53
423.18	2202.44
423.37	2265.64
423.56	2279.68
423.75	2188.40
423.94	2160.31
424.13	2076.06
424.32	2118.18
424.50	2256.28
424.69	2251.60
424.88	2300.75
425.07	2106.48
425.26	2122.87
425.45	2225.85
425.64	2282.02
425.83	2324.15
426.01	2303.09
426.20	2296.07
426.39	2270.32
426.58	2242.23
426.77	2289.04
426.96	2317.13
427.15	2279.68
427.33	2249.25
427.52	2310.11
427.71	2312.45
427.90	2298.41
428.09	2333.51
428.28	2359.26
428.46	2312.45
428.65	2464.58
428.84	2410.75
429.03	2459.90
429.22	2450.54
429.40	2471.61
429.59	2464.58
429.78	2413.09
429.97	2394.37
430.16	2342.88
430.34	2438.84
430.53	2387.35
430.72	2487.99
430.91	2492.67
431.10	2614.38
431.28	2537.14
431.47	2572.25
431.66	2534.80
431.85	2590.97
432.03	2530.12
432.22	2523.10
432.41	2590.97
432.60	2621.40
432.79	2532.46
432.97	2633.10
433.16	2588.63
433.35	2600.34
433.54	2621.40
433.72	2635.44
433.91	2710.34
434.10	2541.82
434.28	2567.57
434.47	2647.15
434.66	2745.45
434.85	2684.59
435.03	2803.96
435.22	3059.08
435.41	3157.38
435.59	3190.15
435.78	2892.90
435.97	2892.90
436.16	2864.82
436.34	2729.06
436.53	2677.57
436.72	2780.56
436.90	2708.00
437.09	2780.56
437.28	2904.60
437.46	2745.45
437.65	2799.28
437.84	2832.05
438.02	2789.92
438.21	2827.37
438.40	2892.90
438.58	2813.32
438.77	2885.88
438.96	3007.59
439.14	3038.02
439.33	2944.39
439.52	2995.89
439.70	2925.67
439.89	3112.91
440.08	3030.99
440.26	3045.04
440.45	3089.51
440.63	3136.32
440.82	3063.76
441.01	3159.72
441.19	3098.87
441.38	3122.27
441.57	3222.92
441.75	3225.26
441.94	3311.86
442.12	3248.66
442.31	3248.66
442.50	3258.03
442.68	3103.55
442.87	3218.24
443.05	3246.32
443.24	3293.13
443.43	3307.18
443.61	3288.45
443.80	3351.65
443.98	3260.37
444.17	3255.69
444.35	3433.57
444.54	3358.67
444.73	3382.07
444.91	3431.23
445.10	3344.63
445.28	3258.03
445.47	3283.77
445.65	3274.41
445.84	3431.23
446.02	3447.61
446.21	3393.78
446.39	3262.71
446.58	3482.72
446.77	3419.52
446.95	3337.60
447.14	3353.99
447.32	3414.84
447.51	3370.37
447.69	3419.52
447.88	3370.37
448.06	3454.63
448.25	3405.48
448.43	3363.35
448.62	3349.31
448.80	3447.61
448.99	3480.38
449.17	3433.57
449.36	3358.67
449.54	3506.12
449.73	3513.14
449.91	3552.93
450.10	3482.72
450.28	3686.34
450.46	3660.60
450.65	3627.83
450.83	3564.64
451.02	3574.00
451.20	3623.15
451.39	3679.32
451.57	3669.96
451.76	3637.19
451.94	3681.66
452.13	3637.19
452.31	3714.43
452.49	3588.04
452.68	3599.74
452.86	3606.77
453.05	3660.60
453.23	3691.02
453.42	3585.70
453.60	3730.81
453.78	3716.77
453.97	3709.75
454.15	3597.40
454.34	3702.73
454.52	3847.84
454.70	3667.62
454.89	3826.78
455.07	3686.34
455.26	3747.20
455.44	3873.59
455.62	3957.85
455.81	3817.41
455.99	3796.35
456.17	3892.31
456.36	3817.41
456.54	3922.74
456.73	3988.27
456.91	4018.70
457.09	3990.61
457.28	4079.55
457.46	4032.74
457.64	4011.68
457.83	4163.81
458.01	4007.00
458.19	4128.70
458.38	4194.24
458.56	4084.23
458.74	4152.11
458.93	4098.28
459.11	4086.58
459.29	4166.15
459.48	4152.11
459.66	4205.94
459.84	4184.88
460.03	4241.05
460.21	4248.07
460.39	4177.86
460.57	4264.46
460.76	4163.81
460.94	4292.54
461.12	4308.93
461.31	4215.30
461.49	4362.76
461.67	4358.08
461.85	4325.31
462.04	4297.22
462.22	4559.36
462.40	4358.08
462.59	4472.76
462.77	4402.55
462.95	4386.16
463.13	4432.97
463.32	4325.31
463.50	4540.64
463.68	4362.76
463.86	4517.23
464.05	4395.53
464.23	4505.53
464.41	4660.01
464.59	4458.72
464.78	4559.36
464.96	4414.25
465.14	4386.16
465.32	4578.09
465.50	4500.85
465.69	4636.60
465.87	4578.09
466.05	4535.96
466.23	4540.64
466.41	4755.97
466.60	4664.69
466.78	4636.60
466.96	4571.07
467.14	4667.03
467.32	4620.22
467.51	4716.18
467.69	4671.71
467.87	4753.63
468.05	4671.71
468.23	4676.39
468.41	4624.90
468.60	4634.26
468.78	4812.14
468.96	4711.50
469.14	4809.80
469.32	4774.69
469.50	4774.69
469.69	4837.89
469.87	4739.58
470.05	4924.49
470.23	4868.31
470.41	5004.07
470.59	4903.42
470.77	4795.76
470.95	4912.78
471.14	4882.36
471.32	4917.47
471.50	4950.23
471.68	5027.47
471.86	5020.45
472.04	5128.11
472.22	5149.18
472.40	5083.64
472.58	5085.98
472.77	5163.22
472.95	5039.17
473.13	5273.23
473.31	5144.50
473.49	5153.86
473.67	5235.78
473.85	5181.95
474.03	5219.39
474.21	5315.36
474.39	5338.76
474.57	5327.06
474.75	5373.87
474.93	5568.13
475.12	5355.15
475.30	5540.05
475.48	5474.51
475.66	5427.70
475.84	5628.99
476.02	5582.18
476.20	5572.82
476.38	5671.12
476.56	5881.77
476.74	5724.95
476.92	5755.38
477.10	5783.46
477.28	5771.76
477.46	5678.14
477.64	5818.57
477.82	5844.32
478.00	5980.07
478.18	5867.72
478.36	6029.22
478.54	6113.48
478.72	6176.67
478.90	6108.80
479.08	6183.70
479.26	6195.40
479.44	6310.08
479.62	6382.64
479.80	6600.31
479.98	6422.43
480.16	6853.09
480.34	6555.84
480.52	6562.86
480.70	6574.56
480.88	6586.27
481.06	6654.14
481.24	6469.24
481.41	6733.72
481.59	6733.72
481.77	6888.20
481.95	6925.65
482.13	7047.35
482.31	6963.09
482.49	7061.40
482.67	7094.16
482.85	7073.10
483.03	7131.61
483.21	7145.66
483.39	7281.41
483.57	7253.32
483.74	7293.11
483.92	7370.35
484.10	7564.61
484.28	7602.06
484.46	7653.55
484.64	7789.30
484.82	7599.72
485.00	7796.32
485.18	7822.07
485.35	8084.21
485.53	7976.55
485.71	8187.19
485.89	8266.77
486.07	7981.23
486.25	8166.13
486.43	8114.64
486.61	8196.56
486.78	8409.54
486.96	8587.43
487.14	8702.11
487.32	8425.93
487.50	8636.58
487.68	8449.33
487.85	8535.93
488.03	8688.07
488.21	8821.48
488.39	8748.92
488.57	8908.08
488.75	8992.34
488.92	9064.89
489.10	9144.47
489.28	9100.00
489.46	9341.08
489.64	9212.35
489.81	9343.42
489.99	9404.27
490.17	9387.89
490.35	9701.52
490.53	9621.94
490.70	9544.70
490.88	9633.64
491.06	9692.16
491.24	9823.23
491.41	9940.26
491.59	9944.94
491.77	9856.00
491.95	9987.07
492.13	9881.74
492.30	10083.03
492.48	10195.37
492.66	10211.76
492.84	10101.75
493.01	10263.25
493.19	10143.88
493.37	10406.02
493.54	10354.53
493.72	10630.71
493.90	10403.68
494.08	10637.73
494.25	10663.48
494.43	10731.36
494.61	10710.29
494.79	10848.38
494.96	11002.86
495.14	10862.43
495.32	10995.84
495.49	11105.84
495.67	10890.51
495.85	11201.80
496.02	11101.16
496.20	11375.00
496.38	11246.27
496.55	11396.07
496.73	11758.85
496.91	11520.12
497.09	11672.25
497.26	11604.38
497.44	11487.35
497.62	11426.50
497.79	11789.28
497.97	11896.94
498.14	11796.30
498.32	12037.38
498.50	12252.70
498.67	12107.59
498.85	12107.59
499.03	12119.29
499.20	12217.60
499.38	12325.26
499.56	12252.70
499.73	12262.07
499.91	12269.09
500.08	12313.56
500.26	12580.38
500.44	12397.82
500.61	12512.50
500.79	12514.84
500.97	12657.62
501.14	12886.99
501.32	12659.96
501.49	12786.35
501.67	12751.24
501.84	12917.42
502.02	12863.58
502.20	13034.44
502.37	12830.82
502.55	13111.68
502.72	13275.52
502.90	12872.95
503.07	13121.04
503.25	13074.23
503.43	12884.65
503.60	13277.86
503.78	13107.00
503.95	13305.95
504.13	13268.50
504.30	13041.46
504.48	13411.27
504.65	13671.07
504.83	13621.92
505.01	13500.21
505.18	13547.02
505.36	13708.52
505.53	13444.04
505.71	13867.67
505.88	13687.45
506.06	13675.75
506.23	13472.12
506.41	13734.26
506.58	13682.77
506.76	13830.23
506.93	13895.76
507.11	14047.90
507.28	14108.75
507.46	13811.50
507.63	13982.36
507.81	14211.73
507.98	14019.81
508.16	14232.80
508.33	14087.68
508.50	14398.98
508.68	14288.97
508.85	14572.18
509.03	14288.97
509.20	14384.93
509.38	14621.33
509.55	14848.36
509.73	14530.05
509.90	14595.58
510.08	14712.61
510.25	14614.30
510.42	14565.15
510.60	14553.45
510.77	14686.86
510.95	15023.90
511.12	14560.47
511.30	14789.85
511.47	14911.55
511.64	15204.12
511.82	14897.51
511.99	14960.70
512.17	14839.00
512.34	15161.99
512.51	15449.88
512.69	15300.08
512.86	15147.95
513.04	15328.17
513.21	15393.70
513.38	15262.63
513.56	15433.49
513.73	15314.13
513.90	15571.58
514.08	15625.42
514.25	15772.87
514.43	15550.52
514.60	15391.36
514.77	15829.04
514.95	15590.31
515.12	15623.08
515.29	15854.79
515.47	15859.47
515.64	15887.56
515.81	16215.23
515.99	15864.15
516.16	16128.63
516.33	16060.76
516.51	16292.47
516.68	16002.24
516.85	15988.20
517.03	16072.46
517.20	16177.78
517.37	16238.64
517.54	16116.93
517.72	16276.09
517.89	16182.46
518.06	16500.78
518.24	16435.24
518.41	16168.42
518.58	16285.45
518.75	16360.34
518.93	16334.60
519.10	16343.96
519.27	16449.28
519.45	16362.69
519.62	16278.43
519.79	16840.15
519.96	16638.87
520.14	16720.79
520.31	16414.18
520.48	16582.70
520.65	16727.81
520.83	16819.09
521.00	16767.60
521.17	17099.95
521.34	16624.83
521.52	16954.84
521.69	17146.76
521.86	16943.14
522.03	17060.16
522.20	17172.51
522.38	17092.93
522.55	17235.70
522.72	17055.48
522.89	17041.44
523.07	17504.87
523.24	17539.97
523.41	17425.29
523.58	17123.36
523.75	17493.16
523.92	17106.98
524.10	17530.61
524.27	17554.02
524.44	17724.88
524.61	17528.27
524.78	17493.16
524.96	17617.21
525.13	17710.83
525.30	17703.81
525.47	17568.06
525.64	17792.75
525.81	17699.13
525.98	17582.10
526.16	17493.16
526.33	17778.71
526.50	18150.85
526.67	17984.68
526.84	17909.78
527.01	18022.12
527.18	18066.60
527.36	17923.82
527.53	17750.62
527.70	17858.29
527.87	18047.87
528.04	18181.28
528.21	18246.82
528.38	18214.05
528.55	18380.23
528.72	18113.41
528.89	18321.71
529.07	18256.18
529.24	18104.04
529.41	18387.25
529.58	18473.85
529.75	18410.65
529.92	18162.56
530.09	18239.79
530.26	18127.45
530.43	18302.99
530.60	18312.35
530.77	18239.79
530.94	18555.77
531.11	18396.61
531.28	18333.42
531.46	18373.21
531.63	18483.21
531.80	18314.69
531.97	18455.12
532.14	18738.33
532.31	18691.52
532.48	18967.70
532.65	18686.84
532.82	18504.28
532.99	18845.99
533.16	18714.92
533.33	18923.23
533.50	18951.32
533.67	19115.16
533.84	18808.54
534.01	19089.41
534.18	19286.01
534.35	18916.21
534.52	19077.71
534.69	18803.86
534.86	18787.48
535.03	18745.35
535.20	18979.40
535.37	19026.21
535.54	19309.42
535.71	19426.45
535.88	19318.78
536.05	19506.02
536.22	19503.68
536.38	19662.84
536.55	19171.33
536.72	19723.69
536.89	19080.05
537.06	19730.72
537.23	19421.77
537.40	19405.38
537.57	19501.34
537.74	19606.67
537.91	19405.38
538.08	19655.82
538.25	19594.96
538.42	19374.95
538.59	19491.98
538.75	19389.00
538.92	19599.65
539.09	19620.71
539.26	19782.21
539.43	19707.31
539.60	19875.83
539.77	19604.33
539.94	19733.06
540.11	19667.52
540.28	20182.44
540.44	20074.77
540.61	20077.12
540.78	20236.27
540.95	20135.63
541.12	20383.73
541.29	20140.31
541.46	20524.16
541.62	20554.58
541.79	20725.44
541.96	20390.75
542.13	20154.35
542.30	20596.71
542.47	20318.19
542.63	20573.31
542.80	20676.29
542.97	20671.61
543.14	20606.08
543.31	20872.90
543.48	20369.68
543.64	20938.43
543.81	20688.00
543.98	20685.65
544.15	20688.00
544.32	21055.46
544.48	20957.16
544.65	20585.01
544.82	20854.17
544.99	20882.26
545.16	20943.11
545.32	21158.44
545.49	21418.24
545.66	21851.24
545.83	21844.22
546.00	22129.77
546.16	21664.00
546.33	21385.47
546.50	21125.68
546.67	21235.68
546.83	20601.40
547.00	21036.74
547.17	20877.58
547.34	20870.56
547.50	20882.26
547.67	21099.93
547.84	21062.48
548.00	21207.59
548.17	21193.55
548.34	20987.58
548.51	21448.67
548.67	21132.70
548.84	21050.78
549.01	20905.66
549.18	21500.16
549.34	20893.96
549.51	21383.13
549.68	21404.20
549.84	21186.53
550.01	21245.04
550.18	20966.52
550.34	21298.88
550.51	21535.27
550.68	21221.64
550.84	21352.71
551.01	21003.97
551.18	20877.58
551.34	20952.48
551.51	20856.51
551.68	21214.62
551.84	21373.77
552.01	21130.36
552.18	21280.15
552.34	21322.28
552.51	21261.43
552.68	21001.63
552.84	21167.80
553.01	21226.32
553.18	21458.03
553.34	21769.32
553.51	21467.39
553.67	21408.88
553.84	21546.97
554.01	21614.85
554.17	20882.26
554.34	21790.39
554.51	21654.64
554.67	21488.46
554.84	21174.83
555.00	21048.44
555.17	21095.25
555.33	21387.82
555.50	21352.71
555.67	21296.53
555.83	21708.47
556.00	21640.59
556.16	22136.79
556.33	21507.18
556.50	21825.50
556.66	21673.36
556.83	21373.77
556.99	21862.94
557.16	21745.92
557.32	21685.06
557.49	21654.64
557.65	21862.94
557.82	21317.60
557.98	21750.60
558.15	21497.82
558.32	21558.67
558.48	21619.53
558.65	21521.23
558.81	21781.03
558.98	21542.29
559.14	21652.30
559.31	21685.06
559.47	21713.15
559.64	21977.63
559.80	21795.07
559.97	22031.46
560.13	21790.39
560.30	21745.92
560.46	21916.78
560.63	21500.16
560.79	21942.52
560.96	22066.57
561.12	21790.39
561.29	21694.43
561.45	22008.06
561.61	22195.30
561.78	21977.63
561.94	22394.25
562.11	21706.13
562.27	21853.58
562.44	21982.31
562.60	22022.10
562.77	21968.27
562.93	21895.71
563.10	21984.65
563.26	21612.51
563.42	22405.95
563.59	22204.66
563.75	22078.27
563.92	22033.80
564.08	21912.10
564.24	21982.31
564.41	22256.15
564.57	22176.58
564.74	22221.05
564.90	21926.14
565.07	22024.44
565.23	22024.44
565.39	22115.72
565.56	21860.60
565.72	22148.49
565.88	22216.36
566.05	21937.84
566.21	21874.65
566.38	21893.37
566.54	22277.22
566.70	22178.92
566.87	22293.60
567.03	22267.86
567.19	22366.16
567.36	22319.35
567.52	22202.32
567.68	22293.60
567.85	22340.41
568.01	22284.24
568.17	22293.60
568.34	22038.48
568.50	22099.34
568.66	21954.22
568.83	22480.85
568.99	22031.46
569.15	22214.02
569.32	22141.47
569.48	22174.24
569.64	22249.13
569.81	22253.81
569.97	22328.71
570.13	22567.45
570.30	21869.97
570.46	22441.06
570.62	22279.56
570.78	22101.68
570.95	22396.59
571.11	22085.30
571.27	22347.44
571.43	21837.20
571.60	22209.34
571.76	21979.97
571.92	22127.42
572.09	22445.74
572.25	22202.32
572.41	22197.64
572.57	22471.48
572.74	22188.28
572.90	22075.93
573.06	22106.36
573.22	22246.79
573.38	22230.41
573.55	22422.33
573.71	22387.22
573.87	22511.27
574.03	22089.98
574.20	22235.09
574.36	22335.73
574.52	22398.93
574.68	22778.09
574.84	22211.68
575.01	22113.38
575.17	22534.68
575.33	22064.23
575.49	22356.80
575.65	22345.09
575.82	22277.22
575.98	22300.62
576.14	22647.02
576.30	22637.66
576.46	22553.40
576.62	22448.08
576.79	22501.91
576.95	22574.47
577.11	22176.58
577.27	22476.16
577.43	22703.20
577.59	22644.68
577.75	22389.56
577.92	22333.39
578.08	22373.18
578.24	22361.48
578.40	22602.55
578.56	22707.88
578.72	22586.17
578.88	22904.48
579.04	22815.54
579.21	22429.35
579.37	22684.47
579.53	22621.28
579.69	22572.13
579.85	22773.41
580.01	22317.01
580.17	22352.12
580.33	22293.60
580.49	22338.07
580.65	22778.09
580.82	22382.54
580.98	22403.61
581.14	22473.82
581.30	22625.96
581.46	22061.89
581.62	22101.68
581.78	22295.94
581.94	22312.33
582.10	22431.69
582.26	22422.33
582.42	22616.60
582.58	22427.01
582.74	22291.26
582.90	22703.20
583.06	22611.92
583.22	22471.48
583.38	22878.74
583.54	22347.44
583.70	22190.62
583.86	22265.52
584.02	22408.29
584.18	22560.42
584.34	22565.10
584.50	22490.21
584.66	22239.77
584.82	22244.45
584.98	22286.58
585.14	22478.50
585.30	22647.02
585.46	22654.05
585.62	22389.56
585.78	22698.52
585.94	22560.42
586.10	22848.31
586.26	22483.19
586.42	22682.13
586.58	22508.93
586.74	22867.03
586.90	22412.97
587.06	22476.16
587.22	22719.58
587.38	22618.94
587.54	22677.45
587.70	22682.13
587.86	22717.24
588.02	22726.60
588.18	22838.95
588.34	22728.94
588.49	22742.99
588.65	22637.66
588.81	22485.53
588.97	22661.07
589.13	22202.32
589.29	22698.52
589.45	23129.17
589.61	22923.21
589.77	22754.69
589.93	22686.81
590.08	22394.25
590.24	22841.29
590.40	22700.86
590.56	22665.75
590.72	22537.02
590.88	22483.19
591.04	22370.84
