SpectraSuite Data File
++++++++++++++++++++++++++++++++++++
Date: Thu Oct 24 13:21:03 EDT 2013
User: stostad
Dark Spectrum Present: No
Reference Spectrum Present: No
Number of Sampled Component Spectra: 1
Spectrometers: USB2+H05261
Integration Time (usec): 100000 (USB2+H05261)
Spectra Averaged: 1 (USB2+H05261)
Boxcar Smoothing: 0 (USB2+H05261)
Correct for Electrical Dark: No (USB2+H05261)
Strobe/Lamp Enabled: No (USB2+H05261)
Correct for Detector Non-linearity: No (USB2+H05261)
Correct for Stray Light: No (USB2+H05261)
Number of Pixels in Processed Spectrum: 2048
>>>>>Begin Processed Spectral Data<<<<<
365.73	500.87
365.92	500.87
366.12	500.87
366.32	479.81
366.52	550.03
366.72	461.09
366.91	456.40
367.11	451.72
367.31	484.49
367.51	493.85
367.70	538.32
367.90	479.81
368.10	463.43
368.30	463.43
368.49	475.13
368.69	507.90
368.89	423.64
369.09	517.26
369.28	491.51
369.48	557.05
369.68	468.11
369.87	550.03
370.07	444.70
370.27	524.28
370.47	512.58
370.66	547.69
370.86	535.98
371.06	554.71
371.25	573.43
371.45	638.97
371.65	653.01
371.84	575.77
372.04	641.31
372.24	671.73
372.44	629.60
372.63	580.45
372.83	627.26
373.03	653.01
373.22	732.59
373.42	648.33
373.62	655.35
373.81	638.97
374.01	711.52
374.21	699.82
374.40	629.60
374.60	638.97
374.79	641.31
374.99	662.37
375.19	667.05
375.38	655.35
375.58	622.58
375.78	592.16
375.97	592.16
376.17	587.47
376.37	613.22
376.56	589.82
376.76	594.50
376.95	627.26
377.15	709.18
377.35	662.37
377.54	699.82
377.74	676.41
377.93	615.56
378.13	653.01
378.33	657.69
378.52	514.92
378.72	615.56
378.91	737.27
379.11	634.29
379.31	592.16
379.50	645.99
379.70	678.76
379.89	690.46
380.09	575.77
380.28	561.73
380.48	645.99
380.68	545.34
380.87	599.18
381.07	561.73
381.26	636.63
381.46	624.92
381.65	664.71
381.85	613.22
382.04	641.31
382.24	699.82
382.43	587.47
382.63	592.16
382.83	587.47
383.02	601.52
383.22	669.39
383.41	615.56
383.61	648.33
383.80	645.99
384.00	653.01
384.19	610.88
384.39	650.67
384.58	557.05
384.78	685.78
384.97	641.31
385.17	627.26
385.36	690.46
385.56	660.03
385.75	662.37
385.95	650.67
386.14	608.54
386.34	645.99
386.53	599.18
386.72	653.01
386.92	610.88
387.11	650.67
387.31	573.43
387.50	575.77
387.70	578.11
387.89	603.86
388.09	575.77
388.28	599.18
388.48	568.75
388.67	702.16
388.86	650.67
389.06	674.07
389.25	578.11
389.45	566.41
389.64	578.11
389.84	678.76
390.03	601.52
390.22	643.65
390.42	606.20
390.61	697.48
390.81	592.16
391.00	561.73
391.19	674.07
391.39	624.92
391.58	641.31
391.78	676.41
391.97	573.43
392.16	662.37
392.36	610.88
392.55	615.56
392.75	589.82
392.94	599.18
393.13	648.33
393.33	573.43
393.52	613.22
393.71	685.78
393.91	653.01
394.10	596.84
394.29	603.86
394.49	629.60
394.68	610.88
394.88	575.77
395.07	624.92
395.26	713.86
395.46	587.47
395.65	638.97
395.84	650.67
396.04	664.71
396.23	617.90
396.42	645.99
396.62	641.31
396.81	671.73
397.00	629.60
397.19	655.35
397.39	692.80
397.58	608.54
397.77	561.73
397.97	592.16
398.16	636.63
398.35	660.03
398.55	589.82
398.74	620.24
398.93	674.07
399.12	582.79
399.32	636.63
399.51	667.05
399.70	578.11
399.90	653.01
400.09	631.94
400.28	606.20
400.47	601.52
400.67	638.97
400.86	603.86
401.05	688.12
401.24	610.88
401.44	599.18
401.63	664.71
401.82	695.14
402.01	681.10
402.21	678.76
402.40	629.60
402.59	617.90
402.78	613.22
402.97	629.60
403.17	653.01
403.36	596.84
403.55	631.94
403.74	648.33
403.93	706.84
404.13	725.57
404.32	702.16
404.51	582.79
404.70	641.31
404.89	657.69
405.09	603.86
405.28	674.07
405.47	631.94
405.66	601.52
405.85	521.94
406.05	622.58
406.24	631.94
406.43	671.73
406.62	660.03
406.81	643.65
407.00	613.22
407.20	615.56
407.39	599.18
407.58	603.86
407.77	641.31
407.96	617.90
408.15	650.67
408.34	655.35
408.54	603.86
408.73	610.88
408.92	667.05
409.11	669.39
409.30	608.54
409.49	671.73
409.68	650.67
409.87	603.86
410.07	638.97
410.26	681.10
410.45	650.67
410.64	606.20
410.83	627.26
411.02	582.79
411.21	641.31
411.40	592.16
411.59	575.77
411.78	580.45
411.98	617.90
412.17	606.20
412.36	573.43
412.55	657.69
412.74	596.84
412.93	641.31
413.12	610.88
413.31	706.84
413.50	648.33
413.69	596.84
413.88	622.58
414.07	578.11
414.26	678.76
414.45	559.39
414.64	592.16
414.83	617.90
415.02	660.03
415.22	629.60
415.41	620.24
415.60	685.78
415.79	695.14
415.98	695.14
416.17	594.50
416.36	608.54
416.55	624.92
416.74	617.90
416.93	634.29
417.12	622.58
417.31	660.03
417.50	575.77
417.69	608.54
417.88	615.56
418.07	641.31
418.26	589.82
418.45	643.65
418.64	636.63
418.83	634.29
419.02	688.12
419.21	564.07
419.39	636.63
419.58	606.20
419.77	653.01
419.96	664.71
420.15	582.79
420.34	587.47
420.53	629.60
420.72	645.99
420.91	636.63
421.10	575.77
421.29	603.86
421.48	629.60
421.67	617.90
421.86	648.33
422.05	582.79
422.24	599.18
422.43	599.18
422.61	615.56
422.80	627.26
422.99	660.03
423.18	641.31
423.37	660.03
423.56	624.92
423.75	688.12
423.94	655.35
424.13	599.18
424.32	629.60
424.50	650.67
424.69	685.78
424.88	641.31
425.07	603.86
425.26	662.37
425.45	648.33
425.64	650.67
425.83	587.47
426.01	638.97
426.20	627.26
426.39	657.69
426.58	627.26
426.77	669.39
426.96	634.29
427.15	573.43
427.33	606.20
427.52	645.99
427.71	634.29
427.90	631.94
428.09	669.39
428.28	648.33
428.46	610.88
428.65	629.60
428.84	641.31
429.03	629.60
429.22	594.50
429.40	601.52
429.59	643.65
429.78	716.20
429.97	636.63
430.16	660.03
430.34	655.35
430.53	688.12
430.72	627.26
430.91	645.99
431.10	627.26
431.28	685.78
431.47	594.50
431.66	610.88
431.85	603.86
432.03	669.39
432.22	655.35
432.41	645.99
432.60	648.33
432.79	662.37
432.97	657.69
433.16	566.41
433.35	540.66
433.54	603.86
433.72	692.80
433.91	645.99
434.10	613.22
434.28	624.92
434.47	613.22
434.66	685.78
434.85	615.56
435.03	781.74
435.22	968.98
435.41	997.07
435.59	990.05
435.78	889.40
435.97	873.02
436.16	753.65
436.34	664.71
436.53	641.31
436.72	690.46
436.90	645.99
437.09	664.71
437.28	645.99
437.46	645.99
437.65	648.33
437.84	655.35
438.02	671.73
438.21	678.76
438.40	662.37
438.58	627.26
438.77	594.50
438.96	669.39
439.14	615.56
439.33	667.05
439.52	676.41
439.70	643.65
439.89	690.46
440.08	617.90
440.26	587.47
440.45	690.46
440.63	678.76
440.82	669.39
441.01	674.07
441.19	645.99
441.38	634.29
441.57	697.48
441.75	599.18
441.94	697.48
442.12	634.29
442.31	660.03
442.50	615.56
442.68	678.76
442.87	615.56
443.05	641.31
443.24	653.01
443.43	641.31
443.61	634.29
443.80	657.69
443.98	622.58
444.17	695.14
444.35	634.29
444.54	587.47
444.73	655.35
444.91	690.46
445.10	648.33
445.28	627.26
445.47	641.31
445.65	678.76
445.84	638.97
446.02	608.54
446.21	580.45
446.39	629.60
446.58	627.26
446.77	692.80
446.95	622.58
447.14	683.44
447.32	624.92
447.51	587.47
447.69	629.60
447.88	634.29
448.06	575.77
448.25	622.58
448.43	634.29
448.62	608.54
448.80	638.97
448.99	664.71
449.17	636.63
449.36	561.73
449.54	692.80
449.73	627.26
449.91	547.69
450.10	671.73
450.28	636.63
450.46	688.12
450.65	660.03
450.83	557.05
451.02	645.99
451.20	655.35
451.39	631.94
451.57	629.60
451.76	669.39
451.94	657.69
452.13	655.35
452.31	653.01
452.49	585.13
452.68	695.14
452.86	592.16
453.05	624.92
453.23	615.56
453.42	683.44
453.60	608.54
453.78	528.96
453.97	599.18
454.15	631.94
454.34	617.90
454.52	622.58
454.70	697.48
454.89	641.31
455.07	657.69
455.26	662.37
455.44	730.25
455.62	641.31
455.81	617.90
455.99	638.97
456.17	699.82
456.36	622.58
456.54	594.50
456.73	580.45
456.91	578.11
457.09	631.94
457.28	697.48
457.46	650.67
457.64	671.73
457.83	610.88
458.01	617.90
458.19	667.05
458.38	636.63
458.56	599.18
458.74	613.22
458.93	648.33
459.11	676.41
459.29	594.50
459.48	690.46
459.66	695.14
459.84	664.71
460.03	692.80
460.21	655.35
460.39	645.99
460.57	615.56
460.76	629.60
460.94	660.03
461.12	657.69
461.31	622.58
461.49	683.44
461.67	622.58
461.85	650.67
462.04	662.37
462.22	924.51
462.40	669.39
462.59	655.35
462.77	662.37
462.95	709.18
463.13	664.71
463.32	631.94
463.50	688.12
463.68	657.69
463.86	653.01
464.05	676.41
464.23	664.71
464.41	603.86
464.59	620.24
464.78	603.86
464.96	608.54
465.14	575.77
465.32	636.63
465.50	711.52
465.69	638.97
465.87	580.45
466.05	573.43
466.23	622.58
466.41	674.07
466.60	603.86
466.78	706.84
466.96	645.99
467.14	709.18
467.32	603.86
467.51	695.14
467.69	732.59
467.87	688.12
468.05	692.80
468.23	617.90
468.41	629.60
468.60	704.50
468.78	655.35
468.96	608.54
469.14	613.22
469.32	622.58
469.50	559.39
469.69	573.43
469.87	592.16
470.05	662.37
470.23	617.90
470.41	606.20
470.59	589.82
470.77	622.58
470.95	596.84
471.14	669.39
471.32	587.47
471.50	732.59
471.68	690.46
471.86	622.58
472.04	578.11
472.22	634.29
472.40	599.18
472.58	613.22
472.77	695.14
472.95	629.60
473.13	638.97
473.31	664.71
473.49	674.07
473.67	582.79
473.85	690.46
474.03	599.18
474.21	610.88
474.39	681.10
474.57	718.54
474.75	606.20
474.93	613.22
475.12	617.90
475.30	596.84
475.48	688.12
475.66	664.71
475.84	596.84
476.02	660.03
476.20	683.44
476.38	617.90
476.56	688.12
476.74	624.92
476.92	606.20
477.10	608.54
477.28	622.58
477.46	634.29
477.64	629.60
477.82	617.90
478.00	613.22
478.18	638.97
478.36	620.24
478.54	676.41
478.72	543.00
478.90	622.58
479.08	636.63
479.26	603.86
479.44	667.05
479.62	671.73
479.80	617.90
479.98	617.90
480.16	578.11
480.34	741.95
480.52	669.39
480.70	732.59
480.88	634.29
481.06	690.46
481.24	624.92
481.41	622.58
481.59	702.16
481.77	634.29
481.95	620.24
482.13	699.82
482.31	631.94
482.49	641.31
482.67	685.78
482.85	650.67
483.03	624.92
483.21	629.60
483.39	594.50
483.57	624.92
483.74	711.52
483.92	643.65
484.10	645.99
484.28	739.61
484.46	667.05
484.64	709.18
484.82	676.41
485.00	730.25
485.18	634.29
485.35	667.05
485.53	671.73
485.71	732.59
485.89	610.88
486.07	681.10
486.25	741.95
486.43	706.84
486.61	690.46
486.78	711.52
486.96	713.86
487.14	702.16
487.32	641.31
487.50	695.14
487.68	737.27
487.85	667.05
488.03	725.57
488.21	730.25
488.39	748.97
488.57	690.46
488.75	664.71
488.92	758.33
489.10	713.86
489.28	678.76
489.46	711.52
489.64	648.33
489.81	681.10
489.99	671.73
490.17	650.67
490.35	688.12
490.53	711.52
490.70	697.48
490.88	634.29
491.06	653.01
491.24	711.52
491.41	709.18
491.59	744.29
491.77	732.59
491.95	669.39
492.13	580.45
492.30	713.86
492.48	706.84
492.66	727.91
492.84	734.93
493.01	648.33
493.19	667.05
493.37	690.46
493.54	779.40
493.72	695.14
493.90	669.39
494.08	641.31
494.25	739.61
494.43	685.78
494.61	690.46
494.79	744.29
494.96	662.37
495.14	676.41
495.32	643.65
495.49	629.60
495.67	674.07
495.85	683.44
496.02	690.46
496.20	657.69
496.38	631.94
496.55	631.94
496.73	678.76
496.91	627.26
497.09	695.14
497.26	655.35
497.44	688.12
497.62	702.16
497.79	608.54
497.97	641.31
498.14	650.67
498.32	657.69
498.50	660.03
498.67	674.07
498.85	638.97
499.03	685.78
499.20	709.18
499.38	669.39
499.56	725.57
499.73	685.78
499.91	603.86
500.08	671.73
500.26	645.99
500.44	669.39
500.61	692.80
500.79	613.22
500.97	641.31
501.14	655.35
501.32	613.22
501.49	669.39
501.67	702.16
501.84	631.94
502.02	585.13
502.20	685.78
502.37	594.50
502.55	643.65
502.72	620.24
502.90	667.05
503.07	678.76
503.25	638.97
503.43	664.71
503.60	669.39
503.78	615.56
503.95	594.50
504.13	571.09
504.30	676.41
504.48	653.01
504.65	657.69
504.83	685.78
505.01	706.84
505.18	688.12
505.36	690.46
505.53	610.88
505.71	620.24
505.88	601.52
506.06	650.67
506.23	667.05
506.41	592.16
506.58	627.26
506.76	629.60
506.93	730.25
507.11	676.41
507.28	620.24
507.46	676.41
507.63	627.26
507.81	667.05
507.98	582.79
508.16	638.97
508.33	606.20
508.50	657.69
508.68	662.37
508.85	615.56
509.03	629.60
509.20	664.71
509.38	627.26
509.55	695.14
509.73	645.99
509.90	657.69
510.08	641.31
510.25	660.03
510.42	660.03
510.60	669.39
510.77	624.92
510.95	629.60
511.12	585.13
511.30	697.48
511.47	725.57
511.64	638.97
511.82	676.41
511.99	664.71
512.17	655.35
512.34	610.88
512.51	674.07
512.69	575.77
512.86	531.30
513.04	671.73
513.21	662.37
513.38	622.58
513.56	636.63
513.73	667.05
513.90	601.52
514.08	683.44
514.25	669.39
514.43	713.86
514.60	615.56
514.77	608.54
514.95	688.12
515.12	620.24
515.29	638.97
515.47	629.60
515.64	699.82
515.81	641.31
515.99	648.33
516.16	636.63
516.33	624.92
516.51	648.33
516.68	538.32
516.85	624.92
517.03	561.73
517.20	613.22
517.37	650.67
517.54	667.05
517.72	608.54
517.89	685.78
518.06	634.29
518.24	674.07
518.41	669.39
518.58	678.76
518.75	662.37
518.93	610.88
519.10	676.41
519.27	641.31
519.45	643.65
519.62	702.16
519.79	685.78
519.96	603.86
520.14	631.94
520.31	667.05
520.48	678.76
520.65	578.11
520.83	650.67
521.00	660.03
521.17	629.60
521.34	610.88
521.52	585.13
521.69	643.65
521.86	606.20
522.03	704.50
522.20	676.41
522.38	681.10
522.55	690.46
522.72	627.26
522.89	667.05
523.07	737.27
523.24	674.07
523.41	662.37
523.58	636.63
523.75	650.67
523.92	653.01
524.10	667.05
524.27	599.18
524.44	664.71
524.61	650.67
524.78	653.01
524.96	653.01
525.13	622.58
525.30	634.29
525.47	641.31
525.64	669.39
525.81	638.97
525.98	681.10
526.16	653.01
526.33	650.67
526.50	615.56
526.67	608.54
526.84	627.26
527.01	617.90
527.18	617.90
527.36	655.35
527.53	643.65
527.70	685.78
527.87	622.58
528.04	676.41
528.21	671.73
528.38	685.78
528.55	645.99
528.72	660.03
528.89	599.18
529.07	697.48
529.24	706.84
529.41	617.90
529.58	638.97
529.75	643.65
529.92	648.33
530.09	662.37
530.26	702.16
530.43	610.88
530.60	692.80
530.77	669.39
530.94	608.54
531.11	566.41
531.28	580.45
531.46	599.18
531.63	615.56
531.80	636.63
531.97	631.94
532.14	620.24
532.31	699.82
532.48	683.44
532.65	725.57
532.82	704.50
532.99	664.71
533.16	737.27
533.33	664.71
533.50	667.05
533.67	678.76
533.84	678.76
534.01	678.76
534.18	650.67
534.35	599.18
534.52	711.52
534.69	777.06
534.86	671.73
535.03	662.37
535.20	620.24
535.37	713.86
535.54	657.69
535.71	624.92
535.88	683.44
536.05	685.78
536.22	669.39
536.38	681.10
536.55	681.10
536.72	697.48
536.89	669.39
537.06	709.18
537.23	615.56
537.40	713.86
537.57	753.65
537.74	671.73
537.91	753.65
538.08	730.25
538.25	699.82
538.42	725.57
538.59	781.74
538.75	653.01
538.92	763.01
539.09	706.84
539.26	758.33
539.43	826.21
539.60	732.59
539.77	826.21
539.94	779.40
540.11	926.85
540.28	947.92
540.44	926.85
540.61	908.13
540.78	924.51
540.95	950.26
541.12	1048.56
541.29	1015.79
541.46	1118.78
541.62	1144.52
541.79	1196.01
541.96	1137.50
542.13	1181.97
542.30	1111.75
542.47	1163.25
542.63	1146.86
542.80	1081.33
542.97	1102.39
543.14	1097.71
543.31	1128.14
543.48	1144.52
543.64	1146.86
543.81	1203.04
543.98	1053.24
544.15	1135.16
544.32	1125.80
544.48	1050.90
544.65	1071.97
544.82	1048.56
544.99	1095.37
545.16	1069.62
545.32	1174.95
545.49	1500.28
545.66	1755.40
545.83	1834.98
546.00	1579.86
546.16	1411.34
546.33	1282.61
546.50	1170.27
546.67	1165.59
546.83	1039.20
547.00	964.30
547.17	954.94
547.34	945.58
547.50	833.23
547.67	837.91
547.84	837.91
548.00	936.21
548.17	840.25
548.34	858.98
548.51	868.34
548.67	891.74
548.84	896.43
549.01	826.21
549.18	835.57
549.34	858.98
549.51	814.51
549.68	858.98
549.84	781.74
550.01	727.91
550.18	809.83
550.34	791.10
550.51	826.21
550.68	835.57
550.84	791.10
551.01	763.01
551.18	781.74
551.34	681.10
551.51	716.20
551.68	713.86
551.84	805.14
552.01	671.73
552.18	732.59
552.34	772.38
552.51	774.72
552.68	699.82
552.84	746.63
553.01	723.23
553.18	713.86
553.34	739.61
553.51	704.50
553.67	709.18
553.84	671.73
554.01	732.59
554.17	678.76
554.34	716.20
554.51	697.48
554.67	629.60
554.84	688.12
555.00	713.86
555.17	667.05
555.33	699.82
555.50	638.97
555.67	685.78
555.83	655.35
556.00	755.99
556.16	758.33
556.33	734.93
556.50	662.37
556.66	669.39
556.83	697.48
556.99	690.46
557.16	601.52
557.32	615.56
557.49	645.99
557.65	657.69
557.82	650.67
557.98	664.71
558.15	669.39
558.32	648.33
558.48	716.20
558.65	615.56
558.81	650.67
558.98	573.43
559.14	660.03
559.31	716.20
559.47	660.03
559.64	617.90
559.80	690.46
559.97	671.73
560.13	667.05
560.30	676.41
560.46	678.76
560.63	660.03
560.79	641.31
560.96	641.31
561.12	702.16
561.29	674.07
561.45	667.05
561.61	603.86
561.78	674.07
561.94	664.71
562.11	692.80
562.27	704.50
562.44	671.73
562.60	627.26
562.77	636.63
562.93	727.91
563.10	713.86
563.26	627.26
563.42	709.18
563.59	704.50
563.75	713.86
563.92	688.12
564.08	634.29
564.24	662.37
564.41	732.59
564.57	643.65
564.74	615.56
564.90	599.18
565.07	620.24
565.23	650.67
565.39	601.52
565.56	603.86
565.72	543.00
565.88	603.86
566.05	638.97
566.21	622.58
566.38	688.12
566.54	643.65
566.70	683.44
566.87	667.05
567.03	706.84
567.19	697.48
567.36	627.26
567.52	648.33
567.68	653.01
567.85	667.05
568.01	702.16
568.17	711.52
568.34	603.86
568.50	695.14
568.66	713.86
568.83	718.54
568.99	624.92
569.15	582.79
569.32	617.90
569.48	589.82
569.64	674.07
569.81	681.10
569.97	606.20
570.13	683.44
570.30	660.03
570.46	634.29
570.62	655.35
570.78	669.39
570.95	645.99
571.11	650.67
571.27	624.92
571.43	713.86
571.60	716.20
571.76	641.31
571.92	653.01
572.09	685.78
572.25	704.50
572.41	610.88
572.57	599.18
572.74	681.10
572.90	641.31
573.06	634.29
573.22	709.18
573.38	704.50
573.55	657.69
573.71	627.26
573.87	617.90
574.03	643.65
574.20	610.88
574.36	678.76
574.52	620.24
574.68	676.41
574.84	622.58
575.01	653.01
575.17	660.03
575.33	690.46
575.49	690.46
575.65	634.29
575.82	674.07
575.98	657.69
576.14	631.94
576.30	690.46
576.46	760.67
576.62	830.89
576.79	873.02
576.95	772.38
577.11	732.59
577.27	697.48
577.43	737.27
577.59	706.84
577.75	725.57
577.92	653.01
578.08	732.59
578.24	636.63
578.40	753.65
578.56	812.17
578.72	854.30
578.88	851.96
579.04	755.99
579.21	718.54
579.37	753.65
579.53	727.91
579.69	711.52
579.85	669.39
580.01	720.88
580.17	805.14
580.33	720.88
580.49	727.91
580.65	718.54
580.82	725.57
580.98	716.20
581.14	688.12
581.30	706.84
581.46	641.31
581.62	685.78
581.78	741.95
581.94	704.50
582.10	711.52
582.26	683.44
582.42	655.35
582.58	767.70
582.74	770.04
582.90	737.27
583.06	786.42
583.22	746.63
583.38	692.80
583.54	741.95
583.70	781.74
583.86	706.84
584.02	716.20
584.18	814.51
584.34	709.18
584.50	748.97
584.66	758.33
584.82	720.88
584.98	781.74
585.14	690.46
585.30	800.46
585.46	767.70
585.62	753.65
585.78	809.83
585.94	723.23
586.10	720.88
586.26	739.61
586.42	755.99
586.58	802.80
586.74	779.40
586.90	833.23
587.06	823.87
587.22	847.27
587.38	786.42
587.54	856.64
587.70	800.46
587.86	802.80
588.02	760.67
588.18	753.65
588.34	777.06
588.49	770.04
588.65	697.48
588.81	723.23
588.97	725.57
589.13	706.84
589.29	692.80
589.45	634.29
589.61	704.50
589.77	744.29
589.93	713.86
590.08	648.33
590.24	683.44
590.40	667.05
590.56	772.38
590.72	720.88
590.88	674.07
591.04	706.84
591.20	692.80
591.35	781.74
591.51	786.42
591.67	683.44
591.83	765.36
591.99	704.50
592.15	784.08
592.31	774.72
592.46	716.20
592.62	805.14
592.78	704.50
592.94	809.83
593.10	755.99
593.26	697.48
593.41	767.70
593.57	758.33
593.73	669.39
593.89	732.59
594.05	669.39
594.20	709.18
594.36	690.46
594.52	718.54
594.68	671.73
594.84	676.41
594.99	730.25
595.15	704.50
595.31	697.48
595.47	697.48
595.62	732.59
595.78	660.03
595.94	706.84
596.10	734.93
596.25	720.88
596.41	627.26
596.57	617.90
596.73	660.03
596.88	650.67
597.04	720.88
597.20	669.39
597.36	606.20
597.51	732.59
597.67	669.39
597.83	657.69
597.99	697.48
598.14	734.93
598.30	718.54
598.46	727.91
598.61	657.69
598.77	669.39
598.93	641.31
599.09	669.39
599.24	772.38
599.40	660.03
599.56	699.82
599.71	688.12
599.87	704.50
600.03	741.95
600.18	725.57
600.34	739.61
600.50	702.16
600.65	681.10
600.81	713.86
600.97	676.41
601.12	704.50
601.28	755.99
601.44	643.65
601.59	645.99
601.75	667.05
601.91	662.37
602.06	697.48
602.22	774.72
602.37	678.76
602.53	660.03
602.69	650.67
602.84	688.12
603.00	636.63
603.16	669.39
603.31	690.46
603.47	692.80
603.62	706.84
603.78	634.29
603.94	713.86
604.09	613.22
604.25	697.48
604.40	697.48
604.56	730.25
604.71	748.97
604.87	638.97
605.03	615.56
605.18	716.20
605.34	685.78
605.49	645.99
605.65	648.33
605.80	681.10
605.96	697.48
606.12	753.65
606.27	807.48
606.43	697.48
606.58	763.01
606.74	662.37
606.89	725.57
607.05	655.35
607.20	809.83
607.36	741.95
607.51	744.29
607.67	734.93
607.82	664.71
607.98	784.08
608.13	772.38
608.29	748.97
608.44	760.67
608.60	755.99
608.75	734.93
608.91	770.04
609.06	788.76
609.22	805.14
609.37	755.99
609.53	891.74
609.68	929.19
609.84	922.17
