SpectraSuite Data File
++++++++++++++++++++++++++++++++++++
Date: Thu Oct 24 13:21:24 EDT 2013
User: stostad
Dark Spectrum Present: No
Reference Spectrum Present: No
Number of Sampled Component Spectra: 1
Spectrometers: USB2+H05261
Integration Time (usec): 100000 (USB2+H05261)
Spectra Averaged: 1 (USB2+H05261)
Boxcar Smoothing: 0 (USB2+H05261)
Correct for Electrical Dark: No (USB2+H05261)
Strobe/Lamp Enabled: No (USB2+H05261)
Correct for Detector Non-linearity: No (USB2+H05261)
Correct for Stray Light: No (USB2+H05261)
Number of Pixels in Processed Spectrum: 2048
>>>>>Begin Processed Spectral Data<<<<<
365.73	519.60
365.92	519.60
366.12	519.60
366.32	507.90
366.52	486.83
366.72	468.11
366.91	428.32
367.11	440.02
367.31	440.02
367.51	526.62
367.70	433.00
367.90	414.27
368.10	449.38
368.30	428.32
368.49	486.83
368.69	461.09
368.89	458.74
369.09	491.51
369.28	517.26
369.48	409.59
369.68	477.47
369.87	475.13
370.07	451.72
370.27	540.66
370.47	674.07
370.66	938.55
370.86	983.02
371.06	903.45
371.25	966.64
371.45	950.26
371.65	1050.90
371.84	1006.43
372.04	1107.07
372.24	1006.43
372.44	1011.11
372.63	1069.62
372.83	1139.84
373.03	1048.56
373.22	992.39
373.42	1104.73
373.62	1018.13
373.81	1074.31
374.01	1111.75
374.21	1083.67
374.40	1074.31
374.60	1116.44
374.79	1217.08
374.99	1086.01
375.19	1135.16
375.38	1146.86
375.58	1069.62
375.78	1097.71
375.97	1203.04
376.17	1114.10
376.37	1165.59
376.56	1167.93
376.76	1219.42
376.95	1118.78
377.15	1217.08
377.35	1158.57
377.54	1212.40
377.74	1193.67
377.93	1200.69
378.13	1177.29
378.33	1245.16
378.52	1238.14
378.72	1266.23
378.91	1242.82
379.11	1224.10
379.31	1217.08
379.50	1226.44
379.70	1268.57
379.89	1240.48
380.09	1256.87
380.28	1270.91
380.48	1313.04
380.68	1238.14
380.87	1247.51
381.07	1270.91
381.26	1329.42
381.46	1299.00
381.65	1338.79
381.85	1247.51
382.04	1254.53
382.24	1380.92
382.43	1397.30
382.63	1371.55
382.83	1423.05
383.02	1364.53
383.22	1390.28
383.41	1401.98
383.61	1380.92
383.80	1423.05
384.00	1399.64
384.19	1366.87
384.39	1474.54
384.58	1348.15
384.78	1401.98
384.97	1397.30
385.17	1336.45
385.36	1540.07
385.56	1413.68
385.75	1483.90
385.95	1432.41
386.14	1490.92
386.34	1458.15
386.53	1488.58
386.72	1430.07
386.92	1579.86
387.11	1537.73
387.31	1394.96
387.50	1568.16
387.70	1519.01
387.89	1495.60
388.09	1561.14
388.28	1502.62
388.48	1570.50
388.67	1535.39
388.86	1589.22
389.06	1647.74
389.25	1678.16
389.45	1619.65
389.64	1558.80
389.84	1579.86
390.03	1624.33
390.22	1647.74
390.42	1666.46
390.61	1636.03
390.81	1671.14
391.00	1790.51
391.19	1715.61
391.39	1647.74
391.58	1657.10
391.78	1689.87
391.97	1713.27
392.16	1708.59
392.36	1797.53
392.55	1741.36
392.75	1795.19
392.94	1685.19
393.13	1748.38
393.33	1736.68
393.52	1823.28
393.71	1795.19
393.91	1785.83
394.10	1872.43
394.29	1937.96
394.49	1942.64
394.68	1968.39
394.88	1907.54
395.07	1898.17
395.26	1912.22
395.46	1895.83
395.65	1966.05
395.84	1980.09
396.04	2026.90
396.23	1928.60
396.42	2101.80
396.62	1930.94
396.81	2008.18
397.00	2043.29
397.19	2097.12
397.39	2040.95
397.58	2008.18
397.77	2012.86
397.97	2104.14
398.16	2047.97
398.35	2036.27
398.55	2085.42
398.74	2174.36
398.93	2165.00
399.12	2165.00
399.32	2223.51
399.51	2076.06
399.70	2284.36
399.90	2246.91
400.09	2270.32
400.28	2223.51
400.47	2244.57
400.67	2385.01
400.86	2244.57
401.05	2303.09
401.24	2265.64
401.44	2305.43
401.63	2443.52
401.82	2387.35
402.01	2221.17
402.21	2394.37
402.40	2354.58
402.59	2396.71
402.78	2476.29
402.97	2399.05
403.17	2539.48
403.36	2487.99
403.55	2541.82
403.74	2661.19
403.93	2588.63
404.13	2614.38
404.32	2513.74
404.51	2654.17
404.70	2562.89
404.89	2724.38
405.09	2691.62
405.28	2586.29
405.47	2726.72
405.66	2724.38
405.85	2703.32
406.05	2689.28
406.24	2789.92
406.43	2815.66
406.62	2890.56
406.81	2857.79
407.00	2820.35
407.20	2857.79
407.39	2740.77
407.58	2878.86
407.77	2820.35
407.96	3054.40
408.15	2993.55
408.34	2920.99
408.54	3030.99
408.73	3038.02
408.92	3066.10
409.11	3002.91
409.30	2986.52
409.49	3178.45
409.68	3075.46
409.87	3180.79
410.07	3225.26
410.26	3129.30
410.45	3204.19
410.64	3215.90
410.83	3295.47
411.02	3281.43
411.21	3431.23
411.40	3265.05
411.59	3363.35
411.78	3328.24
411.98	3386.76
412.17	3435.91
412.36	3412.50
412.55	3496.76
412.74	3571.66
412.93	3684.00
413.12	3637.19
413.31	3634.85
413.50	3632.51
413.69	3611.45
413.88	3775.28
414.07	3801.03
414.26	3805.71
414.45	3845.50
414.64	3871.25
414.83	3985.93
415.02	4004.66
415.22	4161.47
415.41	3936.78
415.60	4189.56
415.79	3964.87
415.98	4032.74
416.17	4159.13
416.36	4203.60
416.55	3983.59
416.74	4156.79
416.93	4088.92
417.12	4217.65
417.31	4269.14
417.50	4219.99
417.69	4444.68
417.88	4498.51
418.07	4388.50
418.26	4397.87
418.45	4351.06
418.64	4571.07
418.83	4500.85
419.02	4491.49
419.21	4610.86
419.39	4681.07
419.58	4615.54
419.77	4545.32
419.96	4585.11
420.15	4519.57
420.34	4748.95
420.53	4596.81
420.72	4683.41
420.91	4755.97
421.10	4685.75
421.29	4758.31
421.48	4596.81
421.67	4849.59
421.86	4770.01
422.05	4844.91
422.24	4821.50
422.43	4779.37
422.61	5008.75
422.80	5128.11
422.99	4975.98
423.18	4968.96
423.37	5093.01
423.56	5039.17
423.75	5020.45
423.94	4999.38
424.13	4587.45
424.32	4767.67
424.50	5195.99
424.69	5032.15
424.88	5034.49
425.07	4950.23
425.26	5041.51
425.45	5011.09
425.64	5034.49
425.83	5177.26
426.01	4978.32
426.20	5261.52
426.39	5076.62
426.58	5135.14
426.77	5102.37
426.96	5231.10
427.15	5268.55
427.33	5270.89
427.52	5130.45
427.71	5308.34
427.90	5200.67
428.09	5378.55
428.28	5359.83
428.46	5268.55
428.65	5387.91
428.84	5497.92
429.03	5313.02
429.22	5416.00
429.40	5420.68
429.59	5380.89
429.78	5462.81
429.97	5352.81
430.16	5757.72
430.34	5617.29
430.53	5633.67
430.72	5624.31
430.91	5575.16
431.10	5633.67
431.28	5647.71
431.47	5797.51
431.66	5818.57
431.85	5774.10
432.03	5912.19
432.22	5926.24
432.41	5879.43
432.60	5989.43
432.79	5954.32
432.97	6019.86
433.16	6073.69
433.35	6061.99
433.54	6045.60
433.72	6136.88
433.91	6008.16
434.10	5942.62
434.28	6125.18
434.47	6120.50
434.66	6176.67
434.85	6223.48
435.03	6352.21
435.22	6448.18
435.41	6590.95
435.59	6520.73
435.78	6399.02
435.97	6532.44
436.16	6420.09
436.34	6469.24
436.53	6462.22
436.72	6511.37
436.90	6377.96
437.09	6595.63
437.28	6485.62
437.46	6403.71
437.65	6494.99
437.84	6696.27
438.02	6476.26
438.21	6651.80
438.40	6656.48
438.58	6946.71
438.77	6853.09
438.96	6740.74
439.14	6918.62
439.33	7073.10
439.52	7061.40
439.70	7063.74
439.89	7140.97
440.08	7414.82
440.26	7295.45
440.45	7309.49
440.63	7304.81
440.82	7419.50
441.01	7349.28
441.19	7466.31
441.38	7534.18
441.57	7630.15
441.75	7669.94
441.94	7630.15
442.12	7571.63
442.31	7995.27
442.50	7866.54
442.68	7798.66
442.87	7784.62
443.05	7995.27
443.24	8009.31
443.43	8180.17
443.61	7913.35
443.80	8243.37
443.98	7850.16
444.17	7606.74
444.35	7906.33
444.54	8313.58
444.73	8100.59
444.91	8138.04
445.10	8257.41
445.28	8100.59
445.47	8079.53
445.65	8283.16
445.84	8229.32
446.02	8212.94
446.21	8470.40
446.39	8035.06
446.58	8196.56
446.77	8219.96
446.95	8070.17
447.14	8423.59
447.32	8344.01
447.51	8339.33
447.69	8187.19
447.88	8304.22
448.06	8395.50
448.25	8351.03
448.43	8177.83
448.62	8325.29
448.80	8262.09
448.99	8449.33
449.17	8542.96
449.36	8486.78
449.54	8498.49
449.73	8657.64
449.91	8725.52
450.10	8727.86
450.28	8767.65
450.46	8767.65
450.65	8683.39
450.83	8819.14
451.02	8854.25
451.20	9095.32
451.39	8966.59
451.57	8940.85
451.76	8674.03
451.94	8821.48
452.13	9032.13
452.31	8875.31
452.49	9011.06
452.68	9172.56
452.86	9231.07
453.05	9111.71
453.23	9118.73
453.42	9097.66
453.60	9060.21
453.78	9177.24
453.97	9252.14
454.15	9064.89
454.34	8966.59
454.52	9266.18
454.70	9224.05
454.89	9394.91
455.07	9423.00
455.26	9535.34
455.44	9591.52
455.62	9525.98
455.81	9439.38
455.99	9748.33
456.17	9544.70
456.36	9650.03
456.54	9713.22
456.73	10015.15
456.91	10017.49
457.09	9994.09
457.28	10160.27
457.46	10129.84
457.64	10136.86
457.83	10146.22
458.01	10066.64
458.19	10324.10
458.38	10228.14
458.56	10427.09
458.74	10157.92
458.93	10246.87
459.11	10326.44
459.29	10651.78
459.48	10328.78
459.66	10497.30
459.84	10534.75
460.03	10490.28
460.21	10551.14
460.39	10635.39
460.57	10546.45
460.76	10731.36
460.94	10913.92
461.12	10787.53
461.31	10799.23
461.49	10906.90
461.67	10827.32
461.85	11098.82
462.04	10850.72
462.22	11176.06
462.40	11456.92
462.59	11012.22
462.77	10951.37
462.95	11288.40
463.13	11147.97
463.32	11159.67
463.50	11382.03
463.68	11288.40
463.86	11349.26
464.05	11239.25
464.23	11197.12
464.41	11499.05
464.59	11192.44
464.78	11693.32
464.96	11473.31
465.14	11438.20
465.32	11688.64
465.50	11613.74
465.69	11810.34
465.87	11700.34
466.05	11679.27
466.23	11674.59
466.41	11667.57
466.60	11925.03
466.78	11618.42
466.96	11922.69
467.14	11892.26
467.32	11967.16
467.51	11981.20
467.69	11705.02
467.87	11901.62
468.05	11992.90
468.23	11765.87
468.41	12004.61
468.60	12248.02
468.78	12351.01
468.96	12037.38
469.14	12248.02
469.32	12528.89
469.50	12098.23
469.69	12351.01
469.87	12360.37
470.05	12748.90
470.23	12688.04
470.41	12657.62
470.59	12837.84
470.77	12566.34
470.95	12704.43
471.14	13060.19
471.32	12765.28
471.50	12898.69
471.68	13128.06
471.86	13043.81
472.04	12964.23
472.22	13495.53
472.40	13177.22
472.58	13151.47
472.77	13371.48
472.95	13500.21
473.13	14094.71
473.31	13385.52
473.49	13841.93
473.67	13380.84
473.85	13462.76
474.03	14083.00
474.21	13736.60
474.39	14022.15
474.57	13851.29
474.75	14300.67
474.93	14384.93
475.12	13888.74
475.30	14408.34
475.48	14164.92
475.66	14396.64
475.84	14567.49
476.02	14581.54
476.20	14927.94
476.38	14939.64
476.56	15140.93
476.74	15133.90
476.92	14890.49
477.10	15096.46
477.28	15463.92
477.46	15674.57
477.64	15672.23
477.82	16035.01
478.00	16095.86
478.18	15744.78
478.36	16210.55
478.54	16189.49
478.72	16257.36
478.90	16615.46
479.08	16699.72
479.26	16844.84
479.44	16809.73
479.62	16975.91
479.80	17149.11
479.98	17228.68
480.16	17729.56
480.34	17348.05
480.52	17518.91
480.70	17561.04
480.88	17516.57
481.06	17841.90
481.24	17790.41
481.41	18331.08
481.59	18480.87
481.77	18920.89
481.95	18548.75
482.13	18752.37
482.31	18759.39
482.49	19143.24
482.67	19138.56
482.85	19475.60
483.03	19700.29
483.21	19534.11
483.39	19847.74
483.57	19866.47
483.74	20102.86
483.92	20311.17
484.10	20182.44
484.28	20203.50
484.46	20751.19
484.64	21003.97
484.82	21003.97
485.00	20702.04
485.18	21727.19
485.35	22256.15
485.53	21774.00
485.71	21635.91
485.89	22324.03
486.07	22073.59
486.25	22281.90
486.43	22307.65
486.61	22492.55
486.78	22951.29
486.96	23014.49
487.14	23431.10
487.32	23215.77
487.50	23763.46
487.68	23803.25
487.85	23992.83
488.03	24322.85
488.21	24425.83
488.39	24460.94
488.57	24666.91
488.75	24748.82
488.92	24980.54
489.10	25006.28
489.28	25408.86
489.46	25795.04
489.64	25586.74
489.81	26403.58
489.99	26302.94
490.17	26106.34
490.35	26909.14
490.53	26651.68
490.70	26965.31
490.88	26630.62
491.06	26918.50
491.24	27419.38
491.41	27353.84
491.59	27859.40
491.77	27522.36
491.95	28044.30
492.13	28107.49
492.30	28554.54
492.48	28460.91
492.66	28446.87
492.84	28638.80
493.01	28823.70
493.19	29137.33
493.37	29369.04
493.54	29310.53
493.72	29291.80
493.90	29788.00
494.08	29563.31
494.25	29860.55
494.43	30096.95
494.61	30288.87
494.79	30408.24
494.96	30499.52
495.14	31152.53
495.32	31054.23
495.49	31543.40
495.67	31307.01
495.85	31489.57
496.02	31353.82
496.20	31906.18
496.38	31969.38
496.55	31875.76
496.73	32517.06
496.91	32439.82
497.09	33111.56
497.26	32882.19
497.44	33036.66
497.62	33027.30
497.79	33603.07
497.97	33462.64
498.14	33905.00
498.32	34122.67
498.50	33872.23
498.67	34246.72
498.85	33855.85
499.03	34211.61
499.20	34089.90
499.38	34852.92
499.56	34771.00
499.73	35206.34
499.91	35122.08
500.08	35096.33
500.26	35332.73
500.44	35381.88
500.61	35454.44
500.79	35454.44
500.97	36126.17
501.14	35896.80
501.32	36070.00
501.49	36072.34
501.67	36727.69
501.84	36708.96
502.02	36435.12
502.20	36889.18
502.37	36933.65
502.55	36692.58
502.72	36746.41
502.90	37179.41
503.07	37020.25
503.25	37240.26
503.43	37277.71
503.60	37546.87
503.78	37801.99
503.95	37764.54
504.13	37738.80
504.30	37743.48
504.48	37956.47
504.65	38258.40
504.83	38911.41
505.01	38740.55
505.18	38799.06
505.36	38979.28
505.53	39072.90
505.71	39325.68
505.88	39330.36
506.06	39119.71
506.23	39873.37
506.41	39564.42
506.58	39370.15
506.76	39716.55
506.93	39999.76
507.11	39765.70
507.28	40250.19
507.46	39634.63
507.63	40505.31
507.81	40182.32
507.98	40074.65
508.16	40322.75
508.33	40631.70
508.50	40821.28
508.68	41120.87
508.85	41352.58
509.03	41191.09
509.20	41373.65
509.38	41586.64
509.55	41422.80
509.73	41940.06
509.90	41923.68
510.08	42007.94
510.25	41977.51
510.42	42284.12
510.60	42033.68
510.77	42782.65
510.95	42642.22
511.12	42747.54
511.30	42960.53
511.47	43257.78
511.64	43026.07
511.82	43639.29
511.99	43217.99
512.17	43000.32
512.34	43601.84
512.51	43655.67
512.69	43885.04
512.86	43742.27
513.04	43744.61
513.21	43770.36
513.38	43856.96
513.56	44275.91
513.73	44039.52
513.90	44577.84
514.08	44308.68
514.25	44917.22
514.43	44652.74
514.60	44538.05
514.77	45015.52
514.95	45020.20
515.12	44594.23
515.29	44561.46
515.47	45324.47
515.64	45448.52
515.81	45158.30
515.99	45633.42
516.16	45544.48
516.33	45771.52
516.51	46312.18
516.68	45790.24
516.85	46115.58
517.03	46387.08
517.20	46253.67
517.37	46155.36
517.54	46429.21
517.72	45823.01
517.89	46436.23
518.06	46581.34
518.24	46768.58
518.41	47276.48
518.58	46810.71
518.75	46754.54
518.93	47089.24
519.10	47100.94
519.27	46887.95
519.45	47482.45
519.62	47557.35
519.79	47227.33
519.96	47583.09
520.14	47758.63
520.31	47145.41
520.48	47393.51
520.65	47522.24
520.83	48011.41
521.00	48065.24
521.17	48346.11
521.34	48069.92
521.52	48303.98
521.69	48238.44
521.86	48151.84
522.03	48479.52
522.20	48720.59
522.38	48856.34
522.55	48896.13
522.72	48924.22
522.89	49081.03
523.07	49139.55
523.24	49071.67
523.41	49219.13
523.58	48863.36
523.75	49659.15
523.92	49338.49
524.10	49467.22
524.27	49549.14
524.44	49731.70
524.61	49815.96
524.78	49806.60
524.96	49986.82
525.13	49860.43
525.30	50288.75
525.47	50609.40
525.64	50564.93
525.81	50117.89
525.98	50490.04
526.16	50033.63
526.33	50188.11
526.50	50389.39
526.67	50157.68
526.84	50583.66
527.01	50670.26
527.18	50590.68
527.36	50705.37
527.53	51070.49
527.70	50916.01
527.87	51110.28
528.04	50810.69
528.21	51313.90
528.38	51353.69
528.55	51576.04
528.72	51222.62
528.89	51285.82
529.07	51224.96
529.24	51283.48
529.41	51543.28
529.58	51414.55
529.75	51620.52
529.92	51643.92
530.09	51763.29
530.26	51367.74
530.43	51437.95
530.60	51391.14
530.77	51714.14
530.94	51688.39
531.11	51852.23
531.28	52233.74
531.46	52067.56
531.63	52271.18
531.80	52198.63
531.97	51938.83
532.14	52271.18
532.31	52343.74
532.48	52224.37
532.65	52418.64
532.82	52325.02
532.99	52509.92
533.16	52317.99
533.33	52554.39
533.50	52814.19
533.67	52577.79
533.84	52491.19
534.01	52818.87
534.18	53055.26
534.35	53244.85
534.52	52928.87
534.69	53333.79
534.86	53223.78
535.03	52666.73
535.20	53343.15
535.37	53392.30
535.54	53586.57
535.71	53319.74
535.88	53439.11
536.05	53350.17
536.22	53343.15
536.38	53581.88
536.55	53701.25
536.72	53434.43
536.89	53434.43
537.06	53553.80
537.23	54038.29
537.40	54038.29
537.57	53659.12
537.74	53820.62
537.91	54082.76
538.08	53829.98
538.25	53544.44
538.42	53900.20
538.59	54255.96
538.75	53951.69
538.92	54110.85
539.09	54057.01
539.26	53958.71
539.43	54096.80
539.60	54466.61
539.77	54272.34
539.94	54848.11
540.11	54401.07
540.28	54983.86
540.44	54712.36
540.61	54578.95
540.78	54628.10
540.95	54583.63
541.12	54789.60
541.29	54635.13
541.46	54663.21
541.62	54691.30
541.79	54951.10
541.96	54487.67
542.13	55126.64
542.30	54693.64
542.47	55049.40
542.63	54925.35
542.80	55138.34
542.97	55484.74
543.14	55671.98
543.31	55475.38
543.48	55363.03
543.64	55819.44
543.81	55461.33
543.98	55351.33
544.15	55657.94
544.32	55533.89
544.48	55943.48
544.65	55599.43
544.82	55653.26
544.99	55627.51
545.16	55962.21
545.32	55884.97
545.49	55997.32
545.66	56142.43
545.83	56435.00
546.00	56200.94
546.16	56147.11
546.33	56011.36
546.50	55934.12
546.67	55929.44
546.83	55683.69
547.00	55882.63
547.17	55800.71
547.34	55908.38
547.50	56238.39
547.67	56399.89
547.84	56268.82
548.00	56411.59
548.17	56516.92
548.34	56268.82
548.51	56521.60
548.67	56313.29
548.84	56301.59
549.01	56573.09
549.18	56509.89
549.34	56769.69
549.51	56853.95
549.68	56570.75
549.84	56416.27
550.01	56947.57
550.18	56067.53
550.34	56334.35
550.51	56484.15
550.68	56652.67
550.84	56638.62
551.01	56720.54
551.18	56849.27
551.34	56484.15
551.51	56657.35
551.68	56790.76
551.84	56549.68
552.01	56664.37
552.18	56889.06
552.34	56886.72
552.51	57144.18
552.68	56896.08
552.84	57226.10
553.01	57031.83
553.18	56875.02
553.34	57092.69
553.51	56942.89
553.67	56893.74
553.84	57263.55
554.01	57305.68
554.17	57331.42
554.34	57361.85
554.51	57216.74
554.67	57329.08
554.84	57261.21
555.00	57165.24
555.17	56954.60
555.33	57441.43
555.50	57251.84
555.67	57308.02
555.83	57387.60
556.00	57549.09
556.16	57799.53
556.33	57521.01
556.50	57347.81
556.66	57528.03
556.83	57277.59
556.99	57703.57
557.16	57783.15
557.32	57724.63
557.49	57939.96
557.65	57525.69
557.82	57574.84
557.98	57602.92
558.15	57806.55
558.32	57752.72
558.48	57738.68
558.65	57769.10
558.81	58071.03
558.98	57858.04
559.14	58157.63
559.31	57579.52
559.47	57780.81
559.64	58012.52
559.80	57621.65
559.97	57963.37
560.13	57773.78
560.30	58042.95
560.46	58052.31
560.63	58031.24
560.79	57975.07
560.96	58265.30
561.12	58152.95
561.29	58028.90
561.45	57982.09
561.61	58073.37
561.78	58155.29
561.94	57991.45
562.11	58361.26
562.27	58344.87
562.44	58281.68
562.60	58351.90
562.77	58169.33
562.93	58206.78
563.10	58372.96
563.26	57998.48
563.42	58302.74
563.59	58387.00
563.75	58042.95
563.92	58302.74
564.08	58218.49
564.24	58328.49
564.41	58099.12
564.57	58269.98
564.74	58269.98
564.90	58543.82
565.07	58408.07
565.23	58536.80
565.39	58616.38
565.56	58693.61
565.72	58396.37
565.88	58564.88
566.05	58478.28
566.21	58202.10
566.38	58244.23
566.54	58401.05
566.70	58492.33
566.87	58763.83
567.03	58710.00
567.19	58646.80
567.36	58848.09
567.52	58621.06
567.68	58590.63
567.85	58604.67
568.01	58768.51
568.17	58698.30
568.34	58578.93
568.50	58557.86
568.66	58365.94
568.83	58674.89
568.99	58684.25
569.15	58632.76
569.32	58658.51
569.48	58475.94
569.64	58745.11
569.81	58461.90
569.97	58445.52
570.13	58827.02
570.30	58630.42
570.46	58864.47
570.62	58745.11
570.78	58674.89
570.95	58632.76
571.11	58838.73
571.27	58590.63
571.43	58539.14
571.60	58930.01
571.76	58571.91
571.92	58953.41
572.09	58890.22
572.25	58930.01
572.41	58944.05
572.57	58904.26
572.74	59042.35
572.90	58805.96
573.06	58796.60
573.22	58869.15
573.38	59082.14
573.55	58899.58
573.71	59241.30
573.87	58937.03
574.03	58939.37
574.20	58930.01
574.36	58990.86
574.52	58937.03
574.68	58890.22
574.84	59238.96
575.01	59126.61
575.17	59147.68
575.33	59011.93
575.49	58946.39
575.65	58892.56
575.82	59161.72
575.98	59112.57
576.14	59086.82
576.30	59135.98
576.46	59023.63
576.62	58702.98
576.79	58883.20
576.95	58962.78
577.11	59264.70
577.27	59100.87
577.43	59213.21
577.59	58951.07
577.75	59112.57
577.92	59210.87
578.08	59281.09
578.24	59025.97
578.40	59119.59
578.56	59283.43
578.72	59222.58
578.88	59283.43
579.04	59295.13
579.21	59327.90
579.37	59124.27
579.53	59341.94
579.69	58979.16
579.85	59065.76
580.01	59128.95
580.17	59234.28
580.33	59187.47
580.49	59201.51
580.65	59463.65
580.82	59320.88
580.98	59320.88
581.14	59077.46
581.30	59267.05
581.46	59150.02
581.62	59203.85
581.78	59072.78
581.94	59304.49
582.10	59166.40
582.26	59175.76
582.42	59077.46
582.58	59171.08
582.74	59325.56
582.90	59260.02
583.06	59217.89
583.22	59065.76
583.38	59208.53
583.54	59288.11
583.70	59157.04
583.86	59278.75
584.02	59245.98
584.18	59358.33
584.34	59210.87
584.50	59515.14
584.66	59332.58
584.82	59278.75
584.98	59344.28
585.14	59250.66
585.30	59419.18
585.46	59393.43
585.62	59152.36
585.78	59295.13
585.94	59330.24
586.10	59341.94
586.26	59285.77
586.42	59536.21
586.58	59522.16
586.74	59456.63
586.90	59318.54
587.06	59189.81
587.22	59330.24
587.38	59395.77
587.54	59583.02
587.70	59580.68
587.86	59566.63
588.02	59774.94
