SpectraSuite Data File
++++++++++++++++++++++++++++++++++++
Date: Thu Oct 24 13:21:40 EDT 2013
User: stostad
Dark Spectrum Present: No
Reference Spectrum Present: No
Number of Sampled Component Spectra: 1
Spectrometers: USB2+H05261
Integration Time (usec): 100000 (USB2+H05261)
Spectra Averaged: 1 (USB2+H05261)
Boxcar Smoothing: 0 (USB2+H05261)
Correct for Electrical Dark: No (USB2+H05261)
Strobe/Lamp Enabled: No (USB2+H05261)
Correct for Detector Non-linearity: No (USB2+H05261)
Correct for Stray Light: No (USB2+H05261)
Number of Pixels in Processed Spectrum: 2048
>>>>>Begin Processed Spectral Data<<<<<
365.73	573.43
365.92	573.43
366.12	573.43
366.32	468.11
366.52	470.45
366.72	496.19
366.91	491.51
367.11	491.51
367.31	477.47
367.51	503.22
367.70	484.49
367.90	496.19
368.10	538.32
368.30	472.79
368.49	496.19
368.69	489.17
368.89	535.98
369.09	526.62
369.28	526.62
369.48	475.13
369.68	505.56
369.87	589.82
370.07	566.41
370.27	587.47
370.47	795.78
370.66	1376.24
370.86	1282.61
371.06	1432.41
371.25	1439.43
371.45	1380.92
371.65	1523.69
371.84	1488.58
372.04	1516.67
372.24	1617.31
372.44	1533.05
372.63	1565.82
372.83	1650.08
373.03	1563.48
373.22	1584.54
373.42	1638.38
373.62	1652.42
373.81	1659.44
374.01	1645.40
374.21	1657.10
374.40	1722.63
374.60	1748.38
374.79	1703.91
374.99	1823.28
375.19	1708.59
375.38	1755.40
375.58	1760.08
375.78	1776.47
375.97	1895.83
376.17	1804.55
376.37	1785.83
376.56	1935.62
376.76	1900.52
376.95	1902.86
377.15	1977.75
377.35	1867.75
377.54	1776.47
377.74	1872.43
377.93	1949.67
378.13	1930.94
378.33	1872.43
378.52	1982.43
378.72	1912.22
378.91	1989.46
379.11	2033.93
379.31	1926.26
379.50	2008.18
379.70	2033.93
379.89	2057.33
380.09	2064.35
380.28	2136.91
380.48	2101.80
380.68	2066.69
380.87	2120.53
381.07	2183.72
381.26	2118.18
381.46	2148.61
381.65	2183.72
381.85	2064.35
382.04	2181.38
382.24	2246.91
382.43	2165.00
382.63	2218.83
382.83	2246.91
383.02	2216.49
383.22	2361.60
383.41	2275.00
383.61	2275.00
383.80	2321.81
384.00	2317.13
384.19	2324.15
384.39	2370.96
384.58	2335.85
384.78	2394.37
384.97	2370.96
385.17	2417.77
385.36	2438.84
385.56	2530.12
385.75	2492.67
385.95	2534.80
386.14	2516.08
386.34	2417.77
386.53	2560.55
386.72	2548.84
386.92	2560.55
387.11	2544.16
387.31	2586.29
387.50	2583.95
387.70	2499.69
387.89	2642.46
388.09	2647.15
388.28	2544.16
388.48	2647.15
388.67	2642.46
388.86	2672.89
389.06	2743.11
389.25	2773.53
389.45	2785.24
389.64	2761.83
389.84	2834.39
390.03	2815.66
390.22	2848.43
390.42	2963.12
390.61	2818.00
390.81	2899.92
391.00	2906.95
391.19	2911.63
391.39	2920.99
391.58	2855.45
391.78	2958.44
391.97	2928.01
392.16	2970.14
392.36	3110.57
392.55	3080.14
392.75	3138.66
392.94	3173.77
393.13	3180.79
393.33	3038.02
393.52	3021.63
393.71	3208.87
393.91	3246.32
394.10	3194.83
394.29	3276.75
394.49	3300.16
394.68	3339.94
394.88	3206.53
395.07	3384.41
395.26	3403.14
395.46	3529.53
395.65	3417.18
395.84	3433.57
396.04	3637.19
396.23	3611.45
396.42	3461.65
396.62	3686.34
396.81	3658.26
397.00	3566.98
397.19	3630.17
397.39	3688.68
397.58	3719.11
397.77	3611.45
397.97	3768.26
398.16	3733.15
398.35	3847.84
398.55	3777.62
398.74	3892.31
398.93	3901.67
399.12	3939.12
399.32	3712.09
399.51	3803.37
399.70	4049.13
399.90	4009.34
400.09	3714.43
400.28	4063.17
400.47	4119.34
400.67	4177.86
400.86	4074.87
401.05	4037.42
401.24	4072.53
401.44	4292.54
401.63	4320.63
401.82	4299.56
402.01	4325.31
402.21	4205.94
402.40	4297.22
402.59	4290.20
402.78	4322.97
402.97	4465.74
403.17	4369.78
403.36	4477.44
403.55	4519.57
403.74	4610.86
403.93	4762.99
404.13	4697.46
404.32	4793.42
404.51	4725.54
404.70	4660.01
404.89	4561.70
405.09	4739.58
405.28	4812.14
405.47	4702.14
405.66	4861.29
405.85	4880.02
406.05	4891.72
406.24	4983.00
406.43	4954.91
406.62	5008.75
406.81	5242.80
407.00	4924.49
407.20	4880.02
407.39	5032.15
407.58	5165.56
407.77	5167.90
407.96	5240.46
408.15	5263.86
408.34	5181.95
408.54	5373.87
408.73	5514.30
408.92	5338.76
409.11	5408.98
409.30	5425.36
409.49	5488.56
409.68	5544.73
409.87	5394.93
410.07	5703.89
410.26	5671.12
410.45	5540.05
410.64	5790.49
410.83	5727.29
411.02	5785.80
411.21	5771.76
411.40	5657.07
411.59	6148.59
411.78	6078.37
411.98	5895.81
412.17	5926.24
412.36	6115.82
412.55	6249.23
412.74	6246.89
412.93	6431.79
413.12	6312.42
413.31	6586.27
413.50	6607.33
413.69	6382.64
413.88	6656.48
414.07	6679.89
414.26	6644.78
414.45	6808.62
414.64	6803.94
414.83	6778.19
415.02	6991.18
415.22	7021.61
415.41	7094.16
415.60	6991.18
415.79	7318.86
415.98	7152.68
416.17	7232.26
416.36	7229.91
416.55	7281.41
416.74	7506.10
416.93	7335.24
417.12	7559.93
417.31	7639.51
417.50	7714.41
417.69	7728.45
417.88	7651.21
418.07	7957.82
418.26	7969.52
418.45	7882.92
418.64	8018.68
418.83	7969.52
419.02	8032.72
419.21	8224.64
419.39	8173.15
419.58	8006.97
419.77	7960.16
419.96	8243.37
420.15	8278.47
420.34	8386.14
420.53	8318.26
420.72	8517.21
420.91	8594.45
421.10	8652.96
421.29	8891.70
421.48	8397.84
421.67	8681.05
421.86	8496.14
422.05	8678.71
422.24	8758.28
422.43	8737.22
422.61	8758.28
422.80	9001.70
422.99	8830.84
423.18	8772.33
423.37	9004.04
423.56	8945.53
423.75	8779.35
423.94	8685.73
424.13	8344.01
424.32	8650.62
424.50	8877.65
424.69	9123.41
424.88	9170.22
425.07	8894.04
425.26	8945.53
425.45	8992.34
425.64	8816.80
425.83	8889.35
426.01	9156.18
426.20	9060.21
426.39	9259.16
426.58	9090.64
426.77	9020.42
426.96	9156.18
427.15	9261.50
427.33	9287.25
427.52	9184.26
427.71	9523.64
427.90	9376.19
428.09	9453.42
428.28	9577.47
428.46	9603.22
428.65	9530.66
428.84	9902.81
429.03	9879.40
429.22	9757.69
429.40	9834.93
429.59	9797.48
429.78	9291.93
429.97	9430.02
430.16	9898.13
430.34	10040.90
430.53	10298.36
430.72	10122.82
430.91	10356.87
431.10	10303.04
431.28	10284.31
431.47	10345.17
431.66	10637.73
431.85	10221.12
432.03	10726.68
432.22	10899.87
432.41	10750.08
432.60	10595.61
432.79	10513.69
432.97	10771.15
433.16	10806.25
433.35	10839.02
433.54	11183.08
433.72	11049.67
433.91	10979.45
434.10	11033.29
434.28	11021.58
434.47	11309.47
434.66	11246.27
434.85	11655.87
435.03	11604.38
435.22	11382.03
435.41	11810.34
435.59	11590.33
435.78	11683.95
435.97	11906.31
436.16	11517.78
436.34	11508.41
436.53	11779.92
436.72	12067.80
436.90	11548.20
437.09	11939.07
437.28	11784.60
437.46	11850.13
437.65	12081.85
437.84	12140.36
438.02	12241.00
438.21	11941.41
438.40	12009.29
438.58	12704.43
438.77	12606.13
438.96	12641.23
439.14	12849.54
439.33	13004.02
439.52	12943.16
439.70	12943.16
439.89	13437.02
440.08	13453.40
440.26	13097.64
440.45	13427.65
440.63	13661.71
440.82	13860.65
441.01	13671.07
441.19	13797.46
441.38	14001.08
441.57	13741.29
441.75	14057.26
441.94	14307.69
442.12	14340.46
442.31	14347.48
442.50	14707.93
442.68	14345.14
442.87	14380.25
443.05	14656.43
443.24	14862.40
443.43	14628.35
443.61	14932.62
443.80	15220.50
443.98	14518.34
444.17	14031.51
444.35	15035.60
444.54	15119.86
444.73	14881.13
444.91	14946.66
445.10	15112.84
445.28	15143.27
445.47	15009.86
445.65	15033.26
445.84	15267.31
446.02	15454.56
446.21	15087.09
446.39	15187.74
446.58	15398.38
446.77	15295.40
446.95	15133.90
447.14	15288.38
447.32	15578.61
447.51	15288.38
447.69	15447.54
447.88	15332.85
448.06	15630.10
448.25	15599.67
448.43	15660.52
448.62	15686.27
448.80	15576.27
448.99	15452.22
449.17	15932.03
449.36	15644.14
449.54	16147.36
449.73	16184.80
449.91	16456.31
450.10	16339.28
450.28	16435.24
450.46	16259.70
450.65	16358.00
450.83	16535.88
451.02	16503.12
451.20	16868.24
451.39	16507.80
451.57	16643.55
451.76	16327.58
451.94	16945.48
452.13	17186.55
452.31	16856.54
452.49	16552.27
452.68	16786.32
452.86	16833.13
453.05	17099.95
453.23	17465.08
453.42	17104.64
453.60	17256.77
453.78	17401.88
453.97	17125.70
454.15	17076.55
454.34	17280.18
454.52	17682.75
454.70	17422.95
454.89	17680.41
455.07	17783.39
455.26	18059.57
455.44	17888.71
455.62	18120.43
455.81	18242.14
455.99	17951.91
456.17	18429.38
456.36	18031.49
456.54	18523.00
456.73	18836.63
456.91	18979.40
457.09	18916.21
457.28	19103.45
457.46	19019.19
457.64	19070.68
457.83	19098.77
458.01	19300.06
458.19	19527.09
458.38	19599.65
458.56	19389.00
458.74	19491.98
458.93	19396.02
459.11	19604.33
459.29	19735.40
459.48	19644.12
459.66	20034.99
459.84	19868.81
460.03	20058.39
460.21	19939.02
460.39	20341.60
460.57	20327.55
460.76	20673.95
460.94	20556.93
461.12	20336.91
461.31	20498.41
461.49	20758.21
461.67	20458.62
461.85	20629.48
462.04	20683.31
462.22	21172.49
462.40	21364.41
462.59	21195.89
462.77	21146.74
462.95	21509.52
463.13	21170.15
463.32	21071.84
463.50	21448.67
463.68	21713.15
463.86	21771.66
464.05	21418.24
464.23	21621.87
464.41	21717.83
464.59	21633.57
464.78	22314.67
464.96	21951.88
465.14	21778.68
465.32	22071.25
465.50	22366.16
465.69	22202.32
465.87	22284.24
466.05	22338.07
466.23	22363.82
466.41	22546.38
466.60	22714.90
466.78	22410.63
466.96	22602.55
467.14	22326.37
467.32	22700.86
467.51	22930.23
467.69	22707.88
467.87	22958.31
468.05	23403.02
468.23	22862.35
468.41	22864.69
468.60	23222.80
468.78	23641.75
468.96	23239.18
469.14	23487.28
469.32	23929.64
469.50	23262.58
469.69	23506.00
469.87	23857.08
470.05	23779.84
470.23	24306.46
470.41	24294.76
470.59	24517.11
470.77	24266.67
470.95	24512.43
471.14	25074.16
471.32	24177.73
471.50	24687.97
471.68	25179.48
471.86	25184.16
472.04	25181.82
472.22	25942.50
472.40	25397.15
472.58	25432.26
472.77	25614.82
472.95	26295.92
473.13	27037.87
473.31	26036.12
473.49	26253.79
473.67	26394.22
473.85	26228.04
474.03	26838.92
474.21	26628.27
474.39	27105.74
474.57	27269.58
474.75	27875.78
474.93	27950.68
475.12	27618.32
475.30	27875.78
475.48	27742.37
475.66	28067.70
475.84	27835.99
476.02	28697.31
476.20	28322.82
476.38	29184.14
476.56	29584.37
476.74	29502.45
476.92	29432.24
477.10	28893.91
477.28	30099.29
477.46	29900.34
477.64	30466.75
477.82	30930.18
478.00	31311.69
478.18	31049.55
478.36	31065.93
478.54	32034.91
478.72	32098.11
478.90	32367.27
479.08	32339.18
479.26	32795.59
479.44	32957.08
479.62	33216.88
479.80	33626.48
479.98	33223.90
480.16	34419.92
480.34	33738.82
480.52	34476.09
480.70	34644.61
480.88	34373.11
481.06	34909.09
481.24	35171.23
481.41	35257.83
481.59	35646.36
481.77	36121.49
481.95	36456.18
482.13	36552.15
482.31	36163.62
482.49	37518.79
482.67	37366.65
482.85	37696.67
483.03	38080.52
483.21	38270.10
483.39	38845.87
483.57	39056.52
483.74	38960.56
483.92	39688.46
484.10	39150.14
484.28	40615.32
484.46	40938.31
484.64	41769.20
484.82	40882.14
485.00	41198.11
485.18	41904.95
485.35	42419.87
485.53	42209.22
485.71	42078.15
485.89	43454.39
486.07	43501.20
486.25	42958.19
486.43	43447.36
486.61	43969.30
486.78	44444.43
486.96	44385.92
487.14	45413.41
487.32	45233.19
487.50	45591.30
487.68	45558.53
487.85	46265.37
488.03	47168.82
488.21	46988.60
488.39	47491.81
488.57	47660.33
488.75	47835.87
488.92	48090.99
489.10	48332.06
489.28	48629.31
489.46	49181.68
489.64	48919.54
489.81	49860.43
489.99	49862.77
490.17	49911.92
490.35	50475.99
490.53	50993.25
490.70	50983.89
490.88	51040.06
491.06	50962.82
491.24	51440.29
491.41	51564.34
491.59	52032.45
491.77	52079.26
491.95	52540.35
492.13	52823.55
492.30	52776.74
492.48	53085.69
492.66	52861.00
492.84	53389.96
493.01	53785.51
493.19	53727.00
493.37	54150.63
493.54	54108.50
493.72	54419.80
493.90	54337.88
494.08	54735.77
494.25	55318.56
494.43	55119.62
494.61	55615.81
494.79	55449.63
494.96	55449.63
495.14	55566.66
495.32	55901.36
495.49	56332.01
495.67	56254.78
495.85	56584.79
496.02	56575.43
496.20	56774.37
496.38	56729.90
496.55	56952.26
496.73	57652.08
496.91	57251.84
497.09	57860.38
497.26	57645.05
497.44	57483.56
497.62	57619.31
497.79	58145.93
497.97	58040.60
498.14	58557.86
498.32	58592.97
498.50	58429.13
498.67	58674.89
498.85	58618.72
499.03	59114.91
499.20	58927.67
499.38	59241.30
499.56	59334.92
499.73	59267.05
499.91	59447.27
500.08	59491.74
500.26	59337.26
500.44	59753.88
500.61	59906.01
500.79	59784.30
500.97	60126.02
501.14	60463.06
501.32	60233.69
501.49	60409.23
501.67	60397.52
501.84	60556.68
502.02	60669.03
502.20	60781.37
502.37	60720.52
502.55	60823.50
502.72	60706.47
502.90	60872.65
503.07	60949.89
503.25	61118.41
503.43	60985.00
503.60	61214.37
503.78	61474.17
503.95	61572.47
504.13	61563.11
504.30	61623.96
504.48	61567.79
504.65	61963.34
504.83	62085.05
505.01	62232.50
505.18	62099.09
505.36	62232.50
505.53	62054.62
505.71	62394.00
505.88	62468.90
506.06	62265.27
506.23	62740.40
506.41	62445.49
506.58	62609.33
506.76	62691.25
506.93	62775.51
507.11	62918.28
507.28	63082.12
507.46	62937.01
507.63	63178.08
507.81	63339.58
507.98	62922.96
508.16	63304.47
508.33	63243.62
508.50	63526.82
508.68	63800.66
508.85	63746.83
509.03	63615.76
509.20	63662.57
509.38	63957.48
509.55	64023.01
509.73	64104.93
509.90	64097.91
510.08	64278.13
510.25	64163.45
510.42	64268.77
510.60	64411.54
510.77	64453.67
510.95	64584.74
511.12	64448.99
511.30	64612.83
511.47	64931.14
511.64	64734.54
511.82	64984.97
511.99	64814.12
512.17	65048.17
512.34	65057.53
512.51	65333.71
512.69	65460.10
512.86	65432.02
513.04	65535.00
513.21	65469.46
513.38	65469.46
513.56	65310.31
513.73	65481.17
513.90	65535.00
514.08	65535.00
514.25	65535.00
514.43	65535.00
514.60	65535.00
514.77	65535.00
514.95	65535.00
515.12	65535.00
515.29	65535.00
515.47	65535.00
515.64	65535.00
515.81	65535.00
515.99	65535.00
516.16	65535.00
516.33	65535.00
516.51	65535.00
516.68	65535.00
516.85	65535.00
517.03	65535.00
517.20	65535.00
517.37	65535.00
517.54	65535.00
517.72	65535.00
517.89	65535.00
518.06	65535.00
518.24	65535.00
518.41	65535.00
518.58	65535.00
518.75	65535.00
518.93	65535.00
519.10	65535.00
519.27	65535.00
519.45	65535.00
519.62	65535.00
519.79	65535.00
519.96	65535.00
520.14	65535.00
520.31	65535.00
520.48	65535.00
520.65	65535.00
520.83	65535.00
521.00	65535.00
521.17	65535.00
521.34	65535.00
521.52	65535.00
521.69	65535.00
521.86	65535.00
522.03	65535.00
522.20	65535.00
522.38	65535.00
522.55	65535.00
522.72	65535.00
522.89	65535.00
523.07	65535.00
523.24	65535.00
523.41	65535.00
523.58	65535.00
523.75	65535.00
523.92	65535.00
524.10	65535.00
524.27	65535.00
524.44	65535.00
524.61	65535.00
524.78	65535.00
524.96	65535.00
525.13	65535.00
525.30	65535.00
525.47	65535.00
525.64	65535.00
525.81	65535.00
525.98	65535.00
526.16	65535.00
526.33	65535.00
526.50	65535.00
526.67	65535.00
526.84	65535.00
527.01	65535.00
527.18	65535.00
527.36	65535.00
527.53	65535.00
527.70	65535.00
527.87	65535.00
528.04	65535.00
528.21	65535.00
528.38	65535.00
528.55	65535.00
528.72	65535.00
528.89	65535.00
529.07	65535.00
529.24	65535.00
529.41	65535.00
529.58	65535.00
529.75	65535.00
529.92	65535.00
530.09	65535.00
530.26	65535.00
530.43	65535.00
530.60	65535.00
530.77	65535.00
530.94	65535.00
531.11	65535.00
531.28	65535.00
531.46	65535.00
531.63	65535.00
531.80	65535.00
531.97	65535.00
532.14	65535.00
532.31	65535.00
532.48	65535.00
532.65	65535.00
532.82	65535.00
532.99	65535.00
533.16	65535.00
533.33	65535.00
533.50	65535.00
533.67	65535.00
533.84	65535.00
534.01	65535.00
534.18	65535.00
534.35	65535.00
534.52	65535.00
534.69	65535.00
534.86	65535.00
535.03	65535.00
535.20	65535.00
535.37	65535.00
535.54	65535.00
535.71	65535.00
535.88	65535.00
536.05	65535.00
536.22	65535.00
536.38	65535.00
536.55	65535.00
536.72	65535.00
536.89	65535.00
537.06	65535.00
537.23	65535.00
537.40	65535.00
537.57	65535.00
537.74	65535.00
537.91	65535.00
538.08	65535.00
538.25	65535.00
538.42	65535.00
538.59	65535.00
538.75	65535.00
538.92	65535.00
539.09	65535.00
539.26	65535.00
539.43	65535.00
539.60	65535.00
539.77	65535.00
539.94	65535.00
540.11	65535.00
540.28	65535.00
540.44	65535.00
540.61	65535.00
540.78	65535.00
540.95	65535.00
541.12	65535.00
541.29	65535.00
541.46	65535.00
541.62	65535.00
541.79	65535.00
541.96	65535.00
542.13	65535.00
542.30	65535.00
542.47	65535.00
542.63	65535.00
542.80	65535.00
542.97	65535.00
543.14	65535.00
543.31	65535.00
543.48	65535.00
543.64	65535.00
543.81	65535.00
543.98	65535.00
544.15	65535.00
544.32	65535.00
544.48	65535.00
544.65	65535.00
544.82	65535.00
544.99	65535.00
545.16	65535.00
545.32	65535.00
545.49	65535.00
545.66	65535.00
545.83	65535.00
546.00	65535.00
546.16	65535.00
546.33	65535.00
546.50	65535.00
546.67	65535.00
546.83	65535.00
547.00	65535.00
547.17	65535.00
547.34	65535.00
547.50	65535.00
547.67	65535.00
547.84	65535.00
548.00	65535.00
548.17	65535.00
548.34	65535.00
548.51	65535.00
548.67	65535.00
548.84	65535.00
549.01	65535.00
549.18	65535.00
549.34	65535.00
549.51	65535.00
549.68	65535.00
549.84	65535.00
550.01	65535.00
550.18	65535.00
550.34	65535.00
550.51	65535.00
550.68	65535.00
550.84	65535.00
551.01	65535.00
551.18	65535.00
551.34	65535.00
551.51	65535.00
551.68	65535.00
551.84	65535.00
552.01	65535.00
552.18	65535.00
552.34	65535.00
552.51	65535.00
552.68	65535.00
552.84	65535.00
553.01	65535.00
553.18	65535.00
553.34	65535.00
553.51	65535.00
553.67	65535.00
553.84	65535.00
554.01	65535.00
554.17	65535.00
554.34	65535.00
554.51	65535.00
554.67	65535.00
554.84	65535.00
555.00	65535.00
555.17	65535.00
555.33	65535.00
555.50	65535.00
555.67	65535.00
555.83	65535.00
556.00	65535.00
556.16	65535.00
556.33	65535.00
556.50	65535.00
556.66	65535.00
556.83	65535.00
556.99	65535.00
557.16	65535.00
557.32	65535.00
557.49	65535.00
557.65	65535.00
557.82	65535.00
557.98	65535.00
558.15	65535.00
558.32	65535.00
558.48	65535.00
558.65	65535.00
558.81	65535.00
558.98	65535.00
559.14	65535.00
559.31	65535.00
559.47	65535.00
559.64	65535.00
559.80	65535.00
559.97	65535.00
560.13	65535.00
560.30	65535.00
560.46	65535.00
560.63	65535.00
560.79	65535.00
560.96	65535.00
561.12	65535.00
561.29	65535.00
561.45	65535.00
561.61	65535.00
561.78	65535.00
561.94	65535.00
562.11	65535.00
562.27	65535.00
562.44	65535.00
562.60	65535.00
562.77	65535.00
562.93	65535.00
563.10	65535.00
563.26	65535.00
563.42	65535.00
563.59	65535.00
563.75	65535.00
563.92	65535.00
564.08	65535.00
564.24	65535.00
564.41	65535.00
564.57	65535.00
564.74	65535.00
564.90	65535.00
565.07	65535.00
565.23	65535.00
565.39	65535.00
565.56	65535.00
565.72	65535.00
565.88	65535.00
566.05	65535.00
566.21	65535.00
566.38	65535.00
566.54	65535.00
566.70	65535.00
566.87	65535.00
567.03	65535.00
567.19	65535.00
567.36	65535.00
567.52	65535.00
567.68	65535.00
567.85	65535.00
568.01	65535.00
568.17	65535.00
568.34	65535.00
568.50	65535.00
568.66	65535.00
568.83	65535.00
568.99	65535.00
569.15	65535.00
569.32	65535.00
569.48	65535.00
569.64	65535.00
569.81	65535.00
569.97	65535.00
570.13	65535.00
570.30	65535.00
570.46	65535.00
570.62	65535.00
570.78	65535.00
570.95	65535.00
571.11	65535.00
571.27	65535.00
571.43	65535.00
571.60	65535.00
571.76	65535.00
571.92	65535.00
572.09	65535.00
572.25	65535.00
572.41	65535.00
572.57	65535.00
572.74	65535.00
572.90	65535.00
573.06	65535.00
573.22	65535.00
573.38	65535.00
573.55	65535.00
573.71	65535.00
573.87	65535.00
574.03	65535.00
574.20	65535.00
574.36	65535.00
574.52	65535.00
574.68	65535.00
574.84	65535.00
575.01	65535.00
575.17	65535.00
575.33	65535.00
575.49	65535.00
575.65	65535.00
575.82	65535.00
575.98	65535.00
576.14	65535.00
576.30	65535.00
576.46	65535.00
576.62	65535.00
576.79	65535.00
576.95	65535.00
577.11	65535.00
577.27	65535.00
577.43	65535.00
577.59	65535.00
577.75	65535.00
577.92	65535.00
578.08	65535.00
578.24	65535.00
578.40	65535.00
578.56	65535.00
578.72	65535.00
578.88	65535.00
579.04	65535.00
579.21	65535.00
579.37	65535.00
579.53	65535.00
579.69	65535.00
579.85	65535.00
580.01	65535.00
580.17	65535.00
580.33	65535.00
580.49	65535.00
580.65	65535.00
580.82	65535.00
580.98	65535.00
581.14	65535.00
581.30	65535.00
581.46	65535.00
581.62	65535.00
581.78	65535.00
581.94	65535.00
582.10	65535.00
582.26	65535.00
582.42	65535.00
582.58	65535.00
582.74	65535.00
582.90	65535.00
583.06	65535.00
583.22	65535.00
583.38	65535.00
583.54	65535.00
583.70	65535.00
583.86	65535.00
584.02	65535.00
584.18	65535.00
584.34	65535.00
584.50	65535.00
584.66	65535.00
584.82	65535.00
584.98	65535.00
585.14	65535.00
585.30	65535.00
585.46	65535.00
585.62	65535.00
585.78	65535.00
585.94	65535.00
586.10	65535.00
586.26	65535.00
586.42	65535.00
586.58	65535.00
