SpectraSuite Data File
++++++++++++++++++++++++++++++++++++
Date: Thu Oct 24 13:21:11 EDT 2013
User: stostad
Dark Spectrum Present: No
Reference Spectrum Present: No
Number of Sampled Component Spectra: 1
Spectrometers: USB2+H05261
Integration Time (usec): 100000 (USB2+H05261)
Spectra Averaged: 1 (USB2+H05261)
Boxcar Smoothing: 0 (USB2+H05261)
Correct for Electrical Dark: No (USB2+H05261)
Strobe/Lamp Enabled: No (USB2+H05261)
Correct for Detector Non-linearity: No (USB2+H05261)
Correct for Stray Light: No (USB2+H05261)
Number of Pixels in Processed Spectrum: 2048
>>>>>Begin Processed Spectral Data<<<<<
365.73	587.47
365.92	587.47
366.12	587.47
366.32	428.32
366.52	430.66
366.72	456.40
366.91	475.13
367.11	449.38
367.31	463.43
367.51	416.62
367.70	449.38
367.90	444.70
368.10	456.40
368.30	458.74
368.49	463.43
368.69	440.02
368.89	451.72
369.09	491.51
369.28	400.23
369.48	468.11
369.68	580.45
369.87	514.92
370.07	498.53
370.27	512.58
370.47	566.41
370.66	732.59
370.86	767.70
371.06	779.40
371.25	828.55
371.45	723.23
371.65	753.65
371.84	751.31
372.04	697.48
372.24	793.44
372.44	774.72
372.63	732.59
372.83	753.65
373.03	809.83
373.22	800.46
373.42	779.40
373.62	821.53
373.81	791.10
374.01	805.14
374.21	849.61
374.40	809.83
374.60	858.98
374.79	849.61
374.99	851.96
375.19	781.74
375.38	781.74
375.58	851.96
375.78	866.00
375.97	812.17
376.17	894.08
376.37	765.36
376.56	779.40
376.76	802.80
376.95	755.99
377.15	856.64
377.35	863.66
377.54	833.23
377.74	875.36
377.93	770.04
378.13	903.45
378.33	788.76
378.52	816.85
378.72	866.00
378.91	842.59
379.11	828.55
379.31	915.15
379.50	837.91
379.70	877.70
379.89	933.87
380.09	814.51
380.28	861.32
380.48	863.66
380.68	847.27
380.87	884.72
381.07	833.23
381.26	866.00
381.46	851.96
381.65	844.93
381.85	835.57
382.04	917.49
382.24	968.98
382.43	802.80
382.63	807.48
382.83	889.40
383.02	985.37
383.22	882.38
383.41	894.08
383.61	898.77
383.80	884.72
384.00	880.04
384.19	933.87
384.39	858.98
384.58	908.13
384.78	947.92
384.97	891.74
385.17	971.32
385.36	908.13
385.56	976.00
385.75	983.02
385.95	971.32
386.14	954.94
386.34	884.72
386.53	947.92
386.72	938.55
386.92	926.85
387.11	854.30
387.31	959.62
387.50	940.90
387.70	950.26
387.89	952.60
388.09	910.47
388.28	947.92
388.48	961.96
388.67	943.24
388.86	933.87
389.06	959.62
389.25	980.68
389.45	1018.13
389.64	994.73
389.84	1011.11
390.03	1001.75
390.22	1039.20
390.42	924.51
390.61	990.05
390.81	1020.47
391.00	997.07
391.19	1088.35
391.39	1083.67
391.58	1025.15
391.78	1006.43
391.97	968.98
392.16	1048.56
392.36	1081.33
392.55	1008.77
392.75	1104.73
392.94	1022.81
393.13	1071.97
393.33	1018.13
393.52	999.41
393.71	1074.31
393.91	1121.12
394.10	1062.60
394.29	1093.03
394.49	1095.37
394.68	1153.88
394.88	1132.82
395.07	1086.01
395.26	1179.63
395.46	1121.12
395.65	1142.18
395.84	1121.12
396.04	1196.01
396.23	1104.73
396.42	1177.29
396.62	1233.46
396.81	1181.97
397.00	1100.05
397.19	1174.95
397.39	1090.69
397.58	1170.27
397.77	1172.61
397.97	1219.42
398.16	1198.35
398.35	1177.29
398.55	1151.54
398.74	1224.10
398.93	1261.55
399.12	1196.01
399.32	1200.69
399.51	1221.76
399.70	1238.14
399.90	1247.51
400.09	1303.68
400.28	1275.59
400.47	1217.08
400.67	1238.14
400.86	1261.55
401.05	1294.32
401.24	1287.29
401.44	1310.70
401.63	1296.66
401.82	1315.38
402.01	1289.64
402.21	1313.04
402.40	1313.04
402.59	1289.64
402.78	1301.34
402.97	1320.06
403.17	1394.96
403.36	1413.68
403.55	1355.17
403.74	1364.53
403.93	1394.96
404.13	1441.77
404.32	1448.79
404.51	1486.24
404.70	1556.46
404.89	1406.66
405.09	1460.49
405.28	1514.33
405.47	1359.85
405.66	1425.39
405.85	1488.58
406.05	1430.07
406.24	1514.33
406.43	1462.83
406.62	1519.01
406.81	1530.71
407.00	1493.26
407.20	1490.92
407.39	1507.30
407.58	1577.52
407.77	1572.84
407.96	1558.80
408.15	1619.65
408.34	1516.67
408.54	1540.07
408.73	1624.33
408.92	1554.12
409.11	1666.46
409.30	1535.39
409.49	1659.44
409.68	1629.01
409.87	1638.38
410.07	1771.79
410.26	1743.70
410.45	1664.12
410.64	1792.85
410.83	1685.19
411.02	1701.57
411.21	1753.06
411.40	1652.42
411.59	1654.76
411.78	1701.57
411.98	1827.96
412.17	1753.06
412.36	1893.49
412.55	1872.43
412.74	1856.04
412.93	1834.98
413.12	1813.92
413.31	1830.30
413.50	1870.09
413.69	1858.39
413.88	1870.09
414.07	1888.81
414.26	1921.58
414.45	2026.90
414.64	1921.58
414.83	1952.01
415.02	1923.92
415.22	1949.67
415.41	1966.05
415.60	2052.65
415.79	2038.61
415.98	1973.07
416.17	2099.46
416.36	2097.12
416.55	2005.84
416.74	2122.87
416.93	1952.01
417.12	2104.14
417.31	2106.48
417.50	2122.87
417.69	2216.49
417.88	2148.61
418.07	2129.89
418.26	2232.87
418.45	2267.98
418.64	2342.88
418.83	2293.72
419.02	2265.64
419.21	2230.53
419.39	2249.25
419.58	2368.62
419.77	2312.45
419.96	2258.62
420.15	2377.98
420.34	2312.45
420.53	2317.13
420.72	2324.15
420.91	2209.47
421.10	2300.75
421.29	2331.17
421.48	2342.88
421.67	2282.02
421.86	2246.91
422.05	2326.49
422.24	2387.35
422.43	2396.71
422.61	2415.43
422.80	2450.54
422.99	2434.16
423.18	2448.20
423.37	2569.91
423.56	2476.29
423.75	2363.94
423.94	2410.75
424.13	2251.60
424.32	2368.62
424.50	2359.26
424.69	2448.20
424.88	2478.63
425.07	2324.15
425.26	2438.84
425.45	2387.35
425.64	2413.09
425.83	2485.65
426.01	2558.21
426.20	2455.22
426.39	2541.82
426.58	2420.11
426.77	2387.35
426.96	2495.01
427.15	2469.27
427.33	2513.74
427.52	2541.82
427.71	2539.48
427.90	2485.65
428.09	2635.44
428.28	2593.31
428.46	2696.30
428.65	2588.63
428.84	2555.86
429.03	2623.74
429.22	2562.89
429.40	2658.85
429.59	2565.23
429.78	2516.08
429.97	2567.57
430.16	2761.83
430.34	2700.98
430.53	2731.41
430.72	2710.34
430.91	2686.94
431.10	2703.32
431.28	2771.19
431.47	2663.53
431.66	2778.22
431.85	2813.32
432.03	2853.11
432.22	2869.50
432.41	2789.92
432.60	2803.96
432.79	2885.88
432.97	2913.97
433.16	2757.15
433.35	2815.66
433.54	2930.35
433.72	2796.94
433.91	2963.12
434.10	2904.60
434.28	2930.35
434.47	2909.29
434.66	2930.35
434.85	3021.63
435.03	3190.15
435.22	3241.64
435.41	3517.83
435.59	3307.18
435.78	3283.77
435.97	3110.57
436.16	3180.79
436.34	3077.80
436.53	3000.57
436.72	3007.59
436.90	3023.97
437.09	3056.74
437.28	3007.59
437.46	3082.49
437.65	2958.44
437.84	3068.44
438.02	3112.91
438.21	3084.83
438.40	3152.70
438.58	3143.34
438.77	3155.04
438.96	3241.64
439.14	3220.58
439.33	3311.86
439.52	3194.83
439.70	3325.90
439.89	3325.90
440.08	3323.56
440.26	3241.64
440.45	3187.81
440.63	3318.88
440.82	3412.50
441.01	3414.84
441.19	3421.86
441.38	3611.45
441.57	3485.06
441.75	3543.57
441.94	3569.32
442.12	3630.17
442.31	3557.61
442.50	3730.81
442.68	3506.12
442.87	3559.95
443.05	3627.83
443.24	3698.05
443.43	3578.68
443.61	3618.47
443.80	3705.07
443.98	3368.03
444.17	3475.70
444.35	3660.60
444.54	3564.64
444.73	3515.48
444.91	3667.62
445.10	3744.86
445.28	3691.02
445.47	3691.02
445.65	3735.50
445.84	3709.75
446.02	3758.90
446.21	3700.39
446.39	3805.71
446.58	3772.94
446.77	3674.64
446.95	3625.49
447.14	3646.55
447.32	3742.52
447.51	3812.73
447.69	3779.97
447.88	3770.60
448.06	3885.29
448.25	3681.66
448.43	3756.56
448.62	3868.91
448.80	3700.39
448.99	3775.28
449.17	3868.91
449.36	3798.69
449.54	3904.01
449.73	3969.55
449.91	3932.10
450.10	3906.35
450.28	4011.68
450.46	3962.53
450.65	4042.11
450.83	3901.67
451.02	3915.72
451.20	4002.32
451.39	3983.59
451.57	4032.74
451.76	3960.19
451.94	4025.72
452.13	4084.23
452.31	4107.64
452.49	4039.76
452.68	4028.06
452.86	4102.96
453.05	4191.90
453.23	4142.75
453.42	4023.38
453.60	4063.17
453.78	4161.47
453.97	4065.51
454.15	4114.66
454.34	4098.28
454.52	4170.83
454.70	4152.11
454.89	4105.30
455.07	4227.01
455.26	4372.12
455.44	4379.14
455.62	4278.50
455.81	4290.20
455.99	4205.94
456.17	4322.97
456.36	4353.40
456.54	4388.50
456.73	4360.42
456.91	4428.29
457.09	4243.39
457.28	4395.53
457.46	4369.78
457.64	4587.45
457.83	4540.64
458.01	4318.29
458.19	4594.47
458.38	4564.04
458.56	4505.53
458.74	4528.94
458.93	4561.70
459.11	4552.34
459.29	4566.39
459.48	4652.98
459.66	4608.51
459.84	4704.48
460.03	4865.97
460.21	4664.69
460.39	4578.09
460.57	4746.61
460.76	4587.45
460.94	4737.24
461.12	4793.42
461.31	4816.82
461.49	4741.93
461.67	4737.24
461.85	4760.65
462.04	4723.20
462.22	5118.75
462.40	4812.14
462.59	4877.68
462.77	4898.74
462.95	4903.42
463.13	4805.12
463.32	4858.95
463.50	4905.76
463.68	5057.90
463.86	4865.97
464.05	4753.63
464.23	4931.51
464.41	4894.06
464.59	4873.00
464.78	5095.35
464.96	5083.64
465.14	4978.32
465.32	5156.20
465.50	4999.38
465.69	4961.94
465.87	4882.36
466.05	5001.72
466.23	5093.01
466.41	5062.58
466.60	5111.73
466.78	5144.50
466.96	5153.86
467.14	5259.18
467.32	5020.45
467.51	5123.43
467.69	5174.92
467.87	5135.14
468.05	5193.65
468.23	5228.76
468.41	5188.97
468.60	5235.78
468.78	5210.03
468.96	5172.58
469.14	5301.31
469.32	5357.49
469.50	5097.69
469.69	5472.17
469.87	5401.96
470.05	5352.81
470.23	5458.13
470.41	5359.83
470.59	5549.41
470.77	5343.44
470.95	5305.99
471.14	5593.88
471.32	5462.81
471.50	5444.09
471.68	5610.26
471.86	5556.43
472.04	5696.86
472.22	5900.49
472.40	5680.48
472.58	5605.58
472.77	5549.41
472.95	5626.65
473.13	6043.26
473.31	5937.94
473.49	5870.06
473.67	5804.53
473.85	5935.60
474.03	5954.32
474.21	5973.05
474.39	5989.43
474.57	5968.37
474.75	6015.18
474.93	5987.09
475.12	6019.86
475.30	6272.64
475.48	6139.23
475.66	6069.01
475.84	6317.11
476.02	6258.59
476.20	6321.79
476.38	6342.85
476.56	6394.34
476.74	6396.68
476.92	6272.64
477.10	6312.42
477.28	6396.68
477.46	6406.05
477.64	6347.53
477.82	6541.80
478.00	6810.96
478.18	6537.12
478.36	6853.09
478.54	6958.41
478.72	6799.26
478.90	6841.39
479.08	7183.10
479.26	7166.72
479.44	7068.42
479.62	7192.47
479.80	7295.45
479.98	7119.91
480.16	7454.61
480.34	7236.94
480.52	7501.42
480.70	7311.83
480.88	7419.50
481.06	7335.24
481.24	7482.69
481.41	7761.22
481.59	7524.82
481.77	7632.49
481.95	7531.84
482.13	7850.16
482.31	7695.68
482.49	8081.87
482.67	7882.92
482.85	7929.74
483.03	8006.97
483.21	8140.38
483.39	8332.31
483.57	8058.46
483.74	8306.56
483.92	8496.14
484.10	8205.92
484.28	8500.83
484.46	8716.16
484.64	8514.87
484.82	8500.83
485.00	8671.68
485.18	8865.95
485.35	9097.66
485.53	8901.06
485.71	8894.04
485.89	9132.77
486.07	8968.93
486.25	8985.32
486.43	9350.44
486.61	9210.01
486.78	9441.72
486.96	9247.46
487.14	9479.17
487.32	9577.47
487.50	9568.11
487.68	9671.09
487.85	9909.83
488.03	9785.78
488.21	10054.94
488.39	9816.21
488.57	10040.90
488.75	10204.74
488.92	10162.61
489.10	10218.78
489.28	10314.74
489.46	10396.66
489.64	10590.92
489.81	10810.93
489.99	10633.05
490.17	10558.16
490.35	10883.49
490.53	10698.59
490.70	10888.17
490.88	10829.66
491.06	11103.50
491.24	11087.12
491.41	10829.66
491.59	11180.74
491.77	11126.91
491.95	11255.64
492.13	11339.90
492.30	11433.52
492.48	11054.35
492.66	11349.26
492.84	11609.06
493.01	11571.61
493.19	11815.02
493.37	11735.45
493.54	11702.68
493.72	11934.39
493.90	11803.32
494.08	12049.08
494.25	12013.97
494.43	11962.48
494.61	12079.50
494.79	12341.64
494.96	12156.74
495.14	12233.98
495.32	12800.39
495.49	12510.16
495.67	12411.86
495.85	12676.34
496.02	12784.01
496.20	12805.07
496.38	12842.52
496.55	12868.27
496.73	13298.92
496.91	12833.16
497.09	12973.59
497.26	13025.08
497.44	13121.04
497.62	13053.17
497.79	13369.14
497.97	13399.57
498.14	13472.12
498.32	13224.03
498.50	13593.83
498.67	13748.31
498.85	13420.63
499.03	13696.82
499.20	13755.33
499.38	13898.10
499.56	13862.99
499.73	13991.72
499.91	14064.28
500.08	13991.72
500.26	14087.68
500.44	14029.17
500.61	14249.18
500.79	14043.21
500.97	14382.59
501.14	14450.47
501.32	14523.02
501.49	14370.89
501.67	14333.44
501.84	14665.80
502.02	14291.31
502.20	14487.92
502.37	14700.90
502.55	14679.84
502.72	14682.18
502.90	14754.74
503.07	14736.01
503.25	14724.31
503.43	14654.09
503.60	15096.46
503.78	15274.34
503.95	14892.83
504.13	15009.86
504.30	15178.37
504.48	15129.22
504.65	15311.78
504.83	15754.15
505.01	15346.89
505.18	15492.01
505.36	15489.67
505.53	15499.03
505.71	15627.76
505.88	15651.16
506.06	15372.64
506.23	15763.51
506.41	15529.45
506.58	15726.06
506.76	15992.88
506.93	15761.17
507.11	15850.11
507.28	15894.58
507.46	16027.99
507.63	16053.73
507.81	16114.59
507.98	15906.28
508.16	15772.87
508.33	16184.80
508.50	16266.72
508.68	16416.52
508.85	16552.27
509.03	16451.63
509.20	16437.58
509.38	16383.75
509.55	16695.04
509.73	16774.62
509.90	16868.24
510.08	16772.28
510.25	16573.33
510.42	16704.40
510.60	16652.91
510.77	17062.51
510.95	16917.39
511.12	16912.71
511.30	16886.97
511.47	17008.67
511.64	17088.25
511.82	17413.59
511.99	17116.34
512.17	17359.75
512.34	17364.43
512.51	17151.45
512.69	17429.97
512.86	17226.34
513.04	17509.55
513.21	17418.27
513.38	17357.41
513.56	17509.55
513.73	17521.25
513.90	17598.49
514.08	17771.69
514.25	17790.41
514.43	18019.78
514.60	17954.25
514.77	17755.30
514.95	18080.64
515.12	17743.60
515.29	17841.90
515.47	17972.97
515.64	17965.95
515.81	18295.97
515.99	18331.08
516.16	18352.14
516.33	17958.93
516.51	18616.62
516.68	18295.97
516.85	18272.56
517.03	18441.08
517.20	18445.76
517.37	18354.48
517.54	18394.27
517.72	18494.91
517.89	18359.16
518.06	18644.71
518.24	18878.76
518.41	18562.79
518.58	18682.16
518.75	18621.30
518.93	18602.58
519.10	18988.77
519.27	18813.23
519.45	18904.51
519.62	18920.89
519.79	18876.42
519.96	18703.22
520.14	18785.14
520.31	18939.62
520.48	18710.24
520.65	19084.73
520.83	19632.41
521.00	19171.33
521.17	19316.44
521.34	19124.52
521.52	19405.38
521.69	19185.37
521.86	19309.42
522.03	19159.63
522.20	19407.72
522.38	19597.31
522.55	19686.25
522.72	19555.18
522.89	19477.94
523.07	19730.72
523.24	19599.65
523.41	19697.95
523.58	19662.84
523.75	20175.42
523.92	19985.83
524.10	19672.20
524.27	19756.46
524.44	20063.07
524.61	19976.47
524.78	19950.73
524.96	20030.30
525.13	20032.65
525.30	20273.72
525.47	20451.60
525.64	20102.86
525.81	20369.68
525.98	20318.19
526.16	20404.79
526.33	20100.52
526.50	20737.15
526.67	20308.83
526.84	20322.87
527.01	20563.95
527.18	20374.36
527.36	20669.27
527.53	20538.20
527.70	20849.49
527.87	20816.72
528.04	20805.02
528.21	20627.14
528.38	20854.17
528.55	20554.58
528.72	20556.93
528.89	20449.26
529.07	21085.89
529.24	20985.24
529.41	20746.51
529.58	21069.50
529.75	20861.19
529.92	20933.75
530.09	21221.64
530.26	21092.91
530.43	20978.22
530.60	20884.60
530.77	21074.18
530.94	21113.97
531.11	21479.10
531.28	21289.51
531.46	21144.40
531.63	21022.69
531.80	21453.35
531.97	21383.13
532.14	21387.82
532.31	21572.72
532.48	21649.96
532.65	21881.67
532.82	21645.27
532.99	21612.51
533.16	21406.54
533.33	21722.51
533.50	21799.75
533.67	21715.49
533.84	21364.41
534.01	21736.56
534.18	21837.20
534.35	22024.44
534.52	21549.31
534.69	21809.11
534.86	21804.43
535.03	21802.09
535.20	21818.47
535.37	21909.75
535.54	22188.28
535.71	21858.26
535.88	21851.24
536.05	21944.86
536.22	21898.05
536.38	22008.06
536.55	21947.20
536.72	22101.68
536.89	22333.39
537.06	22347.44
537.23	22361.48
537.40	22319.35
537.57	22644.68
537.74	22515.95
537.91	22368.50
538.08	22445.74
538.25	22305.31
538.42	22534.68
538.59	22731.28
538.75	22448.08
538.92	22684.47
539.09	22618.94
539.26	22445.74
539.43	22410.63
539.60	22621.28
539.77	22637.66
539.94	22742.99
540.11	22731.28
540.28	23058.96
540.44	23061.30
540.61	22958.31
540.78	23126.83
540.95	23325.78
541.12	23309.40
541.29	23274.29
541.46	23180.67
541.62	23410.04
541.79	23754.10
541.96	23285.99
542.13	23396.00
542.30	23538.77
542.47	23211.09
542.63	23686.22
542.80	23515.36
542.97	24168.37
543.14	23700.26
543.31	23992.83
543.48	23716.65
543.64	23917.93
543.81	23967.09
543.98	23728.35
544.15	24084.11
544.32	24020.92
544.48	24102.84
544.65	24095.82
544.82	24079.43
544.99	23777.50
545.16	24041.98
545.32	24259.65
545.49	24727.76
545.66	24669.25
545.83	25050.75
546.00	25170.12
546.16	24959.47
546.33	24643.50
546.50	24180.07
546.67	24208.16
546.83	23967.09
547.00	24180.07
547.17	24238.59
547.34	24056.03
547.50	24390.72
547.67	24079.43
547.84	24177.73
548.00	24528.81
548.17	24474.98
548.34	24236.25
548.51	24329.87
548.67	24273.70
548.84	24353.27
549.01	24327.53
549.18	24016.24
549.34	24240.93
549.51	24685.63
549.68	24297.10
549.84	24615.41
550.01	24615.41
550.18	24203.48
550.34	24191.78
550.51	24273.70
550.68	24332.21
550.84	23859.42
551.01	24423.49
551.18	24369.66
551.34	24423.49
551.51	24517.11
551.68	24243.27
551.84	24240.93
552.01	24177.73
552.18	24355.61
552.34	24519.45
552.51	24500.73
552.68	24638.82
552.84	24369.66
553.01	24580.31
553.18	24491.37
553.34	24800.32
553.51	24519.45
553.67	24519.45
553.84	24737.12
554.01	24641.16
554.17	24847.13
554.34	25092.88
554.51	24725.42
554.67	24629.46
554.84	24891.60
555.00	24603.71
555.17	24252.63
555.33	24961.81
555.50	24746.48
555.67	24622.44
555.83	24453.92
556.00	24755.85
556.16	25106.93
556.33	25050.75
556.50	24826.06
556.66	24919.68
556.83	24730.10
556.99	24915.00
557.16	24915.00
557.32	25298.85
557.49	25039.05
557.65	25062.46
557.82	24900.96
557.98	25083.52
558.15	24922.02
558.32	24779.25
558.48	25097.56
558.65	25223.95
558.81	25242.68
558.98	25095.22
559.14	25364.39
559.31	25207.57
559.47	25104.59
559.64	25139.69
559.80	24889.26
559.97	25380.77
560.13	25027.35
560.30	24926.71
560.46	25109.27
560.63	25366.73
560.79	25525.88
560.96	25476.73
561.12	25713.13
561.29	25603.12
561.45	25535.24
561.61	25345.66
561.78	25312.89
561.94	25324.60
562.11	25661.63
562.27	25450.99
562.44	25757.60
562.60	25640.57
562.77	25448.64
562.93	25846.54
563.10	25516.52
563.26	25046.07
563.42	25525.88
563.59	25621.84
563.75	25406.52
563.92	25504.82
564.08	25605.46
564.24	25645.25
564.41	25558.65
564.57	25266.08
564.74	25383.11
564.90	25591.42
565.07	25546.95
565.23	25579.71
565.39	25986.97
565.56	25614.82
565.72	25434.60
565.88	25429.92
566.05	25270.76
566.21	25373.75
566.38	25652.27
566.54	25450.99
566.70	25820.79
566.87	25855.90
567.03	25635.89
567.19	25713.13
567.36	26139.10
567.52	25886.32
567.68	25635.89
567.85	25249.70
568.01	26005.69
568.17	25638.23
568.34	25825.47
568.50	25830.15
568.66	25928.45
568.83	25883.98
568.99	25507.16
569.15	25692.06
569.32	25525.88
569.48	25572.69
569.64	25926.11
569.81	25692.06
569.97	25399.49
570.13	25851.22
570.30	25876.96
570.46	25575.03
570.62	25773.98
570.78	25713.13
570.95	25816.11
571.11	25834.83
571.27	25933.14
571.43	25766.96
571.60	26015.05
571.76	25755.26
571.92	25736.53
572.09	25928.45
572.25	25912.07
572.41	26195.28
572.57	26031.44
572.74	26106.34
572.90	25773.98
573.06	25949.52
573.22	26096.97
573.38	25986.97
573.55	25883.98
573.71	25825.47
573.87	26118.04
574.03	25699.08
574.20	26010.37
574.36	25914.41
574.52	25907.39
574.68	26047.82
574.84	25743.55
575.01	25862.92
575.17	25823.13
575.33	26043.14
575.49	25839.51
575.65	25961.22
575.82	25483.75
575.98	25656.95
576.14	26068.89
576.30	26345.07
576.46	26122.72
576.62	26164.85
576.79	25891.01
576.95	25996.33
577.11	25919.09
577.27	26389.54
577.43	26139.10
577.59	26047.82
577.75	25944.84
577.92	26106.34
578.08	26050.16
578.24	26239.75
578.40	25998.67
578.56	26527.63
578.72	26469.12
578.88	26499.55
579.04	26258.47
579.21	26183.57
579.37	26471.46
579.53	26403.58
579.69	26045.48
579.85	25769.30
580.01	26157.83
580.17	26267.83
580.33	26487.84
580.49	26012.71
580.65	26382.52
580.82	26263.15
580.98	26043.14
581.14	26223.36
581.30	26380.18
581.46	26373.16
581.62	26050.16
581.78	25928.45
581.94	25766.96
582.10	25759.94
582.26	25876.96
582.42	26260.81
582.58	26078.25
582.74	26462.10
582.90	26040.80
583.06	26202.30
583.22	25759.94
583.38	26370.82
583.54	26380.18
583.70	26157.83
583.86	26572.10
584.02	26206.98
584.18	26309.96
584.34	26342.73
584.50	26340.39
584.66	26342.73
584.82	26267.83
584.98	26452.73
585.14	26174.21
585.30	26270.17
585.46	26244.43
585.62	26263.15
585.78	26436.35
585.94	26174.21
586.10	26366.13
586.26	26459.76
586.42	26230.38
586.58	26113.36
586.74	26431.67
586.90	26466.78
587.06	26544.02
587.22	26623.59
587.38	26314.64
587.54	26279.54
587.70	26623.59
587.86	26794.45
588.02	26340.39
588.18	26419.97
588.34	26471.46
588.49	26508.91
588.65	26267.83
588.81	26265.49
588.97	26019.74
589.13	26412.95
589.29	26288.90
589.45	26637.64
589.61	26424.65
589.77	27007.44
589.93	26471.46
590.08	26253.79
590.24	26387.20
590.40	26361.45
590.56	26251.45
590.72	26197.62
