SpectraSuite Data File
++++++++++++++++++++++++++++++++++++
Date: Thu Oct 24 13:21:47 EDT 2013
User: stostad
Dark Spectrum Present: No
Reference Spectrum Present: No
Number of Sampled Component Spectra: 1
Spectrometers: USB2+H05261
Integration Time (usec): 100000 (USB2+H05261)
Spectra Averaged: 1 (USB2+H05261)
Boxcar Smoothing: 0 (USB2+H05261)
Correct for Electrical Dark: No (USB2+H05261)
Strobe/Lamp Enabled: No (USB2+H05261)
Correct for Detector Non-linearity: No (USB2+H05261)
Correct for Stray Light: No (USB2+H05261)
Number of Pixels in Processed Spectrum: 2048
>>>>>Begin Processed Spectral Data<<<<<
365.73	1020.47
365.92	1020.47
366.12	1020.47
366.32	987.71
366.52	903.45
366.72	940.90
366.91	863.66
367.11	917.49
367.31	851.96
367.51	887.06
367.70	887.06
367.90	837.91
368.10	884.72
368.30	812.17
368.49	809.83
368.69	908.13
368.89	905.79
369.09	945.58
369.28	924.51
369.48	915.15
369.68	971.32
369.87	966.64
370.07	936.21
370.27	1039.20
370.47	1376.24
370.66	2424.80
370.86	2443.52
371.06	2471.61
371.25	2502.03
371.45	2459.90
371.65	2436.50
371.84	2544.16
372.04	2590.97
372.24	2663.53
372.44	2576.93
372.63	2642.46
372.83	2696.30
373.03	2745.45
373.22	2630.76
373.42	2715.02
373.62	2785.24
373.81	2747.79
374.01	2794.60
374.21	2785.24
374.40	2775.88
374.60	2820.35
374.79	2829.71
374.99	2761.83
375.19	2977.16
375.38	2991.20
375.58	3016.95
375.78	3087.17
375.97	3087.17
376.17	3087.17
376.37	3068.44
376.56	3068.44
376.76	3084.83
376.95	3117.59
377.15	3059.08
377.35	3119.93
377.54	3133.98
377.74	3286.11
377.93	3222.92
378.13	3269.73
378.33	3232.28
378.52	3255.69
378.72	3335.26
378.91	3361.01
379.11	3419.52
379.31	3353.99
379.50	3510.80
379.70	3274.41
379.89	3496.76
380.09	3440.59
380.28	3564.64
380.48	3611.45
380.68	3550.59
380.87	3466.33
381.07	3590.38
381.26	3634.85
381.46	3550.59
381.65	3529.53
381.85	3768.26
382.04	3702.73
382.24	3655.92
382.43	3744.86
382.63	3707.41
382.83	3777.62
383.02	3733.15
383.22	3859.54
383.41	3852.52
383.61	3768.26
383.80	3892.31
384.00	3941.46
384.19	3948.48
384.39	3906.35
384.58	4009.34
384.78	4112.32
384.97	4161.47
385.17	4053.81
385.36	4070.19
385.56	4208.28
385.75	4208.28
385.95	4107.64
386.14	4231.69
386.34	4287.86
386.53	4159.13
386.72	4337.01
386.92	4320.63
387.11	4344.03
387.31	4386.16
387.50	4414.25
387.70	4512.55
387.89	4353.40
388.09	4545.32
388.28	4486.81
388.48	4416.59
388.67	4554.68
388.86	4608.51
389.06	4765.33
389.25	4767.67
389.45	4683.41
389.64	4744.27
389.84	4777.03
390.03	4870.65
390.22	4823.84
390.42	4793.42
390.61	4957.25
390.81	4835.55
391.00	4961.94
391.19	4971.30
391.39	5043.85
391.58	5205.35
391.78	4999.38
391.97	5090.67
392.16	5078.96
392.36	5376.21
392.55	5282.59
392.75	5411.32
392.94	5397.28
393.13	5343.44
393.33	5434.72
393.52	5490.90
393.71	5408.98
393.91	5371.53
394.10	5469.83
394.29	5610.26
394.49	5526.00
394.68	5701.54
394.88	5561.11
395.07	5771.76
395.26	5755.38
395.46	5795.17
395.65	5722.61
395.84	5949.64
396.04	6017.52
396.23	5921.56
396.42	5940.28
396.62	6066.67
396.81	6057.31
397.00	6232.85
397.19	6099.44
397.39	6113.48
397.58	6146.25
397.77	6108.80
397.97	6260.93
398.16	6349.87
398.35	6216.46
398.55	6312.42
398.74	6375.62
398.93	6628.40
399.12	6518.39
399.32	6487.96
399.51	6558.18
399.70	6726.70
399.90	6813.30
400.09	6799.26
400.28	6857.77
400.47	6895.22
400.67	7000.54
400.86	7108.21
401.05	6839.05
401.24	6839.05
401.44	7070.76
401.63	7110.55
401.82	7218.21
402.01	7314.17
402.21	7197.15
402.40	7391.41
402.59	7358.64
402.78	7417.16
402.97	7438.22
403.17	7552.91
403.36	7431.20
403.55	7662.91
403.74	7662.91
403.93	7728.45
404.13	7770.58
404.32	7871.22
404.51	7817.39
404.70	8252.73
404.89	8042.08
405.09	7964.84
405.28	8084.21
405.47	8187.19
405.66	8198.90
405.85	8205.92
406.05	8320.60
406.24	8262.09
406.43	8407.20
406.62	8397.84
406.81	8643.60
407.00	8341.67
407.20	8451.67
407.39	8606.15
407.58	8629.56
407.77	8851.91
407.96	8786.37
408.15	8837.86
408.34	8968.93
408.54	8999.36
408.73	8812.12
408.92	9046.17
409.11	9256.82
409.30	9282.56
409.49	9511.94
409.68	9320.01
409.87	9401.93
410.07	9549.39
410.26	9593.86
410.45	9497.89
410.64	9530.66
410.83	9841.95
411.02	9774.08
411.21	10118.14
411.40	9820.89
411.59	10167.29
411.78	10239.84
411.98	10244.52
412.17	10293.68
412.36	10445.81
412.55	10394.32
412.74	10729.02
412.93	10499.64
413.12	10473.90
413.31	11073.07
413.50	10785.19
413.69	10768.80
413.88	11110.52
414.07	11068.39
414.26	11248.61
414.45	11445.22
414.64	11370.32
414.83	11611.40
415.02	11564.59
415.22	12032.69
415.41	12058.44
415.60	12042.06
415.79	11873.54
415.98	12170.79
416.17	12362.71
416.36	12170.79
416.55	12390.80
416.74	12470.37
416.93	12463.35
417.12	12823.80
417.31	12634.21
417.50	13034.44
417.69	12971.25
417.88	12994.65
418.07	13121.04
418.26	13160.83
418.45	13130.41
418.64	13790.44
418.83	13481.49
419.02	13584.47
419.21	13577.45
419.39	13776.39
419.58	13771.71
419.77	13664.05
419.96	14122.79
420.15	13909.80
420.34	14005.77
420.53	13813.84
420.72	14286.63
420.91	14310.04
421.10	14569.83
421.29	14595.58
421.48	14286.63
421.67	14698.56
421.86	14871.76
422.05	14764.10
422.24	14403.66
422.43	15094.11
422.61	15051.99
422.80	15379.66
422.99	14740.69
423.18	15255.61
423.37	15590.31
423.56	15290.72
423.75	14995.81
423.94	14801.55
424.13	13977.68
424.32	14626.01
424.50	15012.20
424.69	15587.97
424.88	15435.83
425.07	15648.82
425.26	15236.89
425.45	15311.78
425.64	15197.10
425.83	15318.81
426.01	15286.04
426.20	15463.92
426.39	15686.27
426.58	15428.81
426.77	15616.05
426.96	16119.27
427.15	15690.95
427.33	16140.33
427.52	15487.32
427.71	16236.30
427.90	16109.91
428.09	16049.05
428.28	16472.69
428.46	16390.77
428.65	16353.32
428.84	16805.05
429.03	16695.04
429.22	16479.71
429.40	16767.60
429.59	16676.32
429.78	16615.46
429.97	16376.73
430.16	16755.90
430.34	17261.45
430.53	17497.84
430.72	17256.77
430.91	17462.74
431.10	17535.29
431.28	17907.44
431.47	17715.51
431.66	17895.74
431.85	18078.30
432.03	18300.65
432.22	18471.51
432.41	18050.21
432.60	18218.73
432.79	18462.15
432.97	18492.57
433.16	18972.38
433.35	18726.63
433.54	18789.82
433.72	18867.06
433.91	18867.06
434.10	19168.99
434.28	18951.32
434.47	19365.59
434.66	19199.41
434.85	19704.97
435.03	19777.53
435.22	19627.73
435.41	20594.37
435.59	20243.29
435.78	20301.81
435.97	19927.32
436.16	19833.70
436.34	20212.87
436.53	20189.46
436.72	20479.69
436.90	20304.15
437.09	20716.08
437.28	20669.27
437.46	20601.40
437.65	20563.95
437.84	21350.37
438.02	20968.86
438.21	21259.09
438.40	20826.09
438.58	21715.49
438.77	22047.85
438.96	21837.20
439.14	22429.35
439.33	22302.96
439.52	22747.67
439.70	22602.55
439.89	22829.59
440.08	23190.03
440.26	23138.54
440.45	23021.51
440.63	23468.55
440.82	24159.01
441.01	23915.59
441.19	24287.74
441.38	24273.70
441.57	24437.53
441.75	24266.67
441.94	25069.48
442.12	25205.23
442.31	25172.46
442.50	25198.21
442.68	25202.89
442.87	25219.27
443.05	26033.78
443.24	25769.30
443.43	25521.20
443.61	26008.03
443.80	26918.50
443.98	25266.08
444.17	24716.06
444.35	26061.87
444.54	26466.78
444.73	26328.69
444.91	26108.68
445.10	26574.44
445.28	26539.33
445.47	26597.85
445.65	26354.43
445.84	26927.86
446.02	27058.93
446.21	26988.72
446.39	26679.77
446.58	26986.38
446.77	26958.29
446.95	26221.02
447.14	26834.24
447.32	27180.64
447.51	26925.52
447.69	26831.90
447.88	26782.75
448.06	27065.96
448.25	27154.90
448.43	27620.66
448.62	27562.15
448.80	27470.87
448.99	27480.23
449.17	27880.46
449.36	27576.19
449.54	28437.51
449.73	28692.63
449.91	28753.48
450.10	28924.34
450.28	29191.16
450.46	28985.19
450.65	28940.72
450.83	29474.37
451.02	28811.99
451.20	29495.43
451.39	29476.71
451.57	29394.79
451.76	29329.25
451.94	29343.30
452.13	30099.29
452.31	30022.05
452.49	29757.57
452.68	30134.40
452.86	30478.46
453.05	30129.72
453.23	30167.16
453.42	30092.27
453.60	30504.20
453.78	30684.42
453.97	30644.63
454.15	30803.79
454.34	30546.33
454.52	31529.36
454.70	31599.57
454.89	31524.68
455.07	31704.90
455.26	31756.39
455.44	31875.76
455.62	32280.67
455.81	32175.34
455.99	31971.72
456.17	32528.77
456.36	32393.01
456.54	32833.04
456.73	33315.19
456.91	34122.67
457.09	33701.37
457.28	33928.41
457.46	33563.28
457.64	34370.77
457.83	33905.00
458.01	34146.08
458.19	34986.33
458.38	33989.26
458.56	34581.42
458.74	35157.19
458.93	35063.57
459.11	34958.24
459.29	34888.03
459.48	35218.04
459.66	35304.64
459.84	35742.32
460.03	35857.01
460.21	36025.53
460.39	36084.04
460.57	36018.50
460.76	36268.94
460.94	36259.58
461.12	36912.59
461.31	36147.23
461.49	36629.38
461.67	36739.39
461.85	37324.52
462.04	37137.28
462.22	37872.21
462.40	37963.49
462.59	37631.13
462.77	37806.67
462.95	38340.32
463.13	38043.07
463.32	37907.32
463.50	38618.84
463.68	38541.60
463.86	38749.91
464.05	37965.83
464.23	38527.56
464.41	39236.74
464.59	38857.57
464.78	39983.37
464.96	39461.43
465.14	38719.48
465.32	39796.13
465.50	39772.72
465.69	40285.30
465.87	40364.88
466.05	39641.65
466.23	39927.20
466.41	40306.37
466.60	40804.90
466.78	40023.16
466.96	40285.30
467.14	40594.25
467.32	40540.42
467.51	41071.72
467.69	40069.97
467.87	41104.49
468.05	41748.14
468.23	41090.44
468.41	40931.29
468.60	42054.75
468.78	42136.66
468.96	41837.08
469.14	42361.36
469.32	42784.99
469.50	41502.38
469.69	42567.32
469.87	43164.16
470.05	43309.27
470.23	43709.50
470.41	43391.19
470.59	43927.17
470.77	43239.06
470.95	43452.05
471.14	44678.49
471.32	43599.50
471.50	44406.98
471.68	44767.43
471.86	44737.00
472.04	45261.28
472.22	46279.41
472.40	45162.98
472.58	45361.92
472.77	46108.55
472.95	46080.47
473.13	47421.59
473.31	46735.82
473.49	47051.79
473.67	46948.81
473.85	47189.88
474.03	47873.32
474.21	48004.39
474.39	48353.13
474.57	48161.20
474.75	48961.67
474.93	49237.85
475.12	48741.66
475.30	49485.95
475.48	49317.43
475.66	49586.59
475.84	49722.34
476.02	50078.10
476.20	50274.71
476.38	50560.25
476.56	51529.23
476.74	51629.88
476.92	51526.89
477.10	51461.36
477.28	52016.07
477.46	52154.16
477.64	52179.90
477.82	53073.99
478.00	53640.40
478.18	53315.06
478.36	53738.70
478.54	54312.13
478.72	54120.21
478.90	54468.95
479.08	54501.71
479.26	55157.06
479.44	55451.97
479.62	55444.95
479.80	55828.80
479.98	55863.91
480.16	56502.87
480.34	55955.19
480.52	56444.36
480.70	56729.90
480.88	56470.11
481.06	56886.72
481.24	57076.30
481.41	57153.54
481.59	57897.83
481.77	58094.44
481.95	58391.68
482.13	58480.63
482.31	58164.65
482.49	58993.20
482.67	58850.43
482.85	59285.77
483.03	59505.78
483.21	59894.31
483.39	60097.94
483.57	59877.93
483.74	60163.47
483.92	60580.09
484.10	60381.14
484.28	61043.51
484.46	61151.18
484.64	61588.86
484.82	61282.25
485.00	61558.43
485.18	62087.39
485.35	62520.39
485.53	62199.74
485.71	62567.20
485.89	62775.51
486.07	62834.02
486.25	62878.49
486.43	63147.65
486.61	63388.73
486.78	63611.08
486.96	63615.76
487.14	64191.53
487.32	64280.47
487.50	64392.82
487.68	64495.80
487.85	64776.67
488.03	65146.47
488.21	65109.02
488.39	65307.97
488.57	65441.38
488.75	65535.00
488.92	65535.00
489.10	65535.00
489.28	65535.00
489.46	65535.00
489.64	65535.00
489.81	65535.00
489.99	65535.00
490.17	65535.00
490.35	65535.00
490.53	65535.00
490.70	65535.00
490.88	65535.00
491.06	65535.00
491.24	65535.00
491.41	65535.00
491.59	65535.00
491.77	65535.00
491.95	65535.00
492.13	65535.00
492.30	65535.00
492.48	65535.00
492.66	65535.00
492.84	65535.00
493.01	65535.00
493.19	65535.00
493.37	65535.00
493.54	65535.00
493.72	65535.00
493.90	65535.00
494.08	65535.00
494.25	65535.00
494.43	65535.00
494.61	65535.00
494.79	65535.00
494.96	65535.00
495.14	65535.00
495.32	65535.00
495.49	65535.00
495.67	65535.00
495.85	65535.00
496.02	65535.00
496.20	65535.00
496.38	65535.00
496.55	65535.00
496.73	65535.00
496.91	65535.00
497.09	65535.00
497.26	65535.00
497.44	65535.00
497.62	65535.00
497.79	65535.00
497.97	65535.00
498.14	65535.00
498.32	65535.00
498.50	65535.00
498.67	65535.00
498.85	65535.00
499.03	65535.00
499.20	65535.00
499.38	65535.00
499.56	65535.00
499.73	65535.00
499.91	65535.00
500.08	65535.00
500.26	65535.00
500.44	65535.00
500.61	65535.00
500.79	65535.00
500.97	65535.00
501.14	65535.00
501.32	65535.00
501.49	65535.00
501.67	65535.00
501.84	65535.00
502.02	65535.00
502.20	65535.00
502.37	65535.00
502.55	65535.00
502.72	65535.00
502.90	65535.00
503.07	65535.00
503.25	65535.00
503.43	65535.00
503.60	65535.00
503.78	65535.00
503.95	65535.00
504.13	65535.00
504.30	65535.00
504.48	65535.00
504.65	65535.00
504.83	65535.00
505.01	65535.00
505.18	65535.00
505.36	65535.00
505.53	65535.00
505.71	65535.00
505.88	65535.00
506.06	65535.00
506.23	65535.00
506.41	65535.00
506.58	65535.00
506.76	65535.00
506.93	65535.00
507.11	65535.00
507.28	65535.00
507.46	65535.00
507.63	65535.00
507.81	65535.00
507.98	65535.00
508.16	65535.00
508.33	65535.00
508.50	65535.00
508.68	65535.00
508.85	65535.00
509.03	65535.00
509.20	65535.00
509.38	65535.00
509.55	65535.00
509.73	65535.00
509.90	65535.00
510.08	65535.00
510.25	65535.00
510.42	65535.00
510.60	65535.00
510.77	65535.00
510.95	65535.00
511.12	65535.00
511.30	65535.00
511.47	65535.00
511.64	65535.00
511.82	65535.00
511.99	65535.00
512.17	65535.00
512.34	65535.00
512.51	65535.00
512.69	65535.00
512.86	65535.00
513.04	65535.00
513.21	65535.00
513.38	65535.00
513.56	65535.00
513.73	65535.00
513.90	65535.00
514.08	65535.00
514.25	65535.00
514.43	65535.00
514.60	65535.00
514.77	65535.00
514.95	65535.00
515.12	65535.00
515.29	65535.00
515.47	65535.00
515.64	65535.00
515.81	65535.00
515.99	65535.00
516.16	65535.00
516.33	65535.00
516.51	65535.00
516.68	65535.00
516.85	65535.00
517.03	65535.00
517.20	65535.00
517.37	65535.00
517.54	65535.00
517.72	65535.00
517.89	65535.00
518.06	65535.00
518.24	65535.00
518.41	65535.00
518.58	65535.00
518.75	65535.00
518.93	65535.00
519.10	65535.00
519.27	65535.00
519.45	65535.00
519.62	65535.00
519.79	65535.00
519.96	65535.00
520.14	65535.00
520.31	65535.00
520.48	65535.00
520.65	65535.00
520.83	65535.00
521.00	65535.00
521.17	65535.00
521.34	65535.00
521.52	65535.00
521.69	65535.00
521.86	65535.00
522.03	65535.00
522.20	65535.00
522.38	65535.00
522.55	65535.00
522.72	65535.00
522.89	65535.00
523.07	65535.00
523.24	65535.00
523.41	65535.00
523.58	65535.00
523.75	65535.00
523.92	65535.00
524.10	65535.00
524.27	65535.00
524.44	65535.00
524.61	65535.00
524.78	65535.00
524.96	65535.00
525.13	65535.00
525.30	65535.00
525.47	65535.00
525.64	65535.00
525.81	65535.00
525.98	65535.00
526.16	65535.00
526.33	65535.00
526.50	65535.00
526.67	65535.00
526.84	65535.00
527.01	65535.00
527.18	65535.00
527.36	65535.00
527.53	65535.00
527.70	65535.00
527.87	65535.00
528.04	65535.00
528.21	65535.00
528.38	65535.00
528.55	65535.00
528.72	65535.00
528.89	65535.00
529.07	65535.00
529.24	65535.00
529.41	65535.00
529.58	65535.00
529.75	65535.00
529.92	65535.00
530.09	65535.00
530.26	65535.00
530.43	65535.00
530.60	65535.00
530.77	65535.00
530.94	65535.00
531.11	65535.00
531.28	65535.00
531.46	65535.00
531.63	65535.00
531.80	65535.00
531.97	65535.00
532.14	65535.00
532.31	65535.00
532.48	65535.00
532.65	65535.00
532.82	65535.00
532.99	65535.00
533.16	65535.00
533.33	65535.00
533.50	65535.00
533.67	65535.00
533.84	65535.00
534.01	65535.00
534.18	65535.00
534.35	65535.00
534.52	65535.00
534.69	65535.00
534.86	65535.00
535.03	65535.00
535.20	65535.00
535.37	65535.00
535.54	65535.00
535.71	65535.00
535.88	65535.00
536.05	65535.00
536.22	65535.00
536.38	65535.00
536.55	65535.00
536.72	65535.00
536.89	65535.00
537.06	65535.00
537.23	65535.00
537.40	65535.00
537.57	65535.00
537.74	65535.00
537.91	65535.00
538.08	65535.00
538.25	65535.00
538.42	65535.00
538.59	65535.00
538.75	65535.00
538.92	65535.00
539.09	65535.00
539.26	65535.00
539.43	65535.00
539.60	65535.00
539.77	65535.00
539.94	65535.00
540.11	65535.00
540.28	65535.00
540.44	65535.00
540.61	65535.00
540.78	65535.00
540.95	65535.00
541.12	65535.00
541.29	65535.00
541.46	65535.00
541.62	65535.00
541.79	65535.00
541.96	65535.00
542.13	65535.00
542.30	65535.00
542.47	65535.00
542.63	65535.00
542.80	65535.00
542.97	65535.00
543.14	65535.00
543.31	65535.00
543.48	65535.00
543.64	65535.00
543.81	65535.00
543.98	65535.00
544.15	65535.00
544.32	65535.00
544.48	65535.00
544.65	65535.00
544.82	65535.00
544.99	65535.00
545.16	65535.00
545.32	65535.00
545.49	65535.00
545.66	65535.00
545.83	65535.00
546.00	65535.00
546.16	65535.00
546.33	65535.00
546.50	65535.00
546.67	65535.00
546.83	65535.00
547.00	65535.00
547.17	65535.00
547.34	65535.00
547.50	65535.00
547.67	65535.00
547.84	65535.00
548.00	65535.00
548.17	65535.00
548.34	65535.00
548.51	65535.00
548.67	65535.00
548.84	65535.00
549.01	65535.00
549.18	65535.00
549.34	65535.00
549.51	65535.00
549.68	65535.00
549.84	65535.00
550.01	65535.00
550.18	65535.00
550.34	65535.00
550.51	65535.00
550.68	65535.00
550.84	65535.00
551.01	65535.00
551.18	65535.00
551.34	65535.00
551.51	65535.00
551.68	65535.00
551.84	65535.00
552.01	65535.00
552.18	65535.00
552.34	65535.00
552.51	65535.00
552.68	65535.00
552.84	65535.00
553.01	65535.00
553.18	65535.00
553.34	65535.00
553.51	65535.00
553.67	65535.00
553.84	65535.00
554.01	65535.00
554.17	65535.00
554.34	65535.00
554.51	65535.00
554.67	65535.00
554.84	65535.00
555.00	65535.00
555.17	65535.00
555.33	65535.00
555.50	65535.00
555.67	65535.00
555.83	65535.00
556.00	65535.00
556.16	65535.00
556.33	65535.00
556.50	65535.00
556.66	65535.00
556.83	65535.00
556.99	65535.00
557.16	65535.00
557.32	65535.00
557.49	65535.00
557.65	65535.00
557.82	65535.00
557.98	65535.00
558.15	65535.00
558.32	65535.00
558.48	65535.00
558.65	65535.00
558.81	65535.00
558.98	65535.00
559.14	65535.00
559.31	65535.00
559.47	65535.00
559.64	65535.00
559.80	65535.00
559.97	65535.00
560.13	65535.00
560.30	65535.00
560.46	65535.00
560.63	65535.00
560.79	65535.00
560.96	65535.00
561.12	65535.00
561.29	65535.00
561.45	65535.00
561.61	65535.00
561.78	65535.00
561.94	65535.00
562.11	65535.00
562.27	65535.00
562.44	65535.00
562.60	65535.00
562.77	65535.00
562.93	65535.00
563.10	65535.00
563.26	65535.00
563.42	65535.00
563.59	65535.00
563.75	65535.00
563.92	65535.00
564.08	65535.00
564.24	65535.00
564.41	65535.00
564.57	65535.00
564.74	65535.00
564.90	65535.00
565.07	65535.00
565.23	65535.00
565.39	65535.00
565.56	65535.00
565.72	65535.00
565.88	65535.00
566.05	65535.00
566.21	65535.00
566.38	65535.00
566.54	65535.00
566.70	65535.00
566.87	65535.00
567.03	65535.00
567.19	65535.00
567.36	65535.00
567.52	65535.00
567.68	65535.00
567.85	65535.00
568.01	65535.00
568.17	65535.00
568.34	65535.00
568.50	65535.00
568.66	65535.00
568.83	65535.00
568.99	65535.00
569.15	65535.00
569.32	65535.00
569.48	65535.00
569.64	65535.00
569.81	65535.00
569.97	65535.00
570.13	65535.00
570.30	65535.00
570.46	65535.00
570.62	65535.00
570.78	65535.00
570.95	65535.00
571.11	65535.00
571.27	65535.00
571.43	65535.00
571.60	65535.00
571.76	65535.00
571.92	65535.00
572.09	65535.00
572.25	65535.00
572.41	65535.00
572.57	65535.00
572.74	65535.00
572.90	65535.00
573.06	65535.00
573.22	65535.00
573.38	65535.00
573.55	65535.00
573.71	65535.00
573.87	65535.00
574.03	65535.00
574.20	65535.00
574.36	65535.00
574.52	65535.00
574.68	65535.00
574.84	65535.00
575.01	65535.00
575.17	65535.00
575.33	65535.00
575.49	65535.00
575.65	65535.00
575.82	65535.00
575.98	65535.00
576.14	65535.00
576.30	65535.00
576.46	65535.00
576.62	65535.00
576.79	65535.00
576.95	65535.00
577.11	65535.00
577.27	65535.00
577.43	65535.00
577.59	65535.00
577.75	65535.00
577.92	65535.00
578.08	65535.00
578.24	65535.00
578.40	65535.00
578.56	65535.00
578.72	65535.00
578.88	65535.00
579.04	65535.00
579.21	65535.00
579.37	65535.00
579.53	65535.00
579.69	65535.00
579.85	65535.00
580.01	65535.00
580.17	65535.00
580.33	65535.00
580.49	65535.00
580.65	65535.00
580.82	65535.00
580.98	65535.00
581.14	65535.00
581.30	65535.00
581.46	65535.00
581.62	65535.00
581.78	65535.00
581.94	65535.00
582.10	65535.00
582.26	65535.00
582.42	65535.00
582.58	65535.00
582.74	65535.00
582.90	65535.00
583.06	65535.00
583.22	65535.00
583.38	65535.00
583.54	65535.00
583.70	65535.00
583.86	65535.00
584.02	65535.00
584.18	65535.00
584.34	65535.00
584.50	65535.00
584.66	65535.00
584.82	65535.00
584.98	65535.00
585.14	65535.00
585.30	65535.00
585.46	65535.00
