SpectraSuite Data File
++++++++++++++++++++++++++++++++++++
Date: Thu Oct 24 13:21:08 EDT 2013
User: stostad
Dark Spectrum Present: No
Reference Spectrum Present: No
Number of Sampled Component Spectra: 1
Spectrometers: USB2+H05261
Integration Time (usec): 100000 (USB2+H05261)
Spectra Averaged: 1 (USB2+H05261)
Boxcar Smoothing: 0 (USB2+H05261)
Correct for Electrical Dark: No (USB2+H05261)
Strobe/Lamp Enabled: No (USB2+H05261)
Correct for Detector Non-linearity: No (USB2+H05261)
Correct for Stray Light: No (USB2+H05261)
Number of Pixels in Processed Spectrum: 2048
>>>>>Begin Processed Spectral Data<<<<<
365.73	528.96
365.92	528.96
366.12	528.96
366.32	447.04
366.52	489.17
366.72	489.17
366.91	500.87
367.11	437.68
367.31	425.98
367.51	386.19
367.70	479.81
367.90	486.83
368.10	451.72
368.30	491.51
368.49	437.68
368.69	486.83
368.89	489.17
369.09	498.53
369.28	521.94
369.48	554.71
369.68	461.09
369.87	543.00
370.07	528.96
370.27	517.26
370.47	608.54
370.66	657.69
370.86	748.97
371.06	791.10
371.25	748.97
371.45	751.31
371.65	758.33
371.84	763.01
372.04	725.57
372.24	751.31
372.44	692.80
372.63	849.61
372.83	758.33
373.03	805.14
373.22	816.85
373.42	812.17
373.62	788.76
373.81	856.64
374.01	851.96
374.21	835.57
374.40	823.87
374.60	863.66
374.79	760.67
374.99	870.68
375.19	819.19
375.38	844.93
375.58	770.04
375.78	788.76
375.97	830.89
376.17	788.76
376.37	842.59
376.56	844.93
376.76	809.83
376.95	877.70
377.15	751.31
377.35	835.57
377.54	854.30
377.74	833.23
377.93	861.32
378.13	781.74
378.33	826.21
378.52	863.66
378.72	866.00
378.91	880.04
379.11	800.46
379.31	837.91
379.50	828.55
379.70	802.80
379.89	798.12
380.09	861.32
380.28	833.23
380.48	784.08
380.68	861.32
380.87	882.38
381.07	828.55
381.26	873.02
381.46	823.87
381.65	861.32
381.85	833.23
382.04	943.24
382.24	744.29
382.43	896.43
382.63	835.57
382.83	898.77
383.02	898.77
383.22	877.70
383.41	868.34
383.61	898.77
383.80	926.85
384.00	870.68
384.19	882.38
384.39	861.32
384.58	910.47
384.78	922.17
384.97	931.53
385.17	926.85
385.36	926.85
385.56	851.96
385.75	849.61
385.95	971.32
386.14	1008.77
386.34	854.30
386.53	931.53
386.72	959.62
386.92	880.04
387.11	968.98
387.31	961.96
387.50	938.55
387.70	866.00
387.89	936.21
388.09	926.85
388.28	933.87
388.48	917.49
388.67	968.98
388.86	959.62
389.06	959.62
389.25	917.49
389.45	964.30
389.64	966.64
389.84	1022.81
390.03	877.70
390.22	1053.24
390.42	976.00
390.61	943.24
390.81	997.07
391.00	997.07
391.19	994.73
391.39	978.34
391.58	1048.56
391.78	1055.58
391.97	978.34
392.16	1078.99
392.36	1090.69
392.55	1020.47
392.75	1055.58
392.94	1025.15
393.13	1081.33
393.33	1046.22
393.52	1095.37
393.71	1071.97
393.91	1069.62
394.10	1062.60
394.29	1018.13
394.49	1078.99
394.68	1020.47
394.88	1097.71
395.07	1090.69
395.26	1069.62
395.46	1013.45
395.65	1078.99
395.84	1071.97
396.04	1111.75
396.23	1116.44
396.42	1118.78
396.62	1125.80
396.81	1107.07
397.00	1135.16
397.19	1116.44
397.39	1074.31
397.58	1217.08
397.77	1121.12
397.97	1177.29
398.16	1114.10
398.35	1128.14
398.55	1144.52
398.74	1186.65
398.93	1146.86
399.12	1174.95
399.32	1186.65
399.51	1186.65
399.70	1219.42
399.90	1158.57
400.09	1186.65
400.28	1233.46
400.47	1226.44
400.67	1308.36
400.86	1224.10
401.05	1256.87
401.24	1170.27
401.44	1277.93
401.63	1296.66
401.82	1245.16
402.01	1252.19
402.21	1235.80
402.40	1226.44
402.59	1252.19
402.78	1235.80
402.97	1226.44
403.17	1266.23
403.36	1357.51
403.55	1341.13
403.74	1315.38
403.93	1369.21
404.13	1413.68
404.32	1394.96
404.51	1406.66
404.70	1394.96
404.89	1380.92
405.09	1476.88
405.28	1364.53
405.47	1277.93
405.66	1451.13
405.85	1376.24
406.05	1444.11
406.24	1345.81
406.43	1502.62
406.62	1373.89
406.81	1437.09
407.00	1423.05
407.20	1533.05
407.39	1516.67
407.58	1479.22
407.77	1490.92
407.96	1544.75
408.15	1582.20
408.34	1448.79
408.54	1582.20
408.73	1439.43
408.92	1647.74
409.11	1523.69
409.30	1579.86
409.49	1483.90
409.68	1612.63
409.87	1558.80
410.07	1678.16
410.26	1614.97
410.45	1654.76
410.64	1650.08
410.83	1542.41
411.02	1596.25
411.21	1610.29
411.40	1661.78
411.59	1680.50
411.78	1657.10
411.98	1739.02
412.17	1703.91
412.36	1764.76
412.55	1703.91
412.74	1792.85
412.93	1736.68
413.12	1769.44
413.31	1790.51
413.50	1710.93
413.69	1776.47
413.88	1881.79
414.07	1783.49
414.26	1776.47
414.45	1785.83
414.64	1900.52
414.83	1916.90
415.02	1809.23
415.22	1921.58
415.41	1919.24
415.60	1888.81
415.79	1870.09
415.98	1867.75
416.17	1926.26
416.36	1893.49
416.55	1877.11
416.74	1856.04
416.93	1863.07
417.12	1956.69
417.31	1989.46
417.50	1961.37
417.69	2080.74
417.88	1966.05
418.07	1956.69
418.26	2071.37
418.45	2026.90
418.64	2174.36
418.83	2066.69
419.02	2078.40
419.21	2122.87
419.39	2073.71
419.58	2033.93
419.77	2139.25
419.96	2052.65
420.15	2218.83
420.34	2125.21
420.53	2127.55
420.72	2221.17
420.91	2160.31
421.10	2265.64
421.29	2223.51
421.48	2183.72
421.67	2193.08
421.86	2218.83
422.05	2282.02
422.24	2183.72
422.43	2282.02
422.61	2195.42
422.80	2310.11
422.99	2275.00
423.18	2328.83
423.37	2303.09
423.56	2228.19
423.75	2225.85
423.94	2209.47
424.13	2174.36
424.32	2300.75
424.50	2361.60
424.69	2303.09
424.88	2326.49
425.07	2275.00
425.26	2331.17
425.45	2174.36
425.64	2230.53
425.83	2232.87
426.01	2356.92
426.20	2333.51
426.39	2256.28
426.58	2359.26
426.77	2326.49
426.96	2347.56
427.15	2300.75
427.33	2445.86
427.52	2417.77
427.71	2361.60
427.90	2352.24
428.09	2377.98
428.28	2431.82
428.46	2399.05
428.65	2377.98
428.84	2480.97
429.03	2497.35
429.22	2443.52
429.40	2509.05
429.59	2490.33
429.78	2342.88
429.97	2382.67
430.16	2480.97
430.34	2555.86
430.53	2525.44
430.72	2527.78
430.91	2450.54
431.10	2429.48
431.28	2572.25
431.47	2630.76
431.66	2588.63
431.85	2462.24
432.03	2614.38
432.22	2715.02
432.41	2647.15
432.60	2567.57
432.79	2656.51
432.97	2712.68
433.16	2665.87
433.35	2693.96
433.54	2686.94
433.72	2647.15
433.91	2565.23
434.10	2775.88
434.28	2686.94
434.47	2768.85
434.66	2717.36
434.85	2637.78
435.03	2937.37
435.22	3033.33
435.41	3239.30
435.59	3155.04
435.78	3131.64
435.97	2958.44
436.16	2846.09
436.34	2949.08
436.53	2888.22
436.72	2878.86
436.90	2810.98
437.09	2878.86
437.28	2729.06
437.46	2789.92
437.65	2843.75
437.84	2878.86
438.02	2939.71
438.21	2862.48
438.40	2855.45
438.58	2984.18
438.77	3082.49
438.96	2883.54
439.14	3033.33
439.33	2977.16
439.52	3119.93
439.70	2932.69
439.89	3047.38
440.08	3204.19
440.26	2995.89
440.45	3141.00
440.63	3108.23
440.82	3276.75
441.01	3077.80
441.19	3239.30
441.38	3232.28
441.57	3234.62
441.75	3159.72
441.94	3232.28
442.12	3253.34
442.31	3480.38
442.50	3267.39
442.68	3328.24
442.87	3344.63
443.05	3283.77
443.24	3478.04
443.43	3492.08
443.61	3431.23
443.80	3485.06
443.98	3330.58
444.17	3117.59
444.35	3435.91
444.54	3494.42
444.73	3513.14
444.91	3482.72
445.10	3412.50
445.28	3501.44
445.47	3382.07
445.65	3412.50
445.84	3487.40
446.02	3438.25
446.21	3375.05
446.39	3386.76
446.58	3485.06
446.77	3489.74
446.95	3389.10
447.14	3419.52
447.32	3461.65
447.51	3515.48
447.69	3616.13
447.88	3485.06
448.06	3510.80
448.25	3581.02
448.43	3393.78
448.62	3534.21
448.80	3611.45
448.99	3623.15
449.17	3433.57
449.36	3386.76
449.54	3597.40
449.73	3641.87
449.91	3585.70
450.10	3676.98
450.28	3714.43
450.46	3815.07
450.65	3639.53
450.83	3758.90
451.02	3679.32
451.20	3815.07
451.39	3597.40
451.57	3655.92
451.76	3726.13
451.94	3716.77
452.13	3779.97
452.31	3758.90
452.49	3669.96
452.68	3894.65
452.86	3765.92
453.05	3927.42
453.23	3868.91
453.42	3763.58
453.60	3812.73
453.78	3840.82
453.97	3763.58
454.15	3840.82
454.34	3723.79
454.52	3880.61
454.70	3894.65
454.89	3859.54
455.07	3817.41
455.26	3894.65
455.44	3997.64
455.62	3899.33
455.81	3957.85
455.99	3950.82
456.17	3936.78
456.36	3871.25
456.54	4065.51
456.73	3983.59
456.91	4191.90
457.09	4184.88
457.28	4088.92
457.46	4044.45
457.64	4102.96
457.83	4093.60
458.01	4177.86
458.19	4411.91
458.38	4004.66
458.56	4133.39
458.74	4337.01
458.93	4166.15
459.11	4266.80
459.29	4219.99
459.48	4234.03
459.66	4224.67
459.84	4423.61
460.03	4519.57
460.21	4248.07
460.39	4334.67
460.57	4383.82
460.76	4379.14
460.94	4327.65
461.12	4470.42
461.31	4458.72
461.49	4374.46
461.67	4418.93
461.85	4641.28
462.04	4507.87
462.22	4786.40
462.40	4564.04
462.59	4510.21
462.77	4629.58
462.95	4542.98
463.13	4489.15
463.32	4547.66
463.50	4566.39
463.68	4599.15
463.86	4664.69
464.05	4505.53
464.23	4550.00
464.41	4650.64
464.59	4547.66
464.78	4592.13
464.96	4585.11
465.14	4596.81
465.32	4645.96
465.50	4739.58
465.69	4770.01
465.87	4718.52
466.05	4709.16
466.23	4774.69
466.41	4622.56
466.60	4943.21
466.78	4681.07
466.96	4720.86
467.14	4697.46
467.32	4723.20
467.51	4891.72
467.69	4809.80
467.87	4828.53
468.05	4823.84
468.23	4737.24
468.41	4674.05
468.60	4849.59
468.78	4772.35
468.96	4884.70
469.14	4791.08
469.32	4990.02
469.50	4880.02
469.69	4950.23
469.87	5008.75
470.05	4966.62
470.23	4978.32
470.41	4994.70
470.59	5104.71
470.77	5001.72
470.95	4990.02
471.14	5273.23
471.32	5069.60
471.50	5308.34
471.68	4992.36
471.86	5109.39
472.04	5151.52
472.22	5352.81
472.40	5149.18
472.58	5233.44
472.77	5261.52
472.95	5228.76
473.13	5427.70
473.31	5350.46
473.49	5385.57
473.67	5373.87
473.85	5317.70
474.03	5427.70
474.21	5467.49
474.39	5537.71
474.57	5586.86
474.75	5643.03
474.93	5589.20
475.12	5509.62
475.30	5706.23
475.48	5486.22
475.66	5680.48
475.84	5804.53
476.02	5816.23
476.20	5856.02
476.38	5753.04
476.56	6132.20
476.74	5888.79
476.92	5919.21
477.10	5898.15
477.28	5980.07
477.46	5956.66
477.64	6069.01
477.82	6008.16
478.00	6289.02
478.18	6094.76
478.36	6331.15
478.54	6211.78
478.72	6436.47
478.90	6492.65
479.08	6431.79
479.26	6494.99
479.44	6565.20
479.62	6509.03
479.80	6562.86
479.98	6586.27
480.16	6883.52
480.34	6604.99
480.52	6785.21
480.70	6813.30
480.88	6839.05
481.06	6942.03
481.24	6906.92
481.41	7023.95
481.59	6953.73
481.77	6920.96
481.95	7105.87
482.13	7112.89
482.31	7194.81
482.49	7323.54
482.67	7068.42
482.85	7368.01
483.03	7449.93
483.21	7442.90
483.39	7604.40
483.57	7576.31
483.74	7740.15
483.92	7803.35
484.10	7609.08
484.28	7843.14
484.46	8051.44
484.64	7950.80
484.82	7906.33
485.00	8217.62
485.18	8245.71
485.35	8189.53
485.53	8166.13
485.71	8234.00
485.89	8231.66
486.07	8194.22
486.25	8315.92
486.43	8690.41
486.61	8601.47
486.78	8608.49
486.96	8688.07
487.14	8870.63
487.32	8720.84
487.50	8938.51
487.68	8819.14
487.85	8999.36
488.03	9298.95
488.21	9233.41
488.39	9226.39
488.57	9156.18
488.75	9252.14
488.92	9235.75
489.10	9404.27
489.28	9514.28
489.46	9778.76
489.64	9554.07
489.81	9820.89
489.99	9750.67
490.17	9806.84
490.35	10087.71
490.53	9863.02
490.70	9872.38
490.88	9778.76
491.06	10279.63
491.24	10167.29
491.41	10099.41
491.59	10286.65
491.77	10363.89
491.95	10417.72
492.13	10469.22
492.30	10609.65
492.48	10492.62
492.66	10544.11
492.84	10616.67
493.01	10677.52
493.19	10551.14
493.37	10810.93
493.54	10796.89
493.72	10729.02
493.90	10850.72
494.08	10970.09
494.25	11110.52
494.43	11091.80
494.61	11267.34
494.79	11208.83
494.96	11194.78
495.14	11276.70
495.32	11520.12
495.49	11543.52
495.67	11573.95
495.85	11623.10
496.02	11726.08
496.20	11800.98
496.38	11918.01
496.55	11915.67
496.73	12030.35
496.91	11922.69
497.09	12297.17
497.26	11861.84
497.44	12035.03
497.62	12212.92
497.79	12329.94
497.97	12149.72
498.14	12669.32
498.32	12166.10
498.50	12414.20
498.67	12285.47
498.85	12519.53
499.03	12606.13
499.20	12891.67
499.38	12760.60
499.56	12655.28
499.73	12737.20
499.91	12416.54
500.08	12856.56
500.26	12917.42
500.44	12985.29
500.61	12996.99
500.79	12886.99
500.97	13039.12
501.14	13528.30
501.32	13444.04
501.49	13312.97
501.67	13095.30
501.84	13439.36
502.02	13137.43
502.20	13373.82
502.37	13472.12
502.55	13364.46
502.72	13626.60
502.90	13518.93
503.07	13493.19
503.25	13767.03
503.43	13614.90
503.60	13579.79
503.78	13572.77
503.95	13830.23
504.13	13870.01
504.30	13673.41
504.48	13830.23
504.65	14054.92
504.83	14317.06
505.01	14160.24
505.18	14246.84
505.36	14127.47
505.53	14410.68
505.71	14029.17
505.88	14445.79
506.06	14078.32
506.23	14541.75
506.41	14174.28
506.58	14150.88
506.76	14408.34
506.93	14626.01
507.11	14513.66
507.28	14539.41
507.46	14574.52
507.63	14775.80
507.81	14860.06
507.98	14408.34
508.16	14574.52
508.33	14703.25
508.50	14892.83
508.68	15206.46
508.85	15033.26
509.03	15166.67
509.20	15084.75
509.38	15295.40
509.55	15208.80
509.73	15091.77
509.90	15269.66
510.08	15405.41
510.25	15122.20
510.42	15367.96
510.60	15185.40
510.77	15304.76
510.95	15630.10
511.12	15569.24
511.30	15492.01
511.47	15679.25
511.64	15707.34
511.82	15723.72
511.99	15503.71
512.17	15740.10
512.34	15714.36
512.51	15981.18
512.69	15761.17
512.86	15892.24
513.04	16037.35
513.21	15981.18
513.38	16175.44
513.56	16257.36
513.73	15971.82
513.90	16114.59
514.08	16173.10
514.25	16262.04
514.43	16290.13
514.60	16313.53
514.77	16381.41
514.95	16348.64
515.12	16341.62
515.29	16233.96
515.47	16578.01
515.64	16475.03
515.81	16531.20
515.99	16788.66
516.16	16760.58
516.33	16884.62
516.51	16807.39
516.68	16540.57
516.85	16877.60
517.03	16723.13
517.20	16744.19
517.37	16702.06
517.54	16809.73
517.72	16816.75
517.89	16982.93
518.06	16849.52
518.24	17200.60
518.41	17209.96
518.58	17312.94
518.75	17245.07
518.93	16926.75
519.10	17341.03
519.27	17158.47
519.45	17050.80
519.62	17326.99
519.79	17472.10
519.96	17167.83
520.14	17476.78
520.31	17177.19
520.48	17462.74
520.65	17326.99
520.83	17483.80
521.00	17612.53
521.17	17640.62
521.34	17371.46
521.52	17383.16
521.69	17593.81
521.86	17703.81
522.03	17750.62
522.20	17530.61
522.38	17937.87
522.55	17869.99
522.72	17774.03
522.89	17745.94
523.07	17996.38
523.24	17954.25
523.41	18129.79
523.58	18029.15
523.75	18232.77
523.92	18200.01
524.10	18223.41
524.27	18312.35
524.44	18380.23
524.61	18560.45
524.78	18408.31
524.96	18349.80
525.13	18448.10
525.30	18747.69
525.47	18506.62
525.64	18434.06
525.81	18501.93
525.98	18895.14
526.16	18689.18
526.33	18478.53
526.50	18567.47
526.67	18394.27
526.84	18565.13
527.01	18597.90
527.18	18808.54
527.36	19030.90
527.53	18705.56
527.70	18834.29
527.87	18925.57
528.04	18937.27
528.21	18878.76
528.38	19000.47
528.55	18909.19
528.72	18930.25
528.89	19190.05
529.07	19026.21
529.24	18937.27
529.41	19180.69
529.58	19026.21
529.75	19269.63
529.92	19124.52
530.09	19573.90
530.26	19063.66
530.43	19105.79
530.60	19225.16
530.77	19295.38
530.94	19658.16
531.11	19396.02
531.28	19314.10
531.46	19421.77
531.63	19543.47
531.80	19473.26
531.97	19538.79
532.14	19683.91
532.31	19791.57
532.48	19597.31
532.65	19538.79
532.82	19538.79
532.99	19634.75
533.16	19932.00
533.33	19559.86
533.50	19920.30
533.67	19506.02
533.84	19527.09
534.01	19976.47
534.18	19665.18
534.35	19733.06
534.52	20077.12
534.69	20219.89
534.86	20107.54
535.03	19807.95
535.20	20032.65
535.37	20144.99
535.54	20334.57
535.71	20074.77
535.88	20137.97
536.05	20266.70
536.22	20299.47
536.38	20222.23
536.55	20163.72
536.72	20325.21
536.89	20299.47
537.06	20166.06
537.23	20421.17
537.40	20334.57
537.57	20224.57
537.74	20411.81
537.91	20470.33
538.08	20379.04
538.25	20240.95
538.42	20262.02
538.59	20692.68
538.75	20657.57
538.92	20755.87
539.09	20629.48
539.26	20673.95
539.43	20531.18
539.60	20798.00
539.77	20821.41
539.94	21139.72
540.11	21036.74
540.28	21130.36
540.44	21029.71
540.61	20889.28
540.78	20847.15
540.95	21385.47
541.12	21287.17
541.29	21170.15
541.46	21537.61
541.62	21355.05
541.79	21673.36
541.96	21298.88
542.13	21256.75
542.30	21139.72
542.47	21617.19
542.63	21472.07
542.80	21736.56
542.97	21975.29
543.14	21944.86
543.31	21762.30
543.48	21488.46
543.64	21949.54
543.81	21696.77
543.98	21612.51
544.15	21825.50
544.32	22162.53
544.48	22218.71
544.65	22038.48
544.82	22167.21
544.99	21855.92
545.16	21820.81
545.32	21930.82
545.49	22609.58
545.66	23042.57
545.83	23262.58
546.00	23150.24
546.16	22728.94
546.33	22501.91
546.50	22441.06
546.67	22724.26
546.83	21799.75
547.00	22223.39
547.17	21984.65
547.34	22169.55
547.50	22265.52
547.67	21963.59
547.84	22106.36
548.00	22176.58
548.17	22415.31
548.34	22036.14
548.51	22307.65
548.67	22452.76
548.84	22111.04
549.01	22094.66
549.18	22525.32
549.34	22242.11
549.51	22466.80
549.68	22544.04
549.84	22277.22
550.01	22445.74
550.18	22513.61
550.34	21853.58
550.51	22232.75
550.68	22419.99
550.84	22150.83
551.01	22185.94
551.18	21944.86
551.34	21846.56
551.51	22352.12
551.68	22340.41
551.84	22260.84
552.01	22415.31
552.18	22457.44
552.34	22415.31
552.51	22422.33
552.68	22429.35
552.84	22356.80
553.01	22728.94
553.18	22761.71
553.34	22656.39
553.51	22494.89
553.67	22485.53
553.84	23042.57
554.01	22785.12
554.17	22883.42
554.34	22546.38
554.51	22745.33
554.67	22560.42
554.84	22623.62
555.00	22249.13
555.17	22534.68
555.33	22689.15
555.50	22384.88
555.67	22707.88
555.83	22415.31
556.00	22836.61
556.16	23061.30
556.33	22757.03
556.50	22661.07
556.66	23108.11
556.83	22761.71
556.99	22927.89
557.16	23115.13
557.32	22867.03
557.49	23211.09
557.65	22693.83
557.82	22888.10
557.98	22836.61
558.15	22726.60
558.32	23262.58
558.48	22965.34
558.65	23187.69
558.81	22888.10
558.98	22984.06
559.14	23035.55
559.31	22761.71
559.47	23080.02
559.64	22869.37
559.80	23178.33
559.97	22815.54
560.13	22857.67
560.30	22909.16
560.46	22941.93
560.63	23218.11
560.79	23187.69
560.96	23152.58
561.12	23157.26
561.29	23300.03
561.45	23016.83
561.61	22918.53
561.78	23571.54
561.94	23192.37
562.11	23461.53
562.27	23197.05
562.44	23260.24
562.60	23150.24
562.77	23435.78
562.93	22640.00
563.10	23281.31
563.26	22668.09
563.42	23447.49
563.59	22930.23
563.75	23337.48
563.92	23749.42
564.08	23218.11
564.24	23601.96
564.41	22946.61
564.57	23417.06
564.74	23190.03
564.90	23616.01
565.07	23573.88
565.23	23250.88
565.39	23232.16
565.56	23438.12
565.72	23229.82
565.88	23321.10
566.05	23014.49
566.21	23503.66
566.38	23260.24
566.54	23683.88
566.70	23775.16
566.87	23454.51
567.03	23555.15
567.19	23590.26
567.36	23655.79
567.52	23227.48
567.68	23566.85
567.85	23433.44
568.01	23470.89
568.17	23374.93
568.34	23901.55
568.50	23503.66
568.66	23672.18
568.83	23623.03
568.99	23133.86
569.15	23494.30
569.32	23536.43
569.48	23709.63
569.64	23267.27
569.81	23456.85
569.97	23529.41
570.13	23742.39
570.30	23264.92
570.46	23531.75
570.62	23597.28
570.78	23527.06
570.95	23517.70
571.11	23646.43
571.27	23513.02
571.43	23604.30
571.60	23604.30
571.76	23428.76
571.92	23573.88
572.09	23583.24
572.25	23634.73
572.41	23885.17
572.57	23709.63
572.74	23728.35
572.90	23847.72
573.06	23833.68
573.22	23737.71
573.38	23321.10
573.55	23335.14
573.71	23936.66
573.87	23826.65
574.03	23599.62
574.20	23814.95
574.36	23733.03
574.52	23592.60
574.68	23674.52
574.84	23697.92
575.01	23571.54
575.17	23545.79
575.33	23625.37
575.49	23901.55
575.65	24020.92
575.82	23988.15
575.98	23683.88
576.14	23978.79
576.30	23864.10
576.46	23758.78
576.62	23978.79
576.79	23871.12
576.95	23587.92
577.11	23716.65
577.27	24041.98
577.43	23840.70
577.59	23693.24
577.75	23601.96
577.92	23782.18
578.08	23686.22
578.24	23875.80
578.40	23831.33
578.56	24013.90
578.72	23948.36
578.88	24395.40
579.04	24205.82
579.21	23791.55
579.37	24299.44
579.53	24016.24
579.69	23807.93
579.85	23899.21
580.01	23798.57
580.17	24030.28
580.33	23550.47
580.49	24013.90
580.65	23941.34
580.82	24159.01
580.98	23826.65
581.14	23906.23
581.30	23688.56
581.46	24060.71
581.62	23662.82
581.78	23749.42
581.94	23749.42
582.10	23646.43
582.26	23971.77
582.42	23744.73
582.58	23969.43
582.74	23889.85
582.90	24161.35
583.06	23957.72
583.22	23709.63
583.38	24297.10
583.54	23381.95
583.70	24196.46
583.86	23983.47
584.02	23819.63
584.18	24128.58
584.34	24020.92
584.50	23913.25
584.66	23707.29
584.82	23782.18
584.98	23784.52
585.14	23901.55
585.30	24091.13
585.46	24072.41
585.62	23761.12
585.78	23943.68
585.94	23627.71
586.10	23908.57
586.26	23964.75
586.42	24072.41
586.58	23983.47
586.74	24056.03
586.90	23964.75
587.06	24194.12
587.22	24254.97
587.38	23957.72
587.54	24283.06
587.70	23927.30
587.86	24386.04
588.02	24177.73
588.18	24077.09
588.34	24402.43
588.49	23990.49
588.65	23990.49
588.81	23971.77
588.97	24379.02
589.13	23803.25
589.29	24177.73
589.45	24250.29
589.61	23899.21
589.77	24175.39
589.93	23985.81
590.08	24343.91
590.24	24250.29
590.40	24142.63
590.56	24046.66
590.72	23913.25
590.88	23648.77
