SpectraSuite Data File
++++++++++++++++++++++++++++++++++++
Date: Thu Oct 24 13:21:28 EDT 2013
User: stostad
Dark Spectrum Present: No
Reference Spectrum Present: No
Number of Sampled Component Spectra: 1
Spectrometers: USB2+H05261
Integration Time (usec): 100000 (USB2+H05261)
Spectra Averaged: 1 (USB2+H05261)
Boxcar Smoothing: 0 (USB2+H05261)
Correct for Electrical Dark: No (USB2+H05261)
Strobe/Lamp Enabled: No (USB2+H05261)
Correct for Detector Non-linearity: No (USB2+H05261)
Correct for Stray Light: No (USB2+H05261)
Number of Pixels in Processed Spectrum: 2048
>>>>>Begin Processed Spectral Data<<<<<
365.73	596.84
365.92	596.84
366.12	596.84
366.32	528.96
366.52	491.51
366.72	456.40
366.91	507.90
367.11	458.74
367.31	433.00
367.51	486.83
367.70	461.09
367.90	379.17
368.10	435.34
368.30	444.70
368.49	477.47
368.69	461.09
368.89	500.87
369.09	500.87
369.28	463.43
369.48	489.17
369.68	552.37
369.87	526.62
370.07	486.83
370.27	512.58
370.47	711.52
370.66	917.49
370.86	1006.43
371.06	1025.15
371.25	994.73
371.45	968.98
371.65	1048.56
371.84	1095.37
372.04	1102.39
372.24	1160.91
372.44	1137.50
372.63	1167.93
372.83	1116.44
373.03	1158.57
373.22	1116.44
373.42	1174.95
373.62	1137.50
373.81	1198.35
374.01	1205.38
374.21	1322.40
374.40	1207.72
374.60	1203.04
374.79	1273.25
374.99	1231.12
375.19	1322.40
375.38	1303.68
375.58	1252.19
375.78	1273.25
375.97	1369.21
376.17	1261.55
376.37	1291.98
376.56	1362.19
376.76	1317.72
376.95	1263.89
377.15	1282.61
377.35	1334.11
377.54	1296.66
377.74	1397.30
377.93	1263.89
378.13	1327.08
378.33	1411.34
378.52	1362.19
378.72	1355.17
378.91	1366.87
379.11	1352.83
379.31	1472.20
379.50	1343.47
379.70	1441.77
379.89	1469.86
380.09	1355.17
380.28	1486.24
380.48	1490.92
380.68	1383.26
380.87	1378.58
381.07	1600.93
381.26	1493.26
381.46	1423.05
381.65	1455.81
381.85	1509.65
382.04	1572.84
382.24	1488.58
382.43	1521.35
382.63	1533.05
382.83	1561.14
383.02	1596.25
383.22	1530.71
383.41	1537.73
383.61	1467.52
383.80	1701.57
384.00	1603.27
384.19	1626.67
384.39	1720.29
384.58	1551.78
384.78	1673.48
384.97	1591.56
385.17	1586.88
385.36	1605.61
385.56	1640.72
385.75	1654.76
385.95	1617.31
386.14	1664.12
386.34	1671.14
386.53	1689.87
386.72	1678.16
386.92	1776.47
387.11	1722.63
387.31	1724.97
387.50	1701.57
387.70	1818.60
387.89	1783.49
388.09	1750.72
388.28	1769.44
388.48	1720.29
388.67	1753.06
388.86	1846.68
389.06	1778.81
389.25	1834.98
389.45	1839.66
389.64	1872.43
389.84	1916.90
390.03	1909.88
390.22	1909.88
390.42	1872.43
390.61	1905.20
390.81	1870.09
391.00	1944.99
391.19	1975.41
391.39	1961.37
391.58	1921.58
391.78	1930.94
391.97	1968.39
392.16	1998.82
392.36	2019.88
392.55	2101.80
392.75	2008.18
392.94	2015.20
393.13	1991.80
393.33	2099.46
393.52	2200.10
393.71	2062.01
393.91	2118.18
394.10	2111.16
394.29	1989.46
394.49	2073.71
394.68	2040.95
394.88	2120.53
395.07	2167.34
395.26	2214.15
395.46	2202.44
395.65	2174.36
395.84	2237.55
396.04	2263.30
396.23	2401.39
396.42	2272.66
396.62	2363.94
396.81	2312.45
397.00	2279.68
397.19	2368.62
397.39	2375.64
397.58	2399.05
397.77	2282.02
397.97	2401.39
398.16	2363.94
398.35	2464.58
398.55	2377.98
398.74	2497.35
398.93	2499.69
399.12	2553.52
399.32	2431.82
399.51	2408.41
399.70	2593.31
399.90	2544.16
400.09	2576.93
400.28	2658.85
400.47	2684.59
400.67	2679.91
400.86	2677.57
401.05	2768.85
401.24	2703.32
401.44	2782.90
401.63	2719.70
401.82	2724.38
402.01	2743.11
402.21	2801.62
402.40	2785.24
402.59	2836.73
402.78	2820.35
402.97	2836.73
403.17	2918.65
403.36	2775.88
403.55	2965.46
403.74	2965.46
403.93	3007.59
404.13	2993.55
404.32	3021.63
404.51	3040.36
404.70	3087.17
404.89	3054.40
405.09	3096.53
405.28	3068.44
405.47	3138.66
405.66	3112.91
405.85	3103.55
406.05	3080.14
406.24	3192.49
406.43	3227.60
406.62	3325.90
406.81	3246.32
407.00	3243.98
407.20	3215.90
407.39	3283.77
407.58	3454.63
407.77	3407.82
407.96	3321.22
408.15	3489.74
408.34	3407.82
408.54	3508.46
408.73	3396.12
408.92	3545.91
409.11	3419.52
409.30	3555.27
409.49	3627.83
409.68	3562.30
409.87	3609.11
410.07	3756.56
410.26	3688.68
410.45	3648.90
410.64	3669.96
410.83	3854.86
411.02	3822.09
411.21	3838.48
411.40	3693.37
411.59	4011.68
411.78	3889.97
411.98	3840.82
412.17	3939.12
412.36	4030.40
412.55	4044.45
412.74	4322.97
412.93	4088.92
413.12	4170.83
413.31	4355.74
413.50	4292.54
413.69	4191.90
413.88	4388.50
414.07	4386.16
414.26	4428.29
414.45	4292.54
414.64	4454.04
414.83	4587.45
415.02	4484.47
415.22	4533.62
415.41	4674.05
415.60	4704.48
415.79	4746.61
415.98	4882.36
416.17	4830.87
416.36	4683.41
416.55	4840.23
416.74	4880.02
416.93	4828.53
417.12	4973.64
417.31	4933.85
417.50	5034.49
417.69	5043.85
417.88	4957.25
418.07	5090.67
418.26	5104.71
418.45	5238.12
418.64	5263.86
418.83	5177.26
419.02	5394.93
419.21	5423.02
419.39	5352.81
419.58	5184.29
419.77	5294.29
419.96	5282.59
420.15	5423.02
420.34	5600.90
420.53	5582.18
420.72	5554.09
420.91	5603.24
421.10	5652.39
421.29	5647.71
421.48	5416.00
421.67	5523.66
421.86	5708.57
422.05	5507.28
422.24	5699.20
422.43	5612.60
422.61	5846.66
422.80	5905.17
422.99	5689.84
423.18	5884.11
423.37	5900.49
423.56	5907.51
423.75	5659.42
423.94	5687.50
424.13	5397.28
424.32	5561.11
424.50	5914.53
424.69	6029.22
424.88	5884.11
425.07	5863.04
425.26	5624.31
425.45	5743.67
425.64	5839.64
425.83	5935.60
426.01	5933.26
426.20	5951.98
426.39	6026.88
426.58	5879.43
426.77	5905.17
426.96	5996.45
427.15	6029.22
427.33	6122.84
427.52	6038.58
427.71	6319.45
427.90	6057.31
428.09	6141.57
428.28	6090.07
428.46	6132.20
428.65	6197.74
428.84	6394.34
429.03	6377.96
429.22	6146.25
429.40	6340.51
429.59	6567.54
429.78	6244.55
429.97	6106.46
430.16	6513.71
430.34	6670.53
430.53	6534.78
430.72	6499.67
430.91	6562.86
431.10	6422.43
431.28	6752.45
431.47	6757.13
431.66	6686.91
431.85	6724.36
432.03	6832.02
432.22	6895.22
432.41	6988.84
432.60	6771.17
432.79	6951.39
432.97	7045.01
433.16	7061.40
433.35	6871.81
433.54	6967.77
433.72	7159.70
433.91	6979.48
434.10	7218.21
434.28	7082.46
434.47	7225.23
434.66	7265.02
434.85	7339.92
435.03	7459.29
435.22	7393.75
435.41	7585.68
435.59	7602.06
435.78	7639.51
435.97	7515.46
436.16	7363.33
436.34	7620.78
436.53	7356.30
436.72	7644.19
436.90	7346.94
437.09	7681.64
437.28	7487.37
437.46	7494.40
437.65	7669.94
437.84	7847.82
438.02	7733.13
438.21	7709.72
438.40	7676.96
438.58	8081.87
438.77	8198.90
438.96	8088.89
439.14	8344.01
439.33	8126.34
439.52	8315.92
439.70	8290.18
439.89	8418.91
440.08	8395.50
440.26	8435.29
440.45	8393.16
440.63	8484.44
440.82	8664.66
441.01	8610.83
441.19	8842.54
441.38	8865.95
441.57	8823.82
441.75	8802.75
441.94	9046.17
442.12	9158.52
442.31	9102.34
442.50	9167.88
442.68	9125.75
442.87	9287.25
443.05	9195.96
443.24	9439.38
443.43	9312.99
443.61	9474.49
443.80	9708.54
443.98	9069.58
444.17	9055.53
444.35	9355.12
444.54	9537.68
444.73	9448.74
444.91	9544.70
445.10	9540.02
445.28	9483.85
445.47	9427.68
445.65	9371.50
445.84	9727.27
446.02	9799.82
446.21	9701.52
446.39	9647.69
446.58	9640.67
446.77	9790.46
446.95	9504.92
447.14	9561.09
447.32	9879.40
447.51	9888.76
447.69	9760.03
447.88	9542.36
448.06	9860.68
448.25	9811.53
448.43	9788.12
448.62	9624.28
448.80	9745.99
448.99	9874.72
449.17	9863.02
449.36	9806.84
449.54	10162.61
449.73	10167.29
449.91	10333.47
450.10	10059.62
450.28	10331.12
450.46	10113.45
450.65	10204.74
450.83	10417.72
451.02	10122.82
451.20	10518.37
451.39	10459.85
451.57	10546.45
451.76	10382.62
451.94	10410.70
452.13	10523.05
452.31	10487.94
452.49	10574.54
452.68	10546.45
452.86	10670.50
453.05	10619.01
453.23	10934.98
453.42	10714.97
453.60	10628.37
453.78	10956.05
453.97	10621.35
454.15	10792.21
454.34	10649.44
454.52	10951.37
454.70	11131.59
454.89	10820.30
455.07	11084.78
455.26	11300.11
455.44	11318.83
455.62	11201.80
455.81	11101.16
455.99	11433.52
456.17	11330.53
456.36	11091.80
456.54	11501.39
456.73	11655.87
456.91	11611.40
457.09	11882.90
457.28	11845.45
457.46	11639.48
457.64	12067.80
457.83	12112.27
458.01	11948.43
458.19	12133.34
458.38	11920.35
458.56	12182.49
458.74	12107.59
458.93	12102.91
459.11	12222.28
459.29	12156.74
459.48	12072.48
459.66	12072.48
459.84	12456.33
460.03	12688.04
460.21	12634.21
460.39	12442.29
460.57	12212.92
460.76	12671.66
460.94	12374.41
461.12	12704.43
461.31	12610.81
461.49	12774.64
461.67	12758.26
461.85	12959.55
462.04	12468.03
462.22	13238.07
462.40	13132.75
462.59	13034.44
462.77	13135.09
462.95	13198.28
463.13	13090.62
463.32	13142.11
463.50	13284.88
463.68	13303.60
463.86	13628.94
464.05	13050.83
464.23	13193.60
464.41	13432.33
464.59	13294.24
464.78	13767.03
464.96	13666.39
465.14	13193.60
465.32	13804.48
465.50	13640.64
465.69	13902.78
465.87	13757.67
466.05	13654.69
466.23	13710.86
466.41	13884.06
466.60	14108.75
466.78	13816.18
466.96	14003.43
467.14	14029.17
467.32	13980.02
467.51	14375.57
467.69	13947.25
467.87	14139.18
468.05	14242.16
468.23	13729.58
468.41	14317.06
468.60	14083.00
468.78	14272.59
468.96	14340.46
469.14	14494.94
469.32	14633.03
469.50	14352.16
469.69	14670.48
469.87	14740.69
470.05	14897.51
470.23	14888.15
470.41	14841.34
470.59	14899.85
470.77	14906.87
470.95	15117.52
471.14	15428.81
471.32	14733.67
471.50	15412.43
471.68	15108.16
471.86	15386.68
472.04	15473.28
472.22	15733.08
472.40	15417.11
472.58	15548.18
472.77	15578.61
472.95	16016.29
473.13	16304.17
473.31	15805.64
473.49	16030.33
473.67	15845.43
473.85	16264.38
474.03	16479.71
474.21	16697.38
474.39	16601.42
474.57	16669.30
474.75	16681.00
474.93	16837.81
475.12	17041.44
475.30	16828.45
475.48	17076.55
475.66	16943.14
475.84	17130.38
476.02	17345.71
476.20	17469.76
476.38	17687.43
476.56	18127.45
476.74	18073.62
476.92	17858.29
477.10	17881.69
477.28	17994.04
477.46	18597.90
477.64	18455.12
477.82	19000.47
478.00	19138.56
478.18	18820.25
478.36	18960.68
478.54	19421.77
478.72	19080.05
478.90	19606.67
479.08	19957.75
479.26	20034.99
479.44	20397.77
479.62	20161.37
479.80	20400.11
479.98	20685.65
480.16	21263.77
480.34	20755.87
480.52	20753.53
480.70	20676.29
480.88	20723.10
481.06	20896.30
481.24	21345.69
481.41	21399.52
481.59	21518.89
481.77	22008.06
481.95	22047.85
482.13	22270.20
482.31	22061.89
482.49	22539.36
482.67	22448.08
482.85	23119.81
483.03	23012.15
483.21	23417.06
483.39	23506.00
483.57	23550.47
483.74	23726.01
483.92	23950.70
484.10	23953.04
484.28	24287.74
484.46	24912.66
484.64	25242.68
484.82	24809.68
485.00	24903.30
485.18	25188.85
485.35	26040.80
485.53	25649.93
485.71	25745.89
485.89	26431.67
486.07	26462.10
486.25	26431.67
486.43	26644.66
486.61	27089.36
486.78	26951.27
486.96	27080.00
487.14	27564.49
487.32	27562.15
487.50	28070.04
487.68	28210.48
487.85	28493.68
488.03	28353.25
488.21	28802.63
488.39	29256.70
488.57	29366.70
488.75	29359.68
488.92	29565.65
489.10	29902.68
489.28	29900.34
489.46	30656.34
489.64	30551.01
489.81	30897.41
489.99	31189.98
490.17	31122.10
490.35	31630.00
490.53	31388.92
490.70	31803.20
490.88	31175.94
491.06	32023.21
491.24	32086.40
491.41	32334.50
491.59	32708.99
491.77	33069.43
491.95	33521.15
492.13	33177.09
492.30	33684.99
492.48	33472.00
492.66	33521.15
492.84	34012.66
493.01	34773.34
493.19	33954.15
493.37	34710.14
493.54	34429.28
493.72	35089.31
493.90	35168.89
494.08	35424.01
494.25	36130.85
494.43	36030.21
494.61	36165.96
494.79	36215.11
494.96	36610.66
495.14	36545.12
495.32	36893.86
495.49	36994.51
495.67	37163.03
495.85	37764.54
496.02	37516.45
496.20	37858.17
496.38	37919.02
496.55	38401.17
496.73	39049.50
496.91	38897.36
497.09	39157.16
497.26	39131.42
497.44	39379.51
497.62	38904.38
497.79	39868.69
497.97	39470.79
498.14	40144.87
498.32	40444.46
498.50	40114.44
498.67	40439.78
498.85	40402.33
499.03	41071.72
499.20	40978.10
499.38	40924.27
499.56	40772.13
499.73	41703.67
499.91	41771.54
500.08	41773.88
500.26	41574.94
500.44	41783.24
500.61	42522.85
500.79	42436.25
500.97	42487.74
501.14	42918.40
501.32	42745.20
501.49	42344.97
501.67	43222.67
501.84	43082.24
502.02	43517.58
502.20	43309.27
502.37	43859.30
502.55	43360.76
502.72	43871.00
502.90	43803.13
503.07	44102.71
503.25	44322.72
503.43	44531.03
503.60	44657.42
503.78	44257.19
503.95	44671.46
504.13	44779.13
504.30	44652.74
504.48	44847.00
504.65	45310.43
504.83	45918.97
505.01	45748.11
505.18	45336.18
505.36	45909.61
505.53	45495.33
505.71	45830.03
505.88	46115.58
506.06	46005.57
506.23	46831.78
506.41	45947.06
506.58	46518.15
506.76	46492.40
506.93	46735.82
507.11	46761.56
507.28	47473.09
507.46	47466.06
507.63	47271.80
507.81	47550.32
507.98	47679.05
508.16	47206.26
508.33	47821.83
508.50	47985.66
508.68	48093.33
508.85	48107.37
509.03	48055.88
509.20	47985.66
509.38	48605.91
509.55	48964.01
509.73	49057.63
509.90	48935.92
510.08	48973.37
510.25	49177.00
510.42	49324.45
510.60	49303.38
510.77	49397.01
510.95	49492.97
511.12	49872.14
511.30	49858.09
511.47	50113.21
511.64	49916.61
511.82	50494.72
511.99	49935.33
512.17	50281.73
512.34	50354.29
512.51	50600.04
512.69	50787.28
512.86	50733.45
513.04	50822.39
513.21	50501.74
513.38	50550.89
513.56	51028.36
513.73	50775.58
513.90	51370.08
514.08	50946.44
514.25	51667.33
514.43	51739.88
514.60	51767.97
514.77	51346.67
514.95	51885.00
515.12	51391.14
515.29	51718.82
515.47	52523.96
515.64	52566.09
515.81	51828.82
515.99	52215.01
516.16	52367.15
516.33	52484.17
516.51	52858.66
516.68	52699.50
516.85	52584.82
517.03	52940.58
517.20	52963.98
517.37	52835.25
517.54	52790.78
517.72	52669.08
517.89	53198.04
518.06	53078.67
518.24	53123.14
518.41	52985.05
518.58	53111.44
518.75	53216.76
518.93	53205.06
519.10	53153.57
519.27	53429.75
519.45	53528.05
519.62	53848.71
519.79	53897.86
519.96	53923.60
520.14	53811.26
520.31	53932.96
520.48	53841.68
520.65	54031.27
520.83	54391.71
521.00	54164.68
521.17	54401.07
521.34	54417.46
521.52	54356.60
521.69	54665.55
521.86	54651.51
522.03	54700.66
522.20	54585.97
522.38	55009.61
522.55	55126.64
522.72	55117.28
522.89	55061.10
523.07	54918.33
523.24	54915.99
523.41	55255.37
523.58	55040.04
523.75	55475.38
523.92	55477.72
524.10	55639.22
524.27	55625.17
524.44	55693.05
524.61	55599.43
524.78	55903.70
524.96	55622.83
525.13	55922.42
525.30	56200.94
525.47	56055.83
525.64	55978.59
525.81	56062.85
525.98	56079.24
526.16	56151.79
526.33	55990.30
526.50	56439.68
526.67	56198.60
526.84	56406.91
527.01	56540.32
527.18	56463.08
527.36	56505.21
527.53	56512.23
527.70	56835.23
527.87	56591.81
528.04	56821.19
528.21	56989.70
528.38	56638.62
528.55	56914.81
528.72	56671.39
528.89	56774.37
529.07	56807.14
529.24	56949.92
529.41	56994.39
529.58	57123.11
529.75	57106.73
529.92	57247.16
530.09	57322.06
530.26	57247.16
530.43	57326.74
530.60	56860.97
530.77	57343.12
530.94	57525.69
531.11	57411.00
531.28	57476.54
531.46	57649.74
531.63	57687.18
531.80	57708.25
531.97	57528.03
532.14	57631.01
532.31	57715.27
532.48	57862.72
532.65	57958.69
532.82	57991.45
532.99	57907.19
533.16	57867.40
533.33	58019.54
533.50	58248.91
533.67	57993.79
533.84	57991.45
534.01	58183.38
534.18	58351.90
534.35	58492.33
534.52	58375.30
534.69	58323.81
534.86	58274.66
535.03	58082.73
535.20	58452.54
535.37	58422.11
535.54	58597.65
535.71	58518.07
535.88	58578.93
536.05	58663.19
536.22	58581.27
536.38	58574.25
536.55	58576.59
536.72	58777.87
536.89	58710.00
537.06	58719.36
537.23	59201.51
537.40	59161.72
537.57	59051.72
537.74	59105.55
537.91	59063.42
538.08	58848.09
538.25	59140.66
538.42	59271.73
538.59	59337.26
538.75	58911.28
538.92	59255.34
539.09	59442.59
539.26	59201.51
539.43	59323.22
539.60	59299.81
539.77	59311.52
539.94	59655.57
540.11	59470.67
540.28	59650.89
540.44	59664.94
540.61	59494.08
540.78	59393.43
540.95	59517.48
541.12	59578.34
541.29	59554.93
541.46	59784.30
541.62	60016.02
541.79	59950.48
541.96	59753.88
542.13	59634.51
542.30	59568.97
542.47	59948.14
542.63	59803.03
542.80	59985.59
542.97	60217.30
543.14	60299.22
543.31	60472.42
543.48	60350.71
543.64	60507.53
543.81	60563.70
543.98	60395.18
544.15	60261.77
544.32	60554.34
544.48	60764.99
544.65	60559.02
544.82	60629.24
544.99	60294.54
545.16	60605.83
545.32	60540.30
545.49	60842.23
545.66	60877.33
545.83	60938.19
546.00	60886.70
546.16	60750.94
546.33	60973.30
546.50	60853.93
546.67	60882.02
546.83	60659.66
547.00	60807.12
547.17	60615.19
547.34	60678.39
547.50	61006.06
547.67	61134.79
547.84	61123.09
548.00	61275.22
548.17	61324.38
548.34	61102.03
548.51	61235.44
548.67	61020.11
548.84	61226.07
549.01	61106.71
549.18	61144.16
549.34	61319.70
549.51	61464.81
549.68	61254.16
549.84	61298.63
550.01	61375.87
550.18	61307.99
550.34	61202.67
550.51	61471.83
550.68	61539.71
550.84	61329.06
551.01	61623.96
551.18	61373.53
551.34	61282.25
551.51	61642.69
551.68	61520.98
551.84	61406.30
552.01	61680.14
552.18	61654.39
552.34	61467.15
552.51	61577.15
552.68	61726.95
552.84	61750.35
553.01	61975.05
553.18	61696.52
553.34	61694.18
553.51	61600.56
553.67	61836.95
553.84	62017.17
554.01	61932.92
554.17	62068.67
554.34	61951.64
554.51	61909.51
554.67	62073.35
554.84	61965.68
555.00	61970.36
555.17	61916.53
555.33	62024.20
555.50	61977.39
555.67	61865.04
555.83	62042.92
556.00	62068.67
556.16	62349.53
556.33	62302.72
556.50	62159.95
556.66	62330.81
556.83	62012.49
556.99	62361.23
557.16	62335.49
557.32	62307.40
557.49	62335.49
557.65	62480.60
557.82	62274.63
557.98	62316.76
558.15	62071.01
558.32	62326.13
558.48	62223.14
558.65	62417.41
558.81	62606.99
558.98	62609.33
559.14	62733.38
559.31	62464.22
559.47	62616.35
559.64	62635.08
559.80	62480.60
559.97	62536.77
560.13	62518.05
560.30	62642.10
560.46	62588.27
560.63	62698.27
560.79	62623.37
560.96	62700.61
561.12	62614.01
561.29	62637.42
561.45	62651.46
561.61	62843.38
561.78	62642.10
561.94	62782.53
562.11	62883.17
562.27	62878.49
562.44	62745.08
562.60	62871.47
562.77	62848.06
562.93	62885.51
563.10	62951.05
563.26	62745.08
563.42	63039.99
563.59	62829.34
563.75	62927.64
563.92	63007.22
564.08	63175.74
564.24	63250.64
564.41	62873.81
564.57	62937.01
564.74	62817.64
564.90	63089.14
565.07	63112.55
565.23	63061.05
565.39	63061.05
565.56	63264.68
565.72	63243.62
565.88	63257.66
566.05	62990.84
566.21	62979.14
566.38	63119.57
566.54	63061.05
566.70	63206.17
566.87	63465.97
567.03	63103.18
567.19	63510.44
567.36	63386.39
567.52	63128.93
567.68	63372.34
567.85	62974.45
568.01	63367.66
568.17	63203.83
568.34	63112.55
568.50	63276.38
568.66	63391.07
568.83	63332.56
568.99	63173.40
569.15	63370.00
569.32	63358.30
569.48	63051.69
569.64	63304.47
569.81	63196.80
569.97	63290.43
570.13	63337.24
570.30	63323.19
570.46	63454.26
570.62	63269.36
570.78	63285.75
570.95	63199.15
571.11	63381.71
571.27	63355.96
571.43	63234.25
571.60	63271.70
571.76	63341.92
571.92	63398.09
572.09	63557.25
572.25	63683.64
572.41	63491.71
572.57	63540.86
572.74	63618.10
572.90	63323.19
573.06	63491.71
573.22	63519.80
573.38	63407.45
573.55	63470.65
573.71	63685.98
573.87	63475.33
574.03	63676.61
574.20	63592.36
574.36	63688.32
574.52	63433.20
574.68	63625.12
574.84	63508.10
575.01	63683.64
575.17	63625.12
575.33	63636.83
575.49	63613.42
575.65	63922.37
575.82	63660.23
575.98	63618.10
576.14	63655.55
576.30	63690.66
576.46	63683.64
576.62	63557.25
576.79	63524.48
576.95	63444.90
577.11	63601.72
577.27	63735.13
577.43	63749.17
577.59	63683.64
577.75	63580.65
577.92	63494.05
578.08	63646.19
578.24	63788.96
578.40	63788.96
578.56	63723.43
578.72	63870.88
578.88	64093.23
579.04	63894.28
579.21	63962.16
579.37	63838.11
579.53	63861.52
579.69	63505.76
579.85	63728.11
580.01	63744.49
580.17	63854.50
580.33	63749.17
580.49	63952.80
580.65	63917.69
580.82	64114.29
580.98	63868.54
581.14	63952.80
581.30	63950.46
581.46	63781.94
581.62	63941.10
581.78	63807.68
581.94	63952.80
582.10	63746.83
582.26	63931.73
582.42	63931.73
582.58	63999.61
582.74	64067.48
582.90	63859.18
583.06	63959.82
583.22	63688.32
583.38	63992.59
583.54	63774.92
583.70	63749.17
583.86	63943.44
584.02	63927.05
584.18	64060.46
584.34	63880.24
584.50	64109.61
584.66	63917.69
584.82	63690.66
584.98	63842.79
585.14	64069.82
585.30	63678.96
585.46	63938.75
585.62	63697.68
585.78	64156.42
585.94	63852.15
586.10	63985.57
586.26	63915.35
586.42	64205.58
586.58	64221.96
586.74	63777.26
586.90	63819.39
587.06	63980.88
587.22	64128.34
587.38	63976.20
587.54	64196.21
587.70	64292.18
