SpectraSuite Data File
++++++++++++++++++++++++++++++++++++
Date: Thu Oct 24 13:21:05 EDT 2013
User: stostad
Dark Spectrum Present: No
Reference Spectrum Present: No
Number of Sampled Component Spectra: 1
Spectrometers: USB2+H05261
Integration Time (usec): 100000 (USB2+H05261)
Spectra Averaged: 1 (USB2+H05261)
Boxcar Smoothing: 0 (USB2+H05261)
Correct for Electrical Dark: No (USB2+H05261)
Strobe/Lamp Enabled: No (USB2+H05261)
Correct for Detector Non-linearity: No (USB2+H05261)
Correct for Stray Light: No (USB2+H05261)
Number of Pixels in Processed Spectrum: 2048
>>>>>Begin Processed Spectral Data<<<<<
365.73	587.47
365.92	587.47
366.12	587.47
366.32	507.90
366.52	496.19
366.72	503.22
366.91	418.96
367.11	451.72
367.31	447.04
367.51	428.32
367.70	468.11
367.90	456.40
368.10	477.47
368.30	447.04
368.49	449.38
368.69	458.74
368.89	512.58
369.09	491.51
369.28	482.15
369.48	468.11
369.68	482.15
369.87	465.77
370.07	482.15
370.27	573.43
370.47	664.71
370.66	695.14
370.86	655.35
371.06	739.61
371.25	746.63
371.45	763.01
371.65	760.67
371.84	720.88
372.04	702.16
372.24	746.63
372.44	706.84
372.63	844.93
372.83	748.97
373.03	814.51
373.22	739.61
373.42	793.44
373.62	793.44
373.81	779.40
374.01	884.72
374.21	809.83
374.40	767.70
374.60	854.30
374.79	774.72
374.99	837.91
375.19	760.67
375.38	833.23
375.58	814.51
375.78	823.87
375.97	786.42
376.17	805.14
376.37	821.53
376.56	844.93
376.76	821.53
376.95	795.78
377.15	870.68
377.35	863.66
377.54	812.17
377.74	924.51
377.93	891.74
378.13	807.48
378.33	870.68
378.52	760.67
378.72	849.61
378.91	901.11
379.11	851.96
379.31	880.04
379.50	786.42
379.70	877.70
379.89	894.08
380.09	910.47
380.28	760.67
380.48	940.90
380.68	828.55
380.87	795.78
381.07	863.66
381.26	837.91
381.46	952.60
381.65	929.19
381.85	809.83
382.04	882.38
382.24	807.48
382.43	828.55
382.63	826.21
382.83	882.38
383.02	903.45
383.22	882.38
383.41	821.53
383.61	868.34
383.80	800.46
384.00	835.57
384.19	882.38
384.39	901.11
384.58	842.59
384.78	896.43
384.97	919.83
385.17	821.53
385.36	866.00
385.56	854.30
385.75	994.73
385.95	947.92
386.14	896.43
386.34	929.19
386.53	875.36
386.72	891.74
386.92	950.26
387.11	992.39
387.31	971.32
387.50	891.74
387.70	884.72
387.89	943.24
388.09	922.17
388.28	1036.86
388.48	994.73
388.67	959.62
388.86	922.17
389.06	978.34
389.25	973.66
389.45	950.26
389.64	1020.47
389.84	976.00
390.03	1008.77
390.22	1022.81
390.42	1004.09
390.61	1055.58
390.81	1020.47
391.00	1032.18
391.19	1022.81
391.39	961.96
391.58	1025.15
391.78	898.77
391.97	954.94
392.16	917.49
392.36	1001.75
392.55	1004.09
392.75	1027.50
392.94	987.71
393.13	1032.18
393.33	1107.07
393.52	1076.65
393.71	1011.11
393.91	1029.84
394.10	1088.35
394.29	1067.28
394.49	954.94
394.68	990.05
394.88	1137.50
395.07	1114.10
395.26	1097.71
395.46	1153.88
395.65	1067.28
395.84	1100.05
396.04	1130.48
396.23	1090.69
396.42	1086.01
396.62	1221.76
396.81	1128.14
397.00	1174.95
397.19	1198.35
397.39	1123.46
397.58	1121.12
397.77	1123.46
397.97	1111.75
398.16	1205.38
398.35	1231.12
398.55	1219.42
398.74	1172.61
398.93	1231.12
399.12	1188.99
399.32	1174.95
399.51	1249.85
399.70	1174.95
399.90	1177.29
400.09	1214.74
400.28	1287.29
400.47	1219.42
400.67	1226.44
400.86	1259.21
401.05	1242.82
401.24	1291.98
401.44	1266.23
401.63	1277.93
401.82	1214.74
402.01	1193.67
402.21	1210.06
402.40	1282.61
402.59	1188.99
402.78	1291.98
402.97	1343.47
403.17	1348.15
403.36	1296.66
403.55	1336.45
403.74	1345.81
403.93	1413.68
404.13	1399.64
404.32	1348.15
404.51	1394.96
404.70	1458.15
404.89	1341.13
405.09	1399.64
405.28	1460.49
405.47	1306.02
405.66	1345.81
405.85	1427.73
406.05	1451.13
406.24	1371.55
406.43	1397.30
406.62	1441.77
406.81	1483.90
407.00	1488.58
407.20	1528.37
407.39	1448.79
407.58	1481.56
407.77	1554.12
407.96	1497.94
408.15	1488.58
408.34	1549.43
408.54	1467.52
408.73	1458.15
408.92	1610.29
409.11	1614.97
409.30	1533.05
409.49	1544.75
409.68	1502.62
409.87	1577.52
410.07	1554.12
410.26	1584.54
410.45	1568.16
410.64	1633.69
410.83	1598.59
411.02	1572.84
411.21	1675.82
411.40	1645.40
411.59	1746.04
411.78	1659.44
411.98	1624.33
412.17	1739.02
412.36	1769.44
412.55	1715.61
412.74	1727.32
412.93	1727.32
413.12	1692.21
413.31	1710.93
413.50	1732.00
413.69	1692.21
413.88	1736.68
414.07	1813.92
414.26	1837.32
414.45	1785.83
414.64	1746.04
414.83	1853.70
415.02	1891.15
415.22	1909.88
415.41	1874.77
415.60	1851.36
415.79	1872.43
415.98	1888.81
416.17	1874.77
416.36	1900.52
416.55	2015.20
416.74	1982.43
416.93	1996.48
417.12	1980.09
417.31	1926.26
417.50	1970.73
417.69	2113.50
417.88	2052.65
418.07	2001.16
418.26	2076.06
418.45	2008.18
418.64	2019.88
418.83	2045.63
419.02	2228.19
419.21	2120.53
419.39	2106.48
419.58	2094.78
419.77	2172.02
419.96	2186.06
420.15	2260.96
420.34	2197.76
420.53	2223.51
420.72	2216.49
420.91	2129.89
421.10	2104.14
421.29	2148.61
421.48	2195.42
421.67	2202.44
421.86	2260.96
422.05	2223.51
422.24	2134.57
422.43	2284.36
422.61	2303.09
422.80	2303.09
422.99	2263.30
423.18	2305.43
423.37	2368.62
423.56	2387.35
423.75	2333.51
423.94	2275.00
424.13	2197.76
424.32	2181.38
424.50	2202.44
424.69	2312.45
424.88	2246.91
425.07	2275.00
425.26	2314.79
425.45	2340.54
425.64	2265.64
425.83	2324.15
426.01	2340.54
426.20	2265.64
426.39	2298.41
426.58	2272.66
426.77	2277.34
426.96	2429.48
427.15	2326.49
427.33	2235.21
427.52	2366.28
427.71	2438.84
427.90	2406.07
428.09	2401.39
428.28	2523.10
428.46	2466.92
428.65	2441.18
428.84	2441.18
429.03	2459.90
429.22	2499.69
429.40	2462.24
429.59	2427.14
429.78	2385.01
429.97	2476.29
430.16	2506.71
430.34	2478.63
430.53	2555.86
430.72	2637.78
430.91	2429.48
431.10	2506.71
431.28	2499.69
431.47	2567.57
431.66	2518.42
431.85	2614.38
432.03	2630.76
432.22	2661.19
432.41	2656.51
432.60	2647.15
432.79	2628.42
432.97	2670.55
433.16	2743.11
433.35	2637.78
433.54	2649.49
433.72	2726.72
433.91	2684.59
434.10	2775.88
434.28	2700.98
434.47	2745.45
434.66	2789.92
434.85	2843.75
435.03	2892.90
435.22	3035.67
435.41	3246.32
435.59	3038.02
435.78	2986.52
435.97	3019.29
436.16	2855.45
436.34	2841.41
436.53	2724.38
436.72	2951.42
436.90	2794.60
437.09	2820.35
437.28	2888.22
437.46	2747.79
437.65	2951.42
437.84	2930.35
438.02	2846.09
438.21	2909.29
438.40	2970.14
438.58	3035.67
438.77	3136.32
438.96	3119.93
439.14	3012.27
439.33	3026.31
439.52	3164.40
439.70	3133.98
439.89	3042.70
440.08	3136.32
440.26	3110.57
440.45	3056.74
440.63	3105.89
440.82	3300.16
441.01	3159.72
441.19	3087.17
441.38	3234.62
441.57	3229.94
441.75	3199.51
441.94	3281.43
442.12	3405.48
442.31	3330.58
442.50	3410.16
442.68	3290.79
442.87	3251.00
443.05	3349.31
443.24	3428.88
443.43	3398.46
443.61	3426.54
443.80	3449.95
443.98	3309.52
444.17	3246.32
444.35	3452.29
444.54	3473.36
444.73	3400.80
444.91	3396.12
445.10	3461.65
445.28	3524.85
445.47	3426.54
445.65	3506.12
445.84	3485.06
446.02	3452.29
446.21	3510.80
446.39	3351.65
446.58	3454.63
446.77	3541.23
446.95	3442.93
447.14	3527.19
447.32	3461.65
447.51	3447.61
447.69	3541.23
447.88	3524.85
448.06	3400.80
448.25	3522.51
448.43	3522.51
448.62	3538.89
448.80	3482.72
448.99	3503.78
449.17	3531.87
449.36	3473.36
449.54	3574.00
449.73	3648.90
449.91	3686.34
450.10	3585.70
450.28	3786.99
450.46	3779.97
450.65	3555.27
450.83	3740.18
451.02	3648.90
451.20	3723.79
451.39	3737.84
451.57	3784.65
451.76	3822.09
451.94	3747.20
452.13	3791.67
452.31	3854.86
452.49	3763.58
452.68	3672.30
452.86	3920.40
453.05	3782.31
453.23	3756.56
453.42	3728.47
453.60	3765.92
453.78	3875.93
453.97	3763.58
454.15	3920.40
454.34	3716.77
454.52	3831.46
454.70	3836.14
454.89	4028.06
455.07	3969.55
455.26	3894.65
455.44	3964.87
455.62	3922.74
455.81	3955.51
455.99	4044.45
456.17	4011.68
456.36	4091.26
456.54	4088.92
456.73	4100.62
456.91	4051.47
457.09	4119.34
457.28	4278.50
457.46	4007.00
457.64	4243.39
457.83	4166.15
458.01	4133.39
458.19	4346.37
458.38	4231.69
458.56	4189.56
458.74	4297.22
458.93	4280.84
459.11	4227.01
459.29	4198.92
459.48	4231.69
459.66	4341.69
459.84	4299.56
460.03	4285.52
460.21	4306.59
460.39	4390.84
460.57	4365.10
460.76	4322.97
460.94	4372.12
461.12	4447.02
461.31	4449.36
461.49	4390.84
461.67	4484.47
461.85	4491.49
462.04	4381.48
462.22	4798.10
462.40	4575.75
462.59	4561.70
462.77	4383.82
462.95	4594.47
463.13	4561.70
463.32	4645.96
463.50	4636.60
463.68	4514.89
463.86	4538.30
464.05	4461.06
464.23	4568.73
464.41	4627.24
464.59	4423.61
464.78	4542.98
464.96	4779.37
465.14	4493.83
465.32	4720.86
465.50	4683.41
465.69	4739.58
465.87	4720.86
466.05	4716.18
466.23	4734.90
466.41	4753.63
466.60	4751.29
466.78	4692.77
466.96	4709.16
467.14	4809.80
467.32	4847.25
467.51	4889.38
467.69	4870.65
467.87	4795.76
468.05	4959.60
468.23	4791.08
468.41	4856.61
468.60	4837.89
468.78	4741.93
468.96	4875.34
469.14	4938.53
469.32	4929.17
469.50	4758.31
469.69	4985.34
469.87	4889.38
470.05	4985.34
470.23	5088.32
470.41	5015.77
470.59	5111.73
470.77	5144.50
470.95	5013.43
471.14	5139.82
471.32	5069.60
471.50	5296.63
471.68	5268.55
471.86	5093.01
472.04	5247.48
472.22	5249.82
472.40	5331.74
472.58	5198.33
472.77	5383.23
472.95	5275.57
473.13	5507.28
473.31	5441.75
473.49	5418.34
473.67	5287.27
473.85	5366.85
474.03	5650.05
474.21	5504.94
474.39	5483.88
474.57	5586.86
474.75	5610.26
474.93	5488.56
475.12	5500.26
475.30	5668.78
475.48	5659.42
475.66	5731.97
475.84	5706.23
476.02	5724.95
476.20	5818.57
476.38	5893.47
476.56	5942.62
476.74	5930.92
476.92	5937.94
477.10	5816.23
477.28	6146.25
477.46	5987.09
477.64	6083.05
477.82	6118.16
478.00	6209.44
478.18	6012.84
478.36	6225.82
478.54	6176.67
478.72	6375.62
478.90	6443.49
479.08	6539.46
479.26	6761.81
479.44	6684.57
479.62	6595.63
479.80	6722.02
479.98	6935.01
480.16	7019.27
480.34	6766.49
480.52	6820.32
480.70	6607.33
480.88	6747.76
481.06	6850.75
481.24	6782.87
481.41	6984.16
481.59	7248.64
481.77	7061.40
481.95	7199.49
482.13	7218.21
482.31	7246.30
482.49	7363.33
482.67	7447.58
482.85	7365.67
483.03	7489.71
483.21	7644.19
483.39	7627.81
483.57	7569.29
483.74	7599.72
483.92	7723.77
484.10	7667.60
484.28	7784.62
484.46	7974.21
484.64	8072.51
484.82	8025.70
485.00	8077.19
485.18	8051.44
485.35	8456.36
485.53	8238.69
485.71	8421.25
485.89	8397.84
486.07	8315.92
486.25	8439.97
486.43	8549.98
486.61	8592.11
486.78	8629.56
486.96	8765.31
487.14	8730.20
487.32	8809.78
487.50	9130.43
487.68	8919.78
487.85	8936.17
488.03	9181.92
488.21	9135.11
488.39	9261.50
488.57	9376.19
488.75	9518.96
488.92	9387.89
489.10	9586.83
489.28	9654.71
489.46	9682.80
489.64	9640.67
489.81	9792.80
489.99	9792.80
490.17	9762.37
490.35	10050.26
490.53	10057.28
490.70	10061.96
490.88	9944.94
491.06	10153.24
491.24	10080.69
491.41	10160.27
491.59	10420.06
491.77	10363.89
491.95	10345.17
492.13	10480.92
492.30	10377.94
492.48	10626.03
492.66	10684.55
492.84	10611.99
493.01	10794.55
493.19	10668.16
493.37	10817.96
493.54	11084.78
493.72	10972.43
493.90	10888.17
494.08	10855.40
494.25	11269.68
494.43	11274.36
494.61	11094.14
494.79	11346.92
494.96	11080.10
495.14	11470.97
495.32	11552.88
495.49	11599.70
495.67	11573.95
495.85	11765.87
496.02	11765.87
496.20	11747.15
496.38	11747.15
496.55	11850.13
496.73	12121.63
496.91	12119.29
497.09	12072.48
497.26	11999.93
497.44	12182.49
497.62	11995.25
497.79	12365.05
497.97	12145.04
498.14	12437.61
498.32	12273.77
498.50	12545.27
498.67	12573.36
498.85	12844.86
499.03	12720.81
499.20	12676.34
499.38	12739.54
499.56	12894.01
499.73	12786.35
499.91	12732.51
500.08	13156.15
500.26	13137.43
500.44	12992.31
500.61	12753.58
500.79	12903.37
500.97	13226.37
501.14	13322.33
501.32	13596.17
501.49	13289.56
501.67	13408.93
501.84	13359.78
502.02	13752.99
502.20	13731.92
502.37	13635.96
502.55	13568.09
502.72	13579.79
502.90	13575.11
503.07	13596.17
503.25	13806.82
503.43	13561.06
503.60	13738.94
503.78	13647.66
503.95	13579.79
504.13	13973.00
504.30	14010.45
504.48	13811.50
504.65	14022.15
504.83	14221.10
505.01	14094.71
505.18	14319.40
505.36	14242.16
505.53	14185.99
505.71	14380.25
505.88	14204.71
506.06	14518.34
506.23	14780.48
506.41	14693.88
506.58	14523.02
506.76	14284.29
506.93	14864.74
507.11	14677.50
507.28	14668.14
507.46	14682.18
507.63	14771.12
507.81	15082.41
507.98	14686.86
508.16	14581.54
508.33	14761.76
508.50	14853.04
508.68	15063.69
508.85	15307.10
509.03	15122.20
509.20	15019.22
509.38	15150.29
509.55	15183.06
509.73	14909.21
509.90	15426.47
510.08	15351.57
510.25	15461.58
510.42	15447.54
510.60	15367.96
510.77	15304.76
510.95	15611.37
511.12	15604.35
511.30	15557.54
511.47	15925.00
511.64	15754.15
511.82	15875.85
511.99	15772.87
512.17	15864.15
512.34	16114.59
512.51	16182.46
512.69	16435.24
512.86	15976.50
513.04	16074.80
513.21	16027.99
513.38	15983.52
513.56	16283.11
513.73	16238.64
513.90	16470.35
514.08	16252.68
514.25	16439.92
514.43	16622.48
514.60	16161.40
514.77	16636.53
514.95	16697.38
515.12	16524.18
515.29	16547.59
515.47	16629.51
515.64	16734.83
515.81	16762.92
515.99	16681.00
516.16	16748.87
516.33	16933.78
516.51	17146.76
516.68	16821.43
516.85	16898.67
517.03	17104.64
517.20	16837.81
517.37	16996.97
517.54	17207.62
517.72	16989.95
517.89	17125.70
518.06	17380.82
518.24	16901.01
518.41	17198.26
518.58	17003.99
518.75	17060.16
518.93	17121.02
519.10	17322.30
519.27	17341.03
519.45	17322.30
519.62	17652.32
519.79	17537.63
519.96	17212.30
520.14	17708.49
520.31	17619.55
520.48	17687.43
520.65	17909.78
520.83	17837.22
521.00	17816.16
521.17	17940.21
521.34	17823.18
521.52	18015.10
521.69	17851.27
521.86	17879.35
522.03	18162.56
522.20	18026.81
522.38	18115.75
522.55	17926.16
522.72	18071.28
522.89	18019.78
523.07	17820.84
523.24	18239.79
523.41	18157.88
523.58	17902.76
523.75	18452.78
523.92	18368.52
524.10	18520.66
524.27	18293.63
524.44	18515.98
524.61	18469.17
524.78	18485.55
524.96	18267.88
525.13	18721.95
525.30	18499.59
525.47	18752.37
525.64	18677.48
525.81	18614.28
525.98	18703.22
526.16	18656.41
526.33	18768.76
526.50	18981.74
526.67	18890.46
526.84	19161.97
527.01	18724.29
527.18	18995.79
527.36	18700.88
527.53	18888.12
527.70	19194.73
527.87	19096.43
528.04	19016.85
528.21	18967.70
528.38	18841.31
528.55	19400.70
528.72	18878.76
528.89	19459.21
529.07	19276.65
529.24	19061.32
529.41	19288.35
529.58	19300.06
529.75	19318.78
529.92	19627.73
530.09	19304.74
530.26	19365.59
530.43	19475.60
530.60	19124.52
530.77	19573.90
530.94	19730.72
531.11	19517.73
531.28	19868.81
531.46	19782.21
531.63	19824.34
531.80	19733.06
531.97	19702.63
532.14	19690.93
532.31	19868.81
532.48	19618.37
532.65	19903.92
532.82	19992.86
532.99	19782.21
533.16	19819.66
533.33	20070.09
533.50	20065.41
533.67	20020.94
533.84	19651.14
534.01	20086.48
534.18	20088.82
534.35	20318.19
534.52	20215.21
534.69	20168.40
534.86	20006.90
535.03	20023.28
535.20	20156.69
535.37	20215.21
535.54	20086.48
535.71	20702.04
535.88	20327.55
536.05	20699.70
536.22	20386.07
536.38	20641.18
536.55	20465.64
536.72	20753.53
536.89	20807.36
537.06	20538.20
537.23	20795.66
537.40	20318.19
537.57	20732.47
537.74	20507.77
537.91	20683.31
538.08	20809.70
538.25	20435.22
538.42	20819.07
538.59	21170.15
538.75	20769.91
538.92	20531.18
539.09	20917.37
539.26	20893.96
539.43	20912.69
539.60	21006.31
539.77	20898.64
539.94	21214.62
540.11	20882.26
540.28	21041.42
540.44	21095.25
540.61	21048.44
540.78	21287.17
540.95	21610.17
541.12	21104.61
541.29	21766.98
541.46	21741.24
541.62	21633.57
541.79	21893.37
541.96	21462.71
542.13	21546.97
542.30	21891.03
542.47	21884.01
542.63	21841.88
542.80	21799.75
542.97	22008.06
543.14	22185.94
543.31	22141.47
543.48	21991.67
543.64	22251.47
543.81	22026.78
543.98	22050.19
544.15	21898.05
544.32	22139.13
544.48	22183.60
544.65	22040.82
544.82	22239.77
544.99	22068.91
545.16	22270.20
545.32	22181.26
545.49	22572.13
545.66	23246.20
545.83	23075.34
546.00	22948.95
546.16	22810.86
546.33	22396.59
546.50	22279.56
546.67	22670.43
546.83	22092.32
547.00	22256.15
547.17	22143.81
547.34	22078.27
547.50	22314.67
547.67	22562.76
547.84	22471.48
548.00	22677.45
548.17	22583.83
548.34	22478.50
548.51	22478.50
548.67	22782.77
548.84	22134.45
549.01	22293.60
549.18	22581.49
549.34	22443.40
549.51	22448.08
549.68	22611.92
549.84	22562.76
550.01	22457.44
550.18	22464.46
550.34	22195.30
550.51	22494.89
550.68	22497.23
550.84	22611.92
551.01	22607.23
551.18	22473.82
551.34	22338.07
551.51	22696.17
551.68	22265.52
551.84	22211.68
552.01	22546.38
552.18	22733.62
552.34	22513.61
552.51	22953.63
552.68	22579.15
552.84	22951.29
553.01	22890.44
553.18	22794.48
553.34	22600.21
553.51	22574.47
553.67	22647.02
553.84	22623.62
554.01	22895.12
554.17	22747.67
554.34	23098.75
554.51	22654.05
554.67	22937.25
554.84	22703.20
555.00	22984.06
555.17	22588.51
555.33	22855.33
555.50	22782.77
555.67	22654.05
555.83	23002.78
556.00	23435.78
556.16	23241.52
556.33	22972.36
556.50	23042.57
556.66	23021.51
556.83	22850.65
556.99	23379.61
557.16	23040.23
557.32	23192.37
557.49	23564.51
557.65	22766.39
557.82	22932.57
557.98	22963.00
558.15	22951.29
558.32	23433.44
558.48	23065.98
558.65	23246.20
558.81	23332.80
558.98	23370.25
559.14	23023.85
559.31	23335.14
559.47	23445.15
559.64	23234.50
559.80	23117.47
559.97	23222.80
560.13	23131.51
560.30	23080.02
560.46	23101.09
560.63	23297.69
560.79	23388.97
560.96	23515.36
561.12	23325.78
561.29	23564.51
561.45	23482.59
561.61	23454.51
561.78	23517.70
561.94	23754.10
562.11	23630.05
562.27	23655.79
562.44	23545.79
562.60	23718.99
562.77	23358.55
562.93	23431.10
563.10	23627.71
563.26	23271.95
563.42	23377.27
563.59	23604.30
563.75	23527.06
563.92	23695.58
564.08	23644.09
564.24	23524.72
564.41	23711.97
564.57	23866.44
564.74	23592.60
564.90	23550.47
565.07	23824.31
565.23	23690.90
565.39	23372.59
565.56	23468.55
565.72	23428.76
565.88	23758.78
566.05	23506.00
566.21	23814.95
566.38	23531.75
566.54	23789.20
566.70	24102.84
566.87	23969.43
567.03	23892.19
567.19	24304.12
567.36	23810.27
567.52	23665.16
567.68	24088.79
567.85	23812.61
568.01	23585.58
568.17	23658.14
568.34	23763.46
568.50	23662.82
568.66	23573.88
568.83	23728.35
568.99	23800.91
569.15	23658.14
569.32	23592.60
569.48	23728.35
569.64	23697.92
569.81	23541.11
569.97	23709.63
570.13	23917.93
570.30	23482.59
570.46	23976.45
570.62	23655.79
570.78	23372.59
570.95	23281.31
571.11	24084.11
571.27	23768.14
571.43	23843.04
571.60	23758.78
571.76	23688.56
571.92	23648.77
572.09	23836.02
572.25	24187.10
572.41	24041.98
572.57	23974.11
572.74	24278.38
572.90	23964.75
573.06	23910.91
573.22	23833.68
573.38	23931.98
573.55	23946.02
573.71	24159.01
573.87	23859.42
574.03	23934.32
574.20	24297.10
574.36	23889.85
574.52	23976.45
574.68	23873.46
574.84	23969.43
575.01	24266.67
575.17	24044.32
575.33	24074.75
575.49	23978.79
575.65	23960.06
575.82	23927.30
575.98	24254.97
576.14	23960.06
576.30	24233.91
576.46	24313.48
576.62	24341.57
576.79	24067.73
576.95	23915.59
577.11	24552.22
577.27	24353.27
577.43	24467.96
577.59	23922.62
577.75	23751.76
577.92	23922.62
578.08	24203.48
578.24	23742.39
578.40	24215.18
578.56	24109.86
578.72	24318.17
578.88	24421.15
579.04	24727.76
579.21	24233.91
579.37	23796.23
579.53	24196.46
579.69	24140.29
579.85	24568.60
580.01	24194.12
580.17	24130.92
580.33	24201.14
580.49	23892.19
580.65	24278.38
580.82	24355.61
580.98	24247.95
581.14	24037.30
581.30	24404.77
581.46	24261.99
581.62	24203.48
581.78	23828.99
581.94	24166.03
582.10	23850.06
582.26	24334.55
582.42	24528.81
582.58	24088.79
582.74	24252.63
582.90	24070.07
583.06	24245.61
583.22	24144.97
583.38	24180.07
583.54	24503.07
583.70	24299.44
583.86	24133.26
584.02	24484.34
584.18	24301.78
584.34	24215.18
584.50	24372.00
584.66	23864.10
584.82	23875.80
584.98	24301.78
585.14	24264.33
585.30	24362.64
585.46	24418.81
585.62	23950.70
585.78	24254.97
585.94	24201.14
586.10	24243.27
586.26	24372.00
586.42	24561.58
586.58	24259.65
586.74	24479.66
586.90	23943.68
587.06	24292.42
587.22	24205.82
587.38	24116.88
587.54	24435.19
587.70	24727.76
587.86	24664.57
588.02	24161.35
588.18	24299.44
588.34	24467.96
588.49	24367.32
588.65	24393.06
588.81	24100.50
588.97	24313.48
589.13	24264.33
589.29	24580.31
589.45	24353.27
589.61	24582.65
589.77	24364.98
589.93	24683.29
590.08	24362.64
590.24	24584.99
590.40	24606.05
590.56	24372.00
590.72	24395.40
590.88	24250.29
