SpectraSuite Data File
++++++++++++++++++++++++++++++++++++
Date: Thu Oct 24 13:21:28 EDT 2013
User: stostad
Dark Spectrum Present: No
Reference Spectrum Present: No
Number of Sampled Component Spectra: 1
Spectrometers: USB2+H05261
Integration Time (usec): 100000 (USB2+H05261)
Spectra Averaged: 1 (USB2+H05261)
Boxcar Smoothing: 0 (USB2+H05261)
Correct for Electrical Dark: No (USB2+H05261)
Strobe/Lamp Enabled: No (USB2+H05261)
Correct for Detector Non-linearity: No (USB2+H05261)
Correct for Stray Light: No (USB2+H05261)
Number of Pixels in Processed Spectrum: 2048
>>>>>Begin Processed Spectral Data<<<<<
365.73	578.11
365.92	578.11
366.12	578.11
366.32	538.32
366.52	479.81
366.72	491.51
366.91	435.34
367.11	433.00
367.31	449.38
367.51	397.89
367.70	456.40
367.90	470.45
368.10	451.72
368.30	451.72
368.49	470.45
368.69	461.09
368.89	496.19
369.09	498.53
369.28	404.91
369.48	547.69
369.68	493.85
369.87	554.71
370.07	486.83
370.27	500.87
370.47	660.03
370.66	945.58
370.86	931.53
371.06	1048.56
371.25	1032.18
371.45	1025.15
371.65	959.62
371.84	1090.69
372.04	1102.39
372.24	1088.35
372.44	1020.47
372.63	1076.65
372.83	1097.71
373.03	1090.69
373.22	1074.31
373.42	1081.33
373.62	1203.04
373.81	1114.10
374.01	1247.51
374.21	1170.27
374.40	1188.99
374.60	1149.20
374.79	1224.10
374.99	1146.86
375.19	1277.93
375.38	1254.53
375.58	1238.14
375.78	1184.31
375.97	1231.12
376.17	1256.87
376.37	1196.01
376.56	1263.89
376.76	1212.40
376.95	1219.42
377.15	1296.66
377.35	1259.21
377.54	1357.51
377.74	1205.38
377.93	1366.87
378.13	1306.02
378.33	1291.98
378.52	1322.40
378.72	1263.89
378.91	1376.24
379.11	1289.64
379.31	1371.55
379.50	1378.58
379.70	1387.94
379.89	1331.76
380.09	1383.26
380.28	1373.89
380.48	1352.83
380.68	1383.26
380.87	1338.79
381.07	1409.00
381.26	1401.98
381.46	1397.30
381.65	1481.56
381.85	1441.77
382.04	1432.41
382.24	1523.69
382.43	1453.47
382.63	1434.75
382.83	1511.99
383.02	1537.73
383.22	1565.82
383.41	1472.20
383.61	1458.15
383.80	1469.86
384.00	1502.62
384.19	1570.50
384.39	1474.54
384.58	1523.69
384.78	1631.35
384.97	1561.14
385.17	1558.80
385.36	1661.78
385.56	1584.54
385.75	1563.48
385.95	1643.06
386.14	1589.22
386.34	1547.09
386.53	1586.88
386.72	1687.53
386.92	1652.42
387.11	1668.80
387.31	1732.00
387.50	1678.16
387.70	1689.87
387.89	1797.53
388.09	1741.36
388.28	1633.69
388.48	1668.80
388.67	1654.76
388.86	1830.30
389.06	1729.66
389.25	1823.28
389.45	1682.85
389.64	1757.74
389.84	1781.15
390.03	1844.34
390.22	1771.79
390.42	1778.81
390.61	1809.23
390.81	1799.87
391.00	1874.77
391.19	1802.21
391.39	1867.75
391.58	1858.39
391.78	1987.11
391.97	1919.24
392.16	1895.83
392.36	1947.33
392.55	1949.67
392.75	1954.35
392.94	2012.86
393.13	2113.50
393.33	1935.62
393.52	2076.06
393.71	2043.29
393.91	2036.27
394.10	2008.18
394.29	2141.59
394.49	2047.97
394.68	2169.68
394.88	2069.03
395.07	2052.65
395.26	2120.53
395.46	2111.16
395.65	2090.10
395.84	2263.30
396.04	2132.23
396.23	2188.40
396.42	2230.53
396.62	2176.70
396.81	2258.62
397.00	2197.76
397.19	2282.02
397.39	2284.36
397.58	2242.23
397.77	2253.94
397.97	2356.92
398.16	2293.72
398.35	2347.56
398.55	2396.71
398.74	2424.80
398.93	2410.75
399.12	2413.09
399.32	2300.75
399.51	2427.14
399.70	2448.20
399.90	2541.82
400.09	2429.48
400.28	2450.54
400.47	2569.91
400.67	2445.86
400.86	2504.37
401.05	2485.65
401.24	2518.42
401.44	2612.04
401.63	2642.46
401.82	2719.70
402.01	2597.99
402.21	2698.64
402.40	2644.81
402.59	2630.76
402.78	2789.92
402.97	2640.12
403.17	2698.64
403.36	2801.62
403.55	2766.51
403.74	2878.86
403.93	2871.84
404.13	2754.81
404.32	2876.52
404.51	2853.11
404.70	2977.16
404.89	2855.45
405.09	2960.78
405.28	2979.50
405.47	2995.89
405.66	2911.63
405.85	3040.36
406.05	3061.42
406.24	3094.19
406.43	3038.02
406.62	3129.30
406.81	3028.65
407.00	3124.62
407.20	3030.99
407.39	3122.27
407.58	3243.98
407.77	3255.69
407.96	3300.16
408.15	3279.09
408.34	3344.63
408.54	3353.99
408.73	3307.18
408.92	3379.73
409.11	3300.16
409.30	3506.12
409.49	3433.57
409.68	3478.04
409.87	3471.01
410.07	3557.61
410.26	3445.27
410.45	3517.83
410.64	3653.58
410.83	3595.06
411.02	3599.74
411.21	3707.41
411.40	3686.34
411.59	3747.20
411.78	3620.81
411.98	3873.59
412.17	3730.81
412.36	3770.60
412.55	3854.86
412.74	4009.34
412.93	3889.97
413.12	3847.84
413.31	4067.85
413.50	3932.10
413.69	4049.13
413.88	4142.75
414.07	4224.67
414.26	4098.28
414.45	4313.61
414.64	4285.52
414.83	4327.65
415.02	4266.80
415.22	4451.70
415.41	4428.29
415.60	4461.06
415.79	4652.98
415.98	4514.89
416.17	4603.83
416.36	4449.36
416.55	4585.11
416.74	4571.07
416.93	4615.54
417.12	4676.39
417.31	4566.39
417.50	4781.71
417.69	4844.91
417.88	4865.97
418.07	4788.74
418.26	4854.27
418.45	4954.91
418.64	5125.77
418.83	4992.36
419.02	5043.85
419.21	5205.35
419.39	5048.54
419.58	4947.89
419.77	5081.30
419.96	5233.44
420.15	5249.82
420.34	5242.80
420.53	5170.24
420.72	5359.83
420.91	5446.43
421.10	5399.62
421.29	5423.02
421.48	5289.61
421.67	5465.15
421.86	5490.90
422.05	5259.18
422.24	5254.50
422.43	5455.79
422.61	5521.32
422.80	5621.97
422.99	5448.77
423.18	5554.09
423.37	5549.41
423.56	5448.77
423.75	5605.58
423.94	5364.51
424.13	5207.69
424.32	5263.86
424.50	5619.63
424.69	5781.12
424.88	5575.16
425.07	5497.92
425.26	5535.37
425.45	5504.94
425.64	5502.60
425.83	5495.58
426.01	5692.18
426.20	5687.50
426.39	5671.12
426.58	5551.75
426.77	5652.39
426.96	5809.21
427.15	5776.44
427.33	5746.02
427.52	5696.86
427.71	5893.47
427.90	5678.14
428.09	5893.47
428.28	5867.72
428.46	5961.34
428.65	5975.39
428.84	6111.14
429.03	6113.48
429.22	5856.02
429.40	6101.78
429.59	5959.00
429.78	5888.79
429.97	5685.16
430.16	6040.92
430.34	6260.93
430.53	6303.06
430.72	6253.91
430.91	6354.55
431.10	6284.34
431.28	6326.47
431.47	6373.28
431.66	6541.80
431.85	6403.71
432.03	6499.67
432.22	6595.63
432.41	6424.77
432.60	6715.00
432.79	6553.50
432.97	6569.88
433.16	6607.33
433.35	6775.85
433.54	6698.61
433.72	6780.53
433.91	6684.57
434.10	6626.06
434.28	6750.10
434.47	6787.55
434.66	6609.67
434.85	6958.41
435.03	7059.06
435.22	7103.53
435.41	7349.28
435.59	7220.55
435.78	7197.15
435.97	7082.46
436.16	7124.59
436.34	7262.68
436.53	7206.51
436.72	7349.28
436.90	7148.00
437.09	7372.69
437.28	7162.04
437.46	7290.77
437.65	7375.03
437.84	7426.52
438.02	7410.14
438.21	7620.78
438.40	7379.71
438.58	7552.91
438.77	7768.24
438.96	7576.31
439.14	7943.78
439.33	7929.74
439.52	7969.52
439.70	7882.92
439.89	8060.80
440.08	8116.98
440.26	8016.33
440.45	7901.65
440.63	8208.26
440.82	8329.97
441.01	8236.35
441.19	8257.41
441.38	8411.89
441.57	8475.08
441.75	8425.93
441.94	8690.41
442.12	8901.06
442.31	8793.39
442.50	8716.16
442.68	8606.15
442.87	8758.28
443.05	8882.33
443.24	9043.83
443.43	8865.95
443.61	9029.79
443.80	9259.16
443.98	8699.77
444.17	8622.53
444.35	8990.00
444.54	9188.94
444.73	8798.07
444.91	8978.30
445.10	9076.60
445.28	9088.30
445.47	8938.51
445.65	9121.07
445.84	9156.18
446.02	9025.11
446.21	9015.74
446.39	9102.34
446.58	9125.75
446.77	9193.62
446.95	9022.77
447.14	9301.29
447.32	9210.01
447.51	9256.82
447.69	9001.70
447.88	9341.08
448.06	9238.09
448.25	9238.09
448.43	9341.08
448.62	9357.46
448.80	9240.44
448.99	9401.93
449.17	9570.45
449.36	9394.91
449.54	9474.49
449.73	9771.74
449.91	9724.93
450.10	9745.99
450.28	9816.21
450.46	9783.44
450.65	9907.49
450.83	9860.68
451.02	9785.78
451.20	9991.75
451.39	9942.60
451.57	9743.65
451.76	9881.74
451.94	10033.88
452.13	10071.33
452.31	10104.09
452.49	9895.78
452.68	10286.65
452.86	10377.94
453.05	10284.31
453.23	10176.65
453.42	10272.61
453.60	10139.20
453.78	10394.32
453.97	10300.70
454.15	10296.02
454.34	10246.87
454.52	10574.54
454.70	10588.58
454.89	10747.74
455.07	10684.55
455.26	10810.93
455.44	10626.03
455.62	10731.36
455.81	10677.52
455.99	10506.66
456.17	10724.33
456.36	10827.32
456.54	10963.07
456.73	10808.59
456.91	11377.34
457.09	11162.01
457.28	11290.74
457.46	11346.92
457.64	11164.36
457.83	11489.69
458.01	11159.67
458.19	11585.65
458.38	11407.77
458.56	11468.62
458.74	11375.00
458.93	11723.74
459.11	11494.37
459.29	11447.56
459.48	11590.33
459.66	11501.39
459.84	11627.78
460.03	12156.74
460.21	11698.00
460.39	11466.28
460.57	11913.33
460.76	12028.01
460.94	12168.45
461.12	12294.83
461.31	12081.85
461.49	12046.74
461.67	12173.13
461.85	12376.75
462.04	12327.60
462.22	12739.54
462.40	12486.76
462.59	12336.96
462.77	12458.67
462.95	12351.01
463.13	12292.49
463.32	12585.06
463.50	12484.42
463.68	12622.51
463.86	12655.28
464.05	12498.46
464.23	12622.51
464.41	12966.57
464.59	12737.20
464.78	12896.35
464.96	12980.61
465.14	12800.39
465.32	12929.12
465.50	12863.58
465.69	13226.37
465.87	12842.52
466.05	12863.58
466.23	13015.72
466.41	13336.37
466.60	13448.72
466.78	13165.51
466.96	13095.30
467.14	13439.36
467.32	13357.44
467.51	13469.78
467.69	13062.53
467.87	13350.42
468.05	13650.00
468.23	13303.60
468.41	13460.42
468.60	13390.20
468.78	13736.60
468.96	13598.51
469.14	13647.66
469.32	13954.27
469.50	13434.68
469.69	13884.06
469.87	14195.35
470.05	14218.75
470.23	14001.08
470.41	14160.24
470.59	14022.15
470.77	14239.82
470.95	14221.10
471.14	14274.93
471.32	14127.47
471.50	14611.96
471.68	14326.42
471.86	14626.01
472.04	14817.93
472.22	14949.00
472.40	14691.54
472.58	14796.87
472.77	14878.79
472.95	15131.56
473.13	15709.68
473.31	14785.16
473.49	15386.68
473.67	15384.34
473.85	15475.62
474.03	15630.10
474.21	15400.72
474.39	15749.46
474.57	15616.05
474.75	15901.60
474.93	15976.50
475.12	15934.37
475.30	16065.44
475.48	15854.79
475.66	16262.04
475.84	16126.29
476.02	16259.70
476.20	16170.76
476.38	16627.17
476.56	17144.42
476.74	17247.41
476.92	17247.41
477.10	16964.20
477.28	17387.84
477.46	17209.96
477.64	17334.01
477.82	17418.27
478.00	18200.01
478.18	17762.33
478.36	18157.88
478.54	18267.88
478.72	18523.00
478.90	18492.57
479.08	18796.84
479.26	19080.05
479.44	18843.65
479.62	18972.38
479.80	19384.32
479.98	19304.74
480.16	20149.67
480.34	19669.86
480.52	19653.48
480.70	19850.08
480.88	19810.29
481.06	20063.07
481.24	19988.18
481.41	20034.99
481.59	20863.54
481.77	20812.04
481.95	20812.04
482.13	21097.59
482.31	21216.96
482.49	21752.94
482.67	21333.98
482.85	21855.92
483.03	21942.52
483.21	22434.03
483.39	22361.48
483.57	22309.99
483.74	22501.91
483.92	23002.78
484.10	22813.20
484.28	23316.42
484.46	23604.30
484.64	23999.85
484.82	23328.12
485.00	23882.83
485.18	24259.65
485.35	24725.42
485.53	24283.06
485.71	24755.85
485.89	24837.76
486.07	24760.53
486.25	25249.70
486.43	25071.82
486.61	25549.29
486.78	25640.57
486.96	25741.21
487.14	26389.54
487.32	26455.08
487.50	26197.62
487.68	26661.04
487.85	27026.17
488.03	27192.34
488.21	27480.23
488.39	27672.15
488.57	27674.49
488.75	28046.64
488.92	28067.70
489.10	28409.42
489.28	28587.30
489.46	28814.34
489.64	29118.60
489.81	29237.97
489.99	29467.34
490.17	29369.04
490.35	29949.50
490.53	30183.55
490.70	30363.77
490.88	30080.56
491.06	30726.55
491.24	30703.15
491.41	30656.34
491.59	31119.76
491.77	31019.12
491.95	31101.04
492.13	31433.39
492.30	32065.34
492.48	31662.77
492.66	32137.90
492.84	32086.40
493.01	32549.83
493.19	32615.37
493.37	33064.75
493.54	33062.41
493.72	33457.96
493.90	33294.12
494.08	33385.40
494.25	33930.75
494.43	33954.15
494.61	34363.75
494.79	34117.99
494.96	34277.15
495.14	34979.31
495.32	35447.41
495.49	35264.85
495.67	35409.96
495.85	35487.20
496.02	35660.40
496.20	36404.69
496.38	35761.05
496.55	35969.35
496.73	37071.75
496.91	36467.89
497.09	37015.57
497.26	37415.80
497.44	37067.06
497.62	36809.61
497.79	37848.80
497.97	37663.90
498.14	37883.91
498.32	38115.62
498.50	38256.06
498.67	38703.10
498.85	38834.17
499.03	38663.31
499.20	38941.83
499.38	39131.42
499.56	39208.65
499.73	39665.06
499.91	39290.57
500.08	39487.18
500.26	39175.89
500.44	39847.62
500.61	39969.33
500.79	40140.19
500.97	40538.08
501.14	40634.04
501.32	40594.25
501.49	40325.09
501.67	40570.85
501.84	41048.32
502.02	41310.46
502.20	41621.75
502.37	41736.43
502.55	41652.17
502.72	41734.09
502.90	41750.48
503.07	41780.90
503.25	41876.86
503.43	42323.91
503.60	42438.59
503.78	42525.19
503.95	42408.17
504.13	42602.43
504.30	42618.81
504.48	42911.38
504.65	42756.91
504.83	43217.99
505.01	43695.46
505.18	43477.79
505.36	43459.07
505.53	43253.10
505.71	43634.61
505.88	44023.14
506.06	43859.30
506.23	44477.20
506.41	44144.84
506.58	44830.62
506.76	44409.32
506.93	44910.20
507.11	44776.79
507.28	44790.83
507.46	44722.96
507.63	44992.12
507.81	45497.67
507.98	44601.25
508.16	45024.89
508.33	45317.45
508.50	45553.85
508.68	46026.63
508.85	46122.60
509.03	45560.87
509.20	46525.17
509.38	46564.96
509.55	46335.59
509.73	46375.37
509.90	46623.47
510.08	46752.20
510.25	47246.05
510.42	47105.62
510.60	47363.08
510.77	47026.04
510.95	47564.37
511.12	47241.37
511.30	47899.06
511.47	47915.45
511.64	47632.24
511.82	48215.04
511.99	48261.85
512.17	48208.01
512.34	48493.56
512.51	48699.53
512.69	49074.01
512.86	48797.83
513.04	48676.12
513.21	48804.85
513.38	48748.68
513.56	48992.09
513.73	48786.13
513.90	49214.44
514.08	49034.22
514.25	49389.98
514.43	49361.90
514.60	49212.10
514.77	49488.29
514.95	49769.15
515.12	49710.64
515.29	49914.26
515.47	50169.38
515.64	50239.60
515.81	50375.35
515.99	50270.03
516.16	50609.40
516.33	50307.47
516.51	51143.05
516.68	50309.82
516.85	50581.32
517.03	50981.55
517.20	51178.15
517.37	50822.39
517.54	50803.67
517.72	50754.52
517.89	50848.14
518.06	51299.86
518.24	51274.12
518.41	51384.12
518.58	51554.98
518.75	50820.05
518.93	51613.49
519.10	51440.29
519.27	51447.32
519.45	51948.19
519.62	51819.46
519.79	51990.32
519.96	51990.32
520.14	52177.56
520.31	51906.06
520.48	52013.73
520.65	52058.20
520.83	52556.73
521.00	52507.58
521.17	52568.43
521.34	52530.98
521.52	52718.23
521.69	52722.91
521.86	52636.31
522.03	52830.57
522.20	52917.17
522.38	53354.85
522.55	53345.49
522.72	53118.46
522.89	53043.56
523.07	53432.09
523.24	53221.44
523.41	53509.33
523.58	53427.41
523.75	53918.92
523.92	53741.04
524.10	53949.35
524.27	54286.39
524.44	53829.98
524.61	53951.69
524.78	54110.85
524.96	54262.98
525.13	54059.35
525.30	54288.73
525.47	54644.49
525.64	54480.65
525.81	54450.22
525.98	54447.88
526.16	54515.76
526.33	54394.05
526.50	54794.28
526.67	54604.70
526.84	54784.92
527.01	54808.32
527.18	54908.97
527.36	54932.37
527.53	54796.62
527.70	54948.76
527.87	55250.69
528.04	55107.91
528.21	55262.39
528.38	55393.46
528.55	55227.28
528.72	55096.21
528.89	55283.45
529.07	55220.26
529.24	55243.66
529.41	55475.38
529.58	55580.70
529.75	55517.51
529.92	55569.00
530.09	55671.98
530.26	55414.52
530.43	55543.25
530.60	55786.67
530.77	55657.94
530.94	56095.62
531.11	55894.33
531.28	55931.78
531.46	56217.33
531.63	55889.65
531.80	55730.50
531.97	55922.42
532.14	56289.88
532.31	56320.31
532.48	56556.70
532.65	56556.70
532.82	56046.47
532.99	56053.49
533.16	56222.01
533.33	56624.58
533.50	56549.68
533.67	56205.62
533.84	56257.12
534.01	56598.83
534.18	56568.41
534.35	56907.79
534.52	56753.31
534.69	56755.65
534.86	56594.15
535.03	56427.98
535.20	56875.02
535.37	56942.89
535.54	57050.56
535.71	56786.08
535.88	57368.87
536.05	57106.73
536.22	57095.03
536.38	57120.77
536.55	57270.57
536.72	57179.29
536.89	57446.11
537.06	57254.18
537.23	57640.37
537.40	57558.45
537.57	57436.75
537.74	57427.38
537.91	57584.20
538.08	57453.13
538.25	57591.22
538.42	57572.50
538.59	58031.24
538.75	57638.03
538.92	57846.34
539.09	57710.59
539.26	57729.31
539.43	57745.70
539.60	57813.57
539.77	57799.53
539.94	57972.73
540.11	58131.89
540.28	58127.20
540.44	58246.57
540.61	58080.39
540.78	58206.78
540.95	58225.51
541.12	58049.97
541.29	58136.57
541.46	58326.15
541.62	58520.41
541.79	58478.28
541.96	58192.74
542.13	58443.18
542.30	58295.72
542.47	58237.21
542.63	58571.91
542.80	58805.96
542.97	58852.77
543.14	59138.32
543.31	59138.32
543.48	58796.60
543.64	59334.92
543.81	59028.31
543.98	59061.08
544.15	58993.20
544.32	59051.72
544.48	59072.78
544.65	59016.61
544.82	59110.23
544.99	59044.69
545.16	59269.39
545.32	59309.18
545.49	59299.81
545.66	59311.52
545.83	59391.09
546.00	59744.51
546.16	59700.04
546.33	59311.52
546.50	59463.65
546.67	59564.29
546.83	59044.69
547.00	59281.09
547.17	59171.08
547.34	59355.99
547.50	59611.10
547.67	59676.64
547.84	59962.18
548.00	59634.51
548.17	59962.18
548.34	59683.66
548.51	59807.71
548.67	59643.87
548.84	59688.34
549.01	59620.47
549.18	59639.19
549.34	59910.69
549.51	59950.48
549.68	59990.27
549.84	59784.30
550.01	59962.18
550.18	59889.63
550.34	59671.96
550.51	59924.74
550.68	60226.66
550.84	59793.67
551.01	60198.58
551.18	60067.51
551.34	60034.74
551.51	60165.81
551.68	60252.41
551.84	60044.10
552.01	60156.45
552.18	60278.16
552.34	60128.36
552.51	60149.43
552.68	60378.80
552.84	60397.52
553.01	60465.40
553.18	60451.36
553.34	60350.71
553.51	60371.78
553.67	60566.04
553.84	60434.97
554.01	60523.91
554.17	60839.89
554.34	60706.47
554.51	60631.58
554.67	60734.56
554.84	60685.41
555.00	60360.08
555.17	60493.49
555.33	60734.56
555.50	60430.29
555.67	60760.31
555.83	60624.56
556.00	60753.29
556.16	60938.19
556.33	60769.67
556.50	60914.78
556.66	60612.85
556.83	60559.02
556.99	60903.08
557.16	61095.00
557.32	61179.26
557.49	61001.38
557.65	60764.99
557.82	60952.23
557.98	60898.40
558.15	61036.49
558.32	60917.12
558.48	60624.56
558.65	61073.94
558.81	61223.73
558.98	61036.49
559.14	60961.59
559.31	61172.24
559.47	61174.58
559.64	61205.01
559.80	61015.43
559.97	61167.56
560.13	60942.87
560.30	61221.39
560.46	61385.23
560.63	61333.74
560.79	61511.62
560.96	61399.27
561.12	61190.97
561.29	61392.25
561.45	61352.46
561.61	61366.51
561.78	61350.12
561.94	61588.86
562.11	61609.92
562.27	61546.73
562.44	61698.86
562.60	61371.19
562.77	61443.74
562.93	61530.34
563.10	61556.09
563.26	61432.04
563.42	61647.37
563.59	61455.45
563.75	61614.60
563.92	61506.94
564.08	61626.31
564.24	61630.99
564.41	61497.58
564.57	61389.91
564.74	61520.98
564.90	61663.75
565.07	61593.54
565.23	61762.06
565.39	61778.44
565.56	61862.70
565.72	61738.65
565.88	61612.26
566.05	61647.37
566.21	61371.19
566.38	61565.45
566.54	61621.62
566.70	61825.25
566.87	62007.81
567.03	61851.00
567.19	62026.54
567.36	61942.28
567.52	61904.83
567.68	61911.85
567.85	61766.74
568.01	61946.96
568.17	61776.10
568.34	61829.93
568.50	61790.14
568.66	61932.92
568.83	61916.53
568.99	61708.22
569.15	61874.40
569.32	62063.99
569.48	61872.06
569.64	61874.40
569.81	61750.35
569.97	61820.57
570.13	62063.99
570.30	61834.61
570.46	62087.39
570.62	62054.62
570.78	61968.02
570.95	61965.68
571.11	62031.22
571.27	61858.02
571.43	61944.62
571.60	62017.17
571.76	62021.86
571.92	62188.03
572.09	62316.76
572.25	62188.03
572.41	62033.56
572.57	62225.48
572.74	62192.72
572.90	62045.26
573.06	62127.18
573.22	62150.59
573.38	62162.29
573.55	62047.60
573.71	62225.48
573.87	62206.76
574.03	62300.38
574.20	62033.56
574.36	62110.80
574.52	62206.76
574.68	62124.84
574.84	62368.26
575.01	62260.59
575.17	62499.33
575.33	62284.00
575.49	62054.62
575.65	62258.25
575.82	62260.59
575.98	62164.63
576.14	62372.94
576.30	62405.70
576.46	62138.88
576.62	62045.26
576.79	62164.63
576.95	61811.21
577.11	62094.41
577.27	62485.28
577.43	62384.64
577.59	62422.09
577.75	62234.84
577.92	62372.94
578.08	62138.88
578.24	62312.08
578.40	62354.21
578.56	62344.85
578.72	62372.94
578.88	62536.77
579.04	62717.00
579.21	62394.00
579.37	62536.77
579.53	62611.67
579.69	62305.06
579.85	62358.89
580.01	62410.38
580.17	62340.17
580.33	62597.63
580.49	62461.88
580.65	62592.95
580.82	62527.41
580.98	62663.16
581.14	62478.26
581.30	62527.41
581.46	62340.17
581.62	62487.62
581.78	62291.02
581.94	62595.29
582.10	62312.08
582.26	62494.64
582.42	62604.65
582.58	62557.84
582.74	62625.71
582.90	62653.80
583.06	62550.82
583.22	62464.22
583.38	62494.64
583.54	62525.07
583.70	62347.19
583.86	62494.64
584.02	62424.43
584.18	62663.16
584.34	62466.56
584.50	62569.54
584.66	62518.05
584.82	62459.54
584.98	62370.60
585.14	62429.11
585.30	62342.51
585.46	62548.48
585.62	62515.71
585.78	62621.03
585.94	62557.84
586.10	62480.60
586.26	62679.55
586.42	62660.82
586.58	62623.37
586.74	62780.19
586.90	62305.06
587.06	62621.03
587.22	62473.58
587.38	62733.38
587.54	62838.70
587.70	62939.35
