SpectraSuite Data File
++++++++++++++++++++++++++++++++++++
Date: Thu Oct 24 13:21:39 EDT 2013
User: stostad
Dark Spectrum Present: No
Reference Spectrum Present: No
Number of Sampled Component Spectra: 1
Spectrometers: USB2+H05261
Integration Time (usec): 100000 (USB2+H05261)
Spectra Averaged: 1 (USB2+H05261)
Boxcar Smoothing: 0 (USB2+H05261)
Correct for Electrical Dark: No (USB2+H05261)
Strobe/Lamp Enabled: No (USB2+H05261)
Correct for Detector Non-linearity: No (USB2+H05261)
Correct for Stray Light: No (USB2+H05261)
Number of Pixels in Processed Spectrum: 2048
>>>>>Begin Processed Spectral Data<<<<<
365.73	477.47
365.92	477.47
366.12	477.47
366.32	489.17
366.52	472.79
366.72	521.94
366.91	456.40
367.11	447.04
367.31	486.83
367.51	526.62
367.70	484.49
367.90	500.87
368.10	442.36
368.30	421.30
368.49	491.51
368.69	421.30
368.89	531.30
369.09	500.87
369.28	514.92
369.48	486.83
369.68	507.90
369.87	491.51
370.07	521.94
370.27	526.62
370.47	720.88
370.66	1165.59
370.86	1165.59
371.06	1254.53
371.25	1338.79
371.45	1301.34
371.65	1245.16
371.84	1327.08
372.04	1310.70
372.24	1324.74
372.44	1320.06
372.63	1352.83
372.83	1369.21
373.03	1355.17
373.22	1362.19
373.42	1280.27
373.62	1352.83
373.81	1448.79
374.01	1411.34
374.21	1409.00
374.40	1465.18
374.60	1416.02
374.79	1444.11
374.99	1394.96
375.19	1490.92
375.38	1448.79
375.58	1409.00
375.78	1526.03
375.97	1483.90
376.17	1500.28
376.37	1483.90
376.56	1495.60
376.76	1533.05
376.95	1554.12
377.15	1495.60
377.35	1516.67
377.54	1561.14
377.74	1605.61
377.93	1685.19
378.13	1629.01
378.33	1563.48
378.52	1633.69
378.72	1661.78
378.91	1621.99
379.11	1650.08
379.31	1713.27
379.50	1605.61
379.70	1703.91
379.89	1809.23
380.09	1764.76
380.28	1664.12
380.48	1732.00
380.68	1717.95
380.87	1776.47
381.07	1755.40
381.26	1652.42
381.46	1905.20
381.65	1865.41
381.85	1741.36
382.04	1727.32
382.24	1856.04
382.43	1741.36
382.63	1769.44
382.83	1825.62
383.02	1928.60
383.22	1909.88
383.41	1853.70
383.61	1907.54
383.80	1952.01
384.00	1888.81
384.19	1888.81
384.39	1933.28
384.58	1886.47
384.78	2010.52
384.97	2085.42
385.17	1963.71
385.36	1982.43
385.56	2052.65
385.75	2003.50
385.95	2045.63
386.14	2101.80
386.34	1930.94
386.53	2062.01
386.72	2012.86
386.92	2099.46
387.11	2083.08
387.31	2167.34
387.50	2143.93
387.70	2087.76
387.89	2197.76
388.09	2195.42
388.28	2172.02
388.48	2214.15
388.67	2190.74
388.86	2165.00
389.06	2275.00
389.25	2183.72
389.45	2282.02
389.64	2172.02
389.84	2300.75
390.03	2319.47
390.22	2317.13
390.42	2324.15
390.61	2242.23
390.81	2349.90
391.00	2410.75
391.19	2356.92
391.39	2389.69
391.58	2473.95
391.78	2480.97
391.97	2509.05
392.16	2345.22
392.36	2462.24
392.55	2408.41
392.75	2541.82
392.94	2462.24
393.13	2574.59
393.33	2473.95
393.52	2602.68
393.71	2635.44
393.91	2576.93
394.10	2548.84
394.29	2637.78
394.49	2724.38
394.68	2698.64
394.88	2668.21
395.07	2782.90
395.26	2719.70
395.46	2778.22
395.65	2796.94
395.84	2799.28
396.04	3023.97
396.23	2906.95
396.42	2867.16
396.62	2925.67
396.81	2965.46
397.00	2876.52
397.19	2855.45
397.39	2899.92
397.58	2967.80
397.77	2967.80
397.97	2949.08
398.16	3035.67
398.35	3091.85
398.55	2944.39
398.74	3117.59
398.93	3040.36
399.12	3150.36
399.32	2958.44
399.51	3218.24
399.70	3229.94
399.90	3075.46
400.09	3176.11
400.28	3227.60
400.47	3220.58
400.67	3318.88
400.86	3368.03
401.05	3258.03
401.24	3478.04
401.44	3304.84
401.63	3276.75
401.82	3400.80
402.01	3377.39
402.21	3468.67
402.40	3468.67
402.59	3372.71
402.78	3644.21
402.97	3688.68
403.17	3548.25
403.36	3527.19
403.55	3625.49
403.74	3669.96
403.93	3798.69
404.13	3803.37
404.32	3786.99
404.51	3850.18
404.70	3742.52
404.89	3794.01
405.09	3946.14
405.28	3922.74
405.47	3927.42
405.66	3854.86
405.85	3845.50
406.05	3857.20
406.24	3911.04
406.43	4058.49
406.62	4128.70
406.81	4044.45
407.00	3922.74
407.20	4016.36
407.39	4084.23
407.58	4184.88
407.77	4271.48
407.96	4187.22
408.15	4341.69
408.34	4168.49
408.54	4180.20
408.73	4276.16
408.92	4351.06
409.11	4465.74
409.30	4454.04
409.49	4557.02
409.68	4498.51
409.87	4395.53
410.07	4484.47
410.26	4542.98
410.45	4498.51
410.64	4622.56
410.83	4711.50
411.02	4873.00
411.21	4816.82
411.40	4662.35
411.59	4905.76
411.78	4755.97
411.98	4945.55
412.17	4889.38
412.36	4975.98
412.55	5107.05
412.74	5167.90
412.93	5100.03
413.12	5064.92
413.31	5336.42
413.50	5228.76
413.69	5228.76
413.88	5249.82
414.07	5167.90
414.26	5313.02
414.45	5408.98
414.64	5511.96
414.83	5621.97
415.02	5490.90
415.22	5706.23
415.41	5767.08
415.60	5764.74
415.79	5565.79
415.98	5811.55
416.17	5781.12
416.36	5844.32
416.55	5636.01
416.74	5888.79
416.93	6069.01
417.12	6118.16
417.31	6108.80
417.50	6043.26
417.69	6277.32
417.88	6148.59
418.07	6197.74
418.26	6328.81
418.45	6389.66
418.64	6321.79
418.83	6565.20
419.02	6424.77
419.21	6600.31
419.39	6635.42
419.58	6637.76
419.77	6609.67
419.96	6679.89
420.15	6569.88
420.34	6785.21
420.53	6590.95
420.72	6724.36
420.91	6743.08
421.10	6937.35
421.29	6729.04
421.48	6759.47
421.67	6920.96
421.86	6920.96
422.05	6920.96
422.24	6991.18
422.43	7012.24
422.61	7080.12
422.80	7119.91
422.99	7162.04
423.18	7162.04
423.37	7255.66
423.56	7068.42
423.75	7197.15
423.94	6878.83
424.13	6663.51
424.32	7037.99
424.50	7194.81
424.69	7339.92
424.88	7494.40
425.07	7159.70
425.26	7169.06
425.45	7124.59
425.64	7112.89
425.83	7248.64
426.01	7183.10
426.20	7250.98
426.39	7351.62
426.58	7236.94
426.77	7222.89
426.96	7384.39
427.15	7276.73
427.33	7468.65
427.52	7370.35
427.71	7669.94
427.90	7590.36
428.09	7581.00
428.28	7700.36
428.46	7749.51
428.65	7735.47
428.84	7901.65
429.03	7913.35
429.22	7770.58
429.40	7929.74
429.59	7925.05
429.78	7630.15
429.97	7541.21
430.16	8013.99
430.34	8100.59
430.53	8013.99
430.72	8102.93
430.91	8135.70
431.10	8142.72
431.28	8114.64
431.47	8198.90
431.66	8325.29
431.85	8243.37
432.03	8620.19
432.22	8606.15
432.41	8402.52
432.60	8580.40
432.79	8517.21
432.97	8648.28
433.16	8847.22
433.35	8615.51
433.54	8631.90
433.72	8709.13
433.91	8884.67
434.10	8690.41
434.28	8568.70
434.47	8982.98
434.66	9071.92
434.85	9004.04
435.03	9170.22
435.22	9013.40
435.41	9408.95
435.59	9451.08
435.78	9523.64
435.97	9352.78
436.16	9287.25
436.34	9284.91
436.53	9308.31
436.72	9603.22
436.90	9378.53
437.09	9685.14
437.28	9369.16
437.46	9603.22
437.65	9530.66
437.84	9593.86
438.02	9488.53
438.21	9472.15
438.40	9329.38
438.58	9996.43
438.77	10040.90
438.96	9872.38
439.14	10207.08
439.33	10113.45
439.52	10160.27
439.70	10235.16
439.89	10473.90
440.08	10649.44
440.26	10471.56
440.45	10384.96
440.63	10719.65
440.82	10846.04
441.01	10719.65
441.19	10794.55
441.38	10965.41
441.57	10913.92
441.75	11112.86
441.94	11407.77
442.12	11295.43
442.31	11632.46
442.50	11524.80
442.68	11295.43
442.87	11477.99
443.05	11625.44
443.24	11777.58
443.43	11775.24
443.61	11693.32
443.80	11838.43
443.98	11424.15
444.17	11288.40
444.35	11688.64
444.54	11908.65
444.73	11854.81
444.91	11754.17
445.10	11957.80
445.28	12016.31
445.47	11852.47
445.65	11903.96
445.84	12149.72
446.02	12044.40
446.21	11908.65
446.39	11936.73
446.58	12301.86
446.77	12276.11
446.95	11672.25
447.14	12098.23
447.32	12049.08
447.51	12100.57
447.69	11988.22
447.88	12299.52
448.06	12175.47
448.25	12194.19
448.43	12037.38
448.62	12259.73
448.80	12058.44
448.99	12301.86
449.17	12493.78
449.36	12472.71
449.54	12549.95
449.73	12835.50
449.91	12971.25
450.10	12678.68
450.28	12910.40
450.46	13069.55
450.65	13006.36
450.83	13020.40
451.02	12699.75
451.20	13170.19
451.39	13336.37
451.57	13008.70
451.76	13172.54
451.94	13212.32
452.13	13275.52
452.31	13217.01
452.49	13008.70
452.68	13507.23
452.86	13188.92
453.05	13472.12
453.23	13497.87
453.42	13331.69
453.60	13481.49
453.78	13598.51
453.97	13479.15
454.15	13406.59
454.34	13563.40
454.52	14129.81
454.70	13790.44
454.89	13788.10
455.07	14155.56
455.26	13902.78
455.44	14445.79
455.62	14169.60
455.81	14232.80
455.99	14207.05
456.17	14193.01
456.36	14258.54
456.54	14487.92
456.73	14689.20
456.91	15126.88
457.09	14597.92
457.28	15131.56
457.46	14656.43
457.64	15297.74
457.83	15154.97
458.01	15126.88
458.19	15279.02
458.38	15314.13
458.56	15080.07
458.74	15243.91
458.93	15370.30
459.11	15597.33
459.29	15321.15
459.48	15414.77
459.66	15548.18
459.84	15545.84
460.03	16084.16
460.21	15765.85
460.39	15850.11
460.57	15866.49
460.76	15791.59
460.94	16035.01
461.12	16086.50
461.31	16233.96
461.49	15964.79
461.67	15948.41
461.85	16561.63
462.04	16397.79
462.22	16973.56
462.40	16592.06
462.59	16336.94
462.77	16585.04
462.95	16968.88
463.13	16699.72
463.32	16732.49
463.50	16592.06
463.68	17085.91
463.86	16926.75
464.05	16645.89
464.23	16713.77
464.41	17001.65
464.59	16905.69
464.78	17668.70
464.96	17170.17
465.14	16915.05
465.32	17387.84
465.50	17263.79
465.69	17577.42
465.87	17418.27
466.05	17151.45
466.23	17343.37
466.41	17710.83
466.60	17762.33
466.78	17455.72
466.96	17554.02
467.14	17535.29
467.32	17935.53
467.51	17926.16
467.69	17825.52
467.87	17888.71
468.05	17935.53
468.23	17750.62
468.41	17785.73
468.60	18204.69
468.78	18314.69
468.96	17937.87
469.14	18546.40
469.32	18721.95
469.50	18523.00
469.69	18836.63
469.87	18738.33
470.05	18853.02
470.23	18988.77
470.41	18644.71
470.59	19063.66
470.77	19014.51
470.95	19012.17
471.14	19449.85
471.32	18927.91
471.50	19704.97
471.68	19372.61
471.86	19482.62
472.04	19941.36
472.22	20315.85
472.40	19768.16
472.58	19831.36
472.77	19894.55
472.95	20210.53
473.13	20947.79
473.31	19957.75
473.49	20531.18
473.67	20222.23
473.85	20617.78
474.03	21163.12
474.21	20900.98
474.39	21289.51
474.57	21095.25
474.75	21357.39
474.93	21530.59
475.12	21521.23
475.30	21752.94
475.48	22071.25
475.66	22104.02
475.84	21750.60
476.02	22104.02
476.20	22108.70
476.38	22654.05
476.56	22918.53
476.74	23131.51
476.92	22731.28
477.10	22450.42
477.28	22892.78
477.46	23154.92
477.64	23613.66
477.82	23524.72
478.00	24601.37
478.18	24238.59
478.36	24470.30
478.54	24833.08
478.72	24877.55
478.90	24929.05
479.08	25048.41
479.26	25619.50
479.44	25577.37
479.62	25909.73
479.80	25902.71
479.98	26139.10
480.16	26684.45
480.34	26167.19
480.52	26913.82
480.70	26948.93
480.88	26909.14
481.06	26871.69
481.24	27136.17
481.41	27498.95
481.59	27887.48
481.77	28287.71
481.95	28599.01
482.13	28474.96
482.31	28301.76
482.49	29177.12
482.67	28989.88
482.85	29579.69
483.03	29905.02
483.21	30089.93
483.39	30670.38
483.57	29876.94
483.74	30539.31
483.92	30773.36
484.10	30581.44
484.28	31510.63
484.46	31721.28
484.64	32474.93
484.82	31754.05
485.00	32381.31
485.18	32680.90
485.35	33427.53
485.53	33312.84
485.71	33319.87
485.89	34047.77
486.07	33996.28
486.25	33792.65
486.43	34148.42
486.61	34249.06
486.78	34581.42
486.96	35065.91
487.14	35431.03
487.32	35475.50
487.50	35608.91
487.68	35885.09
487.85	36645.77
488.03	36938.33
488.21	37277.71
488.39	37897.95
488.57	37642.84
488.75	37570.28
488.92	37727.10
489.10	38930.13
489.28	38539.26
489.46	38951.20
489.64	38944.17
489.81	39852.30
489.99	39856.98
490.17	39988.05
490.35	40383.60
490.53	40856.39
490.70	40907.88
490.88	40678.51
491.06	41371.31
491.24	41457.91
491.41	41331.52
491.59	42295.82
491.77	41918.99
491.95	42726.48
492.13	43009.68
492.30	43061.18
492.48	42955.85
492.66	43379.49
492.84	43789.08
493.01	43931.86
493.19	44268.89
493.37	44411.67
493.54	44418.69
493.72	45076.38
493.90	44608.27
494.08	45553.85
494.25	45778.54
494.43	45848.75
494.61	46445.59
494.79	46401.12
494.96	46354.31
495.14	46340.27
495.32	46962.85
495.49	47236.69
495.67	47576.07
495.85	47751.61
496.02	47445.00
496.20	48044.18
496.38	48772.08
496.55	48233.76
496.73	48994.43
496.91	49069.33
497.09	48935.92
497.26	49139.55
497.44	49099.76
497.62	49317.43
497.79	50450.25
497.97	50017.25
498.14	50539.19
498.32	50656.21
498.50	50541.53
498.67	50969.85
498.85	51068.15
499.03	50738.13
499.20	51033.04
499.38	51421.57
499.56	51456.68
499.73	51744.56
499.91	51627.54
500.08	52067.56
500.26	51676.69
500.44	52299.27
500.61	52378.85
500.79	52577.79
500.97	52395.23
501.14	53010.79
501.32	52844.62
501.49	52949.94
501.67	53008.45
501.84	53511.67
502.02	53216.76
502.20	53546.78
502.37	53572.52
502.55	53544.44
502.72	53654.44
502.90	53888.49
503.07	53794.87
503.25	54096.80
503.43	53815.94
503.60	54223.19
503.78	54377.67
503.95	54674.91
504.13	54623.42
504.30	54492.35
504.48	54894.92
504.65	54859.82
504.83	55145.36
505.01	55079.83
505.18	55365.37
505.36	55002.59
505.53	55426.23
505.71	55519.85
505.88	55496.44
506.06	55475.38
506.23	55807.73
506.41	55473.04
506.58	55861.57
506.76	55824.12
506.93	56315.63
507.11	56025.40
507.28	56324.99
507.46	56647.99
507.63	56683.09
507.81	56793.10
507.98	56254.78
508.16	56615.22
508.33	56755.65
508.50	56715.86
508.68	57017.79
508.85	57029.49
509.03	57237.80
509.20	57083.33
509.38	57256.53
509.55	57446.11
509.73	57504.62
509.90	57502.28
510.08	57691.86
510.25	57619.31
510.42	57801.87
510.60	58014.86
510.77	57972.73
510.95	58143.59
511.12	58136.57
511.30	57836.98
511.47	58195.08
511.64	58307.43
511.82	58632.76
511.99	58230.19
512.17	58695.95
512.34	58632.76
512.51	58667.87
512.69	59002.56
512.86	58850.43
513.04	59121.93
513.21	59182.79
513.38	58915.96
513.56	59161.72
513.73	59292.79
513.90	59386.41
514.08	59367.69
514.25	59641.53
514.43	59671.96
514.60	59473.01
514.77	59458.97
514.95	59704.73
515.12	59714.09
515.29	59704.73
515.47	60065.17
515.64	60069.85
515.81	59952.82
515.99	60168.15
516.16	60313.26
516.33	60217.30
516.51	60346.03
516.68	60231.35
516.85	60392.84
517.03	60519.23
517.20	60486.46
517.37	60608.17
517.54	60650.30
517.72	60479.44
517.89	60589.45
518.06	60676.05
518.24	61010.74
518.41	60853.93
518.58	60832.86
518.75	60811.80
518.93	60907.76
519.10	61001.38
519.27	61305.65
519.45	61298.63
519.62	61329.06
519.79	61413.32
519.96	61488.21
520.14	61270.54
520.31	61069.26
520.48	61511.62
520.65	61455.45
520.83	61708.22
521.00	61799.50
521.17	61748.01
521.34	61736.31
521.52	61916.53
521.69	61914.19
521.86	62012.49
522.03	61965.68
522.20	62213.78
522.38	62606.99
522.55	62347.19
522.72	62342.51
522.89	62124.84
523.07	62461.88
523.24	62396.34
523.41	62604.65
523.58	62459.54
523.75	62691.25
523.92	62628.05
524.10	62738.06
524.27	62574.22
524.44	62679.55
524.61	62782.53
524.78	62831.68
524.96	62822.32
525.13	62965.09
525.30	63203.83
525.47	63267.02
525.64	63124.25
525.81	63133.61
525.98	63264.68
526.16	63154.68
526.33	63124.25
526.50	63561.93
526.67	63362.98
526.84	63444.90
527.01	63517.46
527.18	63515.12
527.36	63515.12
527.53	63531.50
527.70	63870.88
527.87	63763.21
528.04	63842.79
528.21	64030.04
528.38	63786.62
528.55	63999.61
528.72	63707.04
528.89	63901.31
529.07	63749.17
529.24	63856.84
529.41	63903.65
529.58	64236.00
529.75	64109.61
529.92	64231.32
530.09	64196.21
530.26	64116.64
530.43	64254.73
530.60	64076.85
530.77	64317.92
530.94	64460.69
531.11	64268.77
531.28	64411.54
531.46	64671.34
531.63	64601.13
531.80	64472.40
531.97	64498.14
532.14	64739.22
532.31	64685.39
532.48	64776.67
532.65	64790.71
532.82	64807.09
532.99	65048.17
533.16	64617.51
533.33	64970.93
533.50	65125.41
533.67	64989.66
533.84	64825.82
534.01	65125.41
534.18	65139.45
534.35	65448.40
534.52	65254.14
534.69	65298.61
534.86	65216.69
535.03	65104.34
535.20	65099.66
535.37	65329.03
535.54	65532.66
535.71	65326.69
535.88	65523.30
536.05	65535.00
536.22	65535.00
536.38	65535.00
536.55	65535.00
536.72	65535.00
536.89	65535.00
537.06	65535.00
537.23	65535.00
537.40	65535.00
537.57	65535.00
537.74	65535.00
537.91	65535.00
538.08	65535.00
538.25	65535.00
538.42	65535.00
538.59	65535.00
538.75	65535.00
538.92	65535.00
539.09	65535.00
539.26	65535.00
539.43	65535.00
539.60	65535.00
539.77	65535.00
539.94	65535.00
540.11	65535.00
540.28	65535.00
540.44	65535.00
540.61	65535.00
540.78	65535.00
540.95	65535.00
541.12	65535.00
541.29	65535.00
541.46	65535.00
541.62	65535.00
541.79	65535.00
541.96	65535.00
542.13	65535.00
542.30	65535.00
542.47	65535.00
542.63	65535.00
542.80	65535.00
542.97	65535.00
543.14	65535.00
543.31	65535.00
543.48	65535.00
543.64	65535.00
543.81	65535.00
543.98	65535.00
544.15	65535.00
544.32	65535.00
544.48	65535.00
544.65	65535.00
544.82	65535.00
544.99	65535.00
545.16	65535.00
545.32	65535.00
545.49	65535.00
545.66	65535.00
545.83	65535.00
546.00	65535.00
546.16	65535.00
546.33	65535.00
546.50	65535.00
546.67	65535.00
546.83	65535.00
547.00	65535.00
547.17	65535.00
547.34	65535.00
547.50	65535.00
547.67	65535.00
547.84	65535.00
548.00	65535.00
548.17	65535.00
548.34	65535.00
548.51	65535.00
548.67	65535.00
548.84	65535.00
549.01	65535.00
549.18	65535.00
549.34	65535.00
549.51	65535.00
549.68	65535.00
549.84	65535.00
550.01	65535.00
550.18	65535.00
550.34	65535.00
550.51	65535.00
550.68	65535.00
550.84	65535.00
551.01	65535.00
551.18	65535.00
551.34	65535.00
551.51	65535.00
551.68	65535.00
551.84	65535.00
552.01	65535.00
552.18	65535.00
552.34	65535.00
552.51	65535.00
552.68	65535.00
552.84	65535.00
553.01	65535.00
553.18	65535.00
553.34	65535.00
553.51	65535.00
553.67	65535.00
553.84	65535.00
554.01	65535.00
554.17	65535.00
554.34	65535.00
554.51	65535.00
554.67	65535.00
554.84	65535.00
555.00	65535.00
555.17	65535.00
555.33	65535.00
555.50	65535.00
555.67	65535.00
555.83	65535.00
556.00	65535.00
556.16	65535.00
556.33	65535.00
556.50	65535.00
556.66	65535.00
556.83	65535.00
556.99	65535.00
557.16	65535.00
557.32	65535.00
557.49	65535.00
557.65	65535.00
557.82	65535.00
557.98	65535.00
558.15	65535.00
558.32	65535.00
558.48	65535.00
558.65	65535.00
558.81	65535.00
558.98	65535.00
559.14	65535.00
559.31	65535.00
559.47	65535.00
559.64	65535.00
559.80	65535.00
559.97	65535.00
560.13	65535.00
560.30	65535.00
560.46	65535.00
560.63	65535.00
560.79	65535.00
560.96	65535.00
561.12	65535.00
561.29	65535.00
561.45	65535.00
561.61	65535.00
561.78	65535.00
561.94	65535.00
562.11	65535.00
562.27	65535.00
562.44	65535.00
562.60	65535.00
562.77	65535.00
562.93	65535.00
563.10	65535.00
563.26	65535.00
563.42	65535.00
563.59	65535.00
563.75	65535.00
563.92	65535.00
564.08	65535.00
564.24	65535.00
564.41	65535.00
564.57	65535.00
564.74	65535.00
564.90	65535.00
565.07	65535.00
565.23	65535.00
565.39	65535.00
565.56	65535.00
565.72	65535.00
565.88	65535.00
566.05	65535.00
566.21	65535.00
566.38	65535.00
566.54	65535.00
566.70	65535.00
566.87	65535.00
567.03	65535.00
567.19	65535.00
567.36	65535.00
567.52	65535.00
567.68	65535.00
567.85	65535.00
568.01	65535.00
568.17	65535.00
568.34	65535.00
568.50	65535.00
568.66	65535.00
568.83	65535.00
568.99	65535.00
569.15	65535.00
569.32	65535.00
569.48	65535.00
569.64	65535.00
569.81	65535.00
569.97	65535.00
570.13	65535.00
570.30	65535.00
570.46	65535.00
570.62	65535.00
570.78	65535.00
570.95	65535.00
571.11	65535.00
571.27	65535.00
571.43	65535.00
571.60	65535.00
571.76	65535.00
571.92	65535.00
572.09	65535.00
572.25	65535.00
572.41	65535.00
572.57	65535.00
572.74	65535.00
572.90	65535.00
573.06	65535.00
573.22	65535.00
573.38	65535.00
573.55	65535.00
573.71	65535.00
573.87	65535.00
574.03	65535.00
574.20	65535.00
574.36	65535.00
574.52	65535.00
574.68	65535.00
574.84	65535.00
575.01	65535.00
575.17	65535.00
575.33	65535.00
575.49	65535.00
575.65	65535.00
575.82	65535.00
575.98	65535.00
576.14	65535.00
576.30	65535.00
576.46	65535.00
576.62	65535.00
576.79	65535.00
576.95	65535.00
577.11	65535.00
577.27	65535.00
577.43	65535.00
577.59	65535.00
577.75	65535.00
577.92	65535.00
578.08	65535.00
578.24	65535.00
578.40	65535.00
578.56	65535.00
578.72	65535.00
578.88	65535.00
579.04	65535.00
579.21	65535.00
579.37	65535.00
579.53	65535.00
579.69	65535.00
579.85	65535.00
580.01	65535.00
580.17	65535.00
580.33	65535.00
580.49	65535.00
580.65	65535.00
580.82	65535.00
580.98	65535.00
581.14	65535.00
581.30	65535.00
581.46	65535.00
581.62	65535.00
581.78	65535.00
581.94	65535.00
582.10	65535.00
582.26	65535.00
582.42	65535.00
582.58	65535.00
582.74	65535.00
582.90	65535.00
583.06	65535.00
583.22	65535.00
583.38	65535.00
583.54	65535.00
583.70	65535.00
583.86	65535.00
584.02	65535.00
584.18	65535.00
584.34	65535.00
584.50	65535.00
584.66	65535.00
584.82	65535.00
584.98	65535.00
585.14	65535.00
585.30	65535.00
585.46	65535.00
585.62	65535.00
585.78	65535.00
585.94	65535.00
586.10	65535.00
586.26	65535.00
586.42	65535.00
586.58	65535.00
586.74	65535.00
586.90	65535.00
587.06	65535.00
