SpectraSuite Data File
++++++++++++++++++++++++++++++++++++
Date: Thu Oct 24 13:21:22 EDT 2013
User: stostad
Dark Spectrum Present: No
Reference Spectrum Present: No
Number of Sampled Component Spectra: 1
Spectrometers: USB2+H05261
Integration Time (usec): 100000 (USB2+H05261)
Spectra Averaged: 1 (USB2+H05261)
Boxcar Smoothing: 0 (USB2+H05261)
Correct for Electrical Dark: No (USB2+H05261)
Strobe/Lamp Enabled: No (USB2+H05261)
Correct for Detector Non-linearity: No (USB2+H05261)
Correct for Stray Light: No (USB2+H05261)
Number of Pixels in Processed Spectrum: 2048
>>>>>Begin Processed Spectral Data<<<<<
365.73	650.67
365.92	650.67
366.12	650.67
366.32	496.19
366.52	477.47
366.72	454.06
366.91	454.06
367.11	477.47
367.31	442.36
367.51	528.96
367.70	496.19
367.90	491.51
368.10	475.13
368.30	416.62
368.49	482.15
368.69	449.38
368.89	440.02
369.09	388.53
369.28	531.30
369.48	505.56
369.68	526.62
369.87	566.41
370.07	491.51
370.27	535.98
370.47	655.35
370.66	826.21
370.86	812.17
371.06	873.02
371.25	877.70
371.45	922.17
371.65	1034.52
371.84	924.51
372.04	926.85
372.24	999.41
372.44	926.85
372.63	947.92
372.83	912.81
373.03	1013.45
373.22	976.00
373.42	987.71
373.62	1001.75
373.81	1039.20
374.01	1041.54
374.21	992.39
374.40	1041.54
374.60	1118.78
374.79	1048.56
374.99	1034.52
375.19	1025.15
375.38	1102.39
375.58	1067.28
375.78	1039.20
375.97	1114.10
376.17	1128.14
376.37	1100.05
376.56	1069.62
376.76	1055.58
376.95	1104.73
377.15	1067.28
377.35	1100.05
377.54	1027.50
377.74	1086.01
377.93	1086.01
378.13	1015.79
378.33	1104.73
378.52	1067.28
378.72	1104.73
378.91	1172.61
379.11	1170.27
379.31	1139.84
379.50	1242.82
379.70	1156.22
379.89	1163.25
380.09	1191.33
380.28	1172.61
380.48	1263.89
380.68	1144.52
380.87	1144.52
381.07	1137.50
381.26	1174.95
381.46	1210.06
381.65	1212.40
381.85	1270.91
382.04	1235.80
382.24	1261.55
382.43	1186.65
382.63	1188.99
382.83	1160.91
383.02	1315.38
383.22	1231.12
383.41	1221.76
383.61	1294.32
383.80	1198.35
384.00	1235.80
384.19	1238.14
384.39	1259.21
384.58	1254.53
384.78	1245.16
384.97	1334.11
385.17	1249.85
385.36	1221.76
385.56	1317.72
385.75	1254.53
385.95	1294.32
386.14	1294.32
386.34	1266.23
386.53	1289.64
386.72	1310.70
386.92	1387.94
387.11	1348.15
387.31	1294.32
387.50	1439.43
387.70	1439.43
387.89	1380.92
388.09	1324.74
388.28	1399.64
388.48	1483.90
388.67	1444.11
388.86	1409.00
389.06	1476.88
389.25	1423.05
389.45	1401.98
389.64	1455.81
389.84	1479.22
390.03	1465.18
390.22	1488.58
390.42	1458.15
390.61	1352.83
390.81	1497.94
391.00	1493.26
391.19	1589.22
391.39	1514.33
391.58	1495.60
391.78	1528.37
391.97	1577.52
392.16	1547.09
392.36	1528.37
392.55	1554.12
392.75	1591.56
392.94	1619.65
393.13	1603.27
393.33	1521.35
393.52	1572.84
393.71	1650.08
393.91	1610.29
394.10	1685.19
394.29	1593.90
394.49	1596.25
394.68	1668.80
394.88	1600.93
395.07	1699.23
395.26	1661.78
395.46	1739.02
395.65	1727.32
395.84	1645.40
396.04	1675.82
396.23	1619.65
396.42	1727.32
396.62	1769.44
396.81	1816.26
397.00	1795.19
397.19	1834.98
397.39	1802.21
397.58	1825.62
397.77	1767.10
397.97	1940.30
398.16	1774.13
398.35	1846.68
398.55	1846.68
398.74	1879.45
398.93	1940.30
399.12	1900.52
399.32	1856.04
399.51	1935.62
399.70	1959.03
399.90	1888.81
400.09	1846.68
400.28	1966.05
400.47	2017.54
400.67	2003.50
400.86	1947.33
401.05	1963.71
401.24	2050.31
401.44	2040.95
401.63	2050.31
401.82	2134.57
402.01	2005.84
402.21	2038.61
402.40	2097.12
402.59	2132.23
402.78	2136.91
402.97	2132.23
403.17	2097.12
403.36	2157.97
403.55	2286.70
403.74	2125.21
403.93	2305.43
404.13	2286.70
404.32	2228.19
404.51	2307.77
404.70	2303.09
404.89	2345.22
405.09	2284.36
405.28	2445.86
405.47	2286.70
405.66	2319.47
405.85	2293.72
406.05	2413.09
406.24	2410.75
406.43	2338.20
406.62	2443.52
406.81	2612.04
407.00	2417.77
407.20	2408.41
407.39	2478.63
407.58	2431.82
407.77	2506.71
407.96	2523.10
408.15	2495.01
408.34	2597.99
408.54	2600.34
408.73	2651.83
408.92	2597.99
409.11	2623.74
409.30	2656.51
409.49	2689.28
409.68	2782.90
409.87	2759.49
410.07	2698.64
410.26	2682.25
410.45	2743.11
410.64	2832.05
410.83	2867.16
411.02	2801.62
411.21	2906.95
411.40	2869.50
411.59	2939.71
411.78	2860.13
411.98	2754.81
412.17	2981.84
412.36	3028.65
412.55	3124.62
412.74	3005.25
412.93	3136.32
413.12	3052.06
413.31	3281.43
413.50	3236.96
413.69	3272.07
413.88	3279.09
414.07	3260.37
414.26	3225.26
414.45	3356.33
414.64	3276.75
414.83	3353.99
415.02	3339.94
415.22	3531.87
415.41	3368.03
415.60	3417.18
415.79	3438.25
415.98	3531.87
416.17	3536.55
416.36	3552.93
416.55	3571.66
416.74	3616.13
416.93	3620.81
417.12	3651.24
417.31	3552.93
417.50	3667.62
417.69	3775.28
417.88	3786.99
418.07	3796.35
418.26	3754.22
418.45	3836.14
418.64	3904.01
418.83	3894.65
419.02	3887.63
419.21	4035.08
419.39	3971.89
419.58	3974.23
419.77	3782.31
419.96	4030.40
420.15	4009.34
420.34	4056.15
420.53	4072.53
420.72	3915.72
420.91	4095.94
421.10	3967.21
421.29	4070.19
421.48	4070.19
421.67	4091.26
421.86	4133.39
422.05	4189.56
422.24	4175.52
422.43	4109.98
422.61	4224.67
422.80	4327.65
422.99	4264.46
423.18	4098.28
423.37	4332.33
423.56	4222.33
423.75	4355.74
423.94	4156.79
424.13	3922.74
424.32	4051.47
424.50	4278.50
424.69	4404.89
424.88	4479.79
425.07	4311.27
425.26	4210.62
425.45	4325.31
425.64	4318.29
425.83	4400.21
426.01	4372.12
426.20	4180.20
426.39	4372.12
426.58	4280.84
426.77	4332.33
426.96	4393.19
427.15	4411.91
427.33	4451.70
427.52	4465.74
427.71	4524.26
427.90	4596.81
428.09	4557.02
428.28	4587.45
428.46	4674.05
428.65	4592.13
428.84	4615.54
429.03	4627.24
429.22	4533.62
429.40	4606.17
429.59	4732.56
429.78	4606.17
429.97	4505.53
430.16	4716.18
430.34	4833.21
430.53	4751.29
430.72	4830.87
430.91	4865.97
431.10	4772.35
431.28	4943.21
431.47	4798.10
431.66	5097.69
431.85	4842.57
432.03	5095.35
432.22	5104.71
432.41	5088.32
432.60	4873.00
432.79	4994.70
432.97	5050.88
433.16	5128.11
433.35	5191.31
433.54	5118.75
433.72	5004.07
433.91	5188.97
434.10	5259.18
434.28	5327.06
434.47	5350.46
434.66	5245.14
434.85	5284.93
435.03	5392.59
435.22	5451.11
435.41	5636.01
435.59	5706.23
435.78	5575.16
435.97	5554.09
436.16	5589.20
436.34	5432.38
436.53	5500.26
436.72	5490.90
436.90	5387.91
437.09	5462.81
437.28	5696.86
437.46	5526.00
437.65	5577.50
437.84	5544.73
438.02	5685.16
438.21	5701.54
438.40	5556.43
438.58	5851.34
438.77	5713.25
438.96	5746.02
439.14	6104.12
439.33	6045.60
439.52	5874.74
439.70	6284.34
439.89	6090.07
440.08	6228.17
440.26	6122.84
440.45	6155.61
440.63	6249.23
440.82	6459.88
441.01	6282.00
441.19	6494.99
441.38	6384.98
441.57	6347.53
441.75	6506.69
441.94	6663.51
442.12	6712.66
442.31	6719.68
442.50	6649.46
442.68	6567.54
442.87	6686.91
443.05	6743.08
443.24	6796.92
443.43	6757.13
443.61	6581.59
443.80	6946.71
443.98	6705.63
444.17	6513.71
444.35	6815.64
444.54	6967.77
444.73	6876.49
444.91	6846.07
445.10	6817.98
445.28	6740.74
445.47	6810.96
445.65	6984.16
445.84	6998.20
446.02	7009.90
446.21	7023.95
446.39	7110.55
446.58	6967.77
446.77	6935.01
446.95	6932.67
447.14	7136.29
447.32	7117.57
447.51	6953.73
447.69	6874.15
447.88	6834.36
448.06	7040.33
448.25	7199.49
448.43	7000.54
448.62	7119.91
448.80	7164.38
448.99	7110.55
449.17	7185.44
449.36	7239.28
449.54	7293.11
449.73	7309.49
449.91	7349.28
450.10	7349.28
450.28	7356.30
450.46	7248.64
450.65	7499.08
450.83	7489.71
451.02	7417.16
451.20	7641.85
451.39	7592.70
451.57	7573.97
451.76	7581.00
451.94	7599.72
452.13	7695.68
452.31	7838.45
452.49	7588.02
452.68	7754.19
452.86	7602.06
453.05	7672.28
453.23	7646.53
453.42	7674.62
453.60	7641.85
453.78	7784.62
453.97	7740.15
454.15	7688.66
454.34	7784.62
454.52	7932.08
454.70	8149.75
454.89	7866.54
455.07	8046.76
455.26	8126.34
455.44	8152.09
455.62	8032.72
455.81	8011.65
455.99	8194.22
456.17	8222.30
456.36	8234.00
456.54	8395.50
456.73	8571.04
456.91	8517.21
457.09	8376.78
457.28	8706.79
457.46	8292.52
457.64	8573.38
457.83	8561.68
458.01	8547.64
458.19	8704.45
458.38	8603.81
458.56	8697.43
458.74	8587.43
458.93	8657.64
459.11	8926.80
459.29	8795.73
459.48	8882.33
459.66	8819.14
459.84	8830.84
460.03	9090.64
460.21	8910.42
460.39	8819.14
460.57	8922.12
460.76	9071.92
460.94	9240.44
461.12	9256.82
461.31	9191.28
461.49	9088.30
461.67	9210.01
461.85	9312.99
462.04	9212.35
462.22	9790.46
462.40	9418.32
462.59	9263.84
462.77	9200.65
462.95	9579.81
463.13	9359.80
463.32	9460.45
463.50	9540.02
463.68	9387.89
463.86	9507.26
464.05	9432.36
464.23	9460.45
464.41	9535.34
464.59	9511.94
464.78	9980.04
464.96	9525.98
465.14	9628.96
465.32	9643.01
465.50	9884.08
465.69	10043.24
465.87	9841.95
466.05	9907.49
466.23	9846.63
466.41	9717.90
466.60	9951.96
466.78	9699.18
466.96	9886.42
467.14	9923.87
467.32	9951.96
467.51	10113.45
467.69	9898.13
467.87	10073.67
468.05	9919.19
468.23	9994.09
468.41	9991.75
468.60	10040.90
468.78	10361.55
468.96	10129.84
469.14	10258.57
469.32	10389.64
469.50	10335.81
469.69	10471.56
469.87	10527.73
470.05	10548.79
470.23	10562.84
470.41	10768.80
470.59	10761.78
470.77	10511.35
470.95	10562.84
471.14	10817.96
471.32	10633.05
471.50	10822.64
471.68	10862.43
471.86	10970.09
472.04	11037.97
472.22	11215.85
472.40	11215.85
472.58	11197.12
472.77	11164.36
472.95	11232.23
473.13	11709.70
473.31	11447.56
473.49	11552.88
473.67	11398.41
473.85	11513.10
474.03	11683.95
474.21	11791.62
474.39	11932.05
474.57	11503.73
474.75	11882.90
474.93	12180.15
475.12	11845.45
475.30	12046.74
475.48	11852.47
475.66	12299.52
475.84	12067.80
476.02	12362.71
476.20	12353.35
476.38	12559.31
476.56	12692.73
476.74	12624.85
476.92	12601.44
477.10	12601.44
477.28	13177.22
477.46	12812.09
477.64	12896.35
477.82	13011.04
478.00	13472.12
478.18	13125.72
478.36	13626.60
478.54	13532.98
478.72	13813.84
478.90	13973.00
479.08	13870.01
479.26	14061.94
479.44	14087.68
479.62	14211.73
479.80	14239.82
479.98	14342.80
480.16	14759.42
480.34	14525.36
480.52	14537.07
480.70	14803.89
480.88	14853.04
481.06	14663.46
481.24	14892.83
481.41	15215.82
481.59	15232.21
481.77	15421.79
481.95	15681.59
482.13	15470.94
482.31	15522.43
482.49	16006.92
482.67	16016.29
482.85	16231.62
483.03	16283.11
483.21	16397.79
483.39	16428.22
483.57	16484.39
483.74	16416.52
483.92	17146.76
484.10	16699.72
484.28	17151.45
484.46	17369.12
484.64	17759.98
484.82	17319.96
485.00	17504.87
485.18	18141.49
485.35	18150.85
485.53	18178.94
485.71	17991.70
485.89	18621.30
486.07	18586.19
486.25	18455.12
486.43	18738.33
486.61	18883.44
486.78	19199.41
486.96	19351.55
487.14	19384.32
487.32	19276.65
487.50	19845.40
487.68	19669.86
487.85	19967.11
488.03	20266.70
488.21	20299.47
488.39	20156.69
488.57	20606.08
488.75	20470.33
488.92	20800.34
489.10	20697.36
489.28	21294.19
489.46	21558.67
489.64	21317.60
489.81	21806.77
489.99	21715.49
490.17	21797.41
490.35	21986.99
490.53	22120.40
490.70	22445.74
490.88	22562.76
491.06	22864.69
491.24	22710.22
491.41	22544.04
491.59	22782.77
491.77	22955.97
491.95	23342.16
492.13	23178.33
492.30	23386.63
492.48	23910.91
492.66	24091.13
492.84	24086.45
493.01	23845.38
493.19	23934.32
493.37	24594.35
493.54	24449.24
493.72	24285.40
493.90	24812.02
494.08	24751.17
494.25	25420.56
494.43	25186.50
494.61	25621.84
494.79	25289.49
494.96	25486.09
495.14	25619.50
495.32	26047.82
495.49	26136.76
495.67	26188.25
495.85	26443.37
496.02	26534.65
496.20	26218.68
496.38	26417.63
496.55	26410.60
496.73	27044.89
496.91	27096.38
497.09	27208.73
497.26	27637.05
497.44	27339.80
497.62	27463.85
497.79	27810.25
497.97	27665.13
498.14	28280.69
498.32	28397.72
498.50	28474.96
498.67	28346.23
498.85	28603.69
499.03	28947.75
499.20	28811.99
499.38	29092.86
499.56	28837.74
499.73	28917.32
499.91	29350.32
500.08	29495.43
500.26	29085.84
500.44	29355.00
500.61	29825.45
500.79	29989.28
500.97	30064.18
501.14	30225.68
501.32	30377.81
501.49	29919.07
501.67	30155.46
501.84	30536.97
502.02	30476.12
502.20	30536.97
502.37	30438.67
502.55	30703.15
502.72	31002.74
502.90	31026.14
503.07	31140.83
503.25	31374.88
503.43	31040.18
503.60	31367.86
503.78	31772.77
503.95	31311.69
504.13	31555.10
504.30	31936.61
504.48	31740.00
504.65	31967.04
504.83	32283.01
505.01	32521.74
505.18	31789.16
505.36	32507.70
505.53	32393.01
505.71	32706.65
505.88	32917.29
506.06	32699.62
506.23	32989.85
506.41	32624.73
506.58	33174.75
506.76	33067.09
506.93	33362.00
507.11	33280.08
507.28	33787.97
507.46	33282.42
507.63	33507.11
507.81	33682.65
507.98	33483.70
508.16	33619.46
508.33	33715.42
508.50	34256.08
508.68	34417.58
508.85	34569.71
509.03	34150.76
509.20	34274.80
509.38	34132.03
509.55	34958.24
509.73	34951.22
509.90	35079.95
510.08	35218.04
510.25	35126.76
510.42	35351.45
510.60	35548.06
510.77	35615.93
510.95	35512.95
511.12	35739.98
511.30	35805.52
511.47	36004.46
511.64	35651.04
511.82	36198.73
511.99	35559.76
512.17	35913.18
512.34	36334.48
512.51	36596.62
512.69	36577.89
512.86	36699.60
513.04	36690.24
513.21	36519.38
513.38	36814.29
513.56	36582.57
513.73	36966.42
513.90	37254.31
514.08	37352.61
514.25	37268.35
514.43	37376.01
514.60	37158.34
514.77	37734.12
514.95	37813.70
515.12	37453.25
515.29	37745.82
515.47	37900.29
515.64	38361.38
515.81	37890.93
515.99	38450.32
516.16	38033.71
516.33	38539.26
516.51	38562.67
516.68	38836.51
516.85	38534.58
517.03	38424.57
517.20	38974.60
517.37	38452.66
517.54	38480.75
517.72	38899.70
517.89	38810.76
518.06	38864.60
518.24	39318.66
518.41	39065.88
518.58	39358.45
518.75	39515.26
518.93	39435.69
519.10	39454.41
519.27	39503.56
519.45	39536.33
519.62	39885.07
519.79	39800.81
519.96	39969.33
520.14	40299.34
520.31	40009.12
520.48	39634.63
520.65	39955.29
520.83	40367.22
521.00	40320.41
521.17	40737.02
521.34	40659.79
521.52	40453.82
521.69	40804.90
521.86	40870.43
522.03	41448.55
522.20	40844.69
522.38	41390.03
522.55	41029.59
522.72	41530.47
522.89	41071.72
523.07	41549.19
523.24	41862.82
523.41	41518.76
523.58	41319.82
523.75	41902.61
523.92	41872.18
524.10	42075.81
524.27	42012.62
524.44	42597.75
524.61	42155.39
524.78	42426.89
524.96	42237.31
525.13	42696.05
525.30	42775.63
525.47	42759.25
525.64	42534.56
525.81	42660.94
525.98	42581.37
526.16	42454.98
526.33	42789.67
526.50	43278.85
526.67	42712.44
526.84	43096.28
527.01	43328.00
527.18	43377.15
527.36	43601.84
527.53	43157.14
527.70	43524.60
527.87	43648.65
528.04	44039.52
528.21	43667.37
528.38	43789.08
528.55	44081.65
528.72	43737.59
528.89	43672.06
529.07	43709.50
529.24	43531.62
529.41	44189.31
529.58	44502.95
529.75	44439.75
529.92	44250.17
530.09	44414.01
530.26	44257.19
530.43	44428.05
530.60	43927.17
530.77	44184.63
530.94	45027.23
531.11	45003.82
531.28	44683.17
531.46	44439.75
531.63	44638.70
531.80	44938.29
531.97	44807.22
532.14	44741.68
532.31	45074.04
532.48	44999.14
532.65	45516.40
532.82	45326.81
532.99	45490.65
533.16	45139.57
533.33	45628.74
533.50	45750.45
533.67	45696.62
533.84	45385.33
534.01	45968.12
534.18	45815.99
534.35	46557.94
534.52	45366.60
534.69	46464.32
534.86	45818.33
535.03	45340.86
535.20	46036.00
535.37	46122.60
535.54	46567.30
535.71	46270.05
535.88	46447.93
536.05	46164.73
536.22	46541.55
536.38	46494.74
536.55	46380.06
536.72	46553.26
536.89	46499.42
537.06	46740.50
537.23	47002.64
537.40	46939.44
537.57	46862.21
537.74	46660.92
537.91	46864.55
538.08	46742.84
538.25	46885.61
538.42	46686.67
538.59	46993.28
538.75	47004.98
538.92	47157.11
539.09	47257.76
539.26	47203.92
539.43	47318.61
539.60	47604.16
539.77	47672.03
539.94	47959.92
540.11	48142.48
540.28	47854.59
540.44	47599.47
540.61	47772.67
540.78	47880.34
540.95	48060.56
541.12	48243.12
541.29	48037.16
541.46	48350.79
541.62	48130.78
541.79	48526.33
541.96	47936.51
542.13	48390.58
542.30	48268.87
542.47	48542.71
542.63	48591.86
542.80	48584.84
542.97	49186.36
543.14	49214.44
543.31	49118.48
543.48	48844.64
543.64	49436.80
543.81	49034.22
543.98	49338.49
544.15	49165.29
544.32	49617.02
544.48	49532.76
544.65	48987.41
544.82	49261.26
544.99	49322.11
545.16	49263.60
545.32	49406.37
545.49	49778.51
545.66	50138.96
545.83	50206.83
546.00	50316.84
546.16	49949.37
546.33	50010.23
546.50	49694.25
546.67	49951.71
546.83	49635.74
547.00	49666.17
547.17	49727.02
547.34	49822.98
547.50	49724.68
547.67	50396.42
547.84	50160.02
548.00	50012.57
548.17	50351.94
548.34	50035.97
548.51	50103.85
548.67	49993.84
548.84	50213.85
549.01	50284.07
549.18	50398.76
549.34	50087.46
549.51	50419.82
549.68	50440.89
549.84	50307.47
550.01	49972.78
550.18	50499.40
550.34	50099.17
550.51	50380.03
550.68	50607.06
550.84	50298.11
551.01	50457.27
551.18	50464.29
551.34	50628.13
551.51	50340.24
551.68	50602.38
551.84	50810.69
552.01	50843.46
552.18	50688.98
552.34	50869.20
552.51	51047.08
552.68	50724.09
552.84	51028.36
553.01	51121.98
553.18	51288.16
553.34	50688.98
553.51	50986.23
553.67	51182.84
553.84	51334.97
554.01	51440.29
554.17	51133.68
554.34	51121.98
554.51	51236.67
554.67	51400.50
554.84	51323.27
555.00	51234.33
555.17	51047.08
555.33	51449.66
555.50	51295.18
555.67	51271.78
555.83	51597.11
556.00	51386.46
556.16	51657.96
556.33	51882.66
556.50	51540.94
556.66	51915.42
556.83	51442.63
556.99	51847.55
557.16	52020.75
557.32	51997.34
557.49	51966.91
557.65	51531.57
557.82	51599.45
557.98	51955.21
558.15	51573.70
558.32	51592.43
558.48	51672.01
558.65	52121.39
558.81	52065.22
558.98	51866.27
559.14	51903.72
559.31	51599.45
559.47	52112.03
559.64	52219.69
559.80	52224.37
559.97	52039.47
560.13	51784.35
560.30	51990.32
560.46	52334.38
560.63	52437.36
560.79	52554.39
560.96	52624.60
561.12	52451.41
561.29	52299.27
561.45	52289.91
561.61	52332.04
561.78	52467.79
561.94	52587.16
562.11	52540.35
562.27	52423.32
562.44	52580.13
562.60	52584.82
562.77	52673.76
562.93	52500.56
563.10	52692.48
563.26	52465.45
563.42	52535.66
563.59	52222.03
563.75	52575.45
563.92	52811.85
564.08	52633.97
564.24	52739.29
564.41	52530.98
564.57	52444.38
564.74	52519.28
564.90	52488.85
565.07	52776.74
565.23	53003.77
565.39	52769.72
565.56	53069.31
565.72	52624.60
565.88	52767.38
566.05	52879.72
566.21	52568.43
566.38	52711.20
566.54	52629.29
566.70	52832.91
566.87	53034.20
567.03	52858.66
567.19	53148.88
567.36	53031.86
567.52	52650.35
567.68	52912.49
567.85	52758.02
568.01	53284.64
568.17	52966.32
568.34	53034.20
568.50	52870.36
568.66	52811.85
568.83	53317.40
568.99	52818.87
569.15	52978.03
569.32	53207.40
569.48	52989.73
569.64	52893.77
569.81	52741.63
569.97	52828.23
570.13	53102.07
570.30	52846.96
570.46	53516.35
570.62	52898.45
570.78	52914.83
570.95	53165.27
571.11	53202.72
571.27	53263.57
571.43	52882.06
571.60	53095.05
571.76	53057.60
571.92	52875.04
572.09	53471.88
572.25	53523.37
572.41	53198.04
572.57	53385.28
572.74	53401.66
572.90	53282.30
573.06	53609.97
573.22	53104.41
573.38	53148.88
573.55	53268.25
573.71	53579.54
573.87	53160.59
574.03	53471.88
574.20	53364.21
574.36	53305.70
574.52	53579.54
574.68	53235.48
574.84	53502.31
575.01	53525.71
575.17	53865.09
575.33	53411.02
575.49	53595.93
575.65	53572.52
575.82	53584.22
575.98	53331.45
576.14	53518.69
576.30	53626.35
576.46	53420.39
576.62	53235.48
576.79	53602.95
576.95	52938.24
577.11	53591.25
577.27	53652.10
577.43	53455.50
577.59	53497.62
577.75	53490.60
577.92	53286.98
578.08	53497.62
578.24	53502.31
578.40	53656.78
578.56	53975.09
578.72	53172.29
578.88	53851.05
579.04	53914.24
579.21	53804.24
579.37	53701.25
579.53	53598.27
579.69	53338.47
579.85	53818.28
580.01	53591.25
580.17	53544.44
580.33	53504.65
580.49	53581.88
580.65	53928.28
580.82	53855.73
580.98	53701.25
581.14	53385.28
581.30	53701.25
581.46	53773.81
581.62	53673.16
581.78	53616.99
581.94	53844.02
582.10	53282.30
582.26	53738.70
582.42	53712.95
582.58	53680.19
582.74	53839.34
582.90	53867.43
583.06	53970.41
583.22	53659.12
583.38	53705.93
583.54	53361.87
583.70	53717.64
583.86	53909.56
584.02	53511.67
584.18	53722.32
584.34	53689.55
584.50	54145.95
584.66	53621.67
584.82	53701.25
584.98	53991.48
585.14	53666.14
585.30	53535.07
585.46	53586.57
585.62	53598.27
585.78	53853.39
585.94	53680.19
586.10	53808.92
586.26	53738.70
586.42	53876.79
586.58	54014.88
586.74	53595.93
586.90	53727.00
587.06	53497.62
587.22	53820.62
587.38	53970.41
587.54	54134.25
587.70	54152.97
587.86	53684.87
588.02	53928.28
588.18	53989.14
588.34	54057.01
588.49	54073.40
588.65	53734.02
588.81	53939.99
