SpectraSuite Data File
++++++++++++++++++++++++++++++++++++
Date: Thu Oct 24 13:21:46 EDT 2013
User: stostad
Dark Spectrum Present: No
Reference Spectrum Present: No
Number of Sampled Component Spectra: 1
Spectrometers: USB2+H05261
Integration Time (usec): 100000 (USB2+H05261)
Spectra Averaged: 1 (USB2+H05261)
Boxcar Smoothing: 0 (USB2+H05261)
Correct for Electrical Dark: No (USB2+H05261)
Strobe/Lamp Enabled: No (USB2+H05261)
Correct for Detector Non-linearity: No (USB2+H05261)
Correct for Stray Light: No (USB2+H05261)
Number of Pixels in Processed Spectrum: 2048
>>>>>Begin Processed Spectral Data<<<<<
365.73	681.10
365.92	681.10
366.12	681.10
366.32	552.37
366.52	561.73
366.72	561.73
366.91	496.19
367.11	552.37
367.31	533.64
367.51	610.88
367.70	512.58
367.90	524.28
368.10	533.64
368.30	547.69
368.49	606.20
368.69	596.84
368.89	592.16
369.09	491.51
369.28	592.16
369.48	566.41
369.68	533.64
369.87	620.24
370.07	582.79
370.27	634.29
370.47	938.55
370.66	1863.07
370.86	1898.17
371.06	2033.93
371.25	2026.90
371.45	1928.60
371.65	2033.93
371.84	2003.50
372.04	2176.70
372.24	2150.95
372.44	2073.71
372.63	2167.34
372.83	2251.60
373.03	2321.81
373.22	2162.66
373.42	2157.97
373.62	2354.58
373.81	2267.98
374.01	2375.64
374.21	2361.60
374.40	2324.15
374.60	2293.72
374.79	2366.28
374.99	2408.41
375.19	2422.45
375.38	2361.60
375.58	2401.39
375.78	2590.97
375.97	2504.37
376.17	2569.91
376.37	2511.39
376.56	2633.10
376.76	2597.99
376.95	2572.25
377.15	2525.44
377.35	2689.28
377.54	2731.41
377.74	2658.85
377.93	2616.72
378.13	2670.55
378.33	2661.19
378.52	2766.51
378.72	2754.81
378.91	2850.77
379.11	2801.62
379.31	2780.56
379.50	2822.69
379.70	2892.90
379.89	2923.33
380.09	2998.23
380.28	2892.90
380.48	2857.79
380.68	2836.73
380.87	2832.05
381.07	2890.56
381.26	3005.25
381.46	3035.67
381.65	3133.98
381.85	3129.30
382.04	3171.43
382.24	3159.72
382.43	3192.49
382.63	3143.34
382.83	3204.19
383.02	3236.96
383.22	3286.11
383.41	3180.79
383.61	3262.71
383.80	3351.65
384.00	3265.05
384.19	3447.61
384.39	3431.23
384.58	3492.08
384.78	3452.29
384.97	3449.95
385.17	3499.10
385.36	3435.91
385.56	3543.57
385.75	3492.08
385.95	3574.00
386.14	3655.92
386.34	3618.47
386.53	3705.07
386.72	3585.70
386.92	3698.05
387.11	3831.46
387.31	3726.13
387.50	3686.34
387.70	3854.86
387.89	3831.46
388.09	3789.33
388.28	3878.27
388.48	3901.67
388.67	4014.02
388.86	4159.13
389.06	3833.80
389.25	3915.72
389.45	4011.68
389.64	4077.21
389.84	4021.04
390.03	4184.88
390.22	4219.99
390.42	4060.83
390.61	4147.43
390.81	4222.33
391.00	4329.99
391.19	4212.96
391.39	4245.73
391.58	4301.90
391.78	4418.93
391.97	4458.72
392.16	4470.42
392.36	4491.49
392.55	4498.51
392.75	4578.09
392.94	4730.22
393.13	4685.75
393.33	4648.30
393.52	4690.43
393.71	4636.60
393.91	4762.99
394.10	4683.41
394.29	4732.56
394.49	4835.55
394.68	4910.44
394.88	4741.93
395.07	5018.11
395.26	4908.10
395.46	5071.94
395.65	5191.31
395.84	5104.71
396.04	5310.68
396.23	5226.42
396.42	5167.90
396.62	5348.12
396.81	5263.86
397.00	5153.86
397.19	5254.50
397.39	5373.87
397.58	5423.02
397.77	5420.68
397.97	5280.25
398.16	5404.30
398.35	5547.07
398.55	5582.18
398.74	5563.45
398.93	5621.97
399.12	5701.54
399.32	5706.23
399.51	5687.50
399.70	5809.21
399.90	5799.85
400.09	6022.20
400.28	6071.35
400.47	5963.68
400.67	6134.54
400.86	6125.18
401.05	5987.09
401.24	6218.80
401.44	6113.48
401.63	6258.59
401.82	6216.46
402.01	6305.40
402.21	6389.66
402.40	6356.90
402.59	6642.44
402.78	6410.73
402.97	6558.18
403.17	6649.46
403.36	6525.41
403.55	6675.21
403.74	6778.19
403.93	6974.80
404.13	6630.74
404.32	6885.86
404.51	6953.73
404.70	6906.92
404.89	6855.43
405.09	7140.97
405.28	7138.63
405.47	7234.60
405.66	7183.10
405.85	7054.37
406.05	7234.60
406.24	7138.63
406.43	7424.18
406.62	7510.78
406.81	7501.42
407.00	7283.75
407.20	7325.88
407.39	7356.30
407.58	7761.22
407.77	7651.21
407.96	7669.94
408.15	7779.94
408.34	7674.62
408.54	7826.75
408.73	7700.36
408.92	8002.29
409.11	7854.84
409.30	8067.83
409.49	8238.69
409.68	8088.89
409.87	8196.56
410.07	8526.57
410.26	8245.71
410.45	8308.90
410.64	8477.42
410.83	8662.32
411.02	8580.40
411.21	8706.79
411.40	8751.26
411.59	8985.32
411.78	8746.58
411.98	8870.63
412.17	9088.30
412.36	9327.03
412.55	9282.56
412.74	9394.91
412.93	9331.72
413.12	9125.75
413.31	9816.21
413.50	9455.76
413.69	9350.44
413.88	9736.63
414.07	9776.42
414.26	10097.07
414.45	10094.73
414.64	10106.43
414.83	10090.05
415.02	10127.50
415.22	10539.43
415.41	10682.20
415.60	10602.63
415.79	10572.20
415.98	10850.72
416.17	10913.92
416.36	10817.96
416.55	11009.88
416.74	11162.01
416.93	10832.00
417.12	11122.23
417.31	11290.74
417.50	11328.19
417.69	11382.03
417.88	11468.62
418.07	11613.74
418.26	11562.25
418.45	11683.95
418.64	12273.77
418.83	11995.25
419.02	12002.27
419.21	12273.77
419.39	11934.39
419.58	11936.73
419.77	11997.59
419.96	12152.06
420.15	12292.49
420.34	12521.87
420.53	12283.13
420.72	12638.89
420.91	12465.69
421.10	12704.43
421.29	13006.36
421.48	12659.96
421.67	12638.89
421.86	12856.56
422.05	12847.20
422.24	12908.05
422.43	12989.97
422.61	13130.41
422.80	13399.57
422.99	13186.58
423.18	13364.46
423.37	13256.79
423.56	13118.70
423.75	13212.32
423.94	13029.76
424.13	12313.56
424.32	12762.94
424.50	13221.69
424.69	13895.76
424.88	13802.14
425.07	13247.43
425.26	13256.79
425.45	13425.31
425.64	13289.56
425.83	13329.35
426.01	13518.93
426.20	13722.56
426.39	13650.00
426.58	13851.29
426.77	13600.85
426.96	13547.02
427.15	13998.74
427.33	14155.56
427.52	13926.19
427.71	14026.83
427.90	14239.82
428.09	14190.67
428.28	14190.67
428.46	14295.99
428.65	14125.13
428.84	14857.72
429.03	14878.79
429.22	14459.83
429.40	14726.65
429.59	14766.44
429.78	14251.52
429.97	14148.54
430.16	15103.48
430.34	15152.63
430.53	15225.18
430.72	15295.40
430.91	15213.48
431.10	15154.97
431.28	15557.54
431.47	15501.37
431.66	15667.55
431.85	15740.10
432.03	16051.39
432.22	16137.99
432.41	16044.37
432.60	15939.05
432.79	16004.58
432.97	16393.11
433.16	16203.53
433.35	16070.12
433.54	16304.17
433.72	16482.05
433.91	16643.55
434.10	16807.39
434.28	16563.97
434.47	16819.09
434.66	17006.33
434.85	16985.27
435.03	17235.70
435.22	17362.09
435.41	17507.21
435.59	17418.27
435.78	17495.50
435.97	17624.23
436.16	17532.95
436.34	17422.95
436.53	17898.08
436.72	18113.41
436.90	17376.14
437.09	17869.99
437.28	17446.35
437.46	18082.98
437.65	17923.82
437.84	18270.22
438.02	18185.96
438.21	18359.16
438.40	17912.12
438.58	18869.40
438.77	19199.41
438.96	18953.66
439.14	19396.02
439.33	19754.12
439.52	19704.97
439.70	19625.39
439.89	20020.94
440.08	20269.04
440.26	20025.62
440.45	19962.43
440.63	20400.11
440.82	20772.25
441.01	20318.19
441.19	20893.96
441.38	20690.34
441.57	20975.88
441.75	20947.79
441.94	21596.12
442.12	22059.55
442.31	22043.17
442.50	22075.93
442.68	21605.49
442.87	21858.26
443.05	22235.09
443.24	22302.96
443.43	22412.97
443.61	22150.83
443.80	22871.72
443.98	21879.33
444.17	21722.51
444.35	22354.46
444.54	22632.98
444.73	22787.46
444.91	22728.94
445.10	22888.10
445.28	23084.70
445.47	22757.03
445.65	22768.73
445.84	23166.62
446.02	23779.84
446.21	23087.04
446.39	22941.93
446.58	23344.50
446.77	23101.09
446.95	22597.87
447.14	23000.44
447.32	23428.76
447.51	23178.33
447.69	23091.73
447.88	23599.62
448.06	23403.02
448.25	23531.75
448.43	23342.16
448.62	23513.02
448.80	23363.23
448.99	23913.25
449.17	24191.78
449.36	23784.52
449.54	24290.08
449.73	24456.26
449.91	24442.21
450.10	24500.73
450.28	24594.35
450.46	24765.21
450.65	25003.94
450.83	25010.96
451.02	25163.10
451.20	25345.66
451.39	25015.65
451.57	25301.19
451.76	24737.12
451.94	25198.21
452.13	25804.41
452.31	25769.30
452.49	25439.28
452.68	26024.42
452.86	25628.87
453.05	25900.37
453.23	25755.26
453.42	25748.23
453.60	25806.75
453.78	26455.08
453.97	25621.84
454.15	26139.10
454.34	25865.26
454.52	26977.01
454.70	26801.47
454.89	26731.26
455.07	27042.55
455.26	27360.86
455.44	27414.69
455.62	27428.74
455.81	27529.38
455.99	27606.62
456.17	27639.39
456.36	28034.94
456.54	28325.16
456.73	28573.26
456.91	29029.66
457.09	28617.73
457.28	28793.27
457.46	28643.48
457.64	29219.25
457.83	29380.74
458.01	29048.39
458.19	29720.12
458.38	29352.66
458.56	29542.24
458.74	29549.26
458.93	29083.50
459.11	29558.63
459.29	29956.52
459.48	30244.40
459.66	29874.60
459.84	30153.12
460.03	30668.04
460.21	30646.97
460.39	30717.19
460.57	30656.34
460.76	30972.31
460.94	31150.19
461.12	31042.53
461.31	31339.77
461.49	31426.37
461.67	31318.71
461.85	31796.18
462.04	31477.86
462.22	32371.95
462.40	32306.41
462.59	31873.42
462.77	32205.77
462.95	32231.52
463.13	32404.72
463.32	32144.92
463.50	32531.11
463.68	32662.18
463.86	32999.21
464.05	32283.01
464.23	32397.70
464.41	33015.60
464.59	32563.87
464.78	34115.65
464.96	32943.04
465.14	32486.64
465.32	33429.87
465.50	33329.23
465.69	33675.63
465.87	33649.88
466.05	33469.66
466.23	33890.96
466.41	34057.14
466.60	34340.34
466.78	33975.22
466.96	34007.98
467.14	34103.95
467.32	34668.02
467.51	35175.91
467.69	33897.98
467.87	34574.39
468.05	34934.84
468.23	34504.18
468.41	34494.82
468.60	35178.25
468.78	35686.15
468.96	35395.92
469.14	35587.85
469.32	35910.84
469.50	34827.17
469.69	36287.67
469.87	36692.58
470.05	36601.30
470.23	36830.67
470.41	36503.00
470.59	36940.68
470.77	36727.69
470.95	36762.79
471.14	37881.57
471.32	36884.50
471.50	37848.80
471.68	37680.28
471.86	37834.76
472.04	38391.81
472.22	39100.99
472.40	38134.35
472.58	38562.67
472.77	38759.27
472.95	39533.99
473.13	40308.71
473.31	39220.36
473.49	39917.84
473.67	39510.58
473.85	39735.27
474.03	40280.62
474.21	40514.67
474.39	40774.47
474.57	40758.09
474.75	41265.99
474.93	41549.19
475.12	41493.02
475.30	41523.44
475.48	41574.94
475.66	42017.30
475.84	42368.38
476.02	42611.79
476.20	42766.27
476.38	43351.40
476.56	44252.51
476.74	44161.23
476.92	43838.23
477.10	43786.74
477.28	45041.27
477.46	44795.51
477.64	45242.56
477.82	45724.71
478.00	46689.01
478.18	46527.51
478.36	46485.38
478.54	47178.18
478.72	47143.07
478.90	47627.56
479.08	48306.32
479.26	48624.63
479.44	49088.06
479.62	48839.96
479.80	48903.15
479.98	49687.23
480.16	50457.27
480.34	50066.40
480.52	50553.23
480.70	50555.57
480.88	50487.70
481.06	50885.59
481.24	50880.91
481.41	50841.12
481.59	52114.37
481.77	52257.14
481.95	52411.62
482.13	53153.57
482.31	52662.05
482.49	53799.55
482.67	53511.67
482.85	53710.61
483.03	54089.78
483.21	54401.07
483.39	54660.87
483.57	54639.81
483.74	54735.77
483.92	55138.34
484.10	55192.17
484.28	55742.20
484.46	55976.25
484.64	56481.81
484.82	56025.40
485.00	56481.81
485.18	57106.73
485.35	57291.63
485.53	57612.29
485.71	57492.92
485.89	57996.13
486.07	57776.12
486.25	57972.73
486.43	58305.09
486.61	58590.63
486.78	58525.10
486.96	59002.56
487.14	59318.54
487.32	59124.27
487.50	59487.06
487.68	59763.24
487.85	60107.30
488.03	60158.79
488.21	60383.48
488.39	60615.19
488.57	60594.13
488.75	60945.21
488.92	61043.51
489.10	61235.44
489.28	61425.02
489.46	61766.74
489.64	61715.25
489.81	62319.10
489.99	62185.69
490.17	62370.60
490.35	62571.88
490.53	62712.31
490.70	62908.92
490.88	62639.76
491.06	63257.66
491.24	63138.29
491.41	63477.67
491.59	63695.34
491.77	63819.39
491.95	64137.70
492.13	63941.10
492.30	64247.71
492.48	64062.80
492.66	64385.80
492.84	64617.51
493.01	64802.41
493.19	64814.12
493.37	65092.64
493.54	65094.98
493.72	65375.84
493.90	65354.78
494.08	65497.55
494.25	65535.00
494.43	65535.00
494.61	65535.00
494.79	65535.00
494.96	65535.00
495.14	65535.00
495.32	65535.00
495.49	65535.00
495.67	65535.00
495.85	65535.00
496.02	65535.00
496.20	65535.00
496.38	65535.00
496.55	65535.00
496.73	65535.00
496.91	65535.00
497.09	65535.00
497.26	65535.00
497.44	65535.00
497.62	65535.00
497.79	65535.00
497.97	65535.00
498.14	65535.00
498.32	65535.00
498.50	65535.00
498.67	65535.00
498.85	65535.00
499.03	65535.00
499.20	65535.00
499.38	65535.00
499.56	65535.00
499.73	65535.00
499.91	65535.00
500.08	65535.00
500.26	65535.00
500.44	65535.00
500.61	65535.00
500.79	65535.00
500.97	65535.00
501.14	65535.00
501.32	65535.00
501.49	65535.00
501.67	65535.00
501.84	65535.00
502.02	65535.00
502.20	65535.00
502.37	65535.00
502.55	65535.00
502.72	65535.00
502.90	65535.00
503.07	65535.00
503.25	65535.00
503.43	65535.00
503.60	65535.00
503.78	65535.00
503.95	65535.00
504.13	65535.00
504.30	65535.00
504.48	65535.00
504.65	65535.00
504.83	65535.00
505.01	65535.00
505.18	65535.00
505.36	65535.00
505.53	65535.00
505.71	65535.00
505.88	65535.00
506.06	65535.00
506.23	65535.00
506.41	65535.00
506.58	65535.00
506.76	65535.00
506.93	65535.00
507.11	65535.00
507.28	65535.00
507.46	65535.00
507.63	65535.00
507.81	65535.00
507.98	65535.00
508.16	65535.00
508.33	65535.00
508.50	65535.00
508.68	65535.00
508.85	65535.00
509.03	65535.00
509.20	65535.00
509.38	65535.00
509.55	65535.00
509.73	65535.00
509.90	65535.00
510.08	65535.00
510.25	65535.00
510.42	65535.00
510.60	65535.00
510.77	65535.00
510.95	65535.00
511.12	65535.00
511.30	65535.00
511.47	65535.00
511.64	65535.00
511.82	65535.00
511.99	65535.00
512.17	65535.00
512.34	65535.00
512.51	65535.00
512.69	65535.00
512.86	65535.00
513.04	65535.00
513.21	65535.00
513.38	65535.00
513.56	65535.00
513.73	65535.00
513.90	65535.00
514.08	65535.00
514.25	65535.00
514.43	65535.00
514.60	65535.00
514.77	65535.00
514.95	65535.00
515.12	65535.00
515.29	65535.00
515.47	65535.00
515.64	65535.00
515.81	65535.00
515.99	65535.00
516.16	65535.00
516.33	65535.00
516.51	65535.00
516.68	65535.00
516.85	65535.00
517.03	65535.00
517.20	65535.00
517.37	65535.00
517.54	65535.00
517.72	65535.00
517.89	65535.00
518.06	65535.00
518.24	65535.00
518.41	65535.00
518.58	65535.00
518.75	65535.00
518.93	65535.00
519.10	65535.00
519.27	65535.00
519.45	65535.00
519.62	65535.00
519.79	65535.00
519.96	65535.00
520.14	65535.00
520.31	65535.00
520.48	65535.00
520.65	65535.00
520.83	65535.00
521.00	65535.00
521.17	65535.00
521.34	65535.00
521.52	65535.00
521.69	65535.00
521.86	65535.00
522.03	65535.00
522.20	65535.00
522.38	65535.00
522.55	65535.00
522.72	65535.00
522.89	65535.00
523.07	65535.00
523.24	65535.00
523.41	65535.00
523.58	65535.00
523.75	65535.00
523.92	65535.00
524.10	65535.00
524.27	65535.00
524.44	65535.00
524.61	65535.00
524.78	65535.00
524.96	65535.00
525.13	65535.00
525.30	65535.00
525.47	65535.00
525.64	65535.00
525.81	65535.00
525.98	65535.00
526.16	65535.00
526.33	65535.00
526.50	65535.00
526.67	65535.00
526.84	65535.00
527.01	65535.00
527.18	65535.00
527.36	65535.00
527.53	65535.00
527.70	65535.00
527.87	65535.00
528.04	65535.00
528.21	65535.00
528.38	65535.00
528.55	65535.00
528.72	65535.00
528.89	65535.00
529.07	65535.00
529.24	65535.00
529.41	65535.00
529.58	65535.00
529.75	65535.00
529.92	65535.00
530.09	65535.00
530.26	65535.00
530.43	65535.00
530.60	65535.00
530.77	65535.00
530.94	65535.00
531.11	65535.00
531.28	65535.00
531.46	65535.00
531.63	65535.00
531.80	65535.00
531.97	65535.00
532.14	65535.00
532.31	65535.00
532.48	65535.00
532.65	65535.00
532.82	65535.00
532.99	65535.00
533.16	65535.00
533.33	65535.00
533.50	65535.00
533.67	65535.00
533.84	65535.00
534.01	65535.00
534.18	65535.00
534.35	65535.00
534.52	65535.00
534.69	65535.00
534.86	65535.00
535.03	65535.00
535.20	65535.00
535.37	65535.00
535.54	65535.00
535.71	65535.00
535.88	65535.00
536.05	65535.00
536.22	65535.00
536.38	65535.00
536.55	65535.00
536.72	65535.00
536.89	65535.00
537.06	65535.00
537.23	65535.00
537.40	65535.00
537.57	65535.00
537.74	65535.00
537.91	65535.00
538.08	65535.00
538.25	65535.00
538.42	65535.00
538.59	65535.00
538.75	65535.00
538.92	65535.00
539.09	65535.00
539.26	65535.00
539.43	65535.00
539.60	65535.00
539.77	65535.00
539.94	65535.00
540.11	65535.00
540.28	65535.00
540.44	65535.00
540.61	65535.00
540.78	65535.00
540.95	65535.00
541.12	65535.00
541.29	65535.00
541.46	65535.00
541.62	65535.00
541.79	65535.00
541.96	65535.00
542.13	65535.00
542.30	65535.00
542.47	65535.00
542.63	65535.00
542.80	65535.00
542.97	65535.00
543.14	65535.00
543.31	65535.00
543.48	65535.00
543.64	65535.00
543.81	65535.00
543.98	65535.00
544.15	65535.00
544.32	65535.00
544.48	65535.00
544.65	65535.00
544.82	65535.00
544.99	65535.00
545.16	65535.00
545.32	65535.00
545.49	65535.00
545.66	65535.00
545.83	65535.00
546.00	65535.00
546.16	65535.00
546.33	65535.00
546.50	65535.00
546.67	65535.00
546.83	65535.00
547.00	65535.00
547.17	65535.00
547.34	65535.00
547.50	65535.00
547.67	65535.00
547.84	65535.00
548.00	65535.00
548.17	65535.00
548.34	65535.00
548.51	65535.00
548.67	65535.00
548.84	65535.00
549.01	65535.00
549.18	65535.00
549.34	65535.00
549.51	65535.00
549.68	65535.00
549.84	65535.00
550.01	65535.00
550.18	65535.00
550.34	65535.00
550.51	65535.00
550.68	65535.00
550.84	65535.00
551.01	65535.00
551.18	65535.00
551.34	65535.00
551.51	65535.00
551.68	65535.00
551.84	65535.00
552.01	65535.00
552.18	65535.00
552.34	65535.00
552.51	65535.00
552.68	65535.00
552.84	65535.00
553.01	65535.00
553.18	65535.00
553.34	65535.00
553.51	65535.00
553.67	65535.00
553.84	65535.00
554.01	65535.00
554.17	65535.00
554.34	65535.00
554.51	65535.00
554.67	65535.00
554.84	65535.00
555.00	65535.00
555.17	65535.00
555.33	65535.00
555.50	65535.00
555.67	65535.00
555.83	65535.00
556.00	65535.00
556.16	65535.00
556.33	65535.00
556.50	65535.00
556.66	65535.00
556.83	65535.00
556.99	65535.00
557.16	65535.00
557.32	65535.00
557.49	65535.00
557.65	65535.00
557.82	65535.00
557.98	65535.00
558.15	65535.00
558.32	65535.00
558.48	65535.00
558.65	65535.00
558.81	65535.00
558.98	65535.00
559.14	65535.00
559.31	65535.00
559.47	65535.00
559.64	65535.00
559.80	65535.00
559.97	65535.00
560.13	65535.00
560.30	65535.00
560.46	65535.00
560.63	65535.00
560.79	65535.00
560.96	65535.00
561.12	65535.00
561.29	65535.00
561.45	65535.00
561.61	65535.00
561.78	65535.00
561.94	65535.00
562.11	65535.00
562.27	65535.00
562.44	65535.00
562.60	65535.00
562.77	65535.00
562.93	65535.00
563.10	65535.00
563.26	65535.00
563.42	65535.00
563.59	65535.00
563.75	65535.00
563.92	65535.00
564.08	65535.00
564.24	65535.00
564.41	65535.00
564.57	65535.00
564.74	65535.00
564.90	65535.00
565.07	65535.00
565.23	65535.00
565.39	65535.00
565.56	65535.00
565.72	65535.00
565.88	65535.00
566.05	65535.00
566.21	65535.00
566.38	65535.00
566.54	65535.00
566.70	65535.00
566.87	65535.00
567.03	65535.00
567.19	65535.00
567.36	65535.00
567.52	65535.00
567.68	65535.00
567.85	65535.00
568.01	65535.00
568.17	65535.00
568.34	65535.00
568.50	65535.00
568.66	65535.00
568.83	65535.00
568.99	65535.00
569.15	65535.00
569.32	65535.00
569.48	65535.00
569.64	65535.00
569.81	65535.00
569.97	65535.00
570.13	65535.00
570.30	65535.00
570.46	65535.00
570.62	65535.00
570.78	65535.00
570.95	65535.00
571.11	65535.00
571.27	65535.00
571.43	65535.00
571.60	65535.00
571.76	65535.00
571.92	65535.00
572.09	65535.00
572.25	65535.00
572.41	65535.00
572.57	65535.00
572.74	65535.00
572.90	65535.00
573.06	65535.00
573.22	65535.00
573.38	65535.00
573.55	65535.00
573.71	65535.00
573.87	65535.00
574.03	65535.00
574.20	65535.00
574.36	65535.00
574.52	65535.00
574.68	65535.00
574.84	65535.00
575.01	65535.00
575.17	65535.00
575.33	65535.00
575.49	65535.00
575.65	65535.00
575.82	65535.00
575.98	65535.00
576.14	65535.00
576.30	65535.00
576.46	65535.00
576.62	65535.00
576.79	65535.00
576.95	65535.00
577.11	65535.00
577.27	65535.00
577.43	65535.00
577.59	65535.00
577.75	65535.00
577.92	65535.00
578.08	65535.00
578.24	65535.00
578.40	65535.00
578.56	65535.00
578.72	65535.00
578.88	65535.00
579.04	65535.00
579.21	65535.00
579.37	65535.00
579.53	65535.00
579.69	65535.00
579.85	65535.00
580.01	65535.00
580.17	65535.00
580.33	65535.00
580.49	65535.00
580.65	65535.00
580.82	65535.00
580.98	65535.00
581.14	65535.00
581.30	65535.00
581.46	65535.00
581.62	65535.00
581.78	65535.00
581.94	65535.00
582.10	65535.00
582.26	65535.00
582.42	65535.00
582.58	65535.00
582.74	65535.00
582.90	65535.00
583.06	65535.00
583.22	65535.00
583.38	65535.00
583.54	65535.00
583.70	65535.00
583.86	65535.00
584.02	65535.00
584.18	65535.00
584.34	65535.00
584.50	65535.00
584.66	65535.00
584.82	65535.00
584.98	65535.00
585.14	65535.00
585.30	65535.00
585.46	65535.00
585.62	65535.00
585.78	65535.00
