SpectraSuite Data File
++++++++++++++++++++++++++++++++++++
Date: Thu Oct 24 13:21:31 EDT 2013
User: stostad
Dark Spectrum Present: No
Reference Spectrum Present: No
Number of Sampled Component Spectra: 1
Spectrometers: USB2+H05261
Integration Time (usec): 100000 (USB2+H05261)
Spectra Averaged: 1 (USB2+H05261)
Boxcar Smoothing: 0 (USB2+H05261)
Correct for Electrical Dark: No (USB2+H05261)
Strobe/Lamp Enabled: No (USB2+H05261)
Correct for Detector Non-linearity: No (USB2+H05261)
Correct for Stray Light: No (USB2+H05261)
Number of Pixels in Processed Spectrum: 2048
>>>>>Begin Processed Spectral Data<<<<<
365.73	571.09
365.92	571.09
366.12	571.09
366.32	465.77
366.52	461.09
366.72	461.09
366.91	465.77
367.11	531.30
367.31	498.53
367.51	505.56
367.70	444.70
367.90	477.47
368.10	428.32
368.30	477.47
368.49	458.74
368.69	540.66
368.89	472.79
369.09	486.83
369.28	538.32
369.48	433.00
369.68	545.34
369.87	472.79
370.07	503.22
370.27	517.26
370.47	725.57
370.66	1060.26
370.86	1090.69
371.06	1071.97
371.25	1123.46
371.45	1093.03
371.65	1235.80
371.84	1153.88
372.04	1144.52
372.24	1233.46
372.44	1160.91
372.63	1261.55
372.83	1256.87
373.03	1214.74
373.22	1289.64
373.42	1156.22
373.62	1416.02
373.81	1191.33
374.01	1336.45
374.21	1324.74
374.40	1348.15
374.60	1287.29
374.79	1352.83
374.99	1224.10
375.19	1327.08
375.38	1409.00
375.58	1362.19
375.78	1352.83
375.97	1362.19
376.17	1434.75
376.37	1380.92
376.56	1373.89
376.76	1439.43
376.95	1362.19
377.15	1476.88
377.35	1509.65
377.54	1486.24
377.74	1453.47
377.93	1451.13
378.13	1455.81
378.33	1528.37
378.52	1514.33
378.72	1509.65
378.91	1551.78
379.11	1444.11
379.31	1535.39
379.50	1493.26
379.70	1612.63
379.89	1554.12
380.09	1497.94
380.28	1561.14
380.48	1533.05
380.68	1636.03
380.87	1551.78
381.07	1493.26
381.26	1605.61
381.46	1661.78
381.65	1619.65
381.85	1577.52
382.04	1621.99
382.24	1671.14
382.43	1748.38
382.63	1671.14
382.83	1778.81
383.02	1706.25
383.22	1774.13
383.41	1650.08
383.61	1668.80
383.80	1741.36
384.00	1792.85
384.19	1809.23
384.39	1884.13
384.58	1790.51
384.78	1785.83
384.97	1818.60
385.17	1769.44
385.36	1771.79
385.56	1811.57
385.75	1790.51
385.95	1739.02
386.14	1870.09
386.34	1870.09
386.53	1853.70
386.72	1818.60
386.92	1930.94
387.11	1914.56
387.31	1849.02
387.50	1842.00
387.70	1937.96
387.89	1923.92
388.09	1926.26
388.28	2022.22
388.48	1902.86
388.67	1900.52
388.86	2076.06
389.06	2050.31
389.25	2047.97
389.45	2139.25
389.64	2078.40
389.84	2052.65
390.03	2010.52
390.22	2134.57
390.42	2036.27
390.61	2146.27
390.81	2132.23
391.00	2092.44
391.19	2157.97
391.39	2225.85
391.58	2270.32
391.78	2153.29
391.97	2186.06
392.16	2181.38
392.36	2272.66
392.55	2265.64
392.75	2188.40
392.94	2260.96
393.13	2303.09
393.33	2263.30
393.52	2352.24
393.71	2448.20
393.91	2431.82
394.10	2427.14
394.29	2359.26
394.49	2387.35
394.68	2509.05
394.88	2331.17
395.07	2480.97
395.26	2502.03
395.46	2539.48
395.65	2471.61
395.84	2516.08
396.04	2626.08
396.23	2644.81
396.42	2593.31
396.62	2471.61
396.81	2609.70
397.00	2605.02
397.19	2560.55
397.39	2733.75
397.58	2794.60
397.77	2656.51
397.97	2708.00
398.16	2752.47
398.35	2775.88
398.55	2768.85
398.74	2710.34
398.93	2904.60
399.12	2813.32
399.32	2867.16
399.51	2834.39
399.70	2871.84
399.90	2965.46
400.09	2890.56
400.28	2946.73
400.47	2806.30
400.67	3009.93
400.86	2974.82
401.05	2974.82
401.24	3012.27
401.44	3108.23
401.63	3047.38
401.82	3215.90
402.01	3075.46
402.21	2970.14
402.40	3141.00
402.59	3122.27
402.78	3325.90
402.97	3197.17
403.17	3239.30
403.36	3309.52
403.55	3339.94
403.74	3456.97
403.93	3417.18
404.13	3353.99
404.32	3407.82
404.51	3342.28
404.70	3471.01
404.89	3424.20
405.09	3513.14
405.28	3606.77
405.47	3449.95
405.66	3478.04
405.85	3562.30
406.05	3541.23
406.24	3581.02
406.43	3599.74
406.62	3555.27
406.81	3665.28
407.00	3559.95
407.20	3620.81
407.39	3691.02
407.58	3613.79
407.77	3803.37
407.96	3756.56
408.15	3880.61
408.34	3847.84
408.54	3918.06
408.73	3929.76
408.92	3941.46
409.11	3918.06
409.30	4105.30
409.49	4060.83
409.68	4128.70
409.87	4163.81
410.07	4217.65
410.26	4142.75
410.45	4173.18
410.64	4196.58
410.83	4231.69
411.02	4205.94
411.21	4301.90
411.40	4238.71
411.59	4379.14
411.78	4376.80
411.98	4454.04
412.17	4503.19
412.36	4510.21
412.55	4318.29
412.74	4589.79
412.93	4732.56
413.12	4531.28
413.31	4880.02
413.50	4746.61
413.69	4660.01
413.88	4933.85
414.07	4798.10
414.26	4908.10
414.45	4929.17
414.64	4980.66
414.83	5100.03
415.02	5139.82
415.22	5238.12
415.41	5238.12
415.60	5156.20
415.79	5320.04
415.98	5327.06
416.17	5518.98
416.36	5247.48
416.55	5329.40
416.74	5582.18
416.93	5526.00
417.12	5603.24
417.31	5661.76
417.50	5540.05
417.69	5738.99
417.88	5650.05
418.07	5694.52
418.26	5860.70
418.45	5661.76
418.64	5912.19
418.83	5846.66
419.02	5919.21
419.21	5907.51
419.39	5928.58
419.58	5919.21
419.77	5961.34
419.96	6033.90
420.15	6069.01
420.34	6054.97
420.53	6143.91
420.72	6115.82
420.91	6162.63
421.10	6167.31
421.29	6244.55
421.48	6038.58
421.67	6258.59
421.86	6188.38
422.05	6384.98
422.24	6359.24
422.43	6335.83
422.61	6523.07
422.80	6663.51
422.99	6265.61
423.18	6443.49
423.37	6537.12
423.56	6459.88
423.75	6282.00
423.94	6438.81
424.13	6003.47
424.32	6380.30
424.50	6558.18
424.69	6773.51
424.88	6796.92
425.07	6609.67
425.26	6532.44
425.45	6473.92
425.64	6541.80
425.83	6548.82
426.01	6516.05
426.20	6733.72
426.39	6778.19
426.58	6715.00
426.77	6628.40
426.96	6754.79
427.15	6689.25
427.33	6981.82
427.52	6663.51
427.71	6953.73
427.90	6937.35
428.09	6977.14
428.28	7140.97
428.46	6904.58
428.65	6899.90
428.84	7265.02
429.03	7368.01
429.22	6897.56
429.40	7232.26
429.59	7068.42
429.78	7016.93
429.97	6916.28
430.16	7119.91
430.34	7318.86
430.53	7307.15
430.72	7218.21
430.91	7403.11
431.10	7248.64
431.28	7482.69
431.47	7646.53
431.66	7826.75
431.85	7342.26
432.03	7772.92
432.22	7988.25
432.41	7595.04
432.60	7815.05
432.79	7840.79
432.97	7819.73
433.16	7786.96
433.35	7742.49
433.54	7786.96
433.72	7906.33
433.91	7946.12
434.10	7971.86
434.28	7777.60
434.47	7892.29
434.66	8236.35
434.85	8334.65
435.03	8311.24
435.22	8451.67
435.41	8617.85
435.59	8484.44
435.78	8552.32
435.97	8461.04
436.16	8505.51
436.34	8486.78
436.53	8404.86
436.72	8624.87
436.90	8512.53
437.09	8795.73
437.28	8198.90
437.46	8531.25
437.65	8643.60
437.84	8671.68
438.02	8774.67
438.21	8751.26
438.40	8709.13
438.58	9121.07
438.77	9067.24
438.96	8964.25
439.14	9102.34
439.33	9275.54
439.52	9348.10
439.70	9411.29
439.89	9666.41
440.08	9624.28
440.26	9701.52
440.45	9554.07
440.63	9624.28
440.82	10050.26
441.01	9858.34
441.19	9750.67
441.38	10129.84
441.57	9998.77
441.75	10038.56
441.94	10272.61
442.12	10342.83
442.31	10251.55
442.50	10558.16
442.68	10317.08
442.87	10401.34
443.05	10448.15
443.24	10764.12
443.43	10637.73
443.61	10567.52
443.80	10860.09
443.98	10216.44
444.17	10230.48
444.35	10642.42
444.54	10869.45
444.73	10623.69
444.91	10710.29
445.10	11040.31
445.28	10841.36
445.47	10579.22
445.65	10871.79
445.84	10789.87
446.02	10918.60
446.21	10946.69
446.39	10712.63
446.58	10864.77
446.77	10932.64
446.95	10693.91
447.14	10916.26
447.32	11026.26
447.51	10850.72
447.69	10876.47
447.88	11096.48
448.06	10967.75
448.25	11190.10
448.43	11061.37
448.62	11178.40
448.80	11147.97
448.99	11063.71
449.17	11325.85
449.36	11171.38
449.54	11400.75
449.73	11323.51
449.91	11559.91
450.10	11534.16
450.28	11609.06
450.46	11653.53
450.65	11571.61
450.83	11573.95
451.02	11618.42
451.20	11864.18
451.39	11798.64
451.57	11908.65
451.76	11728.42
451.94	11932.05
452.13	11913.33
452.31	11932.05
452.49	11875.88
452.68	12283.13
452.86	12138.02
453.05	11964.82
453.23	12109.93
453.42	12114.61
453.60	12126.32
453.78	12250.36
453.97	12159.08
454.15	12177.81
454.34	12032.69
454.52	12533.57
454.70	12613.15
454.89	12432.93
455.07	12559.31
455.26	12751.24
455.44	12704.43
455.62	12751.24
455.81	12877.63
455.99	12826.14
456.17	12989.97
456.36	12901.03
456.54	13153.81
456.73	13186.58
456.91	13537.66
457.09	13315.31
457.28	13465.10
457.46	13156.15
457.64	13645.32
457.83	13294.24
458.01	13472.12
458.19	13825.54
458.38	13792.78
458.56	13970.66
458.74	13565.74
458.93	13942.57
459.11	13951.93
459.29	13755.33
459.48	13923.85
459.66	13944.91
459.84	14061.94
460.03	14303.01
460.21	14279.61
460.39	14104.07
460.57	14143.86
460.76	14167.26
460.94	14197.69
461.12	14574.52
461.31	14340.46
461.49	14303.01
461.67	14331.10
461.85	14923.26
462.04	14520.68
462.22	14972.41
462.40	15033.26
462.59	14839.00
462.77	14518.34
462.95	15075.39
463.13	14890.49
463.32	15096.46
463.50	15318.81
463.68	14939.64
463.86	15110.50
464.05	14808.57
464.23	14717.29
464.41	15372.64
464.59	15084.75
464.78	15751.81
464.96	15592.65
465.14	15180.71
465.32	15487.32
465.50	15559.88
465.69	15667.55
465.87	15669.89
466.05	15714.36
466.23	15599.67
466.41	15683.93
466.60	15910.96
466.78	15428.81
466.96	15662.86
467.14	16023.31
467.32	16100.55
467.51	16205.87
467.69	15789.25
467.87	16011.60
468.05	16187.14
468.23	16032.67
468.41	16386.09
468.60	16142.67
468.78	16421.20
468.96	16273.74
469.14	16386.09
469.32	16730.15
469.50	16381.41
469.69	16587.38
469.87	16706.74
470.05	17050.80
470.23	16996.97
470.41	16975.91
470.59	17121.02
470.77	16821.43
470.95	16959.52
471.14	17238.05
471.32	16868.24
471.50	17308.26
471.68	17542.32
471.86	17338.69
472.04	17664.02
472.22	17954.25
472.40	17600.83
472.58	17685.09
472.77	18040.85
472.95	18272.56
473.13	18431.72
473.31	17827.86
473.49	18338.10
473.67	17996.38
473.85	18265.54
474.03	18845.99
474.21	18829.61
474.39	18787.48
474.57	19066.00
474.75	19194.73
474.93	19611.35
475.12	19143.24
475.30	19431.13
475.48	19328.14
475.66	19548.15
475.84	19393.68
476.02	19819.66
476.20	19597.31
476.38	20009.24
476.56	20404.79
476.74	20325.21
476.92	20154.35
477.10	20154.35
477.28	20833.11
477.46	20910.35
477.64	20982.90
477.82	21296.53
478.00	21907.41
478.18	21451.01
478.36	21626.55
478.54	21928.48
478.72	22356.80
478.90	22466.80
479.08	22389.56
479.26	22705.54
479.44	22565.10
479.62	22848.31
479.80	23152.58
479.98	23084.70
480.16	23948.36
480.34	23887.51
480.52	23744.73
480.70	23674.52
480.88	23651.11
481.06	24107.52
481.24	24034.96
481.41	24409.45
481.59	24748.82
481.77	25343.32
481.95	24847.13
482.13	25209.91
482.31	25102.25
482.49	25935.48
482.67	26024.42
482.85	26068.89
483.03	26316.98
483.21	26986.38
483.39	26808.50
483.57	26492.52
483.74	27281.28
483.92	27395.97
484.10	27201.71
484.28	27831.31
484.46	28580.28
484.64	28566.24
484.82	28266.65
485.00	28755.82
485.18	29020.30
485.35	29544.58
485.53	29228.61
485.71	29549.26
485.89	30110.99
486.07	29895.66
486.25	29881.62
486.43	30120.35
486.61	30817.83
486.78	30745.28
486.96	31129.12
487.14	31175.94
487.32	31683.83
487.50	31913.20
487.68	31721.28
487.85	32290.03
488.03	32809.63
488.21	33244.97
488.39	33338.59
488.57	33333.91
488.75	33656.90
488.92	33603.07
489.10	34129.69
489.28	34309.91
489.46	34763.98
489.64	34827.17
489.81	35321.02
489.99	35154.85
490.17	35370.18
490.35	36006.80
490.53	36133.19
490.70	36112.13
490.88	36297.03
491.06	36828.33
491.24	36336.82
491.41	37256.65
491.59	37535.17
491.77	37303.46
491.95	37591.34
492.13	38014.98
492.30	38183.50
492.48	38422.23
492.66	38520.54
492.84	38719.48
493.01	39133.76
493.19	38974.60
493.37	39665.06
493.54	39576.12
493.72	39889.75
493.90	40081.67
494.08	40343.81
494.25	40825.96
494.43	40882.14
494.61	40758.09
494.79	40856.39
494.96	41141.94
495.14	41504.72
495.32	41570.25
495.49	42024.32
495.67	42438.59
495.85	42799.04
496.02	42616.47
496.20	42684.35
496.38	43077.56
496.55	43356.08
496.73	44409.32
496.91	43545.67
497.09	44004.41
497.26	44088.67
497.44	43627.59
497.62	44156.55
497.79	45099.78
497.97	44715.93
498.14	45773.86
498.32	46026.63
498.50	45727.05
498.67	45865.14
498.85	45581.93
499.03	46316.86
499.20	46213.88
499.38	46394.10
499.56	46225.58
499.73	46925.40
499.91	47159.45
500.08	47147.75
500.26	46906.68
500.44	47547.98
500.61	47679.05
500.79	47702.46
500.97	47686.07
501.14	48385.89
501.32	48250.14
501.49	48339.08
501.67	48526.33
501.84	48542.71
502.02	48612.93
502.20	49275.30
502.37	48437.39
502.55	49132.53
502.72	49092.74
502.90	49202.74
503.07	49195.72
503.25	49291.68
503.43	49453.18
503.60	50206.83
503.78	49848.73
503.95	49652.12
504.13	49801.92
504.30	50375.35
504.48	50108.53
504.65	50761.54
504.83	50824.73
505.01	50899.63
505.18	51016.66
505.36	51290.50
505.53	50768.56
505.71	51372.42
505.88	51388.80
506.06	51407.53
506.23	51735.20
506.41	51629.88
506.58	51611.15
506.76	51810.10
506.93	52065.22
507.11	52060.54
507.28	52243.10
507.46	52458.43
507.63	52317.99
507.81	52477.15
507.98	52430.34
508.16	52624.60
508.33	52678.44
508.50	52807.17
508.68	52912.49
508.85	53214.42
509.03	53050.58
509.20	53073.99
509.38	53773.81
509.55	53621.67
509.73	53769.13
509.90	53773.81
510.08	53841.68
510.25	53860.41
510.42	53923.60
510.60	54007.86
510.77	54096.80
510.95	54246.60
511.12	54321.49
511.30	54127.23
511.47	54677.25
511.64	54719.38
511.82	54712.36
511.99	54791.94
512.17	54880.88
512.34	54714.70
512.51	55306.86
512.69	55356.01
512.86	55196.85
513.04	55363.03
513.21	55468.36
513.38	55473.04
513.56	55402.82
513.73	55407.50
513.90	55957.53
514.08	55381.76
514.25	55985.61
514.43	55884.97
514.60	56065.19
514.77	55721.13
514.95	55924.76
515.12	55966.89
515.29	55959.87
515.47	56673.73
515.64	56645.65
515.81	56409.25
515.99	56533.30
516.16	56470.11
516.33	56545.00
516.51	56844.59
516.68	56851.61
516.85	56863.32
517.03	57085.67
517.20	56877.36
517.37	56893.74
517.54	56996.73
517.72	56872.68
517.89	57080.98
518.06	57270.57
518.24	57350.15
518.41	57176.95
518.58	57240.14
518.75	57312.70
518.93	57301.00
519.10	57401.64
519.27	57612.29
519.45	57759.74
519.62	57815.91
519.79	57769.10
519.96	57984.43
520.14	57790.17
520.31	57748.04
520.48	57951.66
520.65	57911.88
520.83	58178.70
521.00	58529.78
521.17	58232.53
521.34	58422.11
521.52	58429.13
521.69	58480.63
521.86	58342.53
522.03	58457.22
522.20	58482.97
522.38	58897.24
522.55	58993.20
522.72	58894.90
522.89	58726.38
523.07	58805.96
523.24	58717.02
523.41	58934.69
523.58	58808.30
523.75	59114.91
523.92	58944.05
524.10	59079.80
524.27	59178.10
524.44	59334.92
524.61	59611.10
524.78	59583.02
524.96	59320.88
525.13	59576.00
525.30	59711.75
525.47	59688.34
525.64	59681.32
525.81	59664.94
525.98	59690.68
526.16	59702.38
526.33	59707.07
526.50	60130.70
526.67	60055.81
526.84	60266.45
527.01	59896.65
527.18	60111.98
527.36	60236.03
527.53	60069.85
527.70	60271.14
527.87	60374.12
528.04	60097.94
528.21	60493.49
528.38	60580.09
528.55	60521.57
528.72	60282.84
528.89	60491.15
529.07	60392.84
529.24	60493.49
529.41	60708.82
529.58	60556.68
529.75	60537.96
529.92	60650.30
530.09	61017.77
530.26	60662.00
530.43	60846.91
530.60	60662.00
530.77	60772.01
530.94	61137.13
531.11	61127.77
531.28	61141.81
531.46	60963.93
531.63	60996.70
531.80	60959.25
531.97	61270.54
532.14	61387.57
532.31	61371.19
532.48	61371.19
532.65	61432.04
532.82	61361.82
532.99	61492.89
533.16	61254.16
533.33	61427.36
533.50	61497.58
533.67	61546.73
533.84	61506.94
534.01	61649.71
534.18	61766.74
534.35	61876.74
534.52	61654.39
534.69	61979.73
534.86	61815.89
535.03	61677.80
535.20	61869.72
535.37	61989.09
535.54	62244.21
535.71	61968.02
535.88	62136.54
536.05	62082.71
536.22	62063.99
536.38	62223.14
536.55	62106.12
536.72	62078.03
536.89	62286.34
537.06	62246.55
537.23	62536.77
537.40	62520.39
537.57	62127.18
537.74	62389.32
537.91	62709.97
538.08	62312.08
538.25	62452.51
538.42	62553.16
538.59	62635.08
538.75	62546.14
538.92	62585.92
539.09	62763.81
539.26	62581.24
539.43	62443.15
539.60	62770.83
539.77	62731.04
539.94	62920.62
540.11	63133.61
540.28	63037.65
540.44	63091.48
540.61	63063.39
540.78	62937.01
540.95	63028.29
541.12	62953.39
541.29	63084.46
541.46	63248.30
541.62	63241.28
541.79	63358.30
541.96	63161.70
542.13	62958.07
542.30	63262.34
542.47	63178.08
542.63	63210.85
542.80	63437.88
542.97	63580.65
543.14	63795.98
543.31	63751.51
543.48	63566.61
543.64	63987.91
543.81	63784.28
543.98	63835.77
544.15	63971.52
544.32	63849.81
544.48	63992.59
544.65	63910.67
544.82	63934.07
544.99	63828.75
545.16	64154.08
545.32	63915.35
545.49	64224.30
545.66	64313.24
545.83	64271.11
546.00	64275.79
546.16	64128.34
546.33	64013.65
546.50	64104.93
546.67	64041.74
546.83	63976.20
547.00	64278.13
547.17	64034.72
547.34	64123.66
547.50	64355.37
547.67	64448.99
547.84	64360.05
548.00	64406.86
548.17	64500.48
548.34	64491.12
548.51	64371.75
548.67	64474.74
548.84	64521.55
549.01	64420.90
549.18	64551.98
549.34	64479.42
549.51	64666.66
549.68	64556.66
549.84	64640.92
550.01	64669.00
550.18	64460.69
550.34	64624.53
550.51	64624.53
550.68	64701.77
550.84	64718.15
551.01	64945.18
551.18	64903.06
551.34	64537.93
551.51	64853.90
551.68	64779.01
551.84	64718.15
552.01	64788.37
552.18	64844.54
552.34	64741.56
552.51	64917.10
552.68	64872.63
552.84	65104.34
553.01	65167.54
553.18	65102.00
553.34	65062.21
553.51	64961.57
553.67	65127.75
553.84	65233.07
554.01	65368.82
554.17	65289.24
554.34	65403.93
554.51	65410.95
554.67	65403.93
554.84	65432.02
555.00	65134.77
555.17	65104.34
555.33	65265.84
555.50	65443.72
555.67	65357.12
555.83	65429.68
556.00	65492.87
556.16	65495.21
556.33	65485.85
556.50	65368.82
556.66	65364.14
556.83	65354.78
556.99	65535.00
557.16	65535.00
557.32	65535.00
557.49	65535.00
557.65	65535.00
557.82	65488.19
557.98	65535.00
558.15	65443.72
558.32	65535.00
558.48	65495.21
558.65	65535.00
558.81	65535.00
558.98	65535.00
559.14	65535.00
559.31	65535.00
559.47	65535.00
559.64	65535.00
559.80	65535.00
559.97	65535.00
560.13	65535.00
560.30	65535.00
560.46	65535.00
560.63	65535.00
560.79	65535.00
560.96	65535.00
561.12	65535.00
561.29	65535.00
561.45	65535.00
561.61	65535.00
561.78	65535.00
561.94	65535.00
562.11	65535.00
562.27	65535.00
562.44	65535.00
562.60	65535.00
562.77	65535.00
562.93	65535.00
563.10	65535.00
563.26	65535.00
563.42	65535.00
563.59	65535.00
563.75	65535.00
563.92	65535.00
564.08	65535.00
564.24	65535.00
564.41	65535.00
564.57	65535.00
564.74	65535.00
564.90	65535.00
565.07	65535.00
565.23	65535.00
565.39	65535.00
565.56	65535.00
565.72	65535.00
565.88	65535.00
566.05	65535.00
566.21	65535.00
566.38	65535.00
566.54	65535.00
566.70	65535.00
566.87	65535.00
567.03	65535.00
567.19	65535.00
567.36	65535.00
567.52	65535.00
567.68	65535.00
567.85	65535.00
568.01	65535.00
568.17	65535.00
568.34	65535.00
568.50	65535.00
568.66	65535.00
568.83	65535.00
568.99	65535.00
569.15	65535.00
569.32	65535.00
569.48	65535.00
569.64	65535.00
569.81	65535.00
569.97	65535.00
570.13	65535.00
570.30	65535.00
570.46	65535.00
570.62	65535.00
570.78	65535.00
570.95	65535.00
571.11	65535.00
571.27	65535.00
571.43	65535.00
571.60	65535.00
571.76	65535.00
571.92	65535.00
572.09	65535.00
572.25	65535.00
572.41	65535.00
572.57	65535.00
572.74	65535.00
572.90	65535.00
573.06	65535.00
573.22	65535.00
573.38	65535.00
573.55	65535.00
573.71	65535.00
573.87	65535.00
574.03	65535.00
574.20	65535.00
574.36	65535.00
574.52	65535.00
574.68	65535.00
574.84	65535.00
575.01	65535.00
575.17	65535.00
575.33	65535.00
575.49	65535.00
575.65	65535.00
575.82	65535.00
575.98	65535.00
576.14	65535.00
576.30	65535.00
576.46	65535.00
576.62	65535.00
576.79	65535.00
576.95	65535.00
577.11	65535.00
577.27	65535.00
577.43	65535.00
577.59	65535.00
577.75	65535.00
577.92	65535.00
578.08	65535.00
578.24	65535.00
578.40	65535.00
578.56	65535.00
578.72	65535.00
578.88	65535.00
579.04	65535.00
579.21	65535.00
579.37	65535.00
579.53	65535.00
579.69	65535.00
579.85	65535.00
580.01	65535.00
580.17	65535.00
580.33	65535.00
580.49	65535.00
580.65	65535.00
580.82	65535.00
580.98	65535.00
581.14	65535.00
581.30	65535.00
581.46	65535.00
581.62	65535.00
581.78	65535.00
581.94	65535.00
582.10	65535.00
582.26	65535.00
582.42	65535.00
582.58	65535.00
582.74	65535.00
582.90	65535.00
583.06	65535.00
583.22	65535.00
583.38	65535.00
583.54	65535.00
583.70	65535.00
583.86	65535.00
584.02	65535.00
584.18	65535.00
584.34	65535.00
584.50	65535.00
584.66	65535.00
584.82	65535.00
584.98	65535.00
585.14	65535.00
585.30	65535.00
585.46	65535.00
585.62	65535.00
585.78	65535.00
585.94	65535.00
586.10	65535.00
586.26	65535.00
586.42	65535.00
586.58	65535.00
586.74	65535.00
586.90	65535.00
587.06	65535.00
587.22	65535.00
