SpectraSuite Data File
++++++++++++++++++++++++++++++++++++
Date: Thu Oct 24 13:21:02 EDT 2013
User: stostad
Dark Spectrum Present: No
Reference Spectrum Present: No
Number of Sampled Component Spectra: 1
Spectrometers: USB2+H05261
Integration Time (usec): 100000 (USB2+H05261)
Spectra Averaged: 1 (USB2+H05261)
Boxcar Smoothing: 0 (USB2+H05261)
Correct for Electrical Dark: No (USB2+H05261)
Strobe/Lamp Enabled: No (USB2+H05261)
Correct for Detector Non-linearity: No (USB2+H05261)
Correct for Stray Light: No (USB2+H05261)
Number of Pixels in Processed Spectrum: 2048
>>>>>Begin Processed Spectral Data<<<<<
365.73	559.39
365.92	559.39
366.12	559.39
366.32	512.58
366.52	479.81
366.72	463.43
366.91	379.17
367.11	526.62
367.31	503.22
367.51	416.62
367.70	500.87
367.90	507.90
368.10	418.96
368.30	461.09
368.49	456.40
368.69	496.19
368.89	472.79
369.09	517.26
369.28	456.40
369.48	482.15
369.68	510.24
369.87	442.36
370.07	554.71
370.27	592.16
370.47	524.28
370.66	608.54
370.86	540.66
371.06	566.41
371.25	559.39
371.45	561.73
371.65	641.31
371.84	554.71
372.04	564.07
372.24	667.05
372.44	622.58
372.63	615.56
372.83	594.50
373.03	631.94
373.22	589.82
373.42	662.37
373.62	758.33
373.81	596.84
374.01	620.24
374.21	601.52
374.40	610.88
374.60	678.76
374.79	650.67
374.99	608.54
375.19	620.24
375.38	702.16
375.58	627.26
375.78	557.05
375.97	587.47
376.17	613.22
376.37	615.56
376.56	552.37
376.76	638.97
376.95	650.67
377.15	643.65
377.35	620.24
377.54	645.99
377.74	631.94
377.93	629.60
378.13	669.39
378.33	655.35
378.52	510.24
378.72	641.31
378.91	599.18
379.11	587.47
379.31	608.54
379.50	559.39
379.70	617.90
379.89	648.33
380.09	631.94
380.28	657.69
380.48	608.54
380.68	627.26
380.87	564.07
381.07	608.54
381.26	606.20
381.46	608.54
381.65	641.31
381.85	585.13
382.04	589.82
382.24	596.84
382.43	653.01
382.63	615.56
382.83	627.26
383.02	620.24
383.22	624.92
383.41	589.82
383.61	650.67
383.80	660.03
384.00	667.05
384.19	645.99
384.39	627.26
384.58	599.18
384.78	638.97
384.97	587.47
385.17	613.22
385.36	636.63
385.56	613.22
385.75	594.50
385.95	594.50
386.14	662.37
386.34	648.33
386.53	645.99
386.72	580.45
386.92	610.88
387.11	713.86
387.31	582.79
387.50	620.24
387.70	587.47
387.89	571.09
388.09	533.64
388.28	610.88
388.48	608.54
388.67	615.56
388.86	660.03
389.06	643.65
389.25	692.80
389.45	641.31
389.64	660.03
389.84	669.39
390.03	671.73
390.22	629.60
390.42	599.18
390.61	580.45
390.81	645.99
391.00	676.41
391.19	662.37
391.39	580.45
391.58	653.01
391.78	617.90
391.97	575.77
392.16	697.48
392.36	653.01
392.55	671.73
392.75	636.63
392.94	636.63
393.13	655.35
393.33	624.92
393.52	580.45
393.71	706.84
393.91	620.24
394.10	641.31
394.29	599.18
394.49	615.56
394.68	636.63
394.88	643.65
395.07	688.12
395.26	650.67
395.46	606.20
395.65	589.82
395.84	603.86
396.04	664.71
396.23	622.58
396.42	596.84
396.62	613.22
396.81	624.92
397.00	624.92
397.19	613.22
397.39	685.78
397.58	667.05
397.77	692.80
397.97	699.82
398.16	599.18
398.35	627.26
398.55	655.35
398.74	648.33
398.93	638.97
399.12	564.07
399.32	648.33
399.51	599.18
399.70	580.45
399.90	617.90
400.09	603.86
400.28	603.86
400.47	580.45
400.67	657.69
400.86	669.39
401.05	681.10
401.24	608.54
401.44	688.12
401.63	615.56
401.82	671.73
402.01	641.31
402.21	730.25
402.40	608.54
402.59	559.39
402.78	601.52
402.97	608.54
403.17	690.46
403.36	613.22
403.55	606.20
403.74	669.39
403.93	683.44
404.13	744.29
404.32	685.78
404.51	660.03
404.70	622.58
404.89	538.32
405.09	643.65
405.28	641.31
405.47	636.63
405.66	634.29
405.85	629.60
406.05	613.22
406.24	660.03
406.43	641.31
406.62	610.88
406.81	631.94
407.00	638.97
407.20	561.73
407.39	610.88
407.58	676.41
407.77	592.16
407.96	589.82
408.15	657.69
408.34	603.86
408.54	599.18
408.73	622.58
408.92	636.63
409.11	706.84
409.30	734.93
409.49	664.71
409.68	620.24
409.87	620.24
410.07	601.52
410.26	699.82
410.45	664.71
410.64	603.86
410.83	676.41
411.02	648.33
411.21	617.90
411.40	599.18
411.59	620.24
411.78	631.94
411.98	699.82
412.17	669.39
412.36	631.94
412.55	594.50
412.74	669.39
412.93	624.92
413.12	615.56
413.31	688.12
413.50	620.24
413.69	699.82
413.88	645.99
414.07	638.97
414.26	671.73
414.45	557.05
414.64	706.84
414.83	706.84
415.02	622.58
415.22	650.67
415.41	706.84
415.60	678.76
415.79	657.69
415.98	671.73
416.17	603.86
416.36	653.01
416.55	634.29
416.74	641.31
416.93	655.35
417.12	636.63
417.31	629.60
417.50	608.54
417.69	592.16
417.88	648.33
418.07	599.18
418.26	662.37
418.45	538.32
418.64	657.69
418.83	636.63
419.02	643.65
419.21	592.16
419.39	622.58
419.58	624.92
419.77	543.00
419.96	692.80
420.15	650.67
420.34	657.69
420.53	582.79
420.72	629.60
420.91	653.01
421.10	657.69
421.29	653.01
421.48	631.94
421.67	636.63
421.86	671.73
422.05	617.90
422.24	615.56
422.43	601.52
422.61	631.94
422.80	631.94
422.99	561.73
423.18	641.31
423.37	641.31
423.56	653.01
423.75	592.16
423.94	610.88
424.13	603.86
424.32	660.03
424.50	617.90
424.69	594.50
424.88	624.92
425.07	655.35
425.26	683.44
425.45	629.60
425.64	543.00
425.83	671.73
426.01	592.16
426.20	589.82
426.39	594.50
426.58	653.01
426.77	613.22
426.96	571.09
427.15	655.35
427.33	648.33
427.52	617.90
427.71	641.31
427.90	580.45
428.09	620.24
428.28	631.94
428.46	678.76
428.65	631.94
428.84	645.99
429.03	641.31
429.22	648.33
429.40	620.24
429.59	678.76
429.78	596.84
429.97	629.60
430.16	617.90
430.34	676.41
430.53	559.39
430.72	613.22
430.91	685.78
431.10	718.54
431.28	615.56
431.47	734.93
431.66	610.88
431.85	601.52
432.03	620.24
432.22	683.44
432.41	671.73
432.60	723.23
432.79	573.43
432.97	638.97
433.16	634.29
433.35	643.65
433.54	667.05
433.72	650.67
433.91	706.84
434.10	702.16
434.28	709.18
434.47	674.07
434.66	657.69
434.85	636.63
435.03	802.80
435.22	933.87
435.41	1104.73
435.59	1022.81
435.78	983.02
435.97	854.30
436.16	807.48
436.34	716.20
436.53	709.18
436.72	620.24
436.90	702.16
437.09	634.29
437.28	585.13
437.46	573.43
437.65	620.24
437.84	615.56
438.02	716.20
438.21	648.33
438.40	634.29
438.58	615.56
438.77	688.12
438.96	594.50
439.14	557.05
439.33	596.84
439.52	627.26
439.70	599.18
439.89	638.97
440.08	650.67
440.26	624.92
440.45	709.18
440.63	678.76
440.82	610.88
441.01	622.58
441.19	582.79
441.38	627.26
441.57	650.67
441.75	601.52
441.94	671.73
442.12	662.37
442.31	645.99
442.50	636.63
442.68	603.86
442.87	685.78
443.05	566.41
443.24	585.13
443.43	610.88
443.61	585.13
443.80	627.26
443.98	603.86
444.17	589.82
444.35	575.77
444.54	655.35
444.73	641.31
444.91	634.29
445.10	575.77
445.28	601.52
445.47	653.01
445.65	613.22
445.84	669.39
446.02	669.39
446.21	716.20
446.39	589.82
446.58	683.44
446.77	528.96
446.95	681.10
447.14	704.50
447.32	669.39
447.51	608.54
447.69	690.46
447.88	641.31
448.06	655.35
448.25	648.33
448.43	638.97
448.62	613.22
448.80	676.41
448.99	634.29
449.17	594.50
449.36	617.90
449.54	631.94
449.73	638.97
449.91	638.97
450.10	615.56
450.28	704.50
450.46	671.73
450.65	606.20
450.83	706.84
451.02	645.99
451.20	615.56
451.39	603.86
451.57	662.37
451.76	613.22
451.94	699.82
452.13	697.48
452.31	748.97
452.49	645.99
452.68	585.13
452.86	650.67
453.05	683.44
453.23	706.84
453.42	638.97
453.60	653.01
453.78	645.99
453.97	636.63
454.15	624.92
454.34	692.80
454.52	683.44
454.70	636.63
454.89	613.22
455.07	636.63
455.26	676.41
455.44	629.60
455.62	699.82
455.81	617.90
455.99	674.07
456.17	634.29
456.36	648.33
456.54	615.56
456.73	585.13
456.91	634.29
457.09	650.67
457.28	690.46
457.46	732.59
457.64	662.37
457.83	699.82
458.01	638.97
458.19	695.14
458.38	645.99
458.56	657.69
458.74	636.63
458.93	671.73
459.11	664.71
459.29	643.65
459.48	641.31
459.66	716.20
459.84	631.94
460.03	662.37
460.21	641.31
460.39	645.99
460.57	634.29
460.76	624.92
460.94	681.10
461.12	636.63
461.31	629.60
461.49	638.97
461.67	627.26
461.85	681.10
462.04	667.05
462.22	870.68
462.40	648.33
462.59	660.03
462.77	664.71
462.95	582.79
463.13	683.44
463.32	650.67
463.50	688.12
463.68	678.76
463.86	681.10
464.05	699.82
464.23	730.25
464.41	678.76
464.59	641.31
464.78	650.67
464.96	592.16
465.14	704.50
465.32	622.58
465.50	664.71
465.69	681.10
465.87	624.92
466.05	624.92
466.23	669.39
466.41	669.39
466.60	648.33
466.78	617.90
466.96	638.97
467.14	664.71
467.32	706.84
467.51	622.58
467.69	655.35
467.87	674.07
468.05	650.67
468.23	699.82
468.41	613.22
468.60	678.76
468.78	617.90
468.96	699.82
469.14	596.84
469.32	599.18
469.50	561.73
469.69	697.48
469.87	688.12
470.05	641.31
470.23	641.31
470.41	627.26
470.59	557.05
470.77	636.63
470.95	645.99
471.14	667.05
471.32	676.41
471.50	678.76
471.68	571.09
471.86	580.45
472.04	613.22
472.22	641.31
472.40	631.94
472.58	589.82
472.77	627.26
472.95	631.94
473.13	636.63
473.31	655.35
473.49	620.24
473.67	631.94
473.85	629.60
474.03	655.35
474.21	599.18
474.39	631.94
474.57	657.69
474.75	674.07
474.93	645.99
475.12	599.18
475.30	627.26
475.48	641.31
475.66	608.54
475.84	648.33
476.02	681.10
476.20	622.58
476.38	695.14
476.56	599.18
476.74	643.65
476.92	638.97
477.10	603.86
477.28	674.07
477.46	631.94
477.64	645.99
477.82	645.99
478.00	681.10
478.18	697.48
478.36	678.76
478.54	634.29
478.72	669.39
478.90	643.65
479.08	650.67
479.26	624.92
479.44	650.67
479.62	587.47
479.80	655.35
479.98	613.22
480.16	638.97
480.34	671.73
480.52	636.63
480.70	669.39
480.88	631.94
481.06	634.29
481.24	587.47
481.41	629.60
481.59	634.29
481.77	617.90
481.95	653.01
482.13	669.39
482.31	671.73
482.49	690.46
482.67	662.37
482.85	725.57
483.03	695.14
483.21	636.63
483.39	688.12
483.57	678.76
483.74	690.46
483.92	648.33
484.10	648.33
484.28	667.05
484.46	791.10
484.64	704.50
484.82	655.35
485.00	727.91
485.18	737.27
485.35	664.71
485.53	601.52
485.71	720.88
485.89	685.78
486.07	650.67
486.25	748.97
486.43	709.18
486.61	774.72
486.78	718.54
486.96	730.25
487.14	737.27
487.32	709.18
487.50	676.41
487.68	650.67
487.85	676.41
488.03	716.20
488.21	704.50
488.39	695.14
488.57	692.80
488.75	690.46
488.92	755.99
489.10	716.20
489.28	699.82
489.46	688.12
489.64	688.12
489.81	671.73
489.99	758.33
490.17	741.95
490.35	709.18
490.53	695.14
490.70	739.61
490.88	634.29
491.06	690.46
491.24	629.60
491.41	748.97
491.59	688.12
491.77	662.37
491.95	662.37
492.13	681.10
492.30	706.84
492.48	667.05
492.66	667.05
492.84	723.23
493.01	669.39
493.19	615.56
493.37	695.14
493.54	683.44
493.72	690.46
493.90	685.78
494.08	702.16
494.25	720.88
494.43	802.80
494.61	685.78
494.79	716.20
494.96	678.76
495.14	720.88
495.32	746.63
495.49	723.23
495.67	709.18
495.85	660.03
496.02	751.31
496.20	718.54
496.38	648.33
496.55	753.65
496.73	732.59
496.91	706.84
497.09	695.14
497.26	664.71
497.44	636.63
497.62	695.14
497.79	615.56
497.97	662.37
498.14	667.05
498.32	685.78
498.50	688.12
498.67	599.18
498.85	606.20
499.03	653.01
499.20	699.82
499.38	596.84
499.56	683.44
499.73	655.35
499.91	667.05
500.08	755.99
500.26	645.99
500.44	709.18
500.61	678.76
500.79	643.65
500.97	695.14
501.14	674.07
501.32	610.88
501.49	671.73
501.67	758.33
501.84	681.10
502.02	655.35
502.20	692.80
502.37	613.22
502.55	657.69
502.72	671.73
502.90	653.01
503.07	636.63
503.25	648.33
503.43	669.39
503.60	685.78
503.78	653.01
503.95	648.33
504.13	653.01
504.30	599.18
504.48	671.73
504.65	718.54
504.83	699.82
505.01	601.52
505.18	620.24
505.36	596.84
505.53	636.63
505.71	685.78
505.88	645.99
506.06	699.82
506.23	641.31
506.41	713.86
506.58	662.37
506.76	690.46
506.93	589.82
507.11	678.76
507.28	650.67
507.46	662.37
507.63	671.73
507.81	676.41
507.98	599.18
508.16	601.52
508.33	716.20
508.50	671.73
508.68	669.39
508.85	660.03
509.03	737.27
509.20	580.45
509.38	617.90
509.55	683.44
509.73	671.73
509.90	706.84
510.08	617.90
510.25	683.44
510.42	620.24
510.60	655.35
510.77	648.33
510.95	610.88
511.12	716.20
511.30	636.63
511.47	688.12
511.64	638.97
511.82	683.44
511.99	671.73
512.17	550.03
512.34	713.86
512.51	643.65
512.69	617.90
512.86	695.14
513.04	688.12
513.21	650.67
513.38	650.67
513.56	615.56
513.73	634.29
513.90	606.20
514.08	645.99
514.25	662.37
514.43	638.97
514.60	697.48
514.77	636.63
514.95	657.69
515.12	653.01
515.29	580.45
515.47	641.31
515.64	641.31
515.81	648.33
515.99	634.29
516.16	711.52
516.33	755.99
516.51	636.63
516.68	582.79
516.85	678.76
517.03	638.97
517.20	601.52
517.37	690.46
517.54	718.54
517.72	610.88
517.89	716.20
518.06	688.12
518.24	741.95
518.41	730.25
518.58	690.46
518.75	657.69
518.93	627.26
519.10	638.97
519.27	657.69
519.45	697.48
519.62	617.90
519.79	667.05
519.96	629.60
520.14	671.73
520.31	702.16
520.48	603.86
520.65	636.63
520.83	695.14
521.00	622.58
521.17	660.03
521.34	645.99
521.52	732.59
521.69	655.35
521.86	676.41
522.03	601.52
522.20	669.39
522.38	648.33
522.55	667.05
522.72	622.58
522.89	648.33
523.07	645.99
523.24	681.10
523.41	655.35
523.58	631.94
523.75	629.60
523.92	662.37
524.10	631.94
524.27	645.99
524.44	638.97
524.61	627.26
524.78	671.73
524.96	697.48
525.13	676.41
525.30	650.67
525.47	685.78
525.64	643.65
525.81	627.26
525.98	610.88
526.16	645.99
526.33	671.73
526.50	561.73
526.67	660.03
526.84	690.46
527.01	674.07
527.18	676.41
527.36	620.24
527.53	603.86
527.70	643.65
527.87	674.07
528.04	699.82
528.21	629.60
528.38	655.35
528.55	631.94
528.72	634.29
528.89	669.39
529.07	681.10
529.24	667.05
529.41	660.03
529.58	706.84
529.75	674.07
529.92	695.14
530.09	716.20
530.26	650.67
530.43	571.09
530.60	653.01
530.77	594.50
530.94	664.71
531.11	645.99
531.28	669.39
531.46	566.41
531.63	655.35
531.80	676.41
531.97	622.58
532.14	660.03
532.31	624.92
532.48	671.73
532.65	688.12
532.82	681.10
532.99	641.31
533.16	676.41
533.33	660.03
533.50	725.57
533.67	638.97
533.84	720.88
534.01	685.78
534.18	676.41
534.35	655.35
534.52	631.94
534.69	669.39
534.86	657.69
535.03	690.46
535.20	631.94
535.37	711.52
535.54	748.97
535.71	704.50
535.88	645.99
536.05	660.03
536.22	746.63
536.38	685.78
536.55	655.35
536.72	723.23
536.89	669.39
537.06	685.78
537.23	723.23
537.40	671.73
537.57	685.78
537.74	748.97
537.91	795.78
538.08	720.88
538.25	781.74
538.42	786.42
538.59	819.19
538.75	751.31
538.92	763.01
539.09	809.83
539.26	746.63
539.43	807.48
539.60	793.44
539.77	905.79
539.94	861.32
540.11	828.55
540.28	915.15
540.44	910.47
540.61	887.06
540.78	1018.13
540.95	1027.50
541.12	1118.78
541.29	1114.10
541.46	1273.25
541.62	1181.97
541.79	1214.74
541.96	1214.74
542.13	1217.08
542.30	1210.06
542.47	1193.67
542.63	1179.63
542.80	1231.12
542.97	1203.04
543.14	1217.08
543.31	1289.64
543.48	1228.78
543.64	1184.31
543.81	1186.65
543.98	1135.16
544.15	1107.07
544.32	1177.29
544.48	1146.86
544.65	1135.16
544.82	1029.84
544.99	1231.12
545.16	1165.59
545.32	1210.06
545.49	1481.56
545.66	1816.26
545.83	2090.10
546.00	1849.02
546.16	1629.01
546.33	1416.02
546.50	1385.60
546.67	1186.65
546.83	1053.24
547.00	966.64
547.17	1018.13
547.34	905.79
547.50	889.40
547.67	997.07
547.84	926.85
548.00	947.92
548.17	957.28
548.34	896.43
548.51	945.58
548.67	905.79
548.84	842.59
549.01	868.34
549.18	861.32
549.34	926.85
549.51	898.77
549.68	849.61
549.84	833.23
550.01	889.40
550.18	844.93
550.34	807.48
550.51	739.61
550.68	849.61
550.84	814.51
551.01	746.63
551.18	755.99
551.34	779.40
551.51	802.80
551.68	704.50
551.84	716.20
552.01	697.48
552.18	730.25
552.34	788.76
552.51	770.04
552.68	812.17
552.84	737.27
553.01	706.84
553.18	741.95
553.34	723.23
553.51	746.63
553.67	674.07
553.84	763.01
554.01	734.93
554.17	664.71
554.34	718.54
554.51	669.39
554.67	704.50
554.84	683.44
555.00	739.61
555.17	685.78
555.33	634.29
555.50	653.01
555.67	601.52
555.83	744.29
556.00	692.80
556.16	688.12
556.33	615.56
556.50	676.41
556.66	601.52
556.83	690.46
556.99	564.07
557.16	676.41
557.32	641.31
557.49	620.24
557.65	617.90
557.82	704.50
557.98	631.94
558.15	709.18
558.32	657.69
558.48	655.35
558.65	676.41
558.81	685.78
558.98	613.22
559.14	636.63
559.31	643.65
559.47	688.12
559.64	669.39
559.80	671.73
559.97	645.99
560.13	631.94
560.30	713.86
560.46	674.07
560.63	575.77
560.79	624.92
560.96	706.84
561.12	702.16
561.29	692.80
561.45	688.12
561.61	636.63
561.78	671.73
561.94	613.22
562.11	587.47
562.27	720.88
562.44	599.18
562.60	613.22
562.77	608.54
562.93	674.07
563.10	711.52
563.26	624.92
563.42	688.12
563.59	683.44
563.75	554.71
563.92	683.44
564.08	667.05
564.24	641.31
564.41	662.37
564.57	643.65
564.74	676.41
564.90	678.76
565.07	676.41
565.23	678.76
565.39	622.58
565.56	641.31
565.72	669.39
565.88	690.46
566.05	622.58
566.21	610.88
566.38	678.76
566.54	636.63
566.70	653.01
566.87	643.65
567.03	596.84
567.19	660.03
567.36	601.52
567.52	617.90
567.68	692.80
567.85	669.39
568.01	662.37
568.17	692.80
568.34	587.47
568.50	671.73
568.66	676.41
568.83	702.16
568.99	660.03
569.15	650.67
569.32	636.63
569.48	603.86
569.64	660.03
569.81	690.46
569.97	629.60
570.13	631.94
570.30	662.37
570.46	662.37
570.62	685.78
570.78	655.35
570.95	629.60
571.11	692.80
571.27	699.82
571.43	645.99
571.60	631.94
571.76	617.90
571.92	620.24
572.09	627.26
572.25	610.88
572.41	716.20
572.57	664.71
572.74	617.90
572.90	720.88
573.06	667.05
573.22	596.84
573.38	683.44
573.55	622.58
573.71	667.05
573.87	662.37
574.03	667.05
574.20	650.67
574.36	641.31
574.52	653.01
574.68	674.07
574.84	636.63
575.01	660.03
575.17	671.73
575.33	692.80
575.49	669.39
575.65	648.33
575.82	690.46
575.98	650.67
576.14	678.76
576.30	706.84
576.46	826.21
576.62	863.66
576.79	870.68
576.95	849.61
577.11	748.97
577.27	767.70
577.43	763.01
577.59	793.44
577.75	760.67
577.92	650.67
578.08	634.29
578.24	641.31
578.40	725.57
578.56	765.36
578.72	800.46
578.88	919.83
579.04	863.66
579.21	812.17
579.37	779.40
579.53	706.84
579.69	847.27
579.85	730.25
580.01	751.31
580.17	732.59
580.33	688.12
580.49	723.23
580.65	737.27
580.82	739.61
580.98	746.63
581.14	699.82
581.30	713.86
581.46	791.10
581.62	748.97
581.78	746.63
581.94	748.97
582.10	732.59
582.26	823.87
582.42	802.80
582.58	751.31
582.74	753.65
582.90	751.31
583.06	767.70
583.22	765.36
583.38	819.19
583.54	779.40
583.70	802.80
583.86	887.06
584.02	781.74
584.18	793.44
584.34	800.46
584.50	765.36
584.66	774.72
584.82	748.97
584.98	748.97
585.14	751.31
585.30	774.72
585.46	748.97
585.62	788.76
585.78	772.38
585.94	791.10
586.10	760.67
586.26	732.59
586.42	856.64
586.58	833.23
586.74	809.83
586.90	861.32
587.06	880.04
587.22	840.25
587.38	866.00
587.54	884.72
587.70	812.17
587.86	802.80
588.02	737.27
588.18	837.91
588.34	809.83
588.49	699.82
588.65	678.76
588.81	767.70
588.97	777.06
589.13	737.27
589.29	753.65
589.45	802.80
589.61	725.57
589.77	711.52
589.93	702.16
590.08	676.41
590.24	662.37
590.40	748.97
590.56	734.93
590.72	788.76
590.88	718.54
591.04	690.46
591.20	692.80
591.35	711.52
591.51	664.71
591.67	779.40
591.83	709.18
591.99	737.27
592.15	795.78
592.31	711.52
592.46	802.80
592.62	758.33
592.78	793.44
592.94	791.10
593.10	791.10
593.26	809.83
593.41	791.10
593.57	793.44
593.73	777.06
593.89	767.70
594.05	795.78
594.20	674.07
594.36	737.27
594.52	657.69
594.68	709.18
594.84	681.10
594.99	737.27
595.15	688.12
595.31	678.76
595.47	695.14
595.62	727.91
595.78	634.29
595.94	624.92
596.10	657.69
596.25	688.12
596.41	725.57
596.57	690.46
596.73	744.29
596.88	685.78
597.04	681.10
597.20	615.56
597.36	650.67
597.51	734.93
597.67	723.23
597.83	664.71
597.99	725.57
598.14	627.26
598.30	650.67
598.46	695.14
598.61	697.48
598.77	699.82
598.93	706.84
599.09	746.63
599.24	725.57
599.40	723.23
599.56	739.61
599.71	734.93
599.87	732.59
600.03	709.18
600.18	699.82
600.34	709.18
600.50	699.82
600.65	641.31
600.81	765.36
600.97	781.74
601.12	643.65
601.28	706.84
601.44	645.99
601.59	655.35
601.75	667.05
601.91	601.52
602.06	713.86
602.22	751.31
602.37	683.44
602.53	692.80
602.69	674.07
602.84	545.34
603.00	650.67
603.16	683.44
603.31	615.56
603.47	636.63
603.62	613.22
603.78	620.24
603.94	667.05
604.09	683.44
604.25	713.86
604.40	702.16
604.56	681.10
604.71	704.50
604.87	702.16
605.03	669.39
605.18	730.25
605.34	634.29
605.49	706.84
605.65	713.86
605.80	643.65
605.96	664.71
606.12	681.10
606.27	674.07
606.43	683.44
606.58	737.27
606.74	746.63
606.89	770.04
607.05	688.12
607.20	692.80
607.36	704.50
607.51	723.23
607.67	685.78
607.82	795.78
607.98	730.25
608.13	741.95
608.29	777.06
608.44	770.04
608.60	767.70
608.75	765.36
608.91	784.08
609.06	809.83
609.22	814.51
609.37	884.72
609.53	835.57
609.68	908.13
609.84	987.71
