SpectraSuite Data File
++++++++++++++++++++++++++++++++++++
Date: Thu Oct 24 13:20:58 EDT 2013
User: stostad
Dark Spectrum Present: No
Reference Spectrum Present: No
Number of Sampled Component Spectra: 1
Spectrometers: USB2+H05261
Integration Time (usec): 100000 (USB2+H05261)
Spectra Averaged: 1 (USB2+H05261)
Boxcar Smoothing: 0 (USB2+H05261)
Correct for Electrical Dark: No (USB2+H05261)
Strobe/Lamp Enabled: No (USB2+H05261)
Correct for Detector Non-linearity: No (USB2+H05261)
Correct for Stray Light: No (USB2+H05261)
Number of Pixels in Processed Spectrum: 2048
>>>>>Begin Processed Spectral Data<<<<<
365.73	564.07
365.92	564.07
366.12	564.07
366.32	444.70
366.52	482.15
366.72	479.81
366.91	369.80
367.11	428.32
367.31	397.89
367.51	444.70
367.70	489.17
367.90	465.77
368.10	360.44
368.30	505.56
368.49	418.96
368.69	470.45
368.89	463.43
369.09	486.83
369.28	521.94
369.48	428.32
369.68	486.83
369.87	552.37
370.07	589.82
370.27	571.09
370.47	510.24
370.66	475.13
370.86	521.94
371.06	622.58
371.25	615.56
371.45	552.37
371.65	613.22
371.84	650.67
372.04	641.31
372.24	603.86
372.44	601.52
372.63	713.86
372.83	578.11
373.03	653.01
373.22	634.29
373.42	599.18
373.62	617.90
373.81	711.52
374.01	674.07
374.21	704.50
374.40	566.41
374.60	678.76
374.79	613.22
374.99	596.84
375.19	683.44
375.38	620.24
375.58	610.88
375.78	603.86
375.97	638.97
376.17	746.63
376.37	634.29
376.56	580.45
376.76	641.31
376.95	725.57
377.15	674.07
377.35	624.92
377.54	610.88
377.74	634.29
377.93	674.07
378.13	660.03
378.33	648.33
378.52	599.18
378.72	648.33
378.91	638.97
379.11	568.75
379.31	622.58
379.50	643.65
379.70	573.43
379.89	596.84
380.09	608.54
380.28	571.09
380.48	664.71
380.68	641.31
380.87	592.16
381.07	566.41
381.26	575.77
381.46	599.18
381.65	629.60
381.85	620.24
382.04	599.18
382.24	631.94
382.43	596.84
382.63	589.82
382.83	638.97
383.02	746.63
383.22	650.67
383.41	568.75
383.61	650.67
383.80	627.26
384.00	643.65
384.19	669.39
384.39	683.44
384.58	634.29
384.78	638.97
384.97	624.92
385.17	603.86
385.36	620.24
385.56	603.86
385.75	540.66
385.95	674.07
386.14	589.82
386.34	645.99
386.53	641.31
386.72	636.63
386.92	662.37
387.11	624.92
387.31	599.18
387.50	629.60
387.70	613.22
387.89	620.24
388.09	688.12
388.28	660.03
388.48	627.26
388.67	573.43
388.86	638.97
389.06	559.39
389.25	592.16
389.45	723.23
389.64	636.63
389.84	662.37
390.03	610.88
390.22	624.92
390.42	648.33
390.61	657.69
390.81	676.41
391.00	657.69
391.19	634.29
391.39	610.88
391.58	648.33
391.78	692.80
391.97	641.31
392.16	624.92
392.36	634.29
392.55	601.52
392.75	655.35
392.94	624.92
393.13	645.99
393.33	601.52
393.52	634.29
393.71	641.31
393.91	634.29
394.10	585.13
394.29	575.77
394.49	589.82
394.68	648.33
394.88	631.94
395.07	606.20
395.26	608.54
395.46	559.39
395.65	629.60
395.84	627.26
396.04	683.44
396.23	636.63
396.42	587.47
396.62	571.09
396.81	629.60
397.00	638.97
397.19	594.50
397.39	660.03
397.58	678.76
397.77	615.56
397.97	606.20
398.16	657.69
398.35	587.47
398.55	608.54
398.74	641.31
398.93	631.94
399.12	662.37
399.32	592.16
399.51	596.84
399.70	643.65
399.90	592.16
400.09	690.46
400.28	624.92
400.47	603.86
400.67	589.82
400.86	575.77
401.05	627.26
401.24	638.97
401.44	631.94
401.63	622.58
401.82	615.56
402.01	589.82
402.21	613.22
402.40	617.90
402.59	601.52
402.78	585.13
402.97	561.73
403.17	641.31
403.36	610.88
403.55	596.84
403.74	645.99
403.93	645.99
404.13	671.73
404.32	667.05
404.51	669.39
404.70	699.82
404.89	695.14
405.09	641.31
405.28	636.63
405.47	564.07
405.66	634.29
405.85	622.58
406.05	650.67
406.24	613.22
406.43	608.54
406.62	716.20
406.81	610.88
407.00	641.31
407.20	608.54
407.39	645.99
407.58	538.32
407.77	674.07
407.96	653.01
408.15	751.31
408.34	564.07
408.54	603.86
408.73	580.45
408.92	627.26
409.11	631.94
409.30	620.24
409.49	615.56
409.68	620.24
409.87	664.71
410.07	603.86
410.26	617.90
410.45	617.90
410.64	706.84
410.83	617.90
411.02	662.37
411.21	592.16
411.40	704.50
411.59	629.60
411.78	692.80
411.98	718.54
412.17	669.39
412.36	667.05
412.55	653.01
412.74	627.26
412.93	690.46
413.12	554.71
413.31	634.29
413.50	681.10
413.69	571.09
413.88	655.35
414.07	622.58
414.26	627.26
414.45	547.69
414.64	688.12
414.83	706.84
415.02	559.39
415.22	603.86
415.41	519.60
415.60	634.29
415.79	606.20
415.98	599.18
416.17	636.63
416.36	601.52
416.55	655.35
416.74	585.13
416.93	573.43
417.12	662.37
417.31	643.65
417.50	589.82
417.69	650.67
417.88	603.86
418.07	664.71
418.26	648.33
418.45	655.35
418.64	650.67
418.83	645.99
419.02	557.05
419.21	606.20
419.39	716.20
419.58	601.52
419.77	624.92
419.96	606.20
420.15	615.56
420.34	662.37
420.53	643.65
420.72	557.05
420.91	601.52
421.10	575.77
421.29	634.29
421.48	641.31
421.67	636.63
421.86	704.50
422.05	629.60
422.24	683.44
422.43	667.05
422.61	594.50
422.80	655.35
422.99	585.13
423.18	643.65
423.37	575.77
423.56	648.33
423.75	627.26
423.94	610.88
424.13	615.56
424.32	667.05
424.50	709.18
424.69	624.92
424.88	617.90
425.07	617.90
425.26	608.54
425.45	606.20
425.64	608.54
425.83	678.76
426.01	667.05
426.20	695.14
426.39	620.24
426.58	624.92
426.77	592.16
426.96	636.63
427.15	624.92
427.33	676.41
427.52	620.24
427.71	685.78
427.90	669.39
428.09	645.99
428.28	601.52
428.46	634.29
428.65	580.45
428.84	631.94
429.03	713.86
429.22	599.18
429.40	636.63
429.59	592.16
429.78	624.92
429.97	667.05
430.16	617.90
430.34	606.20
430.53	617.90
430.72	643.65
430.91	727.91
431.10	620.24
431.28	636.63
431.47	613.22
431.66	671.73
431.85	631.94
432.03	578.11
432.22	751.31
432.41	631.94
432.60	634.29
432.79	615.56
432.97	667.05
433.16	629.60
433.35	610.88
433.54	557.05
433.72	643.65
433.91	660.03
434.10	603.86
434.28	674.07
434.47	617.90
434.66	603.86
434.85	641.31
435.03	835.57
435.22	1008.77
435.41	1102.39
435.59	1069.62
435.78	943.24
435.97	922.17
436.16	781.74
436.34	713.86
436.53	601.52
436.72	655.35
436.90	638.97
437.09	667.05
437.28	645.99
437.46	631.94
437.65	638.97
437.84	592.16
438.02	683.44
438.21	615.56
438.40	613.22
438.58	631.94
438.77	606.20
438.96	601.52
439.14	585.13
439.33	660.03
439.52	601.52
439.70	636.63
439.89	622.58
440.08	723.23
440.26	622.58
440.45	662.37
440.63	594.50
440.82	690.46
441.01	716.20
441.19	645.99
441.38	603.86
441.57	674.07
441.75	653.01
441.94	657.69
442.12	620.24
442.31	676.41
442.50	739.61
442.68	582.79
442.87	660.03
443.05	601.52
443.24	725.57
443.43	711.52
443.61	610.88
443.80	550.03
443.98	692.80
444.17	608.54
444.35	645.99
444.54	622.58
444.73	685.78
444.91	620.24
445.10	540.66
445.28	582.79
445.47	629.60
445.65	615.56
445.84	664.71
446.02	657.69
446.21	657.69
446.39	676.41
446.58	662.37
446.77	660.03
446.95	620.24
447.14	578.11
447.32	737.27
447.51	671.73
447.69	699.82
447.88	641.31
448.06	641.31
448.25	601.52
448.43	596.84
448.62	627.26
448.80	620.24
448.99	662.37
449.17	683.44
449.36	617.90
449.54	641.31
449.73	657.69
449.91	636.63
450.10	648.33
450.28	662.37
450.46	706.84
450.65	671.73
450.83	613.22
451.02	613.22
451.20	676.41
451.39	629.60
451.57	674.07
451.76	615.56
451.94	622.58
452.13	704.50
452.31	622.58
452.49	704.50
452.68	610.88
452.86	587.47
453.05	664.71
453.23	685.78
453.42	636.63
453.60	627.26
453.78	620.24
453.97	603.86
454.15	685.78
454.34	620.24
454.52	589.82
454.70	657.69
454.89	681.10
455.07	739.61
455.26	725.57
455.44	683.44
455.62	674.07
455.81	631.94
455.99	601.52
456.17	678.76
456.36	622.58
456.54	580.45
456.73	592.16
456.91	638.97
457.09	636.63
457.28	669.39
457.46	610.88
457.64	713.86
457.83	643.65
458.01	695.14
458.19	629.60
458.38	641.31
458.56	653.01
458.74	720.88
458.93	655.35
459.11	669.39
459.29	648.33
459.48	643.65
459.66	690.46
459.84	650.67
460.03	688.12
460.21	664.71
460.39	638.97
460.57	648.33
460.76	601.52
460.94	685.78
461.12	627.26
461.31	676.41
461.49	692.80
461.67	617.90
461.85	634.29
462.04	603.86
462.22	947.92
462.40	655.35
462.59	648.33
462.77	636.63
462.95	564.07
463.13	606.20
463.32	645.99
463.50	608.54
463.68	662.37
463.86	622.58
464.05	669.39
464.23	681.10
464.41	674.07
464.59	636.63
464.78	629.60
464.96	669.39
465.14	688.12
465.32	664.71
465.50	629.60
465.69	657.69
465.87	603.86
466.05	667.05
466.23	610.88
466.41	697.48
466.60	636.63
466.78	653.01
466.96	622.58
467.14	704.50
467.32	608.54
467.51	671.73
467.69	589.82
467.87	606.20
468.05	615.56
468.23	627.26
468.41	711.52
468.60	674.07
468.78	587.47
468.96	678.76
469.14	758.33
469.32	601.52
469.50	615.56
469.69	580.45
469.87	610.88
470.05	627.26
470.23	601.52
470.41	580.45
470.59	613.22
470.77	692.80
470.95	671.73
471.14	697.48
471.32	638.97
471.50	657.69
471.68	674.07
471.86	634.29
472.04	627.26
472.22	603.86
472.40	648.33
472.58	667.05
472.77	634.29
472.95	678.76
473.13	706.84
473.31	643.65
473.49	615.56
473.67	669.39
473.85	720.88
474.03	643.65
474.21	669.39
474.39	678.76
474.57	624.92
474.75	580.45
474.93	683.44
475.12	655.35
475.30	671.73
475.48	655.35
475.66	638.97
475.84	617.90
476.02	641.31
476.20	575.77
476.38	641.31
476.56	669.39
476.74	678.76
476.92	629.60
477.10	638.97
477.28	603.86
477.46	592.16
477.64	688.12
477.82	622.58
478.00	667.05
478.18	674.07
478.36	688.12
478.54	578.11
478.72	631.94
478.90	603.86
479.08	624.92
479.26	657.69
479.44	674.07
479.62	615.56
479.80	592.16
479.98	662.37
480.16	667.05
480.34	641.31
480.52	641.31
480.70	615.56
480.88	617.90
481.06	655.35
481.24	653.01
481.41	650.67
481.59	681.10
481.77	631.94
481.95	681.10
482.13	669.39
482.31	711.52
482.49	601.52
482.67	664.71
482.85	634.29
483.03	662.37
483.21	648.33
483.39	664.71
483.57	624.92
483.74	678.76
483.92	690.46
484.10	699.82
484.28	634.29
484.46	645.99
484.64	662.37
484.82	723.23
485.00	643.65
485.18	662.37
485.35	718.54
485.53	748.97
485.71	702.16
485.89	713.86
486.07	744.29
486.25	802.80
486.43	688.12
486.61	737.27
486.78	660.03
486.96	704.50
487.14	748.97
487.32	732.59
487.50	692.80
487.68	709.18
487.85	716.20
488.03	730.25
488.21	702.16
488.39	685.78
488.57	702.16
488.75	732.59
488.92	788.76
489.10	683.44
489.28	763.01
489.46	702.16
489.64	727.91
489.81	730.25
489.99	772.38
490.17	709.18
490.35	723.23
490.53	678.76
490.70	669.39
490.88	781.74
491.06	667.05
491.24	711.52
491.41	681.10
491.59	674.07
491.77	704.50
491.95	678.76
492.13	697.48
492.30	711.52
492.48	704.50
492.66	730.25
492.84	624.92
493.01	697.48
493.19	699.82
493.37	713.86
493.54	791.10
493.72	690.46
493.90	716.20
494.08	683.44
494.25	709.18
494.43	643.65
494.61	713.86
494.79	671.73
494.96	706.84
495.14	615.56
495.32	716.20
495.49	643.65
495.67	608.54
495.85	655.35
496.02	681.10
496.20	692.80
496.38	653.01
496.55	723.23
496.73	676.41
496.91	617.90
497.09	720.88
497.26	709.18
497.44	713.86
497.62	746.63
497.79	709.18
497.97	674.07
498.14	744.29
498.32	615.56
498.50	678.76
498.67	678.76
498.85	716.20
499.03	634.29
499.20	730.25
499.38	664.71
499.56	720.88
499.73	697.48
499.91	709.18
500.08	685.78
500.26	662.37
500.44	660.03
500.61	690.46
500.79	655.35
500.97	655.35
501.14	631.94
501.32	599.18
501.49	643.65
501.67	669.39
501.84	662.37
502.02	638.97
502.20	650.67
502.37	645.99
502.55	629.60
502.72	610.88
502.90	662.37
503.07	624.92
503.25	634.29
503.43	681.10
503.60	688.12
503.78	620.24
503.95	669.39
504.13	571.09
504.30	662.37
504.48	636.63
504.65	688.12
504.83	718.54
505.01	678.76
505.18	655.35
505.36	608.54
505.53	709.18
505.71	685.78
505.88	643.65
506.06	603.86
506.23	631.94
506.41	582.79
506.58	685.78
506.76	643.65
506.93	650.67
507.11	645.99
507.28	690.46
507.46	610.88
507.63	650.67
507.81	695.14
507.98	671.73
508.16	645.99
508.33	641.31
508.50	636.63
508.68	589.82
508.85	603.86
509.03	592.16
509.20	688.12
509.38	634.29
509.55	690.46
509.73	645.99
509.90	648.33
510.08	645.99
510.25	641.31
510.42	634.29
510.60	622.58
510.77	655.35
510.95	685.78
511.12	603.86
511.30	615.56
511.47	566.41
511.64	627.26
511.82	606.20
511.99	655.35
512.17	662.37
512.34	688.12
512.51	624.92
512.69	655.35
512.86	704.50
513.04	709.18
513.21	645.99
513.38	601.52
513.56	587.47
513.73	683.44
513.90	643.65
514.08	615.56
514.25	664.71
514.43	699.82
514.60	645.99
514.77	638.97
514.95	681.10
515.12	645.99
515.29	606.20
515.47	599.18
515.64	657.69
515.81	702.16
515.99	657.69
516.16	620.24
516.33	606.20
516.51	620.24
516.68	688.12
516.85	638.97
517.03	683.44
517.20	688.12
517.37	587.47
517.54	627.26
517.72	683.44
517.89	627.26
518.06	636.63
518.24	711.52
518.41	685.78
518.58	657.69
518.75	688.12
518.93	580.45
519.10	685.78
519.27	627.26
519.45	667.05
519.62	660.03
519.79	610.88
519.96	645.99
520.14	645.99
520.31	798.12
520.48	664.71
520.65	622.58
520.83	634.29
521.00	678.76
521.17	660.03
521.34	653.01
521.52	690.46
521.69	690.46
521.86	645.99
522.03	706.84
522.20	645.99
522.38	601.52
522.55	669.39
522.72	669.39
522.89	716.20
523.07	692.80
523.24	688.12
523.41	681.10
523.58	615.56
523.75	643.65
523.92	613.22
524.10	638.97
524.27	664.71
524.44	606.20
524.61	620.24
524.78	664.71
524.96	657.69
525.13	629.60
525.30	643.65
525.47	636.63
525.64	624.92
525.81	683.44
525.98	645.99
526.16	727.91
526.33	706.84
526.50	676.41
526.67	645.99
526.84	613.22
527.01	688.12
527.18	699.82
527.36	681.10
527.53	648.33
527.70	589.82
527.87	716.20
528.04	692.80
528.21	613.22
528.38	615.56
528.55	683.44
528.72	641.31
528.89	645.99
529.07	540.66
529.24	606.20
529.41	695.14
529.58	655.35
529.75	657.69
529.92	667.05
530.09	606.20
530.26	613.22
530.43	601.52
530.60	683.44
530.77	636.63
530.94	674.07
531.11	601.52
531.28	660.03
531.46	741.95
531.63	716.20
531.80	725.57
531.97	683.44
532.14	582.79
532.31	690.46
532.48	610.88
532.65	725.57
532.82	685.78
532.99	688.12
533.16	758.33
533.33	636.63
533.50	655.35
533.67	636.63
533.84	685.78
534.01	692.80
534.18	667.05
534.35	692.80
534.52	664.71
534.69	723.23
534.86	641.31
535.03	667.05
535.20	624.92
535.37	641.31
535.54	667.05
535.71	669.39
535.88	657.69
536.05	622.58
536.22	699.82
536.38	753.65
536.55	683.44
536.72	667.05
536.89	695.14
537.06	767.70
537.23	692.80
537.40	716.20
537.57	734.93
537.74	716.20
537.91	697.48
538.08	727.91
538.25	786.42
538.42	734.93
538.59	753.65
538.75	791.10
538.92	720.88
539.09	763.01
539.26	697.48
539.43	739.61
539.60	798.12
539.77	851.96
539.94	856.64
540.11	873.02
540.28	994.73
540.44	1022.81
540.61	1001.75
540.78	1004.09
540.95	1160.91
541.12	1181.97
541.29	1242.82
541.46	1226.44
541.62	1331.76
541.79	1291.98
541.96	1303.68
542.13	1210.06
542.30	1247.51
542.47	1228.78
542.63	1282.61
542.80	1254.53
542.97	1266.23
543.14	1177.29
543.31	1210.06
543.48	1210.06
543.64	1158.57
543.81	1263.89
543.98	1139.84
544.15	1226.44
544.32	1259.21
544.48	1109.41
544.65	1128.14
544.82	1214.74
544.99	1203.04
545.16	1137.50
545.32	1196.01
545.49	1528.37
545.66	1968.39
545.83	2087.76
546.00	1879.45
546.16	1645.40
546.33	1446.45
546.50	1308.36
546.67	1254.53
546.83	1132.82
547.00	1088.35
547.17	999.41
547.34	980.68
547.50	985.37
547.67	924.51
547.84	926.85
548.00	931.53
548.17	910.47
548.34	985.37
548.51	987.71
548.67	990.05
548.84	915.15
549.01	903.45
549.18	891.74
549.34	847.27
549.51	837.91
549.68	891.74
549.84	912.81
550.01	814.51
550.18	854.30
550.34	880.04
550.51	802.80
550.68	882.38
550.84	807.48
551.01	816.85
551.18	765.36
551.34	784.08
551.51	784.08
551.68	809.83
551.84	755.99
552.01	793.44
552.18	739.61
552.34	653.01
552.51	798.12
552.68	753.65
552.84	781.74
553.01	800.46
553.18	751.31
553.34	784.08
553.51	718.54
553.67	730.25
553.84	746.63
554.01	730.25
554.17	765.36
554.34	702.16
554.51	727.91
554.67	685.78
554.84	748.97
555.00	662.37
555.17	697.48
555.33	704.50
555.50	692.80
555.67	706.84
555.83	671.73
556.00	725.57
556.16	823.87
556.33	723.23
556.50	664.71
556.66	702.16
556.83	697.48
556.99	650.67
557.16	716.20
557.32	660.03
557.49	667.05
557.65	648.33
557.82	690.46
557.98	720.88
558.15	741.95
558.32	653.01
558.48	674.07
558.65	720.88
558.81	650.67
558.98	688.12
559.14	662.37
559.31	655.35
559.47	664.71
559.64	690.46
559.80	763.01
559.97	671.73
560.13	695.14
560.30	631.94
560.46	631.94
560.63	650.67
560.79	634.29
560.96	674.07
561.12	660.03
561.29	692.80
561.45	643.65
561.61	634.29
561.78	685.78
561.94	566.41
562.11	669.39
562.27	699.82
562.44	667.05
562.60	622.58
562.77	671.73
562.93	685.78
563.10	617.90
563.26	671.73
563.42	737.27
563.59	641.31
563.75	641.31
563.92	706.84
564.08	648.33
564.24	697.48
564.41	657.69
564.57	653.01
564.74	667.05
564.90	695.14
565.07	711.52
565.23	657.69
565.39	695.14
565.56	688.12
565.72	704.50
565.88	573.43
566.05	662.37
566.21	629.60
566.38	627.26
566.54	688.12
566.70	692.80
566.87	688.12
567.03	624.92
567.19	662.37
567.36	709.18
567.52	662.37
567.68	702.16
567.85	730.25
568.01	669.39
568.17	641.31
568.34	617.90
568.50	627.26
568.66	613.22
568.83	692.80
568.99	692.80
569.15	692.80
569.32	638.97
569.48	655.35
569.64	615.56
569.81	638.97
569.97	667.05
570.13	662.37
570.30	690.46
570.46	674.07
570.62	664.71
570.78	713.86
570.95	610.88
571.11	660.03
571.27	685.78
571.43	655.35
571.60	634.29
571.76	627.26
571.92	683.44
572.09	699.82
572.25	641.31
572.41	645.99
572.57	660.03
572.74	711.52
572.90	716.20
573.06	641.31
573.22	671.73
573.38	645.99
573.55	624.92
573.71	617.90
573.87	653.01
574.03	774.72
574.20	624.92
574.36	737.27
574.52	688.12
574.68	671.73
574.84	669.39
575.01	648.33
575.17	706.84
575.33	662.37
575.49	723.23
575.65	716.20
575.82	664.71
575.98	648.33
576.14	702.16
576.30	739.61
576.46	901.11
576.62	894.08
576.79	933.87
576.95	858.98
577.11	809.83
577.27	777.06
577.43	854.30
577.59	713.86
577.75	767.70
577.92	690.46
578.08	737.27
578.24	723.23
578.40	748.97
578.56	877.70
578.72	882.38
578.88	844.93
579.04	882.38
579.21	807.48
579.37	791.10
579.53	723.23
579.69	805.14
579.85	730.25
580.01	784.08
580.17	781.74
580.33	784.08
580.49	748.97
580.65	725.57
580.82	788.76
580.98	692.80
581.14	819.19
581.30	795.78
581.46	748.97
581.62	702.16
581.78	758.33
581.94	727.91
582.10	746.63
582.26	767.70
582.42	807.48
582.58	793.44
582.74	779.40
582.90	812.17
583.06	807.48
583.22	884.72
583.38	716.20
583.54	739.61
583.70	833.23
583.86	828.55
584.02	842.59
584.18	748.97
584.34	751.31
584.50	772.38
584.66	812.17
584.82	807.48
584.98	842.59
585.14	781.74
585.30	814.51
585.46	830.89
585.62	763.01
585.78	828.55
585.94	774.72
586.10	772.38
586.26	730.25
586.42	847.27
586.58	812.17
586.74	851.96
586.90	847.27
587.06	887.06
587.22	884.72
587.38	884.72
587.54	868.34
587.70	863.66
587.86	795.78
588.02	816.85
588.18	751.31
588.34	875.36
588.49	746.63
588.65	770.04
588.81	748.97
588.97	671.73
589.13	695.14
589.29	725.57
589.45	823.87
589.61	737.27
589.77	800.46
589.93	718.54
590.08	725.57
590.24	667.05
590.40	699.82
590.56	676.41
590.72	730.25
590.88	744.29
591.04	716.20
591.20	669.39
591.35	697.48
591.51	779.40
591.67	751.31
591.83	765.36
591.99	751.31
592.15	683.44
592.31	802.80
592.46	821.53
592.62	835.57
592.78	767.70
592.94	866.00
593.10	835.57
593.26	781.74
593.41	786.42
593.57	774.72
593.73	807.48
593.89	788.76
594.05	791.10
594.20	725.57
594.36	798.12
594.52	683.44
594.68	634.29
594.84	770.04
594.99	737.27
595.15	709.18
595.31	732.59
595.47	748.97
595.62	624.92
595.78	664.71
595.94	690.46
596.10	709.18
596.25	741.95
596.41	695.14
596.57	741.95
596.73	751.31
596.88	751.31
597.04	723.23
597.20	655.35
597.36	699.82
597.51	685.78
597.67	763.01
597.83	800.46
597.99	706.84
598.14	718.54
598.30	723.23
598.46	858.98
598.61	727.91
598.77	758.33
598.93	767.70
599.09	805.14
599.24	777.06
599.40	802.80
599.56	751.31
599.71	746.63
599.87	704.50
600.03	704.50
600.18	720.88
600.34	748.97
600.50	723.23
600.65	758.33
600.81	685.78
600.97	741.95
601.12	674.07
601.28	741.95
601.44	716.20
601.59	671.73
601.75	709.18
601.91	664.71
602.06	683.44
602.22	753.65
602.37	713.86
602.53	734.93
602.69	699.82
602.84	678.76
603.00	727.91
603.16	676.41
603.31	674.07
603.47	725.57
603.62	627.26
603.78	699.82
603.94	636.63
604.09	655.35
604.25	765.36
604.40	692.80
604.56	692.80
604.71	709.18
604.87	706.84
605.03	685.78
605.18	683.44
605.34	734.93
605.49	664.71
605.65	636.63
605.80	674.07
605.96	678.76
606.12	648.33
606.27	777.06
606.43	695.14
606.58	718.54
606.74	664.71
606.89	727.91
607.05	681.10
607.20	734.93
607.36	741.95
607.51	711.52
607.67	683.44
607.82	741.95
607.98	706.84
608.13	758.33
608.29	763.01
608.44	706.84
608.60	814.51
608.75	774.72
608.91	758.33
609.06	802.80
609.22	851.96
609.37	884.72
609.53	772.38
609.68	814.51
