SpectraSuite Data File
++++++++++++++++++++++++++++++++++++
Date: Thu Oct 24 13:21:25 EDT 2013
User: stostad
Dark Spectrum Present: No
Reference Spectrum Present: No
Number of Sampled Component Spectra: 1
Spectrometers: USB2+H05261
Integration Time (usec): 100000 (USB2+H05261)
Spectra Averaged: 1 (USB2+H05261)
Boxcar Smoothing: 0 (USB2+H05261)
Correct for Electrical Dark: No (USB2+H05261)
Strobe/Lamp Enabled: No (USB2+H05261)
Correct for Detector Non-linearity: No (USB2+H05261)
Correct for Stray Light: No (USB2+H05261)
Number of Pixels in Processed Spectrum: 2048
>>>>>Begin Processed Spectral Data<<<<<
365.73	578.11
365.92	578.11
366.12	578.11
366.32	468.11
366.52	489.17
366.72	540.66
366.91	437.68
367.11	491.51
367.31	528.96
367.51	465.77
367.70	418.96
367.90	489.17
368.10	451.72
368.30	470.45
368.49	440.02
368.69	461.09
368.89	470.45
369.09	519.60
369.28	526.62
369.48	507.90
369.68	514.92
369.87	535.98
370.07	594.50
370.27	519.60
370.47	645.99
370.66	896.43
370.86	903.45
371.06	1039.20
371.25	978.34
371.45	959.62
371.65	1001.75
371.84	968.98
372.04	1011.11
372.24	957.28
372.44	1006.43
372.63	1036.86
372.83	994.73
373.03	1107.07
373.22	997.07
373.42	1078.99
373.62	1095.37
373.81	1104.73
374.01	1074.31
374.21	1114.10
374.40	1074.31
374.60	1078.99
374.79	1071.97
374.99	1114.10
375.19	1144.52
375.38	1102.39
375.58	1137.50
375.78	1142.18
375.97	1146.86
376.17	1203.04
376.37	1137.50
376.56	1165.59
376.76	1179.63
376.95	1167.93
377.15	1238.14
377.35	1174.95
377.54	1071.97
377.74	1088.35
377.93	1146.86
378.13	1144.52
378.33	1224.10
378.52	1212.40
378.72	1203.04
378.91	1179.63
379.11	1219.42
379.31	1188.99
379.50	1165.59
379.70	1270.91
379.89	1303.68
380.09	1277.93
380.28	1247.51
380.48	1289.64
380.68	1263.89
380.87	1284.95
381.07	1270.91
381.26	1336.45
381.46	1266.23
381.65	1329.42
381.85	1350.49
382.04	1355.17
382.24	1376.24
382.43	1336.45
382.63	1270.91
382.83	1343.47
383.02	1348.15
383.22	1331.76
383.41	1324.74
383.61	1406.66
383.80	1387.94
384.00	1380.92
384.19	1310.70
384.39	1401.98
384.58	1481.56
384.78	1387.94
384.97	1439.43
385.17	1437.09
385.36	1444.11
385.56	1465.18
385.75	1425.39
385.95	1474.54
386.14	1420.71
386.34	1390.28
386.53	1481.56
386.72	1511.99
386.92	1593.90
387.11	1511.99
387.31	1446.45
387.50	1544.75
387.70	1558.80
387.89	1519.01
388.09	1600.93
388.28	1542.41
388.48	1493.26
388.67	1507.30
388.86	1614.97
389.06	1533.05
389.25	1675.82
389.45	1626.67
389.64	1593.90
389.84	1600.93
390.03	1605.61
390.22	1717.95
390.42	1645.40
390.61	1540.07
390.81	1600.93
391.00	1647.74
391.19	1673.48
391.39	1682.85
391.58	1750.72
391.78	1680.50
391.97	1713.27
392.16	1830.30
392.36	1734.34
392.55	1760.08
392.75	1638.38
392.94	1657.10
393.13	1827.96
393.33	1778.81
393.52	1741.36
393.71	1823.28
393.91	1778.81
394.10	1851.36
394.29	1902.86
394.49	1790.51
394.68	1839.66
394.88	1877.11
395.07	1973.07
395.26	1935.62
395.46	1895.83
395.65	1930.94
395.84	1973.07
396.04	1968.39
396.23	1952.01
396.42	1989.46
396.62	1942.64
396.81	2010.52
397.00	1956.69
397.19	2022.22
397.39	2038.61
397.58	2059.67
397.77	2122.87
397.97	2101.80
398.16	2083.08
398.35	2092.44
398.55	2085.42
398.74	2172.02
398.93	2111.16
399.12	2111.16
399.32	2129.89
399.51	2148.61
399.70	2237.55
399.90	2167.34
400.09	2176.70
400.28	2232.87
400.47	2291.38
400.67	2284.36
400.86	2338.20
401.05	2361.60
401.24	2331.17
401.44	2377.98
401.63	2375.64
401.82	2450.54
402.01	2324.15
402.21	2366.28
402.40	2394.37
402.59	2436.50
402.78	2375.64
402.97	2429.48
403.17	2406.07
403.36	2539.48
403.55	2539.48
403.74	2562.89
403.93	2572.25
404.13	2527.78
404.32	2595.65
404.51	2607.36
404.70	2597.99
404.89	2597.99
405.09	2717.36
405.28	2785.24
405.47	2649.49
405.66	2684.59
405.85	2700.98
406.05	2789.92
406.24	2684.59
406.43	2698.64
406.62	2862.48
406.81	2794.60
407.00	2754.81
407.20	2738.43
407.39	2867.16
407.58	2874.18
407.77	2986.52
407.96	2923.33
408.15	2815.66
408.34	2998.23
408.54	3009.93
408.73	2902.26
408.92	3068.44
409.11	3105.89
409.30	3136.32
409.49	3143.34
409.68	3101.21
409.87	3019.29
410.07	3105.89
410.26	3101.21
410.45	3152.70
410.64	3068.44
410.83	3150.36
411.02	3183.13
411.21	3386.76
411.40	3302.50
411.59	3316.54
411.78	3279.09
411.98	3337.60
412.17	3241.64
412.36	3417.18
412.55	3478.04
412.74	3658.26
412.93	3510.80
413.12	3428.88
413.31	3627.83
413.50	3578.68
413.69	3735.50
413.88	3674.64
414.07	3735.50
414.26	3754.22
414.45	3716.77
414.64	3812.73
414.83	3836.14
415.02	3934.44
415.22	3920.40
415.41	4053.81
415.60	3960.19
415.79	4004.66
415.98	3946.14
416.17	4056.15
416.36	4095.94
416.55	4131.05
416.74	4126.36
416.93	4112.32
417.12	4184.88
417.31	4229.35
417.50	4273.82
417.69	4318.29
417.88	4285.52
418.07	4189.56
418.26	4271.48
418.45	4290.20
418.64	4547.66
418.83	4449.36
419.02	4528.94
419.21	4596.81
419.39	4550.00
419.58	4589.79
419.77	4512.55
419.96	4601.49
420.15	4671.71
420.34	4657.67
420.53	4690.43
420.72	4720.86
420.91	4758.31
421.10	4554.68
421.29	4685.75
421.48	4655.33
421.67	4786.40
421.86	4772.35
422.05	4725.54
422.24	4807.46
422.43	4770.01
422.61	4873.00
422.80	4912.78
422.99	4840.23
423.18	4992.36
423.37	4964.28
423.56	4978.32
423.75	4950.23
423.94	4770.01
424.13	4592.13
424.32	4814.48
424.50	4952.57
424.69	5013.43
424.88	4968.96
425.07	4901.08
425.26	4849.59
425.45	4870.65
425.64	4938.53
425.83	4887.04
426.01	4999.38
426.20	4926.83
426.39	5027.47
426.58	5123.43
426.77	5165.56
426.96	5071.94
427.15	5135.14
427.33	5240.46
427.52	5116.41
427.71	5219.39
427.90	5174.92
428.09	5114.07
428.28	5305.99
428.46	5334.08
428.65	5235.78
428.84	5235.78
429.03	5483.88
429.22	5266.21
429.40	5392.59
429.59	5416.00
429.78	5282.59
429.97	5198.33
430.16	5437.06
430.34	5591.54
430.53	5605.58
430.72	5411.32
430.91	5561.11
431.10	5486.22
431.28	5621.97
431.47	5631.33
431.66	5689.84
431.85	5570.48
432.03	5858.36
432.22	5841.98
432.41	5893.47
432.60	5970.71
432.79	5804.53
432.97	6008.16
433.16	5951.98
433.35	6019.86
433.54	5879.43
433.72	6043.26
433.91	6146.25
434.10	6085.39
434.28	5982.41
434.47	6139.23
434.66	6101.78
434.85	6139.23
435.03	6396.68
435.22	6204.76
435.41	6558.18
435.59	6422.43
435.78	6497.33
435.97	6363.92
436.16	6305.40
436.34	6424.77
436.53	6258.59
436.72	6476.26
436.90	6429.45
437.09	6384.98
437.28	6239.87
437.46	6583.93
437.65	6509.03
437.84	6621.38
438.02	6616.69
438.21	6621.38
438.40	6485.62
438.58	6761.81
438.77	6874.15
438.96	6731.38
439.14	6869.47
439.33	6937.35
439.52	6977.14
439.70	7002.88
439.89	7068.42
440.08	7124.59
440.26	7258.00
440.45	7155.02
440.63	7295.45
440.82	7344.60
441.01	7332.90
441.19	7531.84
441.38	7407.80
441.57	7393.75
441.75	7637.17
441.94	7672.28
442.12	7623.12
442.31	7803.35
442.50	7728.45
442.68	7667.60
442.87	7723.77
443.05	8009.31
443.24	8004.63
443.43	7932.08
443.61	7885.26
443.80	8021.02
443.98	7784.62
444.17	7538.87
444.35	7819.73
444.54	8067.83
444.73	8009.31
444.91	7967.18
445.10	8163.79
445.28	8025.70
445.47	7950.80
445.65	8070.17
445.84	8077.19
446.02	8147.40
446.21	8226.98
446.39	8084.21
446.58	8198.90
446.77	8056.12
446.95	8018.68
447.14	7941.44
447.32	8241.03
447.51	8084.21
447.69	7939.10
447.88	8084.21
448.06	8435.29
448.25	8166.13
448.43	8241.03
448.62	8271.45
448.80	8332.31
448.99	8360.39
449.17	8336.99
449.36	8271.45
449.54	8430.61
449.73	8566.36
449.91	8545.30
450.10	8706.79
450.28	8671.68
450.46	8800.41
450.65	8552.32
450.83	8638.92
451.02	8919.78
451.20	8830.84
451.39	8798.07
451.57	8798.07
451.76	8669.34
451.94	8833.18
452.13	9118.73
452.31	8968.93
452.49	8807.44
452.68	9160.86
452.86	9128.09
453.05	9022.77
453.23	9078.94
453.42	9135.11
453.60	8971.27
453.78	9083.62
453.97	9050.85
454.15	9034.47
454.34	8990.00
454.52	9305.97
454.70	9275.54
454.89	9408.95
455.07	9076.60
455.26	9509.60
455.44	9678.12
455.62	9425.34
455.81	9678.12
455.99	9488.53
456.17	9415.98
456.36	9666.41
456.54	9516.62
456.73	9877.06
456.91	9991.75
457.09	9837.27
457.28	9951.96
457.46	9694.50
457.64	9958.98
457.83	10106.43
458.01	9848.97
458.19	10127.50
458.38	10092.39
458.56	10169.63
458.74	10307.72
458.93	10143.88
459.11	10218.78
459.29	10228.14
459.48	10464.54
459.66	10200.05
459.84	10497.30
460.03	10450.49
460.21	10462.19
460.39	10375.59
460.57	10368.57
460.76	10604.97
460.94	10691.57
461.12	10590.92
461.31	10895.19
461.49	10607.31
461.67	10588.58
461.85	11066.05
462.04	10658.80
462.22	11307.13
462.40	11052.01
462.59	11084.78
462.77	11014.56
462.95	10951.37
463.13	10923.28
463.32	11014.56
463.50	11014.56
463.68	11126.91
463.86	11407.77
464.05	11108.18
464.23	11183.08
464.41	11356.28
464.59	10846.04
464.78	11524.80
464.96	11323.51
465.14	11169.04
465.32	11527.14
465.50	11529.48
465.69	11662.89
465.87	11524.80
466.05	11587.99
466.23	11580.97
466.41	11585.65
466.60	11840.77
466.78	11583.31
466.96	11721.40
467.14	11695.66
467.32	11520.12
467.51	11751.83
467.69	11693.32
467.87	11630.12
468.05	12044.40
468.23	11700.34
468.41	11686.29
468.60	11906.31
468.78	11918.01
468.96	12006.95
469.14	11995.25
469.32	12128.66
469.50	11927.37
469.69	11950.78
469.87	12475.06
470.05	12409.52
470.23	12458.67
470.41	12446.97
470.59	12596.76
470.77	12189.51
470.95	12596.76
471.14	12711.45
471.32	12664.64
471.50	12706.77
471.68	12746.56
471.86	12739.54
472.04	12706.77
472.22	13504.89
472.40	12901.03
472.58	12898.69
472.77	13399.57
472.95	13504.89
473.13	13659.37
473.31	13022.74
473.49	13231.05
473.67	13130.41
473.85	13476.80
474.03	13689.79
474.21	13673.41
474.39	13902.78
474.57	13720.22
474.75	14193.01
474.93	14148.54
475.12	13963.64
475.30	14188.33
475.48	13816.18
475.66	14375.57
475.84	14242.16
476.02	14492.60
476.20	14487.92
476.38	14658.78
476.56	15030.92
476.74	15084.75
476.92	14960.70
477.10	14813.25
477.28	15281.36
477.46	15087.09
477.64	15461.58
477.82	15403.07
478.00	15868.83
478.18	15576.27
478.36	15866.49
478.54	16105.23
478.72	16177.78
478.90	16297.15
479.08	16109.91
479.26	16517.16
479.44	16706.74
479.62	16741.85
479.80	17022.72
479.98	16716.11
480.16	17600.83
480.34	17062.51
480.52	17334.01
480.70	17631.26
480.88	17305.92
481.06	17640.62
481.24	17570.40
481.41	17937.87
481.59	18375.55
481.77	18558.11
481.95	18328.74
482.13	18696.20
482.31	18452.78
482.49	19077.71
482.67	19150.26
482.85	19098.77
483.03	19428.79
483.21	19328.14
483.39	19503.68
483.57	19487.30
483.74	19662.84
483.92	19978.81
484.10	20126.27
484.28	20229.25
484.46	20655.23
484.64	20896.30
484.82	20313.51
485.00	20739.49
485.18	20854.17
485.35	21200.57
485.53	21235.68
485.71	21664.00
485.89	22017.42
486.07	21537.61
486.25	21998.70
486.43	21970.61
486.61	22401.27
486.78	22586.17
486.96	22686.81
487.14	23178.33
487.32	23040.23
487.50	23295.35
487.68	23115.13
487.85	23655.79
488.03	24004.53
488.21	24170.71
488.39	24280.72
488.57	24507.75
488.75	24334.55
488.92	24503.07
489.10	24837.76
489.28	25249.70
489.46	25359.70
489.64	25149.06
489.81	25675.68
489.99	25724.83
490.17	25621.84
490.35	26281.88
490.53	26511.25
490.70	26597.85
490.88	26539.33
491.06	26485.50
491.24	26445.71
491.41	26941.91
491.59	27332.78
491.77	27356.18
491.95	27541.08
492.13	27784.50
492.30	27833.65
492.48	28144.94
492.66	27850.03
492.84	28755.82
493.01	28414.10
493.19	28465.60
493.37	28870.51
493.54	29151.37
493.72	29291.80
493.90	29252.02
494.08	29532.88
494.25	29504.79
494.43	29565.65
494.61	30080.56
494.79	30110.99
494.96	30113.33
495.14	30799.11
495.32	31131.47
495.49	30677.40
495.67	30761.66
495.85	31182.96
496.02	31924.91
496.20	31667.45
496.38	31810.22
496.55	31770.43
496.73	32388.33
496.91	32449.19
497.09	32287.69
497.26	32418.76
497.44	32224.50
497.62	32861.12
497.79	33130.28
497.97	32652.81
498.14	33628.82
498.32	33825.42
498.50	33989.26
498.67	34017.35
498.85	33184.12
499.03	33764.57
499.20	34127.35
499.38	34265.44
499.56	34396.51
499.73	34703.12
499.91	34518.22
500.08	35152.51
500.26	34555.67
500.44	35033.14
500.61	35133.78
500.79	35115.06
500.97	35374.86
501.14	35747.00
501.32	35477.84
501.49	35243.79
501.67	35742.32
501.84	36388.31
502.02	35824.24
502.20	36112.13
502.37	36327.45
502.55	36259.58
502.72	36741.73
502.90	36378.95
503.07	36613.00
503.25	37228.56
503.43	37202.82
503.60	37148.98
503.78	37296.44
503.95	37483.68
504.13	37462.61
504.30	37476.66
504.48	37635.81
504.65	38120.31
504.83	38022.00
505.01	38199.88
505.18	38073.49
505.36	38553.30
505.53	38012.64
505.71	38234.99
505.88	38824.81
506.06	38066.47
506.23	38850.55
506.41	38810.76
506.58	39164.18
506.76	38958.22
506.93	39374.83
507.11	39306.96
507.28	39672.08
507.46	39367.81
507.63	39917.84
507.81	40348.50
507.98	39744.64
508.16	39842.94
508.33	40470.20
508.50	40095.72
508.68	40734.68
508.85	40685.53
509.03	40442.12
509.20	40531.06
509.38	41404.08
509.55	40842.35
509.73	41282.37
509.90	41638.13
510.08	41429.82
510.25	41467.27
510.42	41537.49
510.60	41792.61
510.77	42169.43
510.95	41918.99
511.12	42398.80
511.30	42541.58
511.47	42426.89
511.64	42529.87
511.82	42974.58
511.99	42258.37
512.17	42761.59
512.34	42731.16
512.51	43271.82
512.69	43026.07
512.86	43276.51
513.04	43650.99
513.21	43620.56
513.38	43147.78
513.56	43707.16
513.73	43545.67
513.90	43868.66
514.08	43988.03
514.25	43873.34
514.43	44238.47
514.60	43997.39
514.77	44034.84
514.95	44212.72
515.12	44039.52
515.29	44460.82
515.47	44877.43
515.64	44744.02
515.81	45064.67
515.99	44514.65
516.16	44942.97
516.33	45380.65
516.51	45645.13
516.68	44954.67
516.85	45324.47
517.03	45488.31
517.20	46047.70
517.37	45214.47
517.54	45731.73
517.72	45647.47
517.89	45801.94
518.06	45867.48
518.24	45911.95
518.41	46047.70
518.58	45846.41
518.75	46164.73
518.93	46351.97
519.10	46485.38
519.27	46593.04
519.45	46529.85
519.62	46763.90
519.79	46794.33
519.96	46501.76
520.14	46717.09
520.31	46415.16
520.48	46829.44
520.65	46979.23
520.83	47856.93
521.00	47899.06
521.17	47580.75
521.34	47489.47
521.52	47491.81
521.69	47789.06
521.86	47957.58
522.03	48044.18
522.20	48100.35
522.38	48105.03
522.55	48203.33
522.72	48346.11
522.89	47746.93
523.07	48589.52
523.24	48643.35
523.41	48617.61
523.58	48774.42
523.75	48905.49
523.92	48992.09
524.10	49195.72
524.27	49179.34
524.44	48861.02
524.61	49031.88
524.78	49177.00
524.96	49059.97
525.13	49172.31
525.30	49322.11
525.47	49820.64
525.64	49499.99
525.81	49523.40
525.98	49654.47
526.16	49481.27
526.33	49694.25
526.50	49979.80
526.67	49682.55
526.84	50078.10
527.01	50167.04
527.18	50042.99
527.36	50129.59
527.53	50490.04
527.70	50574.30
527.87	50461.95
528.04	49977.46
528.21	50703.03
528.38	50628.13
528.55	50628.13
528.72	50890.27
528.89	50674.94
529.07	50263.00
529.24	50908.99
529.41	51107.94
529.58	51194.54
529.75	51377.10
529.92	51199.22
530.09	51330.29
530.26	51098.58
530.43	51433.27
530.60	51206.24
530.77	51419.23
530.94	51370.08
531.11	51433.27
531.28	51793.71
531.46	51669.67
531.63	51620.52
531.80	51620.52
531.97	51704.77
532.14	51798.40
532.31	51707.12
532.48	52215.01
532.65	52065.22
532.82	51985.64
532.99	51847.55
533.16	52203.31
533.33	52390.55
533.50	52530.98
533.67	52369.49
533.84	51906.06
534.01	52303.95
534.18	52364.81
534.35	52743.97
534.52	52554.39
534.69	52753.33
534.86	52519.28
535.03	52446.72
535.20	52999.09
535.37	52753.33
535.54	53113.78
535.71	52940.58
535.88	52828.23
536.05	52961.64
536.22	52959.30
536.38	52912.49
536.55	52959.30
536.72	53120.80
536.89	53083.35
537.06	53347.83
537.23	53462.52
537.40	53357.19
537.57	53469.54
537.74	53272.93
537.91	53521.03
538.08	53315.06
538.25	53446.13
538.42	53652.10
538.59	53565.50
538.75	53364.21
538.92	53516.35
539.09	53734.02
539.26	53848.71
539.43	53719.98
539.60	53834.66
539.77	53701.25
539.94	53811.26
540.11	54232.55
540.28	54164.68
540.44	54040.63
540.61	54113.19
540.78	54120.21
540.95	53998.50
541.12	54150.63
541.29	54319.15
541.46	54539.16
541.62	54433.84
541.79	54658.53
541.96	54255.96
542.13	54546.18
542.30	54422.14
542.47	54658.53
542.63	54541.50
542.80	54810.67
542.97	54937.05
543.14	55011.95
543.31	54831.73
543.48	54958.12
543.64	55208.56
543.81	55365.37
543.98	55084.51
544.15	55049.40
544.32	55435.59
544.48	55489.42
544.65	55311.54
544.82	55360.69
544.99	55166.43
545.16	55346.65
545.32	55622.83
545.49	55597.09
545.66	55812.41
545.83	55789.01
546.00	55882.63
546.16	55800.71
546.33	55643.90
546.50	55414.52
546.67	55550.27
546.83	54997.91
547.00	55650.92
547.17	55423.89
547.34	55723.47
547.50	55810.07
547.67	56121.37
547.84	55969.23
548.00	56079.24
548.17	56212.65
548.34	55833.48
548.51	56278.18
548.67	55899.01
548.84	56016.04
549.01	55781.99
549.18	55901.36
549.34	55999.66
549.51	56144.77
549.68	56128.39
549.84	56046.47
550.01	56357.76
550.18	55899.01
550.34	56301.59
550.51	56130.73
550.68	56360.10
550.84	56362.44
551.01	56594.15
551.18	56486.49
551.34	56299.25
551.51	56189.24
551.68	56360.10
551.84	56376.48
552.01	56566.07
552.18	56629.26
552.34	56549.68
552.51	56739.27
552.68	56671.39
552.84	56900.76
553.01	56711.18
553.18	56381.16
553.34	57071.62
553.51	56589.47
553.67	56493.51
553.84	56814.16
554.01	57066.94
554.17	56980.34
554.34	57144.18
554.51	57057.58
554.67	57207.37
554.84	56676.07
555.00	56835.23
555.17	56746.29
555.33	56982.68
555.50	57029.49
555.67	56952.26
555.83	57001.41
556.00	57186.31
556.16	57132.48
556.33	57036.51
556.50	57118.43
556.66	57102.05
556.83	56725.22
556.99	57310.36
557.16	57422.70
557.32	57591.22
557.49	57340.78
557.65	57345.47
557.82	57228.44
557.98	57268.23
558.15	57148.86
558.32	57324.40
558.48	57261.21
558.65	57408.66
558.81	57490.58
558.98	57645.05
559.14	57490.58
559.31	57415.68
559.47	57467.17
559.64	57560.79
559.80	57263.55
559.97	57689.52
560.13	57612.29
560.30	57413.34
560.46	57750.38
560.63	57715.27
560.79	57694.21
560.96	57900.17
561.12	57577.18
561.29	57755.06
561.45	57535.05
561.61	57738.68
561.78	57923.58
561.94	57584.20
562.11	58122.52
562.27	57942.30
562.44	57996.13
562.60	57925.92
562.77	57785.49
562.93	57925.92
563.10	57951.66
563.26	57780.81
563.42	58042.95
563.59	57855.70
563.75	58017.20
563.92	58064.01
564.08	57939.96
564.24	58192.74
564.41	58122.52
564.57	58033.58
564.74	57715.27
564.90	58056.99
565.07	58234.87
565.23	58204.44
565.39	58178.70
565.56	58438.50
565.72	58047.63
565.88	58206.78
566.05	58157.63
566.21	58113.16
566.38	57773.78
566.54	58010.18
566.70	58122.52
566.87	58328.49
567.03	58223.17
567.19	58702.98
567.36	58478.28
567.52	58216.14
567.68	58145.93
567.85	58117.84
568.01	58422.11
568.17	58113.16
568.34	58358.92
568.50	58204.44
568.66	58199.76
568.83	58447.86
568.99	58199.76
569.15	58358.92
569.32	58471.26
569.48	58211.46
569.64	58335.51
569.81	58199.76
569.97	58120.18
570.13	58382.32
570.30	58288.70
570.46	58337.85
570.62	58272.32
570.78	58323.81
570.95	58166.99
571.11	58489.99
571.27	58321.47
571.43	58227.85
571.60	58190.40
571.76	58365.94
571.92	58314.45
572.09	58475.94
572.25	58562.54
572.41	58471.26
572.57	58695.95
572.74	58681.91
572.90	58422.11
573.06	58557.86
573.22	58384.66
573.38	58576.59
573.55	58614.04
573.71	58911.28
573.87	58681.91
574.03	58777.87
574.20	58581.27
574.36	58541.48
574.52	58677.23
574.68	58520.41
574.84	58864.47
575.01	58623.40
575.17	58719.36
575.33	58724.04
575.49	58693.61
575.65	58625.74
575.82	58663.19
575.98	58419.77
576.14	58747.45
576.30	58869.15
576.46	58557.86
576.62	58288.70
576.79	58506.37
576.95	58607.01
577.11	58724.04
577.27	58866.81
577.43	58735.74
577.59	58543.82
577.75	58632.76
577.92	58724.04
578.08	58665.53
578.24	58578.93
578.40	58637.44
578.56	58864.47
578.72	58843.41
578.88	58885.54
579.04	59145.34
579.21	58843.41
579.37	58773.19
579.53	59061.08
579.69	58571.91
579.85	58801.28
580.01	58717.02
580.17	58822.34
580.33	58752.13
580.49	58944.05
580.65	59135.98
580.82	58834.05
580.98	58791.92
581.14	58946.39
581.30	58944.05
581.46	58794.26
581.62	58988.52
581.78	58901.92
581.94	58838.73
582.10	58939.37
582.26	58939.37
582.42	58803.62
582.58	58869.15
582.74	59044.69
582.90	59161.72
583.06	58838.73
583.22	58604.67
583.38	59075.12
583.54	58770.85
583.70	58859.79
583.86	59068.10
584.02	58927.67
584.18	59215.55
584.34	58904.26
584.50	59128.95
584.66	59047.04
584.82	58752.13
584.98	58901.92
585.14	59011.93
585.30	58869.15
585.46	58864.47
585.62	58848.09
585.78	59070.44
585.94	59058.74
586.10	59018.95
586.26	59018.95
586.42	59241.30
586.58	58897.24
586.74	58993.20
586.90	58983.84
587.06	59063.42
587.22	59173.42
587.38	59201.51
587.54	59091.51
587.70	59131.29
587.86	59264.70
588.02	59267.05
588.18	59196.83
