SpectraSuite Data File
++++++++++++++++++++++++++++++++++++
Date: Thu Oct 24 13:21:01 EDT 2013
User: stostad
Dark Spectrum Present: No
Reference Spectrum Present: No
Number of Sampled Component Spectra: 1
Spectrometers: USB2+H05261
Integration Time (usec): 100000 (USB2+H05261)
Spectra Averaged: 1 (USB2+H05261)
Boxcar Smoothing: 0 (USB2+H05261)
Correct for Electrical Dark: No (USB2+H05261)
Strobe/Lamp Enabled: No (USB2+H05261)
Correct for Detector Non-linearity: No (USB2+H05261)
Correct for Stray Light: No (USB2+H05261)
Number of Pixels in Processed Spectrum: 2048
>>>>>Begin Processed Spectral Data<<<<<
365.73	491.51
365.92	491.51
366.12	491.51
366.32	491.51
366.52	463.43
366.72	498.53
366.91	528.96
367.11	407.25
367.31	437.68
367.51	430.66
367.70	435.34
367.90	411.93
368.10	470.45
368.30	447.04
368.49	440.02
368.69	472.79
368.89	461.09
369.09	496.19
369.28	531.30
369.48	454.06
369.68	477.47
369.87	535.98
370.07	561.73
370.27	629.60
370.47	566.41
370.66	538.32
370.86	601.52
371.06	571.09
371.25	608.54
371.45	592.16
371.65	613.22
371.84	606.20
372.04	557.05
372.24	503.22
372.44	592.16
372.63	592.16
372.83	653.01
373.03	599.18
373.22	620.24
373.42	622.58
373.62	578.11
373.81	634.29
374.01	599.18
374.21	599.18
374.40	622.58
374.60	636.63
374.79	594.50
374.99	664.71
375.19	615.56
375.38	641.31
375.58	674.07
375.78	638.97
375.97	695.14
376.17	748.97
376.37	629.60
376.56	634.29
376.76	627.26
376.95	524.28
377.15	634.29
377.35	622.58
377.54	653.01
377.74	636.63
377.93	615.56
378.13	645.99
378.33	638.97
378.52	683.44
378.72	692.80
378.91	643.65
379.11	592.16
379.31	643.65
379.50	594.50
379.70	664.71
379.89	608.54
380.09	603.86
380.28	573.43
380.48	615.56
380.68	631.94
380.87	606.20
381.07	685.78
381.26	582.79
381.46	559.39
381.65	702.16
381.85	664.71
382.04	627.26
382.24	653.01
382.43	648.33
382.63	566.41
382.83	650.67
383.02	587.47
383.22	547.69
383.41	557.05
383.61	641.31
383.80	624.92
384.00	575.77
384.19	571.09
384.39	669.39
384.58	571.09
384.78	678.76
384.97	622.58
385.17	601.52
385.36	660.03
385.56	610.88
385.75	638.97
385.95	613.22
386.14	608.54
386.34	599.18
386.53	585.13
386.72	582.79
386.92	517.26
387.11	641.31
387.31	587.47
387.50	496.19
387.70	657.69
387.89	629.60
388.09	674.07
388.28	704.50
388.48	580.45
388.67	692.80
388.86	678.76
389.06	594.50
389.25	582.79
389.45	634.29
389.64	603.86
389.84	678.76
390.03	631.94
390.22	624.92
390.42	641.31
390.61	664.71
390.81	674.07
391.00	662.37
391.19	671.73
391.39	664.71
391.58	606.20
391.78	692.80
391.97	636.63
392.16	636.63
392.36	636.63
392.55	636.63
392.75	526.62
392.94	645.99
393.13	660.03
393.33	643.65
393.52	667.05
393.71	620.24
393.91	645.99
394.10	589.82
394.29	657.69
394.49	685.78
394.68	585.13
394.88	601.52
395.07	662.37
395.26	599.18
395.46	638.97
395.65	533.64
395.84	648.33
396.04	720.88
396.23	650.67
396.42	585.13
396.62	550.03
396.81	676.41
397.00	617.90
397.19	624.92
397.39	580.45
397.58	599.18
397.77	568.75
397.97	601.52
398.16	575.77
398.35	575.77
398.55	709.18
398.74	631.94
398.93	601.52
399.12	617.90
399.32	648.33
399.51	667.05
399.70	638.97
399.90	657.69
400.09	620.24
400.28	641.31
400.47	678.76
400.67	601.52
400.86	655.35
401.05	664.71
401.24	610.88
401.44	608.54
401.63	568.75
401.82	603.86
402.01	564.07
402.21	550.03
402.40	582.79
402.59	589.82
402.78	603.86
402.97	620.24
403.17	606.20
403.36	660.03
403.55	622.58
403.74	657.69
403.93	730.25
404.13	690.46
404.32	669.39
404.51	634.29
404.70	713.86
404.89	596.84
405.09	613.22
405.28	514.92
405.47	594.50
405.66	613.22
405.85	557.05
406.05	617.90
406.24	622.58
406.43	657.69
406.62	615.56
406.81	704.50
407.00	643.65
407.20	706.84
407.39	688.12
407.58	709.18
407.77	660.03
407.96	676.41
408.15	655.35
408.34	718.54
408.54	613.22
408.73	674.07
408.92	582.79
409.11	578.11
409.30	613.22
409.49	657.69
409.68	641.31
409.87	655.35
410.07	589.82
410.26	603.86
410.45	650.67
410.64	610.88
410.83	620.24
411.02	585.13
411.21	692.80
411.40	662.37
411.59	678.76
411.78	657.69
411.98	547.69
412.17	613.22
412.36	610.88
412.55	596.84
412.74	631.94
412.93	653.01
413.12	610.88
413.31	631.94
413.50	683.44
413.69	594.50
413.88	615.56
414.07	655.35
414.26	580.45
414.45	634.29
414.64	681.10
414.83	627.26
415.02	653.01
415.22	641.31
415.41	695.14
415.60	608.54
415.79	592.16
415.98	702.16
416.17	596.84
416.36	622.58
416.55	636.63
416.74	674.07
416.93	634.29
417.12	620.24
417.31	615.56
417.50	627.26
417.69	636.63
417.88	674.07
418.07	620.24
418.26	653.01
418.45	627.26
418.64	629.60
418.83	585.13
419.02	704.50
419.21	674.07
419.39	695.14
419.58	615.56
419.77	657.69
419.96	603.86
420.15	624.92
420.34	573.43
420.53	596.84
420.72	655.35
420.91	627.26
421.10	627.26
421.29	653.01
421.48	723.23
421.67	634.29
421.86	681.10
422.05	603.86
422.24	573.43
422.43	657.69
422.61	599.18
422.80	617.90
422.99	688.12
423.18	608.54
423.37	718.54
423.56	638.97
423.75	643.65
423.94	627.26
424.13	603.86
424.32	559.39
424.50	631.94
424.69	557.05
424.88	631.94
425.07	622.58
425.26	613.22
425.45	594.50
425.64	641.31
425.83	601.52
426.01	603.86
426.20	615.56
426.39	608.54
426.58	596.84
426.77	674.07
426.96	695.14
427.15	692.80
427.33	545.34
427.52	585.13
427.71	643.65
427.90	573.43
428.09	692.80
428.28	667.05
428.46	603.86
428.65	667.05
428.84	568.75
429.03	629.60
429.22	573.43
429.40	608.54
429.59	594.50
429.78	664.71
429.97	683.44
430.16	643.65
430.34	657.69
430.53	650.67
430.72	636.63
430.91	657.69
431.10	655.35
431.28	627.26
431.47	678.76
431.66	695.14
431.85	578.11
432.03	653.01
432.22	608.54
432.41	678.76
432.60	748.97
432.79	674.07
432.97	631.94
433.16	645.99
433.35	613.22
433.54	622.58
433.72	638.97
433.91	655.35
434.10	688.12
434.28	613.22
434.47	636.63
434.66	695.14
434.85	617.90
435.03	765.36
435.22	957.28
435.41	1135.16
435.59	1062.60
435.78	971.32
435.97	842.59
436.16	760.67
436.34	723.23
436.53	667.05
436.72	681.10
436.90	650.67
437.09	608.54
437.28	620.24
437.46	641.31
437.65	676.41
437.84	624.92
438.02	634.29
438.21	538.32
438.40	690.46
438.58	631.94
438.77	610.88
438.96	643.65
439.14	620.24
439.33	667.05
439.52	568.75
439.70	601.52
439.89	720.88
440.08	674.07
440.26	650.67
440.45	624.92
440.63	608.54
440.82	603.86
441.01	688.12
441.19	702.16
441.38	655.35
441.57	643.65
441.75	620.24
441.94	653.01
442.12	671.73
442.31	615.56
442.50	655.35
442.68	575.77
442.87	690.46
443.05	613.22
443.24	564.07
443.43	631.94
443.61	713.86
443.80	643.65
443.98	648.33
444.17	615.56
444.35	664.71
444.54	655.35
444.73	564.07
444.91	713.86
445.10	550.03
445.28	634.29
445.47	704.50
445.65	617.90
445.84	634.29
446.02	634.29
446.21	683.44
446.39	636.63
446.58	667.05
446.77	692.80
446.95	650.67
447.14	552.37
447.32	727.91
447.51	638.97
447.69	645.99
447.88	711.52
448.06	683.44
448.25	613.22
448.43	571.09
448.62	631.94
448.80	589.82
448.99	650.67
449.17	557.05
449.36	547.69
449.54	617.90
449.73	669.39
449.91	641.31
450.10	596.84
450.28	653.01
450.46	643.65
450.65	636.63
450.83	678.76
451.02	636.63
451.20	599.18
451.39	660.03
451.57	660.03
451.76	580.45
451.94	641.31
452.13	671.73
452.31	688.12
452.49	690.46
452.68	627.26
452.86	615.56
453.05	716.20
453.23	601.52
453.42	648.33
453.60	631.94
453.78	622.58
453.97	617.90
454.15	657.69
454.34	601.52
454.52	624.92
454.70	617.90
454.89	662.37
455.07	671.73
455.26	641.31
455.44	622.58
455.62	606.20
455.81	711.52
455.99	641.31
456.17	671.73
456.36	645.99
456.54	601.52
456.73	674.07
456.91	669.39
457.09	608.54
457.28	664.71
457.46	683.44
457.64	615.56
457.83	648.33
458.01	629.60
458.19	622.58
458.38	561.73
458.56	608.54
458.74	622.58
458.93	594.50
459.11	629.60
459.29	683.44
459.48	653.01
459.66	624.92
459.84	606.20
460.03	615.56
460.21	585.13
460.39	671.73
460.57	641.31
460.76	678.76
460.94	599.18
461.12	697.48
461.31	653.01
461.49	631.94
461.67	662.37
461.85	636.63
462.04	636.63
462.22	877.70
462.40	667.05
462.59	667.05
462.77	650.67
462.95	594.50
463.13	601.52
463.32	620.24
463.50	688.12
463.68	573.43
463.86	620.24
464.05	655.35
464.23	660.03
464.41	688.12
464.59	610.88
464.78	653.01
464.96	564.07
465.14	638.97
465.32	627.26
465.50	645.99
465.69	587.47
465.87	578.11
466.05	629.60
466.23	645.99
466.41	657.69
466.60	671.73
466.78	514.92
466.96	585.13
467.14	585.13
467.32	676.41
467.51	585.13
467.69	603.86
467.87	634.29
468.05	688.12
468.23	678.76
468.41	615.56
468.60	620.24
468.78	660.03
468.96	617.90
469.14	594.50
469.32	657.69
469.50	655.35
469.69	580.45
469.87	660.03
470.05	622.58
470.23	648.33
470.41	664.71
470.59	627.26
470.77	636.63
470.95	575.77
471.14	547.69
471.32	631.94
471.50	678.76
471.68	631.94
471.86	664.71
472.04	711.52
472.22	648.33
472.40	615.56
472.58	662.37
472.77	613.22
472.95	620.24
473.13	603.86
473.31	662.37
473.49	653.01
473.67	662.37
473.85	688.12
474.03	620.24
474.21	667.05
474.39	704.50
474.57	657.69
474.75	657.69
474.93	582.79
475.12	617.90
475.30	622.58
475.48	655.35
475.66	674.07
475.84	638.97
476.02	681.10
476.20	678.76
476.38	676.41
476.56	631.94
476.74	627.26
476.92	634.29
477.10	655.35
477.28	662.37
477.46	603.86
477.64	631.94
477.82	678.76
478.00	657.69
478.18	582.79
478.36	601.52
478.54	657.69
478.72	660.03
478.90	667.05
479.08	653.01
479.26	660.03
479.44	695.14
479.62	606.20
479.80	676.41
479.98	587.47
480.16	653.01
480.34	631.94
480.52	678.76
480.70	592.16
480.88	599.18
481.06	641.31
481.24	622.58
481.41	688.12
481.59	550.03
481.77	622.58
481.95	653.01
482.13	620.24
482.31	692.80
482.49	674.07
482.67	636.63
482.85	697.48
483.03	624.92
483.21	657.69
483.39	650.67
483.57	655.35
483.74	650.67
483.92	690.46
484.10	699.82
484.28	667.05
484.46	655.35
484.64	690.46
484.82	685.78
485.00	758.33
485.18	636.63
485.35	741.95
485.53	713.86
485.71	739.61
485.89	718.54
486.07	699.82
486.25	800.46
486.43	751.31
486.61	788.76
486.78	753.65
486.96	730.25
487.14	732.59
487.32	737.27
487.50	638.97
487.68	767.70
487.85	641.31
488.03	676.41
488.21	746.63
488.39	816.85
488.57	690.46
488.75	711.52
488.92	765.36
489.10	716.20
489.28	774.72
489.46	671.73
489.64	760.67
489.81	692.80
489.99	716.20
490.17	685.78
490.35	774.72
490.53	720.88
490.70	638.97
490.88	816.85
491.06	643.65
491.24	669.39
491.41	793.44
491.59	713.86
491.77	744.29
491.95	685.78
492.13	657.69
492.30	695.14
492.48	692.80
492.66	737.27
492.84	648.33
493.01	725.57
493.19	725.57
493.37	847.27
493.54	704.50
493.72	695.14
493.90	788.76
494.08	683.44
494.25	683.44
494.43	645.99
494.61	678.76
494.79	655.35
494.96	727.91
495.14	636.63
495.32	706.84
495.49	695.14
495.67	664.71
495.85	683.44
496.02	678.76
496.20	667.05
496.38	702.16
496.55	648.33
496.73	667.05
496.91	624.92
497.09	671.73
497.26	667.05
497.44	779.40
497.62	645.99
497.79	676.41
497.97	739.61
498.14	711.52
498.32	578.11
498.50	716.20
498.67	667.05
498.85	603.86
499.03	681.10
499.20	727.91
499.38	575.77
499.56	732.59
499.73	699.82
499.91	662.37
500.08	688.12
500.26	699.82
500.44	667.05
500.61	657.69
500.79	664.71
500.97	695.14
501.14	716.20
501.32	669.39
501.49	699.82
501.67	568.75
501.84	592.16
502.02	683.44
502.20	648.33
502.37	702.16
502.55	660.03
502.72	702.16
502.90	709.18
503.07	655.35
503.25	667.05
503.43	645.99
503.60	676.41
503.78	624.92
503.95	674.07
504.13	690.46
504.30	779.40
504.48	624.92
504.65	695.14
504.83	615.56
505.01	585.13
505.18	713.86
505.36	641.31
505.53	638.97
505.71	662.37
505.88	631.94
506.06	610.88
506.23	578.11
506.41	629.60
506.58	685.78
506.76	662.37
506.93	660.03
507.11	688.12
507.28	643.65
507.46	648.33
507.63	575.77
507.81	695.14
507.98	645.99
508.16	648.33
508.33	725.57
508.50	716.20
508.68	671.73
508.85	631.94
509.03	578.11
509.20	627.26
509.38	624.92
509.55	683.44
509.73	660.03
509.90	629.60
510.08	638.97
510.25	617.90
510.42	706.84
510.60	662.37
510.77	674.07
510.95	653.01
511.12	653.01
511.30	554.71
511.47	660.03
511.64	697.48
511.82	692.80
511.99	706.84
512.17	636.63
512.34	550.03
512.51	634.29
512.69	669.39
512.86	795.78
513.04	669.39
513.21	615.56
513.38	716.20
513.56	599.18
513.73	695.14
513.90	624.92
514.08	662.37
514.25	650.67
514.43	641.31
514.60	615.56
514.77	641.31
514.95	596.84
515.12	667.05
515.29	650.67
515.47	695.14
515.64	662.37
515.81	690.46
515.99	662.37
516.16	636.63
516.33	650.67
516.51	636.63
516.68	688.12
516.85	601.52
517.03	692.80
517.20	610.88
517.37	627.26
517.54	645.99
517.72	610.88
517.89	601.52
518.06	573.43
518.24	777.06
518.41	697.48
518.58	624.92
518.75	622.58
518.93	650.67
519.10	699.82
519.27	683.44
519.45	648.33
519.62	636.63
519.79	580.45
519.96	610.88
520.14	615.56
520.31	622.58
520.48	669.39
520.65	648.33
520.83	589.82
521.00	669.39
521.17	725.57
521.34	702.16
521.52	615.56
521.69	617.90
521.86	624.92
522.03	617.90
522.20	655.35
522.38	631.94
522.55	648.33
522.72	585.13
522.89	582.79
523.07	681.10
523.24	667.05
523.41	744.29
523.58	669.39
523.75	620.24
523.92	624.92
524.10	681.10
524.27	594.50
524.44	596.84
524.61	638.97
524.78	662.37
524.96	653.01
525.13	636.63
525.30	688.12
525.47	603.86
525.64	631.94
525.81	653.01
525.98	601.52
526.16	676.41
526.33	664.71
526.50	636.63
526.67	645.99
526.84	720.88
527.01	648.33
527.18	678.76
527.36	669.39
527.53	655.35
527.70	645.99
527.87	638.97
528.04	641.31
528.21	678.76
528.38	683.44
528.55	634.29
528.72	653.01
528.89	683.44
529.07	615.56
529.24	641.31
529.41	660.03
529.58	711.52
529.75	622.58
529.92	655.35
530.09	650.67
530.26	681.10
530.43	674.07
530.60	676.41
530.77	711.52
530.94	610.88
531.11	664.71
531.28	653.01
531.46	638.97
531.63	559.39
531.80	706.84
531.97	631.94
532.14	615.56
532.31	681.10
532.48	643.65
532.65	669.39
532.82	634.29
532.99	676.41
533.16	718.54
533.33	620.24
533.50	641.31
533.67	674.07
533.84	774.72
534.01	685.78
534.18	655.35
534.35	641.31
534.52	634.29
534.69	653.01
534.86	697.48
535.03	648.33
535.20	706.84
535.37	695.14
535.54	741.95
535.71	683.44
535.88	671.73
536.05	660.03
536.22	690.46
536.38	695.14
536.55	685.78
536.72	720.88
536.89	648.33
537.06	727.91
537.23	671.73
537.40	706.84
537.57	692.80
537.74	781.74
537.91	793.44
538.08	770.04
538.25	807.48
538.42	842.59
538.59	753.65
538.75	753.65
538.92	718.54
539.09	784.08
539.26	800.46
539.43	802.80
539.60	896.43
539.77	760.67
539.94	863.66
540.11	873.02
540.28	905.79
540.44	976.00
540.61	938.55
540.78	1004.09
540.95	1125.80
541.12	1191.33
541.29	1158.57
541.46	1266.23
541.62	1303.68
541.79	1289.64
541.96	1317.72
542.13	1254.53
542.30	1296.66
542.47	1324.74
542.63	1247.51
542.80	1226.44
542.97	1254.53
543.14	1181.97
543.31	1191.33
543.48	1170.27
543.64	1254.53
543.81	1238.14
543.98	1266.23
544.15	1205.38
544.32	1238.14
544.48	1191.33
544.65	1181.97
544.82	1282.61
544.99	1233.46
545.16	1247.51
545.32	1193.67
545.49	1568.16
545.66	2054.99
545.83	2146.27
546.00	1966.05
546.16	1689.87
546.33	1451.13
546.50	1315.38
546.67	1306.02
546.83	1123.46
547.00	1041.54
547.17	940.90
547.34	976.00
547.50	926.85
547.67	1050.90
547.84	1013.45
548.00	870.68
548.17	957.28
548.34	889.40
548.51	903.45
548.67	924.51
548.84	854.30
549.01	868.34
549.18	945.58
549.34	861.32
549.51	863.66
549.68	809.83
549.84	840.25
550.01	868.34
550.18	851.96
550.34	858.98
550.51	805.14
550.68	795.78
550.84	767.70
551.01	774.72
551.18	774.72
551.34	758.33
551.51	837.91
551.68	690.46
551.84	699.82
552.01	760.67
552.18	697.48
552.34	711.52
552.51	800.46
552.68	737.27
552.84	643.65
553.01	723.23
553.18	732.59
553.34	720.88
553.51	730.25
553.67	781.74
553.84	774.72
554.01	727.91
554.17	695.14
554.34	657.69
554.51	699.82
554.67	683.44
554.84	704.50
555.00	702.16
555.17	753.65
555.33	699.82
555.50	645.99
555.67	653.01
555.83	631.94
556.00	676.41
556.16	758.33
556.33	669.39
556.50	617.90
556.66	692.80
556.83	645.99
556.99	624.92
557.16	676.41
557.32	711.52
557.49	653.01
557.65	697.48
557.82	669.39
557.98	706.84
558.15	580.45
558.32	681.10
558.48	629.60
558.65	620.24
558.81	610.88
558.98	648.33
559.14	660.03
559.31	657.69
559.47	662.37
559.64	718.54
559.80	650.67
559.97	645.99
560.13	624.92
560.30	671.73
560.46	608.54
560.63	638.97
560.79	603.86
560.96	676.41
561.12	685.78
561.29	636.63
561.45	685.78
561.61	634.29
561.78	718.54
561.94	692.80
562.11	629.60
562.27	608.54
562.44	732.59
562.60	671.73
562.77	716.20
562.93	723.23
563.10	706.84
563.26	676.41
563.42	671.73
563.59	688.12
563.75	615.56
563.92	643.65
564.08	629.60
564.24	737.27
564.41	660.03
564.57	650.67
564.74	631.94
564.90	669.39
565.07	643.65
565.23	617.90
565.39	599.18
565.56	692.80
565.72	662.37
565.88	653.01
566.05	608.54
566.21	610.88
566.38	678.76
566.54	671.73
566.70	627.26
566.87	578.11
567.03	683.44
567.19	617.90
567.36	627.26
567.52	596.84
567.68	622.58
567.85	638.97
568.01	657.69
568.17	622.58
568.34	627.26
568.50	678.76
568.66	540.66
568.83	748.97
568.99	631.94
569.15	629.60
569.32	678.76
569.48	638.97
569.64	627.26
569.81	674.07
569.97	674.07
570.13	709.18
570.30	664.71
570.46	660.03
570.62	575.77
570.78	650.67
570.95	629.60
571.11	601.52
571.27	676.41
571.43	587.47
571.60	610.88
571.76	697.48
571.92	645.99
572.09	669.39
572.25	641.31
572.41	638.97
572.57	697.48
572.74	627.26
572.90	718.54
573.06	634.29
573.22	620.24
573.38	702.16
573.55	709.18
573.71	692.80
573.87	688.12
574.03	613.22
574.20	636.63
574.36	662.37
574.52	683.44
574.68	683.44
574.84	629.60
575.01	664.71
575.17	627.26
575.33	683.44
575.49	653.01
575.65	608.54
575.82	657.69
575.98	638.97
576.14	629.60
576.30	741.95
576.46	798.12
576.62	833.23
576.79	959.62
576.95	919.83
577.11	861.32
577.27	779.40
577.43	704.50
577.59	760.67
577.75	727.91
577.92	706.84
578.08	669.39
578.24	685.78
578.40	718.54
578.56	788.76
578.72	905.79
578.88	891.74
579.04	922.17
579.21	816.85
579.37	706.84
579.53	791.10
579.69	784.08
579.85	727.91
580.01	809.83
580.17	812.17
580.33	709.18
580.49	699.82
580.65	763.01
580.82	723.23
580.98	711.52
581.14	718.54
581.30	685.78
581.46	737.27
581.62	800.46
581.78	795.78
581.94	784.08
582.10	711.52
582.26	746.63
582.42	739.61
582.58	748.97
582.74	802.80
582.90	788.76
583.06	835.57
583.22	765.36
583.38	812.17
583.54	807.48
583.70	842.59
583.86	777.06
584.02	716.20
584.18	851.96
584.34	734.93
584.50	699.82
584.66	763.01
584.82	788.76
584.98	681.10
585.14	826.21
585.30	744.29
585.46	767.70
585.62	791.10
585.78	716.20
585.94	739.61
586.10	744.29
586.26	760.67
586.42	774.72
586.58	788.76
586.74	767.70
586.90	915.15
587.06	894.08
587.22	877.70
587.38	863.66
587.54	844.93
587.70	896.43
587.86	795.78
588.02	748.97
588.18	807.48
588.34	772.38
588.49	711.52
588.65	788.76
588.81	702.16
588.97	730.25
589.13	753.65
589.29	763.01
589.45	788.76
589.61	816.85
589.77	767.70
589.93	774.72
590.08	744.29
590.24	667.05
590.40	681.10
590.56	725.57
590.72	741.95
590.88	770.04
591.04	718.54
591.20	718.54
591.35	732.59
591.51	739.61
591.67	732.59
591.83	791.10
591.99	786.42
592.15	772.38
592.31	807.48
592.46	716.20
592.62	795.78
592.78	823.87
592.94	866.00
593.10	814.51
593.26	809.83
593.41	854.30
593.57	760.67
593.73	777.06
593.89	767.70
594.05	741.95
594.20	718.54
594.36	744.29
594.52	667.05
594.68	720.88
594.84	725.57
594.99	777.06
595.15	699.82
595.31	720.88
595.47	699.82
595.62	655.35
595.78	643.65
595.94	674.07
596.10	739.61
596.25	681.10
596.41	720.88
596.57	725.57
596.73	704.50
596.88	662.37
597.04	741.95
597.20	645.99
597.36	798.12
597.51	713.86
597.67	711.52
597.83	610.88
597.99	730.25
598.14	741.95
598.30	748.97
598.46	669.39
598.61	746.63
598.77	748.97
598.93	713.86
599.09	732.59
599.24	716.20
599.40	702.16
599.56	755.99
599.71	739.61
599.87	725.57
600.03	692.80
600.18	702.16
600.34	725.57
600.50	669.39
600.65	737.27
600.81	744.29
600.97	669.39
601.12	706.84
601.28	695.14
601.44	667.05
601.59	765.36
601.75	695.14
601.91	716.20
602.06	674.07
602.22	727.91
602.37	641.31
602.53	758.33
602.69	671.73
602.84	678.76
603.00	669.39
603.16	692.80
603.31	821.53
603.47	709.18
603.62	730.25
603.78	734.93
603.94	732.59
604.09	657.69
604.25	638.97
604.40	709.18
604.56	695.14
604.71	608.54
604.87	650.67
605.03	641.31
605.18	594.50
605.34	669.39
605.49	699.82
605.65	718.54
605.80	648.33
605.96	725.57
606.12	732.59
606.27	758.33
606.43	638.97
606.58	685.78
606.74	669.39
606.89	739.61
607.05	725.57
607.20	720.88
607.36	725.57
607.51	734.93
607.67	702.16
607.82	723.23
607.98	793.44
608.13	744.29
608.29	777.06
608.44	837.91
608.60	791.10
608.75	746.63
608.91	819.19
609.06	844.93
609.22	774.72
609.37	805.14
609.53	877.70
609.68	908.13
609.84	947.92
