SpectraSuite Data File
++++++++++++++++++++++++++++++++++++
Date: Thu Oct 24 13:21:12 EDT 2013
User: stostad
Dark Spectrum Present: No
Reference Spectrum Present: No
Number of Sampled Component Spectra: 1
Spectrometers: USB2+H05261
Integration Time (usec): 100000 (USB2+H05261)
Spectra Averaged: 1 (USB2+H05261)
Boxcar Smoothing: 0 (USB2+H05261)
Correct for Electrical Dark: No (USB2+H05261)
Strobe/Lamp Enabled: No (USB2+H05261)
Correct for Detector Non-linearity: No (USB2+H05261)
Correct for Stray Light: No (USB2+H05261)
Number of Pixels in Processed Spectrum: 2048
>>>>>Begin Processed Spectral Data<<<<<
365.73	566.41
365.92	566.41
366.12	566.41
366.32	491.51
366.52	472.79
366.72	493.85
366.91	433.00
367.11	472.79
367.31	444.70
367.51	463.43
367.70	458.74
367.90	535.98
368.10	486.83
368.30	503.22
368.49	440.02
368.69	491.51
368.89	447.04
369.09	543.00
369.28	463.43
369.48	447.04
369.68	564.07
369.87	594.50
370.07	461.09
370.27	545.34
370.47	578.11
370.66	674.07
370.86	727.91
371.06	716.20
371.25	781.74
371.45	753.65
371.65	732.59
371.84	772.38
372.04	777.06
372.24	772.38
372.44	774.72
372.63	868.34
372.83	739.61
373.03	704.50
373.22	786.42
373.42	842.59
373.62	718.54
373.81	784.08
374.01	763.01
374.21	840.25
374.40	833.23
374.60	835.57
374.79	851.96
374.99	823.87
375.19	772.38
375.38	849.61
375.58	833.23
375.78	849.61
375.97	786.42
376.17	807.48
376.37	809.83
376.56	863.66
376.76	819.19
376.95	880.04
377.15	819.19
377.35	805.14
377.54	880.04
377.74	828.55
377.93	821.53
378.13	814.51
378.33	912.81
378.52	844.93
378.72	884.72
378.91	821.53
379.11	856.64
379.31	819.19
379.50	894.08
379.70	905.79
379.89	901.11
380.09	835.57
380.28	816.85
380.48	819.19
380.68	842.59
380.87	812.17
381.07	891.74
381.26	961.96
381.46	901.11
381.65	880.04
381.85	891.74
382.04	847.27
382.24	875.36
382.43	896.43
382.63	887.06
382.83	905.79
383.02	889.40
383.22	919.83
383.41	849.61
383.61	964.30
383.80	889.40
384.00	910.47
384.19	905.79
384.39	901.11
384.58	940.90
384.78	894.08
384.97	952.60
385.17	990.05
385.36	908.13
385.56	919.83
385.75	915.15
385.95	917.49
386.14	990.05
386.34	976.00
386.53	812.17
386.72	901.11
386.92	968.98
387.11	924.51
387.31	884.72
387.50	994.73
387.70	936.21
387.89	966.64
388.09	1027.50
388.28	945.58
388.48	1001.75
388.67	966.64
388.86	959.62
389.06	957.28
389.25	966.64
389.45	997.07
389.64	985.37
389.84	1039.20
390.03	924.51
390.22	987.71
390.42	924.51
390.61	1062.60
390.81	978.34
391.00	1015.79
391.19	1004.09
391.39	1032.18
391.58	1118.78
391.78	1104.73
391.97	1053.24
392.16	1043.88
392.36	1015.79
392.55	1132.82
392.75	1062.60
392.94	1032.18
393.13	1039.20
393.33	1011.11
393.52	1109.41
393.71	1128.14
393.91	1088.35
394.10	1062.60
394.29	1107.07
394.49	1071.97
394.68	1083.67
394.88	1032.18
395.07	1071.97
395.26	1050.90
395.46	1118.78
395.65	1081.33
395.84	1074.31
396.04	1142.18
396.23	1132.82
396.42	1226.44
396.62	1137.50
396.81	1214.74
397.00	1181.97
397.19	1217.08
397.39	1083.67
397.58	1179.63
397.77	1153.88
397.97	1252.19
398.16	1177.29
398.35	1247.51
398.55	1137.50
398.74	1160.91
398.93	1219.42
399.12	1184.31
399.32	1212.40
399.51	1273.25
399.70	1191.33
399.90	1212.40
400.09	1205.38
400.28	1289.64
400.47	1240.48
400.67	1287.29
400.86	1306.02
401.05	1198.35
401.24	1184.31
401.44	1291.98
401.63	1357.51
401.82	1317.72
402.01	1259.21
402.21	1261.55
402.40	1324.74
402.59	1348.15
402.78	1376.24
402.97	1263.89
403.17	1387.94
403.36	1294.32
403.55	1334.11
403.74	1404.32
403.93	1439.43
404.13	1469.86
404.32	1380.92
404.51	1460.49
404.70	1502.62
404.89	1399.64
405.09	1472.20
405.28	1397.30
405.47	1425.39
405.66	1432.41
405.85	1441.77
406.05	1430.07
406.24	1446.45
406.43	1530.71
406.62	1511.99
406.81	1584.54
407.00	1493.26
407.20	1530.71
407.39	1469.86
407.58	1549.43
407.77	1570.50
407.96	1577.52
408.15	1500.28
408.34	1479.22
408.54	1563.48
408.73	1568.16
408.92	1643.06
409.11	1636.03
409.30	1614.97
409.49	1577.52
409.68	1540.07
409.87	1626.67
410.07	1586.88
410.26	1565.82
410.45	1706.25
410.64	1633.69
410.83	1692.21
411.02	1624.33
411.21	1664.12
411.40	1764.76
411.59	1727.32
411.78	1739.02
411.98	1708.59
412.17	1818.60
412.36	1736.68
412.55	1722.63
412.74	1785.83
412.93	1804.55
413.12	1877.11
413.31	1872.43
413.50	1900.52
413.69	1774.13
413.88	1858.39
414.07	1884.13
414.26	1886.47
414.45	1944.99
414.64	1865.41
414.83	1905.20
415.02	1905.20
415.22	1954.35
415.41	1919.24
415.60	2036.27
415.79	1923.92
415.98	1968.39
416.17	2012.86
416.36	2033.93
416.55	1949.67
416.74	2015.20
416.93	2031.58
417.12	2085.42
417.31	2029.24
417.50	2069.03
417.69	2132.23
417.88	2122.87
418.07	2097.12
418.26	2113.50
418.45	2141.59
418.64	2195.42
418.83	2214.15
419.02	2146.27
419.21	2111.16
419.39	2246.91
419.58	2174.36
419.77	2176.70
419.96	2289.04
420.15	2253.94
420.34	2232.87
420.53	2225.85
420.72	2370.96
420.91	2312.45
421.10	2263.30
421.29	2356.92
421.48	2335.85
421.67	2284.36
421.86	2326.49
422.05	2370.96
422.24	2256.28
422.43	2324.15
422.61	2443.52
422.80	2392.03
422.99	2361.60
423.18	2347.56
423.37	2420.11
423.56	2373.30
423.75	2356.92
423.94	2272.66
424.13	2272.66
424.32	2289.04
424.50	2462.24
424.69	2445.86
424.88	2380.32
425.07	2382.67
425.26	2354.58
425.45	2291.38
425.64	2342.88
425.83	2361.60
426.01	2516.08
426.20	2427.14
426.39	2473.95
426.58	2495.01
426.77	2434.16
426.96	2537.14
427.15	2511.39
427.33	2523.10
427.52	2476.29
427.71	2499.69
427.90	2485.65
428.09	2443.52
428.28	2565.23
428.46	2581.61
428.65	2560.55
428.84	2581.61
429.03	2576.93
429.22	2534.80
429.40	2539.48
429.59	2579.27
429.78	2567.57
429.97	2476.29
430.16	2607.36
430.34	2679.91
430.53	2560.55
430.72	2640.12
430.91	2743.11
431.10	2640.12
431.28	2670.55
431.47	2623.74
431.66	2621.40
431.85	2541.82
432.03	2771.19
432.22	2846.09
432.41	2661.19
432.60	2651.83
432.79	2768.85
432.97	2904.60
433.16	2799.28
433.35	2792.26
433.54	2841.41
433.72	2977.16
433.91	2836.73
434.10	2960.78
434.28	2846.09
434.47	2832.05
434.66	2883.54
434.85	2946.73
435.03	3108.23
435.22	3180.79
435.41	3258.03
435.59	3300.16
435.78	3194.83
435.97	3215.90
436.16	3023.97
436.34	2993.55
436.53	2918.65
436.72	3136.32
436.90	2857.79
437.09	2963.12
437.28	2885.88
437.46	3028.65
437.65	3119.93
437.84	3002.91
438.02	3040.36
438.21	3000.57
438.40	3108.23
438.58	3112.91
438.77	3227.60
438.96	3159.72
439.14	3192.49
439.33	3269.73
439.52	3241.64
439.70	3248.66
439.89	3262.71
440.08	3286.11
440.26	3297.81
440.45	3286.11
440.63	3243.98
440.82	3330.58
441.01	3337.60
441.19	3405.48
441.38	3426.54
441.57	3459.31
441.75	3400.80
441.94	3426.54
442.12	3375.05
442.31	3581.02
442.50	3534.21
442.68	3541.23
442.87	3489.74
443.05	3452.29
443.24	3517.83
443.43	3534.21
443.61	3527.19
443.80	3588.04
443.98	3555.27
444.17	3468.67
444.35	3665.28
444.54	3597.40
444.73	3524.85
444.91	3543.57
445.10	3698.05
445.28	3632.51
445.47	3751.88
445.65	3693.37
445.84	3513.14
446.02	3674.64
446.21	3653.58
446.39	3674.64
446.58	3595.06
446.77	3679.32
446.95	3585.70
447.14	3655.92
447.32	3712.09
447.51	3665.28
447.69	3620.81
447.88	3714.43
448.06	3744.86
448.25	3634.85
448.43	3585.70
448.62	3625.49
448.80	3651.24
448.99	3768.26
449.17	3751.88
449.36	3712.09
449.54	3808.05
449.73	3786.99
449.91	3880.61
450.10	3859.54
450.28	3927.42
450.46	3943.80
450.65	3927.42
450.83	3854.86
451.02	3805.71
451.20	4046.79
451.39	3838.48
451.57	3957.85
451.76	3932.10
451.94	3901.67
452.13	4007.00
452.31	4109.98
452.49	4032.74
452.68	4072.53
452.86	3932.10
453.05	4046.79
453.23	4098.28
453.42	3950.82
453.60	3953.16
453.78	4142.75
453.97	4060.83
454.15	4030.40
454.34	3904.01
454.52	4037.42
454.70	4203.60
454.89	3950.82
455.07	4170.83
455.26	4173.18
455.44	4245.73
455.62	4156.79
455.81	4208.28
455.99	4149.77
456.17	4372.12
456.36	4222.33
456.54	4283.18
456.73	4423.61
456.91	4360.42
457.09	4236.37
457.28	4477.44
457.46	4301.90
457.64	4404.89
457.83	4479.79
458.01	4276.16
458.19	4454.04
458.38	4386.16
458.56	4374.46
458.74	4447.02
458.93	4414.25
459.11	4519.57
459.29	4432.97
459.48	4554.68
459.66	4447.02
459.84	4477.44
460.03	4720.86
460.21	4746.61
460.39	4587.45
460.57	4580.43
460.76	4652.98
460.94	4753.63
461.12	4652.98
461.31	4610.86
461.49	4664.69
461.67	4727.88
461.85	4882.36
462.04	4657.67
462.22	5076.62
462.40	4720.86
462.59	4802.78
462.77	4664.69
462.95	4793.42
463.13	4793.42
463.32	4706.82
463.50	4828.53
463.68	4861.29
463.86	4873.00
464.05	4751.29
464.23	4873.00
464.41	4884.70
464.59	4842.57
464.78	4905.76
464.96	4800.44
465.14	4777.03
465.32	4898.74
465.50	4915.12
465.69	4826.18
465.87	4887.04
466.05	4999.38
466.23	4861.29
466.41	5032.15
466.60	5029.81
466.78	4912.78
466.96	5048.54
467.14	4994.70
467.32	5039.17
467.51	5144.50
467.69	4983.00
467.87	4917.47
468.05	5135.14
468.23	4919.81
468.41	5078.96
468.60	5167.90
468.78	5144.50
468.96	5097.69
469.14	5090.67
469.32	5224.08
469.50	5111.73
469.69	5249.82
469.87	5226.42
470.05	5385.57
470.23	5338.76
470.41	5451.11
470.59	5364.51
470.77	5287.27
470.95	5254.50
471.14	5556.43
471.32	5322.38
471.50	5348.12
471.68	5451.11
471.86	5547.07
472.04	5591.54
472.22	5500.26
472.40	5528.35
472.58	5504.94
472.77	5444.09
472.95	5849.00
473.13	5977.73
473.31	5589.20
473.49	5628.99
473.67	5666.44
473.85	5666.44
474.03	5781.12
474.21	5760.06
474.39	5825.59
474.57	5816.23
474.75	5954.32
474.93	5970.71
475.12	5844.32
475.30	6043.26
475.48	5944.96
475.66	5975.39
475.84	5982.41
476.02	6204.76
476.20	6174.33
476.38	5982.41
476.56	6520.73
476.74	6253.91
476.92	6181.35
477.10	6321.79
477.28	6340.51
477.46	6284.34
477.64	6487.96
477.82	6548.82
478.00	6796.92
478.18	6654.14
478.36	6609.67
478.54	6733.72
478.72	6623.72
478.90	6747.76
479.08	6834.36
479.26	6927.99
479.44	6953.73
479.62	7014.59
479.80	6853.09
479.98	6967.77
480.16	7220.55
480.34	7162.04
480.52	7108.21
480.70	7080.12
480.88	7061.40
481.06	7258.00
481.24	7321.20
481.41	7438.22
481.59	7407.80
481.77	7485.03
481.95	7707.38
482.13	7595.04
482.31	7595.04
482.49	7885.26
482.67	7812.71
482.85	7754.19
483.03	7779.94
483.21	8006.97
483.39	8021.02
483.57	7822.07
483.74	8039.74
483.92	8011.65
484.10	8159.11
484.28	8304.22
484.46	8393.16
484.64	8451.67
484.82	8297.20
485.00	8638.92
485.18	8659.98
485.35	8777.01
485.53	8713.81
485.71	8830.84
485.89	9029.79
486.07	8877.65
486.25	8875.31
486.43	8912.76
486.61	9022.77
486.78	8980.64
486.96	9322.35
487.14	9465.13
487.32	9322.35
487.50	9401.93
487.68	9296.61
487.85	9635.99
488.03	9720.24
488.21	9666.41
488.39	9605.56
488.57	9783.44
488.75	9776.42
488.92	9919.19
489.10	10111.11
489.28	10120.48
489.46	10176.65
489.64	10078.35
489.81	10223.46
489.99	10604.97
490.17	10284.31
490.35	10572.20
490.53	10565.18
490.70	10724.33
490.88	10464.54
491.06	10600.29
491.24	10656.46
491.41	10810.93
491.59	10803.91
491.77	11089.46
491.95	11042.65
492.13	11222.87
492.30	11265.00
492.48	11173.72
492.66	11232.23
492.84	11131.59
493.01	11489.69
493.19	11419.47
493.37	11414.79
493.54	11335.21
493.72	11587.99
493.90	11393.73
494.08	11510.75
494.25	11803.32
494.43	11859.49
494.61	12020.99
494.79	12226.96
494.96	11866.52
495.14	11887.58
495.32	12191.85
495.49	12390.80
495.67	12152.06
495.85	12191.85
496.02	12425.90
496.20	12369.73
496.38	12552.29
496.55	12652.94
496.73	12716.13
496.91	12784.01
497.09	12643.57
497.26	12681.02
497.44	12844.86
497.62	12762.94
497.79	13301.26
497.97	13032.10
498.14	13242.75
498.32	12989.97
498.50	13277.86
498.67	13415.95
498.85	13118.70
499.03	13338.71
499.20	13635.96
499.38	13537.66
499.56	13331.69
499.73	13671.07
499.91	13504.89
500.08	13788.10
500.26	13621.92
500.44	13682.77
500.61	13940.23
500.79	13900.44
500.97	13923.85
501.14	13987.04
501.32	13975.34
501.49	13898.10
501.67	14005.77
501.84	13797.46
502.02	14090.02
502.20	14354.51
502.37	14349.82
502.55	14036.19
502.72	14300.67
502.90	14408.34
503.07	14270.25
503.25	14272.59
503.43	14616.65
503.60	14597.92
503.78	14806.23
503.95	14558.13
504.13	14534.73
504.30	14773.46
504.48	15016.88
504.65	15098.80
504.83	14792.19
505.01	14871.76
505.18	14733.67
505.36	15150.29
505.53	14918.57
505.71	15073.05
505.88	15473.28
506.06	15197.10
506.23	15115.18
506.41	15187.74
506.58	15309.44
506.76	15393.70
506.93	15208.80
507.11	15435.83
507.28	15405.41
507.46	15374.98
507.63	15632.44
507.81	15578.61
507.98	15751.81
508.16	15487.32
508.33	15733.08
508.50	15566.90
508.68	15866.49
508.85	16039.69
509.03	16049.05
509.20	16222.25
509.38	15934.37
509.55	16116.93
509.73	15880.53
509.90	16098.20
510.08	16187.14
510.25	16229.27
510.42	16278.43
510.60	16170.76
510.77	16336.94
510.95	16486.73
511.12	16231.62
511.30	16329.92
511.47	16512.48
511.64	16606.10
511.82	16727.81
511.99	16762.92
512.17	17001.65
512.34	16755.90
512.51	17029.74
512.69	16802.71
512.86	16961.86
513.04	17177.19
513.21	16910.37
513.38	16996.97
513.56	17242.73
513.73	17015.69
513.90	16959.52
514.08	17174.85
514.25	17191.23
514.43	17224.00
514.60	17539.97
514.77	17245.07
514.95	17329.33
515.12	17259.11
515.29	17521.25
515.47	17832.54
515.64	17701.47
515.81	17446.35
515.99	17642.96
516.16	17614.87
516.33	17820.84
516.51	18026.81
516.68	18015.10
516.85	17919.14
517.03	18167.24
517.20	17982.34
517.37	17991.70
517.54	17792.75
517.72	17855.95
517.89	18008.08
518.06	17963.61
518.24	18120.43
518.41	18225.75
518.58	17893.40
518.75	18061.91
518.93	18125.11
519.10	18232.77
519.27	18277.24
519.45	18237.45
519.62	18527.68
519.79	18054.89
519.96	18553.43
520.14	18338.10
520.31	18380.23
520.48	18326.39
520.65	18506.62
520.83	18714.92
521.00	18539.38
521.17	18602.58
521.34	18586.19
521.52	18750.03
521.69	18707.90
521.86	18548.75
522.03	18932.59
522.20	18871.74
522.38	18871.74
522.55	19197.07
522.72	18864.72
522.89	18960.68
523.07	18974.72
523.24	19101.11
523.41	19386.66
523.58	19042.60
523.75	19218.14
523.92	19470.92
524.10	19152.60
524.27	19632.41
524.44	19342.19
524.61	19594.96
524.78	19580.92
524.96	19534.11
525.13	19475.60
525.30	19632.41
525.47	19639.44
525.64	19419.42
525.81	19604.33
525.98	19475.60
526.16	19679.22
526.33	19531.77
526.50	19953.07
526.67	19784.55
526.84	19908.60
527.01	20023.28
527.18	20044.35
527.36	19957.75
527.53	19939.02
527.70	20009.24
527.87	20257.34
528.04	20229.25
528.21	20528.84
528.38	19978.81
528.55	20056.05
528.72	20013.92
528.89	20189.46
529.07	20390.75
529.24	20025.62
529.41	20505.43
529.58	20133.29
529.75	20233.93
529.92	20594.37
530.09	20283.08
530.26	20191.80
530.43	20688.00
530.60	20187.12
530.77	20381.38
530.94	20556.93
531.11	20592.03
531.28	20519.48
531.46	20570.97
531.63	20545.22
531.80	20601.40
531.97	20800.34
532.14	20760.55
532.31	20865.88
532.48	20950.14
532.65	20706.72
532.82	20994.61
532.99	20985.24
533.16	21130.36
533.33	20959.50
533.50	21069.50
533.67	21102.27
533.84	21219.30
534.01	20877.58
534.18	21083.55
534.35	21118.65
534.52	21291.85
534.69	21348.03
534.86	21167.80
535.03	20950.14
535.20	20940.77
535.37	21081.21
535.54	21577.40
535.71	21317.60
535.88	21369.09
536.05	21186.53
536.22	21568.04
536.38	21418.24
536.55	21680.38
536.72	21364.41
536.89	21528.25
537.06	21214.62
537.23	21628.89
537.40	21579.74
537.57	21612.51
537.74	21551.65
537.91	21774.00
538.08	21741.24
538.25	21671.02
538.42	21895.71
538.59	21884.01
538.75	21706.13
538.92	21846.56
539.09	22132.11
539.26	22031.46
539.43	22155.51
539.60	21731.87
539.77	22356.80
539.94	22324.03
540.11	22050.19
540.28	22139.13
540.44	22328.71
540.61	22209.34
540.78	22663.41
540.95	22354.46
541.12	22696.17
541.29	22614.26
541.46	22714.90
541.62	22857.67
541.79	23044.91
541.96	22471.48
542.13	22848.31
542.30	22593.19
542.47	22640.00
542.63	22778.09
542.80	23091.73
542.97	23117.47
543.14	23056.62
543.31	23173.64
543.48	23080.02
543.64	23103.43
543.81	23075.34
543.98	23005.13
544.15	22993.42
544.32	23398.34
544.48	23339.82
544.65	23178.33
544.82	23234.50
544.99	23047.26
545.16	23426.42
545.32	22955.97
545.49	23782.18
545.66	24027.94
545.83	24472.64
546.00	24360.30
546.16	23906.23
546.33	23756.44
546.50	23431.10
546.67	23641.75
546.83	23035.55
547.00	23140.88
547.17	23168.96
547.34	23412.38
547.50	23597.28
547.67	23363.23
547.84	23405.36
548.00	23405.36
548.17	23613.66
548.34	23520.04
548.51	23267.27
548.67	23304.71
548.84	23494.30
549.01	23695.58
549.18	23520.04
549.34	23576.22
549.51	23880.49
549.68	23550.47
549.84	23660.48
550.01	23599.62
550.18	23641.75
550.34	23344.50
550.51	23618.35
550.68	23765.80
550.84	23407.70
551.01	23704.95
551.18	23339.82
551.34	23688.56
551.51	23667.50
551.68	23637.07
551.84	23653.45
552.01	23594.94
552.18	23403.02
552.34	24027.94
552.51	23873.46
552.68	23974.11
552.84	23786.86
553.01	24004.53
553.18	23557.49
553.34	23789.20
553.51	23587.92
553.67	23779.84
553.84	24144.97
554.01	23948.36
554.17	23953.04
554.34	23927.30
554.51	23920.28
554.67	23967.09
554.84	24194.12
555.00	24013.90
555.17	23515.36
555.33	24079.43
555.50	23754.10
555.67	23639.41
555.83	23936.66
556.00	23892.19
556.16	24018.58
556.33	23880.49
556.50	23730.69
556.66	24053.69
556.83	23360.89
556.99	24325.19
557.16	24425.83
557.32	24226.89
557.49	24334.55
557.65	24018.58
557.82	24107.52
557.98	24383.70
558.15	24350.93
558.32	24748.82
558.48	24346.25
558.65	24254.97
558.81	24065.39
558.98	24676.27
559.14	24159.01
559.31	24318.17
559.47	24259.65
559.64	24332.21
559.80	23873.46
559.97	24407.11
560.13	24397.74
560.30	24245.61
560.46	24231.57
560.63	24236.25
560.79	24723.08
560.96	24311.14
561.12	24524.13
561.29	24311.14
561.45	24568.60
561.61	24556.90
561.78	24404.77
561.94	24636.48
562.11	24573.28
562.27	24374.34
562.44	24629.46
562.60	24800.32
562.77	24573.28
562.93	24680.95
563.10	24662.22
563.26	24458.60
563.42	24524.13
563.59	24460.94
563.75	24470.30
563.92	25130.33
564.08	24697.33
564.24	24790.95
564.41	24594.35
564.57	24737.12
564.74	24732.44
564.90	24821.38
565.07	24781.59
565.23	24842.45
565.39	24568.60
565.56	24919.68
565.72	24776.91
565.88	24627.12
566.05	24676.27
566.21	24402.43
566.38	24720.74
566.54	24697.33
566.70	25043.73
566.87	25053.09
567.03	24697.33
567.19	24826.06
567.36	24868.19
567.52	25029.69
567.68	24837.76
567.85	24730.10
568.01	24779.25
568.17	25109.27
568.34	24716.06
568.50	24814.36
568.66	24861.17
568.83	24727.76
568.99	24996.92
569.15	24844.79
569.32	24783.93
569.48	24620.10
569.64	24847.13
569.81	24617.75
569.97	24720.74
570.13	25060.12
570.30	24622.44
570.46	25060.12
570.62	24875.21
570.78	24687.97
570.95	24926.71
571.11	24989.90
571.27	24950.11
571.43	24912.66
571.60	24702.01
571.76	25050.75
571.92	24767.55
572.09	24807.34
572.25	25088.20
572.41	25165.44
572.57	24926.71
572.74	25090.54
572.90	24709.04
573.06	25064.80
573.22	25294.17
573.38	25216.93
573.55	24657.54
573.71	24922.02
573.87	25029.69
574.03	24905.64
574.20	24898.62
574.36	24980.54
574.52	25048.41
574.68	24849.47
574.84	25025.01
575.01	25151.40
575.17	24739.46
575.33	25118.63
575.49	24994.58
575.65	24943.09
575.82	25170.12
575.98	25298.85
576.14	25247.36
576.30	25441.62
576.46	24929.05
576.62	25261.40
576.79	25268.42
576.95	25048.41
577.11	25296.51
577.27	25146.72
577.43	25289.49
577.59	25364.39
577.75	25039.05
577.92	25113.95
578.08	25135.01
578.24	24793.29
578.40	25294.17
578.56	25261.40
578.72	25343.32
578.88	25380.77
579.04	25488.43
579.21	25483.75
579.37	25434.60
579.53	25322.26
579.69	25355.02
579.85	24929.05
580.01	25064.80
580.17	25282.47
580.33	24891.60
580.49	25195.87
580.65	25284.81
580.82	24856.49
580.98	25247.36
581.14	25336.30
581.30	25413.54
581.46	25156.08
581.62	25366.73
581.78	25291.83
581.94	25029.69
582.10	24821.38
582.26	25198.21
582.42	25090.54
582.58	25104.59
582.74	25385.45
582.90	25104.59
583.06	25228.63
583.22	25130.33
583.38	24758.19
583.54	25158.42
583.70	25483.75
583.86	25432.26
584.02	24936.07
584.18	25439.28
584.34	25209.91
584.50	25181.82
584.66	25069.48
584.82	24786.27
584.98	24971.18
585.14	25453.33
585.30	25284.81
585.46	25270.76
585.62	25067.14
585.78	25450.99
585.94	25240.34
586.10	25256.72
586.26	24973.52
586.42	25497.80
586.58	24858.83
586.74	25305.87
586.90	25390.13
587.06	25104.59
587.22	25401.83
587.38	25476.73
587.54	25319.92
587.70	25734.19
587.86	25528.22
588.02	25493.12
588.18	25397.15
588.34	25111.61
588.49	25209.91
588.65	25256.72
588.81	25109.27
588.97	25193.53
589.13	25076.50
589.29	25462.69
589.45	25411.20
589.61	25563.33
589.77	25280.13
589.93	25621.84
590.08	25443.96
590.24	25436.94
590.40	25336.30
590.56	25364.39
590.72	25532.90
