SpectraSuite Data File
++++++++++++++++++++++++++++++++++++
Date: Thu Oct 24 13:21:23 EDT 2013
User: stostad
Dark Spectrum Present: No
Reference Spectrum Present: No
Number of Sampled Component Spectra: 1
Spectrometers: USB2+H05261
Integration Time (usec): 100000 (USB2+H05261)
Spectra Averaged: 1 (USB2+H05261)
Boxcar Smoothing: 0 (USB2+H05261)
Correct for Electrical Dark: No (USB2+H05261)
Strobe/Lamp Enabled: No (USB2+H05261)
Correct for Detector Non-linearity: No (USB2+H05261)
Correct for Stray Light: No (USB2+H05261)
Number of Pixels in Processed Spectrum: 2048
>>>>>Begin Processed Spectral Data<<<<<
365.73	557.05
365.92	557.05
366.12	557.05
366.32	435.34
366.52	503.22
366.72	447.04
366.91	468.11
367.11	496.19
367.31	437.68
367.51	505.56
367.70	500.87
367.90	470.45
368.10	475.13
368.30	435.34
368.49	383.85
368.69	468.11
368.89	463.43
369.09	458.74
369.28	526.62
369.48	463.43
369.68	571.09
369.87	496.19
370.07	540.66
370.27	491.51
370.47	603.86
370.66	938.55
370.86	868.34
371.06	1013.45
371.25	966.64
371.45	877.70
371.65	1055.58
371.84	964.30
372.04	954.94
372.24	987.71
372.44	917.49
372.63	992.39
372.83	1025.15
373.03	1041.54
373.22	1128.14
373.42	1111.75
373.62	1046.22
373.81	1093.03
374.01	1067.28
374.21	1083.67
374.40	1086.01
374.60	1004.09
374.79	1020.47
374.99	1172.61
375.19	1149.20
375.38	1130.48
375.58	1104.73
375.78	1128.14
375.97	1242.82
376.17	1294.32
376.37	1167.93
376.56	1160.91
376.76	1149.20
376.95	1217.08
377.15	1174.95
377.35	1212.40
377.54	1196.01
377.74	1188.99
377.93	1203.04
378.13	1174.95
378.33	1203.04
378.52	1193.67
378.72	1254.53
378.91	1263.89
379.11	1144.52
379.31	1345.81
379.50	1146.86
379.70	1299.00
379.89	1217.08
380.09	1207.72
380.28	1275.59
380.48	1282.61
380.68	1186.65
380.87	1259.21
381.07	1317.72
381.26	1345.81
381.46	1352.83
381.65	1352.83
381.85	1343.47
382.04	1355.17
382.24	1371.55
382.43	1455.81
382.63	1324.74
382.83	1357.51
383.02	1376.24
383.22	1383.26
383.41	1434.75
383.61	1404.32
383.80	1392.62
384.00	1327.08
384.19	1366.87
384.39	1425.39
384.58	1416.02
384.78	1409.00
384.97	1453.47
385.17	1507.30
385.36	1427.73
385.56	1444.11
385.75	1434.75
385.95	1458.15
386.14	1549.43
386.34	1535.39
386.53	1519.01
386.72	1511.99
386.92	1582.20
387.11	1490.92
387.31	1495.60
387.50	1533.05
387.70	1533.05
387.89	1483.90
388.09	1565.82
388.28	1544.75
388.48	1549.43
388.67	1556.46
388.86	1626.67
389.06	1577.52
389.25	1612.63
389.45	1603.27
389.64	1647.74
389.84	1652.42
390.03	1689.87
390.22	1654.76
390.42	1589.22
390.61	1696.89
390.81	1739.02
391.00	1769.44
391.19	1696.89
391.39	1680.50
391.58	1734.34
391.78	1743.70
391.97	1750.72
392.16	1724.97
392.36	1767.10
392.55	1685.19
392.75	1830.30
392.94	1834.98
393.13	1750.72
393.33	1788.17
393.52	1870.09
393.71	1767.10
393.91	1837.32
394.10	1818.60
394.29	1886.47
394.49	1820.94
394.68	1914.56
394.88	1928.60
395.07	1867.75
395.26	1891.15
395.46	1961.37
395.65	1914.56
395.84	1933.28
396.04	2083.08
396.23	1968.39
396.42	2010.52
396.62	2031.58
396.81	1996.48
397.00	2008.18
397.19	1949.67
397.39	2019.88
397.58	1970.73
397.77	2052.65
397.97	2069.03
398.16	2134.57
398.35	2120.53
398.55	2059.67
398.74	2129.89
398.93	2260.96
399.12	2181.38
399.32	2157.97
399.51	2223.51
399.70	2263.30
399.90	2286.70
400.09	2260.96
400.28	2263.30
400.47	2298.41
400.67	2317.13
400.86	2356.92
401.05	2352.24
401.24	2333.51
401.44	2312.45
401.63	2413.09
401.82	2356.92
402.01	2366.28
402.21	2473.95
402.40	2523.10
402.59	2331.17
402.78	2401.39
402.97	2464.58
403.17	2408.41
403.36	2487.99
403.55	2551.18
403.74	2623.74
403.93	2537.14
404.13	2588.63
404.32	2532.46
404.51	2593.31
404.70	2635.44
404.89	2583.95
405.09	2647.15
405.28	2665.87
405.47	2619.06
405.66	2740.77
405.85	2729.06
406.05	2722.04
406.24	2752.47
406.43	2853.11
406.62	2864.82
406.81	2853.11
407.00	2731.41
407.20	2773.53
407.39	2813.32
407.58	2972.48
407.77	2928.01
407.96	2881.20
408.15	3047.38
408.34	2970.14
408.54	2944.39
408.73	3068.44
408.92	3045.04
409.11	2977.16
409.30	3084.83
409.49	3061.42
409.68	3087.17
409.87	3215.90
410.07	3150.36
410.26	3133.98
410.45	3199.51
410.64	3304.84
410.83	3307.18
411.02	3251.00
411.21	3389.10
411.40	3353.99
411.59	3410.16
411.78	3279.09
411.98	3379.73
412.17	3424.20
412.36	3435.91
412.55	3595.06
412.74	3555.27
412.93	3524.85
413.12	3524.85
413.31	3709.75
413.50	3660.60
413.69	3676.98
413.88	3716.77
414.07	3686.34
414.26	3815.07
414.45	3801.03
414.64	3796.35
414.83	3985.93
415.02	3892.31
415.22	4011.68
415.41	4070.19
415.60	4124.02
415.79	4128.70
415.98	4107.64
416.17	4135.73
416.36	4142.75
416.55	4121.68
416.74	4119.34
416.93	4194.24
417.12	4219.99
417.31	4280.84
417.50	4287.86
417.69	4566.39
417.88	4414.25
418.07	4404.89
418.26	4329.99
418.45	4379.14
418.64	4620.22
418.83	4489.15
419.02	4479.79
419.21	4669.37
419.39	4512.55
419.58	4638.94
419.77	4479.79
419.96	4608.51
420.15	4737.24
420.34	4531.28
420.53	4748.95
420.72	4711.50
420.91	4912.78
421.10	4868.31
421.29	4891.72
421.48	4767.67
421.67	4868.31
421.86	4882.36
422.05	4870.65
422.24	4896.40
422.43	4917.47
422.61	5015.77
422.80	5186.63
422.99	5121.09
423.18	5055.56
423.37	5027.47
423.56	5139.82
423.75	4915.12
423.94	5004.07
424.13	4585.11
424.32	4774.69
424.50	5142.16
424.69	5224.08
424.88	5055.56
425.07	5181.95
425.26	4973.64
425.45	5076.62
425.64	4997.04
425.83	5085.98
426.01	5055.56
426.20	5121.09
426.39	5235.78
426.58	5160.88
426.77	5238.12
426.96	5263.86
427.15	5146.84
427.33	5341.10
427.52	5266.21
427.71	5198.33
427.90	5217.05
428.09	5334.08
428.28	5451.11
428.46	5355.15
428.65	5359.83
428.84	5488.56
429.03	5577.50
429.22	5362.17
429.40	5434.72
429.59	5586.86
429.78	5427.70
429.97	5324.72
430.16	5614.95
430.34	5387.91
430.53	5509.62
430.72	5633.67
430.91	5502.60
431.10	5633.67
431.28	5680.48
431.47	5788.14
431.66	5713.25
431.85	5755.38
432.03	5956.66
432.22	5921.56
432.41	5980.07
432.60	5823.25
432.79	5832.62
432.97	6076.03
433.16	5900.49
433.35	5923.90
433.54	6120.50
433.72	6113.48
433.91	6155.61
434.10	6338.17
434.28	5970.71
434.47	6293.70
434.66	6239.87
434.85	6244.55
435.03	6345.19
435.22	6527.75
435.41	6654.14
435.59	6539.46
435.78	6668.19
435.97	6211.78
436.16	6511.37
436.34	6443.49
436.53	6392.00
436.72	6502.01
436.90	6382.64
437.09	6623.72
437.28	6455.20
437.46	6445.84
437.65	6511.37
437.84	6665.85
438.02	6647.12
438.21	6752.45
438.40	6672.87
438.58	6942.03
438.77	6974.80
438.96	6958.41
439.14	7089.48
439.33	7101.19
439.52	7084.80
439.70	7049.69
439.89	7258.00
440.08	7180.76
440.26	7190.13
440.45	7208.85
440.63	7435.88
440.82	7609.08
441.01	7417.16
441.19	7417.16
441.38	7515.46
441.57	7510.78
441.75	7721.43
441.94	7763.56
442.12	7840.79
442.31	7801.01
442.50	7845.48
442.68	7999.95
442.87	7791.64
443.05	8053.78
443.24	8170.81
443.43	7997.61
443.61	7962.50
443.80	8210.60
443.98	7805.69
444.17	7449.93
444.35	7709.72
444.54	8107.62
444.73	8156.77
444.91	8198.90
445.10	8383.80
445.28	8140.38
445.47	8039.74
445.65	8226.98
445.84	8119.32
446.02	8210.60
446.21	8133.36
446.39	8367.42
446.58	8226.98
446.77	8329.97
446.95	8084.21
447.14	8308.90
447.32	8400.18
447.51	8313.58
447.69	8250.39
447.88	8395.50
448.06	8231.66
448.25	8248.05
448.43	8552.32
448.62	8376.78
448.80	8386.14
448.99	8306.56
449.17	8674.03
449.36	8491.46
449.54	8718.50
449.73	8739.56
449.91	8807.44
450.10	8547.64
450.28	8802.75
450.46	8940.85
450.65	8786.37
450.83	8826.16
451.02	8917.44
451.20	8966.59
451.39	8751.26
451.57	8905.74
451.76	8922.12
451.94	9050.85
452.13	8968.93
452.31	8999.36
452.49	8936.17
452.68	9198.31
452.86	9139.79
453.05	9415.98
453.23	9177.24
453.42	9097.66
453.60	8966.59
453.78	9212.35
453.97	9116.39
454.15	9284.91
454.34	9390.23
454.52	9537.68
454.70	9430.02
454.89	9523.64
455.07	9453.42
455.26	9474.49
455.44	9687.48
455.62	9661.73
455.81	9713.22
455.99	9533.00
456.17	9558.75
456.36	9785.78
456.54	9856.00
456.73	9944.94
456.91	9942.60
457.09	10218.78
457.28	9989.41
457.46	9966.00
457.64	10008.13
457.83	10171.97
458.01	9973.02
458.19	10314.74
458.38	10239.84
458.56	10375.59
458.74	10335.81
458.93	10509.01
459.11	10504.32
459.29	10377.94
459.48	10525.39
459.66	10375.59
459.84	10583.90
460.03	10686.89
460.21	10883.49
460.39	10600.29
460.57	10792.21
460.76	10637.73
460.94	10733.70
461.12	11103.50
461.31	10731.36
461.49	10824.98
461.67	10892.85
461.85	10899.87
462.04	10848.38
462.22	11400.75
462.40	11150.31
462.59	11040.31
462.77	11164.36
462.95	11342.24
463.13	11218.19
463.32	11007.54
463.50	11363.30
463.68	11506.07
463.86	11475.65
464.05	11304.79
464.23	11260.32
464.41	11377.34
464.59	11353.94
464.78	11744.81
464.96	11543.52
465.14	11433.52
465.32	11330.53
465.50	11669.91
465.69	11740.13
465.87	11700.34
466.05	11613.74
466.23	11686.29
466.41	11810.34
466.60	11974.18
466.78	11796.30
466.96	11793.96
467.14	11775.24
467.32	11932.05
467.51	12042.06
467.69	11693.32
467.87	12098.23
468.05	12210.57
468.23	11868.86
468.41	11941.41
468.60	11950.78
468.78	12208.23
468.96	12072.48
469.14	12318.24
469.32	12493.78
469.50	12191.85
469.69	12449.31
469.87	12334.62
470.05	12662.30
470.23	12423.56
470.41	12549.95
470.59	12428.24
470.77	12575.70
470.95	12622.51
471.14	12973.59
471.32	12891.67
471.50	12812.09
471.68	12854.22
471.86	12858.90
472.04	13170.19
472.22	13518.93
472.40	13224.03
472.58	13107.00
472.77	13586.81
472.95	13188.92
473.13	13792.78
473.31	13514.25
473.49	13701.50
473.67	13458.08
473.85	13731.92
474.03	13958.96
474.21	14164.92
474.39	13914.48
474.57	14059.60
474.75	14363.87
474.93	14513.66
475.12	14209.39
475.30	14429.40
475.48	14174.28
475.66	14457.49
475.84	14422.38
476.02	14775.80
476.20	14501.96
476.38	14970.07
476.56	15302.42
476.74	15110.50
476.92	15061.35
477.10	15056.67
477.28	15594.99
477.46	15379.66
477.64	15447.54
477.82	15925.00
478.00	15971.82
478.18	15843.09
478.36	16065.44
478.54	16386.09
478.72	16266.72
478.90	16769.94
479.08	16926.75
479.26	16901.01
479.44	16945.48
479.62	17137.40
479.80	17160.81
479.98	17097.61
480.16	17944.89
480.34	17429.97
480.52	17912.12
480.70	17757.64
480.88	17640.62
481.06	17813.82
481.24	17930.84
481.41	18153.20
481.59	18122.77
481.77	18560.45
481.95	18553.43
482.13	18951.32
482.31	18878.76
482.49	19143.24
482.67	19061.32
482.85	19168.99
483.03	19548.15
483.21	19646.46
483.39	19868.81
483.57	19868.81
483.74	20058.39
483.92	20346.28
484.10	20428.20
484.28	20779.28
484.46	20957.16
484.64	21195.89
484.82	20620.12
485.00	21188.87
485.18	21462.71
485.35	21813.79
485.53	21855.92
485.71	21766.98
485.89	22115.72
486.07	21996.35
486.25	22162.53
486.43	22141.47
486.61	22604.89
486.78	22803.84
486.96	22939.59
487.14	23351.52
487.32	23054.28
487.50	23482.59
487.68	23576.22
487.85	24046.66
488.03	24430.51
488.21	24474.98
488.39	24617.75
488.57	24643.50
488.75	25135.01
488.92	24786.27
489.10	25336.30
489.28	25041.39
489.46	25853.56
489.64	25750.57
489.81	26153.15
489.99	25989.31
490.17	26462.10
490.35	26742.96
490.53	26962.97
490.70	27101.06
490.88	26424.65
491.06	27339.80
491.24	27239.15
491.41	27377.25
491.59	27613.64
491.77	28137.92
491.95	28060.68
492.13	27974.08
492.30	28210.48
492.48	28615.39
492.66	28264.31
492.84	28905.62
493.01	29266.06
493.19	29153.71
493.37	29266.06
493.54	29266.06
493.72	29647.57
493.90	29432.24
494.08	29816.08
494.25	30309.94
494.43	30251.42
494.61	30153.12
494.79	30803.79
494.96	30384.83
495.14	30466.75
495.32	31143.17
495.49	31168.91
495.67	31426.37
495.85	31751.71
496.02	31765.75
496.20	31845.33
496.38	32168.32
496.55	32081.72
496.73	32589.62
496.91	32624.73
497.09	32943.04
497.26	32538.13
497.44	33301.14
497.62	33022.62
497.79	33872.23
497.97	33577.33
498.14	34256.08
498.32	34246.72
498.50	34092.24
498.67	34611.84
498.85	34693.76
499.03	34569.71
499.20	34759.30
499.38	34841.21
499.56	34448.00
499.73	35129.10
499.91	34937.18
500.08	35742.32
500.26	35274.21
500.44	35512.95
500.61	36020.84
500.79	35524.65
500.97	35978.72
501.14	36570.87
501.32	36411.71
501.49	36077.02
501.67	36891.52
501.84	36453.84
502.02	36788.54
502.20	36854.08
502.37	37064.72
502.55	37055.36
502.72	37315.16
502.90	37504.74
503.07	37722.41
503.25	37151.32
503.43	37654.54
503.60	37752.84
503.78	37900.29
503.95	38068.81
504.13	37579.64
504.30	38171.80
504.48	37762.20
504.65	38607.14
504.83	38976.94
505.01	39243.76
505.18	38979.28
505.36	39208.65
505.53	38902.04
505.71	39234.40
505.88	39519.95
506.06	39473.13
506.23	39431.01
506.41	39332.70
506.58	39915.50
506.76	39622.93
506.93	40261.90
507.11	39557.39
507.28	40273.60
507.46	40573.19
507.63	40603.61
507.81	40954.69
507.98	39985.71
508.16	40421.05
508.33	41095.13
508.50	41163.00
508.68	41371.31
508.85	41221.52
509.03	41050.66
509.20	41392.37
509.38	41869.84
509.55	41773.88
509.73	41851.12
509.90	42089.85
510.08	42188.16
510.25	42223.26
510.42	42438.59
510.60	42405.83
510.77	42450.30
510.95	42712.44
511.12	43129.05
511.30	42902.02
511.47	43447.36
511.64	43096.28
511.82	43124.37
511.99	43569.07
512.17	43220.33
512.34	43622.90
512.51	44083.99
512.69	43789.08
512.86	43878.02
513.04	44208.04
513.21	44039.52
513.38	44238.47
513.56	44144.84
513.73	44114.42
513.90	44236.12
514.08	44456.14
514.25	44875.09
514.43	44999.14
514.60	44659.76
514.77	44877.43
514.95	45254.26
515.12	44847.00
515.29	44921.90
515.47	45722.37
515.64	45663.85
515.81	45530.44
515.99	45553.85
516.16	45656.83
516.33	45593.64
516.51	46302.82
516.68	46281.75
516.85	45921.31
517.03	46251.33
517.20	46461.97
517.37	46309.84
517.54	46726.46
517.72	45909.61
517.89	46426.87
518.06	47201.58
518.24	46768.58
518.41	46855.18
518.58	47037.75
518.75	46719.43
518.93	47243.71
519.10	46731.14
519.27	47171.16
519.45	47222.65
519.62	47473.09
519.79	47760.97
519.96	47636.92
520.14	47821.83
520.31	47482.45
520.48	47447.34
520.65	47562.03
520.83	47990.34
521.00	48156.52
521.17	48264.19
521.34	48381.21
521.52	48233.76
521.69	48538.03
521.86	48451.43
522.03	48664.42
522.20	49013.16
522.38	49057.63
522.55	49123.16
522.72	48928.90
522.89	48835.28
523.07	49460.20
523.24	48835.28
523.41	49542.12
523.58	49048.27
523.75	49904.90
523.92	49677.87
524.10	49741.06
524.27	50136.62
524.44	49897.88
524.61	49897.88
524.78	49830.01
524.96	49858.09
525.13	49921.29
525.30	49916.61
525.47	50588.34
525.64	49993.84
525.81	50373.01
525.98	50309.82
526.16	50277.05
526.33	50153.00
526.50	50600.04
526.67	50443.23
526.84	51093.89
527.01	50941.76
527.18	50876.22
527.36	51182.84
527.53	50698.34
527.70	50869.20
527.87	51344.33
528.04	51091.55
528.21	51302.20
528.38	51402.85
528.55	51716.48
528.72	51114.96
528.89	51742.22
529.07	51302.20
529.24	51016.66
529.41	51697.75
529.58	51821.80
529.75	51760.95
529.92	51728.18
530.09	51716.48
530.26	51770.31
530.43	51859.25
530.60	51550.30
530.77	51987.98
530.94	52507.58
531.11	52353.10
531.28	52299.27
531.46	52275.87
531.63	52315.65
531.80	52233.74
531.97	52217.35
532.14	52413.96
532.31	52481.83
532.48	52914.83
532.65	52715.89
532.82	52718.23
532.99	52711.20
533.16	52432.68
533.33	52746.31
533.50	52846.96
533.67	52729.93
533.84	52858.66
534.01	53008.45
534.18	52741.63
534.35	53432.09
534.52	53345.49
534.69	53305.70
534.86	53045.90
535.03	53198.04
535.20	53343.15
535.37	53542.10
535.54	53628.69
535.71	53457.84
535.88	53389.96
536.05	53731.68
536.22	53661.46
536.38	53567.84
536.55	53801.89
536.72	53801.89
536.89	53640.40
537.06	54049.99
537.23	54115.53
537.40	54054.67
537.57	53897.86
537.74	54026.59
537.91	53928.28
538.08	54089.78
538.25	54024.25
538.42	54272.34
538.59	54429.16
538.75	54183.40
538.92	54361.28
539.09	54375.33
539.26	54417.46
539.43	54405.75
539.60	54468.95
539.77	54344.90
539.94	54841.09
540.11	54546.18
540.28	54721.72
540.44	54630.44
540.61	54543.84
540.78	54827.05
540.95	54829.39
541.12	54492.35
541.29	54726.41
541.46	54951.10
541.62	55157.06
541.79	55035.36
541.96	54695.98
542.13	55037.70
542.30	54873.86
542.47	55124.30
542.63	55196.85
542.80	55253.03
542.97	55646.24
543.14	55817.10
543.31	55571.34
543.48	55686.03
543.64	55618.15
543.81	55784.33
543.98	55793.69
544.15	55676.66
544.32	55576.02
544.48	55999.66
544.65	55669.64
544.82	56156.47
544.99	55746.88
545.16	56006.68
545.32	55744.54
545.49	56144.77
545.66	56444.36
545.83	56175.20
546.00	56512.23
546.16	56495.85
546.33	56191.58
546.50	56011.36
546.67	56285.20
546.83	55657.94
547.00	56168.18
547.17	56030.08
547.34	56032.42
547.50	56519.26
547.67	56757.99
547.84	56563.73
548.00	56891.40
548.17	56699.48
548.34	56336.69
548.51	56486.49
548.67	56610.54
548.84	56460.74
549.01	56409.25
549.18	56617.56
549.34	56767.35
549.51	56580.11
549.68	56753.31
549.84	56825.87
550.01	56676.07
550.18	56636.28
550.34	56872.68
550.51	56753.31
550.68	56793.10
550.84	56678.41
551.01	56994.39
551.18	56954.60
551.34	56676.07
551.51	56750.97
551.68	57041.20
551.84	56837.57
552.01	57027.15
552.18	56748.63
552.34	56900.76
552.51	57190.99
552.68	57200.35
552.84	57401.64
553.01	57249.50
553.18	57193.33
553.34	57347.81
553.51	57130.14
553.67	57120.77
553.84	57403.98
554.01	57673.14
554.17	57680.16
554.34	57609.95
554.51	57485.90
554.67	57497.60
554.84	57326.74
555.00	57165.24
555.17	57373.55
555.33	57427.38
555.50	57418.02
555.67	57621.65
555.83	57425.04
556.00	57563.14
556.16	58007.84
556.33	57565.48
556.50	57518.67
556.66	57799.53
556.83	57701.23
556.99	57733.99
557.16	57890.81
557.32	57799.53
557.49	58155.29
557.65	57881.45
557.82	57897.83
557.98	57982.09
558.15	57729.31
558.32	58056.99
558.48	57605.26
558.65	58049.97
558.81	58134.23
558.98	58099.12
559.14	57944.64
559.31	57895.49
559.47	58068.69
559.64	58085.07
559.80	57979.75
559.97	58026.56
560.13	58024.22
560.30	58080.39
560.46	58171.67
560.63	58330.83
560.79	58492.33
560.96	58260.62
561.12	58248.91
561.29	58302.74
561.45	58354.24
561.61	58241.89
561.78	58202.10
561.94	58372.96
562.11	58616.38
562.27	58363.60
562.44	58319.13
562.60	58344.87
562.77	58017.20
562.93	58440.84
563.10	58461.90
563.26	58141.25
563.42	58478.28
563.59	58394.03
563.75	58316.79
563.92	58560.20
564.08	58550.84
564.24	58553.18
564.41	58585.95
564.57	58592.97
564.74	58665.53
564.90	58581.27
565.07	58595.31
565.23	58686.59
565.39	58583.61
565.56	58857.45
565.72	58698.30
565.88	58560.20
566.05	58478.28
566.21	58553.18
566.38	58637.44
566.54	58438.50
566.70	58646.80
566.87	58934.69
567.03	58824.68
567.19	59121.93
567.36	59054.06
567.52	58965.12
567.68	58653.82
567.85	58831.71
568.01	58925.33
568.17	58958.09
568.34	58960.44
568.50	58728.72
568.66	58866.81
568.83	59070.44
568.99	58770.85
569.15	58798.94
569.32	59002.56
569.48	58937.03
569.64	58864.47
569.81	58707.66
569.97	58873.84
570.13	59014.27
570.30	58869.15
570.46	58820.00
570.62	58981.50
570.78	59121.93
570.95	58946.39
571.11	58922.99
571.27	58908.94
571.43	58855.11
571.60	58955.75
571.76	58939.37
571.92	59072.78
572.09	59164.06
572.25	59168.74
572.41	59199.17
572.57	59271.73
572.74	59269.39
572.90	59079.80
573.06	59138.32
573.22	58827.02
573.38	59175.76
573.55	59175.76
573.71	59159.38
573.87	59203.85
574.03	59145.34
574.20	59260.02
574.36	59199.17
574.52	59227.26
574.68	59112.57
574.84	59114.91
575.01	59171.08
575.17	59241.30
575.33	59171.08
575.49	59187.47
575.65	59325.56
575.82	59269.39
575.98	59117.25
576.14	59515.14
576.30	59260.02
576.46	59215.55
576.62	59173.42
576.79	59131.29
576.95	59161.72
577.11	59330.24
577.27	59421.52
577.43	59194.49
577.59	59297.47
577.75	59391.09
577.92	59082.14
578.08	59267.05
578.24	59334.92
578.40	59351.30
578.56	59414.50
578.72	59400.46
578.88	59590.04
579.04	59760.90
579.21	59341.94
579.37	59594.72
579.53	59412.16
579.69	59201.51
579.85	59363.01
580.01	59114.91
580.17	59461.31
580.33	59494.08
580.49	59402.80
580.65	59489.40
580.82	59437.90
580.98	59468.33
581.14	59480.03
581.30	59716.43
581.46	59456.63
581.62	59250.66
581.78	59196.83
581.94	59461.31
582.10	59409.82
582.26	59573.66
582.42	59613.44
582.58	59409.82
582.74	59576.00
582.90	59248.32
583.06	59526.84
583.22	59428.54
583.38	59355.99
583.54	59393.43
583.70	59529.19
583.86	59632.17
584.02	59643.87
584.18	59728.13
584.34	59571.32
584.50	59810.05
584.66	59604.08
584.82	59458.97
584.98	59363.01
585.14	59494.08
585.30	59550.25
585.46	59517.48
585.62	59477.69
585.78	59662.60
585.94	59494.08
586.10	59578.34
586.26	59597.06
586.42	59767.92
586.58	59739.83
586.74	59517.48
586.90	59323.22
587.06	59594.72
587.22	60001.97
587.38	59634.51
587.54	59920.05
587.70	60001.97
587.86	59650.89
588.02	59781.96
588.18	60037.08
