SpectraSuite Data File
++++++++++++++++++++++++++++++++++++
Date: Thu Oct 24 13:21:11 EDT 2013
User: stostad
Dark Spectrum Present: No
Reference Spectrum Present: No
Number of Sampled Component Spectra: 1
Spectrometers: USB2+H05261
Integration Time (usec): 100000 (USB2+H05261)
Spectra Averaged: 1 (USB2+H05261)
Boxcar Smoothing: 0 (USB2+H05261)
Correct for Electrical Dark: No (USB2+H05261)
Strobe/Lamp Enabled: No (USB2+H05261)
Correct for Detector Non-linearity: No (USB2+H05261)
Correct for Stray Light: No (USB2+H05261)
Number of Pixels in Processed Spectrum: 2048
>>>>>Begin Processed Spectral Data<<<<<
365.73	526.62
365.92	526.62
366.12	526.62
366.32	447.04
366.52	397.89
366.72	472.79
366.91	528.96
367.11	482.15
367.31	411.93
367.51	486.83
367.70	454.06
367.90	507.90
368.10	500.87
368.30	533.64
368.49	437.68
368.69	444.70
368.89	409.59
369.09	498.53
369.28	493.85
369.48	512.58
369.68	545.34
369.87	566.41
370.07	491.51
370.27	498.53
370.47	535.98
370.66	723.23
370.86	725.57
371.06	788.76
371.25	704.50
371.45	669.39
371.65	770.04
371.84	744.29
372.04	702.16
372.24	774.72
372.44	791.10
372.63	795.78
372.83	826.21
373.03	713.86
373.22	842.59
373.42	748.97
373.62	800.46
373.81	814.51
374.01	786.42
374.21	765.36
374.40	741.95
374.60	765.36
374.79	755.99
374.99	788.76
375.19	840.25
375.38	805.14
375.58	793.44
375.78	812.17
375.97	873.02
376.17	823.87
376.37	823.87
376.56	856.64
376.76	765.36
376.95	816.85
377.15	835.57
377.35	844.93
377.54	763.01
377.74	791.10
377.93	819.19
378.13	847.27
378.33	894.08
378.52	809.83
378.72	826.21
378.91	887.06
379.11	765.36
379.31	894.08
379.50	828.55
379.70	919.83
379.89	866.00
380.09	842.59
380.28	800.46
380.48	877.70
380.68	849.61
380.87	826.21
381.07	882.38
381.26	858.98
381.46	875.36
381.65	863.66
381.85	894.08
382.04	875.36
382.24	798.12
382.43	917.49
382.63	877.70
382.83	887.06
383.02	945.58
383.22	987.71
383.41	978.34
383.61	922.17
383.80	978.34
384.00	884.72
384.19	866.00
384.39	861.32
384.58	901.11
384.78	884.72
384.97	992.39
385.17	936.21
385.36	903.45
385.56	936.21
385.75	957.28
385.95	912.81
386.14	938.55
386.34	922.17
386.53	961.96
386.72	945.58
386.92	987.71
387.11	903.45
387.31	964.30
387.50	971.32
387.70	875.36
387.89	1006.43
388.09	905.79
388.28	959.62
388.48	940.90
388.67	964.30
388.86	896.43
389.06	903.45
389.25	1006.43
389.45	945.58
389.64	1011.11
389.84	992.39
390.03	1018.13
390.22	1011.11
390.42	919.83
390.61	1069.62
390.81	990.05
391.00	1027.50
391.19	1036.86
391.39	1004.09
391.58	1064.94
391.78	1090.69
391.97	1041.54
392.16	1078.99
392.36	1034.52
392.55	1039.20
392.75	1029.84
392.94	1076.65
393.13	1039.20
393.33	1100.05
393.52	1071.97
393.71	1062.60
393.91	1036.86
394.10	1074.31
394.29	1081.33
394.49	1078.99
394.68	1069.62
394.88	1193.67
395.07	1029.84
395.26	1081.33
395.46	1095.37
395.65	1181.97
395.84	1130.48
396.04	1214.74
396.23	1174.95
396.42	1078.99
396.62	1200.69
396.81	1172.61
397.00	1158.57
397.19	1139.84
397.39	1128.14
397.58	1205.38
397.77	1100.05
397.97	1093.03
398.16	1177.29
398.35	1277.93
398.55	1205.38
398.74	1193.67
398.93	1203.04
399.12	1221.76
399.32	1238.14
399.51	1193.67
399.70	1203.04
399.90	1163.25
400.09	1240.48
400.28	1224.10
400.47	1261.55
400.67	1214.74
400.86	1186.65
401.05	1268.57
401.24	1238.14
401.44	1214.74
401.63	1261.55
401.82	1299.00
402.01	1266.23
402.21	1277.93
402.40	1383.26
402.59	1357.51
402.78	1263.89
402.97	1334.11
403.17	1387.94
403.36	1397.30
403.55	1369.21
403.74	1357.51
403.93	1310.70
404.13	1366.87
404.32	1479.22
404.51	1495.60
404.70	1420.71
404.89	1390.28
405.09	1479.22
405.28	1392.62
405.47	1427.73
405.66	1315.38
405.85	1521.35
406.05	1458.15
406.24	1420.71
406.43	1511.99
406.62	1542.41
406.81	1514.33
407.00	1544.75
407.20	1469.86
407.39	1500.28
407.58	1554.12
407.77	1589.22
407.96	1570.50
408.15	1568.16
408.34	1572.84
408.54	1572.84
408.73	1638.38
408.92	1519.01
409.11	1561.14
409.30	1678.16
409.49	1603.27
409.68	1572.84
409.87	1596.25
410.07	1650.08
410.26	1621.99
410.45	1671.14
410.64	1579.86
410.83	1797.53
411.02	1640.72
411.21	1668.80
411.40	1668.80
411.59	1713.27
411.78	1692.21
411.98	1790.51
412.17	1804.55
412.36	1804.55
412.55	1804.55
412.74	1739.02
412.93	1898.17
413.12	1867.75
413.31	1870.09
413.50	1872.43
413.69	1888.81
413.88	1991.80
414.07	1888.81
414.26	1933.28
414.45	1905.20
414.64	1975.41
414.83	1912.22
415.02	1947.33
415.22	1914.56
415.41	2113.50
415.60	1933.28
415.79	2005.84
415.98	2094.78
416.17	2008.18
416.36	2101.80
416.55	2122.87
416.74	2057.33
416.93	1980.09
417.12	2057.33
417.31	2136.91
417.50	2183.72
417.69	2260.96
417.88	2209.47
418.07	2200.10
418.26	2228.19
418.45	2174.36
418.64	2275.00
418.83	2143.93
419.02	2298.41
419.21	2333.51
419.39	2321.81
419.58	2202.44
419.77	2232.87
419.96	2375.64
420.15	2270.32
420.34	2352.24
420.53	2237.55
420.72	2331.17
420.91	2354.58
421.10	2310.11
421.29	2324.15
421.48	2403.73
421.67	2272.66
421.86	2427.14
422.05	2282.02
422.24	2338.20
422.43	2455.22
422.61	2349.90
422.80	2408.41
422.99	2406.07
423.18	2300.75
423.37	2385.01
423.56	2392.03
423.75	2389.69
423.94	2345.22
424.13	2303.09
424.32	2377.98
424.50	2443.52
424.69	2504.37
424.88	2399.05
425.07	2455.22
425.26	2368.62
425.45	2389.69
425.64	2359.26
425.83	2436.50
426.01	2504.37
426.20	2471.61
426.39	2490.33
426.58	2445.86
426.77	2485.65
426.96	2457.56
427.15	2607.36
427.33	2546.50
427.52	2527.78
427.71	2527.78
427.90	2607.36
428.09	2523.10
428.28	2562.89
428.46	2565.23
428.65	2597.99
428.84	2518.42
429.03	2607.36
429.22	2560.55
429.40	2602.68
429.59	2581.61
429.78	2565.23
429.97	2513.74
430.16	2541.82
430.34	2729.06
430.53	2616.72
430.72	2644.81
430.91	2663.53
431.10	2663.53
431.28	2658.85
431.47	2679.91
431.66	2747.79
431.85	2663.53
432.03	2813.32
432.22	2761.83
432.41	2757.15
432.60	2766.51
432.79	2806.30
432.97	2874.18
433.16	2818.00
433.35	2792.26
433.54	2885.88
433.72	2836.73
433.91	2899.92
434.10	2792.26
434.28	2895.24
434.47	2963.12
434.66	2813.32
434.85	3016.95
435.03	2998.23
435.22	3197.17
435.41	3405.48
435.59	3353.99
435.78	3346.97
435.97	3019.29
436.16	3143.34
436.34	2963.12
436.53	3009.93
436.72	3087.17
436.90	2939.71
437.09	2995.89
437.28	2932.69
437.46	2981.84
437.65	2993.55
437.84	3084.83
438.02	3103.55
438.21	3185.47
438.40	3000.57
438.58	3014.61
438.77	3185.47
438.96	3108.23
439.14	3185.47
439.33	3258.03
439.52	3206.53
439.70	3272.07
439.89	3300.16
440.08	3368.03
440.26	3199.51
440.45	3311.86
440.63	3349.31
440.82	3321.22
441.01	3393.78
441.19	3323.56
441.38	3445.27
441.57	3508.46
441.75	3447.61
441.94	3400.80
442.12	3559.95
442.31	3447.61
442.50	3581.02
442.68	3632.51
442.87	3721.45
443.05	3667.62
443.24	3726.13
443.43	3566.98
443.61	3688.68
443.80	3831.46
443.98	3602.08
444.17	3545.91
444.35	3616.13
444.54	3665.28
444.73	3691.02
444.91	3684.00
445.10	3824.44
445.28	3763.58
445.47	3723.79
445.65	3641.87
445.84	3672.30
446.02	3824.44
446.21	3702.73
446.39	3623.15
446.58	3791.67
446.77	3620.81
446.95	3698.05
447.14	3754.22
447.32	3712.09
447.51	3662.94
447.69	3730.81
447.88	3777.62
448.06	3658.26
448.25	3644.21
448.43	3702.73
448.62	3810.39
448.80	3723.79
448.99	3948.48
449.17	3744.86
449.36	3784.65
449.54	3873.59
449.73	3904.01
449.91	3913.38
450.10	3901.67
450.28	3988.27
450.46	3864.22
450.65	3847.84
450.83	3971.89
451.02	3936.78
451.20	3962.53
451.39	3995.29
451.57	4138.07
451.76	3941.46
451.94	3857.20
452.13	3934.44
452.31	4007.00
452.49	3974.23
452.68	3969.55
452.86	3990.61
453.05	4067.85
453.23	4081.89
453.42	4084.23
453.60	4133.39
453.78	4131.05
453.97	4067.85
454.15	4067.85
454.34	3976.57
454.52	4121.68
454.70	4065.51
454.89	4210.62
455.07	4219.99
455.26	4138.07
455.44	4224.67
455.62	4236.37
455.81	4079.55
455.99	4191.90
456.17	4231.69
456.36	4397.87
456.54	4332.33
456.73	4341.69
456.91	4322.97
457.09	4409.57
457.28	4507.87
457.46	4432.97
457.64	4432.97
457.83	4468.08
458.01	4325.31
458.19	4514.89
458.38	4381.48
458.56	4423.61
458.74	4486.81
458.93	4561.70
459.11	4624.90
459.29	4622.56
459.48	4660.01
459.66	4547.66
459.84	4557.02
460.03	4709.16
460.21	4568.73
460.39	4697.46
460.57	4683.41
460.76	4725.54
460.94	4713.84
461.12	4697.46
461.31	4823.84
461.49	4713.84
461.67	4664.69
461.85	4784.06
462.04	4678.73
462.22	5146.84
462.40	4819.16
462.59	4840.23
462.77	4737.24
462.95	4828.53
463.13	4720.86
463.32	4858.95
463.50	4971.30
463.68	4786.40
463.86	4933.85
464.05	4828.53
464.23	4781.71
464.41	4772.35
464.59	4863.63
464.78	4999.38
464.96	4936.19
465.14	4947.89
465.32	4947.89
465.50	5022.79
465.69	5097.69
465.87	5125.77
466.05	5104.71
466.23	4957.25
466.41	5032.15
466.60	5287.27
466.78	5074.28
466.96	4971.30
467.14	5020.45
467.32	5095.35
467.51	5163.22
467.69	5071.94
467.87	5123.43
468.05	5284.93
468.23	5188.97
468.41	5085.98
468.60	5025.13
468.78	5210.03
468.96	5121.09
469.14	5364.51
469.32	5256.84
469.50	5137.48
469.69	5275.57
469.87	5359.83
470.05	5235.78
470.23	5357.49
470.41	5320.04
470.59	5369.19
470.77	5378.55
470.95	5399.62
471.14	5287.27
471.32	5441.75
471.50	5486.22
471.68	5413.66
471.86	5521.32
472.04	5392.59
472.22	5713.25
472.40	5584.52
472.58	5692.18
472.77	5614.95
472.95	5727.29
473.13	5856.02
473.31	5708.57
473.49	5811.55
473.67	5841.98
473.85	5874.74
474.03	5959.00
474.21	5816.23
474.39	5951.98
474.57	5956.66
474.75	6031.56
474.93	5933.26
475.12	5961.34
475.30	5975.39
475.48	5987.09
475.66	6218.80
475.84	6230.51
476.02	6155.61
476.20	6221.14
476.38	6136.88
476.56	6279.66
476.74	6399.02
476.92	6434.13
477.10	6415.41
477.28	6445.84
477.46	6441.15
477.64	6462.22
477.82	6499.67
478.00	6806.28
478.18	6579.25
478.36	6722.02
478.54	6785.21
478.72	6654.14
478.90	6871.81
479.08	6951.39
479.26	7021.61
479.44	7103.53
479.62	7091.82
479.80	7190.13
479.98	7042.67
480.16	7323.54
480.34	7117.57
480.52	7201.83
480.70	7396.09
480.88	7140.97
481.06	7290.77
481.24	7466.31
481.41	7470.99
481.59	7655.89
481.77	7744.83
481.95	7758.88
482.13	7740.15
482.31	7840.79
482.49	7831.43
482.67	7763.56
482.85	8114.64
483.03	7941.44
483.21	8124.00
483.39	8320.60
483.57	8140.38
483.74	8091.23
483.92	8224.64
484.10	8351.03
484.28	8557.00
484.46	8432.95
484.64	8737.22
484.82	8554.66
485.00	8603.81
485.18	8758.28
485.35	8802.75
485.53	8622.53
485.71	8982.98
485.89	8966.59
486.07	9067.24
486.25	9018.08
486.43	9121.07
486.61	9282.56
486.78	9411.29
486.96	9303.63
487.14	9390.23
487.32	9654.71
487.50	9380.87
487.68	9530.66
487.85	9666.41
488.03	9937.91
488.21	9928.55
488.39	9863.02
488.57	9970.68
488.75	10054.94
488.92	10174.31
489.10	10108.77
489.28	10317.08
489.46	10267.93
489.64	10235.16
489.81	10361.55
489.99	10324.10
490.17	10544.11
490.35	10621.35
490.53	10642.42
490.70	10925.62
490.88	10644.76
491.06	11059.03
491.24	10883.49
491.41	11066.05
491.59	10909.24
491.77	11213.51
491.95	11023.92
492.13	10906.90
492.30	11496.71
492.48	11300.11
492.66	11267.34
492.84	11489.69
493.01	11506.07
493.19	11468.62
493.37	11566.93
493.54	11742.47
493.72	11768.21
493.90	11803.32
494.08	11927.37
494.25	12131.00
494.43	12030.35
494.61	12088.87
494.79	11995.25
494.96	12107.59
495.14	12224.62
495.32	12236.32
495.49	12542.93
495.67	12402.50
495.85	12622.51
496.02	12746.56
496.20	12599.10
496.38	12732.51
496.55	12645.91
496.73	13153.81
496.91	12898.69
497.09	12772.30
497.26	13076.57
497.44	12798.05
497.62	13139.77
497.79	13319.99
497.97	13195.94
498.14	13525.96
498.32	13530.64
498.50	13448.72
498.67	13467.44
498.85	13708.52
499.03	13685.11
499.20	13661.71
499.38	13781.07
499.56	13738.94
499.73	13832.57
499.91	13774.05
500.08	14071.30
500.26	13755.33
500.44	14057.26
500.61	14061.94
500.79	14136.84
500.97	14202.37
501.14	14340.46
501.32	14246.84
501.49	14160.24
501.67	14277.27
501.84	14548.77
502.02	14417.70
502.20	14487.92
502.37	14490.26
502.55	14450.47
502.72	14738.35
502.90	14448.13
503.07	14623.67
503.25	14602.60
503.43	14738.35
503.60	14855.38
503.78	14817.93
503.95	14647.07
504.13	14703.25
504.30	14803.89
504.48	14965.39
504.65	15356.25
504.83	15288.38
505.01	15051.99
505.18	15161.99
505.36	15295.40
505.53	15323.49
505.71	15398.38
505.88	15510.73
506.06	15365.62
506.23	15606.69
506.41	15529.45
506.58	15707.34
506.76	15513.07
506.93	15578.61
507.11	15756.49
507.28	15840.75
507.46	15751.81
507.63	15744.78
507.81	15939.05
507.98	15623.08
508.16	15939.05
508.33	15971.82
508.50	16013.95
508.68	16285.45
508.85	16166.08
509.03	16318.22
509.20	16383.75
509.38	16365.03
509.55	16505.46
509.73	16350.98
509.90	16769.94
510.08	16587.38
510.25	16243.32
510.42	16596.74
510.60	16299.49
510.77	16947.82
510.95	16748.87
511.12	16814.41
511.30	16798.02
511.47	16915.05
511.64	17083.57
511.82	16734.83
511.99	16858.88
512.17	16908.03
512.34	16950.16
512.51	17284.86
512.69	17312.94
512.86	17287.20
513.04	17212.30
513.21	17186.55
513.38	17523.59
513.56	17678.07
513.73	17638.28
513.90	17355.07
514.08	17366.78
514.25	17530.61
514.43	17617.21
514.60	17460.40
514.77	17390.18
514.95	17481.46
515.12	17532.95
515.29	17589.13
515.47	17907.44
515.64	17928.50
515.81	17923.82
515.99	17778.71
516.16	18024.47
516.33	18061.91
516.51	18537.04
516.68	18078.30
516.85	18059.57
517.03	18122.77
517.20	18321.71
517.37	17916.80
517.54	18195.32
517.72	18209.37
517.89	18162.56
518.06	18335.76
518.24	18368.52
518.41	18310.01
518.58	18604.92
518.75	18384.91
518.93	18567.47
519.10	18520.66
519.27	18822.59
519.45	18382.57
519.62	18909.19
519.79	18523.00
519.96	18932.59
520.14	18920.89
520.31	18633.00
520.48	18771.10
520.65	18771.10
520.83	19307.08
521.00	18845.99
521.17	19124.52
521.34	19033.24
521.52	19117.50
521.69	19051.96
521.86	19321.12
522.03	19419.42
522.20	19250.91
522.38	19639.44
522.55	19098.77
522.72	19105.79
522.89	19152.60
523.07	19407.72
523.24	19344.53
523.41	19344.53
523.58	19304.74
523.75	19969.45
523.92	19573.90
524.10	19819.66
524.27	19845.40
524.44	19880.51
524.61	19711.99
524.78	19854.76
524.96	19814.98
525.13	19852.42
525.30	19967.11
525.47	19962.43
525.64	19969.45
525.81	19932.00
525.98	20013.92
526.16	19833.70
526.33	20074.77
526.50	20573.31
526.67	19964.77
526.84	20252.66
527.01	20156.69
527.18	20446.92
527.36	20652.89
527.53	20297.13
527.70	20423.51
527.87	20631.82
528.04	20554.58
528.21	20547.56
528.38	20844.81
528.55	20538.20
528.72	20187.12
528.89	20369.68
529.07	20573.31
529.24	20491.39
529.41	20521.82
529.58	20835.45
529.75	20723.10
529.92	20961.84
530.09	20683.31
530.26	20638.84
530.43	20765.23
530.60	20568.63
530.77	20821.41
530.94	20896.30
531.11	21135.04
531.28	20999.29
531.46	20973.54
531.63	20826.09
531.80	21036.74
531.97	20994.61
532.14	21081.21
532.31	21184.19
532.48	20989.92
532.65	21261.43
532.82	21252.06
532.99	21191.21
533.16	21415.90
533.33	21443.99
533.50	21696.77
533.67	21703.79
533.84	21125.68
534.01	21200.57
534.18	21263.77
534.35	21774.00
534.52	21961.25
534.69	21678.04
534.86	21490.80
535.03	21460.37
535.20	21404.20
535.37	21593.78
535.54	21631.23
535.71	21659.32
535.88	21862.94
536.05	21907.41
536.22	22092.32
536.38	22199.98
536.55	22064.23
536.72	22317.01
536.89	22033.80
537.06	22127.42
537.23	22361.48
537.40	21816.13
537.57	22209.34
537.74	21970.61
537.91	22141.47
538.08	22008.06
538.25	22169.55
538.42	22422.33
538.59	22593.19
538.75	22094.66
538.92	22492.55
539.09	22614.26
539.26	22094.66
539.43	22455.10
539.60	22609.58
539.77	22618.94
539.94	22764.05
540.11	22822.56
540.28	22876.40
540.44	22717.24
540.61	22377.86
540.78	22532.34
540.95	23246.20
541.12	23136.20
541.29	23183.01
541.46	23058.96
541.62	23276.63
541.79	23199.39
541.96	23161.94
542.13	23073.00
542.30	23278.97
542.47	23248.54
542.63	23424.08
542.80	23531.75
542.97	23676.86
543.14	23475.57
543.31	23222.80
543.48	23503.66
543.64	23637.07
543.81	23534.09
543.98	23403.02
544.15	23529.41
544.32	23718.99
544.48	24046.66
544.65	23679.20
544.82	23850.06
544.99	23679.20
545.16	23894.53
545.32	23365.57
545.49	24477.32
545.66	24669.25
545.83	24929.05
546.00	24482.00
546.16	24027.94
546.33	24236.25
546.50	24074.75
546.67	24446.90
546.83	23571.54
547.00	23704.95
547.17	23452.17
547.34	23665.16
547.50	23695.58
547.67	23878.15
547.84	24023.26
548.00	24184.76
548.17	24025.60
548.34	24020.92
548.51	24084.11
548.67	24121.56
548.84	24390.72
549.01	23676.86
549.18	24238.59
549.34	24191.78
549.51	24294.76
549.68	23974.11
549.84	24102.84
550.01	24016.24
550.18	24034.96
550.34	24231.57
550.51	24194.12
550.68	24144.97
550.84	23693.24
551.01	24446.90
551.18	24257.31
551.34	24107.52
551.51	23927.30
551.68	24201.14
551.84	24245.61
552.01	23948.36
552.18	24407.11
552.34	24140.29
552.51	24226.89
552.68	24343.91
552.84	24287.74
553.01	24465.62
553.18	24535.84
553.34	24559.24
553.51	24119.22
553.67	24196.46
553.84	24603.71
554.01	24432.85
554.17	24362.64
554.34	24299.44
554.51	24556.90
554.67	24432.85
554.84	24322.85
555.00	24421.15
555.17	24051.34
555.33	24269.01
555.50	24395.40
555.67	24407.11
555.83	24643.50
556.00	24163.69
556.16	24613.07
556.33	24556.90
556.50	24631.80
556.66	24404.77
556.83	24350.93
556.99	25057.78
557.16	24910.32
557.32	24929.05
557.49	25275.45
557.65	24697.33
557.82	24680.95
557.98	24643.50
558.15	24484.34
558.32	24360.30
558.48	24645.84
558.65	25032.03
558.81	24470.30
558.98	24837.76
559.14	25017.99
559.31	24805.00
559.47	24589.67
559.64	24872.87
559.80	24606.05
559.97	25078.84
560.13	24702.01
560.30	24875.21
560.46	24938.41
560.63	25135.01
560.79	25172.46
560.96	25326.94
561.12	24720.74
561.29	25109.27
561.45	25111.61
561.61	25390.13
561.78	24720.74
561.94	25116.29
562.11	25008.62
562.27	25153.74
562.44	25188.85
562.60	25085.86
562.77	24872.87
562.93	24503.07
563.10	25214.59
563.26	24821.38
563.42	25401.83
563.59	25462.69
563.75	25039.05
563.92	25441.62
564.08	25317.57
564.24	25123.31
564.41	25326.94
564.57	25209.91
564.74	25090.54
564.90	25350.34
565.07	25195.87
565.23	25448.64
565.39	25015.65
565.56	25385.45
565.72	25099.90
565.88	25481.41
566.05	25275.45
566.21	25025.01
566.38	24816.70
566.54	25443.96
566.70	25296.51
566.87	25331.62
567.03	25303.53
567.19	25507.16
567.36	25275.45
567.52	25399.49
567.68	25235.66
567.85	24964.15
568.01	25493.12
568.17	25336.30
568.34	25493.12
568.50	25399.49
568.66	25118.63
568.83	25378.43
568.99	25401.83
569.15	25165.44
569.32	25062.46
569.48	25474.39
569.64	25340.98
569.81	25467.37
569.97	25572.69
570.13	25179.48
570.30	25404.17
570.46	25443.96
570.62	25104.59
570.78	25469.71
570.95	25228.63
571.11	25652.27
571.27	25193.53
571.43	25160.76
571.60	25397.15
571.76	25383.11
571.92	25876.96
572.09	25539.93
572.25	25715.47
572.41	25315.23
572.57	25528.22
572.74	25387.79
572.90	25621.84
573.06	25392.47
573.22	25607.80
573.38	25855.90
573.55	25329.28
573.71	25671.00
573.87	25806.75
574.03	25553.97
574.20	25715.47
574.36	25724.83
574.52	25820.79
574.68	25469.71
574.84	25528.22
575.01	25432.26
575.17	25518.86
575.33	25453.33
575.49	25511.84
575.65	25425.24
575.82	25970.58
575.98	25703.76
576.14	25846.54
576.30	25673.34
576.46	25972.92
576.62	25951.86
576.79	25724.83
576.95	25558.65
577.11	25984.63
577.27	25914.41
577.43	25993.99
577.59	25891.01
577.75	25724.83
577.92	25516.52
578.08	25755.26
578.24	25659.29
578.40	25921.43
578.56	25748.23
578.72	26033.78
578.88	26078.25
579.04	26132.08
579.21	25991.65
579.37	25750.57
579.53	25933.14
579.69	25991.65
579.85	25830.15
580.01	25879.30
580.17	26204.64
580.33	25706.10
580.49	25855.90
580.65	25748.23
580.82	25626.53
580.98	26005.69
581.14	25860.58
581.30	26015.05
581.46	25837.17
581.62	25748.23
581.78	25916.75
581.94	25802.07
582.10	25467.37
582.26	25958.88
582.42	25841.85
582.58	26214.00
582.74	25930.80
582.90	25537.59
583.06	25996.33
583.22	25598.44
583.38	25694.40
583.54	25731.85
583.70	26099.31
583.86	25865.26
584.02	25799.73
584.18	25837.17
584.34	25970.58
584.50	26001.01
584.66	25898.03
584.82	25579.71
584.98	25680.36
585.14	25972.92
585.30	26183.57
585.46	26033.78
585.62	25865.26
585.78	25797.38
585.94	25888.67
586.10	25986.97
586.26	25876.96
586.42	25649.93
586.58	25837.17
586.74	26171.87
586.90	25921.43
587.06	25830.15
587.22	26354.43
587.38	25919.09
587.54	26052.50
587.70	26197.62
587.86	26040.80
588.02	26015.05
588.18	26085.27
588.34	26033.78
588.49	26001.01
588.65	25839.51
588.81	25869.94
588.97	26003.35
589.13	26003.35
589.29	26361.45
589.45	26249.11
589.61	25710.78
589.77	26279.54
589.93	26045.48
590.08	26132.08
590.24	26059.52
590.40	26150.81
590.56	25692.06
590.72	25970.58
