SpectraSuite Data File
++++++++++++++++++++++++++++++++++++
Date: Thu Oct 24 13:21:25 EDT 2013
User: stostad
Dark Spectrum Present: No
Reference Spectrum Present: No
Number of Sampled Component Spectra: 1
Spectrometers: USB2+H05261
Integration Time (usec): 100000 (USB2+H05261)
Spectra Averaged: 1 (USB2+H05261)
Boxcar Smoothing: 0 (USB2+H05261)
Correct for Electrical Dark: No (USB2+H05261)
Strobe/Lamp Enabled: No (USB2+H05261)
Correct for Detector Non-linearity: No (USB2+H05261)
Correct for Stray Light: No (USB2+H05261)
Number of Pixels in Processed Spectrum: 2048
>>>>>Begin Processed Spectral Data<<<<<
365.73	613.22
365.92	613.22
366.12	613.22
366.32	535.98
366.52	496.19
366.72	440.02
366.91	435.34
367.11	435.34
367.31	498.53
367.51	395.55
367.70	498.53
367.90	456.40
368.10	430.66
368.30	454.06
368.49	433.00
368.69	521.94
368.89	545.34
369.09	540.66
369.28	543.00
369.48	503.22
369.68	526.62
369.87	582.79
370.07	526.62
370.27	615.56
370.47	610.88
370.66	936.21
370.86	966.64
371.06	931.53
371.25	943.24
371.45	870.68
371.65	1015.79
371.84	964.30
372.04	945.58
372.24	983.02
372.44	1018.13
372.63	1095.37
372.83	1020.47
373.03	1060.26
373.22	1011.11
373.42	1013.45
373.62	1053.24
373.81	1102.39
374.01	1088.35
374.21	1093.03
374.40	1086.01
374.60	1039.20
374.79	1121.12
374.99	1039.20
375.19	1006.43
375.38	1165.59
375.58	1130.48
375.78	1158.57
375.97	1107.07
376.17	1151.54
376.37	1179.63
376.56	1170.27
376.76	1163.25
376.95	1193.67
377.15	1231.12
377.35	1172.61
377.54	1212.40
377.74	1214.74
377.93	1207.72
378.13	1240.48
378.33	1289.64
378.52	1196.01
378.72	1235.80
378.91	1296.66
379.11	1186.65
379.31	1181.97
379.50	1151.54
379.70	1270.91
379.89	1317.72
380.09	1245.16
380.28	1212.40
380.48	1228.78
380.68	1219.42
380.87	1252.19
381.07	1284.95
381.26	1350.49
381.46	1359.85
381.65	1345.81
381.85	1327.08
382.04	1331.76
382.24	1378.58
382.43	1284.95
382.63	1357.51
382.83	1291.98
383.02	1350.49
383.22	1294.32
383.41	1397.30
383.61	1359.85
383.80	1416.02
384.00	1364.53
384.19	1310.70
384.39	1409.00
384.58	1416.02
384.78	1439.43
384.97	1439.43
385.17	1432.41
385.36	1348.15
385.56	1474.54
385.75	1544.75
385.95	1474.54
386.14	1460.49
386.34	1451.13
386.53	1469.86
386.72	1488.58
386.92	1500.28
387.11	1472.20
387.31	1542.41
387.50	1526.03
387.70	1474.54
387.89	1481.56
388.09	1582.20
388.28	1582.20
388.48	1497.94
388.67	1544.75
388.86	1537.73
389.06	1626.67
389.25	1589.22
389.45	1659.44
389.64	1577.52
389.84	1612.63
390.03	1661.78
390.22	1645.40
390.42	1530.71
390.61	1722.63
390.81	1703.91
391.00	1741.36
391.19	1678.16
391.39	1708.59
391.58	1739.02
391.78	1678.16
391.97	1657.10
392.16	1652.42
392.36	1797.53
392.55	1879.45
392.75	1769.44
392.94	1774.13
393.13	1830.30
393.33	1860.73
393.52	1865.41
393.71	1823.28
393.91	1732.00
394.10	1806.89
394.29	1842.00
394.49	1952.01
394.68	1893.49
394.88	1898.17
395.07	1865.41
395.26	1902.86
395.46	2024.56
395.65	1914.56
395.84	2033.93
396.04	2022.22
396.23	1966.05
396.42	2029.24
396.62	2010.52
396.81	2073.71
397.00	2029.24
397.19	2047.97
397.39	2043.29
397.58	2036.27
397.77	2073.71
397.97	2059.67
398.16	1989.46
398.35	2054.99
398.55	2087.76
398.74	2024.56
398.93	2132.23
399.12	2022.22
399.32	2148.61
399.51	2097.12
399.70	2186.06
399.90	2232.87
400.09	2260.96
400.28	2282.02
400.47	2340.54
400.67	2321.81
400.86	2310.11
401.05	2349.90
401.24	2319.47
401.44	2312.45
401.63	2303.09
401.82	2363.94
402.01	2300.75
402.21	2333.51
402.40	2312.45
402.59	2328.83
402.78	2401.39
402.97	2499.69
403.17	2476.29
403.36	2443.52
403.55	2546.50
403.74	2619.06
403.93	2509.05
404.13	2602.68
404.32	2492.67
404.51	2562.89
404.70	2630.76
404.89	2562.89
405.09	2712.68
405.28	2733.75
405.47	2616.72
405.66	2722.04
405.85	2705.66
406.05	2672.89
406.24	2696.30
406.43	2628.42
406.62	2733.75
406.81	2775.88
407.00	2832.05
407.20	2754.81
407.39	2825.03
407.58	2883.54
407.77	2918.65
407.96	2970.14
408.15	2869.50
408.34	2972.48
408.54	2867.16
408.73	2958.44
408.92	2967.80
409.11	3049.72
409.30	3150.36
409.49	3016.95
409.68	3096.53
409.87	3101.21
410.07	3229.94
410.26	3204.19
410.45	3180.79
410.64	3152.70
410.83	3136.32
411.02	3246.32
411.21	3321.22
411.40	3393.78
411.59	3454.63
411.78	3325.90
411.98	3321.22
412.17	3358.67
412.36	3358.67
412.55	3531.87
412.74	3442.93
412.93	3527.19
413.12	3440.59
413.31	3581.02
413.50	3566.98
413.69	3552.93
413.88	3712.09
414.07	3833.80
414.26	3676.98
414.45	3791.67
414.64	3695.71
414.83	3913.38
415.02	3847.84
415.22	4037.42
415.41	3941.46
415.60	3981.25
415.79	3946.14
415.98	4037.42
416.17	3995.29
416.36	3918.06
416.55	4196.58
416.74	4259.78
416.93	4152.11
417.12	4173.18
417.31	4170.83
417.50	4149.77
417.69	4271.48
417.88	4400.21
418.07	4290.20
418.26	4374.46
418.45	4447.02
418.64	4510.21
418.83	4463.40
419.02	4486.81
419.21	4500.85
419.39	4561.70
419.58	4491.49
419.77	4463.40
419.96	4561.70
420.15	4814.48
420.34	4697.46
420.53	4580.43
420.72	4765.33
420.91	4798.10
421.10	4739.58
421.29	4683.41
421.48	4683.41
421.67	4748.95
421.86	4809.80
422.05	4777.03
422.24	4809.80
422.43	4781.71
422.61	4971.30
422.80	5001.72
422.99	4896.40
423.18	4884.70
423.37	4992.36
423.56	4903.42
423.75	4933.85
423.94	4917.47
424.13	4638.94
424.32	4931.51
424.50	4999.38
424.69	5114.07
424.88	4947.89
425.07	4830.87
425.26	4903.42
425.45	4947.89
425.64	4973.64
425.83	4994.70
426.01	5146.84
426.20	5078.96
426.39	5036.83
426.58	4931.51
426.77	5034.49
426.96	5174.92
427.15	5116.41
427.33	5095.35
427.52	5205.35
427.71	5181.95
427.90	5224.08
428.09	5205.35
428.28	5165.56
428.46	5249.82
428.65	5135.14
428.84	5458.13
429.03	5373.87
429.22	5383.23
429.40	5385.57
429.59	5303.65
429.78	5348.12
429.97	5221.74
430.16	5481.53
430.34	5671.12
430.53	5575.16
430.72	5430.04
430.91	5614.95
431.10	5701.54
431.28	5696.86
431.47	5781.12
431.66	5738.99
431.85	5654.73
432.03	5891.13
432.22	5797.51
432.41	5767.08
432.60	5914.53
432.79	5865.38
432.97	5811.55
433.16	5994.11
433.35	5930.92
433.54	6061.99
433.72	6078.37
433.91	6230.51
434.10	6125.18
434.28	6019.86
434.47	6047.94
434.66	6209.44
434.85	6190.72
435.03	6349.87
435.22	6415.41
435.41	6455.20
435.59	6406.05
435.78	6600.31
435.97	6502.01
436.16	6235.19
436.34	6188.38
436.53	6466.90
436.72	6560.52
436.90	6324.13
437.09	6487.96
437.28	6392.00
437.46	6527.75
437.65	6597.97
437.84	6764.15
438.02	6445.84
438.21	6733.72
438.40	6647.12
438.58	6820.32
438.77	6836.70
438.96	6820.32
439.14	6881.18
439.33	6834.36
439.52	7059.06
439.70	7173.74
439.89	7279.07
440.08	7068.42
440.26	7133.95
440.45	7082.46
440.63	7143.32
440.82	7463.97
441.01	7248.64
441.19	7318.86
441.38	7487.37
441.57	7459.29
441.75	7674.62
441.94	7892.29
442.12	7618.44
442.31	7620.78
442.50	7758.88
442.68	7899.31
442.87	7695.68
443.05	7843.14
443.24	7948.46
443.43	7899.31
443.61	7880.58
443.80	8198.90
443.98	7712.07
444.17	7712.07
444.35	7976.55
444.54	8063.15
444.73	7922.71
444.91	7988.25
445.10	8100.59
445.28	7990.59
445.47	7873.56
445.65	8004.63
445.84	8180.17
446.02	8112.30
446.21	8217.62
446.39	8114.64
446.58	8332.31
446.77	8226.98
446.95	7915.69
447.14	8205.92
447.32	8252.73
447.51	8086.55
447.69	8114.64
447.88	8325.29
448.06	8322.94
448.25	8194.22
448.43	8327.63
448.62	8407.20
448.80	8446.99
448.99	8451.67
449.17	8425.93
449.36	8512.53
449.54	8681.05
449.73	8720.84
449.91	8858.93
450.10	8648.28
450.28	8786.37
450.46	8638.92
450.65	8519.55
450.83	8844.88
451.02	8737.22
451.20	8884.67
451.39	8769.99
451.57	8933.82
451.76	8767.65
451.94	8964.25
452.13	9219.37
452.31	9015.74
452.49	8725.52
452.68	8887.01
452.86	8884.67
453.05	8966.59
453.23	9104.68
453.42	8924.46
453.60	9219.37
453.78	9135.11
453.97	9114.05
454.15	9130.43
454.34	9046.17
454.52	9219.37
454.70	9373.85
454.89	9345.76
455.07	9231.07
455.26	9350.44
455.44	9458.10
455.62	9507.26
455.81	9439.38
455.99	9556.41
456.17	9572.79
456.36	9666.41
456.54	9778.76
456.73	9895.78
456.91	10024.51
457.09	9928.55
457.28	10045.58
457.46	9980.04
457.64	10066.64
457.83	10022.17
458.01	9914.51
458.19	10057.28
458.38	9937.91
458.56	10335.81
458.74	10235.16
458.93	10186.01
459.11	10256.23
459.29	10300.70
459.48	10284.31
459.66	10420.06
459.84	10471.56
460.03	10579.22
460.21	10590.92
460.39	10586.24
460.57	10499.64
460.76	10595.61
460.94	10637.73
461.12	10710.29
461.31	10700.93
461.49	10682.20
461.67	10600.29
461.85	10881.15
462.04	10623.69
462.22	11115.20
462.40	11012.22
462.59	11033.29
462.77	10960.73
462.95	11091.80
463.13	11225.21
463.32	11098.82
463.50	11272.02
463.68	11187.76
463.86	11300.11
464.05	10979.45
464.23	11087.12
464.41	11351.60
464.59	11129.25
464.78	11779.92
464.96	11363.30
465.14	11164.36
465.32	11412.45
465.50	11419.47
465.69	11501.39
465.87	11625.44
466.05	11470.97
466.23	11541.18
466.41	11534.16
466.60	11763.53
466.78	11613.74
466.96	11665.23
467.14	11592.67
467.32	11939.07
467.51	12039.72
467.69	11690.98
467.87	11899.28
468.05	11948.43
468.23	11611.40
468.41	11693.32
468.60	11967.16
468.78	12138.02
468.96	11808.00
469.14	12119.29
469.32	12381.43
469.50	12107.59
469.69	12152.06
469.87	12336.96
470.05	12383.77
470.23	12358.03
470.41	12596.76
470.59	12802.73
470.77	12353.35
470.95	12458.67
471.14	12926.78
471.32	12524.21
471.50	12678.68
471.68	12875.29
471.86	12784.01
472.04	12971.25
472.22	13198.28
472.40	13132.75
472.58	13193.60
472.77	13631.28
472.95	13493.19
473.13	13710.86
473.31	13130.41
473.49	13563.40
473.67	13406.59
473.85	13252.11
474.03	13893.42
474.21	13703.84
474.39	13970.66
474.57	13813.84
474.75	14193.01
474.93	14160.24
475.12	14291.31
475.30	14181.31
475.48	14150.88
475.66	14253.86
475.84	14551.11
476.02	14377.91
476.20	14626.01
476.38	14736.01
476.56	15037.94
476.74	14874.10
476.92	15056.67
477.10	15026.24
477.28	15316.47
477.46	15232.21
477.64	15585.63
477.82	15758.83
478.00	15920.32
478.18	15730.74
478.36	15915.64
478.54	16233.96
478.72	16163.74
478.90	16376.73
479.08	16423.54
479.26	16861.22
479.44	16535.88
479.62	16964.20
479.80	16788.66
479.98	16996.97
480.16	17380.82
480.34	17486.14
480.52	17348.05
480.70	17687.43
480.88	17362.09
481.06	17827.86
481.24	17783.39
481.41	17858.29
481.59	18197.67
481.77	18211.71
481.95	18450.44
482.13	18618.96
482.31	18768.76
482.49	19288.35
482.67	19016.85
482.85	19000.47
483.03	19641.78
483.21	19400.70
483.39	19536.45
483.57	19620.71
483.74	19829.02
483.92	20105.20
484.10	20025.62
484.28	20397.77
484.46	20678.63
484.64	20879.92
484.82	20631.82
485.00	21078.86
485.18	21305.90
485.35	21921.46
485.53	21514.20
485.71	21790.39
485.89	22026.78
486.07	21865.28
486.25	21546.97
486.43	22284.24
486.61	22452.76
486.78	23070.66
486.96	23002.78
487.14	22899.80
487.32	23049.60
487.50	23047.26
487.68	23564.51
487.85	23733.03
488.03	24299.44
488.21	24290.08
488.39	23864.10
488.57	24482.00
488.75	24493.71
488.92	24603.71
489.10	25104.59
489.28	25399.49
489.46	25638.23
489.64	25142.03
489.81	25797.38
489.99	25818.45
490.17	25706.10
490.35	25984.63
490.53	26600.19
490.70	26820.20
490.88	26221.02
491.06	26948.93
491.24	27007.44
491.41	27115.11
491.59	27283.62
491.77	27583.21
491.95	27821.95
492.13	27627.68
492.30	28238.56
492.48	28133.24
492.66	28280.69
492.84	28088.77
493.01	28772.21
493.19	28215.16
493.37	28879.87
493.54	28996.90
493.72	28980.51
493.90	29333.93
494.08	29635.86
494.25	29881.62
494.43	29944.81
494.61	29731.83
494.79	30375.47
494.96	30050.14
495.14	30506.54
495.32	30569.74
495.49	30993.37
495.67	31197.00
495.85	30911.46
496.02	31512.97
496.20	31527.02
496.38	31641.70
496.55	31899.16
496.73	32617.71
496.91	31971.72
497.09	32678.56
497.26	32641.11
497.44	32093.43
497.62	32893.89
497.79	33200.50
497.97	33048.36
498.14	33507.11
498.32	33771.59
498.50	33460.30
498.67	34143.74
498.85	33692.01
499.03	34429.28
499.20	34164.80
499.38	34405.88
499.56	34274.80
499.73	34653.97
499.91	34883.34
500.08	35402.94
500.26	34658.65
500.44	35093.99
500.61	35159.53
500.79	35552.74
500.97	35548.06
501.14	35796.15
501.32	35510.61
501.49	35686.15
501.67	35440.39
501.84	36275.96
502.02	36552.15
502.20	36346.18
502.37	36575.55
502.55	36657.47
502.72	36320.43
502.90	36666.83
503.07	36842.37
503.25	36755.77
503.43	36910.25
503.60	37462.61
503.78	37181.75
503.95	37078.77
504.13	37518.79
504.30	37563.26
504.48	38038.39
504.65	37722.41
504.83	38050.09
505.01	38689.06
505.18	38466.70
505.36	38637.56
505.53	38352.02
505.71	38525.22
505.88	38836.51
506.06	38880.98
506.23	39124.40
506.41	39084.61
506.58	39332.70
506.76	39274.19
506.93	39594.84
507.11	39297.59
507.28	39536.33
507.46	39480.16
507.63	39938.90
507.81	39782.09
507.98	40006.78
508.16	40062.95
508.33	40217.43
508.50	40421.05
508.68	40683.19
508.85	40835.33
509.03	40505.31
509.20	41008.53
509.38	41172.36
509.55	41422.80
509.73	41502.38
509.90	41628.77
510.08	41794.95
510.25	41682.60
510.42	41818.35
510.60	42234.97
510.77	42174.11
510.95	42026.66
511.12	41937.72
511.30	42108.58
511.47	42644.56
511.64	42501.79
511.82	42756.91
511.99	42478.38
512.17	42810.74
512.34	43075.22
512.51	43271.82
512.69	43274.16
512.86	43173.52
513.04	43746.95
513.21	43709.50
513.38	43704.82
513.56	43690.78
513.73	43690.78
513.90	43702.48
514.08	43952.92
514.25	44261.87
514.43	44435.07
514.60	44437.41
514.77	44072.29
514.95	44587.21
515.12	44275.91
515.29	44367.20
515.47	45031.91
515.64	45345.54
515.81	44713.59
515.99	45167.66
516.16	45235.53
516.33	45373.63
516.51	45605.34
516.68	45373.63
516.85	45621.72
517.03	45933.01
517.20	45743.43
517.37	45352.56
517.54	45916.63
517.72	45958.76
517.89	45757.47
518.06	45942.38
518.24	46204.52
518.41	46286.43
518.58	46686.67
518.75	46382.40
518.93	46305.16
519.10	46251.33
519.27	46930.08
519.45	46845.82
519.62	46997.96
519.79	47098.60
519.96	47084.56
520.14	47133.71
520.31	47281.16
520.48	47765.65
520.65	47234.35
520.83	47606.50
521.00	47704.80
521.17	47878.00
521.34	47622.88
521.52	47629.90
521.69	47751.61
521.86	47882.68
522.03	47767.99
522.20	48210.35
522.38	48161.20
522.55	48421.00
522.72	48287.59
522.89	48523.99
523.07	48561.44
523.24	48161.20
523.41	48612.93
523.58	48751.02
523.75	48924.22
523.92	49064.65
524.10	49223.81
524.27	49120.82
524.44	49174.66
524.61	49169.97
524.78	48921.88
524.96	49289.34
525.13	49352.54
525.30	49780.85
525.47	50007.89
525.64	49890.86
525.81	49745.75
525.98	49893.20
526.16	49904.90
526.33	49970.44
526.50	50405.78
526.67	49904.90
526.84	50403.44
527.01	50417.48
527.18	50312.16
527.36	50459.61
527.53	50040.65
527.70	50859.84
527.87	50663.24
528.04	50522.80
528.21	50717.07
528.38	50780.26
528.55	51210.92
528.72	50663.24
528.89	50501.74
529.07	50726.43
529.24	51370.08
529.41	51318.59
529.58	51014.32
529.75	51304.54
529.92	51044.74
530.09	51377.10
530.26	51194.54
530.43	51646.26
530.60	50911.33
530.77	51332.63
530.94	51697.75
531.11	51594.77
531.28	51859.25
531.46	51894.36
531.63	51964.57
531.80	51512.85
531.97	51868.61
532.14	51870.95
532.31	51962.23
532.48	52226.71
532.65	52280.55
532.82	52299.27
532.99	51980.96
533.16	51927.13
533.33	52278.21
533.50	52229.05
533.67	52594.18
533.84	52257.14
534.01	52514.60
534.18	52535.66
534.35	52666.73
534.52	52683.12
534.69	52985.05
534.86	52980.37
535.03	52388.21
535.20	52715.89
535.37	53078.67
535.54	53055.26
535.71	52739.29
535.88	53165.27
536.05	52982.71
536.22	53411.02
536.38	53432.09
536.55	53427.41
536.72	53263.57
536.89	53389.96
537.06	53645.08
537.23	53722.32
537.40	53642.74
537.57	53506.99
537.74	53446.13
537.91	53656.78
538.08	53478.90
538.25	53544.44
538.42	53537.41
538.59	54014.88
538.75	53504.65
538.92	53813.60
539.09	53979.78
539.26	53865.09
539.43	53790.19
539.60	53890.83
539.77	53991.48
539.94	54307.45
540.11	54394.05
540.28	54227.87
540.44	54059.35
540.61	54312.13
540.78	54365.96
540.95	54150.63
541.12	54274.68
541.29	54262.98
541.46	54637.47
541.62	54698.32
541.79	54621.08
541.96	54506.40
542.13	54513.42
542.30	54686.62
542.47	54728.75
542.63	54534.48
542.80	54829.39
542.97	55208.56
543.14	55121.96
543.31	55175.79
543.48	55199.19
543.64	55400.48
543.81	55302.18
543.98	55180.47
544.15	55075.15
544.32	55627.51
544.48	55840.50
544.65	55576.02
544.82	55594.74
544.99	55086.85
545.16	55522.19
545.32	55344.31
545.49	55643.90
545.66	55978.59
545.83	56034.77
546.00	55987.95
546.16	55861.57
546.33	55711.77
546.50	55566.66
546.67	55721.13
546.83	55538.57
547.00	55554.96
547.17	55751.56
547.34	55608.79
547.50	55751.56
547.67	56009.02
547.84	56081.58
548.00	56095.62
548.17	56214.99
548.34	55959.87
548.51	55814.76
548.67	55964.55
548.84	56292.22
549.01	56149.45
549.18	56137.75
549.34	56030.08
549.51	56327.33
549.68	56317.97
549.84	56392.87
550.01	56378.82
550.18	56175.20
550.34	56257.12
550.51	56140.09
550.68	56362.44
550.84	55870.93
551.01	56495.85
551.18	56341.38
551.34	56374.14
551.51	56633.94
551.68	56582.45
551.84	56322.65
552.01	56355.42
552.18	56643.30
552.34	56463.08
552.51	56804.80
552.68	56676.07
552.84	56713.52
553.01	56781.40
553.18	56638.62
553.34	56823.53
553.51	56746.29
553.67	56809.48
553.84	57055.24
554.01	57207.37
554.17	57165.24
554.34	57041.20
554.51	57052.90
554.67	57036.51
554.84	56891.40
555.00	56980.34
555.17	57017.79
555.33	57179.29
555.50	56978.00
555.67	57202.69
555.83	56933.53
556.00	57357.17
556.16	57282.27
556.33	57247.16
556.50	57347.81
556.66	57303.34
556.83	57008.43
556.99	57471.85
557.16	57574.84
557.32	57322.06
557.49	57560.79
557.65	57251.84
557.82	57441.43
557.98	57286.95
558.15	57247.16
558.32	57635.69
558.48	57518.67
558.65	57677.82
558.81	57368.87
558.98	57722.29
559.14	57563.14
559.31	57687.18
559.47	57422.70
559.64	57757.40
559.80	57600.58
559.97	57719.95
560.13	57701.23
560.30	57528.03
560.46	57778.46
560.63	57841.66
560.79	57825.28
560.96	57893.15
561.12	57923.58
561.29	57743.36
561.45	57666.12
561.61	57883.79
561.78	57869.75
561.94	58124.86
562.11	58138.91
562.27	58003.16
562.44	58129.54
562.60	57996.13
562.77	58014.86
562.93	57998.48
563.10	58141.25
563.26	57518.67
563.42	58197.42
563.59	57839.32
563.75	58131.89
563.92	58005.50
564.08	58115.50
564.24	58141.25
564.41	57787.83
564.57	57949.32
564.74	58054.65
564.90	58033.58
565.07	58394.03
565.23	58361.26
565.39	58164.65
565.56	58459.56
565.72	58284.02
565.88	58103.80
566.05	58124.86
566.21	58164.65
566.38	57932.94
566.54	58010.18
566.70	58447.86
566.87	58319.13
567.03	58284.02
567.19	58777.87
567.36	58419.77
567.52	58211.46
567.68	58365.94
567.85	58293.38
568.01	58417.43
568.17	58417.43
568.34	58445.52
568.50	58433.81
568.66	58148.27
568.83	58485.31
568.99	58487.65
569.15	58260.62
569.32	58288.70
569.48	58174.02
569.64	58396.37
569.81	58293.38
569.97	58181.04
570.13	58461.90
570.30	58342.53
570.46	58492.33
570.62	58497.01
570.78	58642.12
570.95	58269.98
571.11	58522.76
571.27	58417.43
571.43	58246.57
571.60	58335.51
571.76	58468.92
571.92	58543.82
572.09	58670.21
572.25	58798.94
572.41	58525.10
572.57	58775.53
572.74	58852.77
572.90	58714.68
573.06	58574.25
573.22	58410.41
573.38	58555.52
573.55	58674.89
573.71	58831.71
573.87	58726.38
574.03	58752.13
574.20	58773.19
574.36	58569.57
574.52	58740.42
574.68	58592.97
574.84	58834.05
575.01	58897.24
575.17	58789.58
575.33	58628.08
575.49	58871.49
575.65	58958.09
575.82	58829.37
575.98	58670.21
576.14	58808.30
576.30	58791.92
576.46	58443.18
576.62	58506.37
576.79	58642.12
576.95	58520.41
577.11	58857.45
577.27	58892.56
577.43	58855.11
577.59	58630.42
577.75	58930.01
577.92	58550.84
578.08	58691.27
578.24	58913.62
578.40	58850.43
578.56	58808.30
578.72	58855.11
578.88	59138.32
579.04	59131.29
579.21	58913.62
579.37	58979.16
579.53	59140.66
579.69	58721.70
579.85	59035.33
580.01	58852.77
580.17	58852.77
580.33	58915.96
580.49	58848.09
580.65	59182.79
580.82	59014.27
580.98	59058.74
581.14	58981.50
581.30	59044.69
581.46	58974.48
581.62	58897.24
581.78	58731.06
581.94	59007.25
582.10	58904.26
582.26	58848.09
582.42	58899.58
582.58	59040.01
582.74	59049.38
582.90	59028.31
583.06	59068.10
583.22	58918.31
583.38	59063.42
583.54	58688.93
583.70	58876.18
583.86	59114.91
584.02	59004.91
584.18	59161.72
584.34	59203.85
584.50	59238.96
584.66	58983.84
584.82	58805.96
584.98	58944.05
585.14	59049.38
585.30	58939.37
585.46	59035.33
585.62	58939.37
585.78	59152.36
585.94	59093.85
586.10	59096.19
586.26	58983.84
586.42	59367.69
586.58	59306.83
586.74	59054.06
586.90	59089.16
587.06	59171.08
587.22	59131.29
587.38	59217.89
587.54	59444.93
587.70	59522.16
587.86	59339.60
588.02	59337.26
588.18	59348.96
