SpectraSuite Data File
++++++++++++++++++++++++++++++++++++
Date: Thu Oct 24 13:21:01 EDT 2013
User: stostad
Dark Spectrum Present: No
Reference Spectrum Present: No
Number of Sampled Component Spectra: 1
Spectrometers: USB2+H05261
Integration Time (usec): 100000 (USB2+H05261)
Spectra Averaged: 1 (USB2+H05261)
Boxcar Smoothing: 0 (USB2+H05261)
Correct for Electrical Dark: No (USB2+H05261)
Strobe/Lamp Enabled: No (USB2+H05261)
Correct for Detector Non-linearity: No (USB2+H05261)
Correct for Stray Light: No (USB2+H05261)
Number of Pixels in Processed Spectrum: 2048
>>>>>Begin Processed Spectral Data<<<<<
365.73	533.64
365.92	533.64
366.12	533.64
366.32	435.34
366.52	514.92
366.72	535.98
366.91	496.19
367.11	517.26
367.31	430.66
367.51	423.64
367.70	437.68
367.90	470.45
368.10	505.56
368.30	444.70
368.49	421.30
368.69	463.43
368.89	454.06
369.09	458.74
369.28	552.37
369.48	484.49
369.68	493.85
369.87	514.92
370.07	545.34
370.27	587.47
370.47	582.79
370.66	603.86
370.86	552.37
371.06	587.47
371.25	638.97
371.45	603.86
371.65	622.58
371.84	571.09
372.04	603.86
372.24	479.81
372.44	596.84
372.63	578.11
372.83	613.22
373.03	653.01
373.22	594.50
373.42	617.90
373.62	638.97
373.81	603.86
374.01	643.65
374.21	592.16
374.40	643.65
374.60	713.86
374.79	683.44
374.99	606.20
375.19	531.30
375.38	690.46
375.58	641.31
375.78	575.77
375.97	641.31
376.17	634.29
376.37	592.16
376.56	592.16
376.76	580.45
376.95	674.07
377.15	671.73
377.35	617.90
377.54	592.16
377.74	638.97
377.93	662.37
378.13	674.07
378.33	580.45
378.52	596.84
378.72	667.05
378.91	592.16
379.11	648.33
379.31	587.47
379.50	582.79
379.70	688.12
379.89	599.18
380.09	606.20
380.28	697.48
380.48	636.63
380.68	674.07
380.87	573.43
381.07	594.50
381.26	627.26
381.46	638.97
381.65	603.86
381.85	585.13
382.04	582.79
382.24	631.94
382.43	603.86
382.63	615.56
382.83	615.56
383.02	657.69
383.22	629.60
383.41	587.47
383.61	596.84
383.80	554.71
384.00	655.35
384.19	606.20
384.39	554.71
384.58	627.26
384.78	610.88
384.97	692.80
385.17	641.31
385.36	624.92
385.56	634.29
385.75	631.94
385.95	606.20
386.14	566.41
386.34	566.41
386.53	603.86
386.72	636.63
386.92	662.37
387.11	636.63
387.31	622.58
387.50	634.29
387.70	608.54
387.89	617.90
388.09	631.94
388.28	599.18
388.48	671.73
388.67	624.92
388.86	610.88
389.06	571.09
389.25	667.05
389.45	608.54
389.64	660.03
389.84	641.31
390.03	601.52
390.22	622.58
390.42	599.18
390.61	547.69
390.81	601.52
391.00	650.67
391.19	624.92
391.39	596.84
391.58	608.54
391.78	601.52
391.97	601.52
392.16	578.11
392.36	599.18
392.55	692.80
392.75	664.71
392.94	566.41
393.13	636.63
393.33	667.05
393.52	631.94
393.71	627.26
393.91	610.88
394.10	594.50
394.29	617.90
394.49	587.47
394.68	622.58
394.88	552.37
395.07	674.07
395.26	629.60
395.46	594.50
395.65	580.45
395.84	594.50
396.04	662.37
396.23	552.37
396.42	550.03
396.62	622.58
396.81	613.22
397.00	674.07
397.19	667.05
397.39	610.88
397.58	620.24
397.77	596.84
397.97	601.52
398.16	613.22
398.35	613.22
398.55	601.52
398.74	643.65
398.93	669.39
399.12	664.71
399.32	594.50
399.51	608.54
399.70	617.90
399.90	650.67
400.09	627.26
400.28	695.14
400.47	603.86
400.67	629.60
400.86	521.94
401.05	610.88
401.24	660.03
401.44	645.99
401.63	587.47
401.82	631.94
402.01	645.99
402.21	662.37
402.40	674.07
402.59	599.18
402.78	660.03
402.97	678.76
403.17	608.54
403.36	631.94
403.55	613.22
403.74	681.10
403.93	620.24
404.13	753.65
404.32	669.39
404.51	664.71
404.70	730.25
404.89	627.26
405.09	631.94
405.28	706.84
405.47	627.26
405.66	596.84
405.85	615.56
406.05	608.54
406.24	601.52
406.43	645.99
406.62	617.90
406.81	690.46
407.00	660.03
407.20	622.58
407.39	613.22
407.58	650.67
407.77	608.54
407.96	634.29
408.15	648.33
408.34	585.13
408.54	578.11
408.73	692.80
408.92	620.24
409.11	634.29
409.30	629.60
409.49	648.33
409.68	678.76
409.87	643.65
410.07	653.01
410.26	627.26
410.45	629.60
410.64	592.16
410.83	559.39
411.02	660.03
411.21	641.31
411.40	638.97
411.59	650.67
411.78	662.37
411.98	596.84
412.17	580.45
412.36	631.94
412.55	601.52
412.74	678.76
412.93	660.03
413.12	660.03
413.31	634.29
413.50	538.32
413.69	547.69
413.88	592.16
414.07	655.35
414.26	603.86
414.45	573.43
414.64	695.14
414.83	589.82
415.02	643.65
415.22	648.33
415.41	704.50
415.60	608.54
415.79	543.00
415.98	645.99
416.17	582.79
416.36	620.24
416.55	564.07
416.74	643.65
416.93	580.45
417.12	564.07
417.31	643.65
417.50	653.01
417.69	634.29
417.88	655.35
418.07	559.39
418.26	615.56
418.45	653.01
418.64	643.65
418.83	629.60
419.02	655.35
419.21	578.11
419.39	594.50
419.58	599.18
419.77	711.52
419.96	624.92
420.15	655.35
420.34	648.33
420.53	528.96
420.72	662.37
420.91	622.58
421.10	557.05
421.29	660.03
421.48	599.18
421.67	730.25
421.86	599.18
422.05	594.50
422.24	638.97
422.43	582.79
422.61	634.29
422.80	645.99
422.99	615.56
423.18	554.71
423.37	580.45
423.56	704.50
423.75	660.03
423.94	608.54
424.13	582.79
424.32	681.10
424.50	657.69
424.69	667.05
424.88	657.69
425.07	610.88
425.26	662.37
425.45	671.73
425.64	655.35
425.83	674.07
426.01	681.10
426.20	657.69
426.39	648.33
426.58	650.67
426.77	594.50
426.96	580.45
427.15	678.76
427.33	608.54
427.52	697.48
427.71	596.84
427.90	695.14
428.09	631.94
428.28	627.26
428.46	589.82
428.65	613.22
428.84	629.60
429.03	608.54
429.22	624.92
429.40	578.11
429.59	624.92
429.78	610.88
429.97	643.65
430.16	648.33
430.34	589.82
430.53	615.56
430.72	606.20
430.91	681.10
431.10	629.60
431.28	571.09
431.47	648.33
431.66	678.76
431.85	587.47
432.03	561.73
432.22	690.46
432.41	709.18
432.60	660.03
432.79	655.35
432.97	648.33
433.16	599.18
433.35	617.90
433.54	631.94
433.72	716.20
433.91	615.56
434.10	718.54
434.28	657.69
434.47	676.41
434.66	716.20
434.85	690.46
435.03	772.38
435.22	1011.11
435.41	1093.03
435.59	990.05
435.78	947.92
435.97	896.43
436.16	819.19
436.34	660.03
436.53	683.44
436.72	645.99
436.90	585.13
437.09	631.94
437.28	627.26
437.46	617.90
437.65	706.84
437.84	596.84
438.02	566.41
438.21	657.69
438.40	638.97
438.58	580.45
438.77	645.99
438.96	732.59
439.14	627.26
439.33	627.26
439.52	606.20
439.70	599.18
439.89	645.99
440.08	648.33
440.26	629.60
440.45	699.82
440.63	678.76
440.82	697.48
441.01	610.88
441.19	585.13
441.38	620.24
441.57	709.18
441.75	629.60
441.94	631.94
442.12	732.59
442.31	575.77
442.50	568.75
442.68	643.65
442.87	645.99
443.05	617.90
443.24	674.07
443.43	634.29
443.61	688.12
443.80	671.73
443.98	653.01
444.17	638.97
444.35	657.69
444.54	566.41
444.73	641.31
444.91	676.41
445.10	641.31
445.28	622.58
445.47	620.24
445.65	660.03
445.84	692.80
446.02	664.71
446.21	643.65
446.39	580.45
446.58	730.25
446.77	589.82
446.95	667.05
447.14	662.37
447.32	723.23
447.51	683.44
447.69	713.86
447.88	702.16
448.06	629.60
448.25	671.73
448.43	620.24
448.62	688.12
448.80	653.01
448.99	596.84
449.17	695.14
449.36	676.41
449.54	631.94
449.73	585.13
449.91	629.60
450.10	653.01
450.28	603.86
450.46	671.73
450.65	655.35
450.83	631.94
451.02	669.39
451.20	702.16
451.39	667.05
451.57	650.67
451.76	636.63
451.94	629.60
452.13	711.52
452.31	643.65
452.49	695.14
452.68	655.35
452.86	690.46
453.05	615.56
453.23	613.22
453.42	627.26
453.60	692.80
453.78	627.26
453.97	599.18
454.15	601.52
454.34	613.22
454.52	599.18
454.70	627.26
454.89	596.84
455.07	601.52
455.26	638.97
455.44	653.01
455.62	641.31
455.81	624.92
455.99	664.71
456.17	688.12
456.36	622.58
456.54	631.94
456.73	688.12
456.91	641.31
457.09	629.60
457.28	596.84
457.46	550.03
457.64	690.46
457.83	685.78
458.01	634.29
458.19	669.39
458.38	573.43
458.56	638.97
458.74	580.45
458.93	660.03
459.11	631.94
459.29	645.99
459.48	669.39
459.66	678.76
459.84	641.31
460.03	770.04
460.21	702.16
460.39	653.01
460.57	669.39
460.76	702.16
460.94	636.63
461.12	725.57
461.31	702.16
461.49	608.54
461.67	589.82
461.85	704.50
462.04	638.97
462.22	983.02
462.40	718.54
462.59	653.01
462.77	692.80
462.95	697.48
463.13	645.99
463.32	641.31
463.50	538.32
463.68	627.26
463.86	589.82
464.05	676.41
464.23	648.33
464.41	662.37
464.59	601.52
464.78	601.52
464.96	601.52
465.14	660.03
465.32	606.20
465.50	695.14
465.69	653.01
465.87	643.65
466.05	732.59
466.23	610.88
466.41	681.10
466.60	587.47
466.78	638.97
466.96	631.94
467.14	678.76
467.32	636.63
467.51	580.45
467.69	596.84
467.87	662.37
468.05	683.44
468.23	643.65
468.41	667.05
468.60	671.73
468.78	617.90
468.96	660.03
469.14	573.43
469.32	580.45
469.50	587.47
469.69	631.94
469.87	676.41
470.05	660.03
470.23	662.37
470.41	638.97
470.59	608.54
470.77	697.48
470.95	718.54
471.14	596.84
471.32	596.84
471.50	648.33
471.68	688.12
471.86	695.14
472.04	643.65
472.22	667.05
472.40	653.01
472.58	688.12
472.77	578.11
472.95	599.18
473.13	653.01
473.31	641.31
473.49	669.39
473.67	627.26
473.85	606.20
474.03	695.14
474.21	653.01
474.39	648.33
474.57	676.41
474.75	706.84
474.93	655.35
475.12	550.03
475.30	571.09
475.48	622.58
475.66	582.79
475.84	674.07
476.02	636.63
476.20	634.29
476.38	622.58
476.56	669.39
476.74	631.94
476.92	667.05
477.10	638.97
477.28	664.71
477.46	631.94
477.64	676.41
477.82	655.35
478.00	727.91
478.18	655.35
478.36	748.97
478.54	634.29
478.72	638.97
478.90	610.88
479.08	657.69
479.26	697.48
479.44	702.16
479.62	606.20
479.80	634.29
479.98	704.50
480.16	631.94
480.34	655.35
480.52	594.50
480.70	660.03
480.88	624.92
481.06	653.01
481.24	660.03
481.41	601.52
481.59	711.52
481.77	674.07
481.95	627.26
482.13	648.33
482.31	622.58
482.49	660.03
482.67	660.03
482.85	692.80
483.03	699.82
483.21	624.92
483.39	727.91
483.57	709.18
483.74	739.61
483.92	638.97
484.10	711.52
484.28	660.03
484.46	674.07
484.64	683.44
484.82	706.84
485.00	748.97
485.18	615.56
485.35	723.23
485.53	648.33
485.71	737.27
485.89	688.12
486.07	704.50
486.25	697.48
486.43	674.07
486.61	674.07
486.78	746.63
486.96	699.82
487.14	784.08
487.32	706.84
487.50	716.20
487.68	720.88
487.85	662.37
488.03	727.91
488.21	784.08
488.39	704.50
488.57	760.67
488.75	660.03
488.92	821.53
489.10	688.12
489.28	713.86
489.46	671.73
489.64	662.37
489.81	814.51
489.99	695.14
490.17	676.41
490.35	758.33
490.53	695.14
490.70	674.07
490.88	688.12
491.06	688.12
491.24	711.52
491.41	692.80
491.59	667.05
491.77	699.82
491.95	695.14
492.13	718.54
492.30	704.50
492.48	667.05
492.66	671.73
492.84	671.73
493.01	699.82
493.19	671.73
493.37	725.57
493.54	699.82
493.72	667.05
493.90	699.82
494.08	697.48
494.25	674.07
494.43	723.23
494.61	671.73
494.79	636.63
494.96	655.35
495.14	697.48
495.32	683.44
495.49	606.20
495.67	657.69
495.85	660.03
496.02	692.80
496.20	620.24
496.38	723.23
496.55	690.46
496.73	674.07
496.91	631.94
497.09	667.05
497.26	706.84
497.44	594.50
497.62	681.10
497.79	685.78
497.97	629.60
498.14	716.20
498.32	681.10
498.50	624.92
498.67	697.48
498.85	690.46
499.03	702.16
499.20	678.76
499.38	648.33
499.56	641.31
499.73	648.33
499.91	631.94
500.08	620.24
500.26	716.20
500.44	638.97
500.61	678.76
500.79	622.58
500.97	636.63
501.14	713.86
501.32	690.46
501.49	685.78
501.67	674.07
501.84	692.80
502.02	669.39
502.20	631.94
502.37	711.52
502.55	634.29
502.72	711.52
502.90	620.24
503.07	662.37
503.25	641.31
503.43	648.33
503.60	573.43
503.78	664.71
503.95	627.26
504.13	638.97
504.30	643.65
504.48	671.73
504.65	690.46
504.83	692.80
505.01	727.91
505.18	702.16
505.36	681.10
505.53	543.00
505.71	627.26
505.88	657.69
506.06	660.03
506.23	631.94
506.41	587.47
506.58	676.41
506.76	585.13
506.93	690.46
507.11	624.92
507.28	648.33
507.46	653.01
507.63	648.33
507.81	629.60
507.98	653.01
508.16	667.05
508.33	617.90
508.50	690.46
508.68	636.63
508.85	641.31
509.03	706.84
509.20	678.76
509.38	596.84
509.55	587.47
509.73	688.12
509.90	636.63
510.08	638.97
510.25	617.90
510.42	664.71
510.60	655.35
510.77	683.44
510.95	657.69
511.12	697.48
511.30	650.67
511.47	678.76
511.64	641.31
511.82	662.37
511.99	610.88
512.17	641.31
512.34	660.03
512.51	641.31
512.69	695.14
512.86	716.20
513.04	667.05
513.21	664.71
513.38	606.20
513.56	669.39
513.73	653.01
513.90	641.31
514.08	669.39
514.25	706.84
514.43	629.60
514.60	674.07
514.77	615.56
514.95	564.07
515.12	608.54
515.29	674.07
515.47	622.58
515.64	681.10
515.81	617.90
515.99	634.29
516.16	610.88
516.33	657.69
516.51	587.47
516.68	610.88
516.85	650.67
517.03	690.46
517.20	662.37
517.37	622.58
517.54	603.86
517.72	645.99
517.89	568.75
518.06	610.88
518.24	709.18
518.41	664.71
518.58	657.69
518.75	657.69
518.93	681.10
519.10	648.33
519.27	671.73
519.45	599.18
519.62	610.88
519.79	737.27
519.96	638.97
520.14	641.31
520.31	727.91
520.48	664.71
520.65	674.07
520.83	589.82
521.00	617.90
521.17	650.67
521.34	629.60
521.52	704.50
521.69	636.63
521.86	645.99
522.03	739.61
522.20	690.46
522.38	645.99
522.55	627.26
522.72	643.65
522.89	631.94
523.07	660.03
523.24	603.86
523.41	648.33
523.58	669.39
523.75	641.31
523.92	688.12
524.10	688.12
524.27	664.71
524.44	608.54
524.61	629.60
524.78	641.31
524.96	706.84
525.13	648.33
525.30	638.97
525.47	657.69
525.64	603.86
525.81	566.41
525.98	610.88
526.16	669.39
526.33	617.90
526.50	650.67
526.67	627.26
526.84	599.18
527.01	636.63
527.18	585.13
527.36	620.24
527.53	627.26
527.70	653.01
527.87	631.94
528.04	660.03
528.21	592.16
528.38	608.54
528.55	624.92
528.72	559.39
528.89	688.12
529.07	669.39
529.24	610.88
529.41	699.82
529.58	741.95
529.75	685.78
529.92	603.86
530.09	547.69
530.26	725.57
530.43	660.03
530.60	702.16
530.77	634.29
530.94	685.78
531.11	676.41
531.28	596.84
531.46	613.22
531.63	676.41
531.80	631.94
531.97	692.80
532.14	643.65
532.31	681.10
532.48	596.84
532.65	720.88
532.82	627.26
532.99	650.67
533.16	737.27
533.33	655.35
533.50	676.41
533.67	695.14
533.84	711.52
534.01	624.92
534.18	638.97
534.35	622.58
534.52	685.78
534.69	772.38
534.86	695.14
535.03	690.46
535.20	695.14
535.37	732.59
535.54	610.88
535.71	713.86
535.88	676.41
536.05	650.67
536.22	732.59
536.38	678.76
536.55	678.76
536.72	690.46
536.89	699.82
537.06	653.01
537.23	699.82
537.40	734.93
537.57	727.91
537.74	798.12
537.91	730.25
538.08	748.97
538.25	765.36
538.42	746.63
538.59	739.61
538.75	716.20
538.92	713.86
539.09	765.36
539.26	777.06
539.43	854.30
539.60	844.93
539.77	866.00
539.94	919.83
540.11	983.02
540.28	952.60
540.44	992.39
540.61	1011.11
540.78	1006.43
540.95	1041.54
541.12	1114.10
541.29	1249.85
541.46	1294.32
541.62	1345.81
541.79	1284.95
541.96	1252.19
542.13	1317.72
542.30	1282.61
542.47	1266.23
542.63	1256.87
542.80	1181.97
542.97	1193.67
543.14	1123.46
543.31	1254.53
543.48	1181.97
543.64	1289.64
543.81	1252.19
543.98	1165.59
544.15	1116.44
544.32	1139.84
544.48	1196.01
544.65	1156.22
544.82	1135.16
544.99	1114.10
545.16	1196.01
545.32	1181.97
545.49	1500.28
545.66	2001.16
545.83	2160.31
546.00	1888.81
546.16	1598.59
546.33	1467.52
546.50	1378.58
546.67	1261.55
546.83	1088.35
547.00	999.41
547.17	954.94
547.34	959.62
547.50	961.96
547.67	973.66
547.84	959.62
548.00	978.34
548.17	873.02
548.34	901.11
548.51	947.92
548.67	924.51
548.84	842.59
549.01	842.59
549.18	903.45
549.34	861.32
549.51	847.27
549.68	767.70
549.84	816.85
550.01	786.42
550.18	875.36
550.34	870.68
550.51	807.48
550.68	830.89
550.84	744.29
551.01	791.10
551.18	802.80
551.34	674.07
551.51	842.59
551.68	779.40
551.84	746.63
552.01	730.25
552.18	788.76
552.34	798.12
552.51	753.65
552.68	704.50
552.84	699.82
553.01	765.36
553.18	800.46
553.34	718.54
553.51	692.80
553.67	711.52
553.84	744.29
554.01	730.25
554.17	671.73
554.34	704.50
554.51	709.18
554.67	674.07
554.84	732.59
555.00	727.91
555.17	758.33
555.33	678.76
555.50	655.35
555.67	655.35
555.83	690.46
556.00	713.86
556.16	697.48
556.33	631.94
556.50	629.60
556.66	641.31
556.83	641.31
556.99	674.07
557.16	669.39
557.32	697.48
557.49	636.63
557.65	690.46
557.82	608.54
557.98	653.01
558.15	713.86
558.32	664.71
558.48	629.60
558.65	678.76
558.81	699.82
558.98	662.37
559.14	629.60
559.31	699.82
559.47	608.54
559.64	753.65
559.80	657.69
559.97	704.50
560.13	667.05
560.30	690.46
560.46	650.67
560.63	643.65
560.79	650.67
560.96	627.26
561.12	601.52
561.29	681.10
561.45	716.20
561.61	624.92
561.78	723.23
561.94	655.35
562.11	608.54
562.27	662.37
562.44	692.80
562.60	674.07
562.77	692.80
562.93	650.67
563.10	702.16
563.26	613.22
563.42	683.44
563.59	645.99
563.75	575.77
563.92	695.14
564.08	695.14
564.24	739.61
564.41	727.91
564.57	699.82
564.74	557.05
564.90	620.24
565.07	678.76
565.23	716.20
565.39	704.50
565.56	699.82
565.72	571.09
565.88	716.20
566.05	585.13
566.21	653.01
566.38	631.94
566.54	554.71
566.70	645.99
566.87	571.09
567.03	662.37
567.19	650.67
567.36	641.31
567.52	662.37
567.68	622.58
567.85	648.33
568.01	622.58
568.17	601.52
568.34	688.12
568.50	711.52
568.66	671.73
568.83	688.12
568.99	629.60
569.15	655.35
569.32	627.26
569.48	704.50
569.64	634.29
569.81	697.48
569.97	706.84
570.13	650.67
570.30	716.20
570.46	650.67
570.62	704.50
570.78	678.76
570.95	634.29
571.11	734.93
571.27	660.03
571.43	720.88
571.60	641.31
571.76	655.35
571.92	692.80
572.09	653.01
572.25	688.12
572.41	657.69
572.57	599.18
572.74	674.07
572.90	716.20
573.06	617.90
573.22	664.71
573.38	664.71
573.55	706.84
573.71	634.29
573.87	662.37
574.03	650.67
574.20	631.94
574.36	669.39
574.52	655.35
574.68	550.03
574.84	664.71
575.01	575.77
575.17	671.73
575.33	697.48
575.49	683.44
575.65	676.41
575.82	631.94
575.98	690.46
576.14	690.46
576.30	732.59
576.46	786.42
576.62	919.83
576.79	957.28
576.95	938.55
577.11	805.14
577.27	758.33
577.43	737.27
577.59	716.20
577.75	711.52
577.92	648.33
578.08	650.67
578.24	732.59
578.40	800.46
578.56	868.34
578.72	866.00
578.88	947.92
579.04	851.96
579.21	786.42
579.37	767.70
579.53	812.17
579.69	837.91
579.85	755.99
580.01	765.36
580.17	711.52
580.33	809.83
580.49	702.16
580.65	755.99
580.82	770.04
580.98	667.05
581.14	774.72
581.30	758.33
581.46	723.23
581.62	746.63
581.78	753.65
581.94	723.23
582.10	636.63
582.26	678.76
582.42	751.31
582.58	779.40
582.74	800.46
582.90	873.02
583.06	770.04
583.22	772.38
583.38	760.67
583.54	823.87
583.70	760.67
583.86	702.16
584.02	730.25
584.18	795.78
584.34	692.80
584.50	760.67
584.66	805.14
584.82	681.10
584.98	723.23
585.14	755.99
585.30	706.84
585.46	777.06
585.62	746.63
585.78	765.36
585.94	725.57
586.10	767.70
586.26	732.59
586.42	842.59
586.58	826.21
586.74	840.25
586.90	887.06
587.06	821.53
587.22	910.47
587.38	908.13
587.54	795.78
587.70	788.76
587.86	837.91
588.02	840.25
588.18	753.65
588.34	732.59
588.49	713.86
588.65	784.08
588.81	809.83
588.97	800.46
589.13	695.14
589.29	734.93
589.45	779.40
589.61	713.86
589.77	744.29
589.93	763.01
590.08	739.61
590.24	713.86
590.40	760.67
590.56	753.65
590.72	774.72
590.88	699.82
591.04	758.33
591.20	699.82
591.35	709.18
591.51	734.93
591.67	667.05
591.83	716.20
591.99	723.23
592.15	793.44
592.31	737.27
592.46	786.42
592.62	830.89
592.78	755.99
592.94	823.87
593.10	844.93
593.26	819.19
593.41	779.40
593.57	746.63
593.73	770.04
593.89	802.80
594.05	826.21
594.20	709.18
594.36	685.78
594.52	655.35
594.68	697.48
594.84	730.25
594.99	770.04
595.15	760.67
595.31	791.10
595.47	744.29
595.62	676.41
595.78	657.69
595.94	629.60
596.10	669.39
596.25	723.23
596.41	709.18
596.57	690.46
596.73	617.90
596.88	671.73
597.04	713.86
597.20	744.29
597.36	755.99
597.51	664.71
597.67	704.50
597.83	681.10
597.99	641.31
598.14	744.29
598.30	767.70
598.46	730.25
598.61	748.97
598.77	753.65
598.93	697.48
599.09	667.05
599.24	702.16
599.40	739.61
599.56	734.93
599.71	770.04
599.87	725.57
600.03	741.95
600.18	709.18
600.34	763.01
600.50	727.91
600.65	730.25
600.81	636.63
600.97	667.05
601.12	641.31
601.28	695.14
601.44	734.93
601.59	620.24
601.75	674.07
601.91	615.56
602.06	641.31
602.22	734.93
602.37	711.52
602.53	660.03
602.69	660.03
602.84	678.76
603.00	629.60
603.16	674.07
603.31	636.63
603.47	601.52
603.62	629.60
603.78	645.99
603.94	674.07
604.09	664.71
604.25	690.46
604.40	699.82
604.56	643.65
604.71	674.07
604.87	641.31
605.03	627.26
605.18	709.18
605.34	723.23
605.49	744.29
605.65	690.46
605.80	702.16
605.96	678.76
606.12	702.16
606.27	732.59
606.43	697.48
606.58	664.71
606.74	709.18
606.89	713.86
607.05	788.76
607.20	760.67
607.36	753.65
607.51	741.95
607.67	713.86
607.82	755.99
607.98	854.30
608.13	809.83
608.29	727.91
608.44	809.83
608.60	699.82
608.75	807.48
608.91	760.67
609.06	765.36
609.22	812.17
609.37	896.43
609.53	814.51
609.68	851.96
609.84	947.92
