SpectraSuite Data File
++++++++++++++++++++++++++++++++++++
Date: Thu Oct 24 13:21:34 EDT 2013
User: stostad
Dark Spectrum Present: No
Reference Spectrum Present: No
Number of Sampled Component Spectra: 1
Spectrometers: USB2+H05261
Integration Time (usec): 100000 (USB2+H05261)
Spectra Averaged: 1 (USB2+H05261)
Boxcar Smoothing: 0 (USB2+H05261)
Correct for Electrical Dark: No (USB2+H05261)
Strobe/Lamp Enabled: No (USB2+H05261)
Correct for Detector Non-linearity: No (USB2+H05261)
Correct for Stray Light: No (USB2+H05261)
Number of Pixels in Processed Spectrum: 2048
>>>>>Begin Processed Spectral Data<<<<<
365.73	552.37
365.92	552.37
366.12	552.37
366.32	475.13
366.52	449.38
366.72	482.15
366.91	463.43
367.11	493.85
367.31	468.11
367.51	514.92
367.70	491.51
367.90	435.34
368.10	514.92
368.30	470.45
368.49	505.56
368.69	526.62
368.89	482.15
369.09	477.47
369.28	538.32
369.48	524.28
369.68	596.84
369.87	468.11
370.07	582.79
370.27	592.16
370.47	725.57
370.66	1022.81
370.86	1188.99
371.06	1196.01
371.25	1289.64
371.45	1301.34
371.65	1341.13
371.84	1289.64
372.04	1385.60
372.24	1320.06
372.44	1355.17
372.63	1313.04
372.83	1306.02
373.03	1387.94
373.22	1371.55
373.42	1462.83
373.62	1406.66
373.81	1348.15
374.01	1423.05
374.21	1497.94
374.40	1474.54
374.60	1493.26
374.79	1523.69
374.99	1409.00
375.19	1432.41
375.38	1444.11
375.58	1582.20
375.78	1458.15
375.97	1451.13
376.17	1493.26
376.37	1537.73
376.56	1565.82
376.76	1514.33
376.95	1570.50
377.15	1584.54
377.35	1631.35
377.54	1584.54
377.74	1572.84
377.93	1568.16
378.13	1743.70
378.33	1678.16
378.52	1685.19
378.72	1626.67
378.91	1713.27
379.11	1596.25
379.31	1781.15
379.50	1626.67
379.70	1776.47
379.89	1762.42
380.09	1694.55
380.28	1820.94
380.48	1710.93
380.68	1661.78
380.87	1727.32
381.07	1809.23
381.26	1778.81
381.46	1860.73
381.65	1753.06
381.85	1863.07
382.04	1804.55
382.24	1795.19
382.43	1888.81
382.63	1729.66
382.83	1877.11
383.02	1947.33
383.22	1968.39
383.41	1888.81
383.61	1902.86
383.80	1994.14
384.00	1935.62
384.19	2005.84
384.39	2085.42
384.58	1970.73
384.78	1977.75
384.97	2017.54
385.17	1975.41
385.36	2022.22
385.56	1991.80
385.75	1902.86
385.95	2073.71
386.14	2094.78
386.34	2040.95
386.53	2118.18
386.72	2104.14
386.92	2167.34
387.11	2136.91
387.31	2097.12
387.50	2111.16
387.70	2115.84
387.89	2167.34
388.09	2218.83
388.28	2132.23
388.48	2183.72
388.67	2277.34
388.86	2174.36
389.06	2099.46
389.25	2204.78
389.45	2237.55
389.64	2190.74
389.84	2284.36
390.03	2368.62
390.22	2349.90
390.42	2459.90
390.61	2317.13
390.81	2427.14
391.00	2417.77
391.19	2443.52
391.39	2340.54
391.58	2534.80
391.78	2434.16
391.97	2480.97
392.16	2469.27
392.36	2644.81
392.55	2593.31
392.75	2623.74
392.94	2621.40
393.13	2581.61
393.33	2581.61
393.52	2597.99
393.71	2605.02
393.91	2710.34
394.10	2691.62
394.29	2670.55
394.49	2640.12
394.68	2705.66
394.88	2647.15
395.07	2633.10
395.26	2813.32
395.46	2768.85
395.65	2869.50
395.84	2864.82
396.04	2874.18
396.23	2857.79
396.42	2808.64
396.62	2998.23
396.81	2911.63
397.00	3059.08
397.19	3023.97
397.39	2986.52
397.58	3002.91
397.77	2953.76
397.97	3145.68
398.16	3061.42
398.35	3101.21
398.55	3180.79
398.74	3262.71
398.93	3290.79
399.12	3260.37
399.32	3126.96
399.51	3169.09
399.70	3253.34
399.90	3262.71
400.09	3241.64
400.28	3351.65
400.47	3314.20
400.67	3407.82
400.86	3304.84
401.05	3412.50
401.24	3468.67
401.44	3449.95
401.63	3517.83
401.82	3524.85
402.01	3344.63
402.21	3337.60
402.40	3475.70
402.59	3653.58
402.78	3566.98
402.97	3543.57
403.17	3606.77
403.36	3595.06
403.55	3662.94
403.74	3733.15
403.93	3861.88
404.13	3791.67
404.32	3810.39
404.51	3882.95
404.70	3983.59
404.89	3840.82
405.09	3969.55
405.28	3999.98
405.47	3974.23
405.66	3894.65
405.85	4072.53
406.05	3896.99
406.24	4100.62
406.43	4016.36
406.62	4194.24
406.81	4065.51
407.00	4004.66
407.20	4014.02
407.39	4145.09
407.58	4287.86
407.77	4318.29
407.96	4416.59
408.15	4187.22
408.34	4229.35
408.54	4367.44
408.73	4358.08
408.92	4376.80
409.11	4479.79
409.30	4461.06
409.49	4622.56
409.68	4535.96
409.87	4475.10
410.07	4650.64
410.26	4561.70
410.45	4683.41
410.64	4821.50
410.83	4718.52
411.02	4861.29
411.21	4802.78
411.40	4858.95
411.59	5006.41
411.78	4865.97
411.98	4910.44
412.17	4980.66
412.36	5093.01
412.55	5205.35
412.74	5228.76
412.93	5004.07
413.12	5226.42
413.31	5437.06
413.50	5282.59
413.69	5238.12
413.88	5460.47
414.07	5430.04
414.26	5476.85
414.45	5530.69
414.64	5563.45
414.83	5626.65
415.02	5720.27
415.22	5771.76
415.41	5809.21
415.60	5802.19
415.79	5907.51
415.98	5937.94
416.17	5954.32
416.36	5998.79
416.55	5963.68
416.74	6134.54
416.93	6181.35
417.12	6363.92
417.31	6167.31
417.50	6282.00
417.69	6436.47
417.88	6382.64
418.07	6282.00
418.26	6471.58
418.45	6494.99
418.64	6780.53
418.83	6637.76
419.02	6424.77
419.21	6600.31
419.39	6766.49
419.58	6707.98
419.77	6668.19
419.96	6871.81
420.15	6815.64
420.34	6846.07
420.53	6822.66
420.72	6892.88
420.91	7030.97
421.10	6743.08
421.29	7035.65
421.48	6967.77
421.67	7096.50
421.86	7052.03
422.05	7204.17
422.24	7073.10
422.43	7281.41
422.61	7276.73
422.80	7473.33
422.99	7222.89
423.18	7286.09
423.37	7454.61
423.56	7150.34
423.75	7222.89
423.94	7166.72
424.13	6736.06
424.32	6899.90
424.50	7496.74
424.69	7470.99
424.88	7370.35
425.07	7384.39
425.26	7304.81
425.45	7180.76
425.64	7260.34
425.83	7522.48
426.01	7461.63
426.20	7447.58
426.39	7545.89
426.58	7480.35
426.77	7524.82
426.96	7578.65
427.15	7604.40
427.33	7674.62
427.52	7606.74
427.71	7974.21
427.90	7737.81
428.09	7847.82
428.28	7700.36
428.46	7770.58
428.65	7754.19
428.84	8037.40
429.03	8053.78
429.22	7934.42
429.40	7918.03
429.59	7950.80
429.78	7585.68
429.97	7936.76
430.16	8093.57
430.34	8245.71
430.53	8290.18
430.72	8065.49
430.91	8248.05
431.10	8318.26
431.28	8395.50
431.47	8325.29
431.66	8580.40
431.85	8629.56
432.03	8692.75
432.22	8882.33
432.41	8702.11
432.60	8603.81
432.79	8648.28
432.97	8826.16
433.16	8917.44
433.35	8809.78
433.54	8814.46
433.72	8973.61
433.91	9048.51
434.10	9057.87
434.28	8985.32
434.47	8936.17
434.66	9217.03
434.85	9193.62
435.03	9355.12
435.22	9378.53
435.41	9593.86
435.59	9469.81
435.78	9781.10
435.97	9420.66
436.16	9387.89
436.34	9521.30
436.53	9397.25
436.72	9741.31
436.90	9444.06
437.09	9657.05
437.28	9713.22
437.46	9633.64
437.65	9589.17
437.84	9753.01
438.02	9741.31
438.21	9832.59
438.40	9755.35
438.58	10216.44
438.77	10080.69
438.96	10190.69
439.14	10256.23
439.33	10630.71
439.52	10455.17
439.70	10527.73
439.89	10518.37
440.08	10906.90
440.26	10656.46
440.45	10565.18
440.63	10958.39
440.82	11215.85
441.01	10864.77
441.19	11262.66
441.38	11342.24
441.57	11377.34
441.75	11304.79
441.94	11470.97
442.12	11606.72
442.31	11609.06
442.50	11534.16
442.68	11541.18
442.87	11660.55
443.05	11873.54
443.24	11997.59
443.43	11953.12
443.61	11838.43
443.80	12287.81
443.98	11831.41
444.17	11576.29
444.35	12004.61
444.54	12095.89
444.73	12119.29
444.91	12107.59
445.10	12194.19
445.28	12250.36
445.47	12362.71
445.65	12016.31
445.84	12430.59
446.02	12278.45
446.21	12301.86
446.39	12250.36
446.58	12388.46
446.77	12329.94
446.95	12109.93
447.14	12086.53
447.32	12519.53
447.51	12421.22
447.69	12339.30
447.88	12472.71
448.06	12496.12
448.25	12423.56
448.43	12514.84
448.62	12533.57
448.80	12177.81
448.99	12482.08
449.17	12933.80
449.36	12580.38
449.54	12863.58
449.73	13195.94
449.91	13177.22
450.10	12798.05
450.28	12959.55
450.46	13254.45
450.65	13111.68
450.83	13207.64
451.02	13207.64
451.20	13263.82
451.39	13334.03
451.57	13439.36
451.76	13245.09
451.94	13125.72
452.13	13619.58
452.31	13650.00
452.49	13472.12
452.68	13600.85
452.86	13607.87
453.05	13642.98
453.23	13877.04
453.42	13666.39
453.60	13734.26
453.78	13727.24
453.97	13713.20
454.15	13949.59
454.34	13694.47
454.52	13984.70
454.70	14214.07
454.89	14127.47
455.07	14492.60
455.26	14335.78
455.44	14579.20
455.62	14508.98
455.81	14354.51
455.99	14626.01
456.17	14621.33
456.36	14600.26
456.54	14890.49
456.73	15007.52
456.91	15126.88
457.09	15161.99
457.28	15363.28
457.46	15082.41
457.64	15197.10
457.83	15297.74
458.01	14920.92
458.19	15517.75
458.38	15115.18
458.56	15632.44
458.74	15569.24
458.93	15733.08
459.11	15637.12
459.29	15510.73
459.48	15836.06
459.66	15733.08
459.84	15712.02
460.03	16170.76
460.21	16074.80
460.39	16081.82
460.57	16046.71
460.76	16367.37
460.94	16175.44
461.12	16341.62
461.31	16372.05
461.49	16159.06
461.67	16198.85
461.85	16531.20
462.04	16477.37
462.22	16975.91
462.40	16788.66
462.59	16563.97
462.77	16779.30
462.95	16926.75
463.13	16783.98
463.32	17039.10
463.50	17022.72
463.68	16844.84
463.86	17207.62
464.05	16849.52
464.23	17013.35
464.41	17633.60
464.59	17071.87
464.78	17898.08
464.96	17523.59
465.14	17181.87
465.32	17568.06
465.50	17446.35
465.69	17476.78
465.87	17898.08
466.05	17750.62
466.23	17572.74
466.41	17905.10
466.60	18064.25
466.78	17776.37
466.96	17596.15
467.14	17839.56
467.32	18312.35
467.51	18223.41
467.69	17696.79
467.87	18127.45
468.05	18108.72
468.23	18090.00
468.41	18066.60
468.60	18277.24
468.78	18469.17
468.96	18544.06
469.14	18757.05
469.32	19051.96
469.50	18450.44
469.69	18780.46
469.87	19136.22
470.05	19180.69
470.23	19330.48
470.41	19133.88
470.59	19520.07
470.77	19178.35
470.95	19208.78
471.14	19714.33
471.32	19110.47
471.50	19559.86
471.68	19379.64
471.86	19814.98
472.04	20315.85
472.22	20350.96
472.40	20058.39
472.58	19913.28
472.77	20603.74
472.95	20587.35
473.13	21128.02
473.31	20872.90
473.49	20671.61
473.67	20697.36
473.85	20812.04
474.03	21179.51
474.21	21252.06
474.39	21198.23
474.57	20959.50
474.75	22005.72
474.93	21979.97
475.12	21832.52
475.30	22010.40
475.48	21926.14
475.66	22113.38
475.84	22148.49
476.02	22389.56
476.20	22597.87
476.38	22876.40
476.56	23454.51
476.74	23316.42
476.92	22946.61
477.10	23108.11
477.28	23768.14
477.46	23749.42
477.64	23882.83
477.82	24168.37
478.00	24559.24
478.18	24343.91
478.36	24659.88
478.54	25273.10
478.72	25032.03
478.90	25242.68
479.08	25713.13
479.26	25762.28
479.44	26001.01
479.62	25984.63
479.80	26267.83
479.98	26429.33
480.16	26960.63
480.34	26670.40
480.52	27150.21
480.70	27253.20
480.88	26878.71
481.06	27370.22
481.24	27449.80
481.41	27882.80
481.59	28467.94
481.77	28371.97
481.95	28655.18
482.13	28783.91
482.31	28851.78
482.49	29228.61
482.67	29420.53
482.85	29996.31
483.03	30340.36
483.21	30232.70
483.39	30436.33
483.57	30085.25
483.74	30789.75
483.92	31019.12
484.10	30866.98
484.28	31559.78
484.46	32161.30
484.64	32772.18
484.82	32030.23
485.00	32561.53
485.18	33017.94
485.35	33422.85
485.53	33579.67
485.71	33493.07
485.89	33956.49
486.07	33963.51
486.25	34089.90
486.43	34148.42
486.61	34717.17
486.78	34852.92
486.96	35164.21
487.14	35730.62
487.32	36168.30
487.50	36395.33
487.68	36495.97
487.85	37130.26
488.03	36933.65
488.21	37605.39
488.39	37818.38
488.57	37975.19
488.75	37736.46
488.92	38471.39
489.10	38443.30
489.28	38808.42
489.46	39636.97
489.64	39009.71
489.81	39988.05
489.99	40219.77
490.17	40149.55
490.35	40809.58
490.53	40865.75
490.70	40872.78
490.88	41331.52
491.06	41986.87
491.24	41617.07
491.41	42085.17
491.59	42742.86
491.77	42595.41
491.95	42588.39
492.13	43234.38
492.30	43438.00
492.48	43248.42
492.66	43587.80
492.84	43882.70
493.01	44060.58
493.19	44512.31
493.37	44676.15
493.54	44725.30
493.72	45244.90
493.90	45130.21
494.08	45832.37
494.25	45766.84
494.43	46138.98
494.61	46731.14
494.79	46550.91
494.96	46380.06
495.14	46873.91
495.32	47466.06
495.49	47224.99
495.67	47351.38
495.85	47915.45
496.02	47580.75
496.20	48381.21
496.38	48512.28
496.55	48486.54
496.73	49530.42
496.91	49111.46
497.09	49296.36
497.26	49528.08
497.44	49759.79
497.62	50101.51
497.79	50286.41
497.97	50012.57
498.14	50681.96
498.32	50738.13
498.50	50696.00
498.67	51227.31
498.85	50880.91
499.03	51508.17
499.20	51447.32
499.38	51400.50
499.56	51922.44
499.73	52041.81
499.91	51913.08
500.08	51999.68
500.26	52013.73
500.44	52530.98
500.61	52472.47
500.79	52451.41
500.97	53022.50
501.14	52952.28
501.32	53062.29
501.49	53305.70
501.67	53176.97
501.84	53460.18
502.02	53602.95
502.20	53719.98
502.37	54003.18
502.55	53481.24
502.72	53698.91
502.90	54199.79
503.07	53904.88
503.25	54054.67
503.43	54059.35
503.60	54415.11
503.78	54445.54
503.95	54305.11
504.13	54600.02
504.30	54578.95
504.48	54485.33
504.65	55061.10
504.83	55437.93
505.01	55143.02
505.18	55316.22
505.36	55365.37
505.53	55576.02
505.71	55503.46
505.88	55756.24
506.06	55798.37
506.23	55945.83
506.41	55880.29
506.58	55957.53
506.76	56172.86
506.93	56196.26
507.11	55943.48
507.28	56584.79
507.46	56442.02
507.63	56577.77
507.81	56910.13
507.98	56512.23
508.16	56638.62
508.33	56975.66
508.50	56940.55
508.68	57209.71
508.85	57123.11
509.03	56989.70
509.20	57284.61
509.38	57609.95
509.55	57511.64
509.73	57584.20
509.90	57717.61
510.08	57705.91
510.25	57862.72
510.42	57916.56
510.60	57846.34
510.77	58169.33
510.95	58211.46
511.12	57977.41
511.30	58155.29
511.47	58504.03
511.64	58468.92
511.82	58377.64
511.99	58298.06
512.17	58672.55
512.34	58623.40
512.51	58969.80
512.69	59178.10
512.86	59023.63
513.04	59236.62
513.21	59049.38
513.38	59016.61
513.56	59210.87
513.73	59107.89
513.90	59547.91
514.08	59398.12
514.25	59590.04
514.43	59554.93
514.60	59632.17
514.77	59494.08
514.95	59578.34
515.12	59613.44
515.29	59990.27
515.47	59924.74
515.64	60334.33
515.81	59969.21
515.99	60032.40
516.16	60086.23
516.33	60053.47
516.51	60500.51
516.68	60406.89
516.85	60465.40
517.03	60638.60
517.20	60516.89
517.37	60547.32
517.54	60547.32
517.72	60327.31
517.89	60549.66
518.06	60652.64
518.24	60891.38
518.41	60954.57
518.58	60889.04
518.75	60793.07
518.93	60973.30
519.10	60903.08
519.27	61130.11
519.45	61165.22
519.62	61434.38
519.79	61490.55
519.96	61418.00
520.14	61577.15
520.31	61181.60
520.48	61347.78
520.65	61490.55
520.83	61750.35
521.00	61729.29
521.17	61731.63
521.34	61839.29
521.52	61939.94
521.69	62059.30
521.86	62052.28
522.03	61979.73
522.20	62035.90
522.38	62288.68
522.55	62485.28
522.72	62286.34
522.89	62169.31
523.07	62520.39
523.24	62489.96
523.41	62405.70
523.58	62302.72
523.75	62831.68
523.92	62487.62
524.10	62752.10
524.27	62752.10
524.44	62829.34
524.61	62705.29
524.78	62864.45
524.96	62831.68
525.13	63096.16
525.30	63206.17
525.47	63077.44
525.64	63103.18
525.81	63063.39
525.98	63112.55
526.16	63117.23
526.33	63164.04
526.50	63360.64
526.67	63358.30
526.84	63547.89
527.01	63524.48
527.18	63475.33
527.36	63575.97
527.53	63498.73
527.70	63620.44
527.87	63798.32
528.04	63695.34
528.21	64051.10
528.38	63880.24
528.55	63913.01
528.72	63725.77
528.89	63744.49
529.07	63795.98
529.24	63725.77
529.41	63891.94
529.58	64034.72
529.75	63931.73
529.92	64308.56
530.09	64065.14
530.26	64135.36
530.43	64104.93
530.60	64104.93
530.77	64163.45
530.94	64282.81
531.11	64425.59
531.28	64329.62
531.46	64521.55
531.63	64521.55
531.80	64463.03
531.97	64406.86
532.14	64622.19
532.31	64584.74
532.48	64881.99
532.65	64928.80
532.82	64715.81
532.99	64856.24
533.16	64673.68
533.33	64807.09
533.50	64963.91
533.67	65034.13
533.84	64856.24
534.01	64977.95
534.18	65165.20
534.35	65392.23
534.52	65144.13
534.69	65272.86
534.86	65015.40
535.03	65024.76
535.20	65041.15
535.37	65226.05
535.54	65396.91
535.71	65275.20
535.88	65432.02
536.05	65535.00
536.22	65535.00
536.38	65387.55
536.55	65535.00
536.72	65373.50
536.89	65535.00
537.06	65535.00
537.23	65535.00
537.40	65535.00
537.57	65535.00
537.74	65535.00
537.91	65535.00
538.08	65535.00
538.25	65535.00
538.42	65535.00
538.59	65535.00
538.75	65535.00
538.92	65535.00
539.09	65535.00
539.26	65535.00
539.43	65535.00
539.60	65535.00
539.77	65535.00
539.94	65535.00
540.11	65535.00
540.28	65535.00
540.44	65535.00
540.61	65535.00
540.78	65535.00
540.95	65535.00
541.12	65535.00
541.29	65535.00
541.46	65535.00
541.62	65535.00
541.79	65535.00
541.96	65535.00
542.13	65535.00
542.30	65535.00
542.47	65535.00
542.63	65535.00
542.80	65535.00
542.97	65535.00
543.14	65535.00
543.31	65535.00
543.48	65535.00
543.64	65535.00
543.81	65535.00
543.98	65535.00
544.15	65535.00
544.32	65535.00
544.48	65535.00
544.65	65535.00
544.82	65535.00
544.99	65535.00
545.16	65535.00
545.32	65535.00
545.49	65535.00
545.66	65535.00
545.83	65535.00
546.00	65535.00
546.16	65535.00
546.33	65535.00
546.50	65535.00
546.67	65535.00
546.83	65535.00
547.00	65535.00
547.17	65535.00
547.34	65535.00
547.50	65535.00
547.67	65535.00
547.84	65535.00
548.00	65535.00
548.17	65535.00
548.34	65535.00
548.51	65535.00
548.67	65535.00
548.84	65535.00
549.01	65535.00
549.18	65535.00
549.34	65535.00
549.51	65535.00
549.68	65535.00
549.84	65535.00
550.01	65535.00
550.18	65535.00
550.34	65535.00
550.51	65535.00
550.68	65535.00
550.84	65535.00
551.01	65535.00
551.18	65535.00
551.34	65535.00
551.51	65535.00
551.68	65535.00
551.84	65535.00
552.01	65535.00
552.18	65535.00
552.34	65535.00
552.51	65535.00
552.68	65535.00
552.84	65535.00
553.01	65535.00
553.18	65535.00
553.34	65535.00
553.51	65535.00
553.67	65535.00
553.84	65535.00
554.01	65535.00
554.17	65535.00
554.34	65535.00
554.51	65535.00
554.67	65535.00
554.84	65535.00
555.00	65535.00
555.17	65535.00
555.33	65535.00
555.50	65535.00
555.67	65535.00
555.83	65535.00
556.00	65535.00
556.16	65535.00
556.33	65535.00
556.50	65535.00
556.66	65535.00
556.83	65535.00
556.99	65535.00
557.16	65535.00
557.32	65535.00
557.49	65535.00
557.65	65535.00
557.82	65535.00
557.98	65535.00
558.15	65535.00
558.32	65535.00
558.48	65535.00
558.65	65535.00
558.81	65535.00
558.98	65535.00
559.14	65535.00
559.31	65535.00
559.47	65535.00
559.64	65535.00
559.80	65535.00
559.97	65535.00
560.13	65535.00
560.30	65535.00
560.46	65535.00
560.63	65535.00
560.79	65535.00
560.96	65535.00
561.12	65535.00
561.29	65535.00
561.45	65535.00
561.61	65535.00
561.78	65535.00
561.94	65535.00
562.11	65535.00
562.27	65535.00
562.44	65535.00
562.60	65535.00
562.77	65535.00
562.93	65535.00
563.10	65535.00
563.26	65535.00
563.42	65535.00
563.59	65535.00
563.75	65535.00
563.92	65535.00
564.08	65535.00
564.24	65535.00
564.41	65535.00
564.57	65535.00
564.74	65535.00
564.90	65535.00
565.07	65535.00
565.23	65535.00
565.39	65535.00
565.56	65535.00
565.72	65535.00
565.88	65535.00
566.05	65535.00
566.21	65535.00
566.38	65535.00
566.54	65535.00
566.70	65535.00
566.87	65535.00
567.03	65535.00
567.19	65535.00
567.36	65535.00
567.52	65535.00
567.68	65535.00
567.85	65535.00
568.01	65535.00
568.17	65535.00
568.34	65535.00
568.50	65535.00
568.66	65535.00
568.83	65535.00
568.99	65535.00
569.15	65535.00
569.32	65535.00
569.48	65535.00
569.64	65535.00
569.81	65535.00
569.97	65535.00
570.13	65535.00
570.30	65535.00
570.46	65535.00
570.62	65535.00
570.78	65535.00
570.95	65535.00
571.11	65535.00
571.27	65535.00
571.43	65535.00
571.60	65535.00
571.76	65535.00
571.92	65535.00
572.09	65535.00
572.25	65535.00
572.41	65535.00
572.57	65535.00
572.74	65535.00
572.90	65535.00
573.06	65535.00
573.22	65535.00
573.38	65535.00
573.55	65535.00
573.71	65535.00
573.87	65535.00
574.03	65535.00
574.20	65535.00
574.36	65535.00
574.52	65535.00
574.68	65535.00
574.84	65535.00
575.01	65535.00
575.17	65535.00
575.33	65535.00
575.49	65535.00
575.65	65535.00
575.82	65535.00
575.98	65535.00
576.14	65535.00
576.30	65535.00
576.46	65535.00
576.62	65535.00
576.79	65535.00
576.95	65535.00
577.11	65535.00
577.27	65535.00
577.43	65535.00
577.59	65535.00
577.75	65535.00
577.92	65535.00
578.08	65535.00
578.24	65535.00
578.40	65535.00
578.56	65535.00
578.72	65535.00
578.88	65535.00
579.04	65535.00
579.21	65535.00
579.37	65535.00
579.53	65535.00
579.69	65535.00
579.85	65535.00
580.01	65535.00
580.17	65535.00
580.33	65535.00
580.49	65535.00
580.65	65535.00
580.82	65535.00
580.98	65535.00
581.14	65535.00
581.30	65535.00
581.46	65535.00
581.62	65535.00
581.78	65535.00
581.94	65535.00
582.10	65535.00
582.26	65535.00
582.42	65535.00
582.58	65535.00
582.74	65535.00
582.90	65535.00
583.06	65535.00
583.22	65535.00
583.38	65535.00
583.54	65535.00
583.70	65535.00
583.86	65535.00
584.02	65535.00
584.18	65535.00
584.34	65535.00
584.50	65535.00
584.66	65535.00
584.82	65535.00
584.98	65535.00
585.14	65535.00
585.30	65535.00
585.46	65535.00
585.62	65535.00
585.78	65535.00
585.94	65535.00
586.10	65535.00
586.26	65535.00
586.42	65535.00
586.58	65535.00
586.74	65535.00
586.90	65535.00
587.06	65535.00
