SpectraSuite Data File
++++++++++++++++++++++++++++++++++++
Date: Thu Oct 24 13:21:43 EDT 2013
User: stostad
Dark Spectrum Present: No
Reference Spectrum Present: No
Number of Sampled Component Spectra: 1
Spectrometers: USB2+H05261
Integration Time (usec): 100000 (USB2+H05261)
Spectra Averaged: 1 (USB2+H05261)
Boxcar Smoothing: 0 (USB2+H05261)
Correct for Electrical Dark: No (USB2+H05261)
Strobe/Lamp Enabled: No (USB2+H05261)
Correct for Detector Non-linearity: No (USB2+H05261)
Correct for Stray Light: No (USB2+H05261)
Number of Pixels in Processed Spectrum: 2048
>>>>>Begin Processed Spectral Data<<<<<
365.73	531.30
365.92	531.30
366.12	531.30
366.32	528.96
366.52	444.70
366.72	491.51
366.91	512.58
367.11	510.24
367.31	402.57
367.51	435.34
367.70	433.00
367.90	456.40
368.10	519.60
368.30	503.22
368.49	418.96
368.69	510.24
368.89	620.24
369.09	540.66
369.28	564.07
369.48	475.13
369.68	468.11
369.87	517.26
370.07	566.41
370.27	596.84
370.47	718.54
370.66	1226.44
370.86	1193.67
371.06	1301.34
371.25	1409.00
371.45	1336.45
371.65	1338.79
371.84	1280.27
372.04	1355.17
372.24	1397.30
372.44	1301.34
372.63	1324.74
372.83	1280.27
373.03	1411.34
373.22	1465.18
373.42	1483.90
373.62	1401.98
373.81	1434.75
374.01	1462.83
374.21	1474.54
374.40	1497.94
374.60	1481.56
374.79	1460.49
374.99	1526.03
375.19	1511.99
375.38	1460.49
375.58	1605.61
375.78	1544.75
375.97	1568.16
376.17	1652.42
376.37	1488.58
376.56	1593.90
376.76	1519.01
376.95	1659.44
377.15	1666.46
377.35	1551.78
377.54	1694.55
377.74	1629.01
377.93	1652.42
378.13	1710.93
378.33	1720.29
378.52	1661.78
378.72	1696.89
378.91	1675.82
379.11	1764.76
379.31	1722.63
379.50	1760.08
379.70	1757.74
379.89	1863.07
380.09	1769.44
380.28	1799.87
380.48	1797.53
380.68	1785.83
380.87	1717.95
381.07	1844.34
381.26	1872.43
381.46	1881.79
381.65	1881.79
381.85	1891.15
382.04	1902.86
382.24	1944.99
382.43	1790.51
382.63	1907.54
382.83	1877.11
383.02	1987.11
383.22	2005.84
383.41	1874.77
383.61	1933.28
383.80	2001.16
384.00	1989.46
384.19	1987.11
384.39	2167.34
384.58	1991.80
384.78	2054.99
384.97	2066.69
385.17	2087.76
385.36	2071.37
385.56	2008.18
385.75	2038.61
385.95	2127.55
386.14	2181.38
386.34	2099.46
386.53	2057.33
386.72	2036.27
386.92	2111.16
387.11	2253.94
387.31	2221.17
387.50	2242.23
387.70	2263.30
387.89	2363.94
388.09	2265.64
388.28	2349.90
388.48	2312.45
388.67	2251.60
388.86	2375.64
389.06	2382.67
389.25	2413.09
389.45	2317.13
389.64	2380.32
389.84	2516.08
390.03	2422.45
390.22	2490.33
390.42	2349.90
390.61	2499.69
390.81	2569.91
391.00	2389.69
391.19	2562.89
391.39	2487.99
391.58	2565.23
391.78	2595.65
391.97	2548.84
392.16	2574.59
392.36	2628.42
392.55	2560.55
392.75	2626.08
392.94	2668.21
393.13	2649.49
393.33	2684.59
393.52	2700.98
393.71	2717.36
393.91	2677.57
394.10	2789.92
394.29	2768.85
394.49	2740.77
394.68	2815.66
394.88	2775.88
395.07	2775.88
395.26	2836.73
395.46	2855.45
395.65	2810.98
395.84	2946.73
396.04	2949.08
396.23	2944.39
396.42	2928.01
396.62	3084.83
396.81	3138.66
397.00	3047.38
397.19	3035.67
397.39	3012.27
397.58	3056.74
397.77	3171.43
397.97	3105.89
398.16	3164.40
398.35	3251.00
398.55	3094.19
398.74	3253.34
398.93	3248.66
399.12	3346.97
399.32	3225.26
399.51	3356.33
399.70	3433.57
399.90	3279.09
400.09	3445.27
400.28	3318.88
400.47	3283.77
400.67	3473.36
400.86	3449.95
401.05	3382.07
401.24	3419.52
401.44	3599.74
401.63	3609.11
401.82	3660.60
402.01	3461.65
402.21	3592.72
402.40	3562.30
402.59	3700.39
402.78	3625.49
402.97	3758.90
403.17	3667.62
403.36	3801.03
403.55	3730.81
403.74	3817.41
403.93	3918.06
404.13	3892.31
404.32	3901.67
404.51	3948.48
404.70	3962.53
404.89	3934.44
405.09	3990.61
405.28	4025.72
405.47	4037.42
405.66	3918.06
405.85	4077.21
406.05	4081.89
406.24	4079.55
406.43	4042.11
406.62	4102.96
406.81	4379.14
407.00	4159.13
407.20	4205.94
407.39	4238.71
407.58	4351.06
407.77	4311.27
407.96	4297.22
408.15	4320.63
408.34	4269.14
408.54	4482.13
408.73	4479.79
408.92	4493.83
409.11	4617.88
409.30	4500.85
409.49	4575.75
409.68	4510.21
409.87	4681.07
410.07	4702.14
410.26	4910.44
410.45	4690.43
410.64	4699.80
410.83	4908.10
411.02	5069.60
411.21	4908.10
411.40	4983.00
411.59	5160.88
411.78	5083.64
411.98	5011.09
412.17	5090.67
412.36	5081.30
412.55	5203.01
412.74	5259.18
412.93	5327.06
413.12	5249.82
413.31	5455.79
413.50	5404.30
413.69	5448.77
413.88	5507.28
414.07	5359.83
414.26	5521.32
414.45	5682.82
414.64	5661.76
414.83	5839.64
415.02	5708.57
415.22	5900.49
415.41	5891.13
415.60	5837.30
415.79	6005.81
415.98	6153.27
416.17	6094.76
416.36	6050.28
416.55	6003.47
416.74	6047.94
416.93	6174.33
417.12	6188.38
417.31	6420.09
417.50	6504.35
417.69	6502.01
417.88	6551.16
418.07	6361.58
418.26	6476.26
418.45	6480.94
418.64	6745.42
418.83	6773.51
419.02	6731.38
419.21	6930.33
419.39	6787.55
419.58	6764.15
419.77	6661.16
419.96	6745.42
420.15	6817.98
420.34	6789.89
420.53	6956.07
420.72	7061.40
420.91	7162.04
421.10	6949.05
421.29	7311.83
421.48	7026.29
421.67	7197.15
421.86	7234.60
422.05	7140.97
422.24	7131.61
422.43	7293.11
422.61	7309.49
422.80	7358.64
422.99	7466.31
423.18	7552.91
423.37	7360.98
423.56	7405.46
423.75	7517.80
423.94	7236.94
424.13	7014.59
424.32	7255.66
424.50	7370.35
424.69	7808.03
424.88	7583.34
425.07	7459.29
425.26	7384.39
425.45	7520.14
425.64	7559.93
425.83	7655.89
426.01	7548.23
426.20	7609.08
426.39	7658.23
426.58	7648.87
426.77	7606.74
426.96	7770.58
427.15	7630.15
427.33	7801.01
427.52	7819.73
427.71	7906.33
427.90	7674.62
428.09	7901.65
428.28	7880.58
428.46	7929.74
428.65	7871.22
428.84	8088.89
429.03	8194.22
429.22	8032.72
429.40	8093.57
429.59	8107.62
429.78	8124.00
429.97	7997.61
430.16	8505.51
430.34	8435.29
430.53	8545.30
430.72	8414.23
430.91	8344.01
431.10	8287.84
431.28	8545.30
431.47	8493.80
431.66	8704.45
431.85	8800.41
432.03	8638.92
432.22	8903.40
432.41	8915.10
432.60	8814.46
432.79	8938.51
432.97	8821.48
433.16	9144.47
433.35	8990.00
433.54	9071.92
433.72	9184.26
433.91	9027.45
434.10	9130.43
434.28	9191.28
434.47	9142.13
434.66	9200.65
434.85	9453.42
435.03	9554.07
435.22	9652.37
435.41	10026.86
435.59	9591.52
435.78	9710.88
435.97	9774.08
436.16	9523.64
436.34	9635.99
436.53	9771.74
436.72	10015.15
436.90	9757.69
437.09	9951.96
437.28	9703.86
437.46	9659.39
437.65	9919.19
437.84	10164.95
438.02	9947.28
438.21	10080.69
438.40	9970.68
438.58	10497.30
438.77	10597.95
438.96	10448.15
439.14	10621.35
439.33	10525.39
439.52	10630.71
439.70	10792.21
439.89	10855.40
440.08	11014.56
440.26	10848.38
440.45	11037.97
440.63	11297.77
440.82	11297.77
441.01	11208.83
441.19	11466.28
441.38	11559.91
441.57	11295.43
441.75	11740.13
441.94	12116.95
442.12	11932.05
442.31	12020.99
442.50	11936.73
442.68	11843.11
442.87	12025.67
443.05	12016.31
443.24	12381.43
443.43	12177.81
443.61	12404.84
443.80	12435.27
443.98	12018.65
444.17	11688.64
444.35	12407.18
444.54	12252.70
444.73	12210.57
444.91	12306.54
445.10	12582.72
445.28	12465.69
445.47	12343.99
445.65	12374.41
445.84	12601.44
446.02	12507.82
446.21	12521.87
446.39	12592.08
446.58	12704.43
446.77	12723.15
446.95	12341.64
447.14	12779.32
447.32	12828.48
447.51	12603.78
447.69	12496.12
447.88	12798.05
448.06	12730.17
448.25	12793.37
448.43	12922.10
448.62	13074.23
448.80	12947.84
448.99	12713.79
449.17	13268.50
449.36	12905.71
449.54	13200.62
449.73	13570.43
449.91	13535.32
450.10	13593.83
450.28	13390.20
450.46	13528.30
450.65	13338.71
450.83	13497.87
451.02	13589.15
451.20	13661.71
451.39	13888.74
451.57	13902.78
451.76	13626.60
451.94	13483.83
452.13	14031.51
452.31	14101.73
452.49	13855.97
452.68	14083.00
452.86	14026.83
453.05	14209.39
453.23	14225.78
453.42	14136.84
453.60	14080.66
453.78	14485.58
453.97	14017.47
454.15	14256.20
454.34	14298.33
454.52	14654.09
454.70	14431.74
454.89	14686.86
455.07	14670.48
455.26	14731.33
455.44	14944.32
455.62	14846.02
455.81	15002.83
455.99	15117.52
456.17	15220.50
456.36	15030.92
456.54	15487.32
456.73	15353.91
456.91	15723.72
457.09	15630.10
457.28	15932.03
457.46	15658.18
457.64	15892.24
457.83	15789.25
458.01	15634.78
458.19	16339.28
458.38	15714.36
458.56	16020.97
458.74	15873.51
458.93	16053.73
459.11	16020.97
459.29	16074.80
459.48	16250.34
459.66	16093.52
459.84	16404.81
460.03	16402.47
460.21	16578.01
460.39	16535.88
460.57	16704.40
460.76	16954.84
460.94	16627.17
461.12	17057.82
461.31	16964.20
461.49	17018.04
461.67	16791.00
461.85	16994.63
462.04	17020.38
462.22	17568.06
462.40	17362.09
462.59	17348.05
462.77	17345.71
462.95	17727.22
463.13	17631.26
463.32	17757.64
463.50	17809.14
463.68	17816.16
463.86	17895.74
464.05	17804.46
464.23	17755.30
464.41	17823.18
464.59	17687.43
464.78	18434.06
464.96	18029.15
465.14	17844.24
465.32	18345.12
465.50	18071.28
465.69	18253.84
465.87	18321.71
466.05	18380.23
466.23	18391.93
466.41	18420.02
466.60	18654.07
466.78	18349.80
466.96	18340.44
467.14	18714.92
467.32	18792.16
467.51	18782.80
467.69	18429.38
467.87	18773.44
468.05	19119.84
468.23	18808.54
468.41	18843.65
468.60	19283.67
468.78	19421.77
468.96	18829.61
469.14	19442.83
469.32	19295.38
469.50	18960.68
469.69	19756.46
469.87	19559.86
470.05	19672.20
470.23	20053.71
470.41	20187.12
470.59	19910.94
470.77	20222.23
470.95	19969.45
471.14	20423.51
471.32	19974.13
471.50	20379.04
471.68	20723.10
471.86	20816.72
472.04	20783.96
472.22	21427.60
472.40	20671.61
472.58	21081.21
472.77	21060.14
472.95	21542.29
473.13	22148.49
473.31	21355.05
473.49	21474.42
473.67	21565.70
473.85	21593.78
474.03	22094.66
474.21	22195.30
474.39	22448.08
474.57	22408.29
474.75	22806.18
474.93	22815.54
475.12	22787.46
475.30	22848.31
475.48	22712.56
475.66	23007.47
475.84	23367.91
476.02	23051.94
476.20	23379.61
476.38	23702.61
476.56	24135.60
476.74	24067.73
476.92	24435.19
477.10	24184.76
477.28	24692.65
477.46	24620.10
477.64	24676.27
477.82	25256.72
478.00	25638.23
478.18	25343.32
478.36	26092.29
478.54	25935.48
478.72	25888.67
478.90	26586.15
479.08	26422.31
479.26	27080.00
479.44	27115.11
479.62	27477.89
479.80	27613.64
479.98	27515.34
480.16	28163.67
480.34	27756.41
480.52	28250.27
480.70	28446.87
480.88	28587.30
481.06	28786.25
481.24	28622.41
481.41	28989.88
481.59	29570.33
481.77	29387.77
481.95	30359.09
482.13	30054.82
482.31	29914.39
482.49	30595.48
482.67	30654.00
482.85	31007.42
483.03	31358.50
483.21	32023.21
483.39	32271.31
483.57	31749.37
483.74	32388.33
483.92	32610.68
484.10	32652.81
484.28	33076.45
484.46	33404.13
484.64	34213.95
484.82	33902.66
485.00	33986.92
485.18	34742.91
485.35	35061.22
485.53	34955.90
485.71	35222.72
485.89	35475.50
486.07	35791.47
486.25	35889.77
486.43	36025.53
486.61	36250.22
486.78	36706.62
486.96	36968.76
487.14	37251.97
487.32	37933.06
487.50	37977.53
487.68	38305.21
487.85	39037.80
488.03	38906.73
488.21	39821.87
488.39	39503.56
488.57	39711.87
488.75	39964.65
488.92	40460.84
489.10	40669.15
489.28	41024.91
489.46	41324.50
489.64	41476.63
489.81	42246.67
489.99	42047.72
490.17	42586.05
490.35	42529.87
490.53	43232.04
490.70	43510.56
490.88	43171.18
491.06	43428.64
491.24	43496.52
491.41	43985.69
491.59	44229.10
491.77	44694.87
491.95	44917.22
492.13	44964.03
492.30	45284.68
492.48	45373.63
492.66	45570.23
492.84	45914.29
493.01	46450.27
493.19	46597.73
493.37	47175.84
493.54	46972.21
493.72	47178.18
493.90	47229.67
494.08	47784.38
494.25	48027.79
494.43	47948.21
494.61	48505.26
494.79	48800.17
494.96	48907.83
495.14	49029.54
495.32	49600.63
495.49	49645.10
495.67	49471.90
495.85	50595.36
496.02	49874.48
496.20	50160.02
496.38	50546.21
496.55	50939.42
496.73	51810.10
496.91	51164.11
497.09	51241.35
497.26	51653.28
497.44	51356.03
497.62	51833.50
497.79	52301.61
497.97	51987.98
498.14	52507.58
498.32	52645.67
498.50	52624.60
498.67	52762.70
498.85	52942.92
499.03	52996.75
499.20	53205.06
499.38	53499.97
499.56	53392.30
499.73	53525.71
499.91	53930.62
500.08	53904.88
500.26	53829.98
500.44	54288.73
500.61	54326.17
500.79	54176.38
500.97	54358.94
501.14	54869.18
501.32	54726.41
501.49	54890.24
501.67	54965.14
501.84	55171.11
502.02	55292.82
502.20	55384.10
502.37	55437.93
502.55	55388.78
502.72	55533.89
502.90	55700.07
503.07	55746.88
503.25	56236.05
503.43	56006.68
503.60	56149.45
503.78	56046.47
503.95	56339.04
504.13	56170.52
504.30	56594.15
504.48	56631.60
504.65	56655.01
504.83	57041.20
505.01	57148.86
505.18	56783.74
505.36	57113.75
505.53	56863.32
505.71	57343.12
505.88	57649.74
506.06	57183.97
506.23	57537.39
506.41	56987.36
506.58	57602.92
506.76	57364.19
506.93	58000.82
507.11	57895.49
507.28	58017.20
507.46	58199.76
507.63	58033.58
507.81	58127.20
507.98	58124.86
508.16	58234.87
508.33	58461.90
508.50	58445.52
508.68	58939.37
508.85	58866.81
509.03	58763.83
509.20	58782.55
509.38	59023.63
509.55	59023.63
509.73	59166.40
509.90	59379.39
510.08	59351.30
510.25	59367.69
510.42	59458.97
510.60	59711.75
510.77	59707.07
510.95	59707.07
511.12	59700.04
511.30	59997.29
511.47	59938.78
511.64	59915.37
511.82	60196.24
511.99	60137.72
512.17	60053.47
512.34	60133.04
512.51	60451.36
512.69	60624.56
512.86	60528.59
513.04	60746.26
513.21	60472.42
513.38	60612.85
513.56	60650.30
513.73	60729.88
513.90	60963.93
514.08	60769.67
514.25	61169.90
514.43	61197.99
514.60	61052.87
514.77	61029.47
514.95	61462.47
515.12	61139.47
515.29	61542.05
515.47	61591.20
515.64	61839.29
515.81	61350.12
515.99	61638.01
516.16	61666.09
516.33	61635.67
516.51	62035.90
516.68	61726.95
516.85	61946.96
517.03	61855.68
517.20	62007.81
517.37	62024.20
517.54	62138.88
517.72	62113.14
517.89	62103.77
518.06	62131.86
518.24	62564.86
518.41	62391.66
518.58	62445.49
518.75	62321.44
518.93	62319.10
519.10	62560.18
519.27	62611.67
519.45	62642.10
519.62	63004.88
519.79	63047.01
519.96	62808.28
520.14	62908.92
520.31	62728.70
520.48	62967.43
520.65	63173.40
520.83	63297.45
521.00	63487.03
521.17	63360.64
521.34	63215.53
521.52	63374.69
521.69	63189.78
521.86	63524.48
522.03	63573.63
522.20	63739.81
522.38	64008.97
522.55	63795.98
522.72	63690.66
522.89	63765.56
523.07	64067.48
523.24	63667.25
523.41	63952.80
523.58	63833.43
523.75	64247.71
523.92	64163.45
524.10	64329.62
524.27	64154.08
524.44	64280.47
524.61	64367.07
524.78	64383.46
524.96	64327.28
525.13	64280.47
525.30	64727.52
525.47	64697.09
525.64	64699.43
525.81	64669.00
525.98	64736.88
526.16	64687.73
526.33	64823.48
526.50	64996.68
526.67	64790.71
526.84	64860.93
527.01	65003.70
527.18	65055.19
527.36	65118.38
527.53	64917.10
527.70	65314.99
527.87	65324.35
528.04	65366.48
528.21	65490.53
528.38	65385.21
528.55	65535.00
528.72	65336.05
528.89	65403.93
529.07	65347.76
529.24	65485.85
529.41	65535.00
529.58	65535.00
529.75	65471.81
529.92	65535.00
530.09	65535.00
530.26	65535.00
530.43	65535.00
530.60	65535.00
530.77	65535.00
530.94	65535.00
531.11	65535.00
531.28	65535.00
531.46	65535.00
531.63	65535.00
531.80	65535.00
531.97	65535.00
532.14	65535.00
532.31	65535.00
532.48	65535.00
532.65	65535.00
532.82	65535.00
532.99	65535.00
533.16	65535.00
533.33	65535.00
533.50	65535.00
533.67	65535.00
533.84	65535.00
534.01	65535.00
534.18	65535.00
534.35	65535.00
534.52	65535.00
534.69	65535.00
534.86	65535.00
535.03	65535.00
535.20	65535.00
535.37	65535.00
535.54	65535.00
535.71	65535.00
535.88	65535.00
536.05	65535.00
536.22	65535.00
536.38	65535.00
536.55	65535.00
536.72	65535.00
536.89	65535.00
537.06	65535.00
537.23	65535.00
537.40	65535.00
537.57	65535.00
537.74	65535.00
537.91	65535.00
538.08	65535.00
538.25	65535.00
538.42	65535.00
538.59	65535.00
538.75	65535.00
538.92	65535.00
539.09	65535.00
539.26	65535.00
539.43	65535.00
539.60	65535.00
539.77	65535.00
539.94	65535.00
540.11	65535.00
540.28	65535.00
540.44	65535.00
540.61	65535.00
540.78	65535.00
540.95	65535.00
541.12	65535.00
541.29	65535.00
541.46	65535.00
541.62	65535.00
541.79	65535.00
541.96	65535.00
542.13	65535.00
542.30	65535.00
542.47	65535.00
542.63	65535.00
542.80	65535.00
542.97	65535.00
543.14	65535.00
543.31	65535.00
543.48	65535.00
543.64	65535.00
543.81	65535.00
543.98	65535.00
544.15	65535.00
544.32	65535.00
544.48	65535.00
544.65	65535.00
544.82	65535.00
544.99	65535.00
545.16	65535.00
545.32	65535.00
545.49	65535.00
545.66	65535.00
545.83	65535.00
546.00	65535.00
546.16	65535.00
546.33	65535.00
546.50	65535.00
546.67	65535.00
546.83	65535.00
547.00	65535.00
547.17	65535.00
547.34	65535.00
547.50	65535.00
547.67	65535.00
547.84	65535.00
548.00	65535.00
548.17	65535.00
548.34	65535.00
548.51	65535.00
548.67	65535.00
548.84	65535.00
549.01	65535.00
549.18	65535.00
549.34	65535.00
549.51	65535.00
549.68	65535.00
549.84	65535.00
550.01	65535.00
550.18	65535.00
550.34	65535.00
550.51	65535.00
550.68	65535.00
550.84	65535.00
551.01	65535.00
551.18	65535.00
551.34	65535.00
551.51	65535.00
551.68	65535.00
551.84	65535.00
552.01	65535.00
552.18	65535.00
552.34	65535.00
552.51	65535.00
552.68	65535.00
552.84	65535.00
553.01	65535.00
553.18	65535.00
553.34	65535.00
553.51	65535.00
553.67	65535.00
553.84	65535.00
554.01	65535.00
554.17	65535.00
554.34	65535.00
554.51	65535.00
554.67	65535.00
554.84	65535.00
555.00	65535.00
555.17	65535.00
555.33	65535.00
555.50	65535.00
555.67	65535.00
555.83	65535.00
556.00	65535.00
556.16	65535.00
556.33	65535.00
556.50	65535.00
556.66	65535.00
556.83	65535.00
556.99	65535.00
557.16	65535.00
557.32	65535.00
557.49	65535.00
557.65	65535.00
557.82	65535.00
557.98	65535.00
558.15	65535.00
558.32	65535.00
558.48	65535.00
558.65	65535.00
558.81	65535.00
558.98	65535.00
559.14	65535.00
559.31	65535.00
559.47	65535.00
559.64	65535.00
559.80	65535.00
559.97	65535.00
560.13	65535.00
560.30	65535.00
560.46	65535.00
560.63	65535.00
560.79	65535.00
560.96	65535.00
561.12	65535.00
561.29	65535.00
561.45	65535.00
561.61	65535.00
561.78	65535.00
561.94	65535.00
562.11	65535.00
562.27	65535.00
562.44	65535.00
562.60	65535.00
562.77	65535.00
562.93	65535.00
563.10	65535.00
563.26	65535.00
563.42	65535.00
563.59	65535.00
563.75	65535.00
563.92	65535.00
564.08	65535.00
564.24	65535.00
564.41	65535.00
564.57	65535.00
564.74	65535.00
564.90	65535.00
565.07	65535.00
565.23	65535.00
565.39	65535.00
565.56	65535.00
565.72	65535.00
565.88	65535.00
566.05	65535.00
566.21	65535.00
566.38	65535.00
566.54	65535.00
566.70	65535.00
566.87	65535.00
567.03	65535.00
567.19	65535.00
567.36	65535.00
567.52	65535.00
567.68	65535.00
567.85	65535.00
568.01	65535.00
568.17	65535.00
568.34	65535.00
568.50	65535.00
568.66	65535.00
568.83	65535.00
568.99	65535.00
569.15	65535.00
569.32	65535.00
569.48	65535.00
569.64	65535.00
569.81	65535.00
569.97	65535.00
570.13	65535.00
570.30	65535.00
570.46	65535.00
570.62	65535.00
570.78	65535.00
570.95	65535.00
571.11	65535.00
571.27	65535.00
571.43	65535.00
571.60	65535.00
571.76	65535.00
571.92	65535.00
572.09	65535.00
572.25	65535.00
572.41	65535.00
572.57	65535.00
572.74	65535.00
572.90	65535.00
573.06	65535.00
573.22	65535.00
573.38	65535.00
573.55	65535.00
573.71	65535.00
573.87	65535.00
574.03	65535.00
574.20	65535.00
574.36	65535.00
574.52	65535.00
574.68	65535.00
574.84	65535.00
575.01	65535.00
575.17	65535.00
575.33	65535.00
575.49	65535.00
575.65	65535.00
575.82	65535.00
575.98	65535.00
576.14	65535.00
576.30	65535.00
576.46	65535.00
576.62	65535.00
576.79	65535.00
576.95	65535.00
577.11	65535.00
577.27	65535.00
577.43	65535.00
577.59	65535.00
577.75	65535.00
577.92	65535.00
578.08	65535.00
578.24	65535.00
578.40	65535.00
578.56	65535.00
578.72	65535.00
578.88	65535.00
579.04	65535.00
579.21	65535.00
579.37	65535.00
579.53	65535.00
579.69	65535.00
579.85	65535.00
580.01	65535.00
580.17	65535.00
580.33	65535.00
580.49	65535.00
580.65	65535.00
580.82	65535.00
580.98	65535.00
581.14	65535.00
581.30	65535.00
581.46	65535.00
581.62	65535.00
581.78	65535.00
581.94	65535.00
582.10	65535.00
582.26	65535.00
582.42	65535.00
582.58	65535.00
582.74	65535.00
582.90	65535.00
583.06	65535.00
583.22	65535.00
583.38	65535.00
583.54	65535.00
583.70	65535.00
583.86	65535.00
584.02	65535.00
584.18	65535.00
584.34	65535.00
584.50	65535.00
584.66	65535.00
584.82	65535.00
584.98	65535.00
585.14	65535.00
585.30	65535.00
585.46	65535.00
585.62	65535.00
585.78	65535.00
585.94	65535.00
586.10	65535.00
586.26	65535.00
586.42	65535.00
586.58	65535.00
586.74	65535.00
586.90	65535.00
