SpectraSuite Data File
++++++++++++++++++++++++++++++++++++
Date: Thu Oct 24 13:21:23 EDT 2013
User: stostad
Dark Spectrum Present: No
Reference Spectrum Present: No
Number of Sampled Component Spectra: 1
Spectrometers: USB2+H05261
Integration Time (usec): 100000 (USB2+H05261)
Spectra Averaged: 1 (USB2+H05261)
Boxcar Smoothing: 0 (USB2+H05261)
Correct for Electrical Dark: No (USB2+H05261)
Strobe/Lamp Enabled: No (USB2+H05261)
Correct for Detector Non-linearity: No (USB2+H05261)
Correct for Stray Light: No (USB2+H05261)
Number of Pixels in Processed Spectrum: 2048
>>>>>Begin Processed Spectral Data<<<<<
365.73	589.82
365.92	589.82
366.12	589.82
366.32	486.83
366.52	458.74
366.72	543.00
366.91	402.57
367.11	451.72
367.31	430.66
367.51	388.53
367.70	444.70
367.90	463.43
368.10	456.40
368.30	454.06
368.49	372.15
368.69	489.17
368.89	514.92
369.09	451.72
369.28	491.51
369.48	456.40
369.68	540.66
369.87	496.19
370.07	559.39
370.27	533.64
370.47	627.26
370.66	931.53
370.86	908.13
371.06	1032.18
371.25	968.98
371.45	884.72
371.65	987.71
371.84	976.00
372.04	1013.45
372.24	961.96
372.44	1039.20
372.63	938.55
372.83	1036.86
373.03	1050.90
373.22	1027.50
373.42	1046.22
373.62	1008.77
373.81	1036.86
374.01	1060.26
374.21	1125.80
374.40	1071.97
374.60	1116.44
374.79	1086.01
374.99	1128.14
375.19	1156.22
375.38	1036.86
375.58	1095.37
375.78	1097.71
375.97	1137.50
376.17	1156.22
376.37	1064.94
376.56	1118.78
376.76	1064.94
376.95	1107.07
377.15	1130.48
377.35	1064.94
377.54	1156.22
377.74	1128.14
377.93	1097.71
378.13	1163.25
378.33	1086.01
378.52	1093.03
378.72	1069.62
378.91	1203.04
379.11	1188.99
379.31	1191.33
379.50	1177.29
379.70	1203.04
379.89	1196.01
380.09	1116.44
380.28	1153.88
380.48	1254.53
380.68	1231.12
380.87	1203.04
381.07	1291.98
381.26	1226.44
381.46	1329.42
381.65	1212.40
381.85	1338.79
382.04	1207.72
382.24	1263.89
382.43	1256.87
382.63	1310.70
382.83	1268.57
383.02	1306.02
383.22	1411.34
383.41	1289.64
383.61	1364.53
383.80	1261.55
384.00	1357.51
384.19	1207.72
384.39	1313.04
384.58	1401.98
384.78	1327.08
384.97	1390.28
385.17	1418.36
385.36	1329.42
385.56	1350.49
385.75	1294.32
385.95	1413.68
386.14	1441.77
386.34	1399.64
386.53	1434.75
386.72	1345.81
386.92	1394.96
387.11	1462.83
387.31	1399.64
387.50	1397.30
387.70	1404.32
387.89	1444.11
388.09	1439.43
388.28	1427.73
388.48	1434.75
388.67	1596.25
388.86	1451.13
389.06	1500.28
389.25	1572.84
389.45	1561.14
389.64	1455.81
389.84	1493.26
390.03	1572.84
390.22	1556.46
390.42	1542.41
390.61	1565.82
390.81	1556.46
391.00	1607.95
391.19	1579.86
391.39	1629.01
391.58	1612.63
391.78	1603.27
391.97	1654.76
392.16	1624.33
392.36	1743.70
392.55	1596.25
392.75	1839.66
392.94	1732.00
393.13	1640.72
393.33	1666.46
393.52	1746.04
393.71	1750.72
393.91	1750.72
394.10	1783.49
394.29	1764.76
394.49	1703.91
394.68	1708.59
394.88	1785.83
395.07	1769.44
395.26	1795.19
395.46	1720.29
395.65	1898.17
395.84	1874.77
396.04	1858.39
396.23	1900.52
396.42	1933.28
396.62	1907.54
396.81	1863.07
397.00	1849.02
397.19	1926.26
397.39	1820.94
397.58	1933.28
397.77	1977.75
397.97	1884.13
398.16	2029.24
398.35	1940.30
398.55	1994.14
398.74	2022.22
398.93	2045.63
399.12	2036.27
399.32	2045.63
399.51	2040.95
399.70	2083.08
399.90	2017.54
400.09	2153.29
400.28	2094.78
400.47	2139.25
400.67	2160.31
400.86	2160.31
401.05	2101.80
401.24	2165.00
401.44	2211.81
401.63	2172.02
401.82	2162.66
402.01	2146.27
402.21	2190.74
402.40	2235.21
402.59	2256.28
402.78	2244.57
402.97	2249.25
403.17	2328.83
403.36	2289.04
403.55	2349.90
403.74	2476.29
403.93	2499.69
404.13	2464.58
404.32	2473.95
404.51	2532.46
404.70	2471.61
404.89	2450.54
405.09	2417.77
405.28	2518.42
405.47	2490.33
405.66	2633.10
405.85	2553.52
406.05	2558.21
406.24	2553.52
406.43	2619.06
406.62	2637.78
406.81	2754.81
407.00	2621.40
407.20	2682.25
407.39	2593.31
407.58	2677.57
407.77	2729.06
407.96	2672.89
408.15	2731.41
408.34	2799.28
408.54	2759.49
408.73	2860.13
408.92	2712.68
409.11	2801.62
409.30	2834.39
409.49	2825.03
409.68	2939.71
409.87	2810.98
410.07	2932.69
410.26	3035.67
410.45	2958.44
410.64	3108.23
410.83	3124.62
411.02	3030.99
411.21	3192.49
411.40	3070.78
411.59	3293.13
411.78	3131.64
411.98	3227.60
412.17	3138.66
412.36	3279.09
412.55	3253.34
412.74	3351.65
412.93	3393.78
413.12	3162.06
413.31	3414.84
413.50	3325.90
413.69	3307.18
413.88	3515.48
414.07	3473.36
414.26	3431.23
414.45	3538.89
414.64	3602.08
414.83	3620.81
415.02	3695.71
415.22	3550.59
415.41	3667.62
415.60	3695.71
415.79	3775.28
415.98	3747.20
416.17	3805.71
416.36	3866.56
416.55	3801.03
416.74	3889.97
416.93	3962.53
417.12	3801.03
417.31	3957.85
417.50	4028.06
417.69	4007.00
417.88	4058.49
418.07	4077.21
418.26	4138.07
418.45	4088.92
418.64	4222.33
418.83	4067.85
419.02	4133.39
419.21	4271.48
419.39	4219.99
419.58	4255.09
419.77	4112.32
419.96	4379.14
420.15	4299.56
420.34	4168.49
420.53	4339.35
420.72	4400.21
420.91	4262.12
421.10	4369.78
421.29	4430.63
421.48	4248.07
421.67	4379.14
421.86	4585.11
422.05	4463.40
422.24	4482.13
422.43	4557.02
422.61	4592.13
422.80	4739.58
422.99	4636.60
423.18	4535.96
423.37	4784.06
423.56	4472.76
423.75	4657.67
423.94	4491.49
424.13	4304.25
424.32	4311.27
424.50	4599.15
424.69	4713.84
424.88	4887.04
425.07	4697.46
425.26	4601.49
425.45	4592.13
425.64	4601.49
425.83	4681.07
426.01	4674.05
426.20	4643.62
426.39	4711.50
426.58	4713.84
426.77	4610.86
426.96	4704.48
427.15	4657.67
427.33	4865.97
427.52	4870.65
427.71	4802.78
427.90	4842.57
428.09	4940.87
428.28	5004.07
428.46	5027.47
428.65	4950.23
428.84	5048.54
429.03	4931.51
429.22	4936.19
429.40	5102.37
429.59	5135.14
429.78	4938.53
429.97	5050.88
430.16	5109.39
430.34	5252.16
430.53	5172.58
430.72	5102.37
430.91	5203.01
431.10	5128.11
431.28	5231.10
431.47	5238.12
431.66	5446.43
431.85	5408.98
432.03	5509.62
432.22	5549.41
432.41	5394.93
432.60	5657.07
432.79	5404.30
432.97	5486.22
433.16	5565.79
433.35	5591.54
433.54	5427.70
433.72	5579.84
433.91	5584.52
434.10	5731.97
434.28	5638.35
434.47	5788.14
434.66	5497.92
434.85	5738.99
435.03	5928.58
435.22	5888.79
435.41	6118.16
435.59	5944.96
435.78	5914.53
435.97	6008.16
436.16	6101.78
436.34	5874.74
436.53	6022.20
436.72	6104.12
436.90	5877.09
437.09	5942.62
437.28	5930.92
437.46	5951.98
437.65	5933.26
437.84	6176.67
438.02	6132.20
438.21	6167.31
438.40	5951.98
438.58	6235.19
438.77	6282.00
438.96	6125.18
439.14	6455.20
439.33	6581.59
439.52	6497.33
439.70	6375.62
439.89	6619.04
440.08	6679.89
440.26	6558.18
440.45	6792.23
440.63	6717.34
440.82	6932.67
441.01	6679.89
441.19	6932.67
441.38	6822.66
441.57	6834.36
441.75	7068.42
441.94	7087.14
442.12	7183.10
442.31	7176.08
442.50	7239.28
442.68	7236.94
442.87	7176.08
443.05	7363.33
443.24	7445.24
443.43	7375.03
443.61	7473.33
443.80	7632.49
443.98	7325.88
444.17	6979.48
444.35	7236.94
444.54	7368.01
444.73	7485.03
444.91	7398.43
445.10	7606.74
445.28	7634.83
445.47	7496.74
445.65	7274.38
445.84	7604.40
446.02	7620.78
446.21	7470.99
446.39	7562.27
446.58	7749.51
446.77	7536.52
446.95	7536.52
447.14	7578.65
447.32	7707.38
447.51	7485.03
447.69	7576.31
447.88	7581.00
448.06	7588.02
448.25	7637.17
448.43	7838.45
448.62	7730.79
448.80	7585.68
448.99	7866.54
449.17	7779.94
449.36	7782.28
449.54	7885.26
449.73	7946.12
449.91	8152.09
450.10	7857.18
450.28	7913.35
450.46	8149.75
450.65	8077.19
450.83	7971.86
451.02	8102.93
451.20	8325.29
451.39	8168.47
451.57	8215.28
451.76	7969.52
451.94	8273.79
452.13	8294.86
452.31	8280.82
452.49	8168.47
452.68	8432.95
452.86	8315.92
453.05	8400.18
453.23	8358.05
453.42	8313.58
453.60	8362.73
453.78	8358.05
453.97	8339.33
454.15	8245.71
454.34	8334.65
454.52	8657.64
454.70	8479.76
454.89	8615.51
455.07	8739.56
455.26	8767.65
455.44	9006.38
455.62	8781.69
455.81	8814.46
455.99	8858.93
456.17	8875.31
456.36	8877.65
456.54	9015.74
456.73	9139.79
456.91	9259.16
457.09	9132.77
457.28	9233.41
457.46	9083.62
457.64	9399.59
457.83	9165.54
458.01	9195.96
458.19	9605.56
458.38	9235.75
458.56	9582.15
458.74	9483.85
458.93	9537.68
459.11	9554.07
459.29	9345.76
459.48	9537.68
459.66	9600.88
459.84	9502.58
460.03	9937.91
460.21	9692.16
460.39	9701.52
460.57	9816.21
460.76	9966.00
460.94	9734.29
461.12	9872.38
461.31	9970.68
461.49	9996.43
461.67	10012.81
461.85	10160.27
462.04	10066.64
462.22	10448.15
462.40	10237.50
462.59	10080.69
462.77	10115.80
462.95	10228.14
463.13	10289.00
463.32	10387.30
463.50	10473.90
463.68	10399.00
463.86	10450.49
464.05	10384.96
464.23	10338.15
464.41	10567.52
464.59	10230.48
464.78	10607.31
464.96	10567.52
465.14	10335.81
465.32	10705.61
465.50	10649.44
465.69	10750.08
465.87	10799.23
466.05	10717.31
466.23	10721.99
466.41	10775.83
466.60	11061.37
466.78	10857.75
466.96	10686.89
467.14	10693.91
467.32	10595.61
467.51	10710.29
467.69	10689.23
467.87	10902.22
468.05	10883.49
468.23	10731.36
468.41	10874.13
468.60	10967.75
468.78	11105.84
468.96	11164.36
469.14	11229.89
469.32	11573.95
469.50	11026.26
469.69	11389.05
469.87	11419.47
470.05	11360.96
470.23	11492.03
470.41	11522.46
470.59	11777.58
470.77	11548.20
470.95	11501.39
471.14	12020.99
471.32	11435.86
471.50	11878.22
471.68	11871.20
471.86	11847.79
472.04	12060.78
472.22	12173.13
472.40	11934.39
472.58	11878.22
472.77	12231.64
472.95	12388.46
473.13	12795.71
473.31	12318.24
473.49	12416.54
473.67	12411.86
473.85	12299.52
474.03	12662.30
474.21	12697.41
474.39	12849.54
474.57	12964.23
474.75	12957.21
474.93	12812.09
475.12	13114.02
475.30	13123.38
475.48	12987.63
475.66	13497.87
475.84	13392.55
476.02	13312.97
476.20	13427.65
476.38	13713.20
476.56	13741.29
476.74	13886.40
476.92	13788.10
477.10	13860.65
477.28	14176.62
477.46	14174.28
477.64	14232.80
477.82	14134.50
478.00	14766.44
478.18	14331.10
478.36	14654.09
478.54	14913.89
478.72	14890.49
478.90	14927.94
479.08	15374.98
479.26	15449.88
479.44	15358.60
479.62	15550.52
479.80	15501.37
479.98	15667.55
480.16	16184.80
480.34	15538.82
480.52	15871.17
480.70	16341.62
480.88	16341.62
481.06	16381.41
481.24	16259.70
481.41	16456.31
481.59	16922.07
481.77	16683.34
481.95	17027.40
482.13	17146.76
482.31	16830.79
482.49	17771.69
482.67	17305.92
482.85	17736.58
483.03	17750.62
483.21	17727.22
483.39	18345.12
483.57	17944.89
483.74	18277.24
483.92	18424.70
484.10	18420.02
484.28	18789.82
484.46	18785.14
484.64	19433.47
484.82	19103.45
485.00	19257.93
485.18	19552.84
485.35	19873.49
485.53	19927.32
485.71	20152.01
485.89	20341.60
486.07	20376.70
486.25	20360.32
486.43	20531.18
486.61	20697.36
486.78	20603.74
486.96	21130.36
487.14	21357.39
487.32	21420.58
487.50	21556.33
487.68	21635.91
487.85	21802.09
488.03	22153.17
488.21	22347.44
488.39	22321.69
488.57	22349.78
488.75	22649.36
488.92	22450.42
489.10	23213.43
489.28	23311.74
489.46	23974.11
489.64	23213.43
489.81	23800.91
489.99	23744.73
490.17	23824.31
490.35	24266.67
490.53	24049.00
490.70	24512.43
490.88	24489.03
491.06	24950.11
491.24	24589.67
491.41	25191.19
491.59	25539.93
491.77	25071.82
491.95	25497.80
492.13	25621.84
492.30	25869.94
492.48	25886.32
492.66	25968.24
492.84	26103.99
493.01	26258.47
493.19	26298.26
493.37	26635.30
493.54	26602.53
493.72	27103.40
493.90	26885.73
494.08	27192.34
494.25	27461.51
494.43	27669.81
494.61	27852.38
494.79	27821.95
494.96	27807.90
495.14	27948.34
495.32	28095.79
495.49	28329.84
495.67	28510.07
495.85	28671.56
496.02	28882.21
496.20	29062.43
496.38	28996.90
496.55	29432.24
496.73	30033.75
496.91	29696.72
497.09	30113.33
497.26	30139.08
497.44	29773.95
497.62	29942.47
497.79	30419.94
497.97	30352.07
498.14	30455.05
498.32	31143.17
498.50	30967.63
498.67	31070.61
498.85	30955.93
499.03	31253.17
499.20	31215.72
499.38	31583.19
499.56	31875.76
499.73	31800.86
499.91	31782.13
500.08	32292.37
500.26	31969.38
500.44	32170.66
500.61	32638.77
500.79	32851.76
500.97	32435.14
501.14	33024.96
501.32	33034.32
501.49	32891.55
501.67	32992.19
501.84	33301.14
502.02	33570.30
502.20	33249.65
502.37	33521.15
502.55	33308.16
502.72	33516.47
502.90	33752.87
503.07	33935.43
503.25	34136.71
503.43	34345.02
503.60	34558.01
503.78	34199.91
503.95	34157.78
504.13	34455.03
504.30	34721.85
504.48	34712.49
504.65	34864.62
504.83	35297.62
505.01	35592.53
505.18	35438.05
505.36	35475.50
505.53	35126.76
505.71	35569.12
505.88	35798.49
506.06	35608.91
506.23	36531.08
506.41	35709.55
506.58	36287.67
506.76	36392.99
506.93	36563.85
507.11	36404.69
507.28	36381.29
507.46	36875.14
507.63	36830.67
507.81	36989.83
507.98	36498.31
508.16	36804.92
508.33	37053.02
508.50	37298.78
508.68	37263.67
508.85	37500.06
509.03	37198.13
509.20	37631.13
509.38	37883.91
509.55	38082.86
509.73	38270.10
509.90	38480.75
510.08	38366.06
510.25	38120.31
510.42	38459.68
510.60	38656.29
510.77	39093.97
510.95	39159.50
511.12	39009.71
511.30	39005.03
511.47	39236.74
511.64	39075.24
511.82	39643.99
511.99	39206.31
512.17	39899.11
512.34	39356.11
512.51	39915.50
512.69	40030.18
512.86	39597.18
513.04	40093.38
513.21	40306.37
513.38	40348.50
513.56	39643.99
513.73	39983.37
513.90	40624.68
514.08	40636.38
514.25	41076.40
514.43	41097.47
514.60	41076.40
514.77	40711.28
514.95	41003.85
515.12	40959.38
515.29	40795.54
515.47	41212.15
515.64	41586.64
515.81	41212.15
515.99	41394.71
516.16	41696.64
516.33	41441.53
516.51	42188.16
516.68	41968.15
516.85	42478.38
517.03	42188.16
517.20	42323.91
517.37	42230.29
517.54	42033.68
517.72	42162.41
517.89	42066.45
518.06	42696.05
518.24	42770.95
518.41	42576.69
518.58	42515.83
518.75	42586.05
518.93	43063.52
519.10	42803.72
519.27	43065.86
519.45	43166.50
519.62	43658.01
519.79	43463.75
519.96	43475.45
520.14	43452.05
520.31	43721.21
520.48	43814.83
520.65	43810.15
520.83	43997.39
521.00	44137.82
521.17	43812.49
521.34	44348.47
521.52	44282.94
521.69	43990.37
521.86	44259.53
522.03	44971.05
522.20	44357.83
522.38	44928.92
522.55	44863.39
522.72	45027.23
522.89	45174.68
523.07	45071.70
523.24	45251.92
523.41	45081.06
523.58	45120.85
523.75	45656.83
523.92	45904.93
524.10	45724.71
524.27	45869.82
524.44	45741.09
524.61	46241.96
524.78	46033.66
524.96	46209.20
525.13	45766.84
525.30	46438.57
525.47	46424.53
525.64	46342.61
525.81	46593.04
525.98	46040.68
526.16	45996.21
526.33	46703.05
526.50	46990.94
526.67	46986.25
526.84	46834.12
527.01	46913.70
527.18	46841.14
527.36	47220.31
527.53	46787.31
527.70	47220.31
527.87	47409.89
528.04	47075.19
528.21	47758.63
528.38	47552.66
528.55	47377.12
528.72	47000.30
528.89	47360.74
529.07	47973.96
529.24	47866.30
529.41	47985.66
529.58	48069.92
529.75	47948.21
529.92	47957.58
530.09	48023.11
530.26	47889.70
530.43	47955.24
530.60	48182.27
530.77	48322.70
530.94	48626.97
531.11	48641.01
531.28	48528.67
531.46	49041.24
531.63	48648.03
531.80	48425.68
531.97	48484.20
532.14	48655.06
532.31	48790.81
532.48	48568.46
532.65	48982.73
532.82	48769.74
532.99	48872.73
533.16	49045.93
533.33	48736.98
533.50	49382.96
533.67	49324.45
533.84	48769.74
534.01	49270.62
534.18	48980.39
534.35	50028.95
534.52	49567.87
534.69	49469.56
534.86	49151.25
535.03	49354.88
535.20	49680.21
535.37	50052.36
535.54	50153.00
535.71	50080.44
535.88	50237.26
536.05	49780.85
536.22	50293.43
536.38	50202.15
536.55	50199.81
536.72	50480.67
536.89	50260.66
537.06	50220.87
537.23	50417.48
537.40	50670.26
537.57	50454.93
537.74	50473.65
537.91	50794.31
538.08	50677.28
538.25	50618.77
538.42	50602.38
538.59	50958.14
538.75	50459.61
538.92	50670.26
539.09	50710.05
539.26	50960.48
539.43	50944.10
539.60	50925.38
539.77	51100.92
539.94	51512.85
540.11	51086.87
540.28	51473.06
540.44	51597.11
540.61	51620.52
540.78	51428.59
540.95	51213.26
541.12	51379.44
541.29	51168.79
541.46	51608.81
541.62	51987.98
541.79	51877.97
541.96	51459.02
542.13	51833.50
542.30	52011.38
542.47	51838.18
542.63	52018.41
542.80	52168.20
542.97	52465.45
543.14	52619.92
543.31	52395.23
543.48	52495.88
543.64	52743.97
543.81	52971.00
543.98	52266.50
544.15	52507.58
544.32	52369.49
544.48	52978.03
544.65	52285.23
544.82	52743.97
544.99	52327.36
545.16	52633.97
545.32	52966.32
545.49	53102.07
545.66	53420.39
545.83	53179.31
546.00	53336.13
546.16	53272.93
546.33	52844.62
546.50	53198.04
546.67	53207.40
546.83	52968.66
547.00	53050.58
547.17	52804.83
547.34	52973.34
547.50	53029.52
547.67	53509.33
547.84	53511.67
548.00	53638.06
548.17	53668.48
548.34	53385.28
548.51	53387.62
548.67	53167.61
548.84	53343.15
549.01	53027.18
549.18	53628.69
549.34	53769.13
549.51	53879.13
549.68	53556.14
549.84	53731.68
550.01	53719.98
550.18	53446.13
550.34	53560.82
550.51	53478.90
550.68	53792.53
550.84	53614.65
551.01	53724.66
551.18	53876.79
551.34	53530.39
551.51	53525.71
551.68	53794.87
551.84	53719.98
552.01	53605.29
552.18	53956.37
552.34	53715.29
552.51	54412.77
552.68	53977.43
552.84	54576.61
553.01	54543.84
553.18	54244.26
553.34	53982.12
553.51	53928.28
553.67	54005.52
553.84	54494.69
554.01	54536.82
554.17	54358.94
554.34	54307.45
554.51	54199.79
554.67	54550.87
554.84	54162.34
555.00	54286.39
555.17	54150.63
555.33	54773.22
555.50	54157.66
555.67	54574.27
555.83	54518.10
556.00	54663.21
556.16	54780.24
556.33	54712.36
556.50	54731.09
556.66	54934.71
556.83	54555.55
556.99	54981.52
557.16	54703.00
557.32	54667.89
557.49	54904.29
557.65	54871.52
557.82	54705.34
557.98	54782.58
558.15	54567.25
558.32	55056.42
558.48	54768.54
558.65	54915.99
558.81	55145.36
558.98	55044.72
559.14	55091.53
559.31	54930.03
559.47	55164.09
559.64	55009.61
559.80	55175.79
559.97	54976.84
560.13	54777.90
560.30	55124.30
560.46	55145.36
560.63	55569.00
560.79	55098.55
560.96	55309.20
561.12	55309.20
561.29	55068.12
561.45	55054.08
561.61	55288.13
561.78	55533.89
561.94	55576.02
562.11	55803.05
562.27	55604.11
562.44	55590.06
562.60	55484.74
562.77	55341.97
562.93	55466.02
563.10	55545.59
563.26	55264.73
563.42	55657.94
563.59	55594.74
563.75	55505.80
563.92	55489.42
564.08	55604.11
564.24	55903.70
564.41	55657.94
564.57	55487.08
564.74	55358.35
564.90	56023.06
565.07	55531.55
565.23	55955.19
565.39	55749.22
565.56	55934.12
565.72	55842.84
565.88	55655.60
566.05	55751.56
566.21	55554.96
566.38	55648.58
566.54	55442.61
566.70	55606.45
566.87	55950.51
567.03	56032.42
567.19	56002.00
567.36	56104.98
567.52	55948.17
567.68	56025.40
567.85	55884.97
568.01	55962.21
568.17	55718.79
568.34	55945.83
568.50	55777.31
568.66	55985.61
568.83	55913.06
568.99	55704.75
569.15	55899.01
569.32	55777.31
569.48	55386.44
569.64	55721.13
569.81	55664.96
569.97	55730.50
570.13	56133.07
570.30	55994.98
570.46	56168.18
570.62	56004.34
570.78	56275.84
570.95	56030.08
571.11	56020.72
571.27	55957.53
571.43	56016.04
571.60	56002.00
571.76	56039.45
571.92	55966.89
572.09	56252.44
572.25	56041.79
572.41	56046.47
572.57	56357.76
572.74	56275.84
572.90	56053.49
573.06	56039.45
573.22	56027.74
573.38	56301.59
573.55	56229.03
573.71	56458.40
573.87	56334.35
574.03	56154.13
574.20	56210.31
574.36	56156.47
574.52	56376.48
574.68	56147.11
574.84	56156.47
575.01	56067.53
575.17	56463.08
575.33	56371.80
575.49	56299.25
575.65	56549.68
575.82	56423.29
575.98	56390.53
576.14	56418.61
576.30	56404.57
576.46	56362.44
576.62	56329.67
576.79	56189.24
576.95	56163.50
577.11	56170.52
577.27	56236.05
577.43	56594.15
577.59	56481.81
577.75	56193.92
577.92	56137.75
578.08	56086.26
578.24	56250.09
578.40	56498.19
578.56	56547.34
578.72	56547.34
578.88	56699.48
579.04	56566.07
579.21	56601.18
579.37	56516.92
579.53	56596.49
579.69	56472.45
579.85	56615.22
580.01	56533.30
580.17	56245.41
580.33	56453.72
580.49	56505.21
580.65	56671.39
580.82	56638.62
580.98	56561.39
581.14	56435.00
581.30	56774.37
581.46	56516.92
581.62	56673.73
581.78	56418.61
581.94	56523.94
582.10	56568.41
582.26	56591.81
582.42	56633.94
582.58	56427.98
582.74	56762.67
582.90	56498.19
583.06	56570.75
583.22	56554.36
583.38	56446.70
583.54	56442.02
583.70	56404.57
583.86	56575.43
584.02	56470.11
584.18	56612.88
584.34	56699.48
584.50	56598.83
584.66	56535.64
584.82	56493.51
584.98	56900.76
585.14	56427.98
585.30	56573.09
585.46	56678.41
585.62	56470.11
585.78	56914.81
585.94	56622.24
586.10	56729.90
586.26	56594.15
586.42	56746.29
586.58	56711.18
586.74	56516.92
586.90	56430.32
587.06	56671.39
587.22	56692.46
587.38	56748.63
587.54	56884.38
587.70	56886.72
587.86	56809.48
588.02	56877.36
588.18	56781.40
588.34	56891.40
