SpectraSuite Data File
++++++++++++++++++++++++++++++++++++
Date: Thu Oct 24 13:21:27 EDT 2013
User: stostad
Dark Spectrum Present: No
Reference Spectrum Present: No
Number of Sampled Component Spectra: 1
Spectrometers: USB2+H05261
Integration Time (usec): 100000 (USB2+H05261)
Spectra Averaged: 1 (USB2+H05261)
Boxcar Smoothing: 0 (USB2+H05261)
Correct for Electrical Dark: No (USB2+H05261)
Strobe/Lamp Enabled: No (USB2+H05261)
Correct for Detector Non-linearity: No (USB2+H05261)
Correct for Stray Light: No (USB2+H05261)
Number of Pixels in Processed Spectrum: 2048
>>>>>Begin Processed Spectral Data<<<<<
365.73	592.16
365.92	592.16
366.12	592.16
366.32	479.81
366.52	472.79
366.72	510.24
366.91	451.72
367.11	411.93
367.31	437.68
367.51	423.64
367.70	433.00
367.90	451.72
368.10	482.15
368.30	475.13
368.49	449.38
368.69	442.36
368.89	486.83
369.09	510.24
369.28	550.03
369.48	470.45
369.68	503.22
369.87	552.37
370.07	435.34
370.27	561.73
370.47	629.60
370.66	952.60
370.86	1006.43
371.06	959.62
371.25	990.05
371.45	971.32
371.65	1029.84
371.84	954.94
372.04	938.55
372.24	1048.56
372.44	1104.73
372.63	1067.28
372.83	1081.33
373.03	1078.99
373.22	1062.60
373.42	1074.31
373.62	1078.99
373.81	1109.41
374.01	1137.50
374.21	1156.22
374.40	1193.67
374.60	1181.97
374.79	1146.86
374.99	1165.59
375.19	1097.71
375.38	1203.04
375.58	1205.38
375.78	1149.20
375.97	1226.44
376.17	1205.38
376.37	1266.23
376.56	1196.01
376.76	1240.48
376.95	1228.78
377.15	1181.97
377.35	1186.65
377.54	1219.42
377.74	1219.42
377.93	1186.65
378.13	1240.48
378.33	1284.95
378.52	1240.48
378.72	1238.14
378.91	1247.51
379.11	1301.34
379.31	1299.00
379.50	1247.51
379.70	1306.02
379.89	1352.83
380.09	1334.11
380.28	1343.47
380.48	1322.40
380.68	1406.66
380.87	1296.66
381.07	1387.94
381.26	1362.19
381.46	1432.41
381.65	1315.38
381.85	1289.64
382.04	1338.79
382.24	1430.07
382.43	1399.64
382.63	1369.21
382.83	1355.17
383.02	1481.56
383.22	1465.18
383.41	1341.13
383.61	1430.07
383.80	1530.71
384.00	1387.94
384.19	1437.09
384.39	1448.79
384.58	1444.11
384.78	1497.94
384.97	1441.77
385.17	1497.94
385.36	1481.56
385.56	1549.43
385.75	1455.81
385.95	1526.03
386.14	1514.33
386.34	1425.39
386.53	1586.88
386.72	1591.56
386.92	1619.65
387.11	1533.05
387.31	1605.61
387.50	1537.73
387.70	1544.75
387.89	1558.80
388.09	1694.55
388.28	1652.42
388.48	1577.52
388.67	1563.48
388.86	1643.06
389.06	1607.95
389.25	1703.91
389.45	1722.63
389.64	1661.78
389.84	1743.70
390.03	1701.57
390.22	1647.74
390.42	1701.57
390.61	1736.68
390.81	1671.14
391.00	1717.95
391.19	1736.68
391.39	1647.74
391.58	1722.63
391.78	1706.25
391.97	1827.96
392.16	1849.02
392.36	1839.66
392.55	1757.74
392.75	1783.49
392.94	1912.22
393.13	1874.77
393.33	1867.75
393.52	1888.81
393.71	1823.28
393.91	1842.00
394.10	1984.77
394.29	1942.64
394.49	1959.03
394.68	1916.90
394.88	1879.45
395.07	1944.99
395.26	2078.40
395.46	2024.56
395.65	1996.48
395.84	2040.95
396.04	2141.59
396.23	1989.46
396.42	2040.95
396.62	2136.91
396.81	2031.58
397.00	2033.93
397.19	2106.48
397.39	2047.97
397.58	2129.89
397.77	2108.82
397.97	2136.91
398.16	2179.04
398.35	2256.28
398.55	2237.55
398.74	2218.83
398.93	2235.21
399.12	2286.70
399.32	2260.96
399.51	2307.77
399.70	2373.30
399.90	2312.45
400.09	2349.90
400.28	2429.48
400.47	2457.56
400.67	2352.24
400.86	2487.99
401.05	2349.90
401.24	2476.29
401.44	2483.31
401.63	2469.27
401.82	2478.63
402.01	2492.67
402.21	2541.82
402.40	2497.35
402.59	2443.52
402.78	2424.80
402.97	2605.02
403.17	2612.04
403.36	2459.90
403.55	2623.74
403.74	2731.41
403.93	2740.77
404.13	2626.08
404.32	2651.83
404.51	2633.10
404.70	2757.15
404.89	2729.06
405.09	2818.00
405.28	2818.00
405.47	2796.94
405.66	2832.05
405.85	2801.62
406.05	2810.98
406.24	2843.75
406.43	2876.52
406.62	2925.67
406.81	2956.10
407.00	2860.13
407.20	2855.45
407.39	2942.05
407.58	3077.80
407.77	2918.65
407.96	3002.91
408.15	3070.78
408.34	3033.33
408.54	3087.17
408.73	3103.55
408.92	3026.31
409.11	3183.13
409.30	3141.00
409.49	3185.47
409.68	3272.07
409.87	3272.07
410.07	3243.98
410.26	3323.56
410.45	3227.60
410.64	3337.60
410.83	3463.99
411.02	3365.69
411.21	3524.85
411.40	3506.12
411.59	3456.97
411.78	3442.93
411.98	3403.14
412.17	3421.86
412.36	3555.27
412.55	3632.51
412.74	3716.77
412.93	3719.11
413.12	3698.05
413.31	3765.92
413.50	3831.46
413.69	3623.15
413.88	3829.12
414.07	3976.57
414.26	3852.52
414.45	3988.27
414.64	4018.70
414.83	3915.72
415.02	4011.68
415.22	4102.96
415.41	4102.96
415.60	4014.02
415.79	4093.60
415.98	4168.49
416.17	4341.69
416.36	4196.58
416.55	4280.84
416.74	4304.25
416.93	4292.54
417.12	4362.76
417.31	4451.70
417.50	4374.46
417.69	4571.07
417.88	4418.93
418.07	4575.75
418.26	4573.41
418.45	4533.62
418.64	4564.04
418.83	4777.03
419.02	4601.49
419.21	4678.73
419.39	4901.08
419.58	4779.37
419.77	4695.11
419.96	4882.36
420.15	4751.29
420.34	4915.12
420.53	4718.52
420.72	4992.36
420.91	4959.60
421.10	4894.06
421.29	5025.13
421.48	4936.19
421.67	4964.28
421.86	4889.38
422.05	4922.15
422.24	5163.22
422.43	5083.64
422.61	4851.93
422.80	5214.71
422.99	5137.48
423.18	5083.64
423.37	4922.15
423.56	5067.26
423.75	5107.05
423.94	5102.37
424.13	4718.52
424.32	4926.83
424.50	5104.71
424.69	5296.63
424.88	5254.50
425.07	5064.92
425.26	5076.62
425.45	5081.30
425.64	5224.08
425.83	5191.31
426.01	5329.40
426.20	5128.11
426.39	5266.21
426.58	5198.33
426.77	5261.52
426.96	5310.68
427.15	5355.15
427.33	5324.72
427.52	5261.52
427.71	5263.86
427.90	5423.02
428.09	5401.96
428.28	5446.43
428.46	5490.90
428.65	5483.88
428.84	5760.06
429.03	5633.67
429.22	5554.09
429.40	5657.07
429.59	5551.75
429.78	5479.19
429.97	5465.15
430.16	5664.10
430.34	5858.36
430.53	5860.70
430.72	5816.23
430.91	5778.78
431.10	5830.27
431.28	5956.66
431.47	6045.60
431.66	6040.92
431.85	5916.87
432.03	6139.23
432.22	6186.04
432.41	6040.92
432.60	5949.64
432.79	6085.39
432.97	6087.73
433.16	6171.99
433.35	6104.12
433.54	6129.86
433.72	6265.61
433.91	6328.81
434.10	6303.06
434.28	6141.57
434.47	6424.77
434.66	6328.81
434.85	6544.14
435.03	6560.52
435.22	6541.80
435.41	6913.94
435.59	6672.87
435.78	6719.68
435.97	6593.29
436.16	6633.08
436.34	6590.95
436.53	6604.99
436.72	6665.85
436.90	6750.10
437.09	6698.61
437.28	6682.23
437.46	6792.23
437.65	6841.39
437.84	6794.58
438.02	7002.88
438.21	6935.01
438.40	6705.63
438.58	7000.54
438.77	7019.27
438.96	7091.82
439.14	7241.62
439.33	7265.02
439.52	7323.54
439.70	7307.15
439.89	7517.80
440.08	7442.90
440.26	7508.44
440.45	7531.84
440.63	7667.60
440.82	7768.24
441.01	7585.68
441.19	7817.39
441.38	7691.00
441.57	7733.13
441.75	7925.05
441.94	8058.46
442.12	8100.59
442.31	8006.97
442.50	8259.75
442.68	8044.42
442.87	8074.85
443.05	8229.32
443.24	8266.77
443.43	8072.51
443.61	8304.22
443.80	8580.40
443.98	8145.06
444.17	7840.79
444.35	8051.44
444.54	8634.24
444.73	8290.18
444.91	8512.53
445.10	8430.61
445.28	8437.63
445.47	8636.58
445.65	8269.11
445.84	8510.19
446.02	8521.89
446.21	8418.91
446.39	8603.81
446.58	8622.53
446.77	8573.38
446.95	8397.84
447.14	8655.30
447.32	8526.57
447.51	8458.70
447.69	8475.08
447.88	8542.96
448.06	8571.04
448.25	8512.53
448.43	8762.97
448.62	8744.24
448.80	8641.26
448.99	8835.52
449.17	8760.63
449.36	8812.12
449.54	8898.72
449.73	8943.19
449.91	8912.76
450.10	8762.97
450.28	9137.45
450.46	9153.84
450.65	8849.57
450.83	9128.09
451.02	9312.99
451.20	9100.00
451.39	9303.63
451.57	9331.72
451.76	9100.00
451.94	9198.31
452.13	9331.72
452.31	9191.28
452.49	9345.76
452.68	9390.23
452.86	9633.64
453.05	9579.81
453.23	9554.07
453.42	9401.93
453.60	9369.16
453.78	9423.00
453.97	9556.41
454.15	9502.58
454.34	9390.23
454.52	9657.05
454.70	9626.62
454.89	9671.09
455.07	9790.46
455.26	9757.69
455.44	9848.97
455.62	9905.15
455.81	9856.00
455.99	10038.56
456.17	10193.03
456.36	10104.09
456.54	10036.22
456.73	10462.19
456.91	10338.15
457.09	10384.96
457.28	10417.72
457.46	10499.64
457.64	10466.88
457.83	10530.07
458.01	10391.98
458.19	10565.18
458.38	10619.01
458.56	10726.68
458.74	10626.03
458.93	10663.48
459.11	10665.82
459.29	10782.85
459.48	10766.46
459.66	10689.23
459.84	10871.79
460.03	11110.52
460.21	10963.07
460.39	10939.66
460.57	11154.99
460.76	11164.36
460.94	11105.84
461.12	11082.44
461.31	11044.99
461.49	11192.44
461.67	11002.86
461.85	11274.36
462.04	11314.15
462.22	11782.26
462.40	11550.54
462.59	11489.69
462.77	11501.39
462.95	11473.31
463.13	11623.10
463.32	11646.51
463.50	11669.91
463.68	11880.56
463.86	11819.71
464.05	11522.46
464.23	11477.99
464.41	11808.00
464.59	11683.95
464.78	12168.45
464.96	11852.47
465.14	11864.18
465.32	11866.52
465.50	12028.01
465.69	12152.06
465.87	12063.12
466.05	12037.38
466.23	12236.32
466.41	12025.67
466.60	12376.75
466.78	12126.32
466.96	12116.95
467.14	12210.57
467.32	12241.00
467.51	12648.26
467.69	11962.48
467.87	12627.19
468.05	12458.67
468.23	12278.45
468.41	12168.45
468.60	12346.33
468.78	12449.31
468.96	12226.96
469.14	12781.67
469.32	13074.23
469.50	12587.40
469.69	12762.94
469.87	12856.56
470.05	12915.08
470.23	13057.85
470.41	12755.92
470.59	13343.39
470.77	13043.81
470.95	13139.77
471.14	13275.52
471.32	13209.98
471.50	13261.48
471.68	13390.20
471.86	13282.54
472.04	13378.50
472.22	13788.10
472.40	13626.60
472.58	13586.81
472.77	14113.43
472.95	14036.19
473.13	14139.18
473.31	13902.78
473.49	14181.31
473.67	13968.32
473.85	14211.73
474.03	14654.09
474.21	14127.47
474.39	14796.87
474.57	14338.12
474.75	15026.24
474.93	14675.16
475.12	14757.08
475.30	14700.90
475.48	14820.27
475.66	15035.60
475.84	14941.98
476.02	15150.29
476.20	15243.91
476.38	15314.13
476.56	15763.51
476.74	15424.13
476.92	15669.89
477.10	15749.46
477.28	16180.12
477.46	15943.73
477.64	16173.10
477.82	16208.21
478.00	16791.00
478.18	16582.70
478.36	16830.79
478.54	16964.20
478.72	16872.92
478.90	17324.65
479.08	17287.20
479.26	17240.39
479.44	17577.42
479.62	17577.42
479.80	17834.88
479.98	17968.29
480.16	18359.16
480.34	18024.47
480.52	18370.86
480.70	18207.03
480.88	18104.04
481.06	18483.21
481.24	18497.25
481.41	18754.71
481.59	19288.35
481.77	19250.91
481.95	19288.35
482.13	19215.80
482.31	19337.51
482.49	19819.66
482.67	19824.34
482.85	19927.32
483.03	20498.41
483.21	20128.61
483.39	20627.14
483.57	20552.24
483.74	20673.95
483.92	21174.83
484.10	21179.51
484.28	21441.65
484.46	21291.85
484.64	21907.41
484.82	21902.73
485.00	22024.44
485.18	22438.72
485.35	22539.36
485.53	22654.05
485.71	22808.52
485.89	23073.00
486.07	22771.07
486.25	23211.09
486.43	23232.16
486.61	22965.34
486.78	23695.58
486.96	24072.41
487.14	24285.40
487.32	24074.75
487.50	24547.54
487.68	24102.84
487.85	25235.66
488.03	25081.18
488.21	25619.50
488.39	25331.62
488.57	25525.88
488.75	25633.55
488.92	25979.95
489.10	26150.81
489.28	26298.26
489.46	26368.48
489.64	26668.06
489.81	27225.11
489.99	26934.88
490.17	27023.83
490.35	27517.68
490.53	27541.08
490.70	27747.05
490.88	28027.92
491.06	28166.01
491.24	28144.94
491.41	28561.56
491.59	28751.14
491.77	28643.48
491.95	28898.59
492.13	29390.11
492.30	29287.12
492.48	29652.25
492.66	29535.22
492.84	29319.89
493.01	29848.85
493.19	30242.06
493.37	30562.72
493.54	30539.31
493.72	30761.66
493.90	30384.83
494.08	30995.71
494.25	31489.57
494.43	31264.88
494.61	31618.30
494.79	31613.62
494.96	31356.16
495.14	31578.51
495.32	32535.79
495.49	32491.32
495.67	32568.55
495.85	32863.46
496.02	32847.08
496.20	33001.55
496.38	33383.06
496.55	33137.30
496.73	33872.23
496.91	33654.56
497.09	34099.26
497.26	34057.14
497.44	33930.75
497.62	34101.61
497.79	34689.08
497.97	34515.88
498.14	35201.66
498.32	35119.74
498.50	35292.94
498.67	35601.89
498.85	35541.03
499.03	35784.45
499.20	35859.35
499.38	36327.45
499.56	35789.13
499.73	36252.56
499.91	36662.15
500.08	36730.03
500.26	36233.83
500.44	36795.56
500.61	36758.11
500.79	36821.31
500.97	37443.89
501.14	37825.40
501.32	37553.90
501.49	37174.73
501.67	37479.00
501.84	38078.18
502.02	38066.47
502.20	37759.86
502.37	38396.49
502.55	38127.33
502.72	38000.94
502.90	38305.21
503.07	38555.64
503.25	39115.03
503.43	38775.66
503.60	39232.06
503.78	38986.30
503.95	39070.56
504.13	39384.19
504.30	39583.14
504.48	39952.94
504.65	39978.69
504.83	40067.63
505.01	40233.81
505.18	40240.83
505.36	40517.01
505.53	40079.33
505.71	40980.44
505.88	40863.41
506.06	40748.73
506.23	40961.72
506.41	40603.61
506.58	41179.39
506.76	40706.60
506.93	41469.61
507.11	40863.41
507.28	41469.61
507.46	41331.52
507.63	41975.17
507.81	41907.29
507.98	41797.29
508.16	41837.08
508.33	42141.35
508.50	42366.04
508.68	42501.79
508.85	42923.08
509.03	42382.42
509.20	42529.87
509.38	42988.62
509.55	43110.33
509.73	43421.62
509.90	43751.63
510.08	43454.39
510.25	43863.98
510.42	43810.15
510.60	44013.77
510.77	44254.85
510.95	44421.03
511.12	44327.41
511.30	44062.93
511.47	44484.22
511.64	44254.85
511.82	44835.30
511.99	44114.42
512.17	44404.64
512.34	44758.06
512.51	45593.64
512.69	45237.87
512.86	45500.01
513.04	45509.38
513.21	45535.12
513.38	45544.48
513.56	45247.24
513.73	45488.31
513.90	45858.12
514.08	45989.19
514.25	46216.22
514.43	45989.19
514.60	46361.33
514.77	46361.33
514.95	46005.57
515.12	45954.08
515.29	46553.26
515.47	46621.13
515.64	47217.97
515.81	47054.13
515.99	47164.14
516.16	47416.91
516.33	47054.13
516.51	47391.17
516.68	47267.12
516.85	47456.70
517.03	47695.44
517.20	47819.49
517.37	47157.11
517.54	47690.76
517.72	47845.23
517.89	47669.69
518.06	48074.60
518.24	48465.47
518.41	47856.93
518.58	48278.23
518.75	48205.67
518.93	48444.41
519.10	48240.78
519.27	48516.96
519.45	48292.27
519.62	49055.29
519.79	48830.60
519.96	48978.05
520.14	48971.03
520.31	48832.94
520.48	49254.23
520.65	49134.87
520.83	49687.23
521.00	50232.58
521.17	49624.04
521.34	49799.58
521.52	49712.98
521.69	49476.58
521.86	49895.54
522.03	49963.42
522.20	49961.08
522.38	50218.53
522.55	50286.41
522.72	50155.34
522.89	50356.63
523.07	50677.28
523.24	50431.52
523.41	50576.64
523.58	50447.91
523.75	50749.84
523.92	50574.30
524.10	51082.19
524.27	51124.32
524.44	50684.30
524.61	51220.28
524.78	51281.14
524.96	50972.19
525.13	51306.88
525.30	51580.73
525.47	51674.35
525.64	51452.00
525.81	51784.35
525.98	51718.82
526.16	51374.76
526.33	51461.36
526.50	52076.92
526.67	51927.13
526.84	52023.09
527.01	52069.90
527.18	51896.70
527.36	52020.75
527.53	52350.76
527.70	52456.09
527.87	52271.18
528.04	52374.17
528.21	52725.25
528.38	52119.05
528.55	52718.23
528.72	52310.97
528.89	52367.15
529.07	52369.49
529.24	52320.34
529.41	52985.05
529.58	52795.46
529.75	52893.77
529.92	52811.85
530.09	53146.54
530.26	52893.77
530.43	53151.23
530.60	52746.31
530.77	53038.88
530.94	53205.06
531.11	53317.40
531.28	53340.81
531.46	53418.05
531.63	53345.49
531.80	53305.70
531.97	53537.41
532.14	53542.10
532.31	53502.31
532.48	53572.52
532.65	54183.40
532.82	53785.51
532.99	53717.64
533.16	53752.74
533.33	53911.90
533.50	53890.83
533.67	54080.42
533.84	54129.57
534.01	54117.87
534.18	54115.53
534.35	54225.53
534.52	54225.53
534.69	54344.90
534.86	54141.27
535.03	54244.26
535.20	54365.96
535.37	54433.84
535.54	54487.67
535.71	54499.37
535.88	54487.67
536.05	54583.63
536.22	54710.02
536.38	54326.17
536.55	54714.70
536.72	54756.83
536.89	54791.94
537.06	54983.86
537.23	55114.94
537.40	54976.84
537.57	55021.31
537.74	55082.17
537.91	55173.45
538.08	55196.85
538.25	54813.01
538.42	55110.25
538.59	55430.91
538.75	55264.73
538.92	55421.55
539.09	55477.72
539.26	55468.36
539.43	55398.14
539.60	55407.50
539.77	55641.56
539.94	55929.44
540.11	55569.00
540.28	55756.24
540.44	55770.28
540.61	55824.12
540.78	55491.76
540.95	55770.28
541.12	55978.59
541.29	55863.91
541.46	56002.00
541.62	56313.29
541.79	56336.69
541.96	56088.60
542.13	55910.72
542.30	56217.33
542.47	56189.24
542.63	56090.94
542.80	56137.75
542.97	56711.18
543.14	56575.43
543.31	56631.60
543.48	56470.11
543.64	56884.38
543.81	56704.16
543.98	56687.78
544.15	56704.16
544.32	56748.63
544.48	57027.15
544.65	56743.95
544.82	57041.20
544.99	56636.28
545.16	56882.04
545.32	56980.34
545.49	56989.70
545.66	57413.34
545.83	56973.32
546.00	57513.98
546.16	57418.02
546.33	57123.11
546.50	57179.29
546.67	57301.00
546.83	56666.71
547.00	56987.36
547.17	57010.77
547.34	57127.80
547.50	57106.73
547.67	57350.15
547.84	57200.35
548.00	57649.74
548.17	57574.84
548.34	57551.43
548.51	57631.01
548.67	57319.72
548.84	57483.56
549.01	57247.16
549.18	57190.99
549.34	57528.03
549.51	57579.52
549.68	57712.93
549.84	57743.36
550.01	57516.32
550.18	57457.81
550.34	57521.01
550.51	57640.37
550.68	57698.89
550.84	57532.71
551.01	58085.07
551.18	57888.47
551.34	57670.80
551.51	57532.71
551.68	58110.82
551.84	57771.44
552.01	57518.67
552.18	57996.13
552.34	57808.89
552.51	57993.79
552.68	57935.28
552.84	58096.78
553.01	58244.23
553.18	58031.24
553.34	58253.59
553.51	58005.50
553.67	58073.37
553.84	58408.07
554.01	58443.18
554.17	58377.64
554.34	58438.50
554.51	58164.65
554.67	58375.30
554.84	58340.19
555.00	58117.84
555.17	58087.42
555.33	58340.19
555.50	58021.88
555.67	58464.24
555.83	58330.83
556.00	58494.67
556.16	58590.63
556.33	58635.10
556.50	58363.60
556.66	58408.07
556.83	58183.38
556.99	59016.61
557.16	58670.21
557.32	58805.96
557.49	58892.56
557.65	58546.16
557.82	58609.35
557.98	58602.33
558.15	58738.08
558.32	58878.52
558.48	58660.85
558.65	58592.97
558.81	58789.58
558.98	58707.66
559.14	58918.31
559.31	58791.92
559.47	58820.00
559.64	58918.31
559.80	58864.47
559.97	58843.41
560.13	58845.75
560.30	58878.52
560.46	58843.41
560.63	59035.33
560.79	58965.12
560.96	59278.75
561.12	59262.36
561.29	58974.48
561.45	59171.08
561.61	59245.98
561.78	59217.89
561.94	59278.75
562.11	59554.93
562.27	59386.41
562.44	59260.02
562.60	59433.22
562.77	59114.91
562.93	59306.83
563.10	59412.16
563.26	59131.29
563.42	59580.68
563.59	59299.81
563.75	59346.62
563.92	59543.23
564.08	59325.56
564.24	59332.58
564.41	59292.79
564.57	59391.09
564.74	59178.10
564.90	59456.63
565.07	59564.29
565.23	59433.22
565.39	59573.66
565.56	59803.03
565.72	59498.76
565.88	59412.16
566.05	59433.22
566.21	59447.27
566.38	59346.62
566.54	59444.93
566.70	59767.92
566.87	59758.56
567.03	59660.26
567.19	60025.38
567.36	59838.14
567.52	59678.98
567.68	59632.17
567.85	59482.37
568.01	59627.49
568.17	59597.06
568.34	59552.59
568.50	59543.23
568.66	59545.57
568.83	59833.46
568.99	59508.12
569.15	59732.81
569.32	59742.17
569.48	59721.11
569.64	59753.88
569.81	59475.35
569.97	59737.49
570.13	59791.33
570.30	59568.97
570.46	59896.65
570.62	59735.15
570.78	59915.37
570.95	59817.07
571.11	59934.10
571.27	59718.77
571.43	59700.04
571.60	59859.20
571.76	59585.36
571.92	59627.49
572.09	59901.33
572.25	60062.83
572.41	59891.97
572.57	59994.95
572.74	60111.98
572.90	59831.11
573.06	59917.71
573.22	59664.94
573.38	59973.89
573.55	59859.20
573.71	60247.73
573.87	59976.23
574.03	60116.66
574.20	59997.29
574.36	59966.87
574.52	60044.10
574.68	60020.70
574.84	60116.66
575.01	60229.01
575.17	60111.98
575.33	59934.10
575.49	60111.98
575.65	60179.85
575.82	60044.10
575.98	60086.23
576.14	60158.79
576.30	60100.28
576.46	59842.82
576.62	59863.88
576.79	59959.84
576.95	59803.03
577.11	59962.18
577.27	60044.10
577.43	59999.63
577.59	60214.96
577.75	60027.72
577.92	59980.91
578.08	59882.61
578.24	60053.47
578.40	60076.87
578.56	60058.15
578.72	60140.07
578.88	60540.30
579.04	60437.31
579.21	60168.15
579.37	60154.11
579.53	60224.32
579.69	60147.09
579.85	60282.84
580.01	60086.23
580.17	60303.90
580.33	60095.60
580.49	60287.52
580.65	60409.23
580.82	60254.75
580.98	60465.40
581.14	60238.37
581.30	60224.32
581.46	60229.01
581.62	60111.98
581.78	60261.77
581.94	60296.88
582.10	59987.93
582.26	60140.07
582.42	60172.83
582.58	60278.16
582.74	60348.37
582.90	60317.95
583.06	60315.61
583.22	60296.88
583.38	60196.24
583.54	59973.89
583.70	60229.01
583.86	60374.12
584.02	60172.83
584.18	60453.70
584.34	60453.70
584.50	60432.63
584.66	60275.82
584.82	60130.70
584.98	60306.24
585.14	60502.85
585.30	60020.70
585.46	60502.85
585.62	60299.22
585.78	60418.59
585.94	60341.35
586.10	60296.88
586.26	60589.45
586.42	60601.15
586.58	60280.50
586.74	60119.00
586.90	60432.63
587.06	60299.22
587.22	60346.03
587.38	60266.45
587.54	60603.49
587.70	60624.56
587.86	60605.83
588.02	60577.75
