SpectraSuite Data File
++++++++++++++++++++++++++++++++++++
Date: Thu Oct 24 13:21:07 EDT 2013
User: stostad
Dark Spectrum Present: No
Reference Spectrum Present: No
Number of Sampled Component Spectra: 1
Spectrometers: USB2+H05261
Integration Time (usec): 100000 (USB2+H05261)
Spectra Averaged: 1 (USB2+H05261)
Boxcar Smoothing: 0 (USB2+H05261)
Correct for Electrical Dark: No (USB2+H05261)
Strobe/Lamp Enabled: No (USB2+H05261)
Correct for Detector Non-linearity: No (USB2+H05261)
Correct for Stray Light: No (USB2+H05261)
Number of Pixels in Processed Spectrum: 2048
>>>>>Begin Processed Spectral Data<<<<<
365.73	585.13
365.92	585.13
366.12	585.13
366.32	425.98
366.52	470.45
366.72	472.79
366.91	440.02
367.11	411.93
367.31	437.68
367.51	423.64
367.70	437.68
367.90	491.51
368.10	477.47
368.30	451.72
368.49	479.81
368.69	524.28
368.89	444.70
369.09	435.34
369.28	517.26
369.48	489.17
369.68	451.72
369.87	458.74
370.07	500.87
370.27	580.45
370.47	582.79
370.66	587.47
370.86	653.01
371.06	709.18
371.25	765.36
371.45	753.65
371.65	734.93
371.84	706.84
372.04	718.54
372.24	777.06
372.44	697.48
372.63	763.01
372.83	767.70
373.03	704.50
373.22	774.72
373.42	767.70
373.62	744.29
373.81	851.96
374.01	814.51
374.21	842.59
374.40	814.51
374.60	777.06
374.79	732.59
374.99	802.80
375.19	849.61
375.38	837.91
375.58	791.10
375.78	772.38
375.97	807.48
376.17	866.00
376.37	858.98
376.56	777.06
376.76	758.33
376.95	741.95
377.15	894.08
377.35	791.10
377.54	798.12
377.74	837.91
377.93	882.38
378.13	798.12
378.33	786.42
378.52	835.57
378.72	889.40
378.91	809.83
379.11	816.85
379.31	861.32
379.50	875.36
379.70	889.40
379.89	823.87
380.09	826.21
380.28	840.25
380.48	842.59
380.68	791.10
380.87	823.87
381.07	877.70
381.26	915.15
381.46	805.14
381.65	809.83
381.85	882.38
382.04	910.47
382.24	915.15
382.43	929.19
382.63	903.45
382.83	814.51
383.02	851.96
383.22	877.70
383.41	884.72
383.61	887.06
383.80	936.21
384.00	795.78
384.19	809.83
384.39	915.15
384.58	926.85
384.78	840.25
384.97	842.59
385.17	875.36
385.36	858.98
385.56	875.36
385.75	954.94
385.95	926.85
386.14	952.60
386.34	976.00
386.53	891.74
386.72	905.79
386.92	999.41
387.11	999.41
387.31	931.53
387.50	992.39
387.70	929.19
387.89	905.79
388.09	924.51
388.28	903.45
388.48	950.26
388.67	1008.77
388.86	915.15
389.06	919.83
389.25	936.21
389.45	966.64
389.64	1006.43
389.84	1006.43
390.03	1055.58
390.22	952.60
390.42	994.73
390.61	954.94
390.81	990.05
391.00	1004.09
391.19	959.62
391.39	980.68
391.58	964.30
391.78	1006.43
391.97	966.64
392.16	1004.09
392.36	1062.60
392.55	1048.56
392.75	1027.50
392.94	1083.67
393.13	1083.67
393.33	1015.79
393.52	1041.54
393.71	1001.75
393.91	1088.35
394.10	1034.52
394.29	1165.59
394.49	1057.92
394.68	1057.92
394.88	1057.92
395.07	1025.15
395.26	1013.45
395.46	1057.92
395.65	1114.10
395.84	1109.41
396.04	1144.52
396.23	1149.20
396.42	1086.01
396.62	1081.33
396.81	1048.56
397.00	1114.10
397.19	1100.05
397.39	1109.41
397.58	1132.82
397.77	1160.91
397.97	1174.95
398.16	1174.95
398.35	1179.63
398.55	1214.74
398.74	1172.61
398.93	1132.82
399.12	1076.65
399.32	1198.35
399.51	1196.01
399.70	1205.38
399.90	1186.65
400.09	1238.14
400.28	1153.88
400.47	1200.69
400.67	1186.65
400.86	1160.91
401.05	1224.10
401.24	1247.51
401.44	1235.80
401.63	1158.57
401.82	1303.68
402.01	1217.08
402.21	1221.76
402.40	1364.53
402.59	1256.87
402.78	1177.29
402.97	1249.85
403.17	1306.02
403.36	1322.40
403.55	1317.72
403.74	1334.11
403.93	1387.94
404.13	1341.13
404.32	1387.94
404.51	1294.32
404.70	1423.05
404.89	1448.79
405.09	1476.88
405.28	1357.51
405.47	1387.94
405.66	1390.28
405.85	1401.98
406.05	1502.62
406.24	1399.64
406.43	1423.05
406.62	1467.52
406.81	1547.09
407.00	1437.09
407.20	1451.13
407.39	1486.24
407.58	1366.87
407.77	1444.11
407.96	1544.75
408.15	1465.18
408.34	1507.30
408.54	1474.54
408.73	1446.45
408.92	1533.05
409.11	1589.22
409.30	1568.16
409.49	1645.40
409.68	1600.93
409.87	1629.01
410.07	1621.99
410.26	1547.09
410.45	1549.43
410.64	1558.80
410.83	1624.33
411.02	1631.35
411.21	1675.82
411.40	1682.85
411.59	1584.54
411.78	1612.63
411.98	1565.82
412.17	1699.23
412.36	1724.97
412.55	1650.08
412.74	1734.34
412.93	1727.32
413.12	1706.25
413.31	1722.63
413.50	1732.00
413.69	1776.47
413.88	1832.64
414.07	1858.39
414.26	1849.02
414.45	1811.57
414.64	1891.15
414.83	1933.28
415.02	1879.45
415.22	1867.75
415.41	1907.54
415.60	1949.67
415.79	1923.92
415.98	1968.39
416.17	1902.86
416.36	1907.54
416.55	1984.77
416.74	1970.73
416.93	1923.92
417.12	1973.07
417.31	2029.24
417.50	1949.67
417.69	2033.93
417.88	2050.31
418.07	2047.97
418.26	1980.09
418.45	2064.35
418.64	2209.47
418.83	2143.93
419.02	2162.66
419.21	2076.06
419.39	2120.53
419.58	2040.95
419.77	2134.57
419.96	2204.78
420.15	2155.63
420.34	2160.31
420.53	2122.87
420.72	2139.25
420.91	2083.08
421.10	2202.44
421.29	2139.25
421.48	2167.34
421.67	2223.51
421.86	2256.28
422.05	2211.81
422.24	2321.81
422.43	2296.07
422.61	2282.02
422.80	2328.83
422.99	2270.32
423.18	2349.90
423.37	2345.22
423.56	2321.81
423.75	2223.51
423.94	2296.07
424.13	2214.15
424.32	2214.15
424.50	2375.64
424.69	2260.96
424.88	2267.98
425.07	2258.62
425.26	2328.83
425.45	2289.04
425.64	2340.54
425.83	2258.62
426.01	2462.24
426.20	2359.26
426.39	2380.32
426.58	2260.96
426.77	2317.13
426.96	2403.73
427.15	2321.81
427.33	2340.54
427.52	2321.81
427.71	2408.41
427.90	2349.90
428.09	2377.98
428.28	2455.22
428.46	2396.71
428.65	2464.58
428.84	2525.44
429.03	2509.05
429.22	2347.56
429.40	2490.33
429.59	2464.58
429.78	2382.67
429.97	2310.11
430.16	2457.56
430.34	2452.88
430.53	2401.39
430.72	2572.25
430.91	2548.84
431.10	2443.52
431.28	2499.69
431.47	2546.50
431.66	2534.80
431.85	2511.39
432.03	2654.17
432.22	2693.96
432.41	2658.85
432.60	2668.21
432.79	2672.89
432.97	2619.06
433.16	2649.49
433.35	2605.02
433.54	2630.76
433.72	2654.17
433.91	2672.89
434.10	2691.62
434.28	2572.25
434.47	2642.46
434.66	2822.69
434.85	2871.84
435.03	2920.99
435.22	3082.49
435.41	3197.17
435.59	3159.72
435.78	3007.59
435.97	3126.96
436.16	2892.90
436.34	2757.15
436.53	2918.65
436.72	2759.49
436.90	2897.58
437.09	2902.26
437.28	2815.66
437.46	2867.16
437.65	2897.58
437.84	2888.22
438.02	2895.24
438.21	3007.59
438.40	2904.60
438.58	2965.46
438.77	3038.02
438.96	2981.84
439.14	3094.19
439.33	3049.72
439.52	3108.23
439.70	3166.74
439.89	3068.44
440.08	3066.10
440.26	3091.85
440.45	3026.31
440.63	3166.74
440.82	3227.60
441.01	3197.17
441.19	3234.62
441.38	3201.85
441.57	3297.81
441.75	3332.92
441.94	3424.20
442.12	3227.60
442.31	3213.56
442.50	3316.54
442.68	3356.33
442.87	3293.13
443.05	3229.94
443.24	3428.88
443.43	3391.44
443.61	3564.64
443.80	3529.53
443.98	3342.28
444.17	3220.58
444.35	3358.67
444.54	3417.18
444.73	3346.97
444.91	3428.88
445.10	3433.57
445.28	3569.32
445.47	3461.65
445.65	3501.44
445.84	3506.12
446.02	3471.01
446.21	3618.47
446.39	3426.54
446.58	3471.01
446.77	3513.14
446.95	3454.63
447.14	3531.87
447.32	3466.33
447.51	3468.67
447.69	3492.08
447.88	3466.33
448.06	3461.65
448.25	3485.06
448.43	3581.02
448.62	3660.60
448.80	3566.98
448.99	3686.34
449.17	3559.95
449.36	3627.83
449.54	3709.75
449.73	3679.32
449.91	3702.73
450.10	3637.19
450.28	3803.37
450.46	3744.86
450.65	3595.06
450.83	3784.65
451.02	3618.47
451.20	3770.60
451.39	3691.02
451.57	3684.00
451.76	3726.13
451.94	3794.01
452.13	3861.88
452.31	3709.75
452.49	3684.00
452.68	3794.01
452.86	3911.04
453.05	3808.05
453.23	3824.44
453.42	3829.12
453.60	3871.25
453.78	3864.22
453.97	3922.74
454.15	3904.01
454.34	3918.06
454.52	3974.23
454.70	3927.42
454.89	3899.33
455.07	4004.66
455.26	3896.99
455.44	3906.35
455.62	3939.12
455.81	3962.53
455.99	4117.00
456.17	4156.79
456.36	4030.40
456.54	4098.28
456.73	4128.70
456.91	4224.67
457.09	4194.24
457.28	4191.90
457.46	4077.21
457.64	4184.88
457.83	4156.79
458.01	4212.96
458.19	4227.01
458.38	4180.20
458.56	4145.09
458.74	4198.92
458.93	4276.16
459.11	4332.33
459.29	4264.46
459.48	4276.16
459.66	4423.61
459.84	4301.90
460.03	4327.65
460.21	4327.65
460.39	4461.06
460.57	4351.06
460.76	4432.97
460.94	4498.51
461.12	4465.74
461.31	4465.74
461.49	4432.97
461.67	4470.42
461.85	4526.60
462.04	4414.25
462.22	4802.78
462.40	4683.41
462.59	4447.02
462.77	4507.87
462.95	4547.66
463.13	4505.53
463.32	4496.17
463.50	4533.62
463.68	4608.51
463.86	4594.47
464.05	4533.62
464.23	4517.23
464.41	4550.00
464.59	4552.34
464.78	4603.83
464.96	4683.41
465.14	4510.21
465.32	4702.14
465.50	4741.93
465.69	4830.87
465.87	4622.56
466.05	4760.65
466.23	4774.69
466.41	4748.95
466.60	4779.37
466.78	4882.36
466.96	4655.33
467.14	4781.71
467.32	4931.51
467.51	4880.02
467.69	4772.35
467.87	4889.38
468.05	4966.62
468.23	4933.85
468.41	4791.08
468.60	4791.08
468.78	4854.27
468.96	4762.99
469.14	4936.19
469.32	5076.62
469.50	4870.65
469.69	5085.98
469.87	5100.03
470.05	4950.23
470.23	5224.08
470.41	5067.26
470.59	5090.67
470.77	4999.38
470.95	5163.22
471.14	5334.08
471.32	5135.14
471.50	5179.61
471.68	5097.69
471.86	5191.31
472.04	5282.59
472.22	5233.44
472.40	5158.54
472.58	5308.34
472.77	5296.63
472.95	5294.29
473.13	5366.85
473.31	5256.84
473.49	5427.70
473.67	5408.98
473.85	5411.32
474.03	5420.68
474.21	5549.41
474.39	5465.15
474.57	5493.24
474.75	5713.25
474.93	5612.60
475.12	5404.30
475.30	5577.50
475.48	5675.80
475.66	5685.16
475.84	5638.35
476.02	5858.36
476.20	5916.87
476.38	5940.28
476.56	5944.96
476.74	6001.13
476.92	5942.62
477.10	5872.40
477.28	6162.63
477.46	6193.06
477.64	6193.06
477.82	6139.23
478.00	6179.01
478.18	6265.61
478.36	6286.68
478.54	6263.27
478.72	6272.64
478.90	6455.20
479.08	6424.77
479.26	6553.50
479.44	6525.41
479.62	6715.00
479.80	6733.72
479.98	6817.98
480.16	6939.69
480.34	6640.10
480.52	6794.58
480.70	6789.89
480.88	6789.89
481.06	6888.20
481.24	6796.92
481.41	7028.63
481.59	7304.81
481.77	7124.59
481.95	7220.55
482.13	7283.75
482.31	7192.47
482.49	7365.67
482.67	7250.98
482.85	7368.01
483.03	7672.28
483.21	7424.18
483.39	7559.93
483.57	7407.80
483.74	7683.98
483.92	7789.30
484.10	7754.19
484.28	7786.96
484.46	7754.19
484.64	8063.15
484.82	8046.76
485.00	7981.23
485.18	8056.12
485.35	8175.49
485.53	8147.40
485.71	8468.06
485.89	8475.08
486.07	8367.42
486.25	8484.44
486.43	8648.28
486.61	8631.90
486.78	8667.00
486.96	8599.13
487.14	8840.20
487.32	8746.58
487.50	8887.01
487.68	8875.31
487.85	9221.71
488.03	9195.96
488.21	9156.18
488.39	9163.20
488.57	9408.95
488.75	9380.87
488.92	9497.89
489.10	9507.26
489.28	9460.45
489.46	9643.01
489.64	9568.11
489.81	9947.28
489.99	9689.82
490.17	9907.49
490.35	9764.72
490.53	10057.28
490.70	10087.71
490.88	9902.81
491.06	10178.99
491.24	10045.58
491.41	10319.42
491.59	10581.56
491.77	10466.88
491.95	10492.62
492.13	10565.18
492.30	10466.88
492.48	10581.56
492.66	10780.51
492.84	10616.67
493.01	10878.81
493.19	10661.14
493.37	10993.50
493.54	11068.39
493.72	11014.56
493.90	11154.99
494.08	11185.42
494.25	11335.21
494.43	11222.87
494.61	11293.08
494.79	11332.87
494.96	11332.87
495.14	11445.22
495.32	11527.14
495.49	11777.58
495.67	11552.88
495.85	11623.10
496.02	11887.58
496.20	12009.29
496.38	11580.97
496.55	11967.16
496.73	12194.19
496.91	11896.94
497.09	12189.51
497.26	12006.95
497.44	12046.74
497.62	12149.72
497.79	12390.80
497.97	12264.41
498.14	12400.16
498.32	12407.18
498.50	12259.73
498.67	12599.10
498.85	12451.65
499.03	12702.09
499.20	12505.48
499.38	12975.93
499.56	12774.64
499.73	12901.03
499.91	12868.27
500.08	12943.16
500.26	12828.48
500.44	12844.86
500.61	13025.08
500.79	13228.71
500.97	13401.91
501.14	13483.83
501.32	13467.44
501.49	13324.67
501.67	13235.73
501.84	13310.63
502.02	13170.19
502.20	13523.62
502.37	13565.74
502.55	13603.19
502.72	13678.09
502.90	13731.92
503.07	13439.36
503.25	13729.58
503.43	13680.43
503.60	13664.05
503.78	14092.37
503.95	13902.78
504.13	13991.72
504.30	13635.96
504.48	13989.38
504.65	14001.08
504.83	14195.35
505.01	14256.20
505.18	14235.14
505.36	14408.34
505.53	14242.16
505.71	14253.86
505.88	14693.88
506.06	14265.57
506.23	14455.15
506.41	14270.25
506.58	14251.52
506.76	14560.47
506.93	14668.14
507.11	14623.67
507.28	14630.69
507.46	14551.11
507.63	14878.79
507.81	14874.10
507.98	14874.10
508.16	14953.68
508.33	14876.44
508.50	14731.33
508.68	15370.30
508.85	15178.37
509.03	14993.47
509.20	14988.79
509.38	15431.15
509.55	15185.40
509.73	15365.62
509.90	15447.54
510.08	15623.08
510.25	15566.90
510.42	15690.95
510.60	15468.60
510.77	15672.23
510.95	15653.50
511.12	15578.61
511.30	15625.42
511.47	15639.46
511.64	15800.96
511.82	16004.58
511.99	15641.80
512.17	16002.24
512.34	15983.52
512.51	16236.30
512.69	16044.37
512.86	15843.09
513.04	16161.40
513.21	16215.23
513.38	16248.00
513.56	16182.46
513.73	16102.89
513.90	16533.54
514.08	16173.10
514.25	16566.31
514.43	16545.25
514.60	16290.13
514.77	16566.31
514.95	16479.71
515.12	16341.62
515.29	16924.41
515.47	16783.98
515.64	16877.60
515.81	16716.11
515.99	16718.45
516.16	16786.32
516.33	16678.66
516.51	17018.04
516.68	17029.74
516.85	17069.53
517.03	17289.54
517.20	17142.08
517.37	16891.65
517.54	16882.28
517.72	17202.94
517.89	16891.65
518.06	17039.10
518.24	17128.04
518.41	17610.19
518.58	17448.69
518.75	16982.93
518.93	17191.23
519.10	17448.69
519.27	17231.02
519.45	17364.43
519.62	17743.60
519.79	17830.20
519.96	17312.94
520.14	17717.86
520.31	17458.06
520.48	17561.04
520.65	17647.64
520.83	17727.22
521.00	17755.30
521.17	17652.32
521.34	17497.84
521.52	17689.77
521.69	17785.73
521.86	17792.75
522.03	17837.22
522.20	18097.02
522.38	18141.49
522.55	18094.68
522.72	17734.24
522.89	18024.47
523.07	18354.48
523.24	18008.08
523.41	18239.79
523.58	18183.62
523.75	18553.43
523.92	18412.99
524.10	18401.29
524.27	18267.88
524.44	18459.81
524.61	18284.26
524.78	18434.06
524.96	18445.76
525.13	18714.92
525.30	18965.36
525.47	18754.71
525.64	18597.90
525.81	18424.70
525.98	18436.40
526.16	18757.05
526.33	18527.68
526.50	19033.24
526.67	18747.69
526.84	18794.50
527.01	18888.12
527.18	18733.65
527.36	18939.62
527.53	18941.96
527.70	19246.23
527.87	19051.96
528.04	18944.30
528.21	19307.08
528.38	18944.30
528.55	19421.77
528.72	18998.13
528.89	19262.61
529.07	19274.31
529.24	19377.30
529.41	19447.51
529.58	19522.41
529.75	19475.60
529.92	19267.29
530.09	19145.58
530.26	19604.33
530.43	19520.07
530.60	19456.87
530.77	19508.37
530.94	19721.35
531.11	19424.11
531.28	19288.35
531.46	19981.15
531.63	19798.59
531.80	19506.02
531.97	19868.81
532.14	19833.70
532.31	19875.83
532.48	20084.14
532.65	19786.89
532.82	19843.06
532.99	20093.50
533.16	19765.82
533.33	19941.36
533.50	19924.98
533.67	19885.19
533.84	19779.87
534.01	20020.94
534.18	20074.77
534.35	20051.37
534.52	20194.14
534.69	20077.12
534.86	20463.30
535.03	19892.21
535.20	20327.55
535.37	20147.33
535.54	20294.79
535.71	19999.88
535.88	20411.81
536.05	20114.56
536.22	20360.32
536.38	20589.69
536.55	20084.14
536.72	20489.05
536.89	20664.59
537.06	20594.37
537.23	20720.76
537.40	20531.18
537.57	20507.77
537.74	20692.68
537.91	20744.17
538.08	20519.48
538.25	20699.70
538.42	20908.01
538.59	20973.54
538.75	21022.69
538.92	20950.14
539.09	21046.10
539.26	20702.04
539.43	21053.12
539.60	20957.16
539.77	21191.21
539.94	21249.72
540.11	21326.96
540.28	21216.96
540.44	21226.32
540.61	21181.85
540.78	20800.34
540.95	20861.19
541.12	21397.18
541.29	21443.99
541.46	21532.93
541.62	21766.98
541.79	21645.27
541.96	21692.08
542.13	21656.98
542.30	21394.84
542.47	21671.02
542.63	21944.86
542.80	21961.25
542.97	22036.14
543.14	21965.93
543.31	22031.46
543.48	21734.21
543.64	22047.85
543.81	22221.05
543.98	22237.43
544.15	21848.90
544.32	22169.55
544.48	22202.32
544.65	21649.96
544.82	22209.34
544.99	21996.35
545.16	21893.37
545.32	22127.42
545.49	22623.62
545.66	23136.20
545.83	23171.30
546.00	23173.64
546.16	22965.34
546.33	22607.23
546.50	22293.60
546.67	22506.59
546.83	21905.07
547.00	22459.78
547.17	22092.32
547.34	22162.53
547.50	22555.74
547.67	22396.59
547.84	22436.38
548.00	22422.33
548.17	22359.14
548.34	22197.64
548.51	22389.56
548.67	22569.79
548.84	22419.99
549.01	22567.45
549.18	22366.16
549.34	22670.43
549.51	22824.90
549.68	22450.42
549.84	22438.72
550.01	22279.56
550.18	22291.26
550.34	22216.36
550.51	22272.54
550.68	22658.73
550.84	22181.26
551.01	22799.16
551.18	22733.62
551.34	22319.35
551.51	22679.79
551.68	22537.02
551.84	22576.81
552.01	22590.85
552.18	22438.72
552.34	22637.66
552.51	22675.11
552.68	22544.04
552.84	22960.66
553.01	23012.15
553.18	22813.20
553.34	22398.93
553.51	22602.55
553.67	22871.72
553.84	23000.44
554.01	23201.73
554.17	22747.67
554.34	22857.67
554.51	22684.47
554.67	22937.25
554.84	23016.83
555.00	22993.42
555.17	22583.83
555.33	22944.27
555.50	22803.84
555.67	23096.41
555.83	22941.93
556.00	23047.26
556.16	23236.84
556.33	23054.28
556.50	22951.29
556.66	22934.91
556.83	22951.29
556.99	23044.91
557.16	23185.35
557.32	23201.73
557.49	23381.95
557.65	23084.70
557.82	23171.30
557.98	23105.77
558.15	23283.65
558.32	23508.34
558.48	23220.45
558.65	23218.11
558.81	23293.01
558.98	23180.67
559.14	23358.55
559.31	22913.84
559.47	23091.73
559.64	23131.51
559.80	23316.42
559.97	23274.29
560.13	22792.14
560.30	23316.42
560.46	23452.17
560.63	23442.81
560.79	23700.26
560.96	23403.02
561.12	23269.61
561.29	23250.88
561.45	23356.21
561.61	23431.10
561.78	23234.50
561.94	23688.56
562.11	23590.26
562.27	23639.41
562.44	23398.34
562.60	23405.36
562.77	23461.53
562.93	23445.15
563.10	23300.03
563.26	23358.55
563.42	23681.54
563.59	23590.26
563.75	23637.07
563.92	23728.35
564.08	23585.58
564.24	23583.24
564.41	23578.56
564.57	23728.35
564.74	23651.11
564.90	23658.14
565.07	23585.58
565.23	23620.69
565.39	23414.72
565.56	23538.77
565.72	23648.77
565.88	23702.61
566.05	23328.12
566.21	23405.36
566.38	23601.96
566.54	23721.33
566.70	23658.14
566.87	23866.44
567.03	23669.84
567.19	24020.92
567.36	23983.47
567.52	23576.22
567.68	23674.52
567.85	23873.46
568.01	23681.54
568.17	23742.39
568.34	23641.75
568.50	24177.73
568.66	23534.09
568.83	24067.73
568.99	23697.92
569.15	23798.57
569.32	23756.44
569.48	23695.58
569.64	23594.94
569.81	23967.09
569.97	23431.10
570.13	23459.19
570.30	23672.18
570.46	23810.27
570.62	23756.44
570.78	23740.05
570.95	23545.79
571.11	24095.82
571.27	23330.46
571.43	23599.62
571.60	24074.75
571.76	23630.05
571.92	24198.80
572.09	23946.02
572.25	23964.75
572.41	24226.89
572.57	24233.91
572.74	23747.08
572.90	23618.35
573.06	24467.96
573.22	23847.72
573.38	23892.19
573.55	24086.45
573.71	23761.12
573.87	23894.53
574.03	23955.38
574.20	24074.75
574.36	24173.05
574.52	23964.75
574.68	23871.12
574.84	24081.77
575.01	24226.89
575.17	23843.04
575.33	23903.89
575.49	23770.48
575.65	23803.25
575.82	24079.43
575.98	24046.66
576.14	24009.22
576.30	23777.50
576.46	23981.13
576.62	24095.82
576.79	24325.19
576.95	24013.90
577.11	23990.49
577.27	24243.27
577.43	24341.57
577.59	23828.99
577.75	23941.34
577.92	23908.57
578.08	24006.87
578.24	23943.68
578.40	24297.10
578.56	24084.11
578.72	24624.78
578.88	24453.92
579.04	24535.84
579.21	24121.56
579.37	24287.74
579.53	24196.46
579.69	24027.94
579.85	24041.98
580.01	23896.87
580.17	24081.77
580.33	24142.63
580.49	24168.37
580.65	23990.49
580.82	24053.69
580.98	24320.51
581.14	24271.36
581.30	24156.67
581.46	24126.24
581.62	23899.21
581.78	23953.04
581.94	24313.48
582.10	23913.25
582.26	24301.78
582.42	24105.18
582.58	24046.66
582.74	24107.52
582.90	24184.76
583.06	24233.91
583.22	23847.72
583.38	24194.12
583.54	24416.47
583.70	23920.28
583.86	23941.34
584.02	23807.93
584.18	24369.66
584.34	23995.17
584.50	24182.42
584.66	23976.45
584.82	24016.24
584.98	23955.38
585.14	24292.42
585.30	24109.86
585.46	24233.91
585.62	23964.75
585.78	24198.80
585.94	24362.64
586.10	24404.77
586.26	24517.11
586.42	24451.58
586.58	24489.03
586.74	24163.69
586.90	24252.63
587.06	24692.65
587.22	24474.98
587.38	24474.98
587.54	24397.74
587.70	24599.03
587.86	24379.02
588.02	24084.11
588.18	24381.36
588.34	24617.75
588.49	24648.18
588.65	24383.70
588.81	24187.10
588.97	24313.48
589.13	24292.42
589.29	24477.32
589.45	24332.21
589.61	24105.18
589.77	24432.85
589.93	23882.83
590.08	24582.65
590.24	24561.58
590.40	24364.98
590.56	24442.21
590.72	24065.39
590.88	24170.71
