SpectraSuite Data File
++++++++++++++++++++++++++++++++++++
Date: Thu Oct 24 13:20:58 EDT 2013
User: stostad
Dark Spectrum Present: No
Reference Spectrum Present: No
Number of Sampled Component Spectra: 1
Spectrometers: USB2+H05261
Integration Time (usec): 100000 (USB2+H05261)
Spectra Averaged: 1 (USB2+H05261)
Boxcar Smoothing: 0 (USB2+H05261)
Correct for Electrical Dark: No (USB2+H05261)
Strobe/Lamp Enabled: No (USB2+H05261)
Correct for Detector Non-linearity: No (USB2+H05261)
Correct for Stray Light: No (USB2+H05261)
Number of Pixels in Processed Spectrum: 2048
>>>>>Begin Processed Spectral Data<<<<<
365.73	552.37
365.92	552.37
366.12	552.37
366.32	498.53
366.52	428.32
366.72	428.32
366.91	496.19
367.11	456.40
367.31	454.06
367.51	407.25
367.70	435.34
367.90	402.57
368.10	456.40
368.30	393.21
368.49	512.58
368.69	493.85
368.89	498.53
369.09	451.72
369.28	482.15
369.48	465.77
369.68	543.00
369.87	498.53
370.07	547.69
370.27	535.98
370.47	615.56
370.66	561.73
370.86	543.00
371.06	622.58
371.25	592.16
371.45	620.24
371.65	617.90
371.84	587.47
372.04	596.84
372.24	589.82
372.44	627.26
372.63	589.82
372.83	669.39
373.03	622.58
373.22	559.39
373.42	748.97
373.62	617.90
373.81	624.92
374.01	634.29
374.21	671.73
374.40	631.94
374.60	704.50
374.79	660.03
374.99	531.30
375.19	662.37
375.38	653.01
375.58	601.52
375.78	631.94
375.97	601.52
376.17	671.73
376.37	653.01
376.56	650.67
376.76	599.18
376.95	634.29
377.15	617.90
377.35	594.50
377.54	601.52
377.74	650.67
377.93	709.18
378.13	596.84
378.33	559.39
378.52	564.07
378.72	587.47
378.91	631.94
379.11	608.54
379.31	638.97
379.50	557.05
379.70	594.50
379.89	617.90
380.09	620.24
380.28	606.20
380.48	566.41
380.68	688.12
380.87	589.82
381.07	627.26
381.26	664.71
381.46	676.41
381.65	615.56
381.85	636.63
382.04	650.67
382.24	559.39
382.43	575.77
382.63	608.54
382.83	667.05
383.02	650.67
383.22	617.90
383.41	681.10
383.61	617.90
383.80	587.47
384.00	620.24
384.19	685.78
384.39	613.22
384.58	636.63
384.78	627.26
384.97	664.71
385.17	603.86
385.36	596.84
385.56	655.35
385.75	657.69
385.95	629.60
386.14	648.33
386.34	575.77
386.53	657.69
386.72	660.03
386.92	629.60
387.11	676.41
387.31	681.10
387.50	582.79
387.70	566.41
387.89	582.79
388.09	587.47
388.28	622.58
388.48	638.97
388.67	627.26
388.86	622.58
389.06	657.69
389.25	610.88
389.45	615.56
389.64	578.11
389.84	671.73
390.03	650.67
390.22	587.47
390.42	617.90
390.61	578.11
390.81	610.88
391.00	615.56
391.19	641.31
391.39	631.94
391.58	655.35
391.78	653.01
391.97	695.14
392.16	622.58
392.36	610.88
392.55	664.71
392.75	653.01
392.94	643.65
393.13	676.41
393.33	594.50
393.52	580.45
393.71	645.99
393.91	594.50
394.10	550.03
394.29	615.56
394.49	566.41
394.68	608.54
394.88	585.13
395.07	599.18
395.26	620.24
395.46	610.88
395.65	550.03
395.84	622.58
396.04	636.63
396.23	660.03
396.42	624.92
396.62	575.77
396.81	634.29
397.00	601.52
397.19	608.54
397.39	660.03
397.58	641.31
397.77	608.54
397.97	664.71
398.16	622.58
398.35	676.41
398.55	615.56
398.74	608.54
398.93	653.01
399.12	650.67
399.32	606.20
399.51	613.22
399.70	622.58
399.90	638.97
400.09	564.07
400.28	578.11
400.47	524.28
400.67	585.13
400.86	601.52
401.05	615.56
401.24	596.84
401.44	617.90
401.63	631.94
401.82	587.47
402.01	510.24
402.21	641.31
402.40	617.90
402.59	683.44
402.78	617.90
402.97	580.45
403.17	622.58
403.36	613.22
403.55	664.71
403.74	695.14
403.93	650.67
404.13	734.93
404.32	690.46
404.51	671.73
404.70	791.10
404.89	653.01
405.09	638.97
405.28	655.35
405.47	601.52
405.66	519.60
405.85	685.78
406.05	664.71
406.24	587.47
406.43	580.45
406.62	601.52
406.81	629.60
407.00	594.50
407.20	629.60
407.39	636.63
407.58	638.97
407.77	620.24
407.96	664.71
408.15	634.29
408.34	601.52
408.54	664.71
408.73	688.12
408.92	627.26
409.11	615.56
409.30	667.05
409.49	603.86
409.68	575.77
409.87	634.29
410.07	596.84
410.26	573.43
410.45	615.56
410.64	603.86
410.83	613.22
411.02	667.05
411.21	641.31
411.40	643.65
411.59	655.35
411.78	629.60
411.98	641.31
412.17	589.82
412.36	683.44
412.55	667.05
412.74	688.12
412.93	641.31
413.12	592.16
413.31	660.03
413.50	641.31
413.69	643.65
413.88	617.90
414.07	601.52
414.26	608.54
414.45	613.22
414.64	653.01
414.83	641.31
415.02	674.07
415.22	624.92
415.41	634.29
415.60	622.58
415.79	575.77
415.98	622.58
416.17	643.65
416.36	624.92
416.55	650.67
416.74	627.26
416.93	585.13
417.12	613.22
417.31	674.07
417.50	617.90
417.69	610.88
417.88	587.47
418.07	683.44
418.26	599.18
418.45	608.54
418.64	723.23
418.83	608.54
419.02	641.31
419.21	662.37
419.39	620.24
419.58	573.43
419.77	538.32
419.96	634.29
420.15	631.94
420.34	692.80
420.53	547.69
420.72	606.20
420.91	655.35
421.10	645.99
421.29	641.31
421.48	664.71
421.67	662.37
421.86	608.54
422.05	587.47
422.24	601.52
422.43	643.65
422.61	667.05
422.80	582.79
422.99	606.20
423.18	550.03
423.37	650.67
423.56	608.54
423.75	573.43
423.94	599.18
424.13	610.88
424.32	599.18
424.50	676.41
424.69	671.73
424.88	655.35
425.07	571.09
425.26	582.79
425.45	629.60
425.64	617.90
425.83	662.37
426.01	645.99
426.20	669.39
426.39	669.39
426.58	713.86
426.77	603.86
426.96	627.26
427.15	620.24
427.33	645.99
427.52	641.31
427.71	695.14
427.90	648.33
428.09	653.01
428.28	634.29
428.46	610.88
428.65	606.20
428.84	692.80
429.03	690.46
429.22	713.86
429.40	617.90
429.59	613.22
429.78	688.12
429.97	657.69
430.16	624.92
430.34	748.97
430.53	641.31
430.72	622.58
430.91	620.24
431.10	695.14
431.28	629.60
431.47	606.20
431.66	648.33
431.85	589.82
432.03	641.31
432.22	697.48
432.41	638.97
432.60	617.90
432.79	582.79
432.97	608.54
433.16	641.31
433.35	641.31
433.54	692.80
433.72	653.01
433.91	648.33
434.10	599.18
434.28	610.88
434.47	678.76
434.66	678.76
434.85	620.24
435.03	793.44
435.22	1004.09
435.41	1146.86
435.59	1067.28
435.78	954.94
435.97	877.70
436.16	847.27
436.34	571.09
436.53	702.16
436.72	664.71
436.90	596.84
437.09	617.90
437.28	594.50
437.46	629.60
437.65	653.01
437.84	704.50
438.02	669.39
438.21	592.16
438.40	622.58
438.58	575.77
438.77	617.90
438.96	660.03
439.14	634.29
439.33	596.84
439.52	552.37
439.70	603.86
439.89	674.07
440.08	657.69
440.26	636.63
440.45	613.22
440.63	650.67
440.82	655.35
441.01	634.29
441.19	657.69
441.38	589.82
441.57	648.33
441.75	641.31
441.94	624.92
442.12	589.82
442.31	695.14
442.50	667.05
442.68	573.43
442.87	622.58
443.05	706.84
443.24	561.73
443.43	636.63
443.61	678.76
443.80	674.07
443.98	643.65
444.17	587.47
444.35	641.31
444.54	603.86
444.73	627.26
444.91	692.80
445.10	615.56
445.28	624.92
445.47	697.48
445.65	662.37
445.84	608.54
446.02	662.37
446.21	648.33
446.39	655.35
446.58	706.84
446.77	589.82
446.95	547.69
447.14	692.80
447.32	650.67
447.51	648.33
447.69	596.84
447.88	603.86
448.06	681.10
448.25	629.60
448.43	606.20
448.62	653.01
448.80	631.94
448.99	685.78
449.17	617.90
449.36	692.80
449.54	617.90
449.73	674.07
449.91	608.54
450.10	638.97
450.28	645.99
450.46	678.76
450.65	613.22
450.83	653.01
451.02	653.01
451.20	622.58
451.39	641.31
451.57	573.43
451.76	660.03
451.94	620.24
452.13	660.03
452.31	634.29
452.49	674.07
452.68	653.01
452.86	676.41
453.05	631.94
453.23	613.22
453.42	631.94
453.60	681.10
453.78	620.24
453.97	683.44
454.15	716.20
454.34	660.03
454.52	613.22
454.70	617.90
454.89	645.99
455.07	653.01
455.26	641.31
455.44	655.35
455.62	706.84
455.81	617.90
455.99	608.54
456.17	587.47
456.36	587.47
456.54	641.31
456.73	613.22
456.91	645.99
457.09	660.03
457.28	641.31
457.46	634.29
457.64	638.97
457.83	608.54
458.01	676.41
458.19	599.18
458.38	606.20
458.56	648.33
458.74	648.33
458.93	606.20
459.11	622.58
459.29	688.12
459.48	622.58
459.66	692.80
459.84	603.86
460.03	645.99
460.21	643.65
460.39	622.58
460.57	711.52
460.76	657.69
460.94	704.50
461.12	636.63
461.31	669.39
461.49	620.24
461.67	643.65
461.85	664.71
462.04	650.67
462.22	968.98
462.40	622.58
462.59	685.78
462.77	610.88
462.95	655.35
463.13	636.63
463.32	582.79
463.50	613.22
463.68	571.09
463.86	641.31
464.05	662.37
464.23	704.50
464.41	669.39
464.59	667.05
464.78	594.50
464.96	631.94
465.14	601.52
465.32	603.86
465.50	699.82
465.69	720.88
465.87	603.86
466.05	629.60
466.23	645.99
466.41	634.29
466.60	613.22
466.78	624.92
466.96	653.01
467.14	681.10
467.32	660.03
467.51	617.90
467.69	690.46
467.87	695.14
468.05	653.01
468.23	681.10
468.41	599.18
468.60	582.79
468.78	641.31
468.96	657.69
469.14	767.70
469.32	620.24
469.50	645.99
469.69	636.63
469.87	681.10
470.05	641.31
470.23	760.67
470.41	671.73
470.59	578.11
470.77	627.26
470.95	615.56
471.14	681.10
471.32	720.88
471.50	653.01
471.68	723.23
471.86	653.01
472.04	622.58
472.22	667.05
472.40	617.90
472.58	638.97
472.77	645.99
472.95	596.84
473.13	709.18
473.31	664.71
473.49	702.16
473.67	608.54
473.85	571.09
474.03	746.63
474.21	629.60
474.39	601.52
474.57	667.05
474.75	657.69
474.93	667.05
475.12	645.99
475.30	585.13
475.48	550.03
475.66	702.16
475.84	645.99
476.02	641.31
476.20	697.48
476.38	706.84
476.56	650.67
476.74	622.58
476.92	676.41
477.10	690.46
477.28	636.63
477.46	636.63
477.64	650.67
477.82	674.07
478.00	688.12
478.18	688.12
478.36	594.50
478.54	641.31
478.72	671.73
478.90	650.67
479.08	627.26
479.26	671.73
479.44	706.84
479.62	695.14
479.80	645.99
479.98	706.84
480.16	650.67
480.34	627.26
480.52	603.86
480.70	690.46
480.88	688.12
481.06	641.31
481.24	676.41
481.41	653.01
481.59	674.07
481.77	692.80
481.95	706.84
482.13	702.16
482.31	702.16
482.49	660.03
482.67	622.58
482.85	669.39
483.03	718.54
483.21	695.14
483.39	638.97
483.57	615.56
483.74	746.63
483.92	664.71
484.10	678.76
484.28	664.71
484.46	753.65
484.64	699.82
484.82	765.36
485.00	760.67
485.18	760.67
485.35	711.52
485.53	634.29
485.71	772.38
485.89	664.71
486.07	669.39
486.25	674.07
486.43	800.46
486.61	709.18
486.78	695.14
486.96	704.50
487.14	737.27
487.32	711.52
487.50	791.10
487.68	727.91
487.85	692.80
488.03	725.57
488.21	755.99
488.39	725.57
488.57	744.29
488.75	676.41
488.92	702.16
489.10	751.31
489.28	763.01
489.46	653.01
489.64	702.16
489.81	690.46
489.99	704.50
490.17	653.01
490.35	755.99
490.53	697.48
490.70	751.31
490.88	763.01
491.06	695.14
491.24	692.80
491.41	681.10
491.59	713.86
491.77	709.18
491.95	638.97
492.13	709.18
492.30	711.52
492.48	692.80
492.66	690.46
492.84	744.29
493.01	629.60
493.19	688.12
493.37	746.63
493.54	763.01
493.72	734.93
493.90	697.48
494.08	765.36
494.25	648.33
494.43	641.31
494.61	561.73
494.79	681.10
494.96	699.82
495.14	711.52
495.32	737.27
495.49	648.33
495.67	727.91
495.85	730.25
496.02	704.50
496.20	690.46
496.38	777.06
496.55	643.65
496.73	676.41
496.91	671.73
497.09	683.44
497.26	641.31
497.44	706.84
497.62	610.88
497.79	704.50
497.97	734.93
498.14	657.69
498.32	802.80
498.50	664.71
498.67	732.59
498.85	709.18
499.03	636.63
499.20	648.33
499.38	681.10
499.56	645.99
499.73	657.69
499.91	678.76
500.08	692.80
500.26	681.10
500.44	690.46
500.61	645.99
500.79	681.10
500.97	685.78
501.14	678.76
501.32	636.63
501.49	643.65
501.67	610.88
501.84	638.97
502.02	603.86
502.20	678.76
502.37	681.10
502.55	615.56
502.72	620.24
502.90	653.01
503.07	634.29
503.25	683.44
503.43	624.92
503.60	664.71
503.78	627.26
503.95	667.05
504.13	741.95
504.30	634.29
504.48	660.03
504.65	690.46
504.83	709.18
505.01	599.18
505.18	650.67
505.36	641.31
505.53	660.03
505.71	631.94
505.88	683.44
506.06	702.16
506.23	617.90
506.41	643.65
506.58	608.54
506.76	643.65
506.93	660.03
507.11	678.76
507.28	615.56
507.46	697.48
507.63	692.80
507.81	655.35
507.98	720.88
508.16	674.07
508.33	606.20
508.50	744.29
508.68	617.90
508.85	620.24
509.03	681.10
509.20	662.37
509.38	624.92
509.55	624.92
509.73	674.07
509.90	664.71
510.08	681.10
510.25	627.26
510.42	711.52
510.60	601.52
510.77	669.39
510.95	688.12
511.12	634.29
511.30	653.01
511.47	674.07
511.64	723.23
511.82	704.50
511.99	627.26
512.17	650.67
512.34	610.88
512.51	622.58
512.69	653.01
512.86	653.01
513.04	606.20
513.21	648.33
513.38	620.24
513.56	674.07
513.73	603.86
513.90	599.18
514.08	550.03
514.25	709.18
514.43	660.03
514.60	550.03
514.77	634.29
514.95	622.58
515.12	664.71
515.29	631.94
515.47	660.03
515.64	634.29
515.81	664.71
515.99	636.63
516.16	660.03
516.33	730.25
516.51	653.01
516.68	592.16
516.85	634.29
517.03	575.77
517.20	648.33
517.37	608.54
517.54	664.71
517.72	667.05
517.89	645.99
518.06	564.07
518.24	674.07
518.41	667.05
518.58	643.65
518.75	592.16
518.93	643.65
519.10	650.67
519.27	671.73
519.45	578.11
519.62	706.84
519.79	674.07
519.96	671.73
520.14	730.25
520.31	636.63
520.48	676.41
520.65	681.10
520.83	631.94
521.00	594.50
521.17	627.26
521.34	662.37
521.52	681.10
521.69	688.12
521.86	655.35
522.03	692.80
522.20	685.78
522.38	688.12
522.55	627.26
522.72	664.71
522.89	631.94
523.07	627.26
523.24	720.88
523.41	688.12
523.58	669.39
523.75	594.50
523.92	676.41
524.10	641.31
524.27	608.54
524.44	662.37
524.61	685.78
524.78	564.07
524.96	683.44
525.13	711.52
525.30	650.67
525.47	697.48
525.64	676.41
525.81	671.73
525.98	620.24
526.16	681.10
526.33	704.50
526.50	648.33
526.67	648.33
526.84	636.63
527.01	674.07
527.18	657.69
527.36	662.37
527.53	638.97
527.70	603.86
527.87	655.35
528.04	716.20
528.21	678.76
528.38	653.01
528.55	674.07
528.72	702.16
528.89	702.16
529.07	653.01
529.24	674.07
529.41	613.22
529.58	706.84
529.75	648.33
529.92	702.16
530.09	645.99
530.26	699.82
530.43	664.71
530.60	706.84
530.77	629.60
530.94	636.63
531.11	678.76
531.28	692.80
531.46	617.90
531.63	622.58
531.80	692.80
531.97	669.39
532.14	655.35
532.31	657.69
532.48	709.18
532.65	660.03
532.82	669.39
532.99	704.50
533.16	634.29
533.33	774.72
533.50	622.58
533.67	660.03
533.84	706.84
534.01	650.67
534.18	678.76
534.35	655.35
534.52	638.97
534.69	650.67
534.86	702.16
535.03	660.03
535.20	685.78
535.37	734.93
535.54	645.99
535.71	671.73
535.88	718.54
536.05	669.39
536.22	678.76
536.38	669.39
536.55	678.76
536.72	720.88
536.89	725.57
537.06	660.03
537.23	725.57
537.40	678.76
537.57	791.10
537.74	779.40
537.91	791.10
538.08	816.85
538.25	755.99
538.42	753.65
538.59	704.50
538.75	758.33
538.92	678.76
539.09	772.38
539.26	788.76
539.43	854.30
539.60	809.83
539.77	809.83
539.94	933.87
540.11	919.83
540.28	964.30
540.44	926.85
540.61	957.28
540.78	1071.97
540.95	1050.90
541.12	1254.53
541.29	1158.57
541.46	1238.14
541.62	1299.00
541.79	1306.02
541.96	1294.32
542.13	1266.23
542.30	1205.38
542.47	1210.06
542.63	1203.04
542.80	1233.46
542.97	1172.61
543.14	1212.40
543.31	1224.10
543.48	1291.98
543.64	1287.29
543.81	1174.95
543.98	1261.55
544.15	1240.48
544.32	1235.80
544.48	1252.19
544.65	1186.65
544.82	1167.93
544.99	1231.12
545.16	1221.76
545.32	1327.08
545.49	1652.42
545.66	1937.96
545.83	2141.59
546.00	1891.15
546.16	1640.72
546.33	1394.96
546.50	1357.51
546.67	1289.64
546.83	1114.10
547.00	1029.84
547.17	968.98
547.34	933.87
547.50	898.77
547.67	976.00
547.84	994.73
548.00	931.53
548.17	922.17
548.34	889.40
548.51	964.30
548.67	957.28
548.84	968.98
549.01	924.51
549.18	924.51
549.34	952.60
549.51	823.87
549.68	835.57
549.84	779.40
550.01	795.78
550.18	891.74
550.34	873.02
550.51	788.76
550.68	837.91
550.84	779.40
551.01	802.80
551.18	809.83
551.34	772.38
551.51	814.51
551.68	702.16
551.84	830.89
552.01	758.33
552.18	732.59
552.34	723.23
552.51	704.50
552.68	828.55
552.84	746.63
553.01	765.36
553.18	704.50
553.34	760.67
553.51	667.05
553.67	770.04
553.84	730.25
554.01	723.23
554.17	725.57
554.34	748.97
554.51	657.69
554.67	718.54
554.84	739.61
555.00	706.84
555.17	763.01
555.33	746.63
555.50	734.93
555.67	695.14
555.83	664.71
556.00	697.48
556.16	802.80
556.33	676.41
556.50	683.44
556.66	648.33
556.83	645.99
556.99	653.01
557.16	657.69
557.32	702.16
557.49	697.48
557.65	702.16
557.82	662.37
557.98	620.24
558.15	617.90
558.32	702.16
558.48	676.41
558.65	622.58
558.81	702.16
558.98	650.67
559.14	641.31
559.31	681.10
559.47	657.69
559.64	702.16
559.80	678.76
559.97	678.76
560.13	571.09
560.30	685.78
560.46	645.99
560.63	624.92
560.79	688.12
560.96	603.86
561.12	629.60
561.29	725.57
561.45	641.31
561.61	725.57
561.78	711.52
561.94	613.22
562.11	648.33
562.27	664.71
562.44	622.58
562.60	655.35
562.77	709.18
562.93	692.80
563.10	608.54
563.26	676.41
563.42	620.24
563.59	660.03
563.75	608.54
563.92	669.39
564.08	720.88
564.24	706.84
564.41	676.41
564.57	685.78
564.74	610.88
564.90	641.31
565.07	634.29
565.23	650.67
565.39	645.99
565.56	627.26
565.72	634.29
565.88	690.46
566.05	622.58
566.21	671.73
566.38	650.67
566.54	690.46
566.70	697.48
566.87	641.31
567.03	638.97
567.19	636.63
567.36	669.39
567.52	657.69
567.68	702.16
567.85	636.63
568.01	657.69
568.17	681.10
568.34	681.10
568.50	657.69
568.66	690.46
568.83	704.50
568.99	664.71
569.15	622.58
569.32	617.90
569.48	596.84
569.64	643.65
569.81	650.67
569.97	634.29
570.13	645.99
570.30	676.41
570.46	636.63
570.62	653.01
570.78	692.80
570.95	676.41
571.11	627.26
571.27	653.01
571.43	627.26
571.60	660.03
571.76	629.60
571.92	697.48
572.09	610.88
572.25	662.37
572.41	610.88
572.57	667.05
572.74	669.39
572.90	716.20
573.06	657.69
573.22	674.07
573.38	620.24
573.55	650.67
573.71	645.99
573.87	662.37
574.03	716.20
574.20	655.35
574.36	695.14
574.52	561.73
574.68	664.71
574.84	681.10
575.01	636.63
575.17	713.86
575.33	678.76
575.49	669.39
575.65	645.99
575.82	664.71
575.98	674.07
576.14	631.94
576.30	667.05
576.46	802.80
576.62	875.36
576.79	931.53
576.95	896.43
577.11	837.91
577.27	725.57
577.43	807.48
577.59	770.04
577.75	716.20
577.92	690.46
578.08	681.10
578.24	681.10
578.40	739.61
578.56	816.85
578.72	821.53
578.88	870.68
579.04	821.53
579.21	833.23
579.37	760.67
579.53	781.74
579.69	760.67
579.85	800.46
580.01	753.65
580.17	837.91
580.33	774.72
580.49	758.33
580.65	702.16
580.82	713.86
580.98	727.91
581.14	732.59
581.30	734.93
581.46	706.84
581.62	805.14
581.78	767.70
581.94	723.23
582.10	709.18
582.26	800.46
582.42	730.25
582.58	788.76
582.74	784.08
582.90	835.57
583.06	779.40
583.22	833.23
583.38	791.10
583.54	798.12
583.70	868.34
583.86	791.10
584.02	758.33
584.18	851.96
584.34	837.91
584.50	763.01
584.66	737.27
584.82	816.85
584.98	758.33
585.14	755.99
585.30	802.80
585.46	744.29
585.62	772.38
585.78	765.36
585.94	716.20
586.10	706.84
586.26	730.25
586.42	807.48
586.58	802.80
586.74	863.66
586.90	926.85
587.06	905.79
587.22	976.00
587.38	896.43
587.54	807.48
587.70	866.00
587.86	830.89
588.02	821.53
588.18	772.38
588.34	753.65
588.49	770.04
588.65	779.40
588.81	695.14
588.97	685.78
589.13	734.93
589.29	706.84
589.45	765.36
589.61	748.97
589.77	697.48
589.93	744.29
590.08	699.82
590.24	699.82
590.40	727.91
590.56	784.08
590.72	716.20
590.88	737.27
591.04	758.33
591.20	732.59
591.35	770.04
591.51	767.70
591.67	772.38
591.83	699.82
591.99	805.14
592.15	844.93
592.31	814.51
592.46	746.63
592.62	812.17
592.78	807.48
592.94	755.99
593.10	837.91
593.26	828.55
593.41	791.10
593.57	774.72
593.73	734.93
593.89	802.80
594.05	730.25
594.20	643.65
594.36	732.59
594.52	702.16
594.68	753.65
594.84	772.38
594.99	732.59
595.15	702.16
595.31	648.33
595.47	683.44
595.62	713.86
595.78	662.37
595.94	744.29
596.10	695.14
596.25	681.10
596.41	739.61
596.57	732.59
596.73	706.84
596.88	660.03
597.04	734.93
597.20	685.78
597.36	723.23
597.51	755.99
597.67	699.82
597.83	671.73
597.99	667.05
598.14	683.44
598.30	699.82
598.46	725.57
598.61	741.95
598.77	751.31
598.93	671.73
599.09	746.63
599.24	690.46
599.40	770.04
599.56	734.93
599.71	763.01
599.87	809.83
600.03	667.05
600.18	781.74
600.34	706.84
600.50	706.84
600.65	716.20
600.81	697.48
600.97	624.92
601.12	685.78
601.28	690.46
601.44	634.29
601.59	585.13
601.75	737.27
601.91	653.01
602.06	683.44
602.22	716.20
602.37	713.86
602.53	697.48
602.69	594.50
602.84	681.10
603.00	690.46
603.16	660.03
603.31	641.31
603.47	697.48
603.62	650.67
603.78	638.97
603.94	671.73
604.09	692.80
604.25	676.41
604.40	685.78
604.56	643.65
604.71	669.39
604.87	667.05
605.03	744.29
605.18	718.54
605.34	739.61
605.49	643.65
605.65	681.10
605.80	657.69
605.96	608.54
606.12	716.20
606.27	662.37
606.43	650.67
606.58	725.57
606.74	725.57
606.89	695.14
607.05	727.91
607.20	739.61
607.36	695.14
607.51	737.27
607.67	767.70
607.82	739.61
607.98	821.53
608.13	791.10
608.29	793.44
608.44	772.38
608.60	805.14
608.75	884.72
608.91	758.33
609.06	786.42
609.22	777.06
609.37	821.53
609.53	880.04
609.68	938.55
609.84	910.47
