SpectraSuite Data File
++++++++++++++++++++++++++++++++++++
Date: Thu Oct 24 13:21:35 EDT 2013
User: stostad
Dark Spectrum Present: No
Reference Spectrum Present: No
Number of Sampled Component Spectra: 1
Spectrometers: USB2+H05261
Integration Time (usec): 100000 (USB2+H05261)
Spectra Averaged: 1 (USB2+H05261)
Boxcar Smoothing: 0 (USB2+H05261)
Correct for Electrical Dark: No (USB2+H05261)
Strobe/Lamp Enabled: No (USB2+H05261)
Correct for Detector Non-linearity: No (USB2+H05261)
Correct for Stray Light: No (USB2+H05261)
Number of Pixels in Processed Spectrum: 2048
>>>>>Begin Processed Spectral Data<<<<<
365.73	517.26
365.92	517.26
366.12	517.26
366.32	575.77
366.52	411.93
366.72	465.77
366.91	456.40
367.11	451.72
367.31	449.38
367.51	496.19
367.70	479.81
367.90	409.59
368.10	533.64
368.30	414.27
368.49	437.68
368.69	519.60
368.89	489.17
369.09	500.87
369.28	582.79
369.48	543.00
369.68	545.34
369.87	571.09
370.07	568.75
370.27	641.31
370.47	751.31
370.66	1170.27
370.86	1245.16
371.06	1191.33
371.25	1233.46
371.45	1228.78
371.65	1296.66
371.84	1275.59
372.04	1261.55
372.24	1345.81
372.44	1294.32
372.63	1303.68
372.83	1397.30
373.03	1411.34
373.22	1460.49
373.42	1390.28
373.62	1416.02
373.81	1481.56
374.01	1493.26
374.21	1423.05
374.40	1490.92
374.60	1502.62
374.79	1432.41
374.99	1458.15
375.19	1490.92
375.38	1509.65
375.58	1488.58
375.78	1514.33
375.97	1514.33
376.17	1469.86
376.37	1469.86
376.56	1509.65
376.76	1530.71
376.95	1502.62
377.15	1563.48
377.35	1610.29
377.54	1619.65
377.74	1593.90
377.93	1617.31
378.13	1577.52
378.33	1614.97
378.52	1563.48
378.72	1645.40
378.91	1701.57
379.11	1652.42
379.31	1668.80
379.50	1633.69
379.70	1799.87
379.89	1818.60
380.09	1659.44
380.28	1736.68
380.48	1722.63
380.68	1703.91
380.87	1809.23
381.07	1715.61
381.26	1867.75
381.46	1839.66
381.65	1877.11
381.85	1860.73
382.04	1804.55
382.24	1842.00
382.43	1872.43
382.63	1820.94
382.83	1893.49
383.02	1973.07
383.22	1856.04
383.41	1832.64
383.61	1914.56
383.80	1930.94
384.00	1989.46
384.19	1970.73
384.39	1980.09
384.58	1905.20
384.78	1963.71
384.97	2071.37
385.17	1989.46
385.36	2026.90
385.56	2019.88
385.75	1980.09
385.95	2092.44
386.14	2019.88
386.34	2136.91
386.53	2073.71
386.72	2118.18
386.92	2054.99
387.11	2146.27
387.31	2080.74
387.50	2225.85
387.70	2179.04
387.89	2176.70
388.09	2223.51
388.28	2108.82
388.48	2335.85
388.67	2239.89
388.86	2256.28
389.06	2321.81
389.25	2298.41
389.45	2335.85
389.64	2298.41
389.84	2319.47
390.03	2392.03
390.22	2300.75
390.42	2326.49
390.61	2345.22
390.81	2471.61
391.00	2452.88
391.19	2403.73
391.39	2480.97
391.58	2441.18
391.78	2373.30
391.97	2523.10
392.16	2445.86
392.36	2525.44
392.55	2621.40
392.75	2609.70
392.94	2626.08
393.13	2553.52
393.33	2541.82
393.52	2593.31
393.71	2647.15
393.91	2616.72
394.10	2579.27
394.29	2588.63
394.49	2583.95
394.68	2700.98
394.88	2715.02
395.07	2818.00
395.26	2736.09
395.46	2855.45
395.65	2855.45
395.84	2888.22
396.04	2836.73
396.23	2782.90
396.42	2806.30
396.62	2967.80
396.81	3012.27
397.00	2932.69
397.19	2993.55
397.39	3035.67
397.58	2981.84
397.77	2935.03
397.97	3038.02
398.16	3136.32
398.35	3131.64
398.55	3152.70
398.74	3068.44
398.93	3290.79
399.12	3183.13
399.32	3117.59
399.51	3173.77
399.70	3215.90
399.90	3232.28
400.09	3368.03
400.28	3241.64
400.47	3281.43
400.67	3272.07
400.86	3279.09
401.05	3391.44
401.24	3339.94
401.44	3405.48
401.63	3431.23
401.82	3454.63
402.01	3379.73
402.21	3515.48
402.40	3531.87
402.59	3562.30
402.78	3588.04
402.97	3691.02
403.17	3686.34
403.36	3522.51
403.55	3737.84
403.74	3878.27
403.93	3838.48
404.13	3798.69
404.32	3782.31
404.51	3859.54
404.70	3904.01
404.89	3934.44
405.09	3936.78
405.28	3969.55
405.47	3896.99
405.66	3969.55
405.85	4060.83
406.05	4016.36
406.24	4095.94
406.43	3999.98
406.62	4224.67
406.81	4194.24
407.00	3920.40
407.20	4154.45
407.39	4051.47
407.58	4248.07
407.77	4149.77
407.96	4259.78
408.15	4290.20
408.34	4301.90
408.54	4311.27
408.73	4428.29
408.92	4379.14
409.11	4313.61
409.30	4578.09
409.49	4594.47
409.68	4695.11
409.87	4561.70
410.07	4545.32
410.26	4798.10
410.45	4784.06
410.64	4606.17
410.83	4814.48
411.02	4959.60
411.21	4966.62
411.40	4835.55
411.59	5071.94
411.78	4861.29
411.98	4968.96
412.17	4795.76
412.36	5008.75
412.55	5095.35
412.74	5327.06
412.93	5247.48
413.12	5088.32
413.31	5495.58
413.50	5404.30
413.69	5231.10
413.88	5390.25
414.07	5521.32
414.26	5483.88
414.45	5523.66
414.64	5664.10
414.83	5575.16
415.02	5680.48
415.22	5703.89
415.41	5816.23
415.60	5806.87
415.79	5797.51
415.98	5944.96
416.17	6169.65
416.36	5846.66
416.55	6120.50
416.74	6057.31
416.93	6024.54
417.12	6108.80
417.31	6289.02
417.50	6242.21
417.69	6443.49
417.88	6335.83
418.07	6375.62
418.26	6310.08
418.45	6370.94
418.64	6773.51
418.83	6633.08
419.02	6553.50
419.21	6750.10
419.39	6759.47
419.58	6703.29
419.77	6705.63
419.96	6806.28
420.15	6766.49
420.34	6839.05
420.53	6766.49
420.72	6853.09
420.91	7000.54
421.10	7070.76
421.29	7140.97
421.48	6991.18
421.67	7136.29
421.86	6979.48
422.05	7019.27
422.24	7101.19
422.43	7030.97
422.61	7428.86
422.80	7440.56
422.99	7077.78
423.18	7323.54
423.37	7304.81
423.56	7339.92
423.75	7375.03
423.94	7335.24
424.13	6820.32
424.32	7183.10
424.50	7349.28
424.69	7463.97
424.88	7534.18
425.07	7337.58
425.26	7215.87
425.45	7363.33
425.64	7293.11
425.83	7428.86
426.01	7386.73
426.20	7382.05
426.39	7527.16
426.58	7602.06
426.77	7452.27
426.96	7679.30
427.15	7410.14
427.33	7454.61
427.52	7573.97
427.71	7744.83
427.90	7735.47
428.09	7801.01
428.28	7911.01
428.46	7948.46
428.65	7742.49
428.84	8095.91
429.03	8107.62
429.22	7857.18
429.40	8163.79
429.59	8079.53
429.78	7728.45
429.97	7754.19
430.16	8095.91
430.34	8306.56
430.53	8437.63
430.72	8285.50
430.91	7925.05
431.10	8454.02
431.28	8524.23
431.47	8629.56
431.66	8524.23
431.85	8374.44
432.03	8617.85
432.22	8692.75
432.41	8793.39
432.60	8748.92
432.79	8833.18
432.97	8741.90
433.16	8702.11
433.35	8613.17
433.54	8968.93
433.72	8959.57
433.91	9001.70
434.10	8894.04
434.28	8952.55
434.47	9130.43
434.66	8992.34
434.85	9233.41
435.03	9378.53
435.22	9469.81
435.41	9617.26
435.59	9341.08
435.78	9720.24
435.97	9643.01
436.16	9439.38
436.34	9699.18
436.53	9633.64
436.72	9851.31
436.90	9327.03
437.09	9956.64
437.28	9467.47
437.46	9671.09
437.65	9760.03
437.84	9856.00
438.02	9877.06
438.21	9837.27
438.40	9790.46
438.58	10209.42
438.77	10134.52
438.96	9994.09
439.14	10342.83
439.33	10434.11
439.52	10649.44
439.70	10740.72
439.89	10920.94
440.08	10810.93
440.26	10939.66
440.45	10714.97
440.63	11030.94
440.82	11272.02
441.01	10853.06
441.19	11108.18
441.38	11290.74
441.57	11075.42
441.75	11536.50
441.94	11655.87
442.12	11452.24
442.31	11389.05
442.50	11728.42
442.68	11548.20
442.87	11688.64
443.05	11737.79
443.24	12095.89
443.43	11934.39
443.61	11892.26
443.80	12362.71
443.98	11875.88
444.17	11463.94
444.35	11599.70
444.54	12194.19
444.73	12091.21
444.91	12128.66
445.10	12479.74
445.28	12196.53
445.47	12119.29
445.65	12203.55
445.84	12381.43
446.02	12365.05
446.21	12292.49
446.39	12458.67
446.58	12568.68
446.77	12063.12
446.95	12133.34
447.14	12393.14
447.32	12503.14
447.51	12233.98
447.69	12294.83
447.88	12372.07
448.06	12470.37
448.25	12315.90
448.43	12636.55
448.62	12779.32
448.80	12229.30
448.99	12606.13
449.17	12655.28
449.36	12596.76
449.54	12870.61
449.73	12849.54
449.91	13029.76
450.10	13156.15
450.28	13027.42
450.46	13111.68
450.65	13125.72
450.83	13270.84
451.02	13202.96
451.20	13380.84
451.39	13350.42
451.57	13261.48
451.76	13334.03
451.94	13455.74
452.13	13458.08
452.31	13743.63
452.49	13362.12
452.68	13832.57
452.86	13554.04
453.05	13699.16
453.23	13853.63
453.42	13846.61
453.60	13776.39
453.78	14090.02
453.97	13612.56
454.15	13961.30
454.34	13961.30
454.52	14253.86
454.70	14083.00
454.89	14111.09
455.07	14480.89
455.26	14352.16
455.44	14476.21
455.62	14476.21
455.81	14429.40
455.99	14707.93
456.17	14665.80
456.36	14511.32
456.54	14939.64
456.73	14993.47
456.91	15157.31
457.09	15136.24
457.28	15286.04
457.46	15344.55
457.64	15358.60
457.83	15325.83
458.01	15248.59
458.19	15571.58
458.38	15410.09
458.56	15613.71
458.74	15744.78
458.93	15679.25
459.11	15723.72
459.29	15903.94
459.48	15660.52
459.66	15632.44
459.84	16049.05
460.03	16016.29
460.21	16011.60
460.39	16290.13
460.57	16145.02
460.76	16702.06
460.94	16208.21
461.12	16336.94
461.31	16622.48
461.49	16390.77
461.67	16208.21
461.85	16924.41
462.04	16706.74
462.22	16861.22
462.40	16950.16
462.59	16683.34
462.77	16783.98
462.95	16842.50
463.13	16908.03
463.32	17238.05
463.50	17151.45
463.68	17387.84
463.86	17273.15
464.05	17034.42
464.23	17177.19
464.41	17614.87
464.59	17336.35
464.78	17699.13
464.96	17497.84
465.14	17226.34
465.32	17376.14
465.50	17823.18
465.69	17640.62
465.87	17930.84
466.05	17490.82
466.23	17888.71
466.41	17980.00
466.60	18188.30
466.78	17745.94
466.96	17813.82
467.14	17991.70
467.32	18040.85
467.51	18604.92
467.69	17818.50
467.87	18256.18
468.05	18707.90
468.23	18162.56
468.41	18319.37
468.60	18274.90
468.78	18700.88
468.96	18310.01
469.14	18719.60
469.32	18939.62
469.50	18558.11
469.69	18906.85
469.87	19073.03
470.05	19269.63
470.23	19293.04
470.41	19136.22
470.59	19445.17
470.77	19325.80
470.95	19508.37
471.14	19814.98
471.32	19515.39
471.50	19943.70
471.68	19786.89
471.86	19871.15
472.04	19826.68
472.22	20592.03
472.40	20322.87
472.58	20247.97
472.77	20292.44
472.95	20723.10
473.13	20982.90
473.31	20645.87
473.49	20648.21
473.67	20753.53
473.85	21095.25
474.03	21504.84
474.21	21401.86
474.39	21366.75
474.57	21291.85
474.75	21834.86
474.93	21951.88
475.12	21942.52
475.30	21879.33
475.48	22012.74
475.66	22178.92
475.84	21965.93
476.02	22703.20
476.20	22628.30
476.38	22876.40
476.56	23206.41
476.74	23438.12
476.92	23255.56
477.10	23407.70
477.28	23396.00
477.46	23800.91
477.64	23824.31
477.82	24159.01
478.00	24907.98
478.18	24699.67
478.36	24395.40
478.54	25378.43
478.72	25071.82
478.90	25394.81
479.08	25790.36
479.26	25977.61
479.44	26225.70
479.62	26008.03
479.80	26314.64
479.98	26555.72
480.16	27328.10
480.34	26728.92
480.52	27166.60
480.70	27274.26
480.88	26911.48
481.06	27311.71
481.24	27489.59
481.41	27908.55
481.59	28503.04
481.77	28474.96
481.95	28479.64
482.13	28961.79
482.31	29060.09
482.49	29701.40
482.67	29596.07
482.85	29783.32
483.03	30129.72
483.21	30562.72
483.39	30532.29
483.57	30466.75
483.74	31110.40
483.92	31384.24
484.10	31356.16
484.28	31728.30
484.46	32411.74
484.64	32680.90
484.82	32568.55
485.00	32753.46
485.18	33289.44
485.35	33827.76
485.53	33802.02
485.71	33677.97
485.89	34590.78
486.07	34525.24
486.25	33979.90
486.43	34534.60
486.61	34911.43
486.78	35473.16
486.96	35690.83
487.14	35917.86
487.32	36247.88
487.50	36524.06
487.68	36938.33
487.85	37015.57
488.03	37340.91
488.21	38050.09
488.39	37490.70
488.57	37853.48
488.75	38335.63
488.92	38188.18
489.10	38953.54
489.28	39161.84
489.46	39662.72
489.64	39576.12
489.81	40184.66
489.99	40432.75
490.17	39882.73
490.35	41469.61
490.53	41022.57
490.70	41577.28
490.88	41167.68
491.06	42061.77
491.24	41731.75
491.41	42216.24
491.59	42480.72
491.77	42749.88
491.95	43084.58
492.13	43192.25
492.30	43489.49
492.48	43615.88
492.66	43838.23
492.84	43915.47
493.01	44839.98
493.19	44680.83
493.37	45408.73
493.54	44870.41
493.72	45120.85
493.90	45177.02
494.08	46127.28
494.25	46244.30
494.43	46253.67
494.61	46658.58
494.79	46763.90
494.96	46899.65
495.14	47311.59
495.32	47838.21
495.49	47826.51
495.67	47779.70
495.85	48589.52
496.02	48437.39
496.20	48264.19
496.38	48390.58
496.55	48924.22
496.73	49160.61
496.91	49111.46
497.09	49448.50
497.26	49785.54
497.44	49792.56
497.62	49991.50
497.79	50656.21
497.97	50426.84
498.14	50864.52
498.32	51040.06
498.50	50873.88
498.67	51428.59
498.85	51126.66
499.03	51386.46
499.20	51641.58
499.38	51934.15
499.56	52046.49
499.73	52231.40
499.91	52186.92
500.08	52325.02
500.26	52413.96
500.44	52643.33
500.61	52856.32
500.79	52872.70
500.97	52905.47
501.14	53333.79
501.32	53282.30
501.49	53471.88
501.67	53434.43
501.84	53504.65
502.02	53829.98
502.20	53834.66
502.37	54227.87
502.55	54096.80
502.72	54080.42
502.90	54134.25
503.07	53932.96
503.25	54330.86
503.43	54433.84
503.60	54429.16
503.78	54691.30
503.95	54796.62
504.13	54787.26
504.30	54946.42
504.48	54880.88
504.65	55295.16
504.83	55515.17
505.01	55592.40
505.18	55388.78
505.36	55606.45
505.53	55407.50
505.71	55702.41
505.88	55777.31
506.06	55805.39
506.23	55819.44
506.41	55840.50
506.58	56172.86
506.76	55992.64
506.93	56278.18
507.11	56561.39
507.28	56385.85
507.46	56643.30
507.63	56727.56
507.81	56903.10
507.98	56673.73
508.16	56776.72
508.33	56919.49
508.50	57073.96
508.68	57418.02
508.85	57581.86
509.03	57572.50
509.20	57443.77
509.38	57745.70
509.55	57661.44
509.73	57815.91
509.90	57911.88
510.08	57731.65
510.25	58218.49
510.42	57900.17
510.60	58262.96
510.77	58358.92
510.95	58382.32
511.12	58260.62
511.30	58461.90
511.47	58597.65
511.64	58623.40
511.82	58770.85
511.99	58562.54
512.17	58667.87
512.34	58742.77
512.51	59110.23
512.69	59049.38
512.86	59040.01
513.04	59508.12
513.21	59014.27
513.38	59292.79
513.56	59157.04
513.73	59405.14
513.90	59583.02
514.08	59456.63
514.25	59833.46
514.43	59824.09
514.60	59700.04
514.77	59629.83
514.95	59896.65
515.12	59688.34
515.29	59702.38
515.47	59985.59
515.64	60374.12
515.81	60217.30
515.99	60121.34
516.16	60264.11
516.33	60348.37
516.51	60605.83
516.68	60671.37
516.85	60645.62
517.03	60633.92
517.20	60729.88
517.37	60757.97
517.54	60743.92
517.72	60776.69
517.89	60718.18
518.06	61015.43
518.24	61066.92
518.41	61001.38
518.58	61078.62
518.75	60907.76
518.93	61083.30
519.10	61158.20
519.27	61064.58
519.45	61359.48
519.62	61577.15
519.79	61528.00
519.96	61441.40
520.14	61516.30
520.31	61425.02
520.48	61567.79
520.65	61574.81
520.83	61909.51
521.00	61862.70
521.17	61984.41
521.34	61944.62
521.52	62117.82
521.69	61818.23
521.86	62171.65
522.03	62274.63
522.20	62363.57
522.38	62574.22
522.55	62482.94
522.72	62438.47
522.89	62433.79
523.07	62546.14
523.24	62424.43
523.41	62623.37
523.58	62574.22
523.75	62749.76
523.92	62719.34
524.10	62766.15
524.27	62850.41
524.44	62962.75
524.61	63028.29
524.78	62929.98
524.96	63084.46
525.13	62927.64
525.30	63159.36
525.47	63501.07
525.64	63320.85
525.81	63131.27
525.98	63257.66
526.16	63166.38
526.33	63285.75
526.50	63451.92
526.67	63299.79
526.84	63678.96
527.01	63763.21
527.18	63564.27
527.36	63662.57
527.53	63648.53
527.70	63969.18
527.87	63903.65
528.04	63774.92
528.21	64076.85
528.38	63831.09
528.55	64175.15
528.72	63868.54
528.89	63903.65
529.07	63915.35
529.24	64069.82
529.41	64264.09
529.58	64214.94
529.75	64292.18
529.92	64371.75
530.09	64203.24
530.26	64039.40
530.43	64308.56
530.60	64240.68
530.77	64301.54
530.94	64566.02
531.11	64570.70
531.28	64643.26
531.46	64669.00
531.63	64605.81
531.80	64530.91
531.97	64683.04
532.14	64598.79
532.31	64725.17
532.48	64931.14
532.65	65071.57
532.82	64760.28
532.99	65071.57
533.16	64858.59
533.33	65013.06
533.50	65137.11
533.67	65209.67
533.84	64963.91
534.01	65113.70
534.18	65212.01
534.35	65373.50
534.52	65345.42
534.69	65460.10
534.86	65195.62
535.03	65286.90
535.20	65237.75
535.37	65457.76
535.54	65535.00
535.71	65535.00
535.88	65535.00
536.05	65535.00
536.22	65535.00
536.38	65535.00
536.55	65535.00
536.72	65535.00
536.89	65535.00
537.06	65535.00
537.23	65535.00
537.40	65535.00
537.57	65535.00
537.74	65535.00
537.91	65535.00
538.08	65535.00
538.25	65535.00
538.42	65535.00
538.59	65535.00
538.75	65535.00
538.92	65535.00
539.09	65535.00
539.26	65535.00
539.43	65535.00
539.60	65535.00
539.77	65535.00
539.94	65535.00
540.11	65535.00
540.28	65535.00
540.44	65535.00
540.61	65535.00
540.78	65535.00
540.95	65535.00
541.12	65535.00
541.29	65535.00
541.46	65535.00
541.62	65535.00
541.79	65535.00
541.96	65535.00
542.13	65535.00
542.30	65535.00
542.47	65535.00
542.63	65535.00
542.80	65535.00
542.97	65535.00
543.14	65535.00
543.31	65535.00
543.48	65535.00
543.64	65535.00
543.81	65535.00
543.98	65535.00
544.15	65535.00
544.32	65535.00
544.48	65535.00
544.65	65535.00
544.82	65535.00
544.99	65535.00
545.16	65535.00
545.32	65535.00
545.49	65535.00
545.66	65535.00
545.83	65535.00
546.00	65535.00
546.16	65535.00
546.33	65535.00
546.50	65535.00
546.67	65535.00
546.83	65535.00
547.00	65535.00
547.17	65535.00
547.34	65535.00
547.50	65535.00
547.67	65535.00
547.84	65535.00
548.00	65535.00
548.17	65535.00
548.34	65535.00
548.51	65535.00
548.67	65535.00
548.84	65535.00
549.01	65535.00
549.18	65535.00
549.34	65535.00
549.51	65535.00
549.68	65535.00
549.84	65535.00
550.01	65535.00
550.18	65535.00
550.34	65535.00
550.51	65535.00
550.68	65535.00
550.84	65535.00
551.01	65535.00
551.18	65535.00
551.34	65535.00
551.51	65535.00
551.68	65535.00
551.84	65535.00
552.01	65535.00
552.18	65535.00
552.34	65535.00
552.51	65535.00
552.68	65535.00
552.84	65535.00
553.01	65535.00
553.18	65535.00
553.34	65535.00
553.51	65535.00
553.67	65535.00
553.84	65535.00
554.01	65535.00
554.17	65535.00
554.34	65535.00
554.51	65535.00
554.67	65535.00
554.84	65535.00
555.00	65535.00
555.17	65535.00
555.33	65535.00
555.50	65535.00
555.67	65535.00
555.83	65535.00
556.00	65535.00
556.16	65535.00
556.33	65535.00
556.50	65535.00
556.66	65535.00
556.83	65535.00
556.99	65535.00
557.16	65535.00
557.32	65535.00
557.49	65535.00
557.65	65535.00
557.82	65535.00
557.98	65535.00
558.15	65535.00
558.32	65535.00
558.48	65535.00
558.65	65535.00
558.81	65535.00
558.98	65535.00
559.14	65535.00
559.31	65535.00
559.47	65535.00
559.64	65535.00
559.80	65535.00
559.97	65535.00
560.13	65535.00
560.30	65535.00
560.46	65535.00
560.63	65535.00
560.79	65535.00
560.96	65535.00
561.12	65535.00
561.29	65535.00
561.45	65535.00
561.61	65535.00
561.78	65535.00
561.94	65535.00
562.11	65535.00
562.27	65535.00
562.44	65535.00
562.60	65535.00
562.77	65535.00
562.93	65535.00
563.10	65535.00
563.26	65535.00
563.42	65535.00
563.59	65535.00
563.75	65535.00
563.92	65535.00
564.08	65535.00
564.24	65535.00
564.41	65535.00
564.57	65535.00
564.74	65535.00
564.90	65535.00
565.07	65535.00
565.23	65535.00
565.39	65535.00
565.56	65535.00
565.72	65535.00
565.88	65535.00
566.05	65535.00
566.21	65535.00
566.38	65535.00
566.54	65535.00
566.70	65535.00
566.87	65535.00
567.03	65535.00
567.19	65535.00
567.36	65535.00
567.52	65535.00
567.68	65535.00
567.85	65535.00
568.01	65535.00
568.17	65535.00
568.34	65535.00
568.50	65535.00
568.66	65535.00
568.83	65535.00
568.99	65535.00
569.15	65535.00
569.32	65535.00
569.48	65535.00
569.64	65535.00
569.81	65535.00
569.97	65535.00
570.13	65535.00
570.30	65535.00
570.46	65535.00
570.62	65535.00
570.78	65535.00
570.95	65535.00
571.11	65535.00
571.27	65535.00
571.43	65535.00
571.60	65535.00
571.76	65535.00
571.92	65535.00
572.09	65535.00
572.25	65535.00
572.41	65535.00
572.57	65535.00
572.74	65535.00
572.90	65535.00
573.06	65535.00
573.22	65535.00
573.38	65535.00
573.55	65535.00
573.71	65535.00
573.87	65535.00
574.03	65535.00
574.20	65535.00
574.36	65535.00
574.52	65535.00
574.68	65535.00
574.84	65535.00
575.01	65535.00
575.17	65535.00
575.33	65535.00
575.49	65535.00
575.65	65535.00
575.82	65535.00
575.98	65535.00
576.14	65535.00
576.30	65535.00
576.46	65535.00
576.62	65535.00
576.79	65535.00
576.95	65535.00
577.11	65535.00
577.27	65535.00
577.43	65535.00
577.59	65535.00
577.75	65535.00
577.92	65535.00
578.08	65535.00
578.24	65535.00
578.40	65535.00
578.56	65535.00
578.72	65535.00
578.88	65535.00
579.04	65535.00
579.21	65535.00
579.37	65535.00
579.53	65535.00
579.69	65535.00
579.85	65535.00
580.01	65535.00
580.17	65535.00
580.33	65535.00
580.49	65535.00
580.65	65535.00
580.82	65535.00
580.98	65535.00
581.14	65535.00
581.30	65535.00
581.46	65535.00
581.62	65535.00
581.78	65535.00
581.94	65535.00
582.10	65535.00
582.26	65535.00
582.42	65535.00
582.58	65535.00
582.74	65535.00
582.90	65535.00
583.06	65535.00
583.22	65535.00
583.38	65535.00
583.54	65535.00
583.70	65535.00
583.86	65535.00
584.02	65535.00
584.18	65535.00
584.34	65535.00
584.50	65535.00
584.66	65535.00
584.82	65535.00
584.98	65535.00
585.14	65535.00
585.30	65535.00
585.46	65535.00
585.62	65535.00
585.78	65535.00
585.94	65535.00
586.10	65535.00
586.26	65535.00
586.42	65535.00
586.58	65535.00
586.74	65535.00
586.90	65535.00
587.06	65535.00
