SpectraSuite Data File
++++++++++++++++++++++++++++++++++++
Date: Thu Oct 24 13:20:59 EDT 2013
User: stostad
Dark Spectrum Present: No
Reference Spectrum Present: No
Number of Sampled Component Spectra: 1
Spectrometers: USB2+H05261
Integration Time (usec): 100000 (USB2+H05261)
Spectra Averaged: 1 (USB2+H05261)
Boxcar Smoothing: 0 (USB2+H05261)
Correct for Electrical Dark: No (USB2+H05261)
Strobe/Lamp Enabled: No (USB2+H05261)
Correct for Detector Non-linearity: No (USB2+H05261)
Correct for Stray Light: No (USB2+H05261)
Number of Pixels in Processed Spectrum: 2048
>>>>>Begin Processed Spectral Data<<<<<
365.73	587.47
365.92	587.47
366.12	587.47
366.32	524.28
366.52	507.90
366.72	493.85
366.91	437.68
367.11	411.93
367.31	461.09
367.51	489.17
367.70	407.25
367.90	489.17
368.10	409.59
368.30	491.51
368.49	400.23
368.69	447.04
368.89	393.21
369.09	461.09
369.28	442.36
369.48	568.75
369.68	498.53
369.87	559.39
370.07	505.56
370.27	557.05
370.47	582.79
370.66	580.45
370.86	622.58
371.06	592.16
371.25	678.76
371.45	554.71
371.65	521.94
371.84	547.69
372.04	512.58
372.24	585.13
372.44	617.90
372.63	606.20
372.83	648.33
373.03	599.18
373.22	660.03
373.42	578.11
373.62	599.18
373.81	667.05
374.01	650.67
374.21	638.97
374.40	559.39
374.60	660.03
374.79	543.00
374.99	596.84
375.19	564.07
375.38	610.88
375.58	638.97
375.78	671.73
375.97	690.46
376.17	638.97
376.37	606.20
376.56	617.90
376.76	638.97
376.95	655.35
377.15	653.01
377.35	568.75
377.54	624.92
377.74	587.47
377.93	608.54
378.13	650.67
378.33	596.84
378.52	653.01
378.72	685.78
378.91	657.69
379.11	613.22
379.31	599.18
379.50	627.26
379.70	683.44
379.89	643.65
380.09	578.11
380.28	610.88
380.48	634.29
380.68	695.14
380.87	664.71
381.07	610.88
381.26	582.79
381.46	622.58
381.65	545.34
381.85	585.13
382.04	596.84
382.24	526.62
382.43	643.65
382.63	566.41
382.83	627.26
383.02	655.35
383.22	657.69
383.41	610.88
383.61	688.12
383.80	660.03
384.00	660.03
384.19	636.63
384.39	585.13
384.58	627.26
384.78	645.99
384.97	613.22
385.17	594.50
385.36	638.97
385.56	601.52
385.75	585.13
385.95	631.94
386.14	638.97
386.34	622.58
386.53	622.58
386.72	603.86
386.92	732.59
387.11	681.10
387.31	599.18
387.50	582.79
387.70	589.82
387.89	627.26
388.09	594.50
388.28	622.58
388.48	622.58
388.67	594.50
388.86	592.16
389.06	615.56
389.25	653.01
389.45	704.50
389.64	690.46
389.84	620.24
390.03	608.54
390.22	662.37
390.42	620.24
390.61	582.79
390.81	613.22
391.00	587.47
391.19	648.33
391.39	622.58
391.58	620.24
391.78	624.92
391.97	599.18
392.16	650.67
392.36	620.24
392.55	655.35
392.75	653.01
392.94	587.47
393.13	603.86
393.33	613.22
393.52	636.63
393.71	601.52
393.91	650.67
394.10	615.56
394.29	589.82
394.49	662.37
394.68	634.29
394.88	543.00
395.07	690.46
395.26	599.18
395.46	594.50
395.65	571.09
395.84	655.35
396.04	613.22
396.23	706.84
396.42	634.29
396.62	613.22
396.81	669.39
397.00	601.52
397.19	641.31
397.39	585.13
397.58	599.18
397.77	592.16
397.97	582.79
398.16	613.22
398.35	692.80
398.55	617.90
398.74	528.96
398.93	664.71
399.12	585.13
399.32	592.16
399.51	662.37
399.70	606.20
399.90	638.97
400.09	594.50
400.28	653.01
400.47	500.87
400.67	613.22
400.86	552.37
401.05	601.52
401.24	688.12
401.44	636.63
401.63	683.44
401.82	594.50
402.01	601.52
402.21	638.97
402.40	655.35
402.59	596.84
402.78	531.30
402.97	594.50
403.17	645.99
403.36	662.37
403.55	631.94
403.74	648.33
403.93	681.10
404.13	685.78
404.32	784.08
404.51	660.03
404.70	629.60
404.89	603.86
405.09	645.99
405.28	631.94
405.47	657.69
405.66	655.35
405.85	650.67
406.05	603.86
406.24	620.24
406.43	592.16
406.62	667.05
406.81	592.16
407.00	683.44
407.20	657.69
407.39	589.82
407.58	653.01
407.77	589.82
407.96	645.99
408.15	655.35
408.34	634.29
408.54	641.31
408.73	624.92
408.92	683.44
409.11	681.10
409.30	697.48
409.49	664.71
409.68	678.76
409.87	610.88
410.07	662.37
410.26	681.10
410.45	606.20
410.64	599.18
410.83	641.31
411.02	641.31
411.21	599.18
411.40	573.43
411.59	566.41
411.78	660.03
411.98	667.05
412.17	641.31
412.36	613.22
412.55	662.37
412.74	650.67
412.93	664.71
413.12	627.26
413.31	573.43
413.50	648.33
413.69	585.13
413.88	634.29
414.07	587.47
414.26	655.35
414.45	599.18
414.64	554.71
414.83	603.86
415.02	641.31
415.22	671.73
415.41	653.01
415.60	580.45
415.79	692.80
415.98	653.01
416.17	638.97
416.36	550.03
416.55	596.84
416.74	685.78
416.93	664.71
417.12	669.39
417.31	655.35
417.50	596.84
417.69	660.03
417.88	636.63
418.07	578.11
418.26	676.41
418.45	596.84
418.64	678.76
418.83	608.54
419.02	660.03
419.21	620.24
419.39	592.16
419.58	636.63
419.77	587.47
419.96	617.90
420.15	653.01
420.34	596.84
420.53	627.26
420.72	676.41
420.91	613.22
421.10	594.50
421.29	620.24
421.48	655.35
421.67	599.18
421.86	657.69
422.05	564.07
422.24	601.52
422.43	718.54
422.61	622.58
422.80	638.97
422.99	629.60
423.18	578.11
423.37	627.26
423.56	592.16
423.75	690.46
423.94	617.90
424.13	660.03
424.32	655.35
424.50	676.41
424.69	589.82
424.88	685.78
425.07	606.20
425.26	582.79
425.45	660.03
425.64	643.65
425.83	545.34
426.01	559.39
426.20	610.88
426.39	697.48
426.58	664.71
426.77	669.39
426.96	622.58
427.15	596.84
427.33	683.44
427.52	657.69
427.71	662.37
427.90	711.52
428.09	653.01
428.28	617.90
428.46	638.97
428.65	688.12
428.84	601.52
429.03	617.90
429.22	566.41
429.40	699.82
429.59	545.34
429.78	650.67
429.97	557.05
430.16	704.50
430.34	608.54
430.53	641.31
430.72	603.86
430.91	601.52
431.10	613.22
431.28	545.34
431.47	601.52
431.66	622.58
431.85	655.35
432.03	627.26
432.22	755.99
432.41	645.99
432.60	704.50
432.79	669.39
432.97	650.67
433.16	601.52
433.35	638.97
433.54	613.22
433.72	660.03
433.91	629.60
434.10	650.67
434.28	685.78
434.47	681.10
434.66	645.99
434.85	643.65
435.03	793.44
435.22	954.94
435.41	1153.88
435.59	1125.80
435.78	1076.65
435.97	901.11
436.16	760.67
436.34	695.14
436.53	676.41
436.72	634.29
436.90	674.07
437.09	697.48
437.28	629.60
437.46	631.94
437.65	610.88
437.84	638.97
438.02	629.60
438.21	622.58
438.40	634.29
438.58	599.18
438.77	716.20
438.96	587.47
439.14	631.94
439.33	636.63
439.52	653.01
439.70	660.03
439.89	653.01
440.08	627.26
440.26	650.67
440.45	631.94
440.63	676.41
440.82	599.18
441.01	636.63
441.19	653.01
441.38	683.44
441.57	601.52
441.75	683.44
441.94	664.71
442.12	648.33
442.31	650.67
442.50	587.47
442.68	606.20
442.87	645.99
443.05	578.11
443.24	617.90
443.43	674.07
443.61	690.46
443.80	575.77
443.98	645.99
444.17	671.73
444.35	638.97
444.54	664.71
444.73	704.50
444.91	620.24
445.10	575.77
445.28	624.92
445.47	695.14
445.65	634.29
445.84	739.61
446.02	692.80
446.21	615.56
446.39	587.47
446.58	599.18
446.77	631.94
446.95	699.82
447.14	608.54
447.32	657.69
447.51	692.80
447.69	667.05
447.88	653.01
448.06	669.39
448.25	669.39
448.43	594.50
448.62	608.54
448.80	638.97
448.99	615.56
449.17	667.05
449.36	615.56
449.54	636.63
449.73	622.58
449.91	662.37
450.10	596.84
450.28	692.80
450.46	669.39
450.65	629.60
450.83	683.44
451.02	636.63
451.20	599.18
451.39	631.94
451.57	711.52
451.76	610.88
451.94	674.07
452.13	636.63
452.31	683.44
452.49	662.37
452.68	617.90
452.86	603.86
453.05	631.94
453.23	662.37
453.42	589.82
453.60	674.07
453.78	596.84
453.97	676.41
454.15	655.35
454.34	571.09
454.52	617.90
454.70	653.01
454.89	608.54
455.07	638.97
455.26	648.33
455.44	657.69
455.62	641.31
455.81	622.58
455.99	638.97
456.17	634.29
456.36	627.26
456.54	545.34
456.73	697.48
456.91	596.84
457.09	664.71
457.28	648.33
457.46	653.01
457.64	606.20
457.83	660.03
458.01	617.90
458.19	667.05
458.38	660.03
458.56	641.31
458.74	655.35
458.93	592.16
459.11	615.56
459.29	631.94
459.48	636.63
459.66	699.82
459.84	655.35
460.03	709.18
460.21	660.03
460.39	613.22
460.57	697.48
460.76	709.18
460.94	660.03
461.12	631.94
461.31	610.88
461.49	615.56
461.67	676.41
461.85	685.78
462.04	678.76
462.22	933.87
462.40	695.14
462.59	678.76
462.77	657.69
462.95	683.44
463.13	653.01
463.32	655.35
463.50	578.11
463.68	664.71
463.86	627.26
464.05	578.11
464.23	678.76
464.41	624.92
464.59	662.37
464.78	624.92
464.96	692.80
465.14	671.73
465.32	648.33
465.50	638.97
465.69	648.33
465.87	634.29
466.05	627.26
466.23	613.22
466.41	662.37
466.60	615.56
466.78	643.65
466.96	688.12
467.14	622.58
467.32	690.46
467.51	638.97
467.69	643.65
467.87	674.07
468.05	592.16
468.23	711.52
468.41	662.37
468.60	638.97
468.78	660.03
468.96	641.31
469.14	657.69
469.32	606.20
469.50	645.99
469.69	655.35
469.87	592.16
470.05	627.26
470.23	645.99
470.41	643.65
470.59	674.07
470.77	643.65
470.95	657.69
471.14	615.56
471.32	610.88
471.50	653.01
471.68	608.54
471.86	674.07
472.04	613.22
472.22	641.31
472.40	655.35
472.58	627.26
472.77	622.58
472.95	697.48
473.13	713.86
473.31	638.97
473.49	678.76
473.67	606.20
473.85	603.86
474.03	599.18
474.21	617.90
474.39	631.94
474.57	638.97
474.75	601.52
474.93	695.14
475.12	662.37
475.30	641.31
475.48	592.16
475.66	617.90
475.84	667.05
476.02	594.50
476.20	571.09
476.38	573.43
476.56	678.76
476.74	725.57
476.92	674.07
477.10	653.01
477.28	631.94
477.46	592.16
477.64	608.54
477.82	697.48
478.00	566.41
478.18	610.88
478.36	615.56
478.54	603.86
478.72	645.99
478.90	601.52
479.08	734.93
479.26	603.86
479.44	641.31
479.62	601.52
479.80	650.67
479.98	587.47
480.16	653.01
480.34	674.07
480.52	723.23
480.70	695.14
480.88	643.65
481.06	578.11
481.24	648.33
481.41	573.43
481.59	681.10
481.77	690.46
481.95	650.67
482.13	709.18
482.31	615.56
482.49	655.35
482.67	688.12
482.85	671.73
483.03	746.63
483.21	678.76
483.39	678.76
483.57	650.67
483.74	683.44
483.92	713.86
484.10	685.78
484.28	713.86
484.46	720.88
484.64	697.48
484.82	695.14
485.00	744.29
485.18	744.29
485.35	627.26
485.53	772.38
485.71	746.63
485.89	751.31
486.07	725.57
486.25	744.29
486.43	723.23
486.61	755.99
486.78	720.88
486.96	669.39
487.14	695.14
487.32	718.54
487.50	683.44
487.68	641.31
487.85	643.65
488.03	779.40
488.21	732.59
488.39	755.99
488.57	711.52
488.75	685.78
488.92	784.08
489.10	709.18
489.28	695.14
489.46	692.80
489.64	699.82
489.81	720.88
489.99	706.84
490.17	681.10
490.35	765.36
490.53	678.76
490.70	683.44
490.88	664.71
491.06	706.84
491.24	723.23
491.41	758.33
491.59	713.86
491.77	702.16
491.95	664.71
492.13	737.27
492.30	720.88
492.48	692.80
492.66	695.14
492.84	688.12
493.01	690.46
493.19	674.07
493.37	734.93
493.54	725.57
493.72	674.07
493.90	660.03
494.08	683.44
494.25	716.20
494.43	709.18
494.61	662.37
494.79	706.84
494.96	655.35
495.14	685.78
495.32	671.73
495.49	667.05
495.67	716.20
495.85	683.44
496.02	765.36
496.20	730.25
496.38	681.10
496.55	674.07
496.73	716.20
496.91	592.16
497.09	676.41
497.26	608.54
497.44	645.99
497.62	660.03
497.79	627.26
497.97	664.71
498.14	716.20
498.32	624.92
498.50	655.35
498.67	622.58
498.85	690.46
499.03	685.78
499.20	667.05
499.38	641.31
499.56	667.05
499.73	667.05
499.91	688.12
500.08	620.24
500.26	648.33
500.44	678.76
500.61	610.88
500.79	648.33
500.97	737.27
501.14	638.97
501.32	660.03
501.49	760.67
501.67	699.82
501.84	662.37
502.02	674.07
502.20	678.76
502.37	683.44
502.55	627.26
502.72	718.54
502.90	631.94
503.07	674.07
503.25	634.29
503.43	594.50
503.60	667.05
503.78	699.82
503.95	704.50
504.13	660.03
504.30	664.71
504.48	608.54
504.65	641.31
504.83	732.59
505.01	643.65
505.18	608.54
505.36	645.99
505.53	664.71
505.71	634.29
505.88	624.92
506.06	695.14
506.23	685.78
506.41	641.31
506.58	557.05
506.76	596.84
506.93	648.33
507.11	660.03
507.28	653.01
507.46	617.90
507.63	678.76
507.81	559.39
507.98	653.01
508.16	676.41
508.33	641.31
508.50	594.50
508.68	664.71
508.85	615.56
509.03	601.52
509.20	596.84
509.38	699.82
509.55	695.14
509.73	730.25
509.90	688.12
510.08	660.03
510.25	641.31
510.42	617.90
510.60	653.01
510.77	674.07
510.95	627.26
511.12	711.52
511.30	667.05
511.47	589.82
511.64	676.41
511.82	596.84
511.99	592.16
512.17	655.35
512.34	601.52
512.51	627.26
512.69	622.58
512.86	662.37
513.04	648.33
513.21	709.18
513.38	631.94
513.56	514.92
513.73	753.65
513.90	594.50
514.08	620.24
514.25	674.07
514.43	685.78
514.60	716.20
514.77	683.44
514.95	650.67
515.12	699.82
515.29	648.33
515.47	622.58
515.64	620.24
515.81	674.07
515.99	704.50
516.16	641.31
516.33	667.05
516.51	585.13
516.68	681.10
516.85	578.11
517.03	674.07
517.20	678.76
517.37	650.67
517.54	653.01
517.72	641.31
517.89	603.86
518.06	653.01
518.24	699.82
518.41	655.35
518.58	641.31
518.75	631.94
518.93	620.24
519.10	660.03
519.27	606.20
519.45	669.39
519.62	650.67
519.79	641.31
519.96	589.82
520.14	657.69
520.31	638.97
520.48	634.29
520.65	627.26
520.83	627.26
521.00	624.92
521.17	653.01
521.34	636.63
521.52	674.07
521.69	662.37
521.86	638.97
522.03	650.67
522.20	697.48
522.38	622.58
522.55	599.18
522.72	638.97
522.89	636.63
523.07	681.10
523.24	688.12
523.41	613.22
523.58	631.94
523.75	674.07
523.92	613.22
524.10	688.12
524.27	615.56
524.44	629.60
524.61	657.69
524.78	641.31
524.96	660.03
525.13	678.76
525.30	676.41
525.47	688.12
525.64	629.60
525.81	603.86
525.98	678.76
526.16	631.94
526.33	669.39
526.50	622.58
526.67	634.29
526.84	678.76
527.01	641.31
527.18	685.78
527.36	643.65
527.53	699.82
527.70	723.23
527.87	697.48
528.04	660.03
528.21	713.86
528.38	706.84
528.55	664.71
528.72	613.22
528.89	634.29
529.07	636.63
529.24	596.84
529.41	662.37
529.58	681.10
529.75	599.18
529.92	667.05
530.09	653.01
530.26	648.33
530.43	664.71
530.60	711.52
530.77	688.12
530.94	718.54
531.11	716.20
531.28	697.48
531.46	643.65
531.63	606.20
531.80	615.56
531.97	676.41
532.14	699.82
532.31	699.82
532.48	699.82
532.65	692.80
532.82	695.14
532.99	681.10
533.16	669.39
533.33	718.54
533.50	671.73
533.67	720.88
533.84	723.23
534.01	676.41
534.18	699.82
534.35	662.37
534.52	657.69
534.69	784.08
534.86	685.78
535.03	662.37
535.20	690.46
535.37	676.41
535.54	669.39
535.71	716.20
535.88	678.76
536.05	692.80
536.22	744.29
536.38	718.54
536.55	699.82
536.72	662.37
536.89	620.24
537.06	704.50
537.23	709.18
537.40	763.01
537.57	795.78
537.74	732.59
537.91	772.38
538.08	704.50
538.25	657.69
538.42	798.12
538.59	849.61
538.75	770.04
538.92	772.38
539.09	755.99
539.26	819.19
539.43	912.81
539.60	814.51
539.77	887.06
539.94	873.02
540.11	891.74
540.28	919.83
540.44	1011.11
540.61	919.83
540.78	980.68
540.95	1095.37
541.12	1212.40
541.29	1188.99
541.46	1334.11
541.62	1207.72
541.79	1355.17
541.96	1242.82
542.13	1334.11
542.30	1273.25
542.47	1240.48
542.63	1188.99
542.80	1217.08
542.97	1221.76
543.14	1299.00
543.31	1181.97
543.48	1156.22
543.64	1219.42
543.81	1224.10
543.98	1149.20
544.15	1238.14
544.32	1181.97
544.48	1093.03
544.65	1179.63
544.82	1142.18
544.99	1174.95
545.16	1170.27
545.32	1275.59
545.49	1582.20
545.66	2017.54
545.83	2225.85
546.00	1930.94
546.16	1593.90
546.33	1465.18
546.50	1409.00
546.67	1345.81
546.83	1191.33
547.00	1060.26
547.17	1006.43
547.34	987.71
547.50	1013.45
547.67	1020.47
547.84	950.26
548.00	926.85
548.17	891.74
548.34	945.58
548.51	997.07
548.67	924.51
548.84	901.11
549.01	894.08
549.18	938.55
549.34	936.21
549.51	809.83
549.68	957.28
549.84	875.36
550.01	774.72
550.18	849.61
550.34	835.57
550.51	844.93
550.68	816.85
550.84	793.44
551.01	840.25
551.18	791.10
551.34	739.61
551.51	713.86
551.68	793.44
551.84	788.76
552.01	809.83
552.18	767.70
552.34	753.65
552.51	772.38
552.68	748.97
552.84	774.72
553.01	681.10
553.18	732.59
553.34	741.95
553.51	767.70
553.67	765.36
553.84	748.97
554.01	695.14
554.17	709.18
554.34	711.52
554.51	655.35
554.67	664.71
554.84	671.73
555.00	608.54
555.17	704.50
555.33	744.29
555.50	727.91
555.67	636.63
555.83	657.69
556.00	678.76
556.16	727.91
556.33	716.20
556.50	671.73
556.66	692.80
556.83	662.37
556.99	627.26
557.16	706.84
557.32	706.84
557.49	634.29
557.65	716.20
557.82	655.35
557.98	702.16
558.15	596.84
558.32	669.39
558.48	690.46
558.65	685.78
558.81	683.44
558.98	627.26
559.14	709.18
559.31	629.60
559.47	657.69
559.64	657.69
559.80	704.50
559.97	709.18
560.13	690.46
560.30	610.88
560.46	683.44
560.63	692.80
560.79	683.44
560.96	667.05
561.12	690.46
561.29	657.69
561.45	636.63
561.61	636.63
561.78	713.86
561.94	683.44
562.11	697.48
562.27	653.01
562.44	627.26
562.60	702.16
562.77	676.41
562.93	697.48
563.10	681.10
563.26	634.29
563.42	685.78
563.59	674.07
563.75	613.22
563.92	671.73
564.08	662.37
564.24	662.37
564.41	723.23
564.57	671.73
564.74	671.73
564.90	690.46
565.07	737.27
565.23	596.84
565.39	676.41
565.56	690.46
565.72	592.16
565.88	641.31
566.05	713.86
566.21	683.44
566.38	657.69
566.54	575.77
566.70	690.46
566.87	690.46
567.03	657.69
567.19	688.12
567.36	622.58
567.52	660.03
567.68	650.67
567.85	624.92
568.01	697.48
568.17	648.33
568.34	554.71
568.50	706.84
568.66	671.73
568.83	702.16
568.99	643.65
569.15	564.07
569.32	645.99
569.48	648.33
569.64	648.33
569.81	645.99
569.97	636.63
570.13	723.23
570.30	695.14
570.46	653.01
570.62	681.10
570.78	655.35
570.95	645.99
571.11	657.69
571.27	608.54
571.43	641.31
571.60	716.20
571.76	678.76
571.92	662.37
572.09	601.52
572.25	648.33
572.41	636.63
572.57	681.10
572.74	636.63
572.90	645.99
573.06	638.97
573.22	678.76
573.38	716.20
573.55	725.57
573.71	690.46
573.87	627.26
574.03	676.41
574.20	660.03
574.36	681.10
574.52	697.48
574.68	653.01
574.84	636.63
575.01	606.20
575.17	741.95
575.33	732.59
575.49	685.78
575.65	643.65
575.82	711.52
575.98	653.01
576.14	725.57
576.30	739.61
576.46	711.52
576.62	894.08
576.79	940.90
576.95	833.23
577.11	821.53
577.27	784.08
577.43	730.25
577.59	732.59
577.75	727.91
577.92	695.14
578.08	723.23
578.24	664.71
578.40	807.48
578.56	849.61
578.72	943.24
578.88	983.02
579.04	821.53
579.21	816.85
579.37	777.06
579.53	786.42
579.69	786.42
579.85	788.76
580.01	716.20
580.17	835.57
580.33	779.40
580.49	774.72
580.65	800.46
580.82	795.78
580.98	718.54
581.14	763.01
581.30	737.27
581.46	702.16
581.62	786.42
581.78	800.46
581.94	765.36
582.10	828.55
582.26	741.95
582.42	800.46
582.58	760.67
582.74	800.46
582.90	751.31
583.06	851.96
583.22	807.48
583.38	868.34
583.54	739.61
583.70	816.85
583.86	847.27
584.02	734.93
584.18	788.76
584.34	791.10
584.50	774.72
584.66	713.86
584.82	713.86
584.98	866.00
585.14	814.51
585.30	777.06
585.46	718.54
585.62	777.06
585.78	788.76
585.94	800.46
586.10	734.93
586.26	795.78
586.42	805.14
586.58	793.44
586.74	781.74
586.90	840.25
587.06	957.28
587.22	968.98
587.38	908.13
587.54	929.19
587.70	854.30
587.86	861.32
588.02	842.59
588.18	753.65
588.34	748.97
588.49	720.88
588.65	770.04
588.81	800.46
588.97	777.06
589.13	739.61
589.29	718.54
589.45	758.33
589.61	725.57
589.77	816.85
589.93	774.72
590.08	758.33
590.24	683.44
590.40	791.10
590.56	744.29
590.72	688.12
590.88	748.97
591.04	629.60
591.20	690.46
591.35	779.40
591.51	748.97
591.67	723.23
591.83	793.44
591.99	753.65
592.15	835.57
592.31	798.12
592.46	847.27
592.62	851.96
592.78	760.67
592.94	856.64
593.10	816.85
593.26	798.12
593.41	774.72
593.57	706.84
593.73	798.12
593.89	741.95
594.05	751.31
594.20	643.65
594.36	688.12
594.52	760.67
594.68	702.16
594.84	711.52
594.99	643.65
595.15	660.03
595.31	711.52
595.47	786.42
595.62	730.25
595.78	711.52
595.94	645.99
596.10	716.20
596.25	720.88
596.41	720.88
596.57	676.41
596.73	727.91
596.88	645.99
597.04	730.25
597.20	683.44
597.36	695.14
597.51	716.20
597.67	730.25
597.83	704.50
597.99	622.58
598.14	660.03
598.30	737.27
598.46	667.05
598.61	699.82
598.77	716.20
598.93	748.97
599.09	706.84
599.24	760.67
599.40	788.76
599.56	732.59
599.71	816.85
599.87	720.88
600.03	697.48
600.18	786.42
600.34	746.63
600.50	730.25
600.65	685.78
600.81	718.54
600.97	751.31
601.12	669.39
601.28	713.86
601.44	737.27
601.59	685.78
601.75	727.91
601.91	610.88
602.06	643.65
602.22	709.18
602.37	704.50
602.53	739.61
602.69	678.76
602.84	603.86
603.00	622.58
603.16	730.25
603.31	681.10
603.47	711.52
603.62	610.88
603.78	697.48
603.94	617.90
604.09	667.05
604.25	772.38
604.40	699.82
604.56	669.39
604.71	678.76
604.87	692.80
605.03	727.91
605.18	638.97
605.34	711.52
605.49	725.57
605.65	683.44
605.80	648.33
605.96	669.39
606.12	744.29
606.27	685.78
606.43	716.20
606.58	692.80
606.74	713.86
606.89	711.52
607.05	695.14
607.20	697.48
607.36	657.69
607.51	727.91
607.67	706.84
607.82	643.65
607.98	802.80
608.13	737.27
608.29	732.59
608.44	805.14
608.60	786.42
608.75	758.33
608.91	807.48
609.06	882.38
609.22	891.74
609.37	898.77
609.53	905.79
609.68	940.90
