SpectraSuite Data File
++++++++++++++++++++++++++++++++++++
Date: Thu Oct 24 13:21:05 EDT 2013
User: stostad
Dark Spectrum Present: No
Reference Spectrum Present: No
Number of Sampled Component Spectra: 1
Spectrometers: USB2+H05261
Integration Time (usec): 100000 (USB2+H05261)
Spectra Averaged: 1 (USB2+H05261)
Boxcar Smoothing: 0 (USB2+H05261)
Correct for Electrical Dark: No (USB2+H05261)
Strobe/Lamp Enabled: No (USB2+H05261)
Correct for Detector Non-linearity: No (USB2+H05261)
Correct for Stray Light: No (USB2+H05261)
Number of Pixels in Processed Spectrum: 2048
>>>>>Begin Processed Spectral Data<<<<<
365.73	573.43
365.92	573.43
366.12	573.43
366.32	538.32
366.52	449.38
366.72	470.45
366.91	393.21
367.11	447.04
367.31	442.36
367.51	400.23
367.70	510.24
367.90	486.83
368.10	402.57
368.30	418.96
368.49	557.05
368.69	461.09
368.89	491.51
369.09	507.90
369.28	470.45
369.48	521.94
369.68	507.90
369.87	550.03
370.07	552.37
370.27	496.19
370.47	627.26
370.66	678.76
370.86	683.44
371.06	732.59
371.25	802.80
371.45	723.23
371.65	697.48
371.84	704.50
372.04	723.23
372.24	744.29
372.44	765.36
372.63	812.17
372.83	807.48
373.03	755.99
373.22	830.89
373.42	805.14
373.62	821.53
373.81	798.12
374.01	837.91
374.21	847.27
374.40	788.76
374.60	835.57
374.79	851.96
374.99	791.10
375.19	763.01
375.38	739.61
375.58	800.46
375.78	779.40
375.97	898.77
376.17	856.64
376.37	819.19
376.56	802.80
376.76	779.40
376.95	763.01
377.15	875.36
377.35	856.64
377.54	844.93
377.74	866.00
377.93	784.08
378.13	823.87
378.33	840.25
378.52	861.32
378.72	884.72
378.91	814.51
379.11	861.32
379.31	866.00
379.50	826.21
379.70	868.34
379.89	929.19
380.09	795.78
380.28	861.32
380.48	840.25
380.68	837.91
380.87	875.36
381.07	858.98
381.26	908.13
381.46	894.08
381.65	933.87
381.85	847.27
382.04	896.43
382.24	856.64
382.43	931.53
382.63	898.77
382.83	828.55
383.02	933.87
383.22	802.80
383.41	819.19
383.61	863.66
383.80	910.47
384.00	887.06
384.19	861.32
384.39	924.51
384.58	891.74
384.78	863.66
384.97	830.89
385.17	863.66
385.36	943.24
385.56	922.17
385.75	856.64
385.95	919.83
386.14	933.87
386.34	968.98
386.53	950.26
386.72	936.21
386.92	903.45
387.11	940.90
387.31	910.47
387.50	910.47
387.70	950.26
387.89	882.38
388.09	947.92
388.28	999.41
388.48	922.17
388.67	945.58
388.86	1008.77
389.06	1029.84
389.25	945.58
389.45	978.34
389.64	980.68
389.84	915.15
390.03	1039.20
390.22	1011.11
390.42	952.60
390.61	882.38
390.81	964.30
391.00	997.07
391.19	1071.97
391.39	1001.75
391.58	950.26
391.78	980.68
391.97	943.24
392.16	968.98
392.36	1062.60
392.55	1074.31
392.75	1004.09
392.94	1011.11
393.13	1039.20
393.33	999.41
393.52	1090.69
393.71	1069.62
393.91	1020.47
394.10	1078.99
394.29	1102.39
394.49	1114.10
394.68	1086.01
394.88	1062.60
395.07	1156.22
395.26	1043.88
395.46	1146.86
395.65	1181.97
395.84	1086.01
396.04	1174.95
396.23	1097.71
396.42	1107.07
396.62	1064.94
396.81	1160.91
397.00	1139.84
397.19	1139.84
397.39	1130.48
397.58	1123.46
397.77	1167.93
397.97	1132.82
398.16	1139.84
398.35	1174.95
398.55	1163.25
398.74	1167.93
398.93	1123.46
399.12	1135.16
399.32	1123.46
399.51	1174.95
399.70	1228.78
399.90	1135.16
400.09	1233.46
400.28	1186.65
400.47	1233.46
400.67	1266.23
400.86	1280.27
401.05	1299.00
401.24	1174.95
401.44	1245.16
401.63	1238.14
401.82	1240.48
402.01	1245.16
402.21	1315.38
402.40	1306.02
402.59	1254.53
402.78	1221.76
402.97	1245.16
403.17	1259.21
403.36	1275.59
403.55	1294.32
403.74	1296.66
403.93	1364.53
404.13	1488.58
404.32	1434.75
404.51	1432.41
404.70	1460.49
404.89	1416.02
405.09	1383.26
405.28	1301.34
405.47	1383.26
405.66	1416.02
405.85	1394.96
406.05	1352.83
406.24	1390.28
406.43	1451.13
406.62	1481.56
406.81	1462.83
407.00	1397.30
407.20	1441.77
407.39	1514.33
407.58	1453.47
407.77	1502.62
407.96	1549.43
408.15	1514.33
408.34	1523.69
408.54	1490.92
408.73	1549.43
408.92	1535.39
409.11	1624.33
409.30	1556.46
409.49	1558.80
409.68	1605.61
409.87	1479.22
410.07	1607.95
410.26	1589.22
410.45	1516.67
410.64	1544.75
410.83	1633.69
411.02	1680.50
411.21	1624.33
411.40	1591.56
411.59	1678.16
411.78	1547.09
411.98	1607.95
412.17	1626.67
412.36	1732.00
412.55	1668.80
412.74	1708.59
412.93	1673.48
413.12	1593.90
413.31	1736.68
413.50	1732.00
413.69	1736.68
413.88	1832.64
414.07	1790.51
414.26	1818.60
414.45	1846.68
414.64	1909.88
414.83	1806.89
415.02	1872.43
415.22	1834.98
415.41	1816.26
415.60	1865.41
415.79	1966.05
415.98	1926.26
416.17	1926.26
416.36	1970.73
416.55	1874.77
416.74	1954.35
416.93	1926.26
417.12	2059.67
417.31	2012.86
417.50	1984.77
417.69	1982.43
417.88	2031.58
418.07	2017.54
418.26	2012.86
418.45	2083.08
418.64	2099.46
418.83	2092.44
419.02	2141.59
419.21	2207.13
419.39	2017.54
419.58	2155.63
419.77	2120.53
419.96	2251.60
420.15	2076.06
420.34	2125.21
420.53	2179.04
420.72	2127.55
420.91	2125.21
421.10	2228.19
421.29	2239.89
421.48	2111.16
421.67	2260.96
421.86	2279.68
422.05	2204.78
422.24	2307.77
422.43	2282.02
422.61	2310.11
422.80	2331.17
422.99	2249.25
423.18	2326.49
423.37	2282.02
423.56	2207.13
423.75	2282.02
423.94	2167.34
424.13	2118.18
424.32	2174.36
424.50	2207.13
424.69	2314.79
424.88	2244.57
425.07	2155.63
425.26	2176.70
425.45	2333.51
425.64	2244.57
425.83	2237.55
426.01	2328.83
426.20	2272.66
426.39	2279.68
426.58	2289.04
426.77	2270.32
426.96	2270.32
427.15	2340.54
427.33	2377.98
427.52	2237.55
427.71	2448.20
427.90	2399.05
428.09	2480.97
428.28	2438.84
428.46	2361.60
428.65	2415.43
428.84	2492.67
429.03	2377.98
429.22	2450.54
429.40	2401.39
429.59	2469.27
429.78	2356.92
429.97	2377.98
430.16	2445.86
430.34	2427.14
430.53	2427.14
430.72	2530.12
430.91	2455.22
431.10	2452.88
431.28	2569.91
431.47	2588.63
431.66	2600.34
431.85	2588.63
432.03	2576.93
432.22	2583.95
432.41	2635.44
432.60	2600.34
432.79	2612.04
432.97	2682.25
433.16	2642.46
433.35	2651.83
433.54	2537.14
433.72	2633.10
433.91	2593.31
434.10	2675.23
434.28	2581.61
434.47	2609.70
434.66	2771.19
434.85	2775.88
435.03	2951.42
435.22	3171.43
435.41	3213.56
435.59	3054.40
435.78	2986.52
435.97	3002.91
436.16	2932.69
436.34	2775.88
436.53	2932.69
436.72	2794.60
436.90	2892.90
437.09	2855.45
437.28	2775.88
437.46	2867.16
437.65	2825.03
437.84	2953.76
438.02	2895.24
438.21	2951.42
438.40	2853.11
438.58	2949.08
438.77	2974.82
438.96	2981.84
439.14	3115.25
439.33	2967.80
439.52	3028.65
439.70	3033.33
439.89	3138.66
440.08	3056.74
440.26	3028.65
440.45	2986.52
440.63	3054.40
440.82	3117.59
441.01	3117.59
441.19	3185.47
441.38	3173.77
441.57	3302.50
441.75	3178.45
441.94	3290.79
442.12	3243.98
442.31	3307.18
442.50	3375.05
442.68	3283.77
442.87	3391.44
443.05	3328.24
443.24	3297.81
443.43	3456.97
443.61	3332.92
443.80	3501.44
443.98	3218.24
444.17	3220.58
444.35	3410.16
444.54	3419.52
444.73	3379.73
444.91	3545.91
445.10	3349.31
445.28	3454.63
445.47	3454.63
445.65	3400.80
445.84	3389.10
446.02	3487.40
446.21	3461.65
446.39	3384.41
446.58	3559.95
446.77	3576.34
446.95	3447.61
447.14	3438.25
447.32	3466.33
447.51	3452.29
447.69	3314.20
447.88	3386.76
448.06	3517.83
448.25	3604.42
448.43	3494.42
448.62	3449.95
448.80	3548.25
448.99	3581.02
449.17	3651.24
449.36	3517.83
449.54	3592.72
449.73	3623.15
449.91	3698.05
450.10	3644.21
450.28	3808.05
450.46	3641.87
450.65	3662.94
450.83	3705.07
451.02	3583.36
451.20	3693.37
451.39	3651.24
451.57	3747.20
451.76	3702.73
451.94	3644.21
452.13	3794.01
452.31	3801.03
452.49	3798.69
452.68	3857.20
452.86	3843.16
453.05	3733.15
453.23	3723.79
453.42	3662.94
453.60	3889.97
453.78	3770.60
453.97	3784.65
454.15	3819.75
454.34	3735.50
454.52	3777.62
454.70	3826.78
454.89	3850.18
455.07	3864.22
455.26	3974.23
455.44	3831.46
455.62	3751.88
455.81	3887.63
455.99	3922.74
456.17	4058.49
456.36	3894.65
456.54	3894.65
456.73	3812.73
456.91	3997.64
457.09	4070.19
457.28	4049.13
457.46	3990.61
457.64	4100.62
457.83	4079.55
458.01	4077.21
458.19	4035.08
458.38	4114.66
458.56	4194.24
458.74	4060.83
458.93	4285.52
459.11	4168.49
459.29	4156.79
459.48	4100.62
459.66	4189.56
459.84	4231.69
460.03	4294.88
460.21	4175.52
460.39	4290.20
460.57	4358.08
460.76	4299.56
460.94	4320.63
461.12	4397.87
461.31	4454.04
461.49	4278.50
461.67	4315.95
461.85	4299.56
462.04	4484.47
462.22	4713.84
462.40	4444.68
462.59	4458.72
462.77	4486.81
462.95	4610.86
463.13	4447.02
463.32	4568.73
463.50	4512.55
463.68	4393.19
463.86	4578.09
464.05	4561.70
464.23	4470.42
464.41	4580.43
464.59	4484.47
464.78	4676.39
464.96	4645.96
465.14	4697.46
465.32	4662.35
465.50	4629.58
465.69	4755.97
465.87	4580.43
466.05	4524.26
466.23	4589.79
466.41	4770.01
466.60	4711.50
466.78	4601.49
466.96	4674.05
467.14	4704.48
467.32	4786.40
467.51	4856.61
467.69	4833.21
467.87	4688.09
468.05	4770.01
468.23	4709.16
468.41	4711.50
468.60	4718.52
468.78	4865.97
468.96	4844.91
469.14	4985.34
469.32	4910.44
469.50	4760.65
469.69	4933.85
469.87	4835.55
470.05	4898.74
470.23	4966.62
470.41	5018.11
470.59	5022.79
470.77	4952.57
470.95	5109.39
471.14	4997.04
471.32	5025.13
471.50	5088.32
471.68	5212.37
471.86	5043.85
472.04	5231.10
472.22	5310.68
472.40	5238.12
472.58	5055.56
472.77	5334.08
472.95	5451.11
473.13	5350.46
473.31	5362.17
473.49	5261.52
473.67	5420.68
473.85	5437.06
474.03	5397.28
474.21	5479.19
474.39	5570.48
474.57	5507.28
474.75	5542.39
474.93	5521.32
475.12	5673.46
475.30	5584.52
475.48	5570.48
475.66	5547.07
475.84	5481.53
476.02	5802.19
476.20	5720.27
476.38	5937.94
476.56	5825.59
476.74	5926.24
476.92	5839.64
477.10	5839.64
477.28	5902.83
477.46	6012.84
477.64	6017.52
477.82	6153.27
478.00	6298.38
478.18	6239.87
478.36	6331.15
478.54	6401.37
478.72	6237.53
478.90	6340.51
479.08	6389.66
479.26	6511.37
479.44	6445.84
479.62	6417.75
479.80	6668.19
479.98	6401.37
480.16	6628.40
480.34	6691.59
480.52	6822.66
480.70	6715.00
480.88	6670.53
481.06	6829.68
481.24	6829.68
481.41	6881.18
481.59	7016.93
481.77	7101.19
481.95	7187.79
482.13	7180.76
482.31	7143.32
482.49	7363.33
482.67	7356.30
482.85	7375.03
483.03	7393.75
483.21	7482.69
483.39	7447.58
483.57	7595.04
483.74	7653.55
483.92	7691.00
484.10	7620.78
484.28	7754.19
484.46	7805.69
484.64	8095.91
484.82	7941.44
485.00	7868.88
485.18	8124.00
485.35	8053.78
485.53	8201.24
485.71	8152.09
485.89	8360.39
486.07	8276.13
486.25	8208.26
486.43	8238.69
486.61	8458.70
486.78	8505.51
486.96	8772.33
487.14	8762.97
487.32	8601.47
487.50	8793.39
487.68	8847.22
487.85	8727.86
488.03	8964.25
488.21	8947.87
488.39	9341.08
488.57	9275.54
488.75	9336.40
488.92	9362.14
489.10	9177.24
489.28	9514.28
489.46	9678.12
489.64	9465.13
489.81	9745.99
489.99	9748.33
490.17	9841.95
490.35	9720.24
490.53	10146.22
490.70	9853.66
490.88	9919.19
491.06	10169.63
491.24	10083.03
491.41	10176.65
491.59	10230.48
491.77	10160.27
491.95	10478.58
492.13	10406.02
492.30	10272.61
492.48	10457.51
492.66	10494.96
492.84	10532.41
493.01	10619.01
493.19	10822.64
493.37	10743.06
493.54	10745.40
493.72	10923.28
493.90	10824.98
494.08	11094.14
494.25	11276.70
494.43	11047.33
494.61	11241.59
494.79	11080.10
494.96	11281.38
495.14	11316.49
495.32	11220.53
495.49	11410.11
495.67	11405.43
495.85	11513.10
496.02	11756.51
496.20	11562.25
496.38	11723.74
496.55	11779.92
496.73	12023.33
496.91	11896.94
497.09	11751.83
497.26	11960.14
497.44	11978.86
497.62	11929.71
497.79	12376.75
497.97	12297.17
498.14	12278.45
498.32	12456.33
498.50	12336.96
498.67	12566.34
498.85	12500.80
499.03	12414.20
499.20	12341.64
499.38	12430.59
499.56	12868.27
499.73	12477.40
499.91	12636.55
500.08	12884.65
500.26	12800.39
500.44	12819.11
500.61	13104.66
500.79	12739.54
500.97	13266.16
501.14	13200.62
501.32	12908.05
501.49	13135.09
501.67	13142.11
501.84	13338.71
502.02	13284.88
502.20	13399.57
502.37	13172.54
502.55	13355.10
502.72	13479.15
502.90	13415.95
503.07	13369.14
503.25	13547.02
503.43	13434.68
503.60	13495.53
503.78	13741.29
503.95	13685.11
504.13	13708.52
504.30	13607.87
504.48	13635.96
504.65	14185.99
504.83	13998.74
505.01	13968.32
505.18	14019.81
505.36	14160.24
505.53	13891.08
505.71	14345.14
505.88	14303.01
506.06	14251.52
506.23	14118.11
506.41	14221.10
506.58	14193.01
506.76	14230.46
506.93	14319.40
507.11	14490.26
507.28	14644.73
507.46	14429.40
507.63	14457.49
507.81	14314.72
507.98	14448.13
508.16	14427.06
508.33	14480.89
508.50	14759.42
508.68	15044.96
508.85	15169.01
509.03	14913.89
509.20	14932.62
509.38	15040.28
509.55	15091.77
509.73	15166.67
509.90	15159.65
510.08	15208.80
510.25	15122.20
510.42	15342.21
510.60	15386.68
510.77	15356.25
510.95	15466.26
511.12	15267.31
511.30	15529.45
511.47	15178.37
511.64	15723.72
511.82	15641.80
511.99	15225.18
512.17	15805.64
512.34	15709.68
512.51	15941.39
512.69	16046.71
512.86	15843.09
513.04	15712.02
513.21	15843.09
513.38	15768.19
513.56	16049.05
513.73	15831.38
513.90	15948.41
514.08	16030.33
514.25	16318.22
514.43	16163.74
514.60	16142.67
514.77	16049.05
514.95	16091.18
515.12	16219.91
515.29	16056.08
515.47	16524.18
515.64	16418.86
515.81	16659.93
515.99	16559.29
516.16	16390.77
516.33	16585.04
516.51	16610.78
516.68	16580.36
516.85	16727.81
517.03	16950.16
517.20	16798.02
517.37	16681.00
517.54	16809.73
517.72	16999.31
517.89	16879.94
518.06	17003.99
518.24	16959.52
518.41	16762.92
518.58	17057.82
518.75	16966.54
518.93	17006.33
519.10	16912.71
519.27	17139.74
519.45	17041.44
519.62	17238.05
519.79	17401.88
519.96	17128.04
520.14	17149.11
520.31	17371.46
520.48	17238.05
520.65	17202.94
520.83	17507.21
521.00	17493.16
521.17	17479.12
521.34	17509.55
521.52	17671.04
521.69	17507.21
521.86	17343.37
522.03	17855.95
522.20	17717.86
522.38	17879.35
522.55	17961.27
522.72	17591.47
522.89	17717.86
523.07	18026.81
523.24	17884.03
523.41	18031.49
523.58	18005.74
523.75	18155.54
523.92	18192.98
524.10	18288.95
524.27	17998.72
524.44	18230.43
524.61	18279.58
524.78	18218.73
524.96	18354.48
525.13	18214.05
525.30	18300.65
525.47	18331.08
525.64	18403.63
525.81	18396.61
525.98	18324.05
526.16	18375.55
526.33	18104.04
526.50	18843.65
526.67	18382.57
526.84	18728.97
527.01	18551.09
527.18	18925.57
527.36	18698.54
527.53	18670.45
527.70	18911.53
527.87	18888.12
528.04	19119.84
528.21	19051.96
528.38	18827.27
528.55	18845.99
528.72	18597.90
528.89	18834.29
529.07	18703.22
529.24	18768.76
529.41	19178.35
529.58	19501.34
529.75	18981.74
529.92	18984.09
530.09	19255.59
530.26	19166.65
530.43	19344.53
530.60	19229.84
530.77	19339.85
530.94	19503.68
531.11	19513.05
531.28	19386.66
531.46	19590.28
531.63	19447.51
531.80	19300.06
531.97	19386.66
532.14	19445.17
532.31	19365.59
532.48	19508.37
532.65	19541.13
532.82	19470.92
532.99	19536.45
533.16	19499.00
533.33	19300.06
533.50	19798.59
533.67	19672.20
533.84	19520.07
534.01	19922.64
534.18	19630.07
534.35	19880.51
534.52	19782.21
534.69	19985.83
534.86	19924.98
535.03	19929.66
535.20	19962.43
535.37	19941.36
535.54	20100.52
535.71	20009.24
535.88	20198.82
536.05	19950.73
536.22	20339.26
536.38	20311.17
536.55	20198.82
536.72	20144.99
536.89	20262.02
537.06	20229.25
537.23	20367.34
537.40	20437.56
537.57	20306.49
537.74	19843.06
537.91	20613.10
538.08	20236.27
538.25	20240.95
538.42	20332.23
538.59	20807.36
538.75	20465.64
538.92	20496.07
539.09	20865.88
539.26	20519.48
539.43	20308.83
539.60	20645.87
539.77	20671.61
539.94	21050.78
540.11	20919.71
540.28	20776.94
540.44	21018.01
540.61	20624.80
540.78	20872.90
540.95	21165.46
541.12	21221.64
541.29	21441.65
541.46	21350.37
541.62	21380.79
541.79	21205.25
541.96	21341.00
542.13	21128.02
542.30	21149.08
542.47	21338.66
542.63	21624.21
542.80	21605.49
542.97	21734.21
543.14	21869.97
543.31	21804.43
543.48	21469.73
543.64	21813.79
543.81	21514.20
543.98	21682.72
544.15	21692.08
544.32	21699.11
544.48	21502.50
544.65	21748.26
544.82	21790.39
544.99	21968.27
545.16	21710.81
545.32	22092.32
545.49	22204.66
545.66	22616.60
545.83	23122.15
546.00	22806.18
546.16	22499.57
546.33	22089.98
546.50	22155.51
546.67	22176.58
546.83	21853.58
547.00	21699.11
547.17	21790.39
547.34	22183.60
547.50	22075.93
547.67	22153.17
547.84	21961.25
548.00	22249.13
548.17	22305.31
548.34	21628.89
548.51	22375.52
548.67	22071.25
548.84	21958.91
549.01	22008.06
549.18	22148.49
549.34	22169.55
549.51	22153.17
549.68	22111.04
549.84	22080.61
550.01	21986.99
550.18	22066.57
550.34	22075.93
550.51	22120.40
550.68	22822.56
550.84	22293.60
551.01	22309.99
551.18	22045.51
551.34	22401.27
551.51	22242.11
551.68	22293.60
551.84	22286.58
552.01	22061.89
552.18	22745.33
552.34	22429.35
552.51	22478.50
552.68	22361.48
552.84	22492.55
553.01	22712.56
553.18	22726.60
553.34	22628.30
553.51	22501.91
553.67	22422.33
553.84	22356.80
554.01	22719.58
554.17	22499.57
554.34	22340.41
554.51	22518.29
554.67	22581.49
554.84	22642.34
555.00	22300.62
555.17	22384.88
555.33	22396.59
555.50	22139.13
555.67	22867.03
555.83	22417.65
556.00	22424.67
556.16	22745.33
556.33	22813.20
556.50	22260.84
556.66	22583.83
556.83	22473.82
556.99	22710.22
557.16	22845.97
557.32	22927.89
557.49	22862.35
557.65	22661.07
557.82	22679.79
557.98	22651.70
558.15	22497.23
558.32	22803.84
558.48	22892.78
558.65	23220.45
558.81	22888.10
558.98	22890.44
559.14	22534.68
559.31	22862.35
559.47	22724.26
559.64	22895.12
559.80	22869.37
559.97	22803.84
560.13	22691.49
560.30	22691.49
560.46	23098.75
560.63	22998.10
560.79	23002.78
560.96	22995.76
561.12	22822.56
561.29	22995.76
561.45	22927.89
561.61	23370.25
561.78	23040.23
561.94	23297.69
562.11	23318.76
562.27	23398.34
562.44	23190.03
562.60	23119.81
562.77	22993.42
562.93	23068.32
563.10	23140.88
563.26	22988.74
563.42	23316.42
563.59	23332.80
563.75	23126.83
563.92	23384.29
564.08	23328.12
564.24	23227.48
564.41	23012.15
564.57	23225.14
564.74	23194.71
564.90	23625.37
565.07	23386.63
565.23	23190.03
565.39	23379.61
565.56	23381.95
565.72	23204.07
565.88	23370.25
566.05	23384.29
566.21	23019.17
566.38	23173.64
566.54	23293.01
566.70	23466.21
566.87	23651.11
567.03	23297.69
567.19	23768.14
567.36	23695.58
567.52	23412.38
567.68	23295.35
567.85	23452.17
568.01	23428.76
568.17	23253.22
568.34	23522.38
568.50	23590.26
568.66	23117.47
568.83	23445.15
568.99	23222.80
569.15	23477.91
569.32	23398.34
569.48	23096.41
569.64	23321.10
569.81	23372.59
569.97	23150.24
570.13	23452.17
570.30	23545.79
570.46	23262.58
570.62	23253.22
570.78	23110.45
570.95	23250.88
571.11	23665.16
571.27	23295.35
571.43	23456.85
571.60	23704.95
571.76	23564.51
571.92	23183.01
572.09	23559.83
572.25	23585.58
572.41	23587.92
572.57	23459.19
572.74	23311.74
572.90	23363.23
573.06	23463.87
573.22	23428.76
573.38	23850.06
573.55	23447.49
573.71	23592.60
573.87	23880.49
574.03	23466.21
574.20	23960.06
574.36	23257.90
574.52	23461.53
574.68	23791.55
574.84	23627.71
575.01	23948.36
575.17	23854.74
575.33	23435.78
575.49	23690.90
575.65	23576.22
575.82	23800.91
575.98	23798.57
576.14	23796.23
576.30	23718.99
576.46	23608.98
576.62	23676.86
576.79	23726.01
576.95	23351.52
577.11	23454.51
577.27	23702.61
577.43	23775.16
577.59	23646.43
577.75	23658.14
577.92	23449.83
578.08	23569.19
578.24	23494.30
578.40	24245.61
578.56	23843.04
578.72	23779.84
578.88	23978.79
579.04	24105.18
579.21	23847.72
579.37	23723.67
579.53	23953.04
579.69	23880.49
579.85	24112.20
580.01	23882.83
580.17	23836.02
580.33	23920.28
580.49	23459.19
580.65	23995.17
580.82	23983.47
580.98	23503.66
581.14	23997.51
581.30	23779.84
581.46	23676.86
581.62	23491.96
581.78	23515.36
581.94	23594.94
582.10	23630.05
582.26	23831.33
582.42	23740.05
582.58	23847.72
582.74	23510.68
582.90	23960.06
583.06	23770.48
583.22	23693.24
583.38	23920.28
583.54	23894.53
583.70	23992.83
583.86	23955.38
584.02	23941.34
584.18	23896.87
584.34	24137.94
584.50	24004.53
584.66	23728.35
584.82	23667.50
584.98	24041.98
585.14	23662.82
585.30	23901.55
585.46	23878.15
585.62	23590.26
585.78	23852.40
585.94	23824.31
586.10	23894.53
586.26	24081.77
586.42	24119.22
586.58	23873.46
586.74	23983.47
586.90	23950.70
587.06	24147.31
587.22	24060.71
587.38	24128.58
587.54	24151.99
587.70	24203.48
587.86	24037.30
588.02	23953.04
588.18	24299.44
588.34	23899.21
588.49	23946.02
588.65	24102.84
588.81	23948.36
588.97	24266.67
589.13	24247.95
589.29	23894.53
589.45	24376.68
589.61	24161.35
589.77	24453.92
589.93	24091.13
590.08	24198.80
590.24	24107.52
590.40	24311.14
590.56	24215.18
590.72	24027.94
590.88	23632.39
