SpectraSuite Data File
++++++++++++++++++++++++++++++++++++
Date: Thu Oct 24 13:21:09 EDT 2013
User: stostad
Dark Spectrum Present: No
Reference Spectrum Present: No
Number of Sampled Component Spectra: 1
Spectrometers: USB2+H05261
Integration Time (usec): 100000 (USB2+H05261)
Spectra Averaged: 1 (USB2+H05261)
Boxcar Smoothing: 0 (USB2+H05261)
Correct for Electrical Dark: No (USB2+H05261)
Strobe/Lamp Enabled: No (USB2+H05261)
Correct for Detector Non-linearity: No (USB2+H05261)
Correct for Stray Light: No (USB2+H05261)
Number of Pixels in Processed Spectrum: 2048
>>>>>Begin Processed Spectral Data<<<<<
365.73	547.69
365.92	547.69
366.12	547.69
366.32	517.26
366.52	496.19
366.72	468.11
366.91	444.70
367.11	479.81
367.31	526.62
367.51	437.68
367.70	430.66
367.90	498.53
368.10	538.32
368.30	444.70
368.49	428.32
368.69	491.51
368.89	428.32
369.09	447.04
369.28	498.53
369.48	505.56
369.68	444.70
369.87	486.83
370.07	564.07
370.27	547.69
370.47	594.50
370.66	648.33
370.86	720.88
371.06	718.54
371.25	685.78
371.45	744.29
371.65	720.88
371.84	777.06
372.04	741.95
372.24	805.14
372.44	739.61
372.63	758.33
372.83	781.74
373.03	767.70
373.22	786.42
373.42	667.05
373.62	753.65
373.81	856.64
374.01	828.55
374.21	779.40
374.40	898.77
374.60	858.98
374.79	842.59
374.99	814.51
375.19	791.10
375.38	779.40
375.58	870.68
375.78	894.08
375.97	856.64
376.17	814.51
376.37	861.32
376.56	844.93
376.76	805.14
376.95	784.08
377.15	837.91
377.35	828.55
377.54	798.12
377.74	835.57
377.93	870.68
378.13	788.76
378.33	854.30
378.52	800.46
378.72	884.72
378.91	835.57
379.11	889.40
379.31	866.00
379.50	828.55
379.70	786.42
379.89	896.43
380.09	842.59
380.28	854.30
380.48	922.17
380.68	847.27
380.87	898.77
381.07	868.34
381.26	912.81
381.46	938.55
381.65	833.23
381.85	837.91
382.04	830.89
382.24	877.70
382.43	912.81
382.63	880.04
382.83	954.94
383.02	917.49
383.22	976.00
383.41	863.66
383.61	880.04
383.80	968.98
384.00	887.06
384.19	910.47
384.39	800.46
384.58	877.70
384.78	870.68
384.97	868.34
385.17	877.70
385.36	1006.43
385.56	917.49
385.75	971.32
385.95	875.36
386.14	947.92
386.34	891.74
386.53	1053.24
386.72	940.90
386.92	936.21
387.11	1050.90
387.31	950.26
387.50	945.58
387.70	980.68
387.89	938.55
388.09	968.98
388.28	966.64
388.48	1039.20
388.67	1032.18
388.86	994.73
389.06	964.30
389.25	1020.47
389.45	919.83
389.64	997.07
389.84	980.68
390.03	1090.69
390.22	964.30
390.42	936.21
390.61	1001.75
390.81	973.66
391.00	1041.54
391.19	990.05
391.39	1027.50
391.58	1027.50
391.78	922.17
391.97	1027.50
392.16	933.87
392.36	1057.92
392.55	1041.54
392.75	1083.67
392.94	976.00
393.13	1039.20
393.33	1107.07
393.52	1095.37
393.71	1137.50
393.91	1088.35
394.10	1006.43
394.29	1137.50
394.49	1055.58
394.68	1078.99
394.88	1144.52
395.07	1181.97
395.26	1139.84
395.46	1116.44
395.65	1174.95
395.84	1212.40
396.04	1231.12
396.23	1125.80
396.42	1123.46
396.62	1121.12
396.81	1198.35
397.00	1170.27
397.19	1200.69
397.39	1116.44
397.58	1135.16
397.77	1186.65
397.97	1163.25
398.16	1137.50
398.35	1174.95
398.55	1228.78
398.74	1217.08
398.93	1203.04
399.12	1186.65
399.32	1181.97
399.51	1149.20
399.70	1266.23
399.90	1203.04
400.09	1221.76
400.28	1345.81
400.47	1259.21
400.67	1273.25
400.86	1317.72
401.05	1277.93
401.24	1287.29
401.44	1345.81
401.63	1336.45
401.82	1301.34
402.01	1277.93
402.21	1310.70
402.40	1348.15
402.59	1320.06
402.78	1324.74
402.97	1423.05
403.17	1329.42
403.36	1313.04
403.55	1336.45
403.74	1369.21
403.93	1378.58
404.13	1547.09
404.32	1476.88
404.51	1366.87
404.70	1451.13
404.89	1423.05
405.09	1420.71
405.28	1383.26
405.47	1497.94
405.66	1420.71
405.85	1418.36
406.05	1460.49
406.24	1451.13
406.43	1507.30
406.62	1432.41
406.81	1495.60
407.00	1458.15
407.20	1523.69
407.39	1533.05
407.58	1535.39
407.77	1558.80
407.96	1495.60
408.15	1600.93
408.34	1596.25
408.54	1607.95
408.73	1423.05
408.92	1483.90
409.11	1612.63
409.30	1565.82
409.49	1519.01
409.68	1600.93
409.87	1647.74
410.07	1633.69
410.26	1685.19
410.45	1678.16
410.64	1657.10
410.83	1638.38
411.02	1657.10
411.21	1696.89
411.40	1696.89
411.59	1748.38
411.78	1582.20
411.98	1703.91
412.17	1760.08
412.36	1696.89
412.55	1715.61
412.74	1806.89
412.93	1856.04
413.12	1795.19
413.31	1874.77
413.50	1888.81
413.69	1776.47
413.88	1902.86
414.07	1923.92
414.26	1907.54
414.45	1893.49
414.64	1909.88
414.83	1884.13
415.02	1895.83
415.22	2038.61
415.41	1947.33
415.60	2064.35
415.79	1975.41
415.98	2031.58
416.17	2015.20
416.36	2066.69
416.55	2005.84
416.74	2099.46
416.93	2157.97
417.12	2031.58
417.31	2085.42
417.50	2150.95
417.69	2136.91
417.88	2106.48
418.07	2204.78
418.26	2221.17
418.45	2160.31
418.64	2244.57
418.83	2253.94
419.02	2167.34
419.21	2207.13
419.39	2256.28
419.58	2223.51
419.77	2272.66
419.96	2282.02
420.15	2319.47
420.34	2293.72
420.53	2293.72
420.72	2310.11
420.91	2249.25
421.10	2317.13
421.29	2317.13
421.48	2331.17
421.67	2223.51
421.86	2392.03
422.05	2354.58
422.24	2349.90
422.43	2354.58
422.61	2340.54
422.80	2506.71
422.99	2478.63
423.18	2476.29
423.37	2408.41
423.56	2427.14
423.75	2420.11
423.94	2314.79
424.13	2256.28
424.32	2207.13
424.50	2382.67
424.69	2387.35
424.88	2399.05
425.07	2497.35
425.26	2417.77
425.45	2347.56
425.64	2438.84
425.83	2335.85
426.01	2443.52
426.20	2377.98
426.39	2429.48
426.58	2396.71
426.77	2478.63
426.96	2532.46
427.15	2403.73
427.33	2506.71
427.52	2551.18
427.71	2487.99
427.90	2422.45
428.09	2513.74
428.28	2478.63
428.46	2567.57
428.65	2480.97
428.84	2640.12
429.03	2597.99
429.22	2644.81
429.40	2649.49
429.59	2649.49
429.78	2588.63
429.97	2609.70
430.16	2539.48
430.34	2600.34
430.53	2628.42
430.72	2633.10
430.91	2630.76
431.10	2626.08
431.28	2743.11
431.47	2689.28
431.66	2684.59
431.85	2656.51
432.03	2705.66
432.22	2832.05
432.41	2740.77
432.60	2771.19
432.79	2801.62
432.97	2841.41
433.16	2780.56
433.35	2752.47
433.54	2881.20
433.72	2890.56
433.91	2761.83
434.10	2867.16
434.28	2942.05
434.47	2937.37
434.66	2916.31
434.85	3091.85
435.03	3150.36
435.22	3150.36
435.41	3393.78
435.59	3173.77
435.78	3201.85
435.97	3192.49
436.16	3075.46
436.34	3052.06
436.53	3066.10
436.72	2895.24
436.90	2946.73
437.09	2998.23
437.28	2958.44
437.46	3030.99
437.65	2984.18
437.84	3145.68
438.02	3042.70
438.21	3045.04
438.40	3052.06
438.58	3122.27
438.77	3152.70
438.96	3220.58
439.14	3248.66
439.33	3304.84
439.52	3159.72
439.70	3016.95
439.89	3225.26
440.08	3288.45
440.26	3328.24
440.45	3253.34
440.63	3365.69
440.82	3419.52
441.01	3234.62
441.19	3353.99
441.38	3328.24
441.57	3405.48
441.75	3361.01
441.94	3529.53
442.12	3527.19
442.31	3543.57
442.50	3499.10
442.68	3524.85
442.87	3555.27
443.05	3686.34
443.24	3620.81
443.43	3545.91
443.61	3583.36
443.80	3681.66
443.98	3452.29
444.17	3433.57
444.35	3531.87
444.54	3693.37
444.73	3705.07
444.91	3667.62
445.10	3662.94
445.28	3733.15
445.47	3733.15
445.65	3655.92
445.84	3737.84
446.02	3679.32
446.21	3791.67
446.39	3634.85
446.58	3674.64
446.77	3548.25
446.95	3688.68
447.14	3709.75
447.32	3840.82
447.51	3705.07
447.69	3693.37
447.88	3564.64
448.06	3709.75
448.25	3719.11
448.43	3791.67
448.62	3623.15
448.80	3592.72
448.99	3723.79
449.17	3948.48
449.36	3754.22
449.54	3777.62
449.73	3819.75
449.91	3939.12
450.10	3854.86
450.28	3943.80
450.46	3936.78
450.65	3850.18
450.83	3904.01
451.02	3932.10
451.20	3957.85
451.39	3943.80
451.57	3908.69
451.76	3854.86
451.94	4028.06
452.13	3969.55
452.31	4053.81
452.49	3920.40
452.68	4025.72
452.86	3981.25
453.05	4100.62
453.23	3995.29
453.42	4084.23
453.60	3999.98
453.78	4049.13
453.97	4177.86
454.15	3976.57
454.34	4023.38
454.52	4184.88
454.70	4173.18
454.89	4142.75
455.07	3969.55
455.26	4224.67
455.44	4140.41
455.62	4238.71
455.81	4297.22
455.99	4229.35
456.17	4409.57
456.36	4325.31
456.54	4365.10
456.73	4393.19
456.91	4498.51
457.09	4325.31
457.28	4432.97
457.46	4451.70
457.64	4313.61
457.83	4552.34
458.01	4475.10
458.19	4442.34
458.38	4442.34
458.56	4517.23
458.74	4463.40
458.93	4573.41
459.11	4540.64
459.29	4652.98
459.48	4573.41
459.66	4533.62
459.84	4566.39
460.03	4755.97
460.21	4484.47
460.39	4545.32
460.57	4634.26
460.76	4669.37
460.94	4671.71
461.12	4695.11
461.31	4655.33
461.49	4667.03
461.67	4779.37
461.85	4699.80
462.04	4683.41
462.22	4903.42
462.40	4762.99
462.59	4842.57
462.77	4734.90
462.95	4924.49
463.13	4889.38
463.32	4898.74
463.50	4952.57
463.68	4877.68
463.86	4826.18
464.05	4819.16
464.23	4816.82
464.41	4858.95
464.59	4978.32
464.78	4997.04
464.96	5025.13
465.14	4849.59
465.32	4975.98
465.50	5174.92
465.69	5107.05
465.87	5029.81
466.05	4908.10
466.23	4887.04
466.41	4983.00
466.60	5097.69
466.78	5104.71
466.96	5153.86
467.14	5015.77
467.32	5130.45
467.51	5090.67
467.69	4990.02
467.87	5104.71
468.05	5198.33
468.23	5132.79
468.41	5093.01
468.60	5032.15
468.78	5352.81
468.96	5247.48
469.14	5287.27
469.32	5207.69
469.50	5200.67
469.69	5308.34
469.87	5184.29
470.05	5287.27
470.23	5526.00
470.41	5460.47
470.59	5320.04
470.77	5369.19
470.95	5483.88
471.14	5556.43
471.32	5317.70
471.50	5423.02
471.68	5528.35
471.86	5432.38
472.04	5607.92
472.22	5685.16
472.40	5547.07
472.58	5483.88
472.77	5486.22
472.95	5584.52
473.13	5891.13
473.31	5715.59
473.49	5701.54
473.67	5636.01
473.85	5827.93
474.03	5832.62
474.21	5825.59
474.39	5909.85
474.57	6080.71
474.75	5926.24
474.93	5795.17
475.12	5944.96
475.30	6012.84
475.48	6071.35
475.66	6148.59
475.84	6010.50
476.02	6157.95
476.20	6155.61
476.38	6197.74
476.56	6361.58
476.74	6384.98
476.92	6291.36
477.10	6197.74
477.28	6286.68
477.46	6420.09
477.64	6408.39
477.82	6457.54
478.00	6668.19
478.18	6569.88
478.36	6560.52
478.54	6626.06
478.72	6724.36
478.90	6799.26
479.08	6899.90
479.26	6953.73
479.44	6963.09
479.62	6998.20
479.80	7000.54
479.98	7159.70
480.16	7342.26
480.34	7339.92
480.52	7281.41
480.70	7290.77
480.88	7148.00
481.06	7356.30
481.24	7424.18
481.41	7293.11
481.59	7503.76
481.77	7552.91
481.95	7648.87
482.13	7751.85
482.31	7662.91
482.49	7990.59
482.67	7803.35
482.85	8023.36
483.03	7779.94
483.21	7955.48
483.39	8215.28
483.57	7843.14
483.74	8114.64
483.92	8299.54
484.10	8304.22
484.28	8407.20
484.46	8528.91
484.64	8610.83
484.82	8692.75
485.00	8769.99
485.18	8791.05
485.35	8975.95
485.53	8772.33
485.71	8922.12
485.89	8952.55
486.07	8800.41
486.25	8924.46
486.43	9074.26
486.61	9401.93
486.78	9390.23
486.96	9172.56
487.14	9373.85
487.32	9411.29
487.50	9507.26
487.68	9472.15
487.85	9774.08
488.03	9692.16
488.21	9729.61
488.39	9811.53
488.57	9928.55
488.75	9788.12
488.92	10139.20
489.10	10099.41
489.28	10265.59
489.46	10352.19
489.64	10150.90
489.81	10408.36
489.99	10492.62
490.17	10237.50
490.35	10637.73
490.53	10637.73
490.70	10714.97
490.88	10679.86
491.06	10991.16
491.24	11098.82
491.41	11215.85
491.59	11026.26
491.77	11159.67
491.95	11262.66
492.13	11225.21
492.30	11300.11
492.48	11325.85
492.66	11414.79
492.84	11398.41
493.01	11243.93
493.19	11513.10
493.37	11679.27
493.54	11468.62
493.72	11852.47
493.90	11843.11
494.08	11955.46
494.25	11957.80
494.43	12028.01
494.61	11899.28
494.79	12039.72
494.96	12112.27
495.14	12252.70
495.32	12301.86
495.49	12290.15
495.67	12425.90
495.85	12573.36
496.02	12877.63
496.20	12575.70
496.38	12800.39
496.55	12629.53
496.73	13041.46
496.91	12723.15
497.09	13083.59
497.26	12966.57
497.44	12954.87
497.62	13020.40
497.79	13188.92
497.97	12940.82
498.14	13109.34
498.32	13362.12
498.50	13369.14
498.67	13540.00
498.85	13516.59
499.03	13596.17
499.20	13771.71
499.38	13792.78
499.56	13593.83
499.73	13743.63
499.91	13827.88
500.08	13720.22
500.26	13778.73
500.44	13970.66
500.61	14029.17
500.79	13907.46
500.97	14200.03
501.14	14068.96
501.32	13975.34
501.49	14111.09
501.67	14190.67
501.84	14300.67
502.02	14434.08
502.20	14415.36
502.37	14436.42
502.55	14537.07
502.72	14483.24
502.90	14513.66
503.07	14644.73
503.25	14717.29
503.43	14541.75
503.60	14778.14
503.78	14934.96
503.95	14841.34
504.13	14878.79
504.30	15073.05
504.48	14913.89
504.65	15316.47
504.83	15176.03
505.01	15417.11
505.18	15393.70
505.36	15613.71
505.53	15082.41
505.71	15360.94
505.88	15257.95
506.06	15307.10
506.23	15555.20
506.41	15281.36
506.58	15363.28
506.76	15466.26
506.93	15655.84
507.11	15805.64
507.28	15857.13
507.46	15782.23
507.63	16006.92
507.81	15964.79
507.98	15747.12
508.16	16004.58
508.33	16067.78
508.50	16067.78
508.68	16460.99
508.85	16524.18
509.03	16339.28
509.20	16236.30
509.38	16315.87
509.55	16552.27
509.73	16479.71
509.90	16369.71
510.08	16505.46
510.25	16608.44
510.42	16578.01
510.60	16751.21
510.77	16613.12
510.95	16805.05
511.12	16765.26
511.30	16844.84
511.47	17008.67
511.64	16994.63
511.82	17263.79
511.99	16982.93
512.17	16779.30
512.34	16952.50
512.51	17172.51
512.69	17111.66
512.86	17057.82
513.04	17259.11
513.21	17160.81
513.38	17163.15
513.56	17399.54
513.73	17481.46
513.90	17558.70
514.08	17362.09
514.25	17717.86
514.43	17713.17
514.60	17895.74
514.77	17516.57
514.95	17767.01
515.12	17621.89
515.29	17563.38
515.47	18073.62
515.64	18101.70
515.81	17841.90
515.99	17975.31
516.16	17898.08
516.33	18073.62
516.51	18134.47
516.68	18387.25
516.85	18190.64
517.03	18434.06
517.20	18209.37
517.37	18272.56
517.54	18286.61
517.72	18094.68
517.89	18188.30
518.06	18300.65
518.24	18520.66
518.41	18457.46
518.58	18401.29
518.75	18209.37
518.93	18466.83
519.10	18445.76
519.27	18700.88
519.45	18682.16
519.62	18717.26
519.79	18499.59
519.96	18696.20
520.14	18647.05
520.31	18801.52
520.48	18824.93
520.65	18794.50
520.83	19077.71
521.00	19143.24
521.17	18988.77
521.34	19239.20
521.52	19101.11
521.69	19133.88
521.86	19016.85
522.03	19229.84
522.20	19400.70
522.38	19192.39
522.55	19311.76
522.72	19363.25
522.89	19241.54
523.07	19719.01
523.24	19321.12
523.41	19714.33
523.58	19098.77
523.75	19484.96
523.92	19658.16
524.10	19695.61
524.27	19651.14
524.44	19599.65
524.61	19894.55
524.78	19824.34
524.96	19679.22
525.13	19875.83
525.30	20039.67
525.47	20170.74
525.64	20287.76
525.81	19924.98
525.98	20077.12
526.16	19974.13
526.33	19971.79
526.50	20093.50
526.67	20149.67
526.84	20393.09
527.01	20428.20
527.18	20290.10
527.36	20327.55
527.53	20425.86
527.70	20416.49
527.87	20381.38
528.04	20250.32
528.21	20505.43
528.38	20519.48
528.55	20573.31
528.72	20334.57
528.89	20657.57
529.07	20442.24
529.24	20486.71
529.41	20805.02
529.58	20552.24
529.75	20638.84
529.92	20645.87
530.09	20617.78
530.26	20664.59
530.43	20769.91
530.60	20627.14
530.77	20851.83
530.94	21067.16
531.11	20781.62
531.28	20994.61
531.46	21221.64
531.63	21240.36
531.80	21041.42
531.97	21270.79
532.14	21275.47
532.31	21319.94
532.48	21284.83
532.65	21219.30
532.82	21074.18
532.99	21174.83
533.16	21525.91
533.33	21764.64
533.50	21500.16
533.67	21415.90
533.84	21345.69
534.01	21474.42
534.18	21460.37
534.35	21523.57
534.52	21525.91
534.69	21685.06
534.86	21788.05
535.03	21247.38
535.20	21413.56
535.37	21795.07
535.54	22113.38
535.71	21755.28
535.88	21788.05
536.05	21818.47
536.22	21774.00
536.38	21834.86
536.55	21951.88
536.72	21846.56
536.89	21884.01
537.06	22003.38
537.23	22146.15
537.40	22038.48
537.57	21982.31
537.74	22012.74
537.91	22429.35
538.08	22288.92
538.25	21745.92
538.42	22155.51
538.59	22698.52
538.75	22178.92
538.92	22576.81
539.09	22394.25
539.26	22424.67
539.43	22438.72
539.60	22270.20
539.77	22632.98
539.94	22501.91
540.11	22574.47
540.28	22787.46
540.44	22981.72
540.61	22597.87
540.78	22726.60
540.95	22850.65
541.12	23190.03
541.29	23201.73
541.46	23175.98
541.62	23318.76
541.79	23271.95
541.96	23019.17
542.13	23012.15
542.30	22946.61
542.47	23328.12
542.63	23101.09
542.80	23552.81
542.97	23690.90
543.14	23824.31
543.31	23669.84
543.48	23503.66
543.64	24009.22
543.81	23999.85
543.98	23585.58
544.15	23817.29
544.32	23840.70
544.48	23742.39
544.65	23721.33
544.82	23669.84
544.99	23307.05
545.16	23798.57
545.32	23840.70
545.49	24119.22
545.66	24699.67
545.83	24734.78
546.00	24776.91
546.16	24102.84
546.33	24175.39
546.50	23931.98
546.67	23922.62
546.83	23697.92
547.00	23936.66
547.17	23529.41
547.34	23920.28
547.50	23608.98
547.67	23789.20
547.84	23824.31
548.00	24114.54
548.17	24292.42
548.34	24060.71
548.51	24023.26
548.67	24259.65
548.84	24369.66
549.01	24166.03
549.18	24105.18
549.34	23997.51
549.51	23810.27
549.68	24496.05
549.84	24074.75
550.01	24095.82
550.18	23901.55
550.34	23749.42
550.51	24285.40
550.68	24238.59
550.84	24116.88
551.01	24051.34
551.18	23943.68
551.34	23679.20
551.51	23917.93
551.68	24224.54
551.84	23681.54
552.01	24465.62
552.18	24114.54
552.34	24402.43
552.51	24561.58
552.68	24336.89
552.84	24187.10
553.01	24074.75
553.18	24830.74
553.34	24393.06
553.51	24367.32
553.67	24474.98
553.84	24547.54
554.01	24610.73
554.17	24346.25
554.34	24652.86
554.51	24147.31
554.67	24542.86
554.84	24617.75
555.00	24624.78
555.17	24584.99
555.33	24599.03
555.50	24395.40
555.67	24521.79
555.83	24575.62
556.00	24526.47
556.16	24676.27
556.33	24755.85
556.50	24718.40
556.66	24694.99
556.83	24790.95
556.99	24922.02
557.16	24828.40
557.32	25132.67
557.49	25135.01
557.65	24905.64
557.82	24470.30
557.98	24805.00
558.15	24603.71
558.32	24531.15
558.48	24739.46
558.65	24683.29
558.81	25027.35
558.98	24666.91
559.14	24730.10
559.31	24702.01
559.47	24746.48
559.64	25242.68
559.80	24685.63
559.97	24486.68
560.13	24933.73
560.30	24826.06
560.46	24826.06
560.63	24917.34
560.79	25132.67
560.96	25268.42
561.12	25027.35
561.29	24898.62
561.45	25294.17
561.61	25130.33
561.78	25027.35
561.94	25296.51
562.11	25331.62
562.27	25202.89
562.44	25603.12
562.60	25345.66
562.77	25165.44
562.93	25120.97
563.10	25202.89
563.26	25025.01
563.42	25193.53
563.59	25408.86
563.75	25436.94
563.92	25607.80
564.08	25422.90
564.24	25429.92
564.41	25120.97
564.57	25102.25
564.74	25266.08
564.90	25607.80
565.07	25350.34
565.23	25071.82
565.39	25345.66
565.56	25277.79
565.72	25266.08
565.88	25238.00
566.05	25156.08
566.21	25460.35
566.38	25025.01
566.54	25345.66
566.70	25261.40
566.87	25631.21
567.03	25504.82
567.19	25678.02
567.36	25612.48
567.52	25532.90
567.68	25436.94
567.85	25364.39
568.01	25509.50
568.17	25415.88
568.34	25432.26
568.50	25387.79
568.66	25268.42
568.83	25476.73
568.99	25565.67
569.15	25317.57
569.32	25301.19
569.48	25085.86
569.64	25497.80
569.81	25317.57
569.97	25160.76
570.13	25226.29
570.30	25460.35
570.46	25600.78
570.62	25450.99
570.78	25273.10
570.95	25628.87
571.11	25832.49
571.27	25605.46
571.43	25413.54
571.60	25275.45
571.76	25514.18
571.92	25692.06
572.09	25373.75
572.25	25799.73
572.41	25645.25
572.57	25759.94
572.74	25759.94
572.90	25366.73
573.06	25745.89
573.22	25380.77
573.38	25750.57
573.55	25750.57
573.71	25570.35
573.87	25750.57
574.03	25481.41
574.20	25795.04
574.36	25776.32
574.52	25862.92
574.68	25944.84
574.84	25902.71
575.01	25420.56
575.17	25961.22
575.33	25762.28
575.49	25500.14
575.65	25654.61
575.82	25624.18
575.98	25785.68
576.14	25755.26
576.30	25792.70
576.46	25839.51
576.62	25869.94
576.79	25612.48
576.95	25778.66
577.11	26059.52
577.27	25972.92
577.43	25832.49
577.59	26066.55
577.75	26089.95
577.92	25678.02
578.08	25736.53
578.24	25893.35
578.40	25818.45
578.56	26178.89
578.72	25874.62
578.88	26450.39
579.04	25797.38
579.21	25579.71
579.37	26214.00
579.53	25439.28
579.69	25729.51
579.85	25998.67
580.01	25898.03
580.17	25907.39
580.33	25965.90
580.49	25778.66
580.65	26054.84
580.82	25797.38
580.98	25713.13
581.14	25865.26
581.30	25830.15
581.46	26036.12
581.62	25502.48
581.78	25853.56
581.94	26036.12
582.10	25575.03
582.26	25713.13
582.42	25701.42
582.58	25893.35
582.74	25972.92
582.90	26375.50
583.06	26010.37
583.22	25832.49
583.38	26307.62
583.54	26188.25
583.70	25968.24
583.86	25907.39
584.02	25986.97
584.18	26319.32
584.34	26164.85
584.50	26148.46
584.66	25839.51
584.82	25860.58
584.98	25907.39
585.14	25986.97
585.30	26012.71
585.46	26267.83
585.62	25963.56
585.78	25909.73
585.94	26333.37
586.10	25951.86
586.26	26426.99
586.42	26068.89
586.58	26511.25
586.74	26267.83
586.90	26167.19
587.06	25891.01
587.22	26373.16
587.38	26312.30
587.54	26122.72
587.70	26579.12
587.86	26068.89
588.02	26749.98
588.18	26305.28
588.34	26087.61
588.49	26129.74
588.65	25851.22
588.81	26164.85
588.97	26089.95
589.13	25788.02
589.29	25930.80
589.45	26221.02
589.61	26356.77
589.77	26171.87
589.93	26188.25
590.08	26094.63
590.24	26174.21
590.40	26258.47
590.56	26256.13
590.72	26551.04
