SpectraSuite Data File
++++++++++++++++++++++++++++++++++++
Date: Thu Oct 24 13:21:06 EDT 2013
User: stostad
Dark Spectrum Present: No
Reference Spectrum Present: No
Number of Sampled Component Spectra: 1
Spectrometers: USB2+H05261
Integration Time (usec): 100000 (USB2+H05261)
Spectra Averaged: 1 (USB2+H05261)
Boxcar Smoothing: 0 (USB2+H05261)
Correct for Electrical Dark: No (USB2+H05261)
Strobe/Lamp Enabled: No (USB2+H05261)
Correct for Detector Non-linearity: No (USB2+H05261)
Correct for Stray Light: No (USB2+H05261)
Number of Pixels in Processed Spectrum: 2048
>>>>>Begin Processed Spectral Data<<<<<
365.73	517.26
365.92	517.26
366.12	517.26
366.32	447.04
366.52	524.28
366.72	507.90
366.91	425.98
367.11	482.15
367.31	477.47
367.51	430.66
367.70	465.77
367.90	491.51
368.10	498.53
368.30	475.13
368.49	535.98
368.69	526.62
368.89	505.56
369.09	477.47
369.28	486.83
369.48	528.96
369.68	524.28
369.87	578.11
370.07	503.22
370.27	615.56
370.47	561.73
370.66	674.07
370.86	777.06
371.06	751.31
371.25	809.83
371.45	669.39
371.65	781.74
371.84	737.27
372.04	748.97
372.24	727.91
372.44	767.70
372.63	777.06
372.83	802.80
373.03	777.06
373.22	711.52
373.42	753.65
373.62	779.40
373.81	819.19
374.01	798.12
374.21	858.98
374.40	772.38
374.60	753.65
374.79	868.34
374.99	823.87
375.19	798.12
375.38	828.55
375.58	840.25
375.78	791.10
375.97	840.25
376.17	837.91
376.37	887.06
376.56	833.23
376.76	767.70
376.95	786.42
377.15	770.04
377.35	858.98
377.54	870.68
377.74	826.21
377.93	814.51
378.13	793.44
378.33	819.19
378.52	901.11
378.72	830.89
378.91	812.17
379.11	826.21
379.31	793.44
379.50	770.04
379.70	851.96
379.89	823.87
380.09	830.89
380.28	779.40
380.48	849.61
380.68	833.23
380.87	781.74
381.07	891.74
381.26	966.64
381.46	915.15
381.65	919.83
381.85	814.51
382.04	805.14
382.24	924.51
382.43	898.77
382.63	915.15
382.83	863.66
383.02	866.00
383.22	961.96
383.41	926.85
383.61	866.00
383.80	870.68
384.00	851.96
384.19	880.04
384.39	917.49
384.58	894.08
384.78	933.87
384.97	922.17
385.17	1011.11
385.36	922.17
385.56	980.68
385.75	924.51
385.95	961.96
386.14	971.32
386.34	959.62
386.53	968.98
386.72	929.19
386.92	985.37
387.11	908.13
387.31	947.92
387.50	898.77
387.70	957.28
387.89	954.94
388.09	973.66
388.28	952.60
388.48	947.92
388.67	1034.52
388.86	912.81
389.06	947.92
389.25	987.71
389.45	973.66
389.64	950.26
389.84	945.58
390.03	999.41
390.22	983.02
390.42	950.26
390.61	933.87
390.81	1011.11
391.00	1046.22
391.19	1004.09
391.39	1006.43
391.58	1006.43
391.78	1027.50
391.97	1041.54
392.16	1093.03
392.36	1053.24
392.55	1064.94
392.75	1053.24
392.94	1011.11
393.13	1034.52
393.33	1027.50
393.52	1055.58
393.71	1057.92
393.91	1015.79
394.10	1055.58
394.29	1032.18
394.49	1053.24
394.68	1088.35
394.88	1088.35
395.07	1090.69
395.26	1041.54
395.46	1064.94
395.65	1203.04
395.84	1069.62
396.04	1203.04
396.23	1142.18
396.42	1104.73
396.62	1165.59
396.81	1130.48
397.00	1132.82
397.19	1156.22
397.39	1151.54
397.58	1149.20
397.77	1198.35
397.97	1165.59
398.16	1137.50
398.35	1188.99
398.55	1160.91
398.74	1160.91
398.93	1144.52
399.12	1221.76
399.32	1224.10
399.51	1240.48
399.70	1233.46
399.90	1205.38
400.09	1284.95
400.28	1224.10
400.47	1214.74
400.67	1231.12
400.86	1207.72
401.05	1299.00
401.24	1249.85
401.44	1359.85
401.63	1252.19
401.82	1345.81
402.01	1240.48
402.21	1289.64
402.40	1392.62
402.59	1266.23
402.78	1291.98
402.97	1296.66
403.17	1231.12
403.36	1301.34
403.55	1301.34
403.74	1308.36
403.93	1467.52
404.13	1469.86
404.32	1394.96
404.51	1434.75
404.70	1394.96
404.89	1350.49
405.09	1362.19
405.28	1369.21
405.47	1376.24
405.66	1369.21
405.85	1409.00
406.05	1497.94
406.24	1444.11
406.43	1369.21
406.62	1458.15
406.81	1430.07
407.00	1458.15
407.20	1441.77
407.39	1511.99
407.58	1479.22
407.77	1591.56
407.96	1540.07
408.15	1495.60
408.34	1521.35
408.54	1521.35
408.73	1647.74
408.92	1521.35
409.11	1544.75
409.30	1537.73
409.49	1528.37
409.68	1598.59
409.87	1586.88
410.07	1652.42
410.26	1624.33
410.45	1713.27
410.64	1619.65
410.83	1563.48
411.02	1652.42
411.21	1645.40
411.40	1654.76
411.59	1717.95
411.78	1647.74
411.98	1717.95
412.17	1755.40
412.36	1741.36
412.55	1753.06
412.74	1748.38
412.93	1706.25
413.12	1694.55
413.31	1895.83
413.50	1790.51
413.69	1846.68
413.88	1881.79
414.07	1825.62
414.26	1849.02
414.45	1806.89
414.64	1935.62
414.83	1933.28
415.02	1905.20
415.22	1842.00
415.41	1914.56
415.60	1956.69
415.79	1874.77
415.98	1961.37
416.17	1933.28
416.36	1970.73
416.55	1877.11
416.74	2040.95
416.93	2118.18
417.12	1994.14
417.31	2087.76
417.50	2094.78
417.69	2078.40
417.88	2059.67
418.07	2015.20
418.26	2169.68
418.45	2064.35
418.64	2141.59
418.83	2031.58
419.02	2174.36
419.21	2129.89
419.39	2225.85
419.58	2160.31
419.77	2090.10
419.96	2211.81
420.15	2286.70
420.34	2195.42
420.53	2216.49
420.72	2298.41
420.91	2244.57
421.10	2160.31
421.29	2223.51
421.48	2207.13
421.67	2167.34
421.86	2307.77
422.05	2176.70
422.24	2373.30
422.43	2270.32
422.61	2277.34
422.80	2417.77
422.99	2382.67
423.18	2289.04
423.37	2321.81
423.56	2338.20
423.75	2277.34
423.94	2298.41
424.13	2190.74
424.32	2321.81
424.50	2237.55
424.69	2394.37
424.88	2373.30
425.07	2331.17
425.26	2293.72
425.45	2342.88
425.64	2270.32
425.83	2352.24
426.01	2228.19
426.20	2300.75
426.39	2417.77
426.58	2319.47
426.77	2338.20
426.96	2480.97
427.15	2387.35
427.33	2565.23
427.52	2307.77
427.71	2375.64
427.90	2471.61
428.09	2314.79
428.28	2380.32
428.46	2422.45
428.65	2499.69
428.84	2478.63
429.03	2551.18
429.22	2485.65
429.40	2401.39
429.59	2438.84
429.78	2450.54
429.97	2502.03
430.16	2495.01
430.34	2537.14
430.53	2452.88
430.72	2619.06
430.91	2562.89
431.10	2609.70
431.28	2722.04
431.47	2560.55
431.66	2649.49
431.85	2537.14
432.03	2684.59
432.22	2700.98
432.41	2656.51
432.60	2663.53
432.79	2705.66
432.97	2672.89
433.16	2609.70
433.35	2656.51
433.54	2743.11
433.72	2768.85
433.91	2810.98
434.10	2628.42
434.28	2825.03
434.47	2754.81
434.66	2895.24
434.85	2846.09
435.03	2995.89
435.22	3105.89
435.41	3145.68
435.59	3164.40
435.78	3145.68
435.97	3033.33
436.16	3056.74
436.34	2906.95
436.53	2813.32
436.72	2904.60
436.90	2841.41
437.09	3002.91
437.28	2965.46
437.46	2892.90
437.65	2935.03
437.84	3012.27
438.02	2984.18
438.21	2958.44
438.40	2853.11
438.58	3091.85
438.77	3007.59
438.96	3028.65
439.14	3131.64
439.33	3152.70
439.52	3080.14
439.70	3094.19
439.89	3082.49
440.08	3183.13
440.26	3339.94
440.45	3143.34
440.63	3288.45
440.82	3290.79
441.01	3178.45
441.19	3225.26
441.38	3211.22
441.57	3421.86
441.75	3375.05
441.94	3428.88
442.12	3396.12
442.31	3431.23
442.50	3382.07
442.68	3328.24
442.87	3583.36
443.05	3468.67
443.24	3499.10
443.43	3365.69
443.61	3332.92
443.80	3440.59
443.98	3389.10
444.17	3204.19
444.35	3449.95
444.54	3468.67
444.73	3557.61
444.91	3604.42
445.10	3529.53
445.28	3459.31
445.47	3496.76
445.65	3321.22
445.84	3482.72
446.02	3595.06
446.21	3510.80
446.39	3723.79
446.58	3524.85
446.77	3613.79
446.95	3445.27
447.14	3459.31
447.32	3468.67
447.51	3438.25
447.69	3426.54
447.88	3534.21
448.06	3538.89
448.25	3721.45
448.43	3541.23
448.62	3543.57
448.80	3527.19
448.99	3597.40
449.17	3585.70
449.36	3653.58
449.54	3749.54
449.73	3651.24
449.91	3695.71
450.10	3695.71
450.28	3735.50
450.46	3784.65
450.65	3786.99
450.83	3728.47
451.02	3749.54
451.20	3812.73
451.39	3815.07
451.57	3798.69
451.76	3789.33
451.94	3779.97
452.13	3875.93
452.31	3805.71
452.49	3674.64
452.68	3857.20
452.86	3929.76
453.05	3887.63
453.23	3805.71
453.42	3929.76
453.60	3892.31
453.78	3868.91
453.97	3840.82
454.15	3871.25
454.34	3896.99
454.52	3929.76
454.70	3990.61
454.89	3868.91
455.07	3880.61
455.26	3992.95
455.44	3976.57
455.62	4079.55
455.81	4053.81
455.99	4067.85
456.17	4124.02
456.36	3990.61
456.54	4154.45
456.73	4236.37
456.91	4294.88
457.09	4194.24
457.28	4224.67
457.46	4241.05
457.64	4285.52
457.83	4205.94
458.01	4362.76
458.19	4276.16
458.38	4219.99
458.56	4287.86
458.74	4374.46
458.93	4498.51
459.11	4489.15
459.29	4194.24
459.48	4353.40
459.66	4264.46
459.84	4278.50
460.03	4547.66
460.21	4421.27
460.39	4489.15
460.57	4360.42
460.76	4465.74
460.94	4568.73
461.12	4383.82
461.31	4550.00
461.49	4444.68
461.67	4496.17
461.85	4465.74
462.04	4505.53
462.22	4840.23
462.40	4601.49
462.59	4681.07
462.77	4547.66
462.95	4575.75
463.13	4798.10
463.32	4709.16
463.50	4685.75
463.68	4578.09
463.86	4650.64
464.05	4550.00
464.23	4648.30
464.41	4650.64
464.59	4582.77
464.78	4945.55
464.96	4538.30
465.14	4641.28
465.32	4699.80
465.50	4798.10
465.69	4833.21
465.87	4812.14
466.05	4685.75
466.23	4744.27
466.41	4849.59
466.60	4816.82
466.78	4711.50
466.96	4837.89
467.14	4723.20
467.32	4795.76
467.51	4875.34
467.69	4854.27
467.87	4903.42
468.05	5123.43
468.23	4940.87
468.41	4720.86
468.60	4863.63
468.78	5076.62
468.96	4929.17
469.14	5011.09
469.32	4983.00
469.50	4980.66
469.69	5078.96
469.87	5174.92
470.05	5043.85
470.23	5242.80
470.41	5123.43
470.59	5238.12
470.77	5153.86
470.95	4931.51
471.14	5308.34
471.32	5170.24
471.50	5296.63
471.68	5376.21
471.86	5343.44
472.04	5327.06
472.22	5315.36
472.40	5458.13
472.58	5430.04
472.77	5259.18
472.95	5341.10
473.13	5411.32
473.31	5432.38
473.49	5465.15
473.67	5533.03
473.85	5528.35
474.03	5638.35
474.21	5518.98
474.39	5640.69
474.57	5652.39
474.75	5687.50
474.93	5872.40
475.12	5813.89
475.30	5902.83
475.48	5895.81
475.66	5799.85
475.84	5837.30
476.02	5809.21
476.20	5959.00
476.38	6099.44
476.56	6300.72
476.74	5982.41
476.92	5947.30
477.10	6097.10
477.28	6059.65
477.46	6157.95
477.64	6122.84
477.82	6368.60
478.00	6155.61
478.18	6370.94
478.36	6410.73
478.54	6483.28
478.72	6633.08
478.90	6576.91
479.08	6546.48
479.26	6569.88
479.44	6635.42
479.62	6820.32
479.80	6832.02
479.98	6806.28
480.16	6885.86
480.34	6771.17
480.52	6974.80
480.70	7145.66
480.88	6839.05
481.06	6977.14
481.24	7035.65
481.41	6902.24
481.59	7190.13
481.77	7171.40
481.95	7220.55
482.13	7349.28
482.31	7426.52
482.49	7360.98
482.67	7475.67
482.85	7606.74
483.03	7702.70
483.21	7501.42
483.39	7892.29
483.57	7756.54
483.74	7889.95
483.92	8042.08
484.10	7927.39
484.28	7932.08
484.46	8257.41
484.64	8149.75
484.82	8114.64
485.00	8224.64
485.18	8081.87
485.35	8451.67
485.53	8418.91
485.71	8470.40
485.89	8641.26
486.07	8685.73
486.25	8526.57
486.43	8800.41
486.61	8821.48
486.78	8795.73
486.96	8905.74
487.14	9083.62
487.32	9069.58
487.50	8985.32
487.68	9177.24
487.85	9226.39
488.03	9425.34
488.21	9521.30
488.39	9383.21
488.57	9462.79
488.75	9483.85
488.92	9430.02
489.10	9682.80
489.28	9682.80
489.46	9788.12
489.64	10017.49
489.81	10064.30
489.99	9888.76
490.17	10054.94
490.35	10223.46
490.53	10157.92
490.70	10354.53
490.88	10483.26
491.06	10307.72
491.24	10417.72
491.41	10518.37
491.59	10443.47
491.77	10455.17
491.95	10626.03
492.13	10572.20
492.30	10747.74
492.48	10562.84
492.66	10782.85
492.84	10663.48
493.01	10988.82
493.19	10986.47
493.37	11087.12
493.54	11143.29
493.72	11147.97
493.90	11215.85
494.08	11482.67
494.25	11417.13
494.43	11295.43
494.61	11541.18
494.79	11552.88
494.96	11693.32
495.14	11433.52
495.32	11721.40
495.49	11786.94
495.67	11735.45
495.85	12006.95
496.02	11899.28
496.20	12105.25
496.38	12180.15
496.55	12109.93
496.73	12229.30
496.91	12182.49
497.09	12205.89
497.26	12198.87
497.44	12327.60
497.62	12437.61
497.79	12666.98
497.97	12568.68
498.14	12730.17
498.32	12877.63
498.50	12711.45
498.67	12606.13
498.85	12734.85
499.03	12896.35
499.20	12786.35
499.38	12989.97
499.56	13242.75
499.73	13191.26
499.91	12975.93
500.08	13228.71
500.26	13057.85
500.44	13366.80
500.61	13406.59
500.79	13467.44
500.97	13481.49
501.14	13528.30
501.32	13612.56
501.49	13540.00
501.67	13376.16
501.84	13556.38
502.02	13816.18
502.20	13818.52
502.37	13769.37
502.55	13727.24
502.72	13980.02
502.90	13851.29
503.07	14003.43
503.25	13956.61
503.43	13834.91
503.60	13898.10
503.78	14022.15
503.95	13949.59
504.13	14256.20
504.30	14059.60
504.48	14401.32
504.65	14384.93
504.83	14504.30
505.01	14494.94
505.18	14242.16
505.36	14525.36
505.53	14583.88
505.71	14483.24
505.88	14525.36
506.06	14508.98
506.23	14899.85
506.41	14406.00
506.58	14773.46
506.76	14698.56
506.93	14939.64
507.11	15087.09
507.28	15138.58
507.46	14862.40
507.63	15414.77
507.81	15026.24
507.98	14740.69
508.16	15030.92
508.33	15178.37
508.50	15040.28
508.68	15468.60
508.85	15499.03
509.03	15534.14
509.20	15786.91
509.38	15630.10
509.55	15503.71
509.73	15426.47
509.90	15756.49
510.08	15749.46
510.25	15452.22
510.42	15779.89
510.60	15562.22
510.77	15878.19
510.95	15852.45
511.12	15927.35
511.30	15824.36
511.47	16067.78
511.64	15988.20
511.82	16201.19
511.99	15910.96
512.17	16339.28
512.34	16231.62
512.51	16196.51
512.69	16528.86
512.86	16325.24
513.04	16594.40
513.21	16477.37
513.38	16486.73
513.56	16589.72
513.73	16460.99
513.90	16468.01
514.08	16374.39
514.25	16851.86
514.43	16798.02
514.60	16826.11
514.77	16798.02
514.95	16704.40
515.12	16805.05
515.29	16863.56
515.47	17003.99
515.64	17071.87
515.81	16971.22
515.99	17046.12
516.16	17032.08
516.33	17233.36
516.51	17202.94
516.68	17172.51
516.85	17294.22
517.03	17123.36
517.20	17298.90
517.37	17184.21
517.54	17303.58
517.72	17329.33
517.89	17451.03
518.06	17493.16
518.24	17535.29
518.41	17591.47
518.58	17738.92
518.75	17483.80
518.93	17472.10
519.10	17572.74
519.27	17497.84
519.45	17694.45
519.62	17619.55
519.79	17935.53
519.96	17488.48
520.14	17862.97
520.31	17696.79
520.48	18054.89
520.65	17947.23
520.83	18207.03
521.00	18150.85
521.17	18377.89
521.34	18228.09
521.52	18143.83
521.69	18047.87
521.86	18291.29
522.03	18377.89
522.20	18324.05
522.38	18401.29
522.55	18679.82
522.72	18394.27
522.89	18427.04
523.07	18712.58
523.24	18501.93
523.41	18459.81
523.58	18422.36
523.75	18691.52
523.92	18843.65
524.10	18630.66
524.27	18820.25
524.44	18654.07
524.61	18888.12
524.78	18799.18
524.96	18801.52
525.13	18878.76
525.30	19073.03
525.47	19241.54
525.64	19143.24
525.81	18899.83
525.98	18977.06
526.16	18967.70
526.33	19098.77
526.50	19314.10
526.67	19398.36
526.84	19154.94
527.01	19286.01
527.18	19548.15
527.36	19178.35
527.53	19569.22
527.70	19204.10
527.87	19503.68
528.04	19477.94
528.21	19578.58
528.38	19590.28
528.55	19414.74
528.72	19545.81
528.89	19646.46
529.07	19569.22
529.24	19410.06
529.41	19499.00
529.58	19864.13
529.75	19735.40
529.92	19613.69
530.09	19704.97
530.26	19803.27
530.43	19803.27
530.60	19562.20
530.77	19761.14
530.94	20020.94
531.11	19927.32
531.28	19871.15
531.46	20357.98
531.63	20093.50
531.80	20063.07
531.97	20023.28
532.14	20208.19
532.31	19927.32
532.48	20273.72
532.65	20416.49
532.82	20325.21
532.99	20219.89
533.16	20180.10
533.33	20070.09
533.50	20100.52
533.67	20264.36
533.84	20372.02
534.01	20198.82
534.18	20627.14
534.35	20807.36
534.52	20556.93
534.69	20271.38
534.86	20458.62
535.03	20517.14
535.20	20688.00
535.37	20397.77
535.54	20900.98
535.71	20636.50
535.88	21076.52
536.05	20568.63
536.22	20732.47
536.38	20699.70
536.55	20800.34
536.72	21010.99
536.89	20608.42
537.06	21132.70
537.23	20795.66
537.40	21221.64
537.57	20980.56
537.74	21081.21
537.91	21343.35
538.08	21184.19
538.25	20837.79
538.42	21013.33
538.59	21219.30
538.75	21130.36
538.92	21177.17
539.09	21521.23
539.26	21025.03
539.43	21350.37
539.60	21404.20
539.77	21336.32
539.94	21570.38
540.11	21600.80
540.28	21736.56
540.44	21507.18
540.61	21516.54
540.78	21507.18
540.95	21647.61
541.12	22059.55
541.29	21715.49
541.46	21895.71
541.62	22024.44
541.79	21907.41
541.96	22010.40
542.13	22146.15
542.30	22118.06
542.47	21914.44
542.63	22024.44
542.80	22487.87
542.97	22576.81
543.14	22483.19
543.31	22288.92
543.48	22698.52
543.64	22590.85
543.81	22459.78
543.98	22712.56
544.15	22333.39
544.32	22803.84
544.48	23047.26
544.65	22270.20
544.82	22377.86
544.99	22473.82
545.16	22520.63
545.32	22951.29
545.49	22782.77
545.66	23349.18
545.83	23939.00
546.00	23623.03
546.16	23206.41
546.33	23016.83
546.50	22881.08
546.67	22991.08
546.83	22567.45
547.00	22539.36
547.17	22401.27
547.34	22867.03
547.50	22834.27
547.67	22686.81
547.84	23150.24
548.00	22995.76
548.17	22764.05
548.34	22939.59
548.51	22845.97
548.67	23239.18
548.84	22841.29
549.01	22806.18
549.18	23035.55
549.34	23157.26
549.51	23054.28
549.68	22960.66
549.84	22867.03
550.01	22958.31
550.18	22939.59
550.34	22892.78
550.51	22747.67
550.68	22944.27
550.84	22855.33
551.01	23194.71
551.18	23138.54
551.34	23019.17
551.51	22600.21
551.68	22970.02
551.84	22738.30
552.01	23077.68
552.18	22995.76
552.34	22937.25
552.51	23255.56
552.68	23229.82
552.84	23105.77
553.01	23405.36
553.18	22958.31
553.34	23255.56
553.51	22965.34
553.67	23040.23
553.84	23381.95
554.01	23218.11
554.17	23391.31
554.34	23283.65
554.51	23403.02
554.67	23335.14
554.84	23463.87
555.00	23227.48
555.17	22955.97
555.33	23161.94
555.50	23498.98
555.67	23300.03
555.83	23419.40
556.00	23183.01
556.16	23852.40
556.33	23770.48
556.50	23630.05
556.66	23318.76
556.83	23194.71
556.99	23604.30
557.16	23756.44
557.32	23747.08
557.49	23885.17
557.65	23754.10
557.82	23417.06
557.98	23695.58
558.15	23129.17
558.32	23543.45
558.48	23440.47
558.65	23578.56
558.81	23646.43
558.98	23726.01
559.14	23459.19
559.31	23133.86
559.47	23742.39
559.64	23831.33
559.80	23463.87
559.97	23683.88
560.13	23466.21
560.30	23672.18
560.46	24060.71
560.63	23817.29
560.79	23772.82
560.96	23695.58
561.12	23793.89
561.29	24025.60
561.45	23503.66
561.61	23882.83
561.78	23873.46
561.94	24184.76
562.11	24105.18
562.27	24091.13
562.44	24247.95
562.60	23859.42
562.77	23889.85
562.93	23735.37
563.10	23948.36
563.26	23859.42
563.42	24081.77
563.59	24149.65
563.75	24002.19
563.92	24027.94
564.08	24011.56
564.24	24236.25
564.41	23796.23
564.57	24130.92
564.74	23988.15
564.90	24201.14
565.07	24367.32
565.23	24095.82
565.39	24006.87
565.56	24105.18
565.72	23826.65
565.88	24189.44
566.05	24039.64
566.21	23845.38
566.38	24151.99
566.54	24114.54
566.70	24423.49
566.87	24549.88
567.03	24432.85
567.19	24587.33
567.36	24435.19
567.52	24074.75
567.68	24540.52
567.85	24217.52
568.01	24458.60
568.17	24397.74
568.34	24004.53
568.50	24140.29
568.66	24161.35
568.83	24477.32
568.99	24400.08
569.15	24233.91
569.32	24184.76
569.48	23946.02
569.64	24290.08
569.81	24229.23
569.97	24233.91
570.13	24507.75
570.30	23920.28
570.46	24477.32
570.62	24105.18
570.78	24212.84
570.95	24084.11
571.11	24379.02
571.27	24233.91
571.43	24264.33
571.60	24034.96
571.76	24472.64
571.92	24519.45
572.09	24023.26
572.25	24402.43
572.41	24542.86
572.57	24570.94
572.74	24456.26
572.90	24278.38
573.06	24393.06
573.22	24320.51
573.38	24304.12
573.55	24182.42
573.71	24662.22
573.87	24261.99
574.03	24512.43
574.20	24704.35
574.36	24673.93
574.52	24372.00
574.68	24458.60
574.84	24393.06
575.01	24435.19
575.17	24931.39
575.33	24430.51
575.49	24360.30
575.65	24519.45
575.82	24659.88
575.98	24603.71
576.14	24379.02
576.30	24596.69
576.46	24723.08
576.62	24435.19
576.79	24542.86
576.95	24231.57
577.11	24603.71
577.27	24779.25
577.43	24327.53
577.59	24524.13
577.75	24386.04
577.92	24697.33
578.08	24166.03
578.24	24432.85
578.40	25092.88
578.56	24863.51
578.72	24620.10
578.88	25039.05
579.04	24924.36
579.21	24491.37
579.37	24460.94
579.53	24898.62
579.69	24687.97
579.85	24554.56
580.01	24774.57
580.17	24694.99
580.33	24570.94
580.49	24699.67
580.65	24975.86
580.82	24500.73
580.98	24797.98
581.14	24746.48
581.30	24638.82
581.46	24479.66
581.62	24587.33
581.78	23913.25
581.94	24884.58
582.10	24257.31
582.26	24648.18
582.42	24404.77
582.58	24781.59
582.74	25036.71
582.90	24847.13
583.06	24666.91
583.22	24683.29
583.38	24474.98
583.54	24694.99
583.70	24723.08
583.86	24659.88
584.02	24482.00
584.18	24872.87
584.34	24439.87
584.50	24662.22
584.66	24439.87
584.82	24465.62
584.98	24694.99
585.14	24474.98
585.30	24629.46
585.46	24737.12
585.62	24545.20
585.78	24879.89
585.94	24702.01
586.10	24643.50
586.26	24336.89
586.42	25060.12
586.58	24809.68
586.74	24746.48
586.90	24982.88
587.06	24788.61
587.22	24830.74
587.38	24592.01
587.54	25195.87
587.70	25032.03
587.86	24528.81
588.02	24936.07
588.18	24800.32
588.34	24830.74
588.49	24847.13
588.65	24709.04
588.81	24765.21
588.97	24884.58
589.13	24779.25
589.29	24751.17
589.45	24503.07
589.61	25017.99
589.77	24989.90
589.93	24671.59
590.08	24767.55
590.24	24790.95
590.40	24900.96
590.56	24807.34
590.72	24692.65
590.88	24673.93
