SpectraSuite Data File
++++++++++++++++++++++++++++++++++++
Date: Thu Oct 24 13:21:02 EDT 2013
User: stostad
Dark Spectrum Present: No
Reference Spectrum Present: No
Number of Sampled Component Spectra: 1
Spectrometers: USB2+H05261
Integration Time (usec): 100000 (USB2+H05261)
Spectra Averaged: 1 (USB2+H05261)
Boxcar Smoothing: 0 (USB2+H05261)
Correct for Electrical Dark: No (USB2+H05261)
Strobe/Lamp Enabled: No (USB2+H05261)
Correct for Detector Non-linearity: No (USB2+H05261)
Correct for Stray Light: No (USB2+H05261)
Number of Pixels in Processed Spectrum: 2048
>>>>>Begin Processed Spectral Data<<<<<
365.73	573.43
365.92	573.43
366.12	573.43
366.32	491.51
366.52	498.53
366.72	489.17
366.91	482.15
367.11	461.09
367.31	475.13
367.51	442.36
367.70	493.85
367.90	454.06
368.10	425.98
368.30	578.11
368.49	423.64
368.69	531.30
368.89	423.64
369.09	505.56
369.28	582.79
369.48	519.60
369.68	437.68
369.87	524.28
370.07	507.90
370.27	599.18
370.47	568.75
370.66	585.13
370.86	631.94
371.06	578.11
371.25	648.33
371.45	564.07
371.65	596.84
371.84	641.31
372.04	561.73
372.24	589.82
372.44	601.52
372.63	596.84
372.83	620.24
373.03	545.34
373.22	627.26
373.42	627.26
373.62	561.73
373.81	624.92
374.01	578.11
374.21	662.37
374.40	660.03
374.60	655.35
374.79	671.73
374.99	631.94
375.19	603.86
375.38	578.11
375.58	676.41
375.78	657.69
375.97	688.12
376.17	655.35
376.37	645.99
376.56	620.24
376.76	578.11
376.95	648.33
377.15	622.58
377.35	671.73
377.54	615.56
377.74	648.33
377.93	664.71
378.13	505.56
378.33	631.94
378.52	636.63
378.72	648.33
378.91	615.56
379.11	578.11
379.31	645.99
379.50	585.13
379.70	636.63
379.89	641.31
380.09	603.86
380.28	606.20
380.48	596.84
380.68	603.86
380.87	566.41
381.07	664.71
381.26	622.58
381.46	575.77
381.65	543.00
381.85	613.22
382.04	627.26
382.24	601.52
382.43	615.56
382.63	636.63
382.83	594.50
383.02	603.86
383.22	622.58
383.41	573.43
383.61	657.69
383.80	596.84
384.00	624.92
384.19	599.18
384.39	589.82
384.58	608.54
384.78	608.54
384.97	650.67
385.17	603.86
385.36	610.88
385.56	629.60
385.75	655.35
385.95	627.26
386.14	653.01
386.34	603.86
386.53	571.09
386.72	622.58
386.92	622.58
387.11	645.99
387.31	634.29
387.50	587.47
387.70	674.07
387.89	676.41
388.09	571.09
388.28	594.50
388.48	638.97
388.67	627.26
388.86	606.20
389.06	634.29
389.25	660.03
389.45	636.63
389.64	624.92
389.84	746.63
390.03	615.56
390.22	660.03
390.42	585.13
390.61	624.92
390.81	608.54
391.00	587.47
391.19	606.20
391.39	627.26
391.58	662.37
391.78	655.35
391.97	643.65
392.16	627.26
392.36	648.33
392.55	664.71
392.75	662.37
392.94	674.07
393.13	692.80
393.33	622.58
393.52	653.01
393.71	606.20
393.91	638.97
394.10	603.86
394.29	596.84
394.49	636.63
394.68	615.56
394.88	620.24
395.07	697.48
395.26	585.13
395.46	634.29
395.65	617.90
395.84	606.20
396.04	681.10
396.23	660.03
396.42	655.35
396.62	627.26
396.81	585.13
397.00	615.56
397.19	578.11
397.39	606.20
397.58	622.58
397.77	645.99
397.97	582.79
398.16	592.16
398.35	552.37
398.55	648.33
398.74	671.73
398.93	603.86
399.12	629.60
399.32	655.35
399.51	580.45
399.70	622.58
399.90	655.35
400.09	587.47
400.28	617.90
400.47	592.16
400.67	664.71
400.86	669.39
401.05	582.79
401.24	561.73
401.44	676.41
401.63	648.33
401.82	674.07
402.01	543.00
402.21	624.92
402.40	589.82
402.59	627.26
402.78	634.29
402.97	613.22
403.17	662.37
403.36	631.94
403.55	664.71
403.74	594.50
403.93	678.76
404.13	716.20
404.32	702.16
404.51	660.03
404.70	730.25
404.89	662.37
405.09	568.75
405.28	622.58
405.47	587.47
405.66	688.12
405.85	678.76
406.05	653.01
406.24	615.56
406.43	709.18
406.62	622.58
406.81	667.05
407.00	645.99
407.20	582.79
407.39	667.05
407.58	678.76
407.77	643.65
407.96	622.58
408.15	582.79
408.34	660.03
408.54	578.11
408.73	650.67
408.92	624.92
409.11	613.22
409.30	669.39
409.49	587.47
409.68	631.94
409.87	601.52
410.07	585.13
410.26	617.90
410.45	624.92
410.64	676.41
410.83	678.76
411.02	592.16
411.21	650.67
411.40	636.63
411.59	629.60
411.78	594.50
411.98	606.20
412.17	559.39
412.36	571.09
412.55	622.58
412.74	606.20
412.93	669.39
413.12	589.82
413.31	585.13
413.50	641.31
413.69	669.39
413.88	667.05
414.07	634.29
414.26	559.39
414.45	603.86
414.64	615.56
414.83	631.94
415.02	622.58
415.22	683.44
415.41	631.94
415.60	571.09
415.79	681.10
415.98	643.65
416.17	669.39
416.36	573.43
416.55	627.26
416.74	601.52
416.93	650.67
417.12	587.47
417.31	564.07
417.50	643.65
417.69	580.45
417.88	662.37
418.07	662.37
418.26	631.94
418.45	695.14
418.64	592.16
418.83	648.33
419.02	615.56
419.21	575.77
419.39	608.54
419.58	660.03
419.77	557.05
419.96	615.56
420.15	650.67
420.34	568.75
420.53	594.50
420.72	615.56
420.91	671.73
421.10	638.97
421.29	638.97
421.48	610.88
421.67	638.97
421.86	610.88
422.05	601.52
422.24	564.07
422.43	697.48
422.61	608.54
422.80	585.13
422.99	636.63
423.18	622.58
423.37	557.05
423.56	557.05
423.75	645.99
423.94	648.33
424.13	641.31
424.32	690.46
424.50	573.43
424.69	596.84
424.88	643.65
425.07	610.88
425.26	664.71
425.45	587.47
425.64	627.26
425.83	683.44
426.01	685.78
426.20	674.07
426.39	566.41
426.58	711.52
426.77	624.92
426.96	660.03
427.15	634.29
427.33	573.43
427.52	608.54
427.71	667.05
427.90	610.88
428.09	615.56
428.28	606.20
428.46	606.20
428.65	636.63
428.84	587.47
429.03	622.58
429.22	655.35
429.40	650.67
429.59	615.56
429.78	697.48
429.97	585.13
430.16	620.24
430.34	664.71
430.53	660.03
430.72	599.18
430.91	648.33
431.10	643.65
431.28	608.54
431.47	685.78
431.66	606.20
431.85	645.99
432.03	582.79
432.22	627.26
432.41	606.20
432.60	594.50
432.79	566.41
432.97	685.78
433.16	627.26
433.35	629.60
433.54	671.73
433.72	678.76
433.91	634.29
434.10	622.58
434.28	648.33
434.47	601.52
434.66	650.67
434.85	699.82
435.03	819.19
435.22	1013.45
435.41	1039.20
435.59	1057.92
435.78	933.87
435.97	875.36
436.16	760.67
436.34	702.16
436.53	627.26
436.72	643.65
436.90	671.73
437.09	603.86
437.28	622.58
437.46	657.69
437.65	716.20
437.84	613.22
438.02	601.52
438.21	718.54
438.40	624.92
438.58	660.03
438.77	676.41
438.96	638.97
439.14	620.24
439.33	629.60
439.52	671.73
439.70	610.88
439.89	683.44
440.08	613.22
440.26	669.39
440.45	648.33
440.63	643.65
440.82	660.03
441.01	638.97
441.19	617.90
441.38	622.58
441.57	676.41
441.75	571.09
441.94	638.97
442.12	676.41
442.31	699.82
442.50	641.31
442.68	645.99
442.87	641.31
443.05	631.94
443.24	674.07
443.43	613.22
443.61	657.69
443.80	683.44
443.98	585.13
444.17	664.71
444.35	648.33
444.54	615.56
444.73	615.56
444.91	674.07
445.10	585.13
445.28	559.39
445.47	690.46
445.65	667.05
445.84	615.56
446.02	594.50
446.21	655.35
446.39	622.58
446.58	608.54
446.77	608.54
446.95	624.92
447.14	615.56
447.32	690.46
447.51	695.14
447.69	671.73
447.88	608.54
448.06	678.76
448.25	643.65
448.43	657.69
448.62	624.92
448.80	634.29
448.99	601.52
449.17	664.71
449.36	629.60
449.54	667.05
449.73	622.58
449.91	667.05
450.10	596.84
450.28	718.54
450.46	699.82
450.65	718.54
450.83	585.13
451.02	664.71
451.20	596.84
451.39	667.05
451.57	641.31
451.76	589.82
451.94	620.24
452.13	615.56
452.31	636.63
452.49	629.60
452.68	638.97
452.86	653.01
453.05	641.31
453.23	653.01
453.42	613.22
453.60	627.26
453.78	624.92
453.97	615.56
454.15	681.10
454.34	713.86
454.52	650.67
454.70	622.58
454.89	636.63
455.07	613.22
455.26	627.26
455.44	627.26
455.62	603.86
455.81	622.58
455.99	699.82
456.17	657.69
456.36	650.67
456.54	638.97
456.73	653.01
456.91	650.67
457.09	617.90
457.28	695.14
457.46	655.35
457.64	674.07
457.83	603.86
458.01	655.35
458.19	615.56
458.38	615.56
458.56	650.67
458.74	624.92
458.93	594.50
459.11	631.94
459.29	610.88
459.48	622.58
459.66	699.82
459.84	730.25
460.03	711.52
460.21	627.26
460.39	580.45
460.57	669.39
460.76	643.65
460.94	683.44
461.12	692.80
461.31	657.69
461.49	669.39
461.67	688.12
461.85	695.14
462.04	627.26
462.22	959.62
462.40	645.99
462.59	620.24
462.77	648.33
462.95	617.90
463.13	667.05
463.32	634.29
463.50	653.01
463.68	610.88
463.86	599.18
464.05	704.50
464.23	688.12
464.41	641.31
464.59	629.60
464.78	720.88
464.96	589.82
465.14	564.07
465.32	653.01
465.50	617.90
465.69	702.16
465.87	624.92
466.05	615.56
466.23	596.84
466.41	685.78
466.60	660.03
466.78	681.10
466.96	657.69
467.14	685.78
467.32	695.14
467.51	655.35
467.69	653.01
467.87	631.94
468.05	624.92
468.23	648.33
468.41	657.69
468.60	631.94
468.78	678.76
468.96	629.60
469.14	624.92
469.32	667.05
469.50	683.44
469.69	613.22
469.87	636.63
470.05	617.90
470.23	610.88
470.41	610.88
470.59	648.33
470.77	650.67
470.95	653.01
471.14	671.73
471.32	592.16
471.50	592.16
471.68	683.44
471.86	653.01
472.04	657.69
472.22	601.52
472.40	643.65
472.58	606.20
472.77	514.92
472.95	617.90
473.13	645.99
473.31	667.05
473.49	622.58
473.67	603.86
473.85	636.63
474.03	688.12
474.21	753.65
474.39	653.01
474.57	706.84
474.75	615.56
474.93	634.29
475.12	636.63
475.30	636.63
475.48	657.69
475.66	617.90
475.84	638.97
476.02	608.54
476.20	601.52
476.38	662.37
476.56	725.57
476.74	645.99
476.92	643.65
477.10	681.10
477.28	653.01
477.46	669.39
477.64	669.39
477.82	671.73
478.00	636.63
478.18	603.86
478.36	674.07
478.54	702.16
478.72	603.86
478.90	596.84
479.08	578.11
479.26	671.73
479.44	645.99
479.62	660.03
479.80	655.35
479.98	641.31
480.16	676.41
480.34	627.26
480.52	667.05
480.70	650.67
480.88	627.26
481.06	664.71
481.24	657.69
481.41	624.92
481.59	664.71
481.77	645.99
481.95	641.31
482.13	688.12
482.31	592.16
482.49	664.71
482.67	643.65
482.85	720.88
483.03	650.67
483.21	655.35
483.39	697.48
483.57	681.10
483.74	720.88
483.92	629.60
484.10	648.33
484.28	711.52
484.46	732.59
484.64	648.33
484.82	692.80
485.00	685.78
485.18	772.38
485.35	727.91
485.53	695.14
485.71	706.84
485.89	725.57
486.07	741.95
486.25	723.23
486.43	695.14
486.61	685.78
486.78	765.36
486.96	716.20
487.14	709.18
487.32	606.20
487.50	699.82
487.68	767.70
487.85	716.20
488.03	814.51
488.21	774.72
488.39	746.63
488.57	660.03
488.75	695.14
488.92	765.36
489.10	716.20
489.28	753.65
489.46	655.35
489.64	617.90
489.81	657.69
489.99	695.14
490.17	763.01
490.35	755.99
490.53	716.20
490.70	674.07
490.88	674.07
491.06	795.78
491.24	744.29
491.41	657.69
491.59	755.99
491.77	662.37
491.95	739.61
492.13	681.10
492.30	688.12
492.48	653.01
492.66	744.29
492.84	702.16
493.01	718.54
493.19	692.80
493.37	760.67
493.54	650.67
493.72	760.67
493.90	667.05
494.08	643.65
494.25	727.91
494.43	690.46
494.61	692.80
494.79	744.29
494.96	627.26
495.14	711.52
495.32	660.03
495.49	697.48
495.67	711.52
495.85	669.39
496.02	638.97
496.20	648.33
496.38	683.44
496.55	681.10
496.73	692.80
496.91	730.25
497.09	713.86
497.26	681.10
497.44	720.88
497.62	608.54
497.79	664.71
497.97	688.12
498.14	662.37
498.32	746.63
498.50	669.39
498.67	662.37
498.85	660.03
499.03	711.52
499.20	648.33
499.38	624.92
499.56	636.63
499.73	683.44
499.91	678.76
500.08	723.23
500.26	638.97
500.44	657.69
500.61	685.78
500.79	575.77
500.97	688.12
501.14	676.41
501.32	622.58
501.49	671.73
501.67	655.35
501.84	589.82
502.02	678.76
502.20	685.78
502.37	653.01
502.55	695.14
502.72	631.94
502.90	603.86
503.07	631.94
503.25	669.39
503.43	688.12
503.60	699.82
503.78	629.60
503.95	645.99
504.13	631.94
504.30	664.71
504.48	613.22
504.65	664.71
504.83	660.03
505.01	674.07
505.18	734.93
505.36	692.80
505.53	669.39
505.71	638.97
505.88	702.16
506.06	697.48
506.23	622.58
506.41	650.67
506.58	596.84
506.76	643.65
506.93	681.10
507.11	550.03
507.28	641.31
507.46	650.67
507.63	650.67
507.81	631.94
507.98	603.86
508.16	636.63
508.33	657.69
508.50	610.88
508.68	669.39
508.85	664.71
509.03	620.24
509.20	645.99
509.38	669.39
509.55	671.73
509.73	664.71
509.90	664.71
510.08	685.78
510.25	716.20
510.42	645.99
510.60	704.50
510.77	678.76
510.95	641.31
511.12	667.05
511.30	681.10
511.47	678.76
511.64	702.16
511.82	706.84
511.99	655.35
512.17	594.50
512.34	643.65
512.51	681.10
512.69	655.35
512.86	669.39
513.04	638.97
513.21	690.46
513.38	653.01
513.56	629.60
513.73	692.80
513.90	716.20
514.08	599.18
514.25	627.26
514.43	683.44
514.60	643.65
514.77	641.31
514.95	674.07
515.12	564.07
515.29	692.80
515.47	697.48
515.64	629.60
515.81	702.16
515.99	699.82
516.16	669.39
516.33	734.93
516.51	685.78
516.68	713.86
516.85	660.03
517.03	650.67
517.20	596.84
517.37	622.58
517.54	695.14
517.72	627.26
517.89	622.58
518.06	657.69
518.24	702.16
518.41	678.76
518.58	657.69
518.75	641.31
518.93	636.63
519.10	674.07
519.27	608.54
519.45	681.10
519.62	617.90
519.79	697.48
519.96	650.67
520.14	645.99
520.31	631.94
520.48	662.37
520.65	592.16
520.83	669.39
521.00	664.71
521.17	699.82
521.34	622.58
521.52	627.26
521.69	641.31
521.86	671.73
522.03	638.97
522.20	641.31
522.38	580.45
522.55	648.33
522.72	685.78
522.89	730.25
523.07	711.52
523.24	699.82
523.41	585.13
523.58	648.33
523.75	671.73
523.92	596.84
524.10	645.99
524.27	718.54
524.44	634.29
524.61	645.99
524.78	645.99
524.96	711.52
525.13	683.44
525.30	648.33
525.47	676.41
525.64	634.29
525.81	629.60
525.98	662.37
526.16	601.52
526.33	685.78
526.50	620.24
526.67	578.11
526.84	671.73
527.01	678.76
527.18	631.94
527.36	685.78
527.53	594.50
527.70	622.58
527.87	688.12
528.04	704.50
528.21	613.22
528.38	676.41
528.55	734.93
528.72	660.03
528.89	662.37
529.07	655.35
529.24	603.86
529.41	718.54
529.58	660.03
529.75	653.01
529.92	622.58
530.09	657.69
530.26	617.90
530.43	606.20
530.60	622.58
530.77	653.01
530.94	671.73
531.11	648.33
531.28	636.63
531.46	620.24
531.63	662.37
531.80	615.56
531.97	620.24
532.14	683.44
532.31	594.50
532.48	627.26
532.65	655.35
532.82	674.07
532.99	645.99
533.16	620.24
533.33	699.82
533.50	688.12
533.67	660.03
533.84	662.37
534.01	674.07
534.18	671.73
534.35	676.41
534.52	676.41
534.69	676.41
534.86	704.50
535.03	706.84
535.20	678.76
535.37	664.71
535.54	627.26
535.71	645.99
535.88	669.39
536.05	662.37
536.22	669.39
536.38	678.76
536.55	657.69
536.72	765.36
536.89	662.37
537.06	713.86
537.23	770.04
537.40	744.29
537.57	763.01
537.74	791.10
537.91	737.27
538.08	716.20
538.25	727.91
538.42	744.29
538.59	763.01
538.75	763.01
538.92	753.65
539.09	753.65
539.26	753.65
539.43	800.46
539.60	788.76
539.77	915.15
539.94	819.19
540.11	887.06
540.28	964.30
540.44	826.21
540.61	959.62
540.78	978.34
540.95	1090.69
541.12	1104.73
541.29	1203.04
541.46	1228.78
541.62	1263.89
541.79	1196.01
541.96	1224.10
542.13	1184.31
542.30	1242.82
542.47	1266.23
542.63	1233.46
542.80	1104.73
542.97	1158.57
543.14	1198.35
543.31	1198.35
543.48	1191.33
543.64	1256.87
543.81	1186.65
543.98	1207.72
544.15	1137.50
544.32	1231.12
544.48	1214.74
544.65	1247.51
544.82	1160.91
544.99	1198.35
545.16	1086.01
545.32	1184.31
545.49	1523.69
545.66	1851.36
545.83	1996.48
546.00	1856.04
546.16	1598.59
546.33	1401.98
546.50	1341.13
546.67	1207.72
546.83	1095.37
547.00	1067.28
547.17	973.66
547.34	997.07
547.50	924.51
547.67	945.58
547.84	922.17
548.00	917.49
548.17	898.77
548.34	901.11
548.51	929.19
548.67	973.66
548.84	842.59
549.01	887.06
549.18	842.59
549.34	912.81
549.51	882.38
549.68	891.74
549.84	875.36
550.01	866.00
550.18	866.00
550.34	795.78
550.51	798.12
550.68	802.80
550.84	802.80
551.01	772.38
551.18	858.98
551.34	758.33
551.51	795.78
551.68	798.12
551.84	791.10
552.01	772.38
552.18	716.20
552.34	748.97
552.51	699.82
552.68	737.27
552.84	709.18
553.01	746.63
553.18	727.91
553.34	741.95
553.51	758.33
553.67	716.20
553.84	713.86
554.01	697.48
554.17	692.80
554.34	697.48
554.51	746.63
554.67	699.82
554.84	772.38
555.00	634.29
555.17	606.20
555.33	683.44
555.50	784.08
555.67	674.07
555.83	706.84
556.00	662.37
556.16	716.20
556.33	772.38
556.50	732.59
556.66	681.10
556.83	741.95
556.99	608.54
557.16	681.10
557.32	678.76
557.49	657.69
557.65	655.35
557.82	655.35
557.98	763.01
558.15	629.60
558.32	690.46
558.48	631.94
558.65	664.71
558.81	657.69
558.98	704.50
559.14	706.84
559.31	685.78
559.47	704.50
559.64	746.63
559.80	662.37
559.97	669.39
560.13	690.46
560.30	706.84
560.46	603.86
560.63	636.63
560.79	657.69
560.96	723.23
561.12	636.63
561.29	690.46
561.45	638.97
561.61	709.18
561.78	636.63
561.94	613.22
562.11	620.24
562.27	678.76
562.44	641.31
562.60	674.07
562.77	662.37
562.93	699.82
563.10	610.88
563.26	690.46
563.42	678.76
563.59	716.20
563.75	641.31
563.92	739.61
564.08	678.76
564.24	683.44
564.41	718.54
564.57	645.99
564.74	671.73
564.90	627.26
565.07	683.44
565.23	669.39
565.39	620.24
565.56	624.92
565.72	662.37
565.88	620.24
566.05	706.84
566.21	671.73
566.38	664.71
566.54	641.31
566.70	627.26
566.87	608.54
567.03	678.76
567.19	660.03
567.36	653.01
567.52	620.24
567.68	667.05
567.85	662.37
568.01	653.01
568.17	667.05
568.34	697.48
568.50	629.60
568.66	645.99
568.83	758.33
568.99	690.46
569.15	636.63
569.32	622.58
569.48	643.65
569.64	596.84
569.81	676.41
569.97	702.16
570.13	629.60
570.30	653.01
570.46	664.71
570.62	650.67
570.78	650.67
570.95	610.88
571.11	617.90
571.27	613.22
571.43	620.24
571.60	645.99
571.76	641.31
571.92	641.31
572.09	657.69
572.25	702.16
572.41	589.82
572.57	589.82
572.74	636.63
572.90	674.07
573.06	671.73
573.22	617.90
573.38	650.67
573.55	727.91
573.71	653.01
573.87	655.35
574.03	638.97
574.20	699.82
574.36	667.05
574.52	730.25
574.68	608.54
574.84	669.39
575.01	655.35
575.17	760.67
575.33	620.24
575.49	655.35
575.65	711.52
575.82	678.76
575.98	667.05
576.14	664.71
576.30	772.38
576.46	725.57
576.62	889.40
576.79	898.77
576.95	870.68
577.11	758.33
577.27	746.63
577.43	716.20
577.59	692.80
577.75	683.44
577.92	617.90
578.08	713.86
578.24	664.71
578.40	713.86
578.56	793.44
578.72	858.98
578.88	959.62
579.04	802.80
579.21	744.29
579.37	793.44
579.53	723.23
579.69	795.78
579.85	770.04
580.01	814.51
580.17	746.63
580.33	812.17
580.49	821.53
580.65	709.18
580.82	737.27
580.98	681.10
581.14	674.07
581.30	727.91
581.46	765.36
581.62	723.23
581.78	713.86
581.94	692.80
582.10	713.86
582.26	772.38
582.42	770.04
582.58	741.95
582.74	835.57
582.90	709.18
583.06	763.01
583.22	793.44
583.38	699.82
583.54	819.19
583.70	795.78
583.86	765.36
584.02	777.06
584.18	774.72
584.34	751.31
584.50	767.70
584.66	678.76
584.82	685.78
584.98	727.91
585.14	805.14
585.30	758.33
585.46	685.78
585.62	685.78
585.78	748.97
585.94	709.18
586.10	821.53
586.26	753.65
586.42	793.44
586.58	847.27
586.74	842.59
586.90	863.66
587.06	912.81
587.22	933.87
587.38	889.40
587.54	849.61
587.70	833.23
587.86	882.38
588.02	807.48
588.18	737.27
588.34	770.04
588.49	709.18
588.65	706.84
588.81	730.25
588.97	723.23
589.13	720.88
589.29	685.78
589.45	732.59
589.61	718.54
589.77	692.80
589.93	732.59
590.08	688.12
590.24	763.01
590.40	734.93
590.56	741.95
590.72	716.20
590.88	650.67
591.04	732.59
591.20	807.48
591.35	730.25
591.51	720.88
591.67	821.53
591.83	739.61
591.99	704.50
592.15	753.65
592.31	779.40
592.46	772.38
592.62	793.44
592.78	777.06
592.94	763.01
593.10	798.12
593.26	807.48
593.41	926.85
593.57	725.57
593.73	711.52
593.89	748.97
594.05	704.50
594.20	688.12
594.36	683.44
594.52	720.88
594.68	645.99
594.84	692.80
594.99	765.36
595.15	718.54
595.31	732.59
595.47	692.80
595.62	711.52
595.78	706.84
595.94	627.26
596.10	746.63
596.25	683.44
596.41	692.80
596.57	751.31
596.73	737.27
596.88	688.12
597.04	685.78
597.20	732.59
597.36	669.39
597.51	741.95
597.67	791.10
597.83	688.12
597.99	746.63
598.14	697.48
598.30	727.91
598.46	648.33
598.61	709.18
598.77	723.23
598.93	702.16
599.09	720.88
599.24	770.04
599.40	671.73
599.56	748.97
599.71	741.95
599.87	744.29
600.03	753.65
600.18	671.73
600.34	653.01
600.50	664.71
600.65	662.37
600.81	751.31
600.97	662.37
601.12	664.71
601.28	678.76
601.44	620.24
601.59	683.44
601.75	697.48
601.91	695.14
602.06	599.18
602.22	765.36
602.37	697.48
602.53	676.41
602.69	697.48
602.84	716.20
603.00	678.76
603.16	699.82
603.31	723.23
603.47	683.44
603.62	643.65
603.78	627.26
603.94	746.63
604.09	650.67
604.25	667.05
604.40	683.44
604.56	681.10
604.71	674.07
604.87	622.58
605.03	730.25
605.18	695.14
605.34	772.38
605.49	627.26
605.65	711.52
605.80	615.56
605.96	634.29
606.12	648.33
606.27	697.48
606.43	653.01
606.58	699.82
606.74	695.14
606.89	669.39
607.05	692.80
607.20	819.19
607.36	732.59
607.51	648.33
607.67	695.14
607.82	748.97
607.98	767.70
608.13	711.52
608.29	713.86
608.44	737.27
608.60	704.50
608.75	760.67
608.91	741.95
609.06	774.72
609.22	781.74
609.37	763.01
609.53	840.25
609.68	889.40
609.84	912.81
