SpectraSuite Data File
++++++++++++++++++++++++++++++++++++
Date: Thu Oct 24 13:21:26 EDT 2013
User: stostad
Dark Spectrum Present: No
Reference Spectrum Present: No
Number of Sampled Component Spectra: 1
Spectrometers: USB2+H05261
Integration Time (usec): 100000 (USB2+H05261)
Spectra Averaged: 1 (USB2+H05261)
Boxcar Smoothing: 0 (USB2+H05261)
Correct for Electrical Dark: No (USB2+H05261)
Strobe/Lamp Enabled: No (USB2+H05261)
Correct for Detector Non-linearity: No (USB2+H05261)
Correct for Stray Light: No (USB2+H05261)
Number of Pixels in Processed Spectrum: 2048
>>>>>Begin Processed Spectral Data<<<<<
365.73	601.52
365.92	601.52
366.12	601.52
366.32	456.40
366.52	517.26
366.72	472.79
366.91	421.30
367.11	395.55
367.31	393.21
367.51	472.79
367.70	440.02
367.90	507.90
368.10	524.28
368.30	402.57
368.49	461.09
368.69	491.51
368.89	465.77
369.09	510.24
369.28	528.96
369.48	477.47
369.68	512.58
369.87	566.41
370.07	533.64
370.27	564.07
370.47	676.41
370.66	980.68
370.86	1006.43
371.06	976.00
371.25	1057.92
371.45	1027.50
371.65	1032.18
371.84	1104.73
372.04	1071.97
372.24	1078.99
372.44	1053.24
372.63	1039.20
372.83	1109.41
373.03	1149.20
373.22	1107.07
373.42	1132.82
373.62	1158.57
373.81	1146.86
374.01	1109.41
374.21	1107.07
374.40	1029.84
374.60	1167.93
374.79	1097.71
374.99	1191.33
375.19	1137.50
375.38	1238.14
375.58	1273.25
375.78	1181.97
375.97	1287.29
376.17	1228.78
376.37	1221.76
376.56	1217.08
376.76	1266.23
376.95	1294.32
377.15	1263.89
377.35	1299.00
377.54	1256.87
377.74	1125.80
377.93	1212.40
378.13	1198.35
378.33	1282.61
378.52	1210.06
378.72	1317.72
378.91	1249.85
379.11	1320.06
379.31	1345.81
379.50	1287.29
379.70	1334.11
379.89	1439.43
380.09	1371.55
380.28	1371.55
380.48	1268.57
380.68	1324.74
380.87	1315.38
381.07	1427.73
381.26	1397.30
381.46	1313.04
381.65	1509.65
381.85	1399.64
382.04	1355.17
382.24	1373.89
382.43	1423.05
382.63	1476.88
382.83	1348.15
383.02	1439.43
383.22	1451.13
383.41	1486.24
383.61	1481.56
383.80	1511.99
384.00	1509.65
384.19	1481.56
384.39	1479.22
384.58	1521.35
384.78	1425.39
384.97	1472.20
385.17	1432.41
385.36	1486.24
385.56	1542.41
385.75	1523.69
385.95	1643.06
386.14	1631.35
386.34	1720.29
386.53	1603.27
386.72	1540.07
386.92	1621.99
387.11	1565.82
387.31	1605.61
387.50	1596.25
387.70	1741.36
387.89	1682.85
388.09	1724.97
388.28	1755.40
388.48	1724.97
388.67	1675.82
388.86	1753.06
389.06	1652.42
389.25	1778.81
389.45	1734.34
389.64	1760.08
389.84	1776.47
390.03	1802.21
390.22	1813.92
390.42	1853.70
390.61	1785.83
390.81	1657.10
391.00	1799.87
391.19	1832.64
391.39	1781.15
391.58	1937.96
391.78	1849.02
391.97	1778.81
392.16	1849.02
392.36	1914.56
392.55	1881.79
392.75	1973.07
392.94	1914.56
393.13	1940.30
393.33	1982.43
393.52	1898.17
393.71	2010.52
393.91	1919.24
394.10	1975.41
394.29	1947.33
394.49	1975.41
394.68	1947.33
394.88	2001.16
395.07	2150.95
395.26	2019.88
395.46	2127.55
395.65	2120.53
395.84	2099.46
396.04	2216.49
396.23	2141.59
396.42	2148.61
396.62	2207.13
396.81	2113.50
397.00	2195.42
397.19	2120.53
397.39	2176.70
397.58	2218.83
397.77	2172.02
397.97	2113.50
398.16	2246.91
398.35	2270.32
398.55	2282.02
398.74	2389.69
398.93	2385.01
399.12	2211.81
399.32	2373.30
399.51	2253.94
399.70	2352.24
399.90	2387.35
400.09	2408.41
400.28	2473.95
400.47	2434.16
400.67	2537.14
400.86	2408.41
401.05	2485.65
401.24	2480.97
401.44	2551.18
401.63	2576.93
401.82	2551.18
402.01	2581.61
402.21	2621.40
402.40	2572.25
402.59	2649.49
402.78	2506.71
402.97	2691.62
403.17	2654.17
403.36	2649.49
403.55	2679.91
403.74	2768.85
403.93	2682.25
404.13	2839.07
404.32	2822.69
404.51	2827.37
404.70	2796.94
404.89	2827.37
405.09	2803.96
405.28	2792.26
405.47	2974.82
405.66	2869.50
405.85	2925.67
406.05	2911.63
406.24	2993.55
406.43	2913.97
406.62	2944.39
406.81	3056.74
407.00	2867.16
407.20	2935.03
407.39	3103.55
407.58	3068.44
407.77	3026.31
407.96	3138.66
408.15	3164.40
408.34	3068.44
408.54	3133.98
408.73	3283.77
408.92	3166.74
409.11	3346.97
409.30	3243.98
409.49	3229.94
409.68	3471.01
409.87	3337.60
410.07	3440.59
410.26	3426.54
410.45	3393.78
410.64	3555.27
410.83	3611.45
411.02	3559.95
411.21	3501.44
411.40	3473.36
411.59	3632.51
411.78	3620.81
411.98	3634.85
412.17	3716.77
412.36	3754.22
412.55	3747.20
412.74	3843.16
412.93	3889.97
413.12	3667.62
413.31	4049.13
413.50	3838.48
413.69	3932.10
413.88	3859.54
414.07	4009.34
414.26	4053.81
414.45	4035.08
414.64	4102.96
414.83	4079.55
415.02	4250.41
415.22	4245.73
415.41	4372.12
415.60	4255.09
415.79	4367.44
415.98	4404.89
416.17	4456.38
416.36	4475.10
416.55	4461.06
416.74	4498.51
416.93	4430.63
417.12	4454.04
417.31	4727.88
417.50	4648.30
417.69	4702.14
417.88	4540.64
418.07	4720.86
418.26	4727.88
418.45	4671.71
418.64	4788.74
418.83	4842.57
419.02	4800.44
419.21	4999.38
419.39	4926.83
419.58	4924.49
419.77	4816.82
419.96	4901.08
420.15	4835.55
420.34	4968.96
420.53	5053.22
420.72	5011.09
420.91	5095.35
421.10	5048.54
421.29	5165.56
421.48	5050.88
421.67	5228.76
421.86	5195.99
422.05	5172.58
422.24	5146.84
422.43	5291.95
422.61	5247.48
422.80	5345.78
422.99	5214.71
423.18	5418.34
423.37	5516.64
423.56	5235.78
423.75	5231.10
423.94	5163.22
424.13	5029.81
424.32	5242.80
424.50	5451.11
424.69	5493.24
424.88	5502.60
425.07	5305.99
425.26	5277.91
425.45	5270.89
425.64	5322.38
425.83	5317.70
426.01	5404.30
426.20	5446.43
426.39	5500.26
426.58	5341.10
426.77	5362.17
426.96	5572.82
427.15	5387.91
427.33	5563.45
427.52	5446.43
427.71	5591.54
427.90	5621.97
428.09	5636.01
428.28	5753.04
428.46	5699.20
428.65	5631.33
428.84	5837.30
429.03	5872.40
429.22	5692.18
429.40	5942.62
429.59	5764.74
429.78	5717.93
429.97	5771.76
430.16	5926.24
430.34	5954.32
430.53	6003.47
430.72	6080.71
430.91	6057.31
431.10	5994.11
431.28	6111.14
431.47	6136.88
431.66	6188.38
431.85	6237.53
432.03	6167.31
432.22	6478.60
432.41	6286.68
432.60	6331.15
432.79	6356.90
432.97	6352.21
433.16	6415.41
433.35	6214.12
433.54	6494.99
433.72	6546.48
433.91	6494.99
434.10	6621.38
434.28	6569.88
434.47	6534.78
434.66	6874.15
434.85	6752.45
435.03	6974.80
435.22	6764.15
435.41	7061.40
435.59	6944.37
435.78	7066.08
435.97	6925.65
436.16	6991.18
436.34	6808.62
436.53	7014.59
436.72	7021.61
436.90	6939.69
437.09	7070.76
437.28	6930.33
437.46	7028.63
437.65	7155.02
437.84	7117.57
438.02	7211.19
438.21	7150.34
438.40	7155.02
438.58	7302.47
438.77	7456.95
438.96	7335.24
439.14	7353.96
439.33	7618.44
439.52	7693.34
439.70	7475.67
439.89	7749.51
440.08	7754.19
440.26	7826.75
440.45	7845.48
440.63	7683.98
440.82	8039.74
441.01	8023.36
441.19	8016.33
441.38	8044.42
441.57	8126.34
441.75	8105.28
441.94	8224.64
442.12	8287.84
442.31	8493.80
442.50	8376.78
442.68	8292.52
442.87	8463.38
443.05	8510.19
443.24	8636.58
443.43	8627.21
443.61	8568.70
443.80	8795.73
443.98	8533.59
444.17	8301.88
444.35	8500.83
444.54	8798.07
444.73	8793.39
444.91	8718.50
445.10	8868.29
445.28	8652.96
445.47	8685.73
445.65	8697.43
445.84	8936.17
446.02	8919.78
446.21	8837.86
446.39	8971.27
446.58	8910.42
446.77	8863.61
446.95	8711.47
447.14	8872.97
447.32	8924.46
447.51	8833.18
447.69	8898.72
447.88	8931.48
448.06	8910.42
448.25	8943.19
448.43	9085.96
448.62	8901.06
448.80	8992.34
448.99	9095.32
449.17	9312.99
449.36	9123.41
449.54	9298.95
449.73	9495.55
449.91	9572.79
450.10	9488.53
450.28	9430.02
450.46	9446.40
450.65	9341.08
450.83	9338.74
451.02	9373.85
451.20	9797.48
451.39	9668.75
451.57	9600.88
451.76	9507.26
451.94	9729.61
452.13	9628.96
452.31	9940.26
452.49	9516.62
452.68	9806.84
452.86	9949.62
453.05	10094.73
453.23	9844.29
453.42	10080.69
453.60	9750.67
453.78	9951.96
453.97	9975.36
454.15	9956.64
454.34	9745.99
454.52	10108.77
454.70	10136.86
454.89	10164.95
455.07	10211.76
455.26	10136.86
455.44	10303.04
455.62	10420.06
455.81	10410.70
455.99	10363.89
456.17	10518.37
456.36	10445.81
456.54	10565.18
456.73	10750.08
456.91	10836.68
457.09	10736.04
457.28	10864.77
457.46	10815.62
457.64	10860.09
457.83	10991.16
458.01	10799.23
458.19	10979.45
458.38	11143.29
458.56	11052.01
458.74	11220.53
458.93	11442.88
459.11	11314.15
459.29	11101.16
459.48	11419.47
459.66	11403.09
459.84	11363.30
460.03	11349.26
460.21	11538.84
460.39	11339.90
460.57	11412.45
460.76	11637.14
460.94	11623.10
461.12	11653.53
461.31	11770.55
461.49	11604.38
461.67	11538.84
461.85	11957.80
462.04	11707.36
462.22	12278.45
462.40	11808.00
462.59	12046.74
462.77	11932.05
462.95	11978.86
463.13	11896.94
463.32	12067.80
463.50	12189.51
463.68	12320.58
463.86	12257.39
464.05	11992.90
464.23	12079.50
464.41	12355.69
464.59	12016.31
464.78	12404.84
464.96	12332.28
465.14	11990.56
465.32	12397.82
465.50	12292.49
465.69	12704.43
465.87	12379.09
466.05	12655.28
466.23	12561.66
466.41	12713.79
466.60	12732.51
466.78	12547.61
466.96	12648.26
467.14	12552.29
467.32	12613.15
467.51	13097.64
467.69	12823.80
467.87	12861.24
468.05	12903.37
468.23	12877.63
468.41	12784.01
468.60	13060.19
468.78	13142.11
468.96	13071.89
469.14	13341.05
469.32	13373.82
469.50	13207.64
469.69	13341.05
469.87	13535.32
470.05	13528.30
470.23	13661.71
470.41	13846.61
470.59	13755.33
470.77	13680.43
470.95	13549.36
471.14	14017.47
471.32	13647.66
471.50	13977.68
471.68	13944.91
471.86	13930.87
472.04	13996.40
472.22	14450.47
472.40	14127.47
472.58	14164.92
472.77	14541.75
472.95	14736.01
473.13	14913.89
473.31	14511.32
473.49	14689.20
473.67	14820.27
473.85	14775.80
474.03	15028.58
474.21	15098.80
474.39	15126.88
474.57	15194.76
474.75	15477.96
474.93	15372.64
475.12	15438.17
475.30	15576.27
475.48	15442.85
475.66	15763.51
475.84	15489.67
476.02	15843.09
476.20	16060.76
476.38	16002.24
476.56	16727.81
476.74	16360.34
476.92	16341.62
477.10	16189.49
477.28	16774.62
477.46	16725.47
477.64	16957.18
477.82	16978.25
478.00	17675.73
478.18	17226.34
478.36	17434.65
478.54	17844.24
478.72	17715.51
478.90	17933.18
479.08	18097.02
479.26	18384.91
479.44	18136.81
479.62	18649.39
479.80	18527.68
479.98	18560.45
480.16	19070.68
480.34	18726.63
480.52	19061.32
480.70	18909.19
480.88	18932.59
481.06	19367.93
481.24	19412.40
481.41	19541.13
481.59	19946.05
481.77	20224.57
481.95	20542.88
482.13	20484.37
482.31	20262.02
482.49	20767.57
482.67	20372.02
482.85	20669.27
483.03	21383.13
483.21	21254.40
483.39	21783.37
483.57	21341.00
483.74	21617.19
483.92	22017.42
484.10	21846.56
484.28	22153.17
484.46	22913.84
484.64	22878.74
484.82	22590.85
485.00	22916.19
485.18	23363.23
485.35	23419.40
485.53	23236.84
485.71	23796.23
485.89	24049.00
486.07	23957.72
486.25	24297.10
486.43	24182.42
486.61	24746.48
486.78	24711.38
486.96	25153.74
487.14	25008.62
487.32	25022.67
487.50	25586.74
487.68	25326.94
487.85	26050.16
488.03	26483.16
488.21	26347.41
488.39	26319.32
488.57	26771.05
488.75	26492.52
488.92	27108.08
489.10	27372.57
489.28	27449.80
489.46	27653.43
489.64	27847.69
489.81	28343.89
489.99	28322.82
490.17	28800.29
490.35	28891.57
490.53	28889.23
490.70	29057.75
490.88	29085.84
491.06	29425.22
491.24	29493.09
491.41	29230.95
491.59	29818.42
491.77	30162.48
491.95	30422.28
492.13	30534.63
492.30	30710.17
492.48	30710.17
492.66	30607.19
492.84	31178.28
493.01	31260.20
493.19	31133.81
493.37	31613.62
493.54	31763.41
493.72	32067.68
493.90	31913.20
494.08	32308.76
494.25	32563.87
494.43	32739.41
494.61	32814.31
494.79	33043.68
494.96	33254.33
495.14	33710.74
495.32	33514.13
495.49	34171.82
495.67	34164.80
495.85	34539.29
496.02	34522.90
496.20	34550.99
496.38	34419.92
496.55	34888.03
496.73	35662.74
496.91	35196.98
497.09	35358.47
497.26	35665.08
497.44	35541.03
497.62	35737.64
497.79	36252.56
497.97	36271.28
498.14	36318.09
498.32	36994.51
498.50	36802.58
498.67	37116.22
498.85	36877.48
499.03	37291.76
499.20	37062.38
499.38	37504.74
499.56	37818.38
499.73	38230.31
499.91	38010.30
500.08	38061.79
500.26	37926.04
500.44	38426.92
500.61	38663.31
500.79	38581.39
500.97	38871.62
501.14	39323.34
501.32	39409.94
501.49	39260.15
501.67	39077.58
501.84	39463.77
502.02	39730.59
502.20	39924.86
502.37	39985.71
502.55	39599.52
502.72	40081.67
502.90	39966.99
503.07	40297.00
503.25	40362.54
503.43	40376.58
503.60	40678.51
503.78	41298.75
503.95	40811.92
504.13	41050.66
504.30	41635.79
504.48	40760.43
504.65	41855.80
504.83	42059.43
505.01	42120.28
505.18	41645.15
505.36	41993.89
505.53	41640.47
505.71	42408.17
505.88	42447.96
506.06	42038.36
506.23	42754.57
506.41	42602.43
506.58	42808.40
506.76	42925.42
506.93	43168.84
507.11	42834.14
507.28	43433.32
507.46	43220.33
507.63	43845.26
507.81	43739.93
507.98	43643.97
508.16	43564.39
508.33	43894.41
508.50	44268.89
508.68	43896.75
508.85	44645.72
509.03	44399.96
509.20	44238.47
509.38	44554.44
509.55	44676.15
509.73	45471.93
509.90	45310.43
510.08	45368.94
510.25	45043.61
510.42	45052.97
510.60	45876.84
510.77	45860.46
510.95	45886.20
511.12	45663.85
511.30	46160.05
511.47	46361.33
511.64	46101.53
511.82	46316.86
511.99	45886.20
512.17	46789.65
512.34	46560.28
512.51	46986.25
512.69	47175.84
512.86	47475.43
513.04	47576.07
513.21	47442.66
513.38	47215.63
513.56	47449.68
513.73	47353.72
513.90	48100.35
514.08	48083.97
514.25	47753.95
514.43	48088.65
514.60	48011.41
514.77	48336.74
514.95	47828.85
515.12	47973.96
515.29	48257.17
515.47	48587.18
515.64	48828.26
515.81	48973.37
515.99	48940.60
516.16	48889.11
516.33	48568.46
516.51	49361.90
516.68	48861.02
516.85	49265.94
517.03	49441.48
517.20	49640.42
517.37	49478.92
517.54	49488.29
517.72	49202.74
517.89	49523.40
518.06	50038.31
518.24	49399.35
518.41	50000.86
518.58	49698.94
518.75	49830.01
518.93	49584.25
519.10	49874.48
519.27	50375.35
519.45	50380.03
519.62	50494.72
519.79	50351.94
519.96	51016.66
520.14	50745.15
520.31	50368.33
520.48	50674.94
520.65	50777.92
520.83	51173.47
521.00	51150.07
521.17	51136.02
521.34	51189.86
521.52	51026.02
521.69	51473.06
521.86	51505.83
522.03	51133.68
522.20	51803.08
522.38	51959.89
522.55	51873.29
522.72	51969.26
522.89	51437.95
523.07	52233.74
523.24	51936.49
523.41	52168.20
523.58	52179.90
523.75	52561.41
523.92	52203.31
524.10	52488.85
524.27	52467.79
524.44	52633.97
524.61	52498.22
524.78	52540.35
524.96	52769.72
525.13	52776.74
525.30	53212.08
525.47	53031.86
525.64	53214.42
525.81	53151.23
525.98	53113.78
526.16	52800.15
526.33	53010.79
526.50	53361.87
526.67	53160.59
526.84	53499.97
527.01	53581.88
527.18	53642.74
527.36	53743.38
527.53	53712.95
527.70	53769.13
527.87	53661.46
528.04	53741.04
528.21	54241.92
528.38	53834.66
528.55	54216.17
528.72	53846.36
528.89	53991.48
529.07	53862.75
529.24	53958.71
529.41	54415.11
529.58	54255.96
529.75	54415.11
529.92	54232.55
530.09	54356.60
530.26	54452.56
530.43	54394.05
530.60	54295.75
530.77	54316.81
530.94	54789.60
531.11	54843.43
531.28	54738.11
531.46	54850.45
531.63	54756.83
531.80	54887.90
531.97	55021.31
532.14	54658.53
532.31	54759.17
532.48	55250.69
532.65	55255.37
532.82	54941.74
532.99	55124.30
533.16	55229.62
533.33	55461.33
533.50	55480.06
533.67	55189.83
533.84	55238.98
534.01	55206.22
534.18	55409.84
534.35	55796.03
534.52	55597.09
534.69	55650.92
534.86	55681.34
535.03	55573.68
535.20	55917.74
535.37	55697.73
535.54	55920.08
535.71	55723.47
535.88	55887.31
536.05	55756.24
536.22	55945.83
536.38	56093.28
536.55	56112.00
536.72	56097.96
536.89	56081.58
537.06	56289.88
537.23	56369.46
537.40	56107.32
537.57	56240.73
537.74	56231.37
537.91	56556.70
538.08	56580.11
538.25	56041.79
538.42	56409.25
538.59	56715.86
538.75	56437.34
538.92	56582.45
539.09	56647.99
539.26	56975.66
539.43	56596.49
539.60	56680.75
539.77	56863.32
539.94	57045.88
540.11	57045.88
540.28	56980.34
540.44	56975.66
540.61	57111.41
540.78	57031.83
540.95	57106.73
541.12	56807.14
541.29	57439.09
541.46	57162.90
541.62	57434.41
541.79	57247.16
541.96	57277.59
542.13	57146.52
542.30	57179.29
542.47	57483.56
542.63	57396.96
542.80	57380.57
542.97	57874.43
543.14	57925.92
543.31	57785.49
543.48	57883.79
543.64	57916.56
543.81	57811.23
543.98	57860.38
544.15	57897.83
544.32	57930.60
544.48	58368.28
544.65	57961.03
544.82	58141.25
544.99	58026.56
545.16	58169.33
545.32	58071.03
545.49	58080.39
545.66	58447.86
545.83	58298.06
546.00	58492.33
546.16	58445.52
546.33	58607.01
546.50	58211.46
546.67	58401.05
546.83	58103.80
547.00	58206.78
547.17	58164.65
547.34	58396.37
547.50	58518.07
547.67	58787.24
547.84	58791.92
548.00	58885.54
548.17	58845.75
548.34	58665.53
548.51	58529.78
548.67	58777.87
548.84	58576.59
549.01	58471.26
549.18	58754.47
549.34	58927.67
549.51	58981.50
549.68	58829.37
549.84	58993.20
550.01	58876.18
550.18	58705.32
550.34	58766.17
550.51	58911.28
550.68	59189.81
550.84	58724.04
551.01	59058.74
551.18	59091.51
551.34	58901.92
551.51	59166.40
551.68	59030.65
551.84	59070.44
552.01	58815.32
552.18	59276.41
552.34	59140.66
552.51	59290.45
552.68	59363.01
552.84	59330.24
553.01	59449.61
553.18	59245.98
553.34	59442.59
553.51	58993.20
553.67	59327.90
553.84	59554.93
554.01	59662.60
554.17	59653.23
554.34	59590.04
554.51	59620.47
554.67	59592.38
554.84	59590.04
555.00	59283.43
555.17	59477.69
555.33	59543.23
555.50	59400.46
555.67	59545.57
555.83	59817.07
556.00	59592.38
556.16	59760.90
556.33	59845.16
556.50	59718.77
556.66	59840.48
556.83	59519.82
556.99	60032.40
557.16	59945.80
557.32	59971.55
557.49	60051.12
557.65	59898.99
557.82	59877.93
557.98	59983.25
558.15	59716.43
558.32	60039.42
558.48	59793.67
558.65	60142.41
558.81	60044.10
558.98	59957.50
559.14	60207.94
559.31	60229.01
559.47	59980.91
559.64	60245.39
559.80	60006.65
559.97	60184.54
560.13	60044.10
560.30	59910.69
560.46	60257.09
560.63	60430.29
560.79	60315.61
560.96	60266.45
561.12	60261.77
561.29	60186.88
561.45	60069.85
561.61	60257.09
561.78	60147.09
561.94	60353.05
562.11	60552.00
562.27	60624.56
562.44	60619.88
562.60	60434.97
562.77	60432.63
562.93	60350.71
563.10	60453.70
563.26	60299.22
563.42	60713.50
563.59	60423.27
563.75	60556.68
563.92	60589.45
564.08	60516.89
564.24	60662.00
564.41	60299.22
564.57	60285.18
564.74	60348.37
564.90	60544.98
565.07	60669.03
565.23	60973.30
565.39	60732.22
565.56	60914.78
565.72	60727.54
565.88	60879.67
566.05	60617.53
566.21	60622.22
566.38	60638.60
566.54	60636.26
566.70	60664.35
566.87	61015.43
567.03	60793.07
567.19	61052.87
567.36	61022.45
567.52	60701.79
567.68	60846.91
567.85	60591.79
568.01	60891.38
568.17	60985.00
568.34	60872.65
568.50	60828.18
568.66	60853.93
568.83	60743.92
568.99	60928.83
569.15	60877.33
569.32	61041.17
569.48	60781.37
569.64	60779.03
569.81	60982.66
569.97	60764.99
570.13	60994.36
570.30	60645.62
570.46	61111.39
570.62	60970.96
570.78	61066.92
570.95	60889.04
571.11	61071.60
571.27	60842.23
571.43	61001.38
571.60	61186.28
571.76	61001.38
571.92	60994.36
572.09	61256.50
572.25	61125.43
572.41	61183.94
572.57	61165.22
572.74	61359.48
572.90	61024.79
573.06	60999.04
573.22	60956.91
573.38	61052.87
573.55	61073.94
573.71	61338.42
573.87	61258.84
574.03	61113.73
574.20	61230.75
574.36	61364.17
574.52	61197.99
574.68	61310.33
574.84	61284.59
575.01	61359.48
575.17	61123.09
575.33	61392.25
575.49	61296.29
575.65	61230.75
575.82	61511.62
575.98	61010.74
576.14	61275.22
576.30	61141.81
576.46	61104.37
576.62	61132.45
576.79	61270.54
576.95	61057.56
577.11	61223.73
577.27	61064.58
577.43	61324.38
577.59	61209.69
577.75	61230.75
577.92	60963.93
578.08	61233.10
578.24	61258.84
578.40	61319.70
578.56	61378.21
578.72	61282.25
578.88	61453.11
579.04	61439.06
579.21	61429.70
579.37	61565.45
579.53	61263.52
579.69	61270.54
579.85	61322.04
580.01	61300.97
580.17	61277.57
580.33	61544.39
580.49	61434.38
580.65	61563.11
580.82	61467.15
580.98	61546.73
581.14	61375.87
581.30	61717.59
581.46	61352.46
581.62	61242.46
581.78	61188.63
581.94	61453.11
582.10	61347.78
582.26	61549.07
582.42	61462.47
582.58	61310.33
582.74	61471.83
582.90	61605.24
583.06	61532.68
583.22	61371.19
583.38	61443.74
583.54	61413.32
583.70	61546.73
583.86	61364.17
584.02	61375.87
584.18	61572.47
584.34	61504.60
584.50	61633.33
584.66	61382.89
584.82	61427.36
584.98	61708.22
585.14	61399.27
585.30	61499.92
585.46	61478.85
585.62	61544.39
585.78	61628.65
585.94	61392.25
586.10	61565.45
586.26	61572.47
586.42	61801.85
586.58	61467.15
586.74	61551.41
586.90	61326.72
587.06	61394.59
587.22	61698.86
587.38	61520.98
587.54	61567.79
587.70	61897.81
587.86	61762.06
