SpectraSuite Data File
++++++++++++++++++++++++++++++++++++
Date: Thu Oct 24 13:21:20 EDT 2013
User: stostad
Dark Spectrum Present: No
Reference Spectrum Present: No
Number of Sampled Component Spectra: 1
Spectrometers: USB2+H05261
Integration Time (usec): 100000 (USB2+H05261)
Spectra Averaged: 1 (USB2+H05261)
Boxcar Smoothing: 0 (USB2+H05261)
Correct for Electrical Dark: No (USB2+H05261)
Strobe/Lamp Enabled: No (USB2+H05261)
Correct for Detector Non-linearity: No (USB2+H05261)
Correct for Stray Light: No (USB2+H05261)
Number of Pixels in Processed Spectrum: 2048
>>>>>Begin Processed Spectral Data<<<<<
365.73	533.64
365.92	533.64
366.12	533.64
366.32	449.38
366.52	442.36
366.72	416.62
366.91	465.77
367.11	507.90
367.31	479.81
367.51	489.17
367.70	442.36
367.90	479.81
368.10	510.24
368.30	498.53
368.49	507.90
368.69	535.98
368.89	440.02
369.09	491.51
369.28	486.83
369.48	496.19
369.68	559.39
369.87	571.09
370.07	552.37
370.27	620.24
370.47	594.50
370.66	699.82
370.86	863.66
371.06	947.92
371.25	915.15
371.45	896.43
371.65	908.13
371.84	924.51
372.04	929.19
372.24	910.47
372.44	868.34
372.63	983.02
372.83	905.79
373.03	919.83
373.22	924.51
373.42	952.60
373.62	933.87
373.81	1025.15
374.01	945.58
374.21	950.26
374.40	1006.43
374.60	978.34
374.79	987.71
374.99	1060.26
375.19	1004.09
375.38	994.73
375.58	959.62
375.78	1067.28
375.97	1055.58
376.17	1015.79
376.37	990.05
376.56	1043.88
376.76	1053.24
376.95	1025.15
377.15	1055.58
377.35	924.51
377.54	1027.50
377.74	968.98
377.93	1011.11
378.13	1053.24
378.33	1060.26
378.52	1013.45
378.72	1156.22
378.91	1053.24
379.11	1083.67
379.31	1025.15
379.50	1046.22
379.70	1179.63
379.89	1156.22
380.09	1041.54
380.28	1095.37
380.48	1144.52
380.68	1132.82
380.87	1020.47
381.07	1109.41
381.26	1097.71
381.46	1123.46
381.65	1097.71
381.85	1086.01
382.04	1128.14
382.24	1062.60
382.43	1181.97
382.63	1163.25
382.83	1203.04
383.02	1200.69
383.22	1170.27
383.41	1256.87
383.61	1186.65
383.80	1210.06
384.00	1153.88
384.19	1196.01
384.39	1181.97
384.58	1266.23
384.78	1252.19
384.97	1322.40
385.17	1266.23
385.36	1200.69
385.56	1214.74
385.75	1165.59
385.95	1231.12
386.14	1287.29
386.34	1186.65
386.53	1249.85
386.72	1252.19
386.92	1341.13
387.11	1210.06
387.31	1392.62
387.50	1256.87
387.70	1289.64
387.89	1240.48
388.09	1203.04
388.28	1259.21
388.48	1338.79
388.67	1416.02
388.86	1401.98
389.06	1444.11
389.25	1378.58
389.45	1355.17
389.64	1373.89
389.84	1460.49
390.03	1284.95
390.22	1359.85
390.42	1336.45
390.61	1423.05
390.81	1378.58
391.00	1474.54
391.19	1390.28
391.39	1418.36
391.58	1437.09
391.78	1401.98
391.97	1394.96
392.16	1432.41
392.36	1504.96
392.55	1444.11
392.75	1469.86
392.94	1434.75
393.13	1453.47
393.33	1521.35
393.52	1497.94
393.71	1467.52
393.91	1507.30
394.10	1497.94
394.29	1547.09
394.49	1554.12
394.68	1582.20
394.88	1610.29
395.07	1614.97
395.26	1565.82
395.46	1591.56
395.65	1596.25
395.84	1689.87
396.04	1657.10
396.23	1654.76
396.42	1668.80
396.62	1643.06
396.81	1654.76
397.00	1591.56
397.19	1720.29
397.39	1678.16
397.58	1629.01
397.77	1727.32
397.97	1720.29
398.16	1722.63
398.35	1727.32
398.55	1781.15
398.74	1771.79
398.93	1837.32
399.12	1788.17
399.32	1795.19
399.51	1717.95
399.70	1877.11
399.90	1865.41
400.09	1893.49
400.28	1834.98
400.47	1825.62
400.67	1844.34
400.86	1820.94
401.05	1802.21
401.24	1909.88
401.44	1905.20
401.63	1879.45
401.82	1942.64
402.01	1898.17
402.21	1994.14
402.40	2001.16
402.59	1891.15
402.78	2052.65
402.97	2050.31
403.17	2078.40
403.36	1963.71
403.55	1930.94
403.74	1970.73
403.93	2146.27
404.13	2190.74
404.32	2162.66
404.51	2181.38
404.70	2139.25
404.89	2132.23
405.09	2214.15
405.28	2200.10
405.47	2263.30
405.66	2256.28
405.85	2146.27
406.05	2141.59
406.24	2190.74
406.43	2256.28
406.62	2417.77
406.81	2232.87
407.00	2300.75
407.20	2284.36
407.39	2251.60
407.58	2328.83
407.77	2335.85
407.96	2410.75
408.15	2438.84
408.34	2385.01
408.54	2392.03
408.73	2438.84
408.92	2495.01
409.11	2452.88
409.30	2520.76
409.49	2483.31
409.68	2406.07
409.87	2457.56
410.07	2623.74
410.26	2649.49
410.45	2621.40
410.64	2836.73
410.83	2590.97
411.02	2743.11
411.21	2588.63
411.40	2661.19
411.59	2759.49
411.78	2661.19
411.98	2682.25
412.17	2750.13
412.36	2715.02
412.55	2892.90
412.74	2967.80
412.93	2918.65
413.12	2897.58
413.31	3019.29
413.50	2995.89
413.69	3000.57
413.88	3038.02
414.07	3068.44
414.26	3145.68
414.45	3040.36
414.64	3094.19
414.83	3087.17
415.02	3112.91
415.22	3185.47
415.41	3138.66
415.60	3307.18
415.79	3206.53
415.98	3375.05
416.17	3290.79
416.36	3262.71
416.55	3344.63
416.74	3361.01
416.93	3274.41
417.12	3339.94
417.31	3370.37
417.50	3480.38
417.69	3459.31
417.88	3559.95
418.07	3421.86
418.26	3496.76
418.45	3576.34
418.64	3749.54
418.83	3653.58
419.02	3737.84
419.21	3665.28
419.39	3740.18
419.58	3747.20
419.77	3597.40
419.96	3623.15
420.15	3707.41
420.34	3695.71
420.53	3691.02
420.72	3726.13
420.91	3833.80
421.10	3770.60
421.29	3826.78
421.48	3934.44
421.67	3836.14
421.86	3808.05
422.05	3822.09
422.24	3829.12
422.43	3838.48
422.61	3831.46
422.80	3955.51
422.99	4037.42
423.18	4049.13
423.37	4030.40
423.56	4004.66
423.75	4058.49
423.94	3920.40
424.13	3637.19
424.32	3801.03
424.50	4091.26
424.69	4145.09
424.88	3974.23
425.07	3962.53
425.26	3829.12
425.45	4016.36
425.64	3918.06
425.83	4028.06
426.01	4201.26
426.20	4016.36
426.39	4128.70
426.58	4018.70
426.77	4105.30
426.96	4124.02
427.15	4152.11
427.33	4280.84
427.52	4100.62
427.71	4205.94
427.90	3974.23
428.09	4229.35
428.28	4227.01
428.46	4203.60
428.65	4173.18
428.84	4381.48
429.03	4465.74
429.22	4351.06
429.40	4273.82
429.59	4353.40
429.78	4210.62
429.97	4250.41
430.16	4489.15
430.34	4477.44
430.53	4603.83
430.72	4512.55
430.91	4557.02
431.10	4414.25
431.28	4645.96
431.47	4489.15
431.66	4697.46
431.85	4589.79
432.03	4788.74
432.22	4741.93
432.41	4706.82
432.60	4683.41
432.79	4720.86
432.97	4770.01
433.16	4727.88
433.35	4816.82
433.54	4809.80
433.72	4765.33
433.91	4784.06
434.10	4912.78
434.28	4770.01
434.47	4987.68
434.66	4971.30
434.85	4936.19
435.03	5130.45
435.22	5142.16
435.41	5350.46
435.59	5093.01
435.78	5282.59
435.97	5132.79
436.16	5029.81
436.34	5053.22
436.53	5015.77
436.72	5238.12
436.90	5039.17
437.09	5205.35
437.28	5111.73
437.46	5224.08
437.65	5231.10
437.84	5315.36
438.02	5203.01
438.21	5394.93
438.40	5137.48
438.58	5465.15
438.77	5533.03
438.96	5394.93
439.14	5516.64
439.33	5652.39
439.52	5668.78
439.70	5631.33
439.89	5549.41
440.08	5661.76
440.26	5717.93
440.45	5813.89
440.63	5738.99
440.82	5776.44
441.01	5809.21
441.19	5973.05
441.38	5947.30
441.57	6038.58
441.75	6094.76
441.94	6314.77
442.12	6122.84
442.31	6106.46
442.50	6136.88
442.68	6085.39
442.87	6076.03
443.05	6324.13
443.24	6413.07
443.43	6328.81
443.61	6382.64
443.80	6394.34
443.98	6153.27
444.17	6076.03
444.35	6200.08
444.54	6279.66
444.73	6326.47
444.91	6244.55
445.10	6340.51
445.28	6326.47
445.47	6401.37
445.65	6450.52
445.84	6436.47
446.02	6464.56
446.21	6588.61
446.39	6368.60
446.58	6572.22
446.77	6363.92
446.95	6572.22
447.14	6513.71
447.32	6401.37
447.51	6441.15
447.69	6532.44
447.88	6621.38
448.06	6541.80
448.25	6466.90
448.43	6520.73
448.62	6569.88
448.80	6689.25
448.99	6583.93
449.17	6750.10
449.36	6717.34
449.54	6607.33
449.73	6841.39
449.91	6675.21
450.10	6729.04
450.28	6916.28
450.46	7047.35
450.65	6890.54
450.83	7030.97
451.02	6839.05
451.20	7077.78
451.39	6974.80
451.57	6932.67
451.76	7075.44
451.94	7082.46
452.13	7047.35
452.31	7052.03
452.49	6979.48
452.68	7232.26
452.86	7089.48
453.05	7152.68
453.23	7215.87
453.42	7049.69
453.60	7035.65
453.78	7386.73
453.97	7152.68
454.15	7162.04
454.34	7178.42
454.52	7262.68
454.70	7461.63
454.89	7403.11
455.07	7501.42
455.26	7573.97
455.44	7559.93
455.62	7499.08
455.81	7616.10
455.99	7761.22
456.17	7606.74
456.36	7536.52
456.54	7749.51
456.73	7733.13
456.91	8016.33
457.09	7866.54
457.28	7936.76
457.46	7779.94
457.64	7852.50
457.83	7960.16
458.01	7943.78
458.19	8147.40
458.38	7981.23
458.56	7997.61
458.74	8030.38
458.93	8159.11
459.11	8016.33
459.29	8175.49
459.48	8156.77
459.66	8205.92
459.84	8156.77
460.03	8294.86
460.21	8404.86
460.39	8344.01
460.57	8421.25
460.76	8273.79
460.94	8362.73
461.12	8348.69
461.31	8444.65
461.49	8381.46
461.67	8599.13
461.85	8737.22
462.04	8449.33
462.22	9055.53
462.40	8851.91
462.59	8624.87
462.77	8493.80
462.95	8624.87
463.13	8627.21
463.32	8683.39
463.50	8788.71
463.68	8835.52
463.86	8662.32
464.05	8781.69
464.23	8940.85
464.41	8823.82
464.59	8800.41
464.78	8966.59
464.96	8905.74
465.14	8870.63
465.32	9217.03
465.50	8908.08
465.69	9170.22
465.87	9123.41
466.05	8982.98
466.23	9137.45
466.41	9004.04
466.60	9254.48
466.78	9088.30
466.96	9210.01
467.14	9076.60
467.32	9284.91
467.51	9458.10
467.69	9165.54
467.87	9277.88
468.05	9563.43
468.23	9359.80
468.41	9329.38
468.60	9345.76
468.78	9530.66
468.96	9408.95
469.14	9872.38
469.32	9748.33
469.50	9488.53
469.69	9724.93
469.87	9668.75
470.05	9743.65
470.23	9738.97
470.41	9827.91
470.59	9966.00
470.77	9951.96
470.95	9820.89
471.14	10024.51
471.32	9832.59
471.50	10054.94
471.68	10085.37
471.86	10052.60
472.04	10265.59
472.22	10338.15
472.40	10218.78
472.58	10373.25
472.77	10298.36
472.95	10466.88
473.13	10635.39
473.31	10321.76
473.49	10450.49
473.67	10452.83
473.85	10431.77
474.03	10836.68
474.21	10766.46
474.39	10679.86
474.57	10780.51
474.75	10832.00
474.93	11084.78
475.12	11049.67
475.30	11009.88
475.48	11262.66
475.66	11255.64
475.84	11218.19
476.02	11459.26
476.20	11492.03
476.38	11761.19
476.56	11646.51
476.74	11864.18
476.92	11803.32
477.10	11712.04
477.28	11899.28
477.46	11655.87
477.64	12067.80
477.82	12243.34
478.00	12503.14
478.18	12283.13
478.36	12348.67
478.54	12603.78
478.72	12739.54
478.90	12615.49
479.08	12711.45
479.26	12905.71
479.44	12987.63
479.62	13172.54
479.80	13055.51
479.98	13324.67
480.16	13650.00
480.34	13355.10
480.52	13689.79
480.70	13806.82
480.88	13530.64
481.06	13809.16
481.24	13891.08
481.41	13921.51
481.59	14174.28
481.77	14452.81
481.95	14338.12
482.13	14644.73
482.31	14445.79
482.49	14970.07
482.67	14677.50
482.85	14970.07
483.03	15164.33
483.21	15002.83
483.39	15248.59
483.57	15077.73
483.74	15389.02
483.92	15510.73
484.10	15499.03
484.28	15826.70
484.46	15953.09
484.64	16215.23
484.82	16018.63
485.00	16325.24
485.18	16573.33
485.35	16898.67
485.53	16816.75
485.71	16973.56
485.89	17006.33
486.07	17231.02
486.25	17050.80
486.43	17308.26
486.61	17312.94
486.78	17586.79
486.96	17633.60
487.14	17991.70
487.32	17720.20
487.50	18026.81
487.68	18164.90
487.85	18394.27
488.03	18785.14
488.21	18785.14
488.39	18937.27
488.57	18988.77
488.75	18913.87
488.92	19410.06
489.10	19587.94
489.28	19648.80
489.46	19974.13
489.64	19901.58
489.81	19974.13
489.99	20154.35
490.17	20269.04
490.35	20622.46
490.53	20266.70
490.70	20805.02
490.88	20381.38
491.06	20945.45
491.24	20676.29
491.41	21324.62
491.59	21202.91
491.77	21270.79
491.95	21212.28
492.13	21532.93
492.30	21692.08
492.48	21432.29
492.66	21902.73
492.84	22057.21
493.01	22113.38
493.19	22295.94
493.37	22445.74
493.54	22345.09
493.72	22803.84
493.90	22635.32
494.08	22817.88
494.25	23190.03
494.43	23096.41
494.61	23157.26
494.79	23374.93
494.96	23805.59
495.14	23786.86
495.32	23756.44
495.49	23946.02
495.67	24144.97
495.85	24301.78
496.02	24166.03
496.20	24439.87
496.38	24357.96
496.55	24666.91
496.73	25343.32
496.91	25013.31
497.09	25186.50
497.26	24999.26
497.44	25450.99
497.62	25390.13
497.79	25532.90
497.97	25720.15
498.14	26185.91
498.32	26106.34
498.50	26118.04
498.67	26246.77
498.85	26036.12
499.03	26218.68
499.20	26480.82
499.38	26607.21
499.56	26827.22
499.73	26920.84
499.91	26974.67
500.08	26745.30
500.26	27211.07
500.44	27264.90
500.61	27300.01
500.79	27498.95
500.97	27171.28
501.14	27999.83
501.32	27704.92
501.49	27838.33
501.67	27573.85
501.84	28170.69
502.02	28116.86
502.20	28383.68
502.37	28379.00
502.55	28259.63
502.72	28481.98
502.90	28458.57
503.07	28706.67
503.25	28889.23
503.43	28709.01
503.60	28847.10
503.78	28723.05
503.95	28779.23
504.13	29223.93
504.30	29263.72
504.48	29488.41
504.65	29338.62
504.83	29745.87
505.01	29605.44
505.18	29649.91
505.36	29907.37
505.53	30157.80
505.71	29907.37
505.88	29951.84
506.06	30047.80
506.23	30010.35
506.41	30127.38
506.58	30305.26
506.76	30621.23
506.93	30501.86
507.11	30623.57
507.28	30672.72
507.46	31264.88
507.63	30969.97
507.81	30946.56
507.98	30684.42
508.16	31049.55
508.33	31091.68
508.50	31285.94
508.68	31751.71
508.85	31793.84
509.03	31236.79
509.20	31409.99
509.38	31674.47
509.55	31952.99
509.73	32173.00
509.90	32107.47
510.08	32329.82
510.25	32418.76
510.42	32374.29
510.60	32416.42
510.77	32638.77
510.95	32851.76
511.12	32694.94
511.30	32849.42
511.47	33174.75
511.64	33017.94
511.82	33301.14
511.99	32685.58
512.17	33385.40
512.34	33305.82
512.51	33694.35
512.69	33605.41
512.86	33783.29
513.04	34043.09
513.21	33816.06
513.38	33900.32
513.56	34305.23
513.73	33736.48
513.90	34279.49
514.08	34066.50
514.25	34625.89
514.43	34677.38
514.60	34534.60
514.77	34110.97
514.95	34249.06
515.12	34543.97
515.29	34335.66
515.47	34998.03
515.64	35414.65
515.81	35138.46
515.99	34878.66
516.16	34817.81
516.33	34876.32
516.51	35590.19
516.68	35541.03
516.85	35452.09
517.03	35868.71
517.20	35765.73
517.37	35634.66
517.54	35501.25
517.72	35962.33
517.89	35807.86
518.06	35812.54
518.24	35744.66
518.41	36428.10
518.58	36540.44
518.75	36009.14
518.93	36070.00
519.10	36458.52
519.27	36449.16
519.45	36591.94
519.62	37081.11
519.79	36891.52
519.96	36638.75
520.14	36723.01
520.31	36727.69
520.48	36788.54
520.65	36823.65
520.83	37368.99
521.00	37448.57
521.17	37368.99
521.34	37266.01
521.52	37879.23
521.69	37137.28
521.86	37717.73
522.03	37731.78
522.20	38085.20
522.38	37846.46
522.55	38281.80
522.72	38211.59
522.89	38134.35
523.07	38096.90
523.24	38192.86
523.41	38440.96
523.58	37865.19
523.75	38281.80
523.92	38384.79
524.10	38515.86
524.27	38892.68
524.44	38873.96
524.61	39227.38
524.78	38796.72
524.96	38862.26
525.13	38845.87
525.30	39250.78
525.47	39344.41
525.64	39496.54
525.81	39356.11
525.98	39835.92
526.16	39559.73
526.33	39370.15
526.50	40072.31
526.67	39735.27
526.84	39746.98
527.01	40121.46
527.18	39943.58
527.36	40194.02
527.53	39634.63
527.70	40334.45
527.87	40055.93
528.04	39784.43
528.21	40528.72
528.38	40210.40
528.55	40470.20
528.72	40395.31
528.89	40107.42
529.07	40554.46
529.24	40439.78
529.41	40524.04
529.58	40900.86
529.75	40849.37
529.92	41235.56
530.09	40631.70
530.26	40898.52
530.43	40760.43
530.60	40837.67
530.77	40629.36
530.94	41305.77
531.11	41242.58
531.28	41308.11
531.46	41553.87
531.63	41713.03
531.80	41427.48
531.97	41015.55
532.14	41483.66
532.31	41254.28
532.48	41652.17
532.65	41909.63
532.82	41610.04
532.99	41825.37
533.16	41383.01
533.33	41958.78
533.50	42267.73
533.67	42024.32
533.84	42007.94
534.01	41979.85
534.18	42492.43
534.35	42300.50
534.52	42326.25
534.69	42492.43
534.86	41989.21
535.03	41926.02
535.20	42731.16
535.37	42607.11
535.54	43033.09
535.71	42822.44
535.88	42866.91
536.05	43255.44
536.22	42916.06
536.38	42892.66
536.55	42976.92
536.72	43243.74
536.89	42855.21
537.06	43505.88
537.23	43409.92
537.40	43129.05
537.57	43601.84
537.74	43517.58
537.91	43548.01
538.08	42988.62
538.25	42899.68
538.42	43178.20
538.59	43999.73
538.75	43573.75
538.92	43660.35
539.09	44060.58
539.26	43730.57
539.43	43618.22
539.60	43896.75
539.77	43915.47
539.94	44554.44
540.11	44573.16
540.28	44659.76
540.44	44514.65
540.61	44378.90
540.78	44526.35
540.95	44163.57
541.12	44306.34
541.29	44514.65
541.46	44641.04
541.62	44446.77
541.79	45244.90
541.96	44697.21
542.13	45029.57
542.30	44727.64
542.47	45212.13
542.63	45097.44
542.80	45137.23
542.97	45708.32
543.14	45579.59
543.31	45553.85
543.48	45464.91
543.64	45923.65
543.81	45659.17
543.98	45647.47
544.15	45373.63
544.32	45860.46
544.48	46246.65
544.65	46122.60
544.82	46120.26
544.99	45652.15
545.16	46117.92
545.32	45923.65
545.49	45853.44
545.66	46993.28
545.83	46733.48
546.00	47035.41
546.16	46878.59
546.33	46218.56
546.50	46389.42
546.67	46651.56
546.83	45982.16
547.00	45759.81
547.17	45804.28
547.34	46382.40
547.50	46244.30
547.67	46827.10
547.84	46461.97
548.00	46972.21
548.17	46883.27
548.34	46705.39
548.51	46759.22
548.67	47145.41
548.84	46539.21
549.01	46731.14
549.18	46941.78
549.34	46946.47
549.51	47061.15
549.68	46759.22
549.84	46857.52
550.01	47196.90
550.18	46555.60
550.34	46843.48
550.51	47019.02
550.68	47318.61
550.84	46862.21
551.01	47129.03
551.18	46946.47
551.34	47042.43
551.51	46913.70
551.68	47030.72
551.84	47114.98
552.01	46789.65
552.18	47384.15
552.34	47374.78
552.51	47428.62
552.68	47407.55
552.84	47737.57
553.01	47571.39
553.18	47501.17
553.34	47547.98
553.51	47232.01
553.67	47709.48
553.84	48215.04
554.01	47690.76
554.17	48154.18
554.34	47901.40
554.51	47599.47
554.67	47910.77
554.84	48165.88
555.00	47435.64
555.17	47721.18
555.33	47882.68
555.50	47892.04
555.67	48004.39
555.83	47957.58
556.00	48147.16
556.16	48428.02
556.33	48013.75
556.50	48236.10
556.66	48264.19
556.83	47983.32
556.99	48264.19
557.16	48289.93
557.32	48222.06
557.49	48893.79
557.65	48090.99
557.82	48308.66
557.98	48264.19
558.15	48261.85
558.32	48589.52
558.48	48442.07
558.65	48793.15
558.81	48589.52
558.98	48523.99
559.14	48507.60
559.31	48659.74
559.47	48615.27
559.64	48786.13
559.80	48729.95
559.97	48568.46
560.13	48360.15
560.30	48062.90
560.46	49099.76
560.63	48790.81
560.79	49425.09
560.96	49326.79
561.12	48804.85
561.29	48704.21
561.45	48591.86
561.61	49003.80
561.78	48875.07
561.94	48985.07
562.11	49460.20
562.27	49404.03
562.44	49310.41
562.60	49139.55
562.77	49188.70
562.93	49282.32
563.10	49036.56
563.26	49249.55
563.42	49691.91
563.59	49052.95
563.75	49118.48
563.92	49148.91
564.08	49579.57
564.24	49186.36
564.41	49427.43
564.57	49184.02
564.74	48985.07
564.90	49471.90
565.07	49635.74
565.23	49205.08
565.39	49354.88
565.56	49757.45
565.72	49518.71
565.88	49762.13
566.05	49680.21
566.21	49057.63
566.38	49008.48
566.54	49057.63
566.70	49766.81
566.87	49797.24
567.03	49565.52
567.19	49935.33
567.36	49546.80
567.52	49378.28
567.68	49860.43
567.85	49720.00
568.01	49940.01
568.17	49270.62
568.34	49319.77
568.50	49769.15
568.66	49640.42
568.83	49638.08
568.99	50054.70
569.15	49570.21
569.32	49710.64
569.48	49565.52
569.64	49602.97
569.81	49607.65
569.97	49516.37
570.13	49996.18
570.30	49523.40
570.46	49722.34
570.62	49748.09
570.78	49942.35
570.95	49385.30
571.11	50075.76
571.27	49752.77
571.43	49832.35
571.60	49989.16
571.76	49319.77
571.92	50206.83
572.09	49668.51
572.25	50141.30
572.41	49881.50
572.57	50061.72
572.74	49647.44
572.90	50092.15
573.06	49844.05
573.22	49940.01
573.38	50258.32
573.55	49944.69
573.71	50148.32
573.87	50120.23
574.03	49799.58
574.20	50225.56
574.36	50298.11
574.52	50209.17
574.68	50073.42
574.84	49963.42
575.01	50263.00
575.17	50391.73
575.33	50279.39
575.49	50082.78
575.65	50298.11
575.82	50124.91
575.98	50300.45
576.14	50347.26
576.30	50398.76
576.46	49965.76
576.62	49991.50
576.79	50417.48
576.95	50073.42
577.11	50389.39
577.27	50586.00
577.43	50550.89
577.59	50330.88
577.75	50408.12
577.92	49902.56
578.08	50064.06
578.24	50174.06
578.40	50464.29
578.56	50511.10
578.72	50529.83
578.88	50632.81
579.04	50578.98
579.21	50288.75
579.37	50663.24
579.53	50604.72
579.69	50293.43
579.85	50555.57
580.01	50618.77
580.17	50326.20
580.33	50263.00
580.49	50302.79
580.65	50377.69
580.82	50686.64
580.98	50586.00
581.14	50499.40
581.30	50637.49
581.46	50394.07
581.62	50368.33
581.78	50548.55
581.94	50660.90
582.10	50122.57
582.26	50316.84
582.42	50354.29
582.58	50199.81
582.74	50003.20
582.90	50433.86
583.06	50618.77
583.22	50220.87
583.38	50148.32
583.54	50293.43
583.70	49956.39
583.86	50468.97
584.02	50485.36
584.18	50754.52
584.34	50705.37
584.50	50557.91
584.66	50609.40
584.82	50431.52
584.98	50539.19
585.14	50422.16
585.30	50424.50
585.46	50424.50
585.62	50365.99
585.78	50782.60
585.94	50602.38
586.10	50291.09
586.26	50703.03
586.42	50731.11
586.58	50801.33
586.74	50511.10
586.90	50038.31
587.06	50733.45
587.22	50937.08
587.38	50733.45
587.54	50897.29
587.70	50810.69
587.86	51124.32
588.02	51030.70
588.18	50948.78
588.34	50894.95
588.49	50602.38
588.65	50560.25
588.81	50272.37
588.97	50651.53
