SpectraSuite Data File
++++++++++++++++++++++++++++++++++++
Date: Fri Oct 04 11:48:45 GMT-05:00 2013
User: price-jones
Dark Spectrum Present: No
Reference Spectrum Present: No
Number of Sampled Component Spectra: 1
Spectrometers: USB2+H05261
Integration Time (usec): 100000 (USB2+H05261)
Spectra Averaged: 1 (USB2+H05261)
Boxcar Smoothing: 0 (USB2+H05261)
Correct for Electrical Dark: No (USB2+H05261)
Strobe/Lamp Enabled: No (USB2+H05261)
Correct for Detector Non-linearity: No (USB2+H05261)
Correct for Stray Light: No (USB2+H05261)
Number of Pixels in Processed Spectrum: 2048
>>>>>Begin Processed Spectral Data<<<<<
365.73	23.41
365.92	23.41
366.12	23.41
366.32	0.00
366.52	0.00
366.72	0.00
366.91	0.00
367.11	0.00
367.31	0.00
367.51	0.00
367.70	0.00
367.90	0.00
368.10	0.00
368.30	0.00
368.49	0.00
368.69	9.36
368.89	0.00
369.09	0.00
369.28	0.00
369.48	0.00
369.68	0.00
369.87	0.00
370.07	0.00
370.27	46.81
370.47	93.62
370.66	290.23
370.86	423.64
371.06	465.77
371.25	496.19
371.45	489.17
371.65	414.27
371.84	390.87
372.04	433.00
372.24	468.11
372.44	540.66
372.63	573.43
372.83	589.82
373.03	564.07
373.22	505.56
373.42	566.41
373.62	496.19
373.81	601.52
374.01	695.14
374.21	603.86
374.40	564.07
374.60	601.52
374.79	667.05
374.99	601.52
375.19	667.05
375.38	587.47
375.58	697.48
375.78	692.80
375.97	643.65
376.17	723.23
376.37	650.67
376.56	734.93
376.76	669.39
376.95	634.29
377.15	732.59
377.35	697.48
377.54	702.16
377.74	653.01
377.93	706.84
378.13	793.44
378.33	791.10
378.52	725.57
378.72	699.82
378.91	798.12
379.11	690.46
379.31	678.76
379.50	730.25
379.70	805.14
379.89	802.80
380.09	748.97
380.28	903.45
380.48	770.04
380.68	744.29
380.87	739.61
381.07	809.83
381.26	854.30
381.46	791.10
381.65	777.06
381.85	957.28
382.04	844.93
382.24	844.93
382.43	870.68
382.63	830.89
382.83	809.83
383.02	891.74
383.22	849.61
383.41	894.08
383.61	968.98
383.80	926.85
384.00	945.58
384.19	961.96
384.39	940.90
384.58	922.17
384.78	945.58
384.97	985.37
385.17	947.92
385.36	938.55
385.56	936.21
385.75	992.39
385.95	971.32
386.14	1013.45
386.34	1029.84
386.53	957.28
386.72	1093.03
386.92	1032.18
387.11	1001.75
387.31	1039.20
387.50	926.85
387.70	1095.37
387.89	1135.16
388.09	1116.44
388.28	1008.77
388.48	1001.75
388.67	990.05
388.86	1163.25
389.06	1083.67
389.25	1132.82
389.45	1160.91
389.64	1109.41
389.84	1203.04
390.03	1102.39
390.22	1153.88
390.42	1128.14
390.61	1205.38
390.81	1188.99
391.00	1174.95
391.19	1130.48
391.39	1303.68
391.58	1348.15
391.78	1242.82
391.97	1249.85
392.16	1226.44
392.36	1249.85
392.55	1289.64
392.75	1259.21
392.94	1301.34
393.13	1259.21
393.33	1268.57
393.52	1350.49
393.71	1493.26
393.91	1409.00
394.10	1425.39
394.29	1383.26
394.49	1336.45
394.68	1413.68
394.88	1493.26
395.07	1504.96
395.26	1481.56
395.46	1521.35
395.65	1469.86
395.84	1497.94
396.04	1617.31
396.23	1556.46
396.42	1523.69
396.62	1577.52
396.81	1455.81
397.00	1500.28
397.19	1612.63
397.39	1624.33
397.58	1511.99
397.77	1556.46
397.97	1689.87
398.16	1596.25
398.35	1720.29
398.55	1675.82
398.74	1736.68
398.93	1724.97
399.12	1785.83
399.32	1621.99
399.51	1678.16
399.70	1753.06
399.90	1783.49
400.09	1809.23
400.28	1732.00
400.47	1818.60
400.67	1818.60
400.86	1926.26
401.05	1853.70
401.24	1872.43
401.44	1933.28
401.63	1937.96
401.82	1977.75
402.01	1865.41
402.21	2036.27
402.40	1994.14
402.59	1935.62
402.78	2040.95
402.97	1975.41
403.17	2059.67
403.36	2204.78
403.55	2045.63
403.74	2127.55
403.93	2160.31
404.13	2260.96
404.32	2113.50
404.51	2150.95
404.70	2228.19
404.89	2181.38
405.09	2305.43
405.28	2249.25
405.47	2242.23
405.66	2359.26
405.85	2303.09
406.05	2260.96
406.24	2422.45
406.43	2356.92
406.62	2415.43
406.81	2480.97
407.00	2480.97
407.20	2438.84
407.39	2511.39
407.58	2626.08
407.77	2495.01
407.96	2590.97
408.15	2466.92
408.34	2523.10
408.54	2677.57
408.73	2471.61
408.92	2647.15
409.11	2677.57
409.30	2679.91
409.49	2686.94
409.68	2658.85
409.87	2825.03
410.07	2696.30
410.26	2703.32
410.45	2782.90
410.64	2775.88
410.83	3014.61
411.02	2862.48
411.21	2862.48
411.40	2904.60
411.59	2928.01
411.78	2806.30
411.98	2998.23
412.17	3070.78
412.36	3073.12
412.55	3222.92
412.74	3164.40
412.93	3274.41
413.12	3009.93
413.31	3122.27
413.50	3192.49
413.69	3281.43
413.88	3400.80
414.07	3325.90
414.26	3433.57
414.45	3527.19
414.64	3480.38
414.83	3557.61
415.02	3531.87
415.22	3576.34
415.41	3536.55
415.60	3564.64
415.79	3712.09
415.98	3772.94
416.17	3721.45
416.36	3641.87
416.55	3829.12
416.74	3904.01
416.93	3824.44
417.12	3854.86
417.31	3925.08
417.50	3913.38
417.69	4016.36
417.88	4222.33
418.07	3967.21
418.26	4077.21
418.45	4105.30
418.64	4060.83
418.83	4114.66
419.02	4161.47
419.21	4299.56
419.39	4283.18
419.58	4229.35
419.77	4203.60
419.96	4322.97
420.15	4283.18
420.34	4184.88
420.53	4362.76
420.72	4601.49
420.91	4489.15
421.10	4470.42
421.29	4533.62
421.48	4301.90
421.67	4449.36
421.86	4550.00
422.05	4624.90
422.24	4507.87
422.43	4547.66
422.61	4479.79
422.80	4716.18
422.99	4627.24
423.18	4629.58
423.37	4681.07
423.56	4568.73
423.75	4542.98
423.94	4568.73
424.13	4273.82
424.32	4379.14
424.50	4723.20
424.69	4737.24
424.88	4772.35
425.07	4690.43
425.26	4732.56
425.45	4660.01
425.64	4606.17
425.83	4873.00
426.01	4741.93
426.20	4725.54
426.39	4802.78
426.58	4636.60
426.77	4844.91
426.96	4868.31
427.15	4753.63
427.33	4924.49
427.52	4802.78
427.71	5100.03
427.90	4936.19
428.09	5041.51
428.28	5036.83
428.46	5055.56
428.65	5181.95
428.84	5151.52
429.03	5277.91
429.22	4966.62
429.40	5334.08
429.59	5322.38
429.78	5062.58
429.97	4999.38
430.16	5121.09
430.34	5263.86
430.53	5486.22
430.72	5416.00
430.91	5181.95
431.10	5268.55
431.28	5448.77
431.47	5467.49
431.66	5628.99
431.85	5488.56
432.03	5476.85
432.22	5610.26
432.41	5715.59
432.60	5708.57
432.79	5748.36
432.97	5750.70
433.16	5617.29
433.35	5720.27
433.54	5839.64
433.72	5874.74
433.91	5715.59
434.10	5891.13
434.28	5654.73
434.47	5874.74
434.66	6003.47
434.85	6003.47
435.03	6099.44
435.22	6038.58
435.41	6202.42
435.59	6171.99
435.78	6125.18
435.97	6040.92
436.16	6167.31
436.34	6125.18
436.53	6094.76
436.72	6462.22
436.90	6160.29
437.09	6193.06
437.28	6132.20
437.46	6314.77
437.65	6455.20
437.84	6345.19
438.02	6462.22
438.21	6544.14
438.40	6595.63
438.58	6593.29
438.77	6693.93
438.96	6731.38
439.14	6937.35
439.33	6944.37
439.52	6958.41
439.70	6892.88
439.89	7023.95
440.08	7028.63
440.26	7035.65
440.45	7199.49
440.63	7283.75
440.82	7274.38
441.01	7265.02
441.19	7414.82
441.38	7382.05
441.57	7456.95
441.75	7407.80
441.94	7646.53
442.12	7772.92
442.31	7749.51
442.50	7660.57
442.68	7597.38
442.87	7864.20
443.05	7918.03
443.24	7955.48
443.43	7887.61
443.61	7964.84
443.80	8297.20
443.98	7847.82
444.17	7583.34
444.35	7990.59
444.54	7927.39
444.73	8013.99
444.91	7840.79
445.10	8098.25
445.28	7939.10
445.47	8077.19
445.65	7983.57
445.84	8058.46
446.02	8070.17
446.21	8046.76
446.39	8180.17
446.58	8243.37
446.77	8154.43
446.95	7873.56
447.14	8229.32
447.32	8320.60
447.51	8182.51
447.69	8234.00
447.88	8280.82
448.06	8035.06
448.25	8105.28
448.43	8262.09
448.62	8035.06
448.80	8285.50
448.99	8210.60
449.17	8238.69
449.36	8154.43
449.54	8498.49
449.73	8624.87
449.91	8784.03
450.10	8486.78
450.28	8791.05
450.46	8779.35
450.65	8777.01
450.83	8891.70
451.02	8746.58
451.20	8947.87
451.39	8753.60
451.57	8767.65
451.76	8926.80
451.94	8903.40
452.13	8978.30
452.31	9015.74
452.49	8971.27
452.68	8940.85
452.86	8992.34
453.05	8980.64
453.23	9132.77
453.42	9083.62
453.60	9029.79
453.78	9057.87
453.97	9226.39
454.15	9341.08
454.34	9341.08
454.52	9495.55
454.70	9327.03
454.89	9408.95
455.07	9439.38
455.26	9542.36
455.44	9434.70
455.62	9500.23
455.81	9547.05
455.99	9593.86
456.17	9724.93
456.36	9624.28
456.54	9748.33
456.73	9820.89
456.91	10157.92
457.09	10249.21
457.28	10164.95
457.46	9956.64
457.64	10211.76
457.83	10139.20
458.01	9872.38
458.19	10146.22
458.38	10279.63
458.56	10338.15
458.74	10420.06
458.93	10214.10
459.11	10427.09
459.29	10403.68
459.48	10551.14
459.66	10494.96
459.84	10523.05
460.03	10614.33
460.21	10525.39
460.39	10771.15
460.57	10637.73
460.76	10860.09
460.94	10754.76
461.12	10801.57
461.31	10712.63
461.49	10754.76
461.67	10857.75
461.85	10923.28
462.04	10911.58
462.22	11555.22
462.40	11005.20
462.59	10986.47
462.77	11117.54
462.95	11201.80
463.13	11042.65
463.32	11262.66
463.50	11330.53
463.68	11192.44
463.86	11197.12
464.05	11300.11
464.23	11424.15
464.41	11311.81
464.59	11393.73
464.78	11611.40
464.96	11524.80
465.14	11267.34
465.32	11693.32
465.50	11639.48
465.69	11646.51
465.87	11529.48
466.05	11508.41
466.23	11611.40
466.41	11655.87
466.60	12133.34
466.78	11910.99
466.96	11712.04
467.14	11634.80
467.32	11777.58
467.51	12119.29
467.69	11861.84
467.87	12002.27
468.05	12252.70
468.23	11796.30
468.41	12016.31
468.60	12079.50
468.78	12407.18
468.96	11978.86
469.14	12123.98
469.32	12418.88
469.50	12271.43
469.69	12622.51
469.87	12737.20
470.05	12868.27
470.23	12566.34
470.41	12596.76
470.59	12978.27
470.77	12819.11
470.95	12971.25
471.14	12863.58
471.32	12727.83
471.50	12947.84
471.68	13004.02
471.86	13275.52
472.04	13123.38
472.22	13537.66
472.40	13097.64
472.58	13249.77
472.77	13554.04
472.95	13635.96
473.13	13912.14
473.31	14001.08
473.49	13738.94
473.67	13598.51
473.85	13731.92
474.03	14153.22
474.21	14026.83
474.39	14534.73
474.57	14406.00
474.75	14562.81
474.93	14621.33
475.12	14373.23
475.30	14518.34
475.48	14654.09
475.66	14733.67
475.84	14843.68
476.02	14839.00
476.20	14904.53
476.38	15157.31
476.56	15295.40
476.74	15580.95
476.92	15328.17
477.10	15419.45
477.28	15873.51
477.46	15733.08
477.64	16098.20
477.82	16046.71
478.00	16334.60
478.18	16343.96
478.36	16388.43
478.54	16776.96
478.72	16842.50
478.90	16746.53
479.08	16877.60
479.26	17268.47
479.44	17301.24
479.62	17151.45
479.80	17544.66
479.98	17476.78
480.16	17947.23
480.34	17675.73
480.52	18054.89
480.70	18162.56
480.88	17802.11
481.06	18494.91
481.24	18036.17
481.41	18532.36
481.59	18937.27
481.77	18981.74
481.95	19178.35
482.13	19211.12
482.31	19360.91
482.49	19475.60
482.67	19637.09
482.85	20011.58
483.03	19896.89
483.21	20189.46
483.39	20535.86
483.57	20395.43
483.74	20596.71
483.92	20566.29
484.10	20823.75
484.28	21013.33
484.46	21390.16
484.64	21790.39
484.82	21238.02
485.00	21476.76
485.18	22197.64
485.35	22249.13
485.53	22422.33
485.71	22459.78
485.89	22794.48
486.07	22441.06
486.25	23058.96
486.43	23087.04
486.61	23520.04
486.78	23630.05
486.96	23550.47
487.14	23969.43
487.32	24240.93
487.50	24547.54
487.68	24498.39
487.85	24624.78
488.03	24638.82
488.21	25240.34
488.39	25137.35
488.57	25493.12
488.75	25425.24
488.92	25963.56
489.10	25961.22
489.28	26342.73
489.46	26567.42
489.64	26071.23
489.81	27337.46
489.99	26815.52
490.17	26979.36
490.35	27508.32
490.53	27725.99
490.70	27550.45
490.88	28002.17
491.06	28350.91
491.24	28163.67
491.41	28371.97
491.59	28554.54
491.77	28856.46
491.95	29013.28
492.13	29329.25
492.30	29338.62
492.48	29039.03
492.66	29680.33
492.84	30029.07
493.01	29947.15
493.19	30270.15
493.37	30639.95
493.54	30635.27
493.72	30878.69
493.90	30986.35
494.08	31129.12
494.25	31110.40
494.43	31321.05
494.61	31531.70
494.79	31491.91
494.96	31842.99
495.14	32027.89
495.32	32367.27
495.49	32032.57
495.67	32334.50
495.85	33181.77
496.02	33097.52
496.20	33132.62
496.38	32978.15
496.55	33251.99
496.73	33724.78
496.91	34183.52
497.09	34464.39
497.26	34450.35
497.44	34026.71
497.62	34363.75
497.79	34787.38
497.97	35105.70
498.14	34998.03
498.32	35103.35
498.50	35381.88
498.67	35395.92
498.85	35583.16
499.03	36079.36
499.20	36004.46
499.38	36161.28
499.56	36100.42
499.73	36697.26
499.91	36708.96
500.08	37097.49
500.26	36397.67
500.44	37113.87
500.61	37053.02
500.79	37270.69
500.97	37771.57
501.14	38089.88
501.32	37734.12
501.49	37684.97
501.67	37486.02
501.84	38010.30
502.02	37895.61
502.20	38604.80
502.37	38333.29
502.55	38263.08
502.72	38911.41
502.90	38707.78
503.07	38497.13
503.25	38902.04
503.43	39026.09
503.60	39337.38
503.78	39255.46
503.95	39159.50
504.13	39725.91
504.30	39983.37
504.48	40086.36
504.65	40402.33
504.83	40704.26
505.01	40261.90
505.18	40446.80
505.36	40584.89
505.53	40620.00
505.71	40706.60
505.88	41184.07
506.06	40811.92
506.23	41116.19
506.41	40978.10
506.58	41364.29
506.76	41354.93
506.93	41862.82
507.11	41478.97
507.28	42162.41
507.46	41858.14
507.63	42167.09
507.81	42651.58
507.98	41904.95
508.16	42307.52
508.33	42733.50
508.50	42679.67
508.68	42658.60
508.85	43175.86
509.03	43152.46
509.20	43306.93
509.38	43136.07
509.55	43590.14
509.73	43861.64
509.90	43590.14
510.08	43613.54
510.25	43695.46
510.42	43959.94
510.60	44397.62
510.77	44516.99
510.95	44088.67
511.12	44130.80
511.30	44680.83
511.47	44746.36
511.64	44912.54
511.82	45504.70
511.99	44825.94
512.17	45050.63
512.34	45099.78
512.51	45272.98
512.69	45748.11
512.86	45736.41
513.04	46028.98
513.21	46089.83
513.38	46080.47
513.56	46281.75
513.73	45844.07
513.90	46391.76
514.08	46251.33
514.25	46473.68
514.43	46466.66
514.60	46887.95
514.77	46663.26
514.95	46469.00
515.12	47061.15
515.29	46354.31
515.47	46962.85
515.64	47044.77
515.81	46958.17
515.99	47653.31
516.16	47587.77
516.33	47505.85
516.51	47812.46
516.68	47721.18
516.85	47814.80
517.03	48437.39
517.20	48463.13
517.37	48023.11
517.54	48294.61
517.72	48130.78
517.89	48083.97
518.06	47976.30
518.24	48320.36
518.41	48430.36
518.58	48498.24
518.75	48961.67
518.93	49010.82
519.10	48758.04
519.27	49193.38
519.45	49586.59
519.62	49034.22
519.79	49389.98
519.96	49247.21
520.14	49263.60
520.31	49375.94
520.48	49673.19
520.65	49811.28
520.83	49544.46
521.00	49907.24
521.17	49745.75
521.34	49965.76
521.52	49930.65
521.69	50014.91
521.86	50450.25
522.03	50515.78
522.20	50335.56
522.38	50230.24
522.55	50609.40
522.72	50593.02
522.89	50679.62
523.07	51121.98
523.24	51030.70
523.41	50979.21
523.58	50803.67
523.75	51243.69
523.92	50864.52
524.10	51283.48
524.27	51323.27
524.44	51119.64
524.61	51870.95
524.78	51564.34
524.96	51468.38
525.13	51566.68
525.30	51686.05
525.47	51765.63
525.64	51938.83
525.81	51798.40
525.98	51896.70
526.16	51793.71
526.33	51955.21
526.50	52327.36
526.67	51934.15
526.84	52046.49
527.01	52083.94
527.18	51983.30
527.36	52465.45
527.53	52509.92
527.70	52968.66
527.87	52935.90
528.04	52538.01
528.21	52818.87
528.38	52671.42
528.55	53148.88
528.72	52694.82
528.89	52933.56
529.07	52945.26
529.24	52903.13
529.41	53055.26
529.58	52985.05
529.75	52994.41
529.92	53219.10
530.09	53073.99
530.26	53436.77
530.43	53478.90
530.60	53621.67
530.77	53268.25
530.94	53584.22
531.11	53326.77
531.28	53514.01
531.46	53645.08
531.63	53783.17
531.80	53762.11
531.97	53907.22
532.14	53661.46
532.31	53848.71
532.48	53724.66
532.65	54045.31
532.82	53717.64
532.99	53991.48
533.16	53755.08
533.33	54017.22
533.50	54412.77
533.67	54387.03
533.84	54099.14
534.01	54344.90
534.18	54071.06
534.35	54864.50
534.52	54482.99
534.69	54686.62
534.86	54618.74
535.03	54497.03
535.20	54777.90
535.37	54897.27
535.54	54707.68
535.71	54658.53
535.88	54546.18
536.05	54686.62
536.22	55255.37
536.38	54836.41
536.55	55107.91
536.72	55159.41
536.89	54911.31
537.06	55077.49
537.23	55458.99
537.40	54913.65
537.57	54859.82
537.74	55089.19
537.91	55313.88
538.08	55566.66
538.25	55133.66
538.42	55377.08
538.59	55370.05
538.75	55442.61
538.92	55388.78
539.09	55693.05
539.26	55531.55
539.43	55407.50
539.60	55868.59
539.77	55838.16
539.94	55938.80
540.11	55810.07
540.28	55594.74
540.44	55524.53
540.61	55718.79
540.78	55901.36
540.95	56065.19
541.12	55945.83
541.29	56058.17
541.46	55880.29
541.62	55756.24
541.79	56039.45
541.96	55976.25
542.13	56109.66
542.30	56294.56
542.47	56406.91
542.63	56257.12
542.80	56615.22
542.97	56645.65
543.14	56521.60
543.31	56416.27
543.48	56491.17
543.64	56647.99
543.81	56594.15
543.98	56868.00
544.15	56966.30
544.32	56776.72
544.48	56898.42
544.65	57001.41
544.82	56762.67
544.99	56460.74
545.16	56989.70
545.32	56821.19
545.49	57158.22
545.66	57464.83
545.83	57223.76
546.00	57242.48
546.16	57066.94
546.33	56844.59
546.50	56753.31
546.67	57144.18
546.83	56821.19
547.00	57003.75
547.17	57125.46
547.34	57069.28
547.50	57385.25
547.67	57623.99
547.84	57261.21
548.00	57492.92
548.17	57539.73
548.34	57691.86
548.51	57673.14
548.67	57581.86
548.84	57492.92
549.01	57609.95
549.18	57642.71
549.34	57609.95
549.51	57324.40
549.68	57785.49
549.84	57418.02
550.01	57535.05
550.18	57703.57
550.34	57860.38
550.51	57670.80
550.68	57762.08
550.84	57626.33
551.01	57715.27
551.18	57846.34
551.34	57874.43
551.51	58000.82
551.68	58040.60
551.84	58141.25
552.01	57928.26
552.18	58131.89
552.34	57902.51
552.51	58155.29
552.68	58010.18
552.84	58244.23
553.01	58216.14
553.18	58260.62
553.34	58209.12
553.51	58323.81
553.67	58316.79
553.84	58691.27
554.01	58328.49
554.17	58494.67
554.34	58190.40
554.51	58457.22
554.67	58702.98
554.84	58337.85
555.00	58344.87
555.17	58630.42
555.33	58515.73
555.50	58431.47
555.67	58253.59
555.83	58541.48
556.00	58635.10
556.16	58742.77
556.33	58464.24
556.50	58468.92
556.66	58623.40
556.83	58599.99
556.99	58958.09
557.16	58831.71
557.32	58951.07
557.49	58894.90
557.65	58817.66
557.82	58773.19
557.98	58897.24
558.15	59037.67
558.32	58864.47
558.48	58937.03
558.65	58972.14
558.81	58937.03
558.98	58831.71
559.14	59051.72
559.31	58873.84
559.47	58850.43
559.64	59098.53
559.80	59051.72
559.97	59117.25
560.13	59018.95
560.30	59065.76
560.46	59063.42
560.63	59054.06
560.79	59147.68
560.96	59150.02
561.12	59421.52
561.29	59135.98
561.45	59248.32
561.61	59386.41
561.78	59456.63
561.94	59068.10
562.11	59309.18
562.27	59297.47
562.44	59196.83
562.60	59358.33
562.77	59285.77
562.93	59414.50
563.10	59529.19
563.26	59372.37
563.42	59526.84
563.59	59433.22
563.75	59267.05
563.92	59529.19
564.08	59194.49
564.24	59435.56
564.41	59175.76
564.57	59590.04
564.74	59419.18
564.90	59529.19
565.07	59718.77
565.23	59674.30
565.39	59531.53
565.56	59725.79
565.72	59363.01
565.88	59482.37
566.05	59611.10
566.21	59545.57
566.38	59346.62
566.54	59693.02
566.70	59887.29
566.87	59641.53
567.03	59566.63
567.19	60037.08
567.36	59760.90
567.52	59847.50
567.68	59835.80
567.85	59632.17
568.01	59688.34
568.17	59697.70
568.34	59760.90
568.50	59751.54
568.66	59880.27
568.83	59625.15
568.99	59676.64
569.15	59915.37
569.32	59777.28
569.48	59767.92
569.64	59702.38
569.81	59854.52
569.97	59817.07
570.13	59852.18
570.30	59678.98
570.46	59828.77
570.62	59824.09
570.78	59934.10
570.95	59664.94
571.11	59655.57
571.27	59494.08
571.43	59805.37
571.60	59964.52
571.76	59817.07
571.92	60151.77
572.09	60254.75
572.25	60051.12
572.41	59915.37
572.57	59948.14
572.74	60069.85
572.90	59861.54
573.06	59957.50
573.22	59800.69
573.38	60116.66
573.55	60205.60
573.71	60144.75
573.87	60200.92
574.03	60081.55
574.20	60149.43
574.36	59962.18
574.52	59805.37
574.68	60095.60
574.84	60137.72
575.01	60233.69
575.17	60219.64
575.33	60233.69
575.49	60069.85
575.65	60107.30
575.82	60350.71
575.98	60067.51
576.14	60161.13
576.30	60303.90
576.46	60205.60
576.62	60119.00
576.79	60151.77
576.95	59927.08
577.11	60151.77
577.27	60313.26
577.43	60374.12
577.59	60121.34
577.75	60147.09
577.92	59931.76
578.08	59948.14
578.24	60130.70
578.40	60046.44
578.56	60046.44
578.72	60133.04
578.88	60313.26
579.04	60542.64
579.21	60226.66
579.37	60013.68
579.53	60360.08
579.69	60177.51
579.85	60107.30
580.01	60257.09
580.17	60107.30
580.33	60221.98
580.49	60411.57
580.65	60549.66
580.82	60395.18
580.98	60355.39
581.14	60214.96
581.30	60570.72
581.46	60198.58
581.62	60205.60
581.78	60182.19
581.94	60404.55
582.10	60334.33
582.26	60285.18
582.42	60381.14
582.58	60378.80
582.74	60334.33
582.90	60308.58
583.06	60353.05
583.22	60200.92
583.38	60404.55
583.54	60271.14
583.70	60409.23
583.86	60275.82
584.02	60449.02
584.18	60425.61
584.34	60488.80
584.50	60664.35
584.66	60626.90
584.82	60128.36
584.98	60292.20
585.14	60214.96
585.30	60355.39
585.46	60217.30
585.62	60327.31
585.78	60444.33
585.94	60168.15
586.10	60350.71
586.26	60568.38
586.42	60460.72
586.58	60622.22
586.74	60535.62
586.90	60322.63
587.06	60322.63
587.22	60526.25
587.38	60362.42
587.54	60580.09
587.70	60568.38
587.86	60505.19
588.02	60505.19
588.18	60650.30
588.34	60556.68
588.49	60409.23
588.65	60420.93
588.81	60495.83
588.97	60456.04
589.13	60521.57
