SpectraSuite Data File
++++++++++++++++++++++++++++++++++++
Date: Fri Oct 04 11:48:25 GMT-05:00 2013
User: price-jones
Dark Spectrum Present: No
Reference Spectrum Present: No
Number of Sampled Component Spectra: 1
Spectrometers: USB2+H05261
Integration Time (usec): 100000 (USB2+H05261)
Spectra Averaged: 1 (USB2+H05261)
Boxcar Smoothing: 0 (USB2+H05261)
Correct for Electrical Dark: No (USB2+H05261)
Strobe/Lamp Enabled: No (USB2+H05261)
Correct for Detector Non-linearity: No (USB2+H05261)
Correct for Stray Light: No (USB2+H05261)
Number of Pixels in Processed Spectrum: 2048
>>>>>Begin Processed Spectral Data<<<<<
365.73	0.00
365.92	0.00
366.12	0.00
366.32	0.00
366.52	0.00
366.72	0.00
366.91	0.00
367.11	0.00
367.31	0.00
367.51	0.00
367.70	0.00
367.90	0.00
368.10	0.00
368.30	0.00
368.49	0.00
368.69	2.34
368.89	0.00
369.09	0.00
369.28	0.00
369.48	0.00
369.68	0.00
369.87	0.00
370.07	0.00
370.27	23.41
370.47	112.35
370.66	285.55
370.86	344.06
371.06	304.27
371.25	348.74
371.45	379.17
371.65	447.04
371.84	393.21
372.04	346.40
372.24	367.46
372.44	393.21
372.63	465.77
372.83	451.72
373.03	360.44
373.22	404.91
373.42	425.98
373.62	479.81
373.81	456.40
374.01	491.51
374.21	463.43
374.40	468.11
374.60	564.07
374.79	486.83
374.99	517.26
375.19	538.32
375.38	454.06
375.58	472.79
375.78	543.00
375.97	599.18
376.17	631.94
376.37	472.79
376.56	512.58
376.76	517.26
376.95	545.34
377.15	545.34
377.35	571.09
377.54	547.69
377.74	578.11
377.93	519.60
378.13	512.58
378.33	573.43
378.52	589.82
378.72	564.07
378.91	645.99
379.11	561.73
379.31	559.39
379.50	636.63
379.70	631.94
379.89	648.33
380.09	620.24
380.28	592.16
380.48	636.63
380.68	589.82
380.87	739.61
381.07	627.26
381.26	671.73
381.46	571.09
381.65	674.07
381.85	589.82
382.04	655.35
382.24	718.54
382.43	748.97
382.63	716.20
382.83	702.16
383.02	678.76
383.22	725.57
383.41	720.88
383.61	702.16
383.80	741.95
384.00	723.23
384.19	702.16
384.39	795.78
384.58	702.16
384.78	835.57
384.97	800.46
385.17	685.78
385.36	748.97
385.56	837.91
385.75	748.97
385.95	695.14
386.14	858.98
386.34	737.27
386.53	784.08
386.72	837.91
386.92	758.33
387.11	894.08
387.31	835.57
387.50	791.10
387.70	840.25
387.89	938.55
388.09	823.87
388.28	809.83
388.48	868.34
388.67	915.15
388.86	866.00
389.06	896.43
389.25	903.45
389.45	882.38
389.64	926.85
389.84	978.34
390.03	917.49
390.22	905.79
390.42	847.27
390.61	905.79
390.81	896.43
391.00	1018.13
391.19	1025.15
391.39	924.51
391.58	999.41
391.78	966.64
391.97	1015.79
392.16	985.37
392.36	1050.90
392.55	1078.99
392.75	1053.24
392.94	1032.18
393.13	1071.97
393.33	999.41
393.52	1071.97
393.71	1046.22
393.91	1125.80
394.10	1111.75
394.29	1149.20
394.49	1018.13
394.68	1128.14
394.88	1226.44
395.07	1158.57
395.26	1158.57
395.46	1146.86
395.65	1226.44
395.84	1193.67
396.04	1303.68
396.23	1130.48
396.42	1226.44
396.62	1313.04
396.81	1273.25
397.00	1235.80
397.19	1270.91
397.39	1334.11
397.58	1366.87
397.77	1317.72
397.97	1294.32
398.16	1289.64
398.35	1341.13
398.55	1291.98
398.74	1446.45
398.93	1329.42
399.12	1343.47
399.32	1320.06
399.51	1357.51
399.70	1409.00
399.90	1418.36
400.09	1439.43
400.28	1446.45
400.47	1413.68
400.67	1511.99
400.86	1521.35
401.05	1455.81
401.24	1462.83
401.44	1565.82
401.63	1540.07
401.82	1715.61
402.01	1430.07
402.21	1441.77
402.40	1596.25
402.59	1509.65
402.78	1579.86
402.97	1549.43
403.17	1689.87
403.36	1626.67
403.55	1638.38
403.74	1743.70
403.93	1727.32
404.13	1799.87
404.32	1750.72
404.51	1727.32
404.70	1858.39
404.89	1748.38
405.09	1907.54
405.28	1874.77
405.47	1858.39
405.66	1827.96
405.85	1870.09
406.05	1804.55
406.24	1750.72
406.43	1844.34
406.62	1947.33
406.81	1994.14
407.00	1909.88
407.20	1954.35
407.39	1877.11
407.58	2038.61
407.77	1982.43
407.96	2069.03
408.15	2024.56
408.34	1956.69
408.54	2101.80
408.73	2108.82
408.92	2179.04
409.11	2153.29
409.30	2083.08
409.49	2160.31
409.68	2207.13
409.87	2253.94
410.07	2207.13
410.26	2312.45
410.45	2225.85
410.64	2340.54
410.83	2373.30
411.02	2422.45
411.21	2438.84
411.40	2385.01
411.59	2464.58
411.78	2534.80
411.98	2464.58
412.17	2401.39
412.36	2476.29
412.55	2483.31
412.74	2511.39
412.93	2555.86
413.12	2609.70
413.31	2623.74
413.50	2600.34
413.69	2754.81
413.88	2684.59
414.07	2752.47
414.26	2848.43
414.45	2731.41
414.64	2827.37
414.83	2949.08
415.02	2979.50
415.22	3005.25
415.41	3180.79
415.60	2953.76
415.79	2988.86
415.98	2991.20
416.17	3094.19
416.36	3098.87
416.55	3075.46
416.74	3091.85
416.93	2949.08
417.12	3162.06
417.31	3262.71
417.50	3066.10
417.69	3316.54
417.88	3281.43
418.07	3342.28
418.26	3281.43
418.45	3337.60
418.64	3393.78
418.83	3471.01
419.02	3414.84
419.21	3480.38
419.39	3468.67
419.58	3314.20
419.77	3421.86
419.96	3459.31
420.15	3524.85
420.34	3574.00
420.53	3513.14
420.72	3592.72
420.91	3520.17
421.10	3641.87
421.29	3754.22
421.48	3688.68
421.67	3850.18
421.86	3768.26
422.05	3822.09
422.24	3555.27
422.43	3644.21
422.61	3709.75
422.80	3768.26
422.99	3794.01
423.18	3756.56
423.37	3861.88
423.56	3957.85
423.75	3786.99
423.94	3702.73
424.13	3566.98
424.32	3595.06
424.50	3988.27
424.69	3953.16
424.88	3988.27
425.07	3934.44
425.26	3758.90
425.45	3850.18
425.64	3906.35
425.83	3803.37
426.01	3953.16
426.20	3901.67
426.39	4004.66
426.58	3943.80
426.77	3866.56
426.96	4028.06
427.15	3985.93
427.33	3960.19
427.52	3960.19
427.71	4007.00
427.90	4091.26
428.09	4119.34
428.28	4074.87
428.46	4126.36
428.65	4198.92
428.84	4234.03
429.03	4332.33
429.22	4070.19
429.40	4264.46
429.59	4231.69
429.78	4149.77
429.97	4217.65
430.16	4067.85
430.34	4332.33
430.53	4315.95
430.72	4355.74
430.91	4320.63
431.10	4432.97
431.28	4383.82
431.47	4444.68
431.66	4484.47
431.85	4627.24
432.03	4585.11
432.22	4601.49
432.41	4491.49
432.60	4547.66
432.79	4547.66
432.97	4643.62
433.16	4720.86
433.35	4498.51
433.54	4739.58
433.72	4791.08
433.91	4634.26
434.10	4664.69
434.28	4652.98
434.47	4781.71
434.66	4814.48
434.85	4842.57
435.03	4910.44
435.22	4851.93
435.41	4940.87
435.59	5050.88
435.78	4922.15
435.97	4884.70
436.16	5132.79
436.34	5027.47
436.53	4898.74
436.72	4952.57
436.90	4950.23
437.09	5137.48
437.28	5135.14
437.46	5263.86
437.65	5256.84
437.84	5135.14
438.02	5188.97
438.21	5383.23
438.40	5109.39
438.58	5369.19
438.77	5441.75
438.96	5301.31
439.14	5352.81
439.33	5514.30
439.52	5619.63
439.70	5579.84
439.89	5696.86
440.08	5776.44
440.26	5816.23
440.45	5743.67
440.63	5675.80
440.82	5790.49
441.01	5720.27
441.19	5998.79
441.38	5916.87
441.57	5947.30
441.75	6202.42
441.94	5989.43
442.12	5998.79
442.31	6216.46
442.50	6090.07
442.68	6080.71
442.87	6242.21
443.05	6223.48
443.24	6349.87
443.43	6473.92
443.61	6434.13
443.80	6602.65
443.98	6340.51
444.17	6127.52
444.35	6410.73
444.54	6511.37
444.73	6478.60
444.91	6628.40
445.10	6392.00
445.28	6417.75
445.47	6408.39
445.65	6511.37
445.84	6361.58
446.02	6504.35
446.21	6588.61
446.39	6588.61
446.58	6668.19
446.77	6537.12
446.95	6399.02
447.14	6719.68
447.32	6457.54
447.51	6757.13
447.69	6567.54
447.88	6551.16
448.06	6569.88
448.25	6654.14
448.43	6743.08
448.62	6609.67
448.80	6560.52
448.99	6876.49
449.17	6525.41
449.36	6551.16
449.54	6857.77
449.73	7115.23
449.91	6736.06
450.10	6878.83
450.28	7014.59
450.46	7009.90
450.65	7009.90
450.83	7098.84
451.02	7000.54
451.20	7220.55
451.39	7173.74
451.57	6988.84
451.76	7021.61
451.94	7183.10
452.13	7384.39
452.31	7325.88
452.49	7157.36
452.68	7213.53
452.86	7272.04
453.05	7339.92
453.23	7487.37
453.42	7250.98
453.60	7126.93
453.78	7311.83
453.97	7321.20
454.15	7428.86
454.34	7419.50
454.52	7693.34
454.70	7473.33
454.89	7609.08
455.07	7588.02
455.26	7726.11
455.44	7779.94
455.62	7557.59
455.81	7665.25
455.99	7889.95
456.17	7946.12
456.36	7903.99
456.54	7805.69
456.73	8004.63
456.91	7999.95
457.09	7955.48
457.28	8325.29
457.46	8119.32
457.64	8278.47
457.83	8166.13
458.01	8081.87
458.19	8416.57
458.38	8287.84
458.56	8322.94
458.74	8341.67
458.93	8498.49
459.11	8388.48
459.29	8362.73
459.48	8566.36
459.66	8454.02
459.84	8514.87
460.03	8662.32
460.21	8557.00
460.39	8559.34
460.57	8519.55
460.76	8512.53
460.94	8788.71
461.12	8734.88
461.31	8791.05
461.49	8531.25
461.67	8950.21
461.85	8863.61
462.04	8704.45
462.22	9643.01
462.40	9142.13
462.59	8915.10
462.77	8875.31
462.95	8929.14
463.13	8898.72
463.32	9170.22
463.50	9088.30
463.68	9074.26
463.86	9067.24
464.05	9095.32
464.23	9076.60
464.41	9383.21
464.59	8966.59
464.78	9303.63
464.96	9092.98
465.14	9081.28
465.32	9420.66
465.50	9238.09
465.69	9598.54
465.87	9095.32
466.05	9334.06
466.23	9343.42
466.41	9324.69
466.60	9652.37
466.78	9720.24
466.96	9509.60
467.14	9467.47
467.32	9535.34
467.51	9614.92
467.69	9598.54
467.87	9741.31
468.05	9715.56
468.23	9542.36
468.41	9736.63
468.60	9956.64
468.78	9930.89
468.96	9760.03
469.14	9954.30
469.32	10052.60
469.50	9626.62
469.69	10104.09
469.87	10188.35
470.05	10005.79
470.23	10092.39
470.41	10171.97
470.59	10183.67
470.77	10134.52
470.95	10265.59
471.14	10387.30
471.32	10108.77
471.50	10569.86
471.68	10614.33
471.86	10216.44
472.04	10457.51
472.22	10810.93
472.40	10497.30
472.58	10750.08
472.77	10897.53
472.95	10860.09
473.13	11162.01
473.31	11033.29
473.49	10881.15
473.67	10944.34
473.85	11077.76
474.03	11253.30
474.21	11265.00
474.39	11400.75
474.57	11300.11
474.75	11377.34
474.93	11751.83
475.12	11421.81
475.30	11761.19
475.48	11431.18
475.66	11808.00
475.84	11822.05
476.02	11990.56
476.20	11859.49
476.38	12212.92
476.56	12231.64
476.74	12292.49
476.92	12388.46
477.10	12351.01
477.28	12496.12
477.46	12332.28
477.64	12486.76
477.82	12798.05
478.00	13041.46
478.18	13207.64
478.36	13219.35
478.54	13315.31
478.72	13317.65
478.90	13385.52
479.08	13530.64
479.26	13411.27
479.44	13827.88
479.62	13757.67
479.80	14047.90
479.98	14270.25
480.16	14064.28
480.34	13923.85
480.52	14478.55
480.70	14492.60
480.88	14286.63
481.06	14370.89
481.24	14438.76
481.41	14508.98
481.59	14970.07
481.77	15009.86
481.95	15321.15
482.13	15344.55
482.31	15108.16
482.49	15557.54
482.67	15585.63
482.85	15871.17
483.03	16198.85
483.21	16140.33
483.39	16255.02
483.57	16236.30
483.74	16250.34
483.92	16381.41
484.10	16358.00
484.28	16987.61
484.46	16821.43
484.64	17172.51
484.82	16732.49
485.00	17352.73
485.18	17516.57
485.35	17940.21
485.53	17586.79
485.71	17668.70
485.89	17664.02
486.07	18298.31
486.25	17886.37
486.43	17937.87
486.61	18143.83
486.78	18607.26
486.96	18420.02
487.14	19236.86
487.32	19178.35
487.50	19070.68
487.68	19372.61
487.85	19314.10
488.03	19789.23
488.21	20098.18
488.39	19999.88
488.57	19948.39
488.75	20166.06
488.92	20709.06
489.10	20931.41
489.28	20823.75
489.46	21184.19
489.64	20947.79
489.81	21378.45
489.99	21603.14
490.17	21642.93
490.35	21397.18
490.53	21713.15
490.70	21898.05
490.88	21668.68
491.06	22143.81
491.24	22445.74
491.41	22361.48
491.59	22490.21
491.77	22661.07
491.95	22654.05
492.13	23082.36
492.30	23154.92
492.48	22941.93
492.66	23494.30
492.84	23274.29
493.01	23711.97
493.19	23845.38
493.37	23859.42
493.54	24149.65
493.72	24430.51
493.90	24203.48
494.08	24428.17
494.25	24863.51
494.43	24790.95
494.61	25308.21
494.79	25270.76
494.96	25132.67
495.14	25661.63
495.32	25905.05
495.49	25696.74
495.67	25720.15
495.85	26148.46
496.02	26183.57
496.20	26265.49
496.38	26183.57
496.55	26677.43
496.73	27070.64
496.91	26593.17
497.09	26852.97
497.26	27070.64
497.44	26944.25
497.62	27152.55
497.79	27835.99
497.97	27702.58
498.14	28226.86
498.32	28058.34
498.50	27915.57
498.67	28531.13
498.85	28116.86
499.03	28739.44
499.20	28393.04
499.38	28751.14
499.56	28643.48
499.73	28620.07
499.91	29017.96
500.08	29200.52
500.26	29120.95
500.44	29235.63
500.61	29401.81
500.79	29357.34
500.97	29439.26
501.14	30015.03
501.32	29759.91
501.49	30008.01
501.67	29830.13
501.84	29813.74
502.02	30183.55
502.20	30295.89
502.37	30618.89
502.55	30228.02
502.72	30490.16
502.90	30792.09
503.07	30501.86
503.25	30822.51
503.43	30958.27
503.60	31269.56
503.78	31316.37
503.95	31229.77
504.13	31468.50
504.30	31412.33
504.48	31290.62
504.65	32006.83
504.83	31997.46
505.01	32203.43
505.18	31770.43
505.36	32491.32
505.53	32158.96
505.71	32383.65
505.88	32493.66
506.06	32748.78
506.23	32891.55
506.41	32964.10
506.58	32882.19
506.76	32505.36
506.93	32804.95
507.11	32706.65
507.28	33401.79
507.46	33048.36
507.63	33090.49
507.81	33469.66
507.98	33027.30
508.16	33647.54
508.33	33221.56
508.50	34132.03
508.68	34356.72
508.85	34274.80
509.03	34422.26
509.20	34263.10
509.38	34452.69
509.55	34323.96
509.73	34829.51
509.90	34345.02
510.08	34766.32
510.25	34976.97
510.42	34960.58
510.60	35204.00
510.77	35189.95
510.95	35751.68
511.12	35576.14
511.30	35225.06
511.47	36039.57
511.64	35852.33
511.82	36114.47
511.99	36086.38
512.17	36144.89
512.34	36439.80
512.51	36334.48
512.69	36620.02
512.86	36481.93
513.04	36903.23
513.21	36912.59
513.38	36818.97
513.56	36952.38
513.73	36732.37
513.90	36821.31
514.08	37048.34
514.25	37378.36
514.43	37385.38
514.60	37766.88
514.77	37530.49
514.95	37631.13
515.12	37251.97
515.29	37539.85
515.47	37551.56
515.64	37830.08
515.81	37839.44
515.99	37881.57
516.16	38445.64
516.33	38298.19
516.51	38220.95
516.68	38047.75
516.85	38281.80
517.03	38272.44
517.20	38728.84
517.37	38962.90
517.54	39145.46
517.72	38789.70
517.89	38607.14
518.06	38892.68
518.24	38899.70
518.41	38953.54
518.58	39339.72
518.75	39482.50
518.93	39985.71
519.10	39737.62
519.27	39463.77
519.45	39166.52
519.62	39828.90
519.79	39182.91
519.96	39676.76
520.14	40446.80
520.31	39578.46
520.48	39971.67
520.65	40240.83
520.83	39915.50
521.00	40226.79
521.17	40095.72
521.34	40493.61
521.52	40751.07
521.69	40528.72
521.86	41244.92
522.03	40952.35
522.20	41071.72
522.38	41038.95
522.55	41134.92
522.72	41127.89
522.89	40851.71
523.07	41673.24
523.24	41549.19
523.41	42040.70
523.58	41034.27
523.75	41989.21
523.92	41336.20
524.10	41535.15
524.27	41806.65
524.44	41883.89
524.61	41851.12
524.78	42288.80
524.96	42403.49
525.13	42115.60
525.30	42286.46
525.47	42447.96
525.64	42284.12
525.81	42616.47
525.98	42543.92
526.16	42834.14
526.33	42560.30
526.50	43264.80
526.67	42499.45
526.84	42611.79
527.01	43220.33
527.18	43175.86
527.36	43543.33
527.53	43618.22
527.70	43573.75
527.87	43775.04
528.04	43122.03
528.21	43178.20
528.38	43185.22
528.55	43913.13
528.72	43566.73
528.89	43770.36
529.07	43686.10
529.24	43510.56
529.41	43934.20
529.58	44116.76
529.75	43636.95
529.92	44360.17
530.09	44079.31
530.26	44093.35
530.43	44196.34
530.60	44168.25
530.77	44271.23
530.94	44552.10
531.11	43803.13
531.28	44458.48
531.46	44767.43
531.63	44900.84
531.80	44966.37
531.97	45064.67
532.14	45134.89
532.31	44788.49
532.48	44521.67
532.65	45371.28
532.82	45027.23
532.99	44842.32
533.16	44907.86
533.33	45382.99
533.50	46017.27
533.67	45483.63
533.84	45074.04
534.01	45155.96
534.18	45319.79
534.35	45659.17
534.52	45720.02
534.69	45745.77
534.86	45921.31
535.03	45949.40
535.20	45530.44
535.37	45645.13
535.54	46277.07
535.71	46026.63
535.88	46050.04
536.05	46209.20
536.22	46358.99
536.38	46777.95
536.55	46450.27
536.72	46621.13
536.89	45689.60
537.06	45823.01
537.23	46686.67
537.40	46330.90
537.57	46637.51
537.74	46124.94
537.91	47007.32
538.08	47112.64
538.25	46763.90
538.42	46085.15
538.59	47049.45
538.75	46513.47
538.92	46487.72
539.09	47309.25
539.26	47187.54
539.43	47496.49
539.60	47168.82
539.77	47096.26
539.94	47395.85
540.11	46742.84
540.28	47643.94
540.44	47674.37
540.61	47639.26
540.78	47419.25
540.95	47484.79
541.12	47459.04
541.29	47297.55
541.46	47814.80
541.62	47622.88
541.79	47304.57
541.96	47419.25
542.13	47828.85
542.30	47686.07
542.47	48107.37
542.63	47643.94
542.80	48341.42
542.97	48231.42
543.14	48428.02
543.31	48130.78
543.48	48713.57
543.64	48935.92
543.81	48781.45
543.98	48633.99
544.15	48673.78
544.32	48919.54
544.48	49020.18
544.65	48893.79
544.82	48842.30
544.99	48318.02
545.16	48804.85
545.32	48910.17
545.49	49158.27
545.66	49371.26
545.83	49151.25
546.00	49404.03
546.16	48907.83
546.33	48882.09
546.50	48804.85
546.67	49205.08
546.83	48729.95
547.00	49432.11
547.17	49186.36
547.34	49270.62
547.50	49310.41
547.67	49705.96
547.84	49698.94
548.00	49481.27
548.17	49317.43
548.34	49436.80
548.51	49780.85
548.67	49972.78
548.84	49963.42
549.01	49577.23
549.18	49979.80
549.34	49551.48
549.51	49734.04
549.68	49710.64
549.84	49499.99
550.01	49932.99
550.18	50035.97
550.34	50007.89
550.51	49907.24
550.68	50066.40
550.84	49778.51
551.01	50153.00
551.18	49673.19
551.34	50071.08
551.51	49827.66
551.68	50284.07
551.84	50333.22
552.01	50110.87
552.18	50136.62
552.34	50209.17
552.51	50347.26
552.68	50373.01
552.84	50209.17
553.01	50635.15
553.18	50342.58
553.34	50494.72
553.51	50688.98
553.67	50298.11
553.84	51016.66
554.01	50841.12
554.17	50810.69
554.34	50651.53
554.51	50724.09
554.67	50775.58
554.84	50663.24
555.00	50597.70
555.17	50852.82
555.33	51007.29
555.50	50621.11
555.67	50899.63
555.83	50761.54
556.00	50796.65
556.16	51246.03
556.33	50916.01
556.50	51004.95
556.66	50955.80
556.83	51285.82
556.99	51456.68
557.16	51470.72
557.32	51070.49
557.49	51419.23
557.65	51150.07
557.82	51194.54
557.98	51470.72
558.15	51239.01
558.32	51133.68
558.48	51554.98
558.65	52039.47
558.81	51239.01
558.98	51192.20
559.14	51136.02
559.31	51459.02
559.47	51604.13
559.64	51618.17
559.80	51648.60
559.97	51709.46
560.13	51753.93
560.30	51547.96
560.46	51545.62
560.63	51686.05
560.79	51547.96
560.96	51695.41
561.12	51812.44
561.29	51496.47
561.45	51770.31
561.61	51866.27
561.78	51962.23
561.94	51716.48
562.11	51824.14
562.27	51791.37
562.44	51667.33
562.60	51566.68
562.77	51777.33
562.93	51739.88
563.10	51931.81
563.26	51861.59
563.42	52222.03
563.59	51906.06
563.75	52289.91
563.92	52315.65
564.08	52093.30
564.24	52088.62
564.41	51980.96
564.57	51810.10
564.74	52011.38
564.90	52044.15
565.07	51997.34
565.23	52516.94
565.39	51978.62
565.56	52165.86
565.72	51924.78
565.88	52097.98
566.05	51885.00
566.21	52020.75
566.38	51915.42
566.54	52116.71
566.70	52341.40
566.87	52165.86
567.03	52254.80
567.19	52582.48
567.36	52280.55
567.52	52444.38
567.68	52243.10
567.85	52069.90
568.01	52114.37
568.17	52027.77
568.34	52210.33
568.50	52444.38
568.66	52315.65
568.83	52243.10
568.99	52254.80
569.15	52322.68
569.32	52025.43
569.48	52013.73
569.64	52659.71
569.81	52313.31
569.97	52348.42
570.13	52411.62
570.30	52416.30
570.46	52322.68
570.62	52374.17
570.78	52523.96
570.95	52381.19
571.11	52568.43
571.27	52313.31
571.43	52435.02
571.60	52640.99
571.76	52530.98
571.92	52402.25
572.09	52779.08
572.25	52470.13
572.41	52339.06
572.57	52622.26
572.74	52793.12
572.90	52432.68
573.06	52329.70
573.22	52076.92
573.38	52687.80
573.55	52240.76
573.71	52781.42
573.87	52971.00
574.03	52528.64
574.20	52477.15
574.36	52636.31
574.52	52561.41
574.68	52846.96
574.84	52399.91
575.01	52795.46
575.17	52835.25
575.33	52484.17
575.49	52629.29
575.65	52678.44
575.82	52924.19
575.98	52580.13
576.14	52872.70
576.30	52753.33
576.46	52781.42
576.62	52561.41
576.79	52570.77
576.95	52617.58
577.11	52872.70
577.27	52772.06
577.43	52868.02
577.59	52816.53
577.75	52725.25
577.92	52481.83
578.08	52449.06
578.24	52533.32
578.40	52753.33
578.56	52781.42
578.72	52907.81
578.88	53162.93
579.04	52903.13
579.21	52720.57
579.37	52921.85
579.53	52975.69
579.69	52786.10
579.85	52776.74
580.01	52772.06
580.17	52526.30
580.33	52743.97
580.49	52945.26
580.65	53029.52
580.82	52966.32
580.98	52594.18
581.14	52844.62
581.30	52921.85
581.46	52821.21
581.62	52830.57
581.78	52612.90
581.94	52755.68
582.10	53081.01
582.26	53233.14
582.42	53153.57
582.58	52907.81
582.74	52928.87
582.90	53081.01
583.06	52903.13
583.22	52968.66
583.38	52940.58
583.54	52839.93
583.70	52851.64
583.86	52851.64
584.02	52755.68
584.18	53324.43
584.34	52790.78
584.50	52985.05
584.66	52758.02
584.82	52718.23
584.98	53073.99
585.14	52924.19
585.30	52746.31
585.46	52779.08
585.62	52645.67
585.78	52861.00
585.94	52750.99
586.10	53041.22
586.26	52643.33
586.42	53090.37
586.58	53343.15
586.74	52961.64
586.90	52832.91
587.06	52725.25
587.22	52982.71
587.38	52659.71
587.54	53062.29
587.70	53256.55
587.86	53010.79
588.02	52975.69
588.18	53235.48
588.34	53176.97
588.49	52547.37
588.65	52879.72
588.81	52776.74
588.97	52804.83
589.13	52774.40
589.29	52720.57
589.45	53263.57
589.61	53151.23
589.77	53624.01
589.93	52966.32
590.08	53382.94
