SpectraSuite Data File
++++++++++++++++++++++++++++++++++++
Date: Fri Oct 04 11:48:36 GMT-05:00 2013
User: price-jones
Dark Spectrum Present: No
Reference Spectrum Present: No
Number of Sampled Component Spectra: 1
Spectrometers: USB2+H05261
Integration Time (usec): 100000 (USB2+H05261)
Spectra Averaged: 1 (USB2+H05261)
Boxcar Smoothing: 0 (USB2+H05261)
Correct for Electrical Dark: No (USB2+H05261)
Strobe/Lamp Enabled: No (USB2+H05261)
Correct for Detector Non-linearity: No (USB2+H05261)
Correct for Stray Light: No (USB2+H05261)
Number of Pixels in Processed Spectrum: 2048
>>>>>Begin Processed Spectral Data<<<<<
365.73	79.58
365.92	79.58
366.12	79.58
366.32	0.00
366.52	0.00
366.72	0.00
366.91	0.00
367.11	0.00
367.31	0.00
367.51	0.00
367.70	0.00
367.90	0.00
368.10	0.00
368.30	0.00
368.49	0.00
368.69	0.00
368.89	0.00
369.09	0.00
369.28	0.00
369.48	0.00
369.68	0.00
369.87	0.00
370.07	0.00
370.27	0.00
370.47	114.69
370.66	210.65
370.86	121.71
371.06	264.48
371.25	308.95
371.45	334.70
371.65	285.55
371.84	245.76
372.04	255.12
372.24	278.52
372.44	299.59
372.63	318.31
372.83	367.46
373.03	386.19
373.22	355.76
373.42	339.38
373.62	220.01
373.81	351.08
374.01	318.31
374.21	383.85
374.40	330.02
374.60	337.04
374.79	351.08
374.99	496.19
375.19	346.40
375.38	355.76
375.58	404.91
375.78	379.17
375.97	348.74
376.17	463.43
376.37	442.36
376.56	423.64
376.76	451.72
376.95	390.87
377.15	395.55
377.35	414.27
377.54	414.27
377.74	409.59
377.93	348.74
378.13	440.02
378.33	418.96
378.52	421.30
378.72	407.25
378.91	407.25
379.11	400.23
379.31	428.32
379.50	463.43
379.70	463.43
379.89	461.09
380.09	451.72
380.28	402.57
380.48	437.68
380.68	369.80
380.87	484.49
381.07	510.24
381.26	528.96
381.46	402.57
381.65	430.66
381.85	463.43
382.04	486.83
382.24	484.49
382.43	463.43
382.63	397.89
382.83	514.92
383.02	458.74
383.22	507.90
383.41	514.92
383.61	496.19
383.80	561.73
384.00	456.40
384.19	496.19
384.39	528.96
384.58	566.41
384.78	552.37
384.97	535.98
385.17	554.71
385.36	484.49
385.56	559.39
385.75	463.43
385.95	526.62
386.14	601.52
386.34	608.54
386.53	517.26
386.72	524.28
386.92	636.63
387.11	578.11
387.31	533.64
387.50	554.71
387.70	500.87
387.89	615.56
388.09	575.77
388.28	566.41
388.48	594.50
388.67	580.45
388.86	575.77
389.06	564.07
389.25	657.69
389.45	610.88
389.64	603.86
389.84	552.37
390.03	627.26
390.22	627.26
390.42	592.16
390.61	587.47
390.81	554.71
391.00	638.97
391.19	678.76
391.39	606.20
391.58	603.86
391.78	592.16
391.97	711.52
392.16	699.82
392.36	685.78
392.55	692.80
392.75	704.50
392.94	622.58
393.13	631.94
393.33	737.27
393.52	734.93
393.71	753.65
393.91	748.97
394.10	671.73
394.29	699.82
394.49	699.82
394.68	795.78
394.88	812.17
395.07	868.34
395.26	798.12
395.46	802.80
395.65	786.42
395.84	901.11
396.04	842.59
396.23	851.96
396.42	870.68
396.62	851.96
396.81	858.98
397.00	887.06
397.19	868.34
397.39	849.61
397.58	936.21
397.77	807.48
397.97	882.38
398.16	915.15
398.35	945.58
398.55	856.64
398.74	976.00
398.93	1029.84
399.12	990.05
399.32	917.49
399.51	966.64
399.70	1013.45
399.90	990.05
400.09	1032.18
400.28	1029.84
400.47	1095.37
400.67	1151.54
400.86	1167.93
401.05	1015.79
401.24	1034.52
401.44	1203.04
401.63	1135.16
401.82	1125.80
402.01	1090.69
402.21	1121.12
402.40	1193.67
402.59	1132.82
402.78	1289.64
402.97	1160.91
403.17	1212.40
403.36	1238.14
403.55	1214.74
403.74	1235.80
403.93	1261.55
404.13	1247.51
404.32	1327.08
404.51	1348.15
404.70	1380.92
404.89	1315.38
405.09	1481.56
405.28	1432.41
405.47	1458.15
405.66	1392.62
405.85	1483.90
406.05	1434.75
406.24	1432.41
406.43	1399.64
406.62	1455.81
406.81	1533.05
407.00	1474.54
407.20	1526.03
407.39	1462.83
407.58	1540.07
407.77	1521.35
407.96	1589.22
408.15	1605.61
408.34	1640.72
408.54	1741.36
408.73	1591.56
408.92	1565.82
409.11	1769.44
409.30	1799.87
409.49	1743.70
409.68	1743.70
409.87	1727.32
410.07	1813.92
410.26	1781.15
410.45	1839.66
410.64	1921.58
410.83	1851.36
411.02	1877.11
411.21	1898.17
411.40	1823.28
411.59	2005.84
411.78	1944.99
411.98	1994.14
412.17	2080.74
412.36	2143.93
412.55	2026.90
412.74	2139.25
412.93	2087.76
413.12	2183.72
413.31	2202.44
413.50	2202.44
413.69	2249.25
413.88	2314.79
414.07	2310.11
414.26	2345.22
414.45	2282.02
414.64	2293.72
414.83	2392.03
415.02	2373.30
415.22	2422.45
415.41	2375.64
415.60	2480.97
415.79	2497.35
415.98	2555.86
416.17	2476.29
416.36	2511.39
416.55	2506.71
416.74	2630.76
416.93	2555.86
417.12	2513.74
417.31	2665.87
417.50	2640.12
417.69	2874.18
417.88	2799.28
418.07	2799.28
418.26	2843.75
418.45	2717.36
418.64	2839.07
418.83	2972.48
419.02	2834.39
419.21	2860.13
419.39	3030.99
419.58	2874.18
419.77	2953.76
419.96	2911.63
420.15	3042.70
420.34	2960.78
420.53	3061.42
420.72	3054.40
420.91	3087.17
421.10	3042.70
421.29	3199.51
421.48	3007.59
421.67	3122.27
421.86	3126.96
422.05	3190.15
422.24	3110.57
422.43	3148.02
422.61	3009.93
422.80	3180.79
422.99	3225.26
423.18	3180.79
423.37	3304.84
423.56	3286.11
423.75	3171.43
423.94	3026.31
424.13	3033.33
424.32	3131.64
424.50	3218.24
424.69	3260.37
424.88	3267.39
425.07	3246.32
425.26	3159.72
425.45	3159.72
425.64	3145.68
425.83	3213.56
426.01	3419.52
426.20	3297.81
426.39	3361.01
426.58	3201.85
426.77	3361.01
426.96	3351.65
427.15	3204.19
427.33	3550.59
427.52	3269.73
427.71	3346.97
427.90	3431.23
428.09	3482.72
428.28	3382.07
428.46	3426.54
428.65	3534.21
428.84	3574.00
429.03	3606.77
429.22	3442.93
429.40	3716.77
429.59	3588.04
429.78	3538.89
429.97	3536.55
430.16	3637.19
430.34	3588.04
430.53	3751.88
430.72	3688.68
430.91	3583.36
431.10	3749.54
431.28	3845.50
431.47	3779.97
431.66	3698.05
431.85	3798.69
432.03	3779.97
432.22	3974.23
432.41	3885.29
432.60	3808.05
432.79	3775.28
432.97	4028.06
433.16	3885.29
433.35	3957.85
433.54	4079.55
433.72	4128.70
433.91	3999.98
434.10	4131.05
434.28	4039.76
434.47	3992.95
434.66	4191.90
434.85	4140.41
435.03	4152.11
435.22	4102.96
435.41	4238.71
435.59	4145.09
435.78	4292.54
435.97	4290.20
436.16	4243.39
436.34	4128.70
436.53	4332.33
436.72	4299.56
436.90	4177.86
437.09	4269.14
437.28	4332.33
437.46	4285.52
437.65	4376.80
437.84	4498.51
438.02	4428.29
438.21	4418.93
438.40	4266.80
438.58	4505.53
438.77	4526.60
438.96	4498.51
439.14	4746.61
439.33	4758.31
439.52	4880.02
439.70	4692.77
439.89	4709.16
440.08	4755.97
440.26	4795.76
440.45	4798.10
440.63	5011.09
440.82	4865.97
441.01	4975.98
441.19	4990.02
441.38	4844.91
441.57	5081.30
441.75	5102.37
441.94	5156.20
442.12	5191.31
442.31	5233.44
442.50	5074.28
442.68	5427.70
442.87	5458.13
443.05	5301.31
443.24	5373.87
443.43	5310.68
443.61	5423.02
443.80	5430.04
443.98	5301.31
444.17	5149.18
444.35	5355.15
444.54	5439.40
444.73	5394.93
444.91	5399.62
445.10	5387.91
445.28	5397.28
445.47	5516.64
445.65	5439.40
445.84	5530.69
446.02	5490.90
446.21	5408.98
446.39	5556.43
446.58	5411.32
446.77	5652.39
446.95	5418.34
447.14	5401.96
447.32	5446.43
447.51	5467.49
447.69	5682.82
447.88	5664.10
448.06	5474.51
448.25	5535.37
448.43	5694.52
448.62	5617.29
448.80	5596.22
448.99	5811.55
449.17	5717.93
449.36	5722.61
449.54	5788.14
449.73	5863.04
449.91	5774.10
450.10	5849.00
450.28	5905.17
450.46	5881.77
450.65	5825.59
450.83	5921.56
451.02	6010.50
451.20	6057.31
451.39	5998.79
451.57	5907.51
451.76	5996.45
451.94	6134.54
452.13	6101.78
452.31	6066.67
452.49	5872.40
452.68	6080.71
452.86	6155.61
453.05	6071.35
453.23	6094.76
453.42	6080.71
453.60	6132.20
453.78	6148.59
453.97	6216.46
454.15	6115.82
454.34	6174.33
454.52	6366.26
454.70	6176.67
454.89	6356.90
455.07	6279.66
455.26	6462.22
455.44	6579.25
455.62	6370.94
455.81	6471.58
455.99	6567.54
456.17	6600.31
456.36	6511.37
456.54	6567.54
456.73	6583.93
456.91	6771.17
457.09	6825.00
457.28	6911.60
457.46	6572.22
457.64	6862.45
457.83	6841.39
458.01	6696.27
458.19	6942.03
458.38	6778.19
458.56	6998.20
458.74	6956.07
458.93	7033.31
459.11	6881.18
459.29	6918.62
459.48	7066.08
459.66	7049.69
459.84	7047.35
460.03	7171.40
460.21	7155.02
460.39	7157.36
460.57	7166.72
460.76	7286.09
460.94	7346.94
461.12	7269.70
461.31	7286.09
461.49	7360.98
461.67	7328.22
461.85	7442.90
462.04	7433.54
462.22	7868.88
462.40	7449.93
462.59	7358.64
462.77	7634.83
462.95	7463.97
463.13	7482.69
463.32	7768.24
463.50	7501.42
463.68	7616.10
463.86	7588.02
464.05	7431.20
464.23	7496.74
464.41	7758.88
464.59	7405.46
464.78	7852.50
464.96	7756.54
465.14	7538.87
465.32	7829.09
465.50	7840.79
465.69	7901.65
465.87	7751.85
466.05	7875.90
466.23	7960.16
466.41	7826.75
466.60	8011.65
466.78	7822.07
466.96	8053.78
467.14	7990.59
467.32	7929.74
467.51	7943.78
467.69	7803.35
467.87	8112.30
468.05	8112.30
468.23	8037.40
468.41	7878.24
468.60	8028.04
468.78	8063.15
468.96	8067.83
469.14	8297.20
469.32	8308.90
469.50	8168.47
469.69	8273.79
469.87	8482.10
470.05	8372.10
470.23	8336.99
470.41	8484.44
470.59	8753.60
470.77	8690.41
470.95	8638.92
471.14	8695.09
471.32	8610.83
471.50	8861.27
471.68	8887.01
471.86	8844.88
472.04	8840.20
472.22	8924.46
472.40	8985.32
472.58	8821.48
472.77	8973.61
472.95	8950.21
473.13	9427.68
473.31	8973.61
473.49	9088.30
473.67	9102.34
473.85	9057.87
474.03	9308.31
474.21	9458.10
474.39	9544.70
474.57	9453.42
474.75	9598.54
474.93	9610.24
475.12	9743.65
475.30	9563.43
475.48	9671.09
475.66	9722.59
475.84	9640.67
476.02	9839.61
476.20	9879.40
476.38	10125.16
476.56	10434.11
476.74	10073.67
476.92	10106.43
477.10	10328.78
477.28	10637.73
477.46	10253.89
477.64	10501.98
477.82	10487.94
478.00	10733.70
478.18	10684.55
478.36	10824.98
478.54	10904.56
478.72	11110.52
478.90	10860.09
479.08	10963.07
479.26	11110.52
479.44	11281.38
479.62	11719.06
479.80	11407.77
479.98	11632.46
480.16	11892.26
480.34	11580.97
480.52	11726.08
480.70	11887.58
480.88	11700.34
481.06	11913.33
481.24	12060.78
481.41	12210.57
481.59	12404.84
481.77	12461.01
481.95	12549.95
482.13	12662.30
482.31	12388.46
482.49	12915.08
482.67	12709.11
482.85	12830.82
483.03	13446.38
483.21	13317.65
483.39	13350.42
483.57	13362.12
483.74	13509.57
483.92	13556.38
484.10	13593.83
484.28	13909.80
484.46	14146.20
484.64	14345.14
484.82	13818.52
485.00	14211.73
485.18	14295.99
485.35	14609.62
485.53	14457.49
485.71	14539.41
485.89	14960.70
486.07	14780.48
486.25	14787.50
486.43	15019.22
486.61	15262.63
486.78	15618.39
486.96	15382.00
487.14	15513.07
487.32	15314.13
487.50	15637.12
487.68	15833.72
487.85	15936.71
488.03	16077.14
488.21	16341.62
488.39	16322.90
488.57	16472.69
488.75	16570.99
488.92	16975.91
489.10	16912.71
489.28	17020.38
489.46	16957.18
489.64	17064.85
489.81	17638.28
489.99	17476.78
490.17	17418.27
490.35	17603.17
490.53	17977.65
490.70	18223.41
490.88	18071.28
491.06	18466.83
491.24	18127.45
491.41	18237.45
491.59	18586.19
491.77	18693.86
491.95	19061.32
492.13	19211.12
492.30	18883.44
492.48	19037.92
492.66	18923.23
492.84	19096.43
493.01	19187.71
493.19	19805.61
493.37	19737.74
493.54	19807.95
493.72	19992.86
493.90	19964.77
494.08	20149.67
494.25	20453.94
494.43	20568.63
494.61	20833.11
494.79	20514.80
494.96	20577.99
495.14	20999.29
495.32	21022.69
495.49	20716.08
495.67	21151.42
495.85	21268.45
496.02	21266.11
496.20	21656.98
496.38	21434.63
496.55	21628.89
496.73	22244.45
496.91	21869.97
497.09	22427.01
497.26	22309.99
497.44	22218.71
497.62	22111.04
497.79	22530.00
497.97	22508.93
498.14	22960.66
498.32	23129.17
498.50	23140.88
498.67	23220.45
498.85	23133.86
499.03	23030.87
499.20	22850.65
499.38	23180.67
499.56	23295.35
499.73	23660.48
499.91	23735.37
500.08	23800.91
500.26	23524.72
500.44	23854.74
500.61	24109.86
500.79	23917.93
500.97	24196.46
501.14	24311.14
501.32	24332.21
501.49	24184.76
501.67	24212.84
501.84	24627.12
502.02	24863.51
502.20	24580.31
502.37	24987.56
502.55	24631.80
502.72	25034.37
502.90	25177.14
503.07	25287.15
503.25	25245.02
503.43	25046.07
503.60	25226.29
503.78	25385.45
503.95	25523.54
504.13	25544.61
504.30	25752.91
504.48	25900.37
504.65	25956.54
504.83	26015.05
505.01	26197.62
505.18	26232.72
505.36	26630.62
505.53	25837.17
505.71	26274.85
505.88	26757.00
506.06	26429.33
506.23	27030.85
506.41	26485.50
506.58	26553.38
506.76	26778.07
506.93	26930.20
507.11	26754.66
507.28	27145.53
507.46	26925.52
507.63	27424.06
507.81	27285.97
507.98	26988.72
508.16	27222.77
508.33	27690.88
508.50	27665.13
508.68	27667.47
508.85	28102.81
509.03	28217.50
509.20	28161.33
509.38	28290.06
509.55	28327.50
509.73	28247.93
509.90	28449.21
510.08	28142.60
510.25	28517.09
510.42	28737.10
510.60	28673.90
510.77	29071.79
510.95	28769.86
511.12	28765.18
511.30	28650.50
511.47	29237.97
511.64	29240.31
511.82	29486.07
511.99	29317.55
512.17	29633.52
512.34	29294.14
512.51	29575.01
512.69	30085.25
512.86	29563.31
513.04	30008.01
513.21	30150.78
513.38	29809.06
513.56	30029.07
513.73	30066.52
513.90	30221.00
514.08	30143.76
514.25	30127.38
514.43	30576.76
514.60	30859.96
514.77	30354.41
514.95	30597.82
515.12	30955.93
515.29	30752.30
515.47	31105.72
515.64	30789.75
515.81	31360.84
515.99	31122.10
516.16	31402.97
516.33	31381.90
516.51	31370.20
516.68	31112.74
516.85	31016.78
517.03	31524.68
517.20	31667.45
517.37	31655.75
517.54	31971.72
517.72	31791.50
517.89	32013.85
518.06	31983.42
518.24	31859.37
518.41	31800.86
518.58	31927.25
518.75	32046.62
518.93	32170.66
519.10	32378.97
519.27	32381.31
519.45	32151.94
519.62	32332.16
519.79	32547.49
519.96	32580.26
520.14	33177.09
520.31	32737.07
520.48	33043.68
520.65	32615.37
520.83	33015.60
521.00	33027.30
521.17	32957.08
521.34	33092.83
521.52	33029.64
521.69	33579.67
521.86	33556.26
522.03	33401.79
522.20	33558.60
522.38	33462.64
522.55	33701.37
522.72	33766.91
522.89	33724.78
523.07	34068.84
523.24	34157.78
523.41	33790.31
523.58	33860.53
523.75	34270.12
523.92	33851.17
524.10	33975.22
524.27	34064.16
524.44	34649.29
524.61	34298.21
524.78	34965.26
524.96	34384.81
525.13	34485.45
525.30	34562.69
525.47	34103.95
525.64	34738.23
525.81	35044.84
525.98	35000.37
526.16	35140.80
526.33	34850.58
526.50	35126.76
526.67	34747.59
526.84	34939.52
527.01	34691.42
527.18	35379.54
527.36	35075.27
527.53	35161.87
527.70	35498.91
527.87	35709.55
528.04	34962.92
528.21	35688.49
528.38	35747.00
528.55	36121.49
528.72	35597.21
528.89	35955.31
529.07	35885.09
529.24	35751.68
529.41	35828.92
529.58	35943.61
529.75	35927.22
529.92	36123.83
530.09	35929.56
530.26	35981.06
530.43	36112.13
530.60	36407.03
530.77	36030.21
530.94	36301.71
531.11	35873.39
531.28	35917.86
531.46	36708.96
531.63	36477.25
531.80	36694.92
531.97	36907.91
532.14	36673.85
532.31	36608.32
532.48	36877.48
532.65	36818.97
532.82	36645.77
532.99	37050.68
533.16	36919.61
533.33	37177.07
533.50	37619.43
533.67	37010.89
533.84	36919.61
534.01	36982.80
534.18	37111.53
534.35	37469.64
534.52	37376.01
534.69	37450.91
534.86	37354.95
535.03	37455.59
535.20	37734.12
535.37	37806.67
535.54	37858.17
535.71	37553.90
535.88	37766.88
536.05	37570.28
536.22	37766.88
536.38	37904.98
536.55	38532.24
536.72	37998.60
536.89	37912.00
537.06	38225.63
537.23	37757.52
537.40	37780.93
537.57	37902.64
537.74	38284.14
537.91	38305.21
538.08	38108.60
538.25	38494.79
538.42	38340.32
538.59	38628.20
538.75	38291.16
538.92	38307.55
539.09	38618.84
539.26	38990.98
539.43	38759.27
539.60	38705.44
539.77	38644.59
539.94	38990.98
540.11	38766.29
540.28	38667.99
540.44	38684.37
540.61	38836.51
540.78	38419.89
540.95	38759.27
541.12	38885.66
541.29	39283.55
541.46	39124.40
541.62	38969.92
541.79	39412.28
541.96	38831.83
542.13	38808.42
542.30	39842.94
542.47	39669.74
542.63	39391.22
542.80	39519.95
542.97	39679.10
543.14	40032.52
543.31	39711.87
543.48	39782.09
543.64	40343.81
543.81	39730.59
543.98	40297.00
544.15	40261.90
544.32	40060.61
544.48	40580.21
544.65	40116.78
544.82	40507.65
544.99	39871.03
545.16	40367.22
545.32	40339.13
545.49	40521.69
545.66	40753.41
545.83	40528.72
546.00	40507.65
546.16	40261.90
546.33	40334.45
546.50	40458.50
546.67	40620.00
546.83	40444.46
547.00	40521.69
547.17	40563.82
547.34	40767.45
547.50	40671.49
547.67	40786.18
547.84	40657.45
548.00	40453.82
548.17	40912.56
548.34	40861.07
548.51	41214.49
548.67	41193.43
548.84	40959.38
549.01	40966.40
549.18	41013.21
549.34	40687.87
549.51	40935.97
549.68	40900.86
549.84	41043.63
550.01	41308.11
550.18	40982.78
550.34	41500.04
550.51	41340.88
550.68	41076.40
550.84	40919.59
551.01	41357.27
551.18	41106.83
551.34	40825.96
551.51	41163.00
551.68	41495.36
551.84	41886.23
552.01	41904.95
552.18	41703.67
552.34	41357.27
552.51	41827.71
552.68	41666.22
552.84	41233.22
553.01	41759.84
553.18	41659.20
553.34	41965.81
553.51	41265.99
553.67	42153.05
553.84	42422.21
554.01	42139.00
554.17	42117.94
554.34	42101.56
554.51	41769.20
554.67	42176.45
554.84	42218.58
555.00	41991.55
555.17	41724.73
555.33	42380.08
555.50	41621.75
555.67	42038.36
555.83	42029.00
556.00	42499.45
556.16	42794.36
556.33	42225.60
556.50	42457.32
556.66	42887.98
556.83	42059.43
556.99	42843.51
557.16	42770.95
557.32	42260.71
557.49	42923.08
557.65	42220.92
557.82	42071.13
557.98	42110.92
558.15	42712.44
558.32	42316.89
558.48	42375.40
558.65	42761.59
558.81	42515.83
558.98	42370.72
559.14	42101.56
559.31	42162.41
559.47	42265.39
559.64	42518.17
559.80	42890.32
559.97	42438.59
560.13	42665.63
560.30	42913.72
560.46	42511.15
560.63	42670.31
560.79	42747.54
560.96	42930.11
561.12	42513.49
561.29	42787.33
561.45	42653.92
561.61	43065.86
561.78	42611.79
561.94	42899.68
562.11	42703.07
562.27	42836.48
562.44	42721.80
562.60	42887.98
562.77	42691.37
562.93	42660.94
563.10	43473.11
563.26	42197.52
563.42	42962.87
563.59	43456.73
563.75	43213.31
563.92	43110.33
564.08	42742.86
564.24	43140.75
564.41	42838.83
564.57	42698.39
564.74	43409.92
564.90	43309.27
565.07	43302.25
565.23	43246.08
565.39	43133.73
565.56	43316.29
565.72	43239.06
565.88	42700.73
566.05	42843.51
566.21	42923.08
566.38	42887.98
566.54	43091.60
566.70	43817.17
566.87	43133.73
567.03	43154.80
567.19	44062.93
567.36	43681.42
567.52	43007.34
567.68	43508.22
567.85	43042.45
568.01	43320.98
568.17	43040.11
568.34	43604.18
568.50	43580.78
568.66	43278.85
568.83	43501.20
568.99	43262.46
569.15	42866.91
569.32	43253.10
569.48	42981.60
569.64	43379.49
569.81	43152.46
569.97	43363.11
570.13	43522.26
570.30	43634.61
570.46	43372.47
570.62	43306.93
570.78	43091.60
570.95	42829.46
571.11	43590.14
571.27	43225.01
571.43	43007.34
571.60	43367.79
571.76	43201.61
571.92	43597.16
572.09	43250.76
572.25	43281.19
572.41	43559.71
572.57	43505.88
572.74	43112.67
572.90	43215.65
573.06	43325.66
573.22	43548.01
573.38	43655.67
573.55	43285.87
573.71	43929.51
573.87	43405.23
574.03	43185.22
574.20	43234.38
574.36	43477.79
574.52	43526.94
574.68	43000.32
574.84	43667.37
575.01	43761.00
575.17	43313.95
575.33	43372.47
575.49	43288.21
575.65	43948.24
575.82	43756.32
575.98	43229.69
576.14	43484.81
576.30	43285.87
576.46	43480.13
576.62	43421.62
576.79	43868.66
576.95	42906.70
577.11	43445.02
577.27	43040.11
577.43	43810.15
577.59	43533.96
577.75	43819.51
577.92	42937.13
578.08	43435.66
578.24	43323.32
578.40	43447.36
578.56	43562.05
578.72	43250.76
578.88	43550.35
579.04	43913.13
579.21	43461.41
579.37	43683.76
579.53	43622.90
579.69	43737.59
579.85	43342.04
580.01	43730.57
580.17	43210.97
580.33	43826.53
580.49	43674.40
580.65	43749.29
580.82	43948.24
580.98	43452.05
581.14	43456.73
581.30	43943.56
581.46	43674.40
581.62	43592.48
581.78	43545.67
581.94	43859.30
582.10	43393.53
582.26	44133.14
582.42	43821.85
582.58	43744.61
582.74	43800.79
582.90	43821.85
583.06	43548.01
583.22	43299.91
583.38	43512.90
583.54	43398.21
583.70	43552.69
583.86	43597.16
584.02	43477.79
584.18	43772.70
584.34	43578.43
584.50	44006.75
584.66	43948.24
584.82	43056.50
584.98	43339.70
585.14	43498.86
585.30	43646.31
585.46	43487.15
585.62	43639.29
585.78	43871.00
585.94	43709.50
586.10	43793.76
586.26	43459.07
586.42	43969.30
586.58	43679.08
586.74	43501.20
586.90	43496.52
587.06	43154.80
587.22	43697.80
587.38	43526.94
587.54	44151.87
587.70	43901.43
587.86	43833.55
588.02	43948.24
588.18	43924.83
588.34	43585.46
588.49	43653.33
588.65	43487.15
588.81	43641.63
588.97	43487.15
589.13	43866.32
589.29	43772.70
589.45	44259.53
589.61	44208.04
589.77	44222.08
589.93	44264.21
590.08	43882.70
590.24	44215.06
590.40	43885.04
590.56	44329.75
590.72	43505.88
590.88	43995.05
