SpectraSuite Data File
++++++++++++++++++++++++++++++++++++
Date: Fri Oct 04 11:48:22 GMT-05:00 2013
User: price-jones
Dark Spectrum Present: No
Reference Spectrum Present: No
Number of Sampled Component Spectra: 1
Spectrometers: USB2+H05261
Integration Time (usec): 100000 (USB2+H05261)
Spectra Averaged: 1 (USB2+H05261)
Boxcar Smoothing: 0 (USB2+H05261)
Correct for Electrical Dark: No (USB2+H05261)
Strobe/Lamp Enabled: No (USB2+H05261)
Correct for Detector Non-linearity: No (USB2+H05261)
Correct for Stray Light: No (USB2+H05261)
Number of Pixels in Processed Spectrum: 2048
>>>>>Begin Processed Spectral Data<<<<<
365.73	77.24
365.92	77.24
366.12	77.24
366.32	0.00
366.52	0.00
366.72	0.00
366.91	0.00
367.11	0.00
367.31	0.00
367.51	0.00
367.70	0.00
367.90	0.00
368.10	0.00
368.30	0.00
368.49	0.00
368.69	0.00
368.89	0.00
369.09	0.00
369.28	0.00
369.48	0.00
369.68	0.00
369.87	0.00
370.07	9.36
370.27	53.83
370.47	133.41
370.66	411.93
370.86	533.64
371.06	472.79
371.25	594.50
371.45	451.72
371.65	533.64
371.84	596.84
372.04	479.81
372.24	627.26
372.44	599.18
372.63	622.58
372.83	571.09
373.03	566.41
373.22	557.05
373.42	704.50
373.62	772.38
373.81	723.23
374.01	655.35
374.21	697.48
374.40	671.73
374.60	788.76
374.79	678.76
374.99	777.06
375.19	779.40
375.38	748.97
375.58	793.44
375.78	748.97
375.97	800.46
376.17	800.46
376.37	711.52
376.56	826.21
376.76	746.63
376.95	779.40
377.15	781.74
377.35	901.11
377.54	795.78
377.74	770.04
377.93	791.10
378.13	828.55
378.33	887.06
378.52	821.53
378.72	894.08
378.91	887.06
379.11	931.53
379.31	901.11
379.50	919.83
379.70	1006.43
379.89	896.43
380.09	933.87
380.28	844.93
380.48	901.11
380.68	1001.75
380.87	1048.56
381.07	922.17
381.26	912.81
381.46	957.28
381.65	894.08
381.85	1008.77
382.04	1006.43
382.24	1015.79
382.43	1039.20
382.63	964.30
382.83	973.66
383.02	1057.92
383.22	1027.50
383.41	1076.65
383.61	1067.28
383.80	1097.71
384.00	1043.88
384.19	1088.35
384.39	1130.48
384.58	1102.39
384.78	1114.10
384.97	1053.24
385.17	1219.42
385.36	1144.52
385.56	1118.78
385.75	1191.33
385.95	1198.35
386.14	1313.04
386.34	1254.53
386.53	1174.95
386.72	1217.08
386.92	1282.61
387.11	1149.20
387.31	1196.01
387.50	1151.54
387.70	1310.70
387.89	1270.91
388.09	1289.64
388.28	1217.08
388.48	1338.79
388.67	1249.85
388.86	1327.08
389.06	1252.19
389.25	1350.49
389.45	1378.58
389.64	1425.39
389.84	1324.74
390.03	1352.83
390.22	1406.66
390.42	1394.96
390.61	1448.79
390.81	1427.73
391.00	1537.73
391.19	1504.96
391.39	1556.46
391.58	1390.28
391.78	1439.43
391.97	1535.39
392.16	1453.47
392.36	1474.54
392.55	1479.22
392.75	1589.22
392.94	1554.12
393.13	1636.03
393.33	1528.37
393.52	1687.53
393.71	1556.46
393.91	1603.27
394.10	1732.00
394.29	1727.32
394.49	1570.50
394.68	1633.69
394.88	1685.19
395.07	1830.30
395.26	1842.00
395.46	1746.04
395.65	1806.89
395.84	1823.28
396.04	1884.13
396.23	1729.66
396.42	1769.44
396.62	1870.09
396.81	1811.57
397.00	1877.11
397.19	1832.64
397.39	1947.33
397.58	1886.47
397.77	2015.20
397.97	1963.71
398.16	1930.94
398.35	1982.43
398.55	1947.33
398.74	2047.97
398.93	2101.80
399.12	2113.50
399.32	1998.82
399.51	2104.14
399.70	2064.35
399.90	2183.72
400.09	2143.93
400.28	2071.37
400.47	2157.97
400.67	2153.29
400.86	2214.15
401.05	2277.34
401.24	2249.25
401.44	2399.05
401.63	2377.98
401.82	2307.77
402.01	2298.41
402.21	2312.45
402.40	2427.14
402.59	2333.51
402.78	2457.56
402.97	2373.30
403.17	2520.76
403.36	2544.16
403.55	2523.10
403.74	2548.84
403.93	2635.44
404.13	2551.18
404.32	2640.12
404.51	2656.51
404.70	2717.36
404.89	2672.89
405.09	2717.36
405.28	2679.91
405.47	2839.07
405.66	2773.53
405.85	2906.95
406.05	2778.22
406.24	2869.50
406.43	2937.37
406.62	2813.32
406.81	2869.50
407.00	2869.50
407.20	2972.48
407.39	2991.20
407.58	2946.73
407.77	2995.89
407.96	3112.91
408.15	3075.46
408.34	3045.04
408.54	3068.44
408.73	3155.04
408.92	3138.66
409.11	3211.22
409.30	3288.45
409.49	3295.47
409.68	3150.36
409.87	3297.81
410.07	3279.09
410.26	3424.20
410.45	3365.69
410.64	3384.41
410.83	3372.71
411.02	3426.54
411.21	3571.66
411.40	3597.40
411.59	3730.81
411.78	3576.34
411.98	3660.60
412.17	3805.71
412.36	3709.75
412.55	3817.41
412.74	3845.50
412.93	3878.27
413.12	3751.88
413.31	3985.93
413.50	3999.98
413.69	3988.27
413.88	4067.85
414.07	4117.00
414.26	4182.54
414.45	4138.07
414.64	4084.23
414.83	4234.03
415.02	4205.94
415.22	4241.05
415.41	4418.93
415.60	4362.76
415.79	4489.15
415.98	4477.44
416.17	4526.60
416.36	4517.23
416.55	4683.41
416.74	4725.54
416.93	4716.18
417.12	4744.27
417.31	4760.65
417.50	4788.74
417.69	4800.44
417.88	4919.81
418.07	4854.27
418.26	4894.06
418.45	5060.24
418.64	5172.58
418.83	5083.64
419.02	5011.09
419.21	5069.60
419.39	5149.18
419.58	4971.30
419.77	5179.61
419.96	5245.14
420.15	5331.74
420.34	5172.58
420.53	5359.83
420.72	5327.06
420.91	5352.81
421.10	5460.47
421.29	5542.39
421.48	5329.40
421.67	5533.03
421.86	5504.94
422.05	5441.75
422.24	5556.43
422.43	5572.82
422.61	5554.09
422.80	5832.62
422.99	5584.52
423.18	5636.01
423.37	5706.23
423.56	5727.29
423.75	5724.95
423.94	5715.59
424.13	5490.90
424.32	5413.66
424.50	5682.82
424.69	5710.91
424.88	5753.04
425.07	5760.06
425.26	5514.30
425.45	5621.97
425.64	5734.31
425.83	5746.02
426.01	5734.31
426.20	5816.23
426.39	5626.65
426.58	5696.86
426.77	5937.94
426.96	5956.66
427.15	5736.65
427.33	5951.98
427.52	6017.52
427.71	6083.05
427.90	5966.03
428.09	6069.01
428.28	6083.05
428.46	6179.01
428.65	6338.17
428.84	6345.19
429.03	6193.06
429.22	6057.31
429.40	6293.70
429.59	6263.27
429.78	6054.97
429.97	6010.50
430.16	6267.95
430.34	6284.34
430.53	6504.35
430.72	6520.73
430.91	6296.04
431.10	6579.25
431.28	6736.06
431.47	6635.42
431.66	6628.40
431.85	6675.21
432.03	6885.86
432.22	6885.86
432.41	6782.87
432.60	6993.52
432.79	6665.85
432.97	6867.13
433.16	7075.44
433.35	6935.01
433.54	7021.61
433.72	7166.72
433.91	7007.56
434.10	7002.88
434.28	7089.48
434.47	7138.63
434.66	7246.30
434.85	7281.41
435.03	7335.24
435.22	7435.88
435.41	7564.61
435.59	7435.88
435.78	7431.20
435.97	7438.22
436.16	7375.03
436.34	7379.71
436.53	7571.63
436.72	7730.79
436.90	7588.02
437.09	7613.76
437.28	7552.91
437.46	7660.57
437.65	7847.82
437.84	7803.35
438.02	7908.67
438.21	7693.34
438.40	7946.12
438.58	8046.76
438.77	8212.94
438.96	8056.12
439.14	8313.58
439.33	8421.25
439.52	8449.33
439.70	8514.87
439.89	8723.18
440.08	8659.98
440.26	8517.21
440.45	8564.02
440.63	8617.85
440.82	8830.84
441.01	8779.35
441.19	8837.86
441.38	8929.14
441.57	9163.20
441.75	9118.73
441.94	9458.10
442.12	9423.00
442.31	9465.13
442.50	9432.36
442.68	9296.61
442.87	9460.45
443.05	9357.46
443.24	9518.96
443.43	9619.60
443.61	9563.43
443.80	9624.28
443.98	9500.23
444.17	9160.86
444.35	9650.03
444.54	9919.19
444.73	9762.37
444.91	9694.50
445.10	9790.46
445.28	9743.65
445.47	9533.00
445.65	9729.61
445.84	9867.70
446.02	9741.31
446.21	9657.05
446.39	9680.46
446.58	9844.29
446.77	9748.33
446.95	9827.91
447.14	9928.55
447.32	9717.90
447.51	10017.49
447.69	9682.80
447.88	10071.33
448.06	10104.09
448.25	10012.81
448.43	9940.26
448.62	9900.47
448.80	9926.21
448.99	10155.58
449.17	10436.45
449.36	10099.41
449.54	10349.85
449.73	10469.22
449.91	10537.09
450.10	10415.38
450.28	10757.10
450.46	10382.62
450.65	10520.71
450.83	10609.65
451.02	10658.80
451.20	10794.55
451.39	10902.22
451.57	10555.82
451.76	10764.12
451.94	10665.82
452.13	11283.72
452.31	11014.56
452.49	10747.74
452.68	10946.69
452.86	10984.13
453.05	11091.80
453.23	11234.57
453.42	10803.91
453.60	10829.66
453.78	11084.78
453.97	11089.46
454.15	11283.72
454.34	11218.19
454.52	11442.88
454.70	11480.33
454.89	11403.09
455.07	11522.46
455.26	11346.92
455.44	11365.64
455.62	11571.61
455.81	11758.85
455.99	11480.33
456.17	11667.57
456.36	12053.76
456.54	12107.59
456.73	12084.19
456.91	12301.86
457.09	12109.93
457.28	12531.23
457.46	12102.91
457.64	12456.33
457.83	12287.81
458.01	12128.66
458.19	12559.31
458.38	12236.32
458.56	12821.45
458.74	12650.60
458.93	12725.49
459.11	12573.36
459.29	12669.32
459.48	12592.08
459.66	12741.88
459.84	12896.35
460.03	12868.27
460.21	12844.86
460.39	13078.91
460.57	12730.17
460.76	13022.74
460.94	13085.94
461.12	13039.12
461.31	13022.74
461.49	12926.78
461.67	12987.63
461.85	13572.77
462.04	13312.97
462.22	14001.08
462.40	13378.50
462.59	13537.66
462.77	13483.83
462.95	13661.71
463.13	13434.68
463.32	13547.02
463.50	13839.59
463.68	14024.49
463.86	13877.04
464.05	13717.88
464.23	13577.45
464.41	13884.06
464.59	13921.51
464.78	14279.61
464.96	13926.19
465.14	13961.30
465.32	14134.50
465.50	14216.41
465.69	14406.00
465.87	13902.78
466.05	14221.10
466.23	14375.57
466.41	14686.86
466.60	14902.19
466.78	14195.35
466.96	14113.43
467.14	14239.82
467.32	14305.35
467.51	14944.32
467.69	14373.23
467.87	14860.06
468.05	14541.75
468.23	14761.76
468.41	14602.60
468.60	14998.15
468.78	15197.10
468.96	14803.89
469.14	15159.65
469.32	14991.13
469.50	15056.67
469.69	15119.86
469.87	15456.90
470.05	15520.09
470.23	15311.78
470.41	15712.02
470.59	15524.77
470.77	15419.45
470.95	15765.85
471.14	16077.14
471.32	15473.28
471.50	16170.76
471.68	16177.78
471.86	16084.16
472.04	16329.92
472.22	16498.44
472.40	16135.65
472.58	16341.62
472.77	16699.72
472.95	16875.26
473.13	17238.05
473.31	16669.30
473.49	16730.15
473.67	16849.52
473.85	17158.47
474.03	17518.91
474.21	17081.23
474.39	17247.41
474.57	17458.06
474.75	17535.29
474.93	18010.42
475.12	17788.07
475.30	17806.80
475.48	17748.28
475.66	18090.00
475.84	18218.73
476.02	18314.69
476.20	17965.95
476.38	18349.80
476.56	18909.19
476.74	18707.90
476.92	18813.23
477.10	19030.90
477.28	19286.01
477.46	18775.78
477.64	19403.04
477.82	19370.27
478.00	19878.17
478.18	20093.50
478.36	20196.48
478.54	20173.08
478.72	20575.65
478.90	20779.28
479.08	20489.05
479.26	20999.29
479.44	21156.10
479.62	21092.91
479.80	21799.75
479.98	21443.99
480.16	21750.60
480.34	21603.14
480.52	22331.05
480.70	22136.79
480.88	21745.92
481.06	21926.14
481.24	22211.68
481.41	22473.82
481.59	22963.00
481.77	23300.03
481.95	23374.93
482.13	23339.82
482.31	23484.94
482.49	23477.91
482.67	23981.13
482.85	24283.06
483.03	24601.37
483.21	24702.01
483.39	24669.25
483.57	24451.58
483.74	25074.16
483.92	25284.81
484.10	25184.16
484.28	25743.55
484.46	25933.14
484.64	26546.36
484.82	26141.44
485.00	26307.62
485.18	27173.62
485.35	27302.35
485.53	27372.57
485.71	27395.97
485.89	28222.18
486.07	27662.79
486.25	27903.87
486.43	28142.60
486.61	28114.52
486.78	28699.65
486.96	28610.71
487.14	29404.15
487.32	29170.10
487.50	29469.69
487.68	29830.13
487.85	29984.60
488.03	30323.98
488.21	30881.03
488.39	30806.13
488.57	30944.22
488.75	30885.71
488.92	31882.78
489.10	31709.58
489.28	31828.95
489.46	32329.82
489.64	32254.92
489.81	32521.74
489.99	32844.74
490.17	32854.10
490.35	33069.43
490.53	33163.05
490.70	34225.65
490.88	33944.79
491.06	34307.57
491.24	34117.99
491.41	34017.35
491.59	34728.87
491.77	35040.16
491.95	35407.62
492.13	35784.45
492.30	35257.83
492.48	35676.79
492.66	35489.54
492.84	35927.22
493.01	36568.53
493.19	36493.63
493.37	37198.13
493.54	36987.49
493.72	37010.89
493.90	37500.06
494.08	37722.41
494.25	38316.91
494.43	38106.26
494.61	38782.68
494.79	38738.21
494.96	38773.31
495.14	38782.68
495.32	39260.15
495.49	39438.03
495.67	39498.88
495.85	40201.04
496.02	39938.90
496.20	40374.24
496.38	40439.78
496.55	40797.88
496.73	41287.05
496.91	40912.56
497.09	41364.29
497.26	41701.32
497.44	41312.80
497.62	41731.75
497.79	42436.25
497.97	42305.18
498.14	42637.54
498.32	42761.59
498.50	42789.67
498.67	43042.45
498.85	43044.79
499.03	43395.87
499.20	43199.27
499.38	43393.53
499.56	44076.97
499.73	44236.12
499.91	44500.61
500.08	44369.54
500.26	43772.70
500.44	44437.41
500.61	44257.19
500.79	44680.83
500.97	45343.20
501.14	45626.40
501.32	45624.06
501.49	45144.25
501.67	45647.47
501.84	45823.01
502.02	45778.54
502.20	46216.22
502.37	46527.51
502.55	46157.70
502.72	46483.04
502.90	46251.33
503.07	46773.27
503.25	46616.45
503.43	47276.48
503.60	47550.32
503.78	47288.18
503.95	47459.04
504.13	47615.86
504.30	47674.37
504.48	47430.96
504.65	47274.14
504.83	48009.07
505.01	48182.27
505.18	48250.14
505.36	48919.54
505.53	48107.37
505.71	48807.19
505.88	48842.30
506.06	48531.01
506.23	49015.50
506.41	48765.06
506.58	49270.62
506.76	49310.41
506.93	49549.14
507.11	49214.44
507.28	49743.41
507.46	49563.18
507.63	49750.43
507.81	50323.86
507.98	49729.36
508.16	49860.43
508.33	50124.91
508.50	50431.52
508.68	50681.96
508.85	50862.18
509.03	50543.87
509.20	50838.78
509.38	51405.19
509.55	51213.26
509.73	51079.85
509.90	51341.99
510.08	51421.57
510.25	51344.33
510.42	51702.43
510.60	51681.37
510.77	51896.70
510.95	52016.07
511.12	51875.63
511.30	51910.74
511.47	52126.07
511.64	52128.41
511.82	52608.22
511.99	52451.41
512.17	52891.43
512.34	52325.02
512.51	52790.78
512.69	52685.46
512.86	53092.71
513.04	53317.40
513.21	53347.83
513.38	53237.83
513.56	53226.12
513.73	52942.92
513.90	53322.08
514.08	52978.03
514.25	53722.32
514.43	53476.56
514.60	53787.85
514.77	53389.96
514.95	53886.15
515.12	53558.48
515.29	53808.92
515.47	54066.38
515.64	54115.53
515.81	54426.82
515.99	54253.62
516.16	54665.55
516.33	54513.42
516.51	54492.35
516.68	54417.46
516.85	54529.80
517.03	54653.85
517.20	54787.26
517.37	54948.76
517.54	54798.96
517.72	54953.44
517.89	55030.68
518.06	54904.29
518.24	54866.84
518.41	55196.85
518.58	55042.38
518.75	55114.94
518.93	55578.36
519.10	55407.50
519.27	55444.95
519.45	55407.50
519.62	55763.26
519.79	55667.30
519.96	55437.93
520.14	55756.24
520.31	56013.70
520.48	56186.90
520.65	56079.24
520.83	56083.92
521.00	56041.79
521.17	56102.64
521.34	56222.01
521.52	56371.80
521.69	56353.08
521.86	56643.30
522.03	56566.07
522.20	56437.34
522.38	56589.47
522.55	56697.14
522.72	56624.58
522.89	56924.17
523.07	56893.74
523.24	56856.29
523.41	56804.80
523.58	56975.66
523.75	57242.48
523.92	56851.61
524.10	57226.10
524.27	57162.90
524.44	57448.45
524.61	57457.81
524.78	57359.51
524.96	57352.49
525.13	57453.13
525.30	57560.79
525.47	57478.88
525.64	57801.87
525.81	57797.19
525.98	57874.43
526.16	57668.46
526.33	57736.34
526.50	57996.13
526.67	57888.47
526.84	57743.36
527.01	57851.02
527.18	58213.80
527.36	58082.73
527.53	58213.80
527.70	58431.47
527.87	58293.38
528.04	58040.60
528.21	58192.74
528.38	58239.55
528.55	58368.28
528.72	58485.31
528.89	58501.69
529.07	58534.46
529.24	58534.46
529.41	58623.40
529.58	58670.21
529.75	58529.78
529.92	58513.39
530.09	58735.74
530.26	58705.32
530.43	58927.67
530.60	58752.13
530.77	58986.18
530.94	58843.41
531.11	58801.28
531.28	58831.71
531.46	59112.57
531.63	59145.34
531.80	59274.07
531.97	59047.04
532.14	59320.88
532.31	59121.93
532.48	59344.28
532.65	59346.62
532.82	59229.60
532.99	59290.45
533.16	59433.22
533.33	59571.32
533.50	59859.20
533.67	59742.17
533.84	59458.97
534.01	59561.95
534.18	59529.19
534.35	59894.31
534.52	59716.43
534.69	59842.82
534.86	60163.47
535.03	59929.42
535.20	59861.54
535.37	60065.17
535.54	60062.83
535.71	59852.18
535.88	60011.34
536.05	60004.31
536.22	60376.46
536.38	60212.62
536.55	60273.48
536.72	60175.17
536.89	60324.97
537.06	60041.76
537.23	60360.08
537.40	60170.49
537.57	60371.78
537.74	60425.61
537.91	60430.29
538.08	60603.49
538.25	60327.31
538.42	60474.76
538.59	60580.09
538.75	60458.38
538.92	60507.53
539.09	60750.94
539.26	60774.35
539.43	60711.16
539.60	60725.20
539.77	60722.86
539.94	60938.19
540.11	60924.14
540.28	60769.67
540.44	60701.79
540.61	60921.80
540.78	60767.33
540.95	61076.28
541.12	60872.65
541.29	61120.75
541.46	60882.02
541.62	61144.16
541.79	61064.58
541.96	60912.44
542.13	60940.53
542.30	61153.52
542.47	61240.12
542.63	61139.47
542.80	61415.66
542.97	61462.47
543.14	61654.39
543.31	61366.51
543.48	61389.91
543.64	61584.18
543.81	61776.10
543.98	61799.50
544.15	61696.52
544.32	62082.71
544.48	61897.81
544.65	61593.54
544.82	61799.50
544.99	61722.27
545.16	62059.30
545.32	61808.87
545.49	62195.06
545.66	62110.80
545.83	62035.90
546.00	62218.46
546.16	61893.13
546.33	62003.13
546.50	61836.95
546.67	61953.98
546.83	61577.15
547.00	62162.29
547.17	62178.67
547.34	62220.80
547.50	62122.50
547.67	62560.18
547.84	62314.42
548.00	62328.47
548.17	62482.94
548.34	62284.00
548.51	62459.54
548.67	62604.65
548.84	62466.56
549.01	62450.17
549.18	62447.83
549.34	62391.66
549.51	62550.82
549.68	62482.94
549.84	62319.10
550.01	62775.51
550.18	62555.50
550.34	62665.50
550.51	62745.08
550.68	62700.61
550.84	62574.22
551.01	62672.52
551.18	62496.98
551.34	62571.88
551.51	62906.58
551.68	62838.70
551.84	62836.36
552.01	62932.32
552.18	63014.24
552.34	62892.54
552.51	63075.10
552.68	62784.87
552.84	62824.66
553.01	62988.50
553.18	62958.07
553.34	63185.10
553.51	63030.63
553.67	63402.77
553.84	63332.56
554.01	63267.02
554.17	63166.38
554.34	63100.84
554.51	63255.32
554.67	63313.83
554.84	63145.31
555.00	63175.74
555.17	63325.53
555.33	63203.83
555.50	63339.58
555.67	63377.03
555.83	63201.49
556.00	63154.68
556.16	63379.37
556.33	63440.22
556.50	63346.60
556.66	63437.88
556.83	63685.98
556.99	63681.30
557.16	63611.08
557.32	63461.29
557.49	63585.33
557.65	63524.48
557.82	63451.92
557.98	63564.27
558.15	63678.96
558.32	63594.70
558.48	63662.57
558.65	63756.19
558.81	63545.54
558.98	63669.59
559.14	63643.85
559.31	63725.77
559.47	63599.38
559.64	63901.31
559.80	63877.90
559.97	63854.50
560.13	63812.37
560.30	63866.20
560.46	63927.05
560.63	63795.98
560.79	63877.90
560.96	63920.03
561.12	63814.71
561.29	63835.77
561.45	64018.33
561.61	63999.61
561.78	63868.54
561.94	64062.80
562.11	64114.29
562.27	64067.48
562.44	63927.05
562.60	64067.48
562.77	63854.50
562.93	64034.72
563.10	64072.17
563.26	63987.91
563.42	64252.39
563.59	64065.14
563.75	64149.40
563.92	64168.13
564.08	64093.23
564.24	64186.85
564.41	64189.19
564.57	64250.05
564.74	64095.57
564.90	64224.30
565.07	64374.09
565.23	64310.90
565.39	64156.42
565.56	64261.75
565.72	64121.32
565.88	64451.33
566.05	64121.32
566.21	64008.97
566.38	64334.31
566.54	64296.86
566.70	64563.68
566.87	64516.87
567.03	64484.10
567.19	64465.38
567.36	64399.84
567.52	64392.82
567.68	64280.47
567.85	64533.25
568.01	64336.65
568.17	64355.37
568.34	64563.68
568.50	64404.52
568.66	64507.50
568.83	64683.04
568.99	64608.15
569.15	64397.50
569.32	64488.78
569.48	64420.90
569.64	64416.22
569.81	64523.89
569.97	64362.39
570.13	64654.96
570.30	64477.08
570.46	64544.95
570.62	64535.59
570.78	64346.01
570.95	64299.20
571.11	64446.65
571.27	64355.37
571.43	64666.66
571.60	64568.36
571.76	64591.76
571.92	64736.88
572.09	64577.72
572.25	64830.50
572.41	64594.10
572.57	64706.45
572.74	64811.77
572.90	64514.53
573.06	64568.36
573.22	64544.95
573.38	64856.24
573.55	64591.76
573.71	64889.01
573.87	64924.12
574.03	64664.32
574.20	64654.96
574.36	64685.39
574.52	64743.90
574.68	64657.30
574.84	64788.37
575.01	64851.56
575.17	64959.23
575.33	64729.86
575.49	64795.39
575.65	64917.10
575.82	64877.31
575.98	64769.64
576.14	64779.01
576.30	64837.52
576.46	64643.26
576.62	64706.45
576.79	64783.69
576.95	64582.40
577.11	64891.35
577.27	64910.08
577.43	64924.12
577.59	64839.86
577.75	64802.41
577.92	64725.17
578.08	64814.12
578.24	64636.23
578.40	64931.14
578.56	64830.50
578.72	64987.31
578.88	65083.28
579.04	65066.89
579.21	64926.46
579.37	64790.71
579.53	64980.29
579.69	64692.41
579.85	64849.22
580.01	64835.18
580.17	64814.12
580.33	64867.95
580.49	65078.60
580.65	65193.28
580.82	64984.97
580.98	64940.50
581.14	64825.82
581.30	64989.66
581.46	64823.48
581.62	64977.95
581.78	64685.39
581.94	65029.44
582.10	64659.64
582.26	64949.87
582.42	65090.30
582.58	65001.36
582.74	64954.55
582.90	65059.87
583.06	65169.88
583.22	64940.50
583.38	64786.03
583.54	64743.90
583.70	64762.62
583.86	64905.40
584.02	64867.95
584.18	65169.88
584.34	65125.41
584.50	65172.22
584.66	64989.66
584.82	65123.07
584.98	64994.34
585.14	64984.97
585.30	64788.37
585.46	65006.04
585.62	64905.40
585.78	65137.11
585.94	64935.82
586.10	65006.04
586.26	64914.76
586.42	65134.77
586.58	65272.86
586.74	65087.96
586.90	64928.80
587.06	64844.54
587.22	65111.36
587.38	64935.82
587.54	65195.62
587.70	65162.85
587.86	65216.69
588.02	65069.23
588.18	65415.63
588.34	65188.60
588.49	65094.98
