SpectraSuite Data File
++++++++++++++++++++++++++++++++++++
Date: Fri Oct 04 11:48:29 GMT-05:00 2013
User: price-jones
Dark Spectrum Present: No
Reference Spectrum Present: No
Number of Sampled Component Spectra: 1
Spectrometers: USB2+H05261
Integration Time (usec): 100000 (USB2+H05261)
Spectra Averaged: 1 (USB2+H05261)
Boxcar Smoothing: 0 (USB2+H05261)
Correct for Electrical Dark: No (USB2+H05261)
Strobe/Lamp Enabled: No (USB2+H05261)
Correct for Detector Non-linearity: No (USB2+H05261)
Correct for Stray Light: No (USB2+H05261)
Number of Pixels in Processed Spectrum: 2048
>>>>>Begin Processed Spectral Data<<<<<
365.73	32.77
365.92	32.77
366.12	32.77
366.32	0.00
366.52	0.00
366.72	0.00
366.91	0.00
367.11	0.00
367.31	0.00
367.51	0.00
367.70	0.00
367.90	0.00
368.10	0.00
368.30	25.75
368.49	0.00
368.69	4.68
368.89	0.00
369.09	0.00
369.28	0.00
369.48	0.00
369.68	0.00
369.87	0.00
370.07	49.15
370.27	0.00
370.47	154.48
370.66	348.74
370.86	409.59
371.06	430.66
371.25	535.98
371.45	507.90
371.65	524.28
371.84	435.34
372.04	477.47
372.24	524.28
372.44	543.00
372.63	552.37
372.83	538.32
373.03	557.05
373.22	543.00
373.42	575.77
373.62	566.41
373.81	641.31
374.01	603.86
374.21	622.58
374.40	557.05
374.60	660.03
374.79	587.47
374.99	575.77
375.19	589.82
375.38	660.03
375.58	667.05
375.78	725.57
375.97	653.01
376.17	706.84
376.37	648.33
376.56	828.55
376.76	664.71
376.95	645.99
377.15	763.01
377.35	772.38
377.54	667.05
377.74	660.03
377.93	716.20
378.13	741.95
378.33	737.27
378.52	713.86
378.72	741.95
378.91	734.93
379.11	835.57
379.31	744.29
379.50	751.31
379.70	779.40
379.89	873.02
380.09	816.85
380.28	753.65
380.48	765.36
380.68	844.93
380.87	795.78
381.07	901.11
381.26	863.66
381.46	847.27
381.65	835.57
381.85	837.91
382.04	774.72
382.24	901.11
382.43	821.53
382.63	744.29
382.83	828.55
383.02	936.21
383.22	971.32
383.41	910.47
383.61	781.74
383.80	954.94
384.00	936.21
384.19	917.49
384.39	912.81
384.58	954.94
384.78	994.73
384.97	990.05
385.17	952.60
385.36	1022.81
385.56	971.32
385.75	947.92
385.95	1001.75
386.14	985.37
386.34	1053.24
386.53	945.58
386.72	952.60
386.92	1018.13
387.11	1013.45
387.31	1081.33
387.50	992.39
387.70	1006.43
387.89	1032.18
388.09	999.41
388.28	1135.16
388.48	1027.50
388.67	1111.75
388.86	1118.78
389.06	1160.91
389.25	1203.04
389.45	1135.16
389.64	1135.16
389.84	1196.01
390.03	1240.48
390.22	1238.14
390.42	1263.89
390.61	1179.63
390.81	1149.20
391.00	1249.85
391.19	1203.04
391.39	1212.40
391.58	1308.36
391.78	1315.38
391.97	1331.76
392.16	1252.19
392.36	1362.19
392.55	1308.36
392.75	1280.27
392.94	1390.28
393.13	1226.44
393.33	1383.26
393.52	1350.49
393.71	1355.17
393.91	1406.66
394.10	1409.00
394.29	1390.28
394.49	1327.08
394.68	1500.28
394.88	1432.41
395.07	1432.41
395.26	1451.13
395.46	1502.62
395.65	1509.65
395.84	1462.83
396.04	1593.90
396.23	1551.78
396.42	1561.14
396.62	1678.16
396.81	1593.90
397.00	1530.71
397.19	1577.52
397.39	1556.46
397.58	1568.16
397.77	1575.18
397.97	1537.73
398.16	1720.29
398.35	1589.22
398.55	1652.42
398.74	1664.12
398.93	1757.74
399.12	1783.49
399.32	1689.87
399.51	1715.61
399.70	1886.47
399.90	1818.60
400.09	1877.11
400.28	1830.30
400.47	1860.73
400.67	1966.05
400.86	1933.28
401.05	1816.26
401.24	1867.75
401.44	1942.64
401.63	1905.20
401.82	1842.00
402.01	1877.11
402.21	1930.94
402.40	1984.77
402.59	1989.46
402.78	1961.37
402.97	1996.48
403.17	2139.25
403.36	2008.18
403.55	2031.58
403.74	2125.21
403.93	2218.83
404.13	2101.80
404.32	2181.38
404.51	2129.89
404.70	2303.09
404.89	2209.47
405.09	2298.41
405.28	2155.63
405.47	2230.53
405.66	2291.38
405.85	2424.80
406.05	2230.53
406.24	2380.32
406.43	2396.71
406.62	2457.56
406.81	2523.10
407.00	2401.39
407.20	2328.83
407.39	2338.20
407.58	2356.92
407.77	2553.52
407.96	2691.62
408.15	2518.42
408.34	2429.48
408.54	2562.89
408.73	2562.89
408.92	2626.08
409.11	2736.09
409.30	2708.00
409.49	2724.38
409.68	2729.06
409.87	2818.00
410.07	2920.99
410.26	2836.73
410.45	2881.20
410.64	2874.18
410.83	2899.92
411.02	2834.39
411.21	2993.55
411.40	2860.13
411.59	2977.16
411.78	2937.37
411.98	2932.69
412.17	3026.31
412.36	2972.48
412.55	3045.04
412.74	3211.22
412.93	3258.03
413.12	3136.32
413.31	3332.92
413.50	3171.43
413.69	3400.80
413.88	3499.10
414.07	3370.37
414.26	3375.05
414.45	3478.04
414.64	3639.53
414.83	3405.48
415.02	3566.98
415.22	3648.90
415.41	3581.02
415.60	3758.90
415.79	3653.58
415.98	3730.81
416.17	3801.03
416.36	3667.62
416.55	3730.81
416.74	3850.18
416.93	3775.28
417.12	3850.18
417.31	3868.91
417.50	3885.29
417.69	3995.29
417.88	3960.19
418.07	3882.95
418.26	4028.06
418.45	4077.21
418.64	4091.26
418.83	4175.52
419.02	4168.49
419.21	4135.73
419.39	4126.36
419.58	4117.00
419.77	4156.79
419.96	4358.08
420.15	4482.13
420.34	4231.69
420.53	4278.50
420.72	4418.93
420.91	4477.44
421.10	4278.50
421.29	4599.15
421.48	4491.49
421.67	4463.40
421.86	4390.84
422.05	4353.40
422.24	4461.06
422.43	4585.11
422.61	4578.09
422.80	4732.56
422.99	4636.60
423.18	4599.15
423.37	4681.07
423.56	4648.30
423.75	4514.89
423.94	4610.86
424.13	4379.14
424.32	4393.19
424.50	4664.69
424.69	4847.25
424.88	4777.03
425.07	4702.14
425.26	4599.15
425.45	4685.75
425.64	4683.41
425.83	4699.80
426.01	4807.46
426.20	4615.54
426.39	4741.93
426.58	4896.40
426.77	4765.33
426.96	4765.33
427.15	4608.51
427.33	4826.18
427.52	4882.36
427.71	4945.55
427.90	4943.21
428.09	5060.24
428.28	5043.85
428.46	5055.56
428.65	5048.54
428.84	5111.73
429.03	5153.86
429.22	5074.28
429.40	5071.94
429.59	5238.12
429.78	4961.94
429.97	5034.49
430.16	5149.18
430.34	5322.38
430.53	5327.06
430.72	5188.97
430.91	5233.44
431.10	5406.64
431.28	5497.92
431.47	5493.24
431.66	5621.97
431.85	5446.43
432.03	5645.37
432.22	5666.44
432.41	5694.52
432.60	5685.16
432.79	5621.97
432.97	5687.50
433.16	5661.76
433.35	5652.39
433.54	5703.89
433.72	5858.36
433.91	5713.25
434.10	5678.14
434.28	5902.83
434.47	5860.70
434.66	5841.98
434.85	5921.56
435.03	5909.85
435.22	5900.49
435.41	6193.06
435.59	6033.90
435.78	6127.52
435.97	6120.50
436.16	6036.24
436.34	5949.64
436.53	6174.33
436.72	6183.70
436.90	6001.13
437.09	6272.64
437.28	6143.91
437.46	6345.19
437.65	6190.72
437.84	6492.65
438.02	6347.53
438.21	6462.22
438.40	6373.28
438.58	6602.65
438.77	6583.93
438.96	6672.87
439.14	6803.94
439.33	6719.68
439.52	6871.81
439.70	6841.39
439.89	6885.86
440.08	7131.61
440.26	6942.03
440.45	6988.84
440.63	7089.48
440.82	7166.72
441.01	7045.01
441.19	7185.44
441.38	7236.94
441.57	7377.37
441.75	7527.16
441.94	7501.42
442.12	7522.48
442.31	7716.75
442.50	7428.86
442.68	7393.75
442.87	7569.29
443.05	7737.81
443.24	7620.78
443.43	7866.54
443.61	7845.48
443.80	8112.30
443.98	7817.39
444.17	7573.97
444.35	7805.69
444.54	8037.40
444.73	7960.16
444.91	7803.35
445.10	7733.13
445.28	7988.25
445.47	7761.22
445.65	8013.99
445.84	8060.80
446.02	7925.05
446.21	7901.65
446.39	7894.63
446.58	7943.78
446.77	7918.03
446.95	7882.92
447.14	8044.42
447.32	7990.59
447.51	8203.58
447.69	8049.10
447.88	8126.34
448.06	8159.11
448.25	8074.85
448.43	8140.38
448.62	8112.30
448.80	8170.81
448.99	8351.03
449.17	8280.82
449.36	8147.40
449.54	8578.06
449.73	8601.47
449.91	8748.92
450.10	8652.96
450.28	8407.20
450.46	8709.13
450.65	8566.36
450.83	8669.34
451.02	8594.45
451.20	8645.94
451.39	8760.63
451.57	8777.01
451.76	8798.07
451.94	8809.78
452.13	8943.19
452.31	8917.44
452.49	8875.31
452.68	9062.55
452.86	8858.93
453.05	8798.07
453.23	9107.02
453.42	8922.12
453.60	8982.98
453.78	9095.32
453.97	8833.18
454.15	9287.25
454.34	8982.98
454.52	9167.88
454.70	9177.24
454.89	9217.03
455.07	9282.56
455.26	9334.06
455.44	9469.81
455.62	9408.95
455.81	9399.59
455.99	9614.92
456.17	9577.47
456.36	9640.67
456.54	9792.80
456.73	9884.08
456.91	10148.56
457.09	9827.91
457.28	10139.20
457.46	9790.46
457.64	10195.37
457.83	10061.96
458.01	9753.01
458.19	10321.76
458.38	9858.34
458.56	10045.58
458.74	10225.80
458.93	10279.63
459.11	10281.97
459.29	10174.31
459.48	10387.30
459.66	10251.55
459.84	10431.77
460.03	10532.41
460.21	10366.23
460.39	10459.85
460.57	10490.28
460.76	10679.86
460.94	10565.18
461.12	10537.09
461.31	10567.52
461.49	10548.79
461.67	10745.40
461.85	11094.14
462.04	10995.84
462.22	11400.75
462.40	11044.99
462.59	11229.89
462.77	10974.77
462.95	11215.85
463.13	10862.43
463.32	11075.42
463.50	10995.84
463.68	11405.43
463.86	11307.13
464.05	11286.06
464.23	11138.61
464.41	11482.67
464.59	11201.80
464.78	11674.59
464.96	11220.53
465.14	11363.30
465.32	11480.33
465.50	11414.79
465.69	11538.84
465.87	11501.39
466.05	11611.40
466.23	11634.80
466.41	11702.68
466.60	12013.97
466.78	11667.57
466.96	11620.76
467.14	11646.51
467.32	11555.22
467.51	11955.46
467.69	11716.72
467.87	11651.19
468.05	11960.14
468.23	11789.28
468.41	11960.14
468.60	12112.27
468.78	12311.22
468.96	12025.67
469.14	12451.65
469.32	12241.00
469.50	12020.99
469.69	12334.62
469.87	12538.25
470.05	12554.63
470.23	12414.20
470.41	12503.14
470.59	12919.76
470.77	12573.36
470.95	12842.52
471.14	12886.99
471.32	12503.14
471.50	13027.42
471.68	13158.49
471.86	13399.57
472.04	13149.13
472.22	13245.09
472.40	13177.22
472.58	13390.20
472.77	13385.52
472.95	13650.00
473.13	13956.61
473.31	13493.19
473.49	13493.19
473.67	13570.43
473.85	13722.56
474.03	13884.06
474.21	14090.02
474.39	13951.93
474.57	14150.88
474.75	14246.84
474.93	14595.58
475.12	14265.57
475.30	14609.62
475.48	14373.23
475.66	14490.26
475.84	14548.77
476.02	14817.93
476.20	14941.98
476.38	15103.48
476.56	15215.82
476.74	15257.95
476.92	15454.56
477.10	15129.22
477.28	15426.47
477.46	15447.54
477.64	15646.48
477.82	15803.30
478.00	16100.55
478.18	16617.80
478.36	16292.47
478.54	16697.38
478.72	16470.35
478.90	16683.34
479.08	16931.44
479.26	16772.28
479.44	17174.85
479.62	17312.94
479.80	17345.71
479.98	17291.88
480.16	17376.14
480.34	17731.90
480.52	17748.28
480.70	18061.91
480.88	17554.02
481.06	18148.51
481.24	18122.77
481.41	18532.36
481.59	19019.19
481.77	18939.62
481.95	18799.18
482.13	18991.11
482.31	18618.96
482.49	19393.68
482.67	19419.42
482.85	19751.78
483.03	19873.49
483.21	20102.86
483.39	20283.08
483.57	20166.06
483.74	20430.54
483.92	20676.29
484.10	20812.04
484.28	21130.36
484.46	21057.80
484.64	21556.33
484.82	21109.29
485.00	21518.89
485.18	21844.22
485.35	22197.64
485.53	22106.36
485.71	22331.05
485.89	22712.56
486.07	22480.85
486.25	22745.33
486.43	22625.96
486.61	23178.33
486.78	23442.81
486.96	23470.89
487.14	24004.53
487.32	23971.77
487.50	24077.09
487.68	24161.35
487.85	24556.90
488.03	24800.32
488.21	24924.36
488.39	25165.44
488.57	25116.29
488.75	25305.87
488.92	25663.97
489.10	25757.60
489.28	26052.50
489.46	26127.40
489.64	26251.45
489.81	26501.89
489.99	26782.75
490.17	26972.33
490.35	27180.64
490.53	27335.12
490.70	27613.64
490.88	27538.74
491.06	27740.03
491.24	27861.74
491.41	27922.59
491.59	28329.84
491.77	28458.57
491.95	28966.47
492.13	28863.49
492.30	28634.11
492.48	29048.39
492.66	29256.70
492.84	29537.56
493.01	29305.85
493.19	29752.89
493.37	30000.99
493.54	30319.30
493.72	30312.28
493.90	30543.99
494.08	30661.02
494.25	31440.42
494.43	31442.76
494.61	31625.32
494.79	31536.38
494.96	31725.96
495.14	31426.37
495.32	32355.57
495.49	31985.76
495.67	32463.23
495.85	32758.14
496.02	32973.47
496.20	32940.70
496.38	32779.20
496.55	33111.56
496.73	33610.09
496.91	33890.96
497.09	33745.84
497.26	33912.02
497.44	34064.16
497.62	33949.47
497.79	34438.64
497.97	34731.21
498.14	35021.44
498.32	34958.24
498.50	35143.14
498.67	35648.70
498.85	35213.36
499.03	35370.18
499.20	35512.95
499.38	35494.22
499.56	35901.48
499.73	36306.39
499.91	36488.95
500.08	36481.93
500.26	36357.88
500.44	36528.74
500.61	36240.86
500.79	36966.42
500.97	37319.84
501.14	37404.10
501.32	37617.09
501.49	37603.05
501.67	37574.96
501.84	37500.06
502.02	37603.05
502.20	38466.70
502.37	38677.35
502.55	38073.49
502.72	38115.62
502.90	38557.99
503.07	38234.99
503.25	38675.01
503.43	38504.15
503.60	39332.70
503.78	39264.83
503.95	39147.80
504.13	39288.23
504.30	39442.71
504.48	39590.16
504.65	39751.66
504.83	39871.03
505.01	40381.26
505.18	39770.38
505.36	40397.65
505.53	40259.55
505.71	40545.10
505.88	40318.07
506.06	40271.26
506.23	40795.54
506.41	40704.26
506.58	40980.44
506.76	40896.18
506.93	41296.41
507.11	40959.38
507.28	41560.89
507.46	42075.81
507.63	41907.29
507.81	42314.55
507.98	41661.54
508.16	41792.61
508.33	42164.75
508.50	42031.34
508.68	42459.66
508.85	42773.29
509.03	42733.50
509.20	42838.83
509.38	43416.94
509.55	43320.98
509.73	43236.72
509.90	43110.33
510.08	43374.81
510.25	43356.08
510.42	43566.73
510.60	44105.06
510.77	43686.10
510.95	44584.86
511.12	44088.67
511.30	44116.76
511.47	44472.52
511.64	44619.97
511.82	44708.91
511.99	44542.74
512.17	44973.39
512.34	44708.91
512.51	45155.96
512.69	45764.49
512.86	45235.53
513.04	45741.09
513.21	45755.13
513.38	45776.20
513.56	46185.79
513.73	45874.50
513.90	45776.20
514.08	45893.22
514.25	46375.37
514.43	46330.90
514.60	46471.34
514.77	46127.28
514.95	47096.26
515.12	46277.07
515.29	46639.86
515.47	46869.23
515.64	46791.99
515.81	46855.18
515.99	47316.27
516.16	47295.21
516.33	47269.46
516.51	47505.85
516.68	47306.91
516.85	47526.92
517.03	47641.60
517.20	48039.50
517.37	47976.30
517.54	47842.89
517.72	48065.24
517.89	48053.54
518.06	48020.77
518.24	47803.10
518.41	48083.97
518.58	48521.65
518.75	48147.16
518.93	48383.55
519.10	48552.07
519.27	48619.95
519.45	48605.91
519.62	48868.05
519.79	48816.55
519.96	48999.12
520.14	49368.92
520.31	48971.03
520.48	49462.54
520.65	49490.63
520.83	49516.37
521.00	49357.22
521.17	49635.74
521.34	49647.44
521.52	49673.19
521.69	49895.54
521.86	50384.71
522.03	50085.12
522.20	50106.19
522.38	50307.47
522.55	50504.08
522.72	50342.58
522.89	50370.67
523.07	50773.24
523.24	50649.19
523.41	50686.64
523.58	50473.65
523.75	50628.13
523.92	50373.01
524.10	50602.38
524.27	50665.58
524.44	51112.62
524.61	51522.21
524.78	51356.03
524.96	51213.26
525.13	51571.36
525.30	51187.52
525.47	51215.60
525.64	51208.58
525.81	51835.84
525.98	51615.83
526.16	51657.96
526.33	51402.85
526.50	51760.95
526.67	52112.03
526.84	51995.00
527.01	52037.13
527.18	52275.87
527.36	52322.68
527.53	52470.13
527.70	52563.75
527.87	52528.64
528.04	52376.51
528.21	52207.99
528.38	52376.51
528.55	52678.44
528.72	52254.80
528.89	52830.57
529.07	52521.62
529.24	52533.32
529.41	52849.30
529.58	52720.57
529.75	52732.27
529.92	52790.78
530.09	52865.68
530.26	53055.26
530.43	53158.25
530.60	53106.76
530.77	52893.77
530.94	53205.06
531.11	53052.92
531.28	53312.72
531.46	53284.64
531.63	53528.05
531.80	53364.21
531.97	53923.60
532.14	53481.24
532.31	53556.14
532.48	53766.79
532.65	53684.87
532.82	53310.38
532.99	53970.41
533.16	53954.03
533.33	54078.08
533.50	54110.85
533.67	54167.02
533.84	54040.63
534.01	53902.54
534.18	53712.95
534.35	54323.83
534.52	53996.16
534.69	54204.47
534.86	54707.68
535.03	54038.29
535.20	54700.66
535.37	54490.01
535.54	54574.27
535.71	54387.03
535.88	54351.92
536.05	54808.32
536.22	54735.77
536.38	54784.92
536.55	54766.20
536.72	54845.77
536.89	54782.58
537.06	54923.01
537.23	55025.99
537.40	54707.68
537.57	54635.13
537.74	54681.94
537.91	55332.60
538.08	55051.74
538.25	55119.62
538.42	54997.91
538.59	55147.70
538.75	54766.20
538.92	55107.91
539.09	55398.14
539.26	55304.52
539.43	55276.43
539.60	55496.44
539.77	55320.90
539.94	55828.80
540.11	55524.53
540.28	55370.05
540.44	55466.02
540.61	55590.06
540.78	55540.91
540.95	55891.99
541.12	55643.90
541.29	55852.20
541.46	55915.40
541.62	55526.87
541.79	55908.38
541.96	55695.39
542.13	55793.69
542.30	55887.31
542.47	56116.68
542.63	55873.27
542.80	56058.17
542.97	56268.82
543.14	56088.60
543.31	55952.85
543.48	56210.31
543.64	56442.02
543.81	56498.19
543.98	56519.26
544.15	56580.11
544.32	56650.33
544.48	56685.43
544.65	56701.82
544.82	56711.18
544.99	56360.10
545.16	56732.25
545.32	56828.21
545.49	56989.70
545.66	56891.40
545.83	57155.88
546.00	56924.17
546.16	57045.88
546.33	56757.99
546.50	56769.69
546.67	56849.27
546.83	56687.78
547.00	56800.12
547.17	57057.58
547.34	56804.80
547.50	57013.11
547.67	57212.06
547.84	57214.40
548.00	57275.25
548.17	57406.32
548.34	57228.44
548.51	57385.25
548.67	57609.95
548.84	57254.18
549.01	57443.77
549.18	57324.40
549.34	57270.57
549.51	57364.19
549.68	57296.31
549.84	57623.99
550.01	57689.52
550.18	57209.71
550.34	57574.84
550.51	57544.41
550.68	57469.51
550.84	57516.32
551.01	57574.84
551.18	57616.97
551.34	57570.16
551.51	57733.99
551.68	57776.12
551.84	57989.11
552.01	57509.30
552.18	57792.51
552.34	57832.30
552.51	57867.40
552.68	57851.02
552.84	57928.26
553.01	57946.98
553.18	57862.72
553.34	58181.04
553.51	57914.22
553.67	58396.37
553.84	58347.21
554.01	58162.31
554.17	58136.57
554.34	58216.14
554.51	58197.42
554.67	58145.93
554.84	58284.02
555.00	58564.88
555.17	58438.50
555.33	58389.34
555.50	58171.67
555.67	58394.03
555.83	58438.50
556.00	58497.01
556.16	58635.10
556.33	58394.03
556.50	58585.95
556.66	58398.71
556.83	58391.68
556.99	58761.49
557.16	58560.20
557.32	58632.76
557.49	58731.06
557.65	58403.39
557.82	58679.57
557.98	58782.55
558.15	58747.45
558.32	58801.28
558.48	58665.53
558.65	58768.51
558.81	58953.41
558.98	58834.05
559.14	58983.84
559.31	58796.60
559.47	58794.26
559.64	58775.53
559.80	58939.37
559.97	59082.14
560.13	58834.05
560.30	59093.85
560.46	58969.80
560.63	58967.46
560.79	59035.33
560.96	59238.96
561.12	59091.51
561.29	58857.45
561.45	59157.04
561.61	59096.19
561.78	59154.70
561.94	59173.42
562.11	59147.68
562.27	59119.59
562.44	59042.35
562.60	59175.76
562.77	59231.94
562.93	59278.75
563.10	59311.52
563.26	59187.47
563.42	59496.42
563.59	59072.78
563.75	59440.24
563.92	59363.01
564.08	59360.67
564.24	59297.47
564.41	59131.29
564.57	59145.34
564.74	59274.07
564.90	59238.96
565.07	59384.07
565.23	59456.63
565.39	59470.67
565.56	59309.18
565.72	59138.32
565.88	59440.24
566.05	59292.79
566.21	59318.54
566.38	59353.65
566.54	59187.47
566.70	59840.48
566.87	59704.73
567.03	59505.78
567.19	59746.86
567.36	59564.29
567.52	59487.06
567.68	59629.83
567.85	59150.02
568.01	59470.67
568.17	59433.22
568.34	59206.19
568.50	59702.38
568.66	59576.00
568.83	59611.10
568.99	59587.70
569.15	59522.16
569.32	59763.24
569.48	59498.76
569.64	59842.82
569.81	59559.61
569.97	59796.01
570.13	59887.29
570.30	59683.66
570.46	59517.48
570.62	59749.20
570.78	59737.49
570.95	59604.08
571.11	59686.00
571.27	59594.72
571.43	59494.08
571.60	59948.14
571.76	59826.43
571.92	59828.77
572.09	60032.40
572.25	59868.56
572.41	59758.56
572.57	59676.64
572.74	59810.05
572.90	59517.48
573.06	59966.87
573.22	59732.81
573.38	59882.61
573.55	59852.18
573.71	60207.94
573.87	60102.62
574.03	59805.37
574.20	60060.49
574.36	59786.64
574.52	59634.51
574.68	59957.50
574.84	59952.82
575.01	59994.95
575.17	60044.10
575.33	59873.24
575.49	59936.44
575.65	60093.25
575.82	60013.68
575.98	59910.69
576.14	60151.77
576.30	60079.21
576.46	59875.58
576.62	59889.63
576.79	60020.70
576.95	59870.90
577.11	59980.91
577.27	59990.27
577.43	59943.46
577.59	60296.88
577.75	60093.25
577.92	59838.14
578.08	59791.33
578.24	59962.18
578.40	59863.88
578.56	59896.65
578.72	59891.97
578.88	60144.75
579.04	60081.55
579.21	60081.55
579.37	60037.08
579.53	60186.88
579.69	59821.75
579.85	59985.59
580.01	60193.90
580.17	60037.08
580.33	59938.78
580.49	60207.94
580.65	60243.05
580.82	60296.88
580.98	60149.43
581.14	59910.69
581.30	60186.88
581.46	60034.74
581.62	59992.61
581.78	59700.04
581.94	60362.42
582.10	60198.58
582.26	60355.39
582.42	60109.64
582.58	60243.05
582.74	60453.70
582.90	60453.70
583.06	60254.75
583.22	60135.38
583.38	60149.43
583.54	60254.75
583.70	60069.85
583.86	60116.66
584.02	60182.19
584.18	60374.12
584.34	60346.03
584.50	60271.14
584.66	60126.02
584.82	60217.30
584.98	60264.11
585.14	60193.90
585.30	60198.58
585.46	60280.50
585.62	60046.44
585.78	60224.32
585.94	60039.42
586.10	60374.12
586.26	60074.53
586.42	60324.97
586.58	60165.81
586.74	60177.51
586.90	60095.60
587.06	60233.69
587.22	60425.61
587.38	60128.36
587.54	60388.16
587.70	60463.06
587.86	60470.08
588.02	60285.18
588.18	60486.46
588.34	60479.44
588.49	60355.39
588.65	60505.19
588.81	60327.31
588.97	60360.08
589.13	60348.37
