SpectraSuite Data File
++++++++++++++++++++++++++++++++++++
Date: Fri Oct 04 11:48:33 GMT-05:00 2013
User: price-jones
Dark Spectrum Present: No
Reference Spectrum Present: No
Number of Sampled Component Spectra: 1
Spectrometers: USB2+H05261
Integration Time (usec): 100000 (USB2+H05261)
Spectra Averaged: 1 (USB2+H05261)
Boxcar Smoothing: 0 (USB2+H05261)
Correct for Electrical Dark: No (USB2+H05261)
Strobe/Lamp Enabled: No (USB2+H05261)
Correct for Detector Non-linearity: No (USB2+H05261)
Correct for Stray Light: No (USB2+H05261)
Number of Pixels in Processed Spectrum: 2048
>>>>>Begin Processed Spectral Data<<<<<
365.73	42.13
365.92	42.13
366.12	42.13
366.32	0.00
366.52	0.00
366.72	18.72
366.91	0.00
367.11	0.00
367.31	0.00
367.51	0.00
367.70	0.00
367.90	0.00
368.10	0.00
368.30	0.00
368.49	0.00
368.69	0.00
368.89	0.00
369.09	0.00
369.28	0.00
369.48	0.00
369.68	9.36
369.87	46.81
370.07	37.45
370.27	18.72
370.47	198.95
370.66	526.62
370.86	615.56
371.06	671.73
371.25	711.52
371.45	648.33
371.65	718.54
371.84	725.57
372.04	690.46
372.24	744.29
372.44	697.48
372.63	734.93
372.83	751.31
373.03	777.06
373.22	823.87
373.42	856.64
373.62	805.14
373.81	826.21
374.01	905.79
374.21	826.21
374.40	807.48
374.60	917.49
374.79	908.13
374.99	873.02
375.19	887.06
375.38	936.21
375.58	889.40
375.78	1022.81
375.97	954.94
376.17	983.02
376.37	992.39
376.56	917.49
376.76	1029.84
376.95	1050.90
377.15	964.30
377.35	1032.18
377.54	999.41
377.74	987.71
377.93	980.68
378.13	1057.92
378.33	1027.50
378.52	1029.84
378.72	983.02
378.91	1008.77
379.11	1048.56
379.31	1109.41
379.50	1097.71
379.70	1107.07
379.89	1158.57
380.09	1109.41
380.28	1093.03
380.48	1181.97
380.68	1196.01
380.87	1165.59
381.07	1235.80
381.26	1235.80
381.46	1210.06
381.65	1256.87
381.85	1205.38
382.04	1261.55
382.24	1313.04
382.43	1259.21
382.63	1334.11
382.83	1299.00
383.02	1331.76
383.22	1270.91
383.41	1338.79
383.61	1287.29
383.80	1320.06
384.00	1331.76
384.19	1324.74
384.39	1327.08
384.58	1493.26
384.78	1357.51
384.97	1308.36
385.17	1376.24
385.36	1364.53
385.56	1455.81
385.75	1394.96
385.95	1437.09
386.14	1530.71
386.34	1488.58
386.53	1537.73
386.72	1397.30
386.92	1612.63
387.11	1460.49
387.31	1526.03
387.50	1640.72
387.70	1626.67
387.89	1645.40
388.09	1600.93
388.28	1568.16
388.48	1582.20
388.67	1607.95
388.86	1664.12
389.06	1664.12
389.25	1713.27
389.45	1682.85
389.64	1685.19
389.84	1713.27
390.03	1729.66
390.22	1708.59
390.42	1713.27
390.61	1706.25
390.81	1722.63
391.00	1884.13
391.19	1771.79
391.39	1867.75
391.58	1877.11
391.78	1860.73
391.97	1839.66
392.16	1856.04
392.36	1961.37
392.55	1923.92
392.75	1952.01
392.94	1881.79
393.13	2008.18
393.33	2069.03
393.52	1921.58
393.71	1996.48
393.91	2043.29
394.10	1968.39
394.29	2024.56
394.49	2071.37
394.68	2141.59
394.88	2155.63
395.07	2167.34
395.26	2132.23
395.46	2134.57
395.65	2310.11
395.84	2188.40
396.04	2298.41
396.23	2216.49
396.42	2190.74
396.62	2382.67
396.81	2312.45
397.00	2244.57
397.19	2436.50
397.39	2382.67
397.58	2307.77
397.77	2319.47
397.97	2324.15
398.16	2321.81
398.35	2471.61
398.55	2485.65
398.74	2567.57
398.93	2595.65
399.12	2623.74
399.32	2492.67
399.51	2502.03
399.70	2525.44
399.90	2691.62
400.09	2700.98
400.28	2698.64
400.47	2616.72
400.67	2658.85
400.86	2787.58
401.05	2808.64
401.24	2729.06
401.44	2949.08
401.63	2888.22
401.82	2918.65
402.01	2876.52
402.21	2930.35
402.40	2843.75
402.59	2869.50
402.78	2953.76
402.97	2974.82
403.17	3082.49
403.36	3077.80
403.55	3021.63
403.74	3155.04
403.93	3112.91
404.13	3204.19
404.32	3166.74
404.51	3204.19
404.70	3227.60
404.89	3136.32
405.09	3187.81
405.28	3206.53
405.47	3274.41
405.66	3293.13
405.85	3358.67
406.05	3344.63
406.24	3265.05
406.43	3260.37
406.62	3447.61
406.81	3529.53
407.00	3524.85
407.20	3431.23
407.39	3489.74
407.58	3630.17
407.77	3595.06
407.96	3712.09
408.15	3688.68
408.34	3639.53
408.54	3777.62
408.73	3641.87
408.92	3655.92
409.11	3885.29
409.30	3948.48
409.49	3754.22
409.68	3911.04
409.87	3885.29
410.07	4051.47
410.26	3913.38
410.45	4175.52
410.64	4198.92
410.83	4124.02
411.02	4280.84
411.21	4311.27
411.40	4142.75
411.59	4337.01
411.78	4386.16
411.98	4381.48
412.17	4449.36
412.36	4421.27
412.55	4411.91
412.74	4461.06
412.93	4498.51
413.12	4468.08
413.31	4760.65
413.50	4676.39
413.69	4882.36
413.88	4945.55
414.07	4917.47
414.26	4898.74
414.45	4947.89
414.64	5032.15
414.83	4943.21
415.02	5165.56
415.22	5107.05
415.41	5327.06
415.60	5343.44
415.79	5221.74
415.98	5334.08
416.17	5266.21
416.36	5401.96
416.55	5427.70
416.74	5603.24
416.93	5413.66
417.12	5591.54
417.31	5710.91
417.50	5657.07
417.69	5944.96
417.88	5678.14
418.07	5755.38
418.26	5802.19
418.45	5788.14
418.64	6115.82
418.83	6031.56
419.02	5865.38
419.21	6038.58
419.39	6225.82
419.58	5984.75
419.77	6235.19
419.96	6087.73
420.15	6228.17
420.34	6057.31
420.53	6319.45
420.72	6429.45
420.91	6429.45
421.10	6251.57
421.29	6403.71
421.48	6333.49
421.67	6487.96
421.86	6356.90
422.05	6487.96
422.24	6492.65
422.43	6328.81
422.61	6588.61
422.80	6846.07
422.99	6897.56
423.18	6609.67
423.37	6743.08
423.56	6544.14
423.75	6656.48
423.94	6534.78
424.13	6209.44
424.32	6523.07
424.50	6925.65
424.69	6817.98
424.88	6827.34
425.07	6712.66
425.26	6579.25
425.45	6644.78
425.64	6663.51
425.83	6707.98
426.01	6878.83
426.20	6740.74
426.39	6794.58
426.58	6827.34
426.77	6789.89
426.96	6913.94
427.15	6836.70
427.33	7136.29
427.52	7023.95
427.71	7096.50
427.90	7101.19
428.09	7166.72
428.28	7049.69
428.46	7258.00
428.65	7328.22
428.84	7353.96
429.03	7370.35
429.22	7201.83
429.40	7351.62
429.59	7562.27
429.78	7300.13
429.97	7117.57
430.16	7384.39
430.34	7541.21
430.53	7749.51
430.72	7786.96
430.91	7358.64
431.10	7786.96
431.28	7754.19
431.47	7962.50
431.66	7946.12
431.85	7613.76
432.03	8152.09
432.22	8107.62
432.41	8039.74
432.60	8140.38
432.79	8011.65
432.97	8175.49
433.16	8210.60
433.35	8114.64
433.54	8107.62
433.72	8313.58
433.91	8280.82
434.10	8355.71
434.28	8252.73
434.47	8601.47
434.66	8308.90
434.85	8449.33
435.03	8699.77
435.22	8484.44
435.41	8823.82
435.59	8716.16
435.78	8931.48
435.97	8758.28
436.16	8978.30
436.34	8765.31
436.53	9004.04
436.72	8884.67
436.90	8894.04
437.09	8992.34
437.28	8847.22
437.46	9107.02
437.65	9207.67
437.84	9121.07
438.02	9174.90
438.21	9111.71
438.40	9156.18
438.58	9624.28
438.77	9572.79
438.96	9383.21
439.14	9640.67
439.33	9916.85
439.52	10003.45
439.70	9872.38
439.89	9926.21
440.08	9942.60
440.26	10291.34
440.45	10068.98
440.63	10347.51
440.82	10567.52
441.01	10422.41
441.19	10520.71
441.38	10523.05
441.57	10640.08
441.75	10611.99
441.94	10888.17
442.12	11023.92
442.31	11246.27
442.50	10895.19
442.68	10874.13
442.87	11028.60
443.05	11129.25
443.24	11269.68
443.43	11452.24
443.61	11129.25
443.80	11693.32
443.98	11370.32
444.17	10869.45
444.35	11358.62
444.54	11477.99
444.73	11632.46
444.91	11426.50
445.10	11562.25
445.28	11449.90
445.47	11302.45
445.65	11433.52
445.84	11569.27
446.02	11595.01
446.21	11454.58
446.39	11620.76
446.58	11796.30
446.77	11960.14
446.95	11573.95
447.14	11763.53
447.32	11812.68
447.51	11616.08
447.69	11641.82
447.88	11908.65
448.06	11859.49
448.25	11653.53
448.43	11878.22
448.62	11609.06
448.80	11812.68
448.99	11974.18
449.17	12035.03
449.36	11810.34
449.54	12259.73
449.73	12313.56
449.91	12343.99
450.10	12351.01
450.28	12500.80
450.46	12475.06
450.65	12484.42
450.83	12767.62
451.02	12393.14
451.20	12629.53
451.39	12444.63
451.57	12554.63
451.76	12592.08
451.94	12769.96
452.13	12879.97
452.31	12835.50
452.49	12767.62
452.68	12837.84
452.86	12882.31
453.05	13132.75
453.23	13249.77
453.42	13177.22
453.60	13083.59
453.78	13132.75
453.97	12996.99
454.15	13027.42
454.34	13085.94
454.52	13528.30
454.70	13254.45
454.89	13701.50
455.07	13329.35
455.26	13715.54
455.44	14001.08
455.62	13785.76
455.81	13715.54
455.99	13947.25
456.17	13802.14
456.36	13862.99
456.54	14398.98
456.73	14185.99
456.91	14501.96
457.09	14501.96
457.28	14633.03
457.46	14104.07
457.64	14455.15
457.83	14839.00
458.01	14703.25
458.19	14911.55
458.38	14728.99
458.56	15056.67
458.74	15150.29
458.93	15019.22
459.11	14946.66
459.29	14808.57
459.48	15138.58
459.66	15234.55
459.84	15190.08
460.03	15515.41
460.21	15360.94
460.39	15180.71
460.57	15096.46
460.76	15414.77
460.94	15571.58
461.12	15426.47
461.31	15522.43
461.49	15719.04
461.67	15515.41
461.85	15866.49
462.04	15917.98
462.22	16570.99
462.40	16105.23
462.59	15894.58
462.77	16037.35
462.95	16091.18
463.13	16259.70
463.32	16397.79
463.50	15995.22
463.68	16451.63
463.86	16479.71
464.05	16428.22
464.23	16379.07
464.41	16751.21
464.59	16287.79
464.78	17064.85
464.96	16748.87
465.14	16458.65
465.32	17043.78
465.50	16931.44
465.69	17261.45
465.87	16718.45
466.05	17238.05
466.23	16957.18
466.41	17149.11
466.60	17759.98
466.78	17142.08
466.96	16905.69
467.14	17085.91
467.32	17343.37
467.51	17619.55
467.69	16926.75
467.87	17289.54
468.05	17624.23
468.23	17598.49
468.41	17493.16
468.60	17460.40
468.78	17792.75
468.96	17628.92
469.14	17827.86
469.32	18094.68
469.50	17624.23
469.69	18420.02
469.87	18272.56
470.05	18270.22
470.23	18434.06
470.41	18438.74
470.59	18525.34
470.77	18108.72
470.95	18778.12
471.14	18920.89
471.32	18635.35
471.50	19353.89
471.68	19000.47
471.86	19033.24
472.04	19447.51
472.22	19936.68
472.40	19438.15
472.58	19754.12
472.77	19658.16
472.95	19845.40
473.13	20285.42
473.31	19948.39
473.49	19824.34
473.67	19981.15
473.85	19948.39
474.03	20386.07
474.21	20549.90
474.39	20755.87
474.57	20631.82
474.75	21057.80
474.93	21247.38
475.12	21111.63
475.30	21170.15
475.48	21685.06
475.66	21472.07
475.84	21462.71
476.02	21617.19
476.20	21539.95
476.38	21872.31
476.56	22541.70
476.74	22417.65
476.92	22424.67
477.10	22572.13
477.28	23140.88
477.46	22518.29
477.64	23054.28
477.82	23386.63
478.00	24013.90
478.18	23754.10
478.36	24098.16
478.54	24325.19
478.72	24327.53
478.90	24971.18
479.08	24938.41
479.26	24657.54
479.44	24943.09
479.62	25214.59
479.80	25619.50
479.98	25596.10
480.16	25848.88
480.34	26089.95
480.52	26352.09
480.70	26497.20
480.88	26209.32
481.06	26822.54
481.24	26888.07
481.41	26859.99
481.59	27307.03
481.77	27702.58
481.95	27711.94
482.13	28158.99
482.31	28056.00
482.49	28706.67
482.67	28343.89
482.85	29074.13
483.03	29317.55
483.21	29748.21
483.39	29563.31
483.57	29741.19
483.74	29755.23
483.92	30015.03
484.10	30424.62
484.28	30466.75
484.46	31103.38
484.64	31882.78
484.82	31220.41
485.00	31285.94
485.18	32486.64
485.35	32587.28
485.53	32013.85
485.71	32676.22
485.89	33263.69
486.07	33312.84
486.25	32936.02
486.43	33521.15
486.61	34298.21
486.78	34171.82
486.96	34550.99
487.14	34897.39
487.32	34436.30
487.50	35250.81
487.68	35351.45
487.85	35976.37
488.03	36446.82
488.21	36788.54
488.39	36631.72
488.57	36690.24
488.75	37146.64
488.92	37584.32
489.10	37228.56
489.28	38066.47
489.46	38635.22
489.64	38330.95
489.81	38759.27
489.99	39250.78
490.17	39108.01
490.35	39648.68
490.53	39859.32
490.70	40250.19
490.88	40198.70
491.06	40622.34
491.24	40556.80
491.41	40975.76
491.59	41584.30
491.77	41516.42
491.95	41748.14
492.13	41865.16
492.30	42241.99
492.48	42480.72
492.66	42550.94
492.84	42609.45
493.01	43257.78
493.19	43468.43
493.37	43562.05
493.54	43819.51
493.72	44364.85
493.90	44498.26
494.08	44701.89
494.25	44720.62
494.43	45237.87
494.61	45446.18
494.79	45914.29
494.96	45542.14
495.14	45993.87
495.32	46623.47
495.49	46480.70
495.67	46705.39
495.85	47037.75
496.02	47309.25
496.20	47232.01
496.38	47473.09
496.55	47505.85
496.73	48739.32
496.91	47885.02
497.09	48301.64
497.26	49104.44
497.44	48343.77
497.62	49017.84
497.79	49315.09
497.97	49106.78
498.14	49586.59
498.32	50061.72
498.50	49766.81
498.67	50471.31
498.85	50380.03
499.03	50361.31
499.20	50543.87
499.38	50529.83
499.56	51042.40
499.73	51304.54
499.91	51173.47
500.08	51562.00
500.26	51077.51
500.44	51491.79
500.61	51594.77
500.79	51491.79
500.97	51664.99
501.14	52212.67
501.32	51941.17
501.49	52205.65
501.67	52090.96
501.84	52399.91
502.02	52353.10
502.20	52760.36
502.37	52760.36
502.55	52811.85
502.72	53015.47
502.90	52804.83
503.07	52942.92
503.25	53338.47
503.43	53415.71
503.60	53553.80
503.78	53612.31
503.95	53684.87
504.13	53598.27
504.30	53755.08
504.48	53970.41
504.65	54253.62
504.83	54260.64
505.01	54803.64
505.18	54164.68
505.36	54855.14
505.53	54333.20
505.71	54681.94
505.88	54665.55
506.06	54473.63
506.23	54857.48
506.41	55037.70
506.58	54930.03
506.76	55503.46
506.93	55215.58
507.11	55168.77
507.28	55281.11
507.46	55374.73
507.63	55587.72
507.81	55913.06
507.98	55749.22
508.16	55966.89
508.33	55887.31
508.50	56053.49
508.68	56081.58
508.85	56652.67
509.03	56364.78
509.20	56334.35
509.38	56760.33
509.55	56793.10
509.73	56671.39
509.90	56952.26
510.08	56715.86
510.25	56596.49
510.42	56980.34
510.60	56940.55
510.77	57254.18
510.95	57181.63
511.12	57169.93
511.30	57120.77
511.47	57509.30
511.64	57621.65
511.82	57724.63
511.99	57682.50
512.17	57780.81
512.34	57710.59
512.51	57832.30
512.69	57989.11
512.86	57975.07
513.04	58171.67
513.21	58237.21
513.38	58504.03
513.56	58281.68
513.73	58117.84
513.90	58450.20
514.08	58384.66
514.25	58705.32
514.43	58693.61
514.60	58658.51
514.77	58677.23
514.95	59173.42
515.12	58702.98
515.29	58890.22
515.47	58911.28
515.64	59234.28
515.81	59189.81
515.99	59171.08
516.16	59360.67
516.33	59447.27
516.51	59646.21
516.68	59489.40
516.85	59498.76
517.03	59580.68
517.20	59412.16
517.37	59779.62
517.54	59840.48
517.72	59786.64
517.89	59987.93
518.06	59604.08
518.24	59791.33
518.41	59903.67
518.58	60032.40
518.75	60032.40
518.93	60339.01
519.10	60095.60
519.27	60472.42
519.45	60245.39
519.62	60402.21
519.79	60289.86
519.96	60413.91
520.14	60704.13
520.31	60341.35
520.48	60650.30
520.65	60678.39
520.83	60708.82
521.00	60961.59
521.17	60809.46
521.34	60772.01
521.52	60963.93
521.69	61106.71
521.86	61329.06
522.03	61338.42
522.20	61284.59
522.38	61265.86
522.55	61380.55
522.72	61324.38
522.89	61460.13
523.07	61780.78
523.24	61448.42
523.41	61319.70
523.58	61532.68
523.75	61696.52
523.92	61602.90
524.10	61670.78
524.27	61757.38
524.44	61862.70
524.61	62010.15
524.78	61925.89
524.96	62117.82
525.13	62279.31
525.30	62272.29
525.47	62199.74
525.64	62188.03
525.81	62396.34
525.98	62515.71
526.16	62487.62
526.33	62419.75
526.50	62536.77
526.67	62368.26
526.84	62520.39
527.01	62267.61
527.18	62686.57
527.36	62693.59
527.53	62625.71
527.70	62679.55
527.87	62735.72
528.04	62728.70
528.21	62834.02
528.38	62693.59
528.55	62939.35
528.72	62962.75
528.89	63084.46
529.07	63084.46
529.24	63007.22
529.41	63145.31
529.58	63032.97
529.75	63133.61
529.92	63215.53
530.09	63313.83
530.26	63388.73
530.43	63435.54
530.60	63077.44
530.77	63309.15
530.94	63379.37
531.11	63440.22
531.28	63384.05
531.46	63641.51
531.63	63384.05
531.80	63613.42
531.97	63725.77
532.14	63643.85
532.31	63742.15
532.48	63924.71
532.65	63901.31
532.82	63746.83
532.99	63922.37
533.16	63852.15
533.33	64039.40
533.50	64273.45
533.67	64011.31
533.84	63845.13
534.01	63952.80
534.18	63922.37
534.35	64200.89
534.52	64301.54
534.69	64430.27
534.86	64502.82
535.03	64353.03
535.20	64615.17
535.37	64303.88
535.54	64301.54
535.71	64175.15
535.88	64463.03
536.05	64467.72
536.22	64657.30
536.38	64615.17
536.55	64561.34
536.72	64608.15
536.89	64601.13
537.06	64601.13
537.23	64640.92
537.40	64645.60
537.57	64757.94
537.74	64769.64
537.91	65066.89
538.08	64835.18
538.25	64762.62
538.42	64746.24
538.59	64938.16
538.75	64846.88
538.92	65052.85
539.09	65102.00
539.26	65017.74
539.43	65151.15
539.60	65085.62
539.77	65172.22
539.94	65467.12
540.11	65162.85
540.28	65450.74
540.44	65265.84
540.61	65244.77
540.78	65298.61
540.95	65202.64
541.12	65256.48
541.29	65506.91
541.46	65403.93
541.62	65368.82
541.79	65410.95
541.96	65286.90
542.13	65429.68
542.30	65535.00
542.47	65535.00
542.63	65535.00
542.80	65535.00
542.97	65535.00
543.14	65535.00
543.31	65535.00
543.48	65535.00
543.64	65535.00
543.81	65535.00
543.98	65535.00
544.15	65535.00
544.32	65535.00
544.48	65535.00
544.65	65535.00
544.82	65535.00
544.99	65535.00
545.16	65535.00
545.32	65535.00
545.49	65535.00
545.66	65535.00
545.83	65535.00
546.00	65535.00
546.16	65535.00
546.33	65535.00
546.50	65535.00
546.67	65535.00
546.83	65535.00
547.00	65535.00
547.17	65535.00
547.34	65535.00
547.50	65535.00
547.67	65535.00
547.84	65535.00
548.00	65535.00
548.17	65535.00
548.34	65535.00
548.51	65535.00
548.67	65535.00
548.84	65535.00
549.01	65535.00
549.18	65535.00
549.34	65535.00
549.51	65535.00
549.68	65535.00
549.84	65535.00
550.01	65535.00
550.18	65535.00
550.34	65535.00
550.51	65535.00
550.68	65535.00
550.84	65535.00
551.01	65535.00
551.18	65535.00
551.34	65535.00
551.51	65535.00
551.68	65535.00
551.84	65535.00
552.01	65535.00
552.18	65535.00
552.34	65535.00
552.51	65535.00
552.68	65535.00
552.84	65535.00
553.01	65535.00
553.18	65535.00
553.34	65535.00
553.51	65535.00
553.67	65535.00
553.84	65535.00
554.01	65535.00
554.17	65535.00
554.34	65535.00
554.51	65535.00
554.67	65535.00
554.84	65535.00
555.00	65535.00
555.17	65535.00
555.33	65535.00
555.50	65535.00
555.67	65535.00
555.83	65535.00
556.00	65535.00
556.16	65535.00
556.33	65535.00
556.50	65535.00
556.66	65535.00
556.83	65535.00
556.99	65535.00
557.16	65535.00
557.32	65535.00
557.49	65535.00
557.65	65535.00
557.82	65535.00
557.98	65535.00
558.15	65535.00
558.32	65535.00
558.48	65535.00
558.65	65535.00
558.81	65535.00
558.98	65535.00
559.14	65535.00
559.31	65535.00
559.47	65535.00
559.64	65535.00
559.80	65535.00
559.97	65535.00
560.13	65535.00
560.30	65535.00
560.46	65535.00
560.63	65535.00
560.79	65535.00
560.96	65535.00
561.12	65535.00
561.29	65535.00
561.45	65535.00
561.61	65535.00
561.78	65535.00
561.94	65535.00
562.11	65535.00
562.27	65535.00
562.44	65535.00
562.60	65535.00
562.77	65535.00
562.93	65535.00
563.10	65535.00
563.26	65535.00
563.42	65535.00
563.59	65535.00
563.75	65535.00
563.92	65535.00
564.08	65535.00
564.24	65535.00
564.41	65535.00
564.57	65535.00
564.74	65535.00
564.90	65535.00
565.07	65535.00
565.23	65535.00
565.39	65535.00
565.56	65535.00
565.72	65535.00
565.88	65535.00
566.05	65535.00
566.21	65535.00
566.38	65535.00
566.54	65535.00
566.70	65535.00
566.87	65535.00
567.03	65535.00
567.19	65535.00
567.36	65535.00
567.52	65535.00
567.68	65535.00
567.85	65535.00
568.01	65535.00
568.17	65535.00
568.34	65535.00
568.50	65535.00
568.66	65535.00
568.83	65535.00
568.99	65535.00
569.15	65535.00
569.32	65535.00
569.48	65535.00
569.64	65535.00
569.81	65535.00
569.97	65535.00
570.13	65535.00
570.30	65535.00
570.46	65535.00
570.62	65535.00
570.78	65535.00
570.95	65535.00
571.11	65535.00
571.27	65535.00
571.43	65535.00
571.60	65535.00
571.76	65535.00
571.92	65535.00
572.09	65535.00
572.25	65535.00
572.41	65535.00
572.57	65535.00
572.74	65535.00
572.90	65535.00
573.06	65535.00
573.22	65535.00
573.38	65535.00
573.55	65535.00
573.71	65535.00
573.87	65535.00
574.03	65535.00
574.20	65535.00
574.36	65535.00
574.52	65535.00
574.68	65535.00
574.84	65535.00
575.01	65535.00
575.17	65535.00
575.33	65535.00
575.49	65535.00
575.65	65535.00
575.82	65535.00
575.98	65535.00
576.14	65535.00
576.30	65535.00
576.46	65535.00
576.62	65535.00
576.79	65535.00
576.95	65535.00
577.11	65535.00
577.27	65535.00
577.43	65535.00
577.59	65535.00
577.75	65535.00
577.92	65535.00
578.08	65535.00
578.24	65535.00
578.40	65535.00
578.56	65535.00
578.72	65535.00
578.88	65535.00
579.04	65535.00
579.21	65535.00
579.37	65535.00
579.53	65535.00
579.69	65535.00
579.85	65535.00
580.01	65535.00
580.17	65535.00
580.33	65535.00
580.49	65535.00
580.65	65535.00
580.82	65535.00
580.98	65535.00
581.14	65535.00
581.30	65535.00
581.46	65535.00
581.62	65535.00
581.78	65535.00
581.94	65535.00
582.10	65535.00
582.26	65535.00
582.42	65535.00
582.58	65535.00
582.74	65535.00
582.90	65535.00
583.06	65535.00
583.22	65535.00
583.38	65535.00
583.54	65535.00
583.70	65535.00
583.86	65535.00
584.02	65535.00
584.18	65535.00
584.34	65535.00
584.50	65535.00
584.66	65535.00
584.82	65535.00
584.98	65535.00
585.14	65535.00
585.30	65535.00
585.46	65535.00
585.62	65535.00
585.78	65535.00
585.94	65535.00
586.10	65535.00
586.26	65535.00
586.42	65535.00
586.58	65535.00
586.74	65535.00
586.90	65535.00
587.06	65535.00
587.22	65535.00
587.38	65535.00
587.54	65535.00
587.70	65535.00
