SpectraSuite Data File
++++++++++++++++++++++++++++++++++++
Date: Fri Oct 04 11:48:20 GMT-05:00 2013
User: price-jones
Dark Spectrum Present: No
Reference Spectrum Present: No
Number of Sampled Component Spectra: 1
Spectrometers: USB2+H05261
Integration Time (usec): 100000 (USB2+H05261)
Spectra Averaged: 1 (USB2+H05261)
Boxcar Smoothing: 0 (USB2+H05261)
Correct for Electrical Dark: No (USB2+H05261)
Strobe/Lamp Enabled: No (USB2+H05261)
Correct for Detector Non-linearity: No (USB2+H05261)
Correct for Stray Light: No (USB2+H05261)
Number of Pixels in Processed Spectrum: 2048
>>>>>Begin Processed Spectral Data<<<<<
365.73	56.17
365.92	56.17
366.12	56.17
366.32	0.00
366.52	0.00
366.72	0.00
366.91	0.00
367.11	0.00
367.31	0.00
367.51	0.00
367.70	0.00
367.90	0.00
368.10	0.00
368.30	0.00
368.49	0.00
368.69	0.00
368.89	0.00
369.09	0.00
369.28	0.00
369.48	0.00
369.68	0.00
369.87	0.00
370.07	0.00
370.27	46.81
370.47	0.00
370.66	42.13
370.86	107.66
371.06	126.39
371.25	44.47
371.45	74.90
371.65	72.56
371.84	30.43
372.04	56.17
372.24	142.77
372.44	63.19
372.63	147.45
372.83	168.52
373.03	138.09
373.22	152.13
373.42	91.28
373.62	163.84
373.81	168.52
374.01	154.48
374.21	252.78
374.40	205.97
374.60	121.71
374.79	163.84
374.99	201.29
375.19	201.29
375.38	173.20
375.58	170.86
375.78	203.63
375.97	182.56
376.17	208.31
376.37	159.16
376.56	152.13
376.76	203.63
376.95	152.13
377.15	203.63
377.35	119.37
377.54	154.48
377.74	208.31
377.93	145.11
378.13	203.63
378.33	231.71
378.52	145.11
378.72	180.22
378.91	170.86
379.11	175.54
379.31	119.37
379.50	147.45
379.70	180.22
379.89	154.48
380.09	170.86
380.28	168.52
380.48	168.52
380.68	234.05
380.87	224.69
381.07	269.16
381.26	241.08
381.46	191.92
381.65	238.73
381.85	234.05
382.04	138.09
382.24	147.45
382.43	156.82
382.63	133.41
382.83	166.18
383.02	210.65
383.22	205.97
383.41	156.82
383.61	227.03
383.80	208.31
384.00	161.50
384.19	182.56
384.39	248.10
384.58	231.71
384.78	208.31
384.97	203.63
385.17	177.88
385.36	196.60
385.56	161.50
385.75	184.90
385.95	189.58
386.14	217.67
386.34	189.58
386.53	189.58
386.72	133.41
386.92	245.76
387.11	191.92
387.31	159.16
387.50	189.58
387.70	191.92
387.89	250.44
388.09	210.65
388.28	220.01
388.48	203.63
388.67	297.25
388.86	205.97
389.06	175.54
389.25	147.45
389.45	224.69
389.64	222.35
389.84	266.82
390.03	276.18
390.22	292.57
390.42	243.42
390.61	257.46
390.81	208.31
391.00	266.82
391.19	250.44
391.39	205.97
391.58	344.06
391.78	238.73
391.97	245.76
392.16	208.31
392.36	255.12
392.55	271.50
392.75	341.72
392.94	248.10
393.13	304.27
393.33	222.35
393.52	250.44
393.71	330.02
393.91	271.50
394.10	276.18
394.29	337.04
394.49	332.36
394.68	313.63
394.88	386.19
395.07	334.70
395.26	290.23
395.46	306.61
395.65	353.42
395.84	397.89
396.04	379.17
396.23	386.19
396.42	365.12
396.62	271.50
396.81	313.63
397.00	404.91
397.19	330.02
397.39	320.65
397.58	468.11
397.77	292.57
397.97	393.21
398.16	458.74
398.35	397.89
398.55	369.80
398.74	428.32
398.93	376.83
399.12	344.06
399.32	404.91
399.51	409.59
399.70	442.36
399.90	400.23
400.09	418.96
400.28	470.45
400.47	442.36
400.67	524.28
400.86	472.79
401.05	484.49
401.24	425.98
401.44	414.27
401.63	440.02
401.82	468.11
402.01	463.43
402.21	435.34
402.40	540.66
402.59	543.00
402.78	440.02
402.97	519.60
403.17	500.87
403.36	580.45
403.55	580.45
403.74	561.73
403.93	592.16
404.13	610.88
404.32	456.40
404.51	545.34
404.70	603.86
404.89	559.39
405.09	662.37
405.28	545.34
405.47	641.31
405.66	608.54
405.85	650.67
406.05	627.26
406.24	592.16
406.43	638.97
406.62	660.03
406.81	674.07
407.00	667.05
407.20	688.12
407.39	681.10
407.58	674.07
407.77	678.76
407.96	730.25
408.15	709.18
408.34	770.04
408.54	716.20
408.73	805.14
408.92	786.42
409.11	767.70
409.30	706.84
409.49	725.57
409.68	751.31
409.87	837.91
410.07	800.46
410.26	781.74
410.45	812.17
410.64	847.27
410.83	795.78
411.02	863.66
411.21	882.38
411.40	887.06
411.59	882.38
411.78	938.55
411.98	915.15
412.17	849.61
412.36	933.87
412.55	945.58
412.74	943.24
412.93	1001.75
413.12	957.28
413.31	1015.79
413.50	1027.50
413.69	971.32
413.88	1095.37
414.07	1071.97
414.26	1020.47
414.45	1043.88
414.64	1027.50
414.83	1048.56
415.02	1125.80
415.22	1191.33
415.41	1170.27
415.60	1146.86
415.79	1210.06
415.98	1268.57
416.17	1221.76
416.36	1235.80
416.55	1266.23
416.74	1224.10
416.93	1151.54
417.12	1203.04
417.31	1207.72
417.50	1224.10
417.69	1200.69
417.88	1249.85
418.07	1188.99
418.26	1219.42
418.45	1359.85
418.64	1357.51
418.83	1310.70
419.02	1259.21
419.21	1306.02
419.39	1352.83
419.58	1217.08
419.77	1275.59
419.96	1296.66
420.15	1371.55
420.34	1331.76
420.53	1357.51
420.72	1448.79
420.91	1493.26
421.10	1369.21
421.29	1453.47
421.48	1383.26
421.67	1528.37
421.86	1465.18
422.05	1514.33
422.24	1427.73
422.43	1448.79
422.61	1390.28
422.80	1465.18
422.99	1544.75
423.18	1530.71
423.37	1624.33
423.56	1455.81
423.75	1528.37
423.94	1500.28
424.13	1444.11
424.32	1437.09
424.50	1624.33
424.69	1570.50
424.88	1446.45
425.07	1418.36
425.26	1472.20
425.45	1526.03
425.64	1589.22
425.83	1558.80
426.01	1610.29
426.20	1568.16
426.39	1486.24
426.58	1565.82
426.77	1570.50
426.96	1579.86
427.15	1533.05
427.33	1551.78
427.52	1542.41
427.71	1589.22
427.90	1621.99
428.09	1614.97
428.28	1626.67
428.46	1640.72
428.65	1659.44
428.84	1659.44
429.03	1710.93
429.22	1631.35
429.40	1664.12
429.59	1596.25
429.78	1722.63
429.97	1614.97
430.16	1650.08
430.34	1638.38
430.53	1687.53
430.72	1652.42
430.91	1631.35
431.10	1722.63
431.28	1734.34
431.47	1874.77
431.66	1743.70
431.85	1661.78
432.03	1781.15
432.22	1755.40
432.41	1771.79
432.60	1863.07
432.79	1687.53
432.97	1842.00
433.16	1879.45
433.35	1830.30
433.54	1851.36
433.72	1842.00
433.91	1881.79
434.10	1858.39
434.28	1823.28
434.47	1860.73
434.66	1907.54
434.85	1919.24
435.03	1933.28
435.22	1970.73
435.41	1937.96
435.59	1956.69
435.78	1956.69
435.97	1954.35
436.16	2080.74
436.34	2071.37
436.53	2031.58
436.72	2097.12
436.90	1933.28
437.09	1966.05
437.28	2003.50
437.46	2017.54
437.65	2045.63
437.84	2167.34
438.02	2176.70
438.21	2047.97
438.40	2017.54
438.58	2052.65
438.77	2052.65
438.96	2054.99
439.14	2125.21
439.33	2223.51
439.52	2221.17
439.70	2223.51
439.89	2296.07
440.08	2186.06
440.26	2225.85
440.45	2310.11
440.63	2272.66
440.82	2303.09
441.01	2291.38
441.19	2263.30
441.38	2328.83
441.57	2204.78
441.75	2263.30
441.94	2394.37
442.12	2373.30
442.31	2495.01
442.50	2574.59
442.68	2457.56
442.87	2415.43
443.05	2497.35
443.24	2504.37
443.43	2520.76
443.61	2436.50
443.80	2602.68
443.98	2441.18
444.17	2387.35
444.35	2434.16
444.54	2612.04
444.73	2457.56
444.91	2539.48
445.10	2548.84
445.28	2492.67
445.47	2480.97
445.65	2616.72
445.84	2466.92
446.02	2527.78
446.21	2396.71
446.39	2546.50
446.58	2630.76
446.77	2693.96
446.95	2562.89
447.14	2703.32
447.32	2658.85
447.51	2654.17
447.69	2609.70
447.88	2626.08
448.06	2516.08
448.25	2595.65
448.43	2698.64
448.62	2562.89
448.80	2534.80
448.99	2612.04
449.17	2619.06
449.36	2537.14
449.54	2572.25
449.73	2623.74
449.91	2733.75
450.10	2686.94
450.28	2670.55
450.46	2839.07
450.65	2607.36
450.83	2808.64
451.02	2708.00
451.20	2752.47
451.39	2792.26
451.57	2682.25
451.76	2640.12
451.94	2796.94
452.13	2698.64
452.31	2829.71
452.49	2761.83
452.68	2750.13
452.86	2883.54
453.05	2799.28
453.23	3005.25
453.42	2902.26
453.60	2846.09
453.78	2883.54
453.97	2827.37
454.15	2930.35
454.34	2839.07
454.52	2843.75
454.70	2857.79
454.89	2897.58
455.07	2869.50
455.26	2988.86
455.44	2923.33
455.62	3038.02
455.81	2981.84
455.99	3094.19
456.17	3047.38
456.36	3033.33
456.54	3063.76
456.73	2911.63
456.91	3155.04
457.09	3124.62
457.28	3265.05
457.46	3026.31
457.64	3126.96
457.83	3251.00
458.01	3157.38
458.19	3122.27
458.38	3148.02
458.56	3274.41
458.74	3290.79
458.93	3206.53
459.11	3098.87
459.29	3124.62
459.48	3290.79
459.66	3321.22
459.84	3368.03
460.03	3503.78
460.21	3272.07
460.39	3243.98
460.57	3246.32
460.76	3335.26
460.94	3255.69
461.12	3382.07
461.31	3372.71
461.49	3410.16
461.67	3314.20
461.85	3449.95
462.04	3384.41
462.22	3948.48
462.40	3433.57
462.59	3344.63
462.77	3471.01
462.95	3433.57
463.13	3482.72
463.32	3452.29
463.50	3456.97
463.68	3461.65
463.86	3566.98
464.05	3403.14
464.23	3410.16
464.41	3522.51
464.59	3454.63
464.78	3475.70
464.96	3428.88
465.14	3452.29
465.32	3609.11
465.50	3522.51
465.69	3658.26
465.87	3517.83
466.05	3541.23
466.23	3721.45
466.41	3630.17
466.60	3742.52
466.78	3672.30
466.96	3756.56
467.14	3749.54
467.32	3660.60
467.51	3662.94
467.69	3571.66
467.87	3772.94
468.05	3721.45
468.23	3728.47
468.41	3676.98
468.60	3585.70
468.78	3763.58
468.96	3634.85
469.14	3700.39
469.32	3744.86
469.50	3714.43
469.69	3861.88
469.87	3852.52
470.05	3927.42
470.23	3789.33
470.41	3838.48
470.59	3927.42
470.77	3882.95
470.95	3761.24
471.14	4044.45
471.32	3971.89
471.50	4004.66
471.68	3962.53
471.86	3906.35
472.04	3971.89
472.22	4168.49
472.40	3974.23
472.58	3995.29
472.77	4044.45
472.95	4114.66
473.13	4358.08
473.31	4250.41
473.49	4058.49
473.67	4037.42
473.85	4180.20
474.03	4156.79
474.21	4154.45
474.39	4337.01
474.57	4404.89
474.75	4470.42
474.93	4432.97
475.12	4339.35
475.30	4374.46
475.48	4400.21
475.66	4484.47
475.84	4449.36
476.02	4505.53
476.20	4667.03
476.38	4580.43
476.56	4727.88
476.74	4777.03
476.92	4580.43
477.10	4751.29
477.28	4791.08
477.46	4606.17
477.64	4762.99
477.82	4908.10
478.00	4952.57
478.18	4840.23
478.36	4947.89
478.54	4987.68
478.72	5027.47
478.90	5144.50
479.08	5132.79
479.26	5135.14
479.44	5191.31
479.62	5100.03
479.80	5280.25
479.98	5322.38
480.16	5383.23
480.34	5451.11
480.52	5401.96
480.70	5392.59
480.88	5338.76
481.06	5345.78
481.24	5380.89
481.41	5448.77
481.59	5563.45
481.77	5617.29
481.95	5631.33
482.13	5771.76
482.31	5762.40
482.49	5966.03
482.67	5884.11
482.85	5884.11
483.03	6085.39
483.21	6078.37
483.39	6061.99
483.57	5956.66
483.74	6050.28
483.92	6181.35
484.10	6094.76
484.28	6307.74
484.46	6562.86
484.64	6494.99
484.82	6408.39
485.00	6478.60
485.18	6408.39
485.35	6485.62
485.53	6555.84
485.71	6516.05
485.89	6918.62
486.07	6621.38
486.25	6766.49
486.43	6705.63
486.61	6834.36
486.78	6995.86
486.96	6991.18
487.14	7119.91
487.32	7255.66
487.50	7103.53
487.68	6974.80
487.85	7316.51
488.03	7302.47
488.21	7449.93
488.39	7311.83
488.57	7461.63
488.75	7419.50
488.92	7625.47
489.10	7648.87
489.28	7625.47
489.46	7831.43
489.64	7922.71
489.81	7922.71
489.99	7903.99
490.17	7819.73
490.35	8217.62
490.53	8109.96
490.70	8142.72
490.88	8238.69
491.06	8257.41
491.24	8262.09
491.41	8241.03
491.59	8231.66
491.77	8404.86
491.95	8444.65
492.13	8482.10
492.30	8507.85
492.48	8631.90
492.66	8416.57
492.84	8641.26
493.01	8877.65
493.19	8805.10
493.37	8781.69
493.54	8833.18
493.72	8978.30
493.90	8833.18
494.08	9151.49
494.25	9092.98
494.43	9135.11
494.61	9282.56
494.79	9228.73
494.96	9224.05
495.14	9266.18
495.32	9352.78
495.49	9408.95
495.67	9481.51
495.85	9418.32
496.02	9448.74
496.20	9570.45
496.38	9792.80
496.55	9867.70
496.73	9977.70
496.91	9710.88
497.09	10012.81
497.26	9877.06
497.44	9816.21
497.62	10026.86
497.79	10036.22
497.97	10071.33
498.14	10352.19
498.32	10267.93
498.50	10239.84
498.67	10260.91
498.85	10319.42
499.03	10375.59
499.20	10420.06
499.38	10422.41
499.56	10406.02
499.73	10518.37
499.91	10609.65
500.08	10707.95
500.26	10600.29
500.44	10780.51
500.61	10803.91
500.79	10759.44
500.97	10824.98
501.14	10888.17
501.32	11014.56
501.49	10817.96
501.67	10846.04
501.84	10853.06
502.02	10927.96
502.20	11265.00
502.37	11297.77
502.55	11236.91
502.72	11169.04
502.90	11124.57
503.07	10984.13
503.25	11295.43
503.43	11318.83
503.60	11375.00
503.78	11379.68
503.95	11391.39
504.13	11480.33
504.30	11431.18
504.48	11576.29
504.65	11700.34
504.83	11667.57
505.01	11747.15
505.18	11662.89
505.36	11803.32
505.53	11709.70
505.71	11791.62
505.88	11744.81
506.06	11789.28
506.23	12131.00
506.41	11932.05
506.58	12126.32
506.76	11978.86
506.93	12081.85
507.11	11983.54
507.28	11920.35
507.46	12065.46
507.63	12311.22
507.81	12341.64
507.98	12276.11
508.16	12381.43
508.33	12173.13
508.50	12201.21
508.68	12624.85
508.85	12769.96
509.03	12688.04
509.20	12283.13
509.38	12376.75
509.55	12688.04
509.73	12917.42
509.90	12772.30
510.08	12805.07
510.25	12739.54
510.42	12872.95
510.60	12973.59
510.77	13130.41
510.95	12688.04
511.12	12985.29
511.30	12798.05
511.47	13069.55
511.64	13174.88
511.82	13074.23
511.99	13282.54
512.17	13392.55
512.34	13076.57
512.51	13242.75
512.69	13359.78
512.86	13720.22
513.04	13387.86
513.21	13537.66
513.38	13605.53
513.56	13437.02
513.73	13336.37
513.90	13542.34
514.08	13481.49
514.25	13586.81
514.43	13582.13
514.60	13692.13
514.77	13844.27
514.95	13785.76
515.12	13809.16
515.29	13783.41
515.47	13886.40
515.64	13879.38
515.81	13736.60
515.99	14017.47
516.16	14338.12
516.33	14071.30
516.51	14312.38
516.68	13949.59
516.85	13841.93
517.03	14277.27
517.20	14384.93
517.37	14127.47
517.54	14295.99
517.72	14106.41
517.89	14256.20
518.06	14462.17
518.24	14347.48
518.41	14204.71
518.58	14445.79
518.75	14665.80
518.93	14459.83
519.10	14452.81
519.27	14415.36
519.45	14588.56
519.62	14516.00
519.79	14780.48
519.96	14548.77
520.14	14642.39
520.31	14586.22
520.48	14492.60
520.65	14782.82
520.83	15019.22
521.00	14946.66
521.17	14864.74
521.34	14927.94
521.52	15276.68
521.69	14946.66
521.86	15279.02
522.03	15012.20
522.20	15089.43
522.38	15021.56
522.55	15152.63
522.72	15286.04
522.89	15468.60
523.07	15232.21
523.24	15311.78
523.41	15463.92
523.58	15328.17
523.75	15426.47
523.92	15255.61
524.10	15335.19
524.27	15475.62
524.44	15583.29
524.61	15625.42
524.78	15379.66
524.96	15433.49
525.13	15798.62
525.30	15878.19
525.47	15894.58
525.64	15852.45
525.81	15580.95
525.98	15864.15
526.16	15758.83
526.33	15665.21
526.50	15962.45
526.67	15768.19
526.84	15669.89
527.01	15672.23
527.18	15957.77
527.36	16037.35
527.53	15777.55
527.70	16400.13
527.87	16238.64
528.04	16173.10
528.21	16102.89
528.38	15917.98
528.55	15854.79
528.72	16369.71
528.89	16301.83
529.07	15969.48
529.24	16056.08
529.41	16561.63
529.58	16070.12
529.75	16006.92
529.92	16339.28
530.09	16180.12
530.26	16123.95
530.43	16346.30
530.60	16205.87
530.77	16350.98
530.94	16549.93
531.11	16262.04
531.28	16037.35
531.46	16601.42
531.63	16376.73
531.80	16568.65
531.97	16858.88
532.14	16739.51
532.31	16697.38
532.48	16814.41
532.65	16727.81
532.82	16393.11
532.99	16805.05
533.16	17083.57
533.33	16767.60
533.50	17238.05
533.67	16898.67
533.84	16985.27
534.01	17114.00
534.18	16765.26
534.35	17039.10
534.52	16631.85
534.69	17224.00
534.86	16996.97
535.03	17067.19
535.20	16854.20
535.37	17025.06
535.54	16840.15
535.71	16989.95
535.88	17284.86
536.05	17048.46
536.22	17069.53
536.38	17193.58
536.55	16994.63
536.72	16966.54
536.89	16912.71
537.06	17095.27
537.23	17263.79
537.40	17408.90
537.57	17029.74
537.74	17570.40
537.91	17530.61
538.08	17427.63
538.25	17289.54
538.42	17544.66
538.59	17404.22
538.75	17207.62
538.92	17310.60
539.09	17741.26
539.26	17448.69
539.43	17752.96
539.60	17661.68
539.77	17645.30
539.94	17582.10
540.11	17598.49
540.28	17722.54
540.44	17493.16
540.61	17486.14
540.78	17451.03
540.95	17584.44
541.12	17708.49
541.29	17788.07
541.46	17963.61
541.62	17371.46
541.79	17710.83
541.96	17675.73
542.13	17582.10
542.30	17514.23
542.47	17933.18
542.63	18003.40
542.80	17972.97
542.97	18321.71
543.14	17944.89
543.31	18363.84
543.48	17996.38
543.64	18141.49
543.81	18064.25
543.98	18082.98
544.15	18082.98
544.32	18185.96
544.48	18354.48
544.65	18171.92
544.82	17914.46
544.99	17991.70
545.16	18417.68
545.32	18370.86
545.49	18558.11
545.66	18527.68
545.83	18307.67
546.00	18539.38
546.16	18345.12
546.33	18420.02
546.50	17935.53
546.67	18394.27
546.83	18150.85
547.00	18338.10
547.17	18356.82
547.34	18410.65
547.50	18576.83
547.67	18555.77
547.84	18492.57
548.00	18487.89
548.17	18703.22
548.34	18310.01
548.51	18679.82
548.67	18682.16
548.84	18703.22
549.01	18441.08
549.18	18583.85
549.34	18647.05
549.51	18700.88
549.68	18677.48
549.84	18663.43
550.01	18670.45
550.18	18670.45
550.34	18728.97
550.51	18764.07
550.68	18808.54
550.84	18757.05
551.01	18735.99
551.18	18913.87
551.34	19061.32
551.51	18525.34
551.68	18906.85
551.84	19012.17
552.01	18682.16
552.18	18831.95
552.34	18981.74
552.51	18775.78
552.68	18672.79
552.84	19077.71
553.01	19159.63
553.18	18991.11
553.34	19126.86
553.51	18925.57
553.67	19049.62
553.84	19061.32
554.01	19213.46
554.17	19220.48
554.34	19358.57
554.51	19126.86
554.67	19161.97
554.84	19262.61
555.00	19215.80
555.17	19089.41
555.33	18780.46
555.50	19042.60
555.67	18963.02
555.83	19051.96
556.00	18927.91
556.16	19435.81
556.33	19014.51
556.50	18920.89
556.66	19248.57
556.83	19487.30
556.99	19311.76
557.16	19271.97
557.32	19389.00
557.49	19389.00
557.65	19227.50
557.82	19335.17
557.98	19152.60
558.15	19412.40
558.32	19178.35
558.48	19253.25
558.65	19491.98
558.81	19463.90
558.98	19058.98
559.14	19222.82
559.31	19374.95
559.47	19239.20
559.64	19545.81
559.80	19337.51
559.97	19590.28
560.13	19541.13
560.30	19489.64
560.46	19506.02
560.63	19400.70
560.79	19143.24
560.96	19381.98
561.12	19260.27
561.29	19510.71
561.45	19770.51
561.61	19672.20
561.78	19693.27
561.94	19372.61
562.11	19379.64
562.27	19470.92
562.44	19470.92
562.60	19655.82
562.77	19499.00
562.93	19733.06
563.10	19463.90
563.26	19360.91
563.42	19777.53
563.59	19634.75
563.75	19702.63
563.92	19728.38
564.08	19630.07
564.24	19559.86
564.41	19501.34
564.57	19358.57
564.74	19529.43
564.90	19449.85
565.07	19487.30
565.23	19480.28
565.39	19363.25
565.56	19536.45
565.72	19442.83
565.88	19573.90
566.05	19627.73
566.21	19637.09
566.38	19688.59
566.54	19711.99
566.70	19847.74
566.87	19793.91
567.03	19576.24
567.19	19690.93
567.36	19702.63
567.52	19513.05
567.68	19721.35
567.85	19653.48
568.01	19880.51
568.17	19702.63
568.34	19562.20
568.50	19527.09
568.66	19470.92
568.83	19599.65
568.99	19515.39
569.15	19360.91
569.32	19384.32
569.48	19307.08
569.64	19843.06
569.81	19913.28
569.97	19545.81
570.13	19927.32
570.30	19531.77
570.46	19833.70
570.62	19459.21
570.78	19590.28
570.95	19807.95
571.11	19562.20
571.27	19463.90
571.43	19590.28
571.60	19491.98
571.76	19695.61
571.92	19559.86
572.09	19850.08
572.25	19957.75
572.41	19733.06
572.57	19814.98
572.74	19845.40
572.90	19758.80
573.06	19499.00
573.22	19845.40
573.38	19609.01
573.55	19761.14
573.71	19822.00
573.87	19812.63
574.03	19583.26
574.20	19714.33
574.36	19358.57
574.52	19634.75
574.68	19702.63
574.84	19887.53
575.01	19786.89
575.17	19679.22
575.33	19508.37
575.49	19719.01
575.65	19711.99
575.82	19992.86
575.98	19723.69
576.14	19768.16
576.30	19438.15
576.46	19770.51
576.62	19875.83
576.79	20224.57
576.95	19775.19
577.11	19662.84
577.27	19592.62
577.43	19840.72
577.59	19807.95
577.75	19606.67
577.92	19625.39
578.08	19520.07
578.24	19880.51
578.40	19847.74
578.56	19826.68
578.72	19803.27
578.88	19913.28
579.04	20004.56
579.21	19992.86
579.37	19915.62
579.53	19517.73
579.69	19578.58
579.85	19447.51
580.01	19878.17
580.17	19751.78
580.33	19920.30
580.49	19999.88
580.65	19819.66
580.82	19800.93
580.98	19899.23
581.14	19601.99
581.30	19894.55
581.46	19861.79
581.62	19721.35
581.78	19697.95
581.94	19852.42
582.10	19833.70
582.26	19587.94
582.42	19807.95
582.58	19857.10
582.74	20123.93
582.90	19840.72
583.06	19880.51
583.22	20025.62
583.38	19669.86
583.54	19936.68
583.70	19850.08
583.86	19744.76
584.02	19613.69
584.18	19997.54
584.34	19889.87
584.50	20013.92
584.66	19892.21
584.82	19604.33
584.98	19908.60
585.14	19625.39
585.30	19543.47
585.46	19604.33
585.62	19630.07
585.78	19927.32
585.94	20086.48
586.10	19822.00
586.26	20046.69
586.42	20240.95
586.58	20002.22
586.74	19864.13
586.90	19999.88
587.06	19555.18
587.22	19742.42
587.38	19688.59
587.54	19967.11
587.70	19896.89
587.86	19910.94
588.02	20173.08
588.18	20023.28
588.34	19871.15
588.49	19784.55
588.65	19662.84
588.81	19913.28
588.97	20042.01
589.13	19943.70
589.29	19875.83
589.45	20294.79
589.61	20013.92
589.77	19868.81
589.93	19974.13
590.08	20240.95
590.24	19971.79
590.40	20126.27
590.56	20306.49
590.72	19967.11
590.88	19690.93
591.04	19992.86
591.20	20034.99
591.35	20140.31
591.51	20170.74
591.67	20051.37
591.83	20301.81
591.99	20184.78
592.15	19910.94
592.31	19990.52
592.46	19981.15
592.62	19878.17
592.78	19955.41
