SpectraSuite Data File
++++++++++++++++++++++++++++++++++++
Date: Fri Oct 04 11:48:24 GMT-05:00 2013
User: price-jones
Dark Spectrum Present: No
Reference Spectrum Present: No
Number of Sampled Component Spectra: 1
Spectrometers: USB2+H05261
Integration Time (usec): 100000 (USB2+H05261)
Spectra Averaged: 1 (USB2+H05261)
Boxcar Smoothing: 0 (USB2+H05261)
Correct for Electrical Dark: No (USB2+H05261)
Strobe/Lamp Enabled: No (USB2+H05261)
Correct for Detector Non-linearity: No (USB2+H05261)
Correct for Stray Light: No (USB2+H05261)
Number of Pixels in Processed Spectrum: 2048
>>>>>Begin Processed Spectral Data<<<<<
365.73	30.43
365.92	30.43
366.12	30.43
366.32	16.38
366.52	0.00
366.72	0.00
366.91	0.00
367.11	0.00
367.31	0.00
367.51	0.00
367.70	0.00
367.90	0.00
368.10	0.00
368.30	0.00
368.49	0.00
368.69	0.00
368.89	0.00
369.09	0.00
369.28	0.00
369.48	0.00
369.68	0.00
369.87	0.00
370.07	0.00
370.27	51.49
370.47	102.98
370.66	559.39
370.86	430.66
371.06	521.94
371.25	557.05
371.45	580.45
371.65	568.75
371.84	582.79
372.04	543.00
372.24	585.13
372.44	613.22
372.63	638.97
372.83	617.90
373.03	678.76
373.22	564.07
373.42	606.20
373.62	648.33
373.81	678.76
374.01	737.27
374.21	704.50
374.40	709.18
374.60	767.70
374.79	683.44
374.99	751.31
375.19	620.24
375.38	676.41
375.58	765.36
375.78	821.53
375.97	748.97
376.17	814.51
376.37	851.96
376.56	849.61
376.76	868.34
376.95	800.46
377.15	830.89
377.35	751.31
377.54	739.61
377.74	737.27
377.93	887.06
378.13	847.27
378.33	924.51
378.52	844.93
378.72	931.53
378.91	922.17
379.11	880.04
379.31	908.13
379.50	882.38
379.70	940.90
379.89	931.53
380.09	908.13
380.28	812.17
380.48	919.83
380.68	858.98
380.87	896.43
381.07	933.87
381.26	997.07
381.46	922.17
381.65	997.07
381.85	1015.79
382.04	992.39
382.24	1029.84
382.43	926.85
382.63	1022.81
382.83	1025.15
383.02	1078.99
383.22	1121.12
383.41	1055.58
383.61	997.07
383.80	1060.26
384.00	1151.54
384.19	1064.94
384.39	1135.16
384.58	1196.01
384.78	1022.81
384.97	1135.16
385.17	1153.88
385.36	1174.95
385.56	1196.01
385.75	1151.54
385.95	1100.05
386.14	1219.42
386.34	1132.82
386.53	1163.25
386.72	1118.78
386.92	1254.53
387.11	1226.44
387.31	1291.98
387.50	1240.48
387.70	1193.67
387.89	1284.95
388.09	1240.48
388.28	1219.42
388.48	1277.93
388.67	1334.11
388.86	1385.60
389.06	1357.51
389.25	1390.28
389.45	1313.04
389.64	1455.81
389.84	1467.52
390.03	1371.55
390.22	1409.00
390.42	1362.19
390.61	1444.11
390.81	1486.24
391.00	1409.00
391.19	1483.90
391.39	1366.87
391.58	1404.32
391.78	1483.90
391.97	1483.90
392.16	1528.37
392.36	1495.60
392.55	1577.52
392.75	1607.95
392.94	1589.22
393.13	1605.61
393.33	1563.48
393.52	1544.75
393.71	1614.97
393.91	1549.43
394.10	1675.82
394.29	1687.53
394.49	1720.29
394.68	1713.27
394.88	1650.08
395.07	1827.96
395.26	1689.87
395.46	1760.08
395.65	1827.96
395.84	1762.42
396.04	1865.41
396.23	1872.43
396.42	1851.36
396.62	1937.96
396.81	1902.86
397.00	1781.15
397.19	1867.75
397.39	1921.58
397.58	1879.45
397.77	1891.15
397.97	2069.03
398.16	2003.50
398.35	1900.52
398.55	1987.11
398.74	2043.29
398.93	2111.16
399.12	2111.16
399.32	2003.50
399.51	2078.40
399.70	2083.08
399.90	2146.27
400.09	2136.91
400.28	2209.47
400.47	2275.00
400.67	2263.30
400.86	2251.60
401.05	2153.29
401.24	2172.02
401.44	2296.07
401.63	2366.28
401.82	2230.53
402.01	2342.88
402.21	2223.51
402.40	2363.94
402.59	2502.03
402.78	2506.71
402.97	2345.22
403.17	2469.27
403.36	2436.50
403.55	2403.73
403.74	2518.42
403.93	2635.44
404.13	2532.46
404.32	2581.61
404.51	2583.95
404.70	2583.95
404.89	2459.90
405.09	2766.51
405.28	2813.32
405.47	2647.15
405.66	2754.81
405.85	2633.10
406.05	2686.94
406.24	2635.44
406.43	2778.22
406.62	2869.50
406.81	2869.50
407.00	2780.56
407.20	2752.47
407.39	2904.60
407.58	3007.59
407.77	3052.06
407.96	3047.38
408.15	2986.52
408.34	3012.27
408.54	3115.25
408.73	3026.31
408.92	3052.06
409.11	3133.98
409.30	3073.12
409.49	3091.85
409.68	3201.85
409.87	3258.03
410.07	3152.70
410.26	3332.92
410.45	3316.54
410.64	3321.22
410.83	3372.71
411.02	3349.31
411.21	3438.25
411.40	3433.57
411.59	3293.13
411.78	3393.78
411.98	3445.27
412.17	3492.08
412.36	3424.20
412.55	3623.15
412.74	3709.75
412.93	3744.86
413.12	3665.28
413.31	3826.78
413.50	3810.39
413.69	3634.85
413.88	3964.87
414.07	3913.38
414.26	3981.25
414.45	3936.78
414.64	4072.53
414.83	4074.87
415.02	4133.39
415.22	4119.34
415.41	4070.19
415.60	4234.03
415.79	4278.50
415.98	4346.37
416.17	4332.33
416.36	4273.82
416.55	4362.76
416.74	4290.20
416.93	4444.68
417.12	4465.74
417.31	4454.04
417.50	4685.75
417.69	4734.90
417.88	4727.88
418.07	4723.20
418.26	4741.93
418.45	4753.63
418.64	4762.99
418.83	4884.70
419.02	4718.52
419.21	4854.27
419.39	4800.44
419.58	4716.18
419.77	4915.12
419.96	4968.96
420.15	4954.91
420.34	4985.34
420.53	4997.04
420.72	5151.52
420.91	5004.07
421.10	5062.58
421.29	5226.42
421.48	5093.01
421.67	5259.18
421.86	5221.74
422.05	5275.57
422.24	5207.69
422.43	5025.13
422.61	5287.27
422.80	5366.85
422.99	5284.93
423.18	5406.64
423.37	5460.47
423.56	5404.30
423.75	5530.69
423.94	5455.79
424.13	5006.41
424.32	5118.75
424.50	5474.51
424.69	5394.93
424.88	5453.45
425.07	5343.44
425.26	5343.44
425.45	5327.06
425.64	5509.62
425.83	5348.12
426.01	5591.54
426.20	5425.36
426.39	5469.83
426.58	5526.00
426.77	5572.82
426.96	5516.64
427.15	5472.17
427.33	5664.10
427.52	5748.36
427.71	5603.24
427.90	5757.72
428.09	5755.38
428.28	5820.91
428.46	5870.06
428.65	5776.44
428.84	5980.07
429.03	5893.47
429.22	5832.62
429.40	6134.54
429.59	5886.45
429.78	5696.86
429.97	5727.29
430.16	5893.47
430.34	6122.84
430.53	6207.10
430.72	5998.79
430.91	6083.05
431.10	6237.53
431.28	6193.06
431.47	6296.04
431.66	6476.26
431.85	6373.28
432.03	6438.81
432.22	6445.84
432.41	6471.58
432.60	6466.90
432.79	6743.08
432.97	6548.82
433.16	6612.01
433.35	6370.94
433.54	6644.78
433.72	6780.53
433.91	6408.39
434.10	6836.70
434.28	6703.29
434.47	6789.89
434.66	6647.12
434.85	6782.87
435.03	6986.50
435.22	6909.26
435.41	7145.66
435.59	6984.16
435.78	6869.47
435.97	7019.27
436.16	6942.03
436.34	7033.31
436.53	7143.32
436.72	7370.35
436.90	7152.68
437.09	7302.47
437.28	7082.46
437.46	7173.74
437.65	7279.07
437.84	7499.08
438.02	7602.06
438.21	7576.31
438.40	7103.53
438.58	7637.17
438.77	7578.65
438.96	7740.15
439.14	7955.48
439.33	7934.42
439.52	7974.21
439.70	7918.03
439.89	8156.77
440.08	8025.70
440.26	7915.69
440.45	7911.01
440.63	8161.45
440.82	8315.92
441.01	8327.63
441.19	8121.66
441.38	8678.71
441.57	8631.90
441.75	8456.36
441.94	8812.12
442.12	8601.47
442.31	8968.93
442.50	8842.54
442.68	8533.59
442.87	8994.68
443.05	9043.83
443.24	8975.95
443.43	8985.32
443.61	9092.98
443.80	9380.87
443.98	8849.57
444.17	8760.63
444.35	9219.37
444.54	9275.54
444.73	9156.18
444.91	9135.11
445.10	9114.05
445.28	9193.62
445.47	9226.39
445.65	9156.18
445.84	9415.98
446.02	9308.31
446.21	9174.90
446.39	9305.97
446.58	9256.82
446.77	9444.06
446.95	9233.41
447.14	9291.93
447.32	9343.42
447.51	9413.63
447.69	9537.68
447.88	9399.59
448.06	9277.88
448.25	9390.23
448.43	9493.21
448.62	9542.36
448.80	9303.63
448.99	9624.28
449.17	9537.68
449.36	9668.75
449.54	9818.55
449.73	9935.57
449.91	9760.03
450.10	10017.49
450.28	9846.63
450.46	9895.78
450.65	9949.62
450.83	10099.41
451.02	9853.66
451.20	10352.19
451.39	10289.00
451.57	10080.69
451.76	10104.09
451.94	10286.65
452.13	10228.14
452.31	10286.65
452.49	10052.60
452.68	10530.07
452.86	10232.82
453.05	10420.06
453.23	10710.29
453.42	10506.66
453.60	10448.15
453.78	10431.77
453.97	10342.83
454.15	10562.84
454.34	10579.22
454.52	10714.97
454.70	10684.55
454.89	10909.24
455.07	10846.04
455.26	11014.56
455.44	11162.01
455.62	10979.45
455.81	10970.09
455.99	11176.06
456.17	11049.67
456.36	11110.52
456.54	11262.66
456.73	11337.56
456.91	11618.42
457.09	11602.04
457.28	11918.01
457.46	11276.70
457.64	11817.36
457.83	11602.04
458.01	11396.07
458.19	11976.52
458.38	11665.23
458.56	11936.73
458.74	11941.41
458.93	11768.21
459.11	11873.54
459.29	11817.36
459.48	12046.74
459.66	12042.06
459.84	12063.12
460.03	12283.13
460.21	12116.95
460.39	12128.66
460.57	12315.90
460.76	12372.07
460.94	12709.11
461.12	12365.05
461.31	12423.56
461.49	12322.92
461.67	12362.71
461.85	12636.55
462.04	12620.17
462.22	13099.98
462.40	12746.56
462.59	12582.72
462.77	12702.09
462.95	12982.95
463.13	12809.75
463.32	12774.64
463.50	13268.50
463.68	13214.66
463.86	13057.85
464.05	13097.64
464.23	13111.68
464.41	13209.98
464.59	13069.55
464.78	13486.17
464.96	13142.11
465.14	13144.45
465.32	13474.46
465.50	13586.81
465.69	13397.23
465.87	13352.76
466.05	13544.68
466.23	13521.27
466.41	13420.63
466.60	13806.82
466.78	13745.97
466.96	13614.90
467.14	13734.26
467.32	13975.34
467.51	14038.53
467.69	13406.59
467.87	13942.57
468.05	14019.81
468.23	13792.78
468.41	13870.01
468.60	13998.74
468.78	14331.10
468.96	13982.36
469.14	14384.93
469.32	14391.95
469.50	14005.77
469.69	14691.54
469.87	14567.49
470.05	14867.08
470.23	14569.83
470.41	14567.49
470.59	14913.89
470.77	14441.11
470.95	14635.37
471.14	14853.04
471.32	14848.36
471.50	15279.02
471.68	15129.22
471.86	15236.89
472.04	15262.63
472.22	15796.28
472.40	15506.05
472.58	15833.72
472.77	15531.80
472.95	16023.31
473.13	16318.22
473.31	15599.67
473.49	15992.88
473.67	15922.66
473.85	16074.80
474.03	16116.93
474.21	15985.86
474.39	16533.54
474.57	16453.97
474.75	16589.72
474.93	17130.38
475.12	16851.86
475.30	16812.07
475.48	17118.68
475.66	16961.86
475.84	17069.53
476.02	17331.67
476.20	17259.11
476.38	17397.20
476.56	17689.77
476.74	17767.01
476.92	17689.77
477.10	17687.43
477.28	18134.47
477.46	18019.78
477.64	18382.57
477.82	18485.55
478.00	18778.12
478.18	18885.78
478.36	19227.50
478.54	19080.05
478.72	19510.71
478.90	19473.26
479.08	19379.64
479.26	19887.53
479.44	19803.27
479.62	20039.67
479.80	20348.62
479.98	20404.79
480.16	20318.19
480.34	20802.68
480.52	21142.06
480.70	21184.19
480.88	20844.81
481.06	21102.27
481.24	20950.14
481.41	21750.60
481.59	21771.66
481.77	21975.29
481.95	22263.18
482.13	22317.01
482.31	22249.13
482.49	22867.03
482.67	22640.00
482.85	23342.16
483.03	23220.45
483.21	23662.82
483.39	23517.70
483.57	23534.09
483.74	23770.48
483.92	24175.39
484.10	23915.59
484.28	24313.48
484.46	24489.03
484.64	25369.07
484.82	24758.19
485.00	25118.63
485.18	25638.23
485.35	25926.11
485.53	26099.31
485.71	26094.63
485.89	26497.20
486.07	26328.69
486.25	26424.65
486.43	26492.52
486.61	27145.53
486.78	27330.44
486.96	27379.59
487.14	27887.48
487.32	27936.63
487.50	28283.03
487.68	28311.12
487.85	28325.16
488.03	29057.75
488.21	29060.09
488.39	29259.04
488.57	29329.25
488.75	29661.61
488.92	29881.62
489.10	30000.99
489.28	30398.88
489.46	30747.62
489.64	30881.03
489.81	31302.32
489.99	31316.37
490.17	31578.51
490.35	31943.63
490.53	31800.86
490.70	32318.12
490.88	31929.59
491.06	32306.41
491.24	32708.99
491.41	32498.34
491.59	33132.62
491.77	33266.03
491.95	33806.70
492.13	33703.71
492.30	34078.20
492.48	33818.40
492.66	34040.75
492.84	34361.40
493.01	34494.82
493.19	34967.60
493.37	35349.11
493.54	35108.04
493.72	35587.85
493.90	35431.03
494.08	35821.90
494.25	36196.38
494.43	36538.10
494.61	36825.99
494.79	36481.93
494.96	36540.44
495.14	36961.74
495.32	37120.90
495.49	37584.32
495.67	37605.39
495.85	38209.25
496.02	38604.80
496.20	38064.13
496.38	38424.57
496.55	38443.30
496.73	39306.96
496.91	38939.49
497.09	39309.30
497.26	39459.09
497.44	39639.31
497.62	39852.30
497.79	40215.08
497.97	39714.21
498.14	40528.72
498.32	40910.22
498.50	41170.02
498.67	41200.45
498.85	40971.08
499.03	41603.02
499.20	41553.87
499.38	41914.31
499.56	41727.07
499.73	42108.58
499.91	42494.77
500.08	42689.03
500.26	42572.00
500.44	42483.06
500.61	42684.35
500.79	42876.27
500.97	43161.82
501.14	43714.19
501.32	42990.96
501.49	43732.91
501.67	43323.32
501.84	43625.25
502.02	43634.61
502.20	44371.88
502.37	44570.82
502.55	44238.47
502.72	44509.97
502.90	44704.23
503.07	44617.63
503.25	44854.03
503.43	45188.72
503.60	45125.53
503.78	45752.79
503.95	45371.28
504.13	45546.82
504.30	45668.53
504.48	45565.55
504.65	45825.35
504.83	46085.15
505.01	46873.91
505.18	46309.84
505.36	46471.34
505.53	46719.43
505.71	46422.19
505.88	47019.02
506.06	46174.09
506.23	47023.70
506.41	47356.06
506.58	47023.70
506.76	46951.15
506.93	47466.06
507.11	47660.33
507.28	47690.76
507.46	48224.40
507.63	47901.40
507.81	48568.46
507.98	47756.29
508.16	48617.61
508.33	48430.36
508.50	48608.25
508.68	48308.66
508.85	48992.09
509.03	48751.02
509.20	49263.60
509.38	49097.42
509.55	49357.22
509.73	49495.31
509.90	49647.44
510.08	49258.91
510.25	49453.18
510.42	49621.70
510.60	50073.42
510.77	50424.50
510.95	50220.87
511.12	50202.15
511.30	50120.23
511.47	50602.38
511.64	50815.37
511.82	51077.51
511.99	50614.08
512.17	51037.72
512.34	50777.92
512.51	51147.73
512.69	51129.00
512.86	51103.26
513.04	51267.09
513.21	51611.15
513.38	51529.23
513.56	51746.90
513.73	51494.13
513.90	51700.09
514.08	51505.83
514.25	51889.68
514.43	52100.32
514.60	52191.61
514.77	52200.97
514.95	52301.61
515.12	52339.06
515.29	52154.16
515.47	52402.25
515.64	52889.09
515.81	52884.40
515.99	52924.19
516.16	53076.33
516.33	53088.03
516.51	53045.90
516.68	52640.99
516.85	52900.79
517.03	53116.12
517.20	53305.70
517.37	53474.22
517.54	53528.05
517.72	53443.79
517.89	53647.42
518.06	53361.87
518.24	53399.32
518.41	53518.69
518.58	53727.00
518.75	53766.79
518.93	53837.00
519.10	54026.59
519.27	54162.34
519.45	53890.83
519.62	54150.63
519.79	54246.60
519.96	54206.81
520.14	54527.46
520.31	54417.46
520.48	54557.89
520.65	54672.57
520.83	54475.97
521.00	54801.30
521.17	54452.56
521.34	54911.31
521.52	54871.52
521.69	55297.50
521.86	55229.62
522.03	55285.79
522.20	55243.66
522.38	55089.19
522.55	55175.79
522.72	55458.99
522.89	55309.20
523.07	55508.14
523.24	55356.01
523.41	55810.07
523.58	55386.44
523.75	55576.02
523.92	55709.43
524.10	55779.65
524.27	55985.61
524.44	56163.50
524.61	56353.08
524.78	55955.19
524.96	56013.70
525.13	56116.68
525.30	56376.48
525.47	56151.79
525.64	56140.09
525.81	56416.27
525.98	56563.73
526.16	56687.78
526.33	56334.35
526.50	56547.34
526.67	56535.64
526.84	56713.52
527.01	56610.54
527.18	56753.31
527.36	56893.74
527.53	57125.46
527.70	57275.25
527.87	56917.15
528.04	56942.89
528.21	57031.83
528.38	57017.79
528.55	57031.83
528.72	57013.11
528.89	57378.23
529.07	57095.03
529.24	57162.90
529.41	57183.97
529.58	57425.04
529.75	57214.40
529.92	57282.27
530.09	57237.80
530.26	57364.19
530.43	57619.31
530.60	57272.91
530.77	57593.56
530.94	57490.58
531.11	57862.72
531.28	57808.89
531.46	57916.56
531.63	57680.16
531.80	58227.85
531.97	57954.00
532.14	58000.82
532.31	57921.24
532.48	58176.36
532.65	58099.12
532.82	58110.82
532.99	58314.45
533.16	57998.48
533.33	58377.64
533.50	58583.61
533.67	58368.28
533.84	58522.76
534.01	58333.17
534.18	58248.91
534.35	58534.46
534.52	58688.93
534.69	58539.14
534.86	58801.28
535.03	58578.93
535.20	58632.76
535.37	58981.50
535.54	58894.90
535.71	58670.21
535.88	58890.22
536.05	58927.67
536.22	59016.61
536.38	59100.87
536.55	59138.32
536.72	58941.71
536.89	59018.95
537.06	58836.39
537.23	59072.78
537.40	59068.10
537.57	59058.74
537.74	59192.15
537.91	59304.49
538.08	59290.45
538.25	59435.56
538.42	59220.23
538.59	59613.44
538.75	59363.01
538.92	59430.88
539.09	59463.65
539.26	59657.91
539.43	59721.11
539.60	59643.87
539.77	59611.10
539.94	59732.81
540.11	59737.49
540.28	59812.39
540.44	59777.28
540.61	59838.14
540.78	59798.35
540.95	59814.73
541.12	59711.75
541.29	59870.90
541.46	59978.57
541.62	59920.05
541.79	59821.75
541.96	59828.77
542.13	59915.37
542.30	60172.83
542.47	60107.30
542.63	60193.90
542.80	60320.29
542.97	60320.29
543.14	60399.86
543.31	60196.24
543.48	60388.16
543.64	60556.68
543.81	60947.55
543.98	60708.82
544.15	60687.75
544.32	60860.95
544.48	60769.67
544.65	60603.49
544.82	60750.94
544.99	60718.18
545.16	60690.09
545.32	60577.75
545.49	61076.28
545.66	60914.78
545.83	61221.39
546.00	61043.51
546.16	60942.87
546.33	60690.09
546.50	60432.63
546.67	61109.05
546.83	60772.01
547.00	61104.37
547.17	60924.14
547.34	61174.58
547.50	61174.58
547.67	61357.14
547.84	61160.54
548.00	61446.08
548.17	61345.44
548.34	61336.08
548.51	61532.68
548.67	61532.68
548.84	61450.77
549.01	61284.59
549.18	61230.75
549.34	61476.51
549.51	61485.87
549.68	61436.72
549.84	61443.74
550.01	61668.44
550.18	61277.57
550.34	61478.85
550.51	61556.09
550.68	61818.23
550.84	61602.90
551.01	61764.40
551.18	61464.81
551.34	61450.77
551.51	61750.35
551.68	61883.76
551.84	61848.66
552.01	61715.25
552.18	61951.64
552.34	61783.12
552.51	61986.75
552.68	61836.95
552.84	61755.03
553.01	62019.52
553.18	62017.17
553.34	61972.70
553.51	62124.84
553.67	61909.51
553.84	62183.35
554.01	62054.62
554.17	62316.76
554.34	62117.82
554.51	62173.99
554.67	62159.95
554.84	62195.06
555.00	62262.93
555.17	62340.17
555.33	62335.49
555.50	61998.45
555.67	62333.15
555.83	62265.27
556.00	62433.79
556.16	62574.22
556.33	62239.53
556.50	62269.95
556.66	62550.82
556.83	62365.91
556.99	62670.18
557.16	62632.74
557.32	62621.03
557.49	62595.29
557.65	62356.55
557.82	62562.52
557.98	62372.94
558.15	62637.42
558.32	62496.98
558.48	62639.76
558.65	62899.56
558.81	62810.62
558.98	62667.84
559.14	62801.25
559.31	62606.99
559.47	62660.82
559.64	62738.06
559.80	62829.34
559.97	63030.63
560.13	62850.41
560.30	62845.72
560.46	62955.73
560.63	62927.64
560.79	63000.20
560.96	62915.94
561.12	62726.36
561.29	62745.08
561.45	63056.37
561.61	63110.20
561.78	63091.48
561.94	62866.79
562.11	63164.04
562.27	63011.90
562.44	62990.84
562.60	62920.62
562.77	63173.40
562.93	62953.39
563.10	63288.09
563.26	63213.19
563.42	63103.18
563.59	63203.83
563.75	63135.95
563.92	63283.40
564.08	63140.63
564.24	63082.12
564.41	63166.38
564.57	63332.56
564.74	63203.83
564.90	63269.36
565.07	63203.83
565.23	63400.43
565.39	63444.90
565.56	63547.89
565.72	63353.62
565.88	63344.26
566.05	63344.26
566.21	63447.24
566.38	63306.81
566.54	63437.88
566.70	63559.59
566.87	63463.63
567.03	63543.20
567.19	63718.74
567.36	63524.48
567.52	63367.66
567.68	63522.14
567.85	63267.02
568.01	63419.16
568.17	63384.05
568.34	63547.89
568.50	63655.55
568.66	63594.70
568.83	63650.87
568.99	63543.20
569.15	63578.31
569.32	63538.52
569.48	63582.99
569.64	63557.25
569.81	63690.66
569.97	63362.98
570.13	63643.85
570.30	63522.14
570.46	63700.02
570.62	63566.61
570.78	63599.38
570.95	63550.23
571.11	63657.89
571.27	63386.39
571.43	63613.42
571.60	63805.34
571.76	63742.15
571.92	63889.60
572.09	63606.40
572.25	63791.30
572.41	63716.40
572.57	63697.68
572.74	63810.03
572.90	63578.31
573.06	63582.99
573.22	63746.83
573.38	63753.85
573.55	63744.49
573.71	64130.68
573.87	63901.31
574.03	63833.43
574.20	63784.28
574.36	63608.74
574.52	63714.06
574.68	63852.15
574.84	63725.77
575.01	63803.00
575.17	63941.10
575.33	63765.56
575.49	63803.00
575.65	63978.54
575.82	63931.73
575.98	63814.71
576.14	63978.54
576.30	63922.37
576.46	63622.78
576.62	63873.22
576.79	63884.92
576.95	63735.13
577.11	63749.17
577.27	63938.75
577.43	64020.67
577.59	63845.13
577.75	63835.77
577.92	63852.15
578.08	63753.85
578.24	63770.24
578.40	63976.20
578.56	63803.00
578.72	63969.18
578.88	64116.64
579.04	64034.72
579.21	64074.51
579.37	63983.22
579.53	64147.06
579.69	63814.71
579.85	63987.91
580.01	64046.42
580.17	63746.83
580.33	64086.21
580.49	64107.27
580.65	64184.51
580.82	64156.42
580.98	64039.40
581.14	63985.57
581.30	64212.60
581.46	64044.08
581.62	63891.94
581.78	63908.33
581.94	64055.78
582.10	63969.18
582.26	64048.76
582.42	64175.15
582.58	64065.14
582.74	64280.47
582.90	64231.32
583.06	64151.74
583.22	64006.63
583.38	64196.21
583.54	64231.32
583.70	63985.57
583.86	64088.55
584.02	63894.28
584.18	64074.51
584.34	64133.02
584.50	64097.91
584.66	64140.04
584.82	64086.21
584.98	64062.80
585.14	64034.72
585.30	63964.50
585.46	64018.33
585.62	64027.70
585.78	64055.78
585.94	63971.52
586.10	64280.47
586.26	64313.24
586.42	64446.65
586.58	64289.84
586.74	64044.08
586.90	64048.76
587.06	64205.58
587.22	64151.74
587.38	64051.10
587.54	64362.39
587.70	64322.60
587.86	64273.45
588.02	64350.69
588.18	64535.59
588.34	64355.37
588.49	64338.99
588.65	64252.39
