SpectraSuite Data File
++++++++++++++++++++++++++++++++++++
Date: Fri Oct 04 11:48:37 GMT-05:00 2013
User: price-jones
Dark Spectrum Present: No
Reference Spectrum Present: No
Number of Sampled Component Spectra: 1
Spectrometers: USB2+H05261
Integration Time (usec): 100000 (USB2+H05261)
Spectra Averaged: 1 (USB2+H05261)
Boxcar Smoothing: 0 (USB2+H05261)
Correct for Electrical Dark: No (USB2+H05261)
Strobe/Lamp Enabled: No (USB2+H05261)
Correct for Detector Non-linearity: No (USB2+H05261)
Correct for Stray Light: No (USB2+H05261)
Number of Pixels in Processed Spectrum: 2048
>>>>>Begin Processed Spectral Data<<<<<
365.73	0.00
365.92	0.00
366.12	0.00
366.32	0.00
366.52	0.00
366.72	0.00
366.91	0.00
367.11	0.00
367.31	0.00
367.51	0.00
367.70	0.00
367.90	0.00
368.10	0.00
368.30	0.00
368.49	0.00
368.69	0.00
368.89	0.00
369.09	0.00
369.28	28.09
369.48	0.00
369.68	0.00
369.87	0.00
370.07	0.00
370.27	4.68
370.47	79.58
370.66	135.75
370.86	198.95
371.06	117.03
371.25	203.63
371.45	173.20
371.65	138.09
371.84	138.09
372.04	154.48
372.24	177.88
372.44	156.82
372.63	224.69
372.83	266.82
373.03	117.03
373.22	98.30
373.42	224.69
373.62	241.08
373.81	229.37
374.01	248.10
374.21	159.16
374.40	217.67
374.60	161.50
374.79	264.48
374.99	250.44
375.19	229.37
375.38	257.46
375.58	220.01
375.78	238.73
375.97	236.39
376.17	245.76
376.37	170.86
376.56	318.31
376.76	201.29
376.95	283.20
377.15	234.05
377.35	238.73
377.54	203.63
377.74	191.92
377.93	220.01
378.13	234.05
378.33	236.39
378.52	229.37
378.72	264.48
378.91	236.39
379.11	217.67
379.31	224.69
379.50	184.90
379.70	222.35
379.89	217.67
380.09	175.54
380.28	271.50
380.48	191.92
380.68	191.92
380.87	201.29
381.07	229.37
381.26	283.20
381.46	304.27
381.65	290.23
381.85	173.20
382.04	220.01
382.24	229.37
382.43	161.50
382.63	248.10
382.83	264.48
383.02	294.91
383.22	241.08
383.41	210.65
383.61	205.97
383.80	292.57
384.00	201.29
384.19	215.33
384.39	301.93
384.58	241.08
384.78	273.84
384.97	220.01
385.17	222.35
385.36	220.01
385.56	304.27
385.75	222.35
385.95	189.58
386.14	299.59
386.34	306.61
386.53	297.25
386.72	280.86
386.92	421.30
387.11	299.59
387.31	339.38
387.50	245.76
387.70	315.97
387.89	241.08
388.09	250.44
388.28	318.31
388.48	276.18
388.67	304.27
388.86	355.76
389.06	322.99
389.25	337.04
389.45	290.23
389.64	318.31
389.84	339.38
390.03	407.25
390.22	397.89
390.42	351.08
390.61	360.44
390.81	315.97
391.00	330.02
391.19	297.25
391.39	332.36
391.58	386.19
391.78	337.04
391.97	318.31
392.16	390.87
392.36	414.27
392.55	306.61
392.75	390.87
392.94	404.91
393.13	379.17
393.33	416.62
393.52	325.33
393.71	425.98
393.91	318.31
394.10	425.98
394.29	500.87
394.49	379.17
394.68	397.89
394.88	425.98
395.07	334.70
395.26	470.45
395.46	388.53
395.65	500.87
395.84	437.68
396.04	566.41
396.23	489.17
396.42	500.87
396.62	505.56
396.81	468.11
397.00	475.13
397.19	526.62
397.39	486.83
397.58	526.62
397.77	435.34
397.97	470.45
398.16	456.40
398.35	566.41
398.55	535.98
398.74	456.40
398.93	608.54
399.12	531.30
399.32	507.90
399.51	589.82
399.70	620.24
399.90	573.43
400.09	559.39
400.28	566.41
400.47	662.37
400.67	629.60
400.86	596.84
401.05	564.07
401.24	631.94
401.44	678.76
401.63	678.76
401.82	730.25
402.01	634.29
402.21	718.54
402.40	617.90
402.59	671.73
402.78	681.10
402.97	744.29
403.17	699.82
403.36	819.19
403.55	702.16
403.74	791.10
403.93	706.84
404.13	793.44
404.32	739.61
404.51	786.42
404.70	781.74
404.89	889.40
405.09	826.21
405.28	802.80
405.47	901.11
405.66	938.55
405.85	903.45
406.05	866.00
406.24	929.19
406.43	924.51
406.62	954.94
406.81	933.87
407.00	1041.54
407.20	830.89
407.39	1025.15
407.58	997.07
407.77	922.17
407.96	1086.01
408.15	931.53
408.34	973.66
408.54	976.00
408.73	1090.69
408.92	1041.54
409.11	1046.22
409.30	1160.91
409.49	1116.44
409.68	1137.50
409.87	1109.41
410.07	1046.22
410.26	1174.95
410.45	1165.59
410.64	1121.12
410.83	1179.63
411.02	1198.35
411.21	1163.25
411.40	1165.59
411.59	1270.91
411.78	1420.71
411.98	1394.96
412.17	1352.83
412.36	1390.28
412.55	1390.28
412.74	1294.32
412.93	1409.00
413.12	1327.08
413.31	1476.88
413.50	1500.28
413.69	1453.47
413.88	1563.48
414.07	1549.43
414.26	1570.50
414.45	1544.75
414.64	1577.52
414.83	1575.18
415.02	1586.88
415.22	1675.82
415.41	1696.89
415.60	1654.76
415.79	1699.23
415.98	1710.93
416.17	1755.40
416.36	1696.89
416.55	1727.32
416.74	1762.42
416.93	1839.66
417.12	1785.83
417.31	1792.85
417.50	1736.68
417.69	1788.17
417.88	1914.56
418.07	1954.35
418.26	1933.28
418.45	2015.20
418.64	2029.24
418.83	1886.47
419.02	1940.30
419.21	1888.81
419.39	1989.46
419.58	1851.36
419.77	1956.69
419.96	2012.86
420.15	2059.67
420.34	1942.64
420.53	2036.27
420.72	2036.27
420.91	2115.84
421.10	2099.46
421.29	2101.80
421.48	2115.84
421.67	2139.25
421.86	2113.50
422.05	2146.27
422.24	2157.97
422.43	2115.84
422.61	2146.27
422.80	2101.80
422.99	2183.72
423.18	2172.02
423.37	2342.88
423.56	2179.04
423.75	2097.12
423.94	2115.84
424.13	1963.71
424.32	2097.12
424.50	2132.23
424.69	2111.16
424.88	2284.36
425.07	2134.57
425.26	2153.29
425.45	2190.74
425.64	2307.77
425.83	2228.19
426.01	2265.64
426.20	2221.17
426.39	2260.96
426.58	2282.02
426.77	2392.03
426.96	2349.90
427.15	2436.50
427.33	2286.70
427.52	2338.20
427.71	2403.73
427.90	2286.70
428.09	2303.09
428.28	2473.95
428.46	2296.07
428.65	2424.80
428.84	2487.99
429.03	2562.89
429.22	2483.31
429.40	2394.37
429.59	2415.43
429.78	2480.97
429.97	2476.29
430.16	2480.97
430.34	2495.01
430.53	2595.65
430.72	2485.65
430.91	2443.52
431.10	2525.44
431.28	2607.36
431.47	2665.87
431.66	2651.83
431.85	2626.08
432.03	2759.49
432.22	2743.11
432.41	2630.76
432.60	2663.53
432.79	2649.49
432.97	2689.28
433.16	2689.28
433.35	2642.46
433.54	2818.00
433.72	2726.72
433.91	2787.58
434.10	2820.35
434.28	2796.94
434.47	2829.71
434.66	2752.47
434.85	2904.60
435.03	2897.58
435.22	2853.11
435.41	2960.78
435.59	2764.17
435.78	2888.22
435.97	2820.35
436.16	2951.42
436.34	2740.77
436.53	2883.54
436.72	2965.46
436.90	2986.52
437.09	2944.39
437.28	2967.80
437.46	2977.16
437.65	3101.21
437.84	3052.06
438.02	2984.18
438.21	3014.61
438.40	2904.60
438.58	3068.44
438.77	3068.44
438.96	3009.93
439.14	3229.94
439.33	3248.66
439.52	3253.34
439.70	3169.09
439.89	3396.12
440.08	3426.54
440.26	3379.73
440.45	3337.60
440.63	3426.54
440.82	3368.03
441.01	3393.78
441.19	3440.59
441.38	3456.97
441.57	3492.08
441.75	3599.74
441.94	3574.00
442.12	3548.25
442.31	3646.55
442.50	3585.70
442.68	3548.25
442.87	3625.49
443.05	3576.34
443.24	3782.31
443.43	3693.37
443.61	3672.30
443.80	3838.48
443.98	3550.59
444.17	3597.40
444.35	3693.37
444.54	3770.60
444.73	3733.15
444.91	3686.34
445.10	3754.22
445.28	3634.85
445.47	3653.58
445.65	3749.54
445.84	3599.74
446.02	3735.50
446.21	3875.93
446.39	3777.62
446.58	3887.63
446.77	3880.61
446.95	3747.20
447.14	3794.01
447.32	3873.59
447.51	3772.94
447.69	3723.79
447.88	3794.01
448.06	3882.95
448.25	3854.86
448.43	3906.35
448.62	3815.07
448.80	3761.24
448.99	3988.27
449.17	4021.04
449.36	3948.48
449.54	3936.78
449.73	3974.23
449.91	4114.66
450.10	4023.38
450.28	4210.62
450.46	4042.11
450.65	4065.51
450.83	4095.94
451.02	4131.05
451.20	4070.19
451.39	4262.12
451.57	4070.19
451.76	4086.58
451.94	4098.28
452.13	4088.92
452.31	4088.92
452.49	4194.24
452.68	4222.33
452.86	4212.96
453.05	4271.48
453.23	4325.31
453.42	4091.26
453.60	4095.94
453.78	4262.12
453.97	4126.36
454.15	4355.74
454.34	4161.47
454.52	4416.59
454.70	4348.72
454.89	4503.19
455.07	4304.25
455.26	4322.97
455.44	4435.32
455.62	4428.29
455.81	4416.59
455.99	4358.08
456.17	4545.32
456.36	4489.15
456.54	4662.35
456.73	4603.83
456.91	4723.20
457.09	4711.50
457.28	4660.01
457.46	4594.47
457.64	4765.33
457.83	4692.77
458.01	4765.33
458.19	4702.14
458.38	4664.69
458.56	4889.38
458.74	4870.65
458.93	4777.03
459.11	4779.37
459.29	4746.61
459.48	4905.76
459.66	4924.49
459.84	4910.44
460.03	4987.68
460.21	4741.93
460.39	4868.31
460.57	4880.02
460.76	4931.51
460.94	5114.07
461.12	5018.11
461.31	5135.14
461.49	5074.28
461.67	4908.10
461.85	5083.64
462.04	5188.97
462.22	5446.43
462.40	5125.77
462.59	5083.64
462.77	5020.45
462.95	5165.56
463.13	5235.78
463.32	5238.12
463.50	5172.58
463.68	5170.24
463.86	5188.97
464.05	5055.56
464.23	5203.01
464.41	5289.61
464.59	5121.09
464.78	5329.40
464.96	5320.04
465.14	5327.06
465.32	5153.86
465.50	5530.69
465.69	5411.32
465.87	5247.48
466.05	5235.78
466.23	5350.46
466.41	5357.49
466.60	5535.37
466.78	5315.36
466.96	5476.85
467.14	5465.15
467.32	5504.94
467.51	5598.56
467.69	5291.95
467.87	5565.79
468.05	5584.52
468.23	5558.77
468.41	5528.35
468.60	5472.17
468.78	5657.07
468.96	5533.03
469.14	5757.72
469.32	5657.07
469.50	5664.10
469.69	5762.40
469.87	5720.27
470.05	5832.62
470.23	5849.00
470.41	5743.67
470.59	5853.68
470.77	5729.63
470.95	5898.15
471.14	6019.86
471.32	5813.89
471.50	6148.59
471.68	5905.17
471.86	5951.98
472.04	6094.76
472.22	6293.70
472.40	6146.25
472.58	6045.60
472.77	6108.80
472.95	6307.74
473.13	6604.99
473.31	6272.64
473.49	6267.95
473.67	6235.19
473.85	6225.82
474.03	6314.77
474.21	6462.22
474.39	6392.00
474.57	6469.24
474.75	6572.22
474.93	6754.79
475.12	6593.29
475.30	6492.65
475.48	6441.15
475.66	6670.53
475.84	6698.61
476.02	6677.55
476.20	6768.83
476.38	6918.62
476.56	6883.52
476.74	6984.16
476.92	6993.52
477.10	6902.24
477.28	7138.63
477.46	6869.47
477.64	7052.03
477.82	7194.81
478.00	7314.17
478.18	7295.45
478.36	7159.70
478.54	7349.28
478.72	7517.80
478.90	7541.21
479.08	7674.62
479.26	7517.80
479.44	7698.02
479.62	7707.38
479.80	7815.05
479.98	8030.38
480.16	8009.31
480.34	7913.35
480.52	8189.53
480.70	8060.80
480.88	8196.56
481.06	8301.88
481.24	8234.00
481.41	8348.69
481.59	8308.90
481.77	8458.70
481.95	8475.08
482.13	8718.50
482.31	8482.10
482.49	8716.16
482.67	8706.79
482.85	8706.79
483.03	9036.81
483.21	9137.45
483.39	9181.92
483.57	9102.34
483.74	9305.97
483.92	9249.80
484.10	9202.99
484.28	9341.08
484.46	9647.69
484.64	9710.88
484.82	9446.40
485.00	9654.71
485.18	9977.70
485.35	9870.04
485.53	9727.27
485.71	9813.87
485.89	10001.11
486.07	9886.42
486.25	10092.39
486.43	10176.65
486.61	10317.08
486.78	10387.30
486.96	10590.92
487.14	10672.84
487.32	10647.10
487.50	10478.58
487.68	10590.92
487.85	10736.04
488.03	11234.57
488.21	11211.17
488.39	11091.80
488.57	10991.16
488.75	11253.30
488.92	11632.46
489.10	11571.61
489.28	11466.28
489.46	11723.74
489.64	11644.17
489.81	11761.19
489.99	11639.48
490.17	11873.54
490.35	11946.09
490.53	12077.16
490.70	12325.26
490.88	11981.20
491.06	12301.86
491.24	12343.99
491.41	12592.08
491.59	12545.27
491.77	12652.94
491.95	12910.40
492.13	12877.63
492.30	12734.85
492.48	13011.04
492.66	12830.82
492.84	13001.68
493.01	13151.47
493.19	13336.37
493.37	13118.70
493.54	13392.55
493.72	13642.98
493.90	13586.81
494.08	13521.27
494.25	13621.92
494.43	13827.88
494.61	13977.68
494.79	14024.49
494.96	13785.76
495.14	14141.52
495.32	14228.12
495.49	14146.20
495.67	14567.49
495.85	14235.14
496.02	14422.38
496.20	14445.79
496.38	14506.64
496.55	14239.82
496.73	14869.42
496.91	14799.21
497.09	14927.94
497.26	15026.24
497.44	14820.27
497.62	15059.01
497.79	15276.68
497.97	15056.67
498.14	15328.17
498.32	15496.69
498.50	15559.88
498.67	15620.74
498.85	15559.88
499.03	15545.84
499.20	15712.02
499.38	15807.98
499.56	15936.71
499.73	15796.28
499.91	15786.91
500.08	16070.12
500.26	16027.99
500.44	16271.40
500.61	16294.81
500.79	16248.00
500.97	16353.32
501.14	16451.63
501.32	16402.47
501.49	16657.59
501.67	16465.67
501.84	16592.06
502.02	16446.94
502.20	16854.20
502.37	17039.10
502.55	16898.67
502.72	16971.22
502.90	16835.47
503.07	16987.61
503.25	17095.27
503.43	16959.52
503.60	17111.66
503.78	17418.27
503.95	16938.46
504.13	17345.71
504.30	17263.79
504.48	17277.83
504.65	17652.32
504.83	17551.68
505.01	17823.18
505.18	17781.05
505.36	17991.70
505.53	17830.20
505.71	17895.74
505.88	17877.01
506.06	17930.84
506.23	18033.83
506.41	17921.48
506.58	18302.99
506.76	18204.69
506.93	18162.56
507.11	18263.20
507.28	18396.61
507.46	18412.99
507.63	18478.53
507.81	18700.88
507.98	18487.89
508.16	18401.29
508.33	18511.30
508.50	18651.73
508.68	18794.50
508.85	19058.98
509.03	19101.11
509.20	18974.72
509.38	19374.95
509.55	18986.43
509.73	19183.03
509.90	19225.16
510.08	19274.31
510.25	19609.01
510.42	19634.75
510.60	19569.22
510.77	19529.43
510.95	19555.18
511.12	19634.75
511.30	19379.64
511.47	19920.30
511.64	19924.98
511.82	19939.02
511.99	19791.57
512.17	19594.96
512.34	19681.56
512.51	19981.15
512.69	19775.19
512.86	20128.61
513.04	20428.20
513.21	20273.72
513.38	20561.61
513.56	20748.85
513.73	20262.02
513.90	20339.26
514.08	20372.02
514.25	20409.47
514.43	20339.26
514.60	20851.83
514.77	20765.23
514.95	20889.28
515.12	20870.56
515.29	20847.15
515.47	21027.37
515.64	20950.14
515.81	20734.81
515.99	21310.58
516.16	21170.15
516.33	21341.00
516.51	21128.02
516.68	21116.31
516.85	21238.02
517.03	21577.40
517.20	21331.64
517.37	21446.33
517.54	21696.77
517.72	21429.94
517.89	21586.76
518.06	21514.20
518.24	21853.58
518.41	21607.83
518.58	21661.66
518.75	21867.63
518.93	21766.98
519.10	21874.65
519.27	22008.06
519.45	21965.93
519.62	22045.51
519.79	22054.87
519.96	22225.73
520.14	22455.10
520.31	22279.56
520.48	22099.34
520.65	22546.38
520.83	22394.25
521.00	22452.76
521.17	22396.59
521.34	22553.40
521.52	22614.26
521.69	22988.74
521.86	22789.80
522.03	22895.12
522.20	22899.80
522.38	23190.03
522.55	23009.81
522.72	22794.48
522.89	23246.20
523.07	23398.34
523.24	23033.21
523.41	22998.10
523.58	23042.57
523.75	23323.44
523.92	23241.52
524.10	22995.76
524.27	23091.73
524.44	23271.95
524.61	23878.15
524.78	23545.79
524.96	23899.21
525.13	23674.52
525.30	23328.12
525.47	23831.33
525.64	23669.84
525.81	23831.33
525.98	23828.99
526.16	23578.56
526.33	23562.17
526.50	23859.42
526.67	24074.75
526.84	23990.49
527.01	23761.12
527.18	23747.08
527.36	24430.51
527.53	24161.35
527.70	24273.70
527.87	24451.58
528.04	23929.64
528.21	23988.15
528.38	24060.71
528.55	24325.19
528.72	24383.70
528.89	24247.95
529.07	24154.33
529.24	24676.27
529.41	24608.39
529.58	24538.18
529.75	24430.51
529.92	24769.89
530.09	25039.05
530.26	24828.40
530.43	24606.05
530.60	24795.64
530.77	24655.20
530.94	25064.80
531.11	24484.34
531.28	24655.20
531.46	24950.11
531.63	24814.36
531.80	24753.51
531.97	25179.48
532.14	24758.19
532.31	24968.84
532.48	25378.43
532.65	25500.14
532.82	24781.59
532.99	25160.76
533.16	25191.19
533.33	25308.21
533.50	25350.34
533.67	25230.98
533.84	25027.35
534.01	25511.84
534.18	25111.61
534.35	25357.36
534.52	25455.67
534.69	25612.48
534.86	25727.17
535.03	25647.59
535.20	25701.42
535.37	25516.52
535.54	25731.85
535.71	25441.62
535.88	25900.37
536.05	25972.92
536.22	25923.77
536.38	25750.57
536.55	25951.86
536.72	26078.25
536.89	25631.21
537.06	25902.71
537.23	26164.85
537.40	25542.27
537.57	25923.77
537.74	26361.45
537.91	26155.49
538.08	26256.13
538.25	25930.80
538.42	26057.18
538.59	26230.38
538.75	26106.34
538.92	26150.81
539.09	26520.61
539.26	26335.71
539.43	26597.85
539.60	26778.07
539.77	26614.23
539.94	26520.61
540.11	26656.36
540.28	26324.01
540.44	26457.42
540.61	26431.67
540.78	26618.91
540.95	26644.66
541.12	26785.09
541.29	26499.55
541.46	26450.39
541.62	26792.11
541.79	26754.66
541.96	26457.42
542.13	26518.27
542.30	27058.93
542.47	27117.45
542.63	27133.83
542.80	26918.50
542.97	27131.49
543.14	27129.15
543.31	26897.44
543.48	27063.61
543.64	27459.16
543.81	27140.85
543.98	27454.48
544.15	27381.93
544.32	27625.34
544.48	27606.62
544.65	27185.32
544.82	27243.84
544.99	27332.78
545.16	27449.80
545.32	27623.00
545.49	27620.66
545.66	27679.18
545.83	27861.74
546.00	27669.81
546.16	27793.86
546.33	27353.84
546.50	27545.76
546.67	27440.44
546.83	27292.99
547.00	27658.11
547.17	27765.78
547.34	27814.93
547.50	27702.58
547.67	28070.04
547.84	27971.74
548.00	27779.82
548.17	27913.23
548.34	28009.19
548.51	28091.11
548.67	28458.57
548.84	27988.13
549.01	28098.13
549.18	27903.87
549.34	27871.10
549.51	28158.99
549.68	27866.42
549.84	28004.51
550.01	28135.58
550.18	28027.92
550.34	27953.02
550.51	28229.20
550.68	28315.80
550.84	27981.10
551.01	28182.39
551.18	28304.10
551.34	28004.51
551.51	28465.60
551.68	28320.48
551.84	28884.55
552.01	28582.62
552.18	28706.67
552.34	28306.44
552.51	28383.68
552.68	28339.21
552.84	28376.66
553.01	28706.67
553.18	28680.92
553.34	28542.83
553.51	28456.23
553.67	28474.96
553.84	28917.32
554.01	28669.22
554.17	28521.77
554.34	28809.65
554.51	28683.27
554.67	28755.82
554.84	29050.73
555.00	28706.67
555.17	28936.04
555.33	29097.54
555.50	28802.63
555.67	28512.41
555.83	28819.02
556.00	28877.53
556.16	28807.31
556.33	28985.19
556.50	29024.98
556.66	28987.53
556.83	28847.10
556.99	29062.43
557.16	29085.84
557.32	28957.11
557.49	29186.48
557.65	28842.42
557.82	28772.21
557.98	28893.91
558.15	28936.04
558.32	29090.52
558.48	28961.79
558.65	29233.29
558.81	29024.98
558.98	29024.98
559.14	28856.46
559.31	29010.94
559.47	29177.12
559.64	29425.22
559.80	29317.55
559.97	29474.37
560.13	29008.60
560.30	29118.60
560.46	29200.52
560.63	29034.35
560.79	29252.02
560.96	29109.24
561.12	28978.17
561.29	29193.50
561.45	29237.97
561.61	29039.03
561.78	29247.33
561.94	29120.95
562.11	29071.79
562.27	29139.67
562.44	28889.23
562.60	29184.14
562.77	29191.16
562.93	29465.00
563.10	29352.66
563.26	29462.66
563.42	29727.14
563.59	29600.76
563.75	29308.19
563.92	29373.72
564.08	29085.84
564.24	29509.47
564.41	29593.73
564.57	29043.71
564.74	29331.59
564.90	29509.47
565.07	29263.72
565.23	29645.23
565.39	29530.54
565.56	29280.10
565.72	29296.49
565.88	29029.66
566.05	29432.24
566.21	28821.36
566.38	29209.89
566.54	29425.22
566.70	29617.14
566.87	29642.88
567.03	29425.22
567.19	29656.93
567.36	29493.09
567.52	29102.22
567.68	29198.18
567.85	29167.76
568.01	29511.81
568.17	29551.60
568.34	29778.64
568.50	29567.99
568.66	29525.86
568.83	29317.55
568.99	29675.65
569.15	29446.28
569.32	29635.86
569.48	29467.34
569.64	29652.25
569.81	29729.48
569.97	29518.84
570.13	29619.48
570.30	29493.09
570.46	29324.57
570.62	29607.78
570.78	29240.31
570.95	29455.64
571.11	29710.76
571.27	29167.76
571.43	29514.16
571.60	29558.63
571.76	29516.50
571.92	29755.23
572.09	29656.93
572.25	30015.03
572.41	29598.41
572.57	29788.00
572.74	29860.55
572.90	29469.69
573.06	29481.39
573.22	29706.08
573.38	29919.07
573.55	29591.39
573.71	30031.41
573.87	29528.20
574.03	29776.30
574.20	29565.65
574.36	29340.96
574.52	29687.36
574.68	29137.33
574.84	29659.27
575.01	29912.05
575.17	29951.84
575.33	29841.83
575.49	29741.19
575.65	29766.93
575.82	29577.35
575.98	29465.00
576.14	29743.53
576.30	29703.74
576.46	29521.18
576.62	29434.58
576.79	29855.87
576.95	29575.01
577.11	29902.68
577.27	29673.31
577.43	29752.89
577.59	30064.18
577.75	29912.05
577.92	29795.02
578.08	29411.17
578.24	29195.84
578.40	29900.34
578.56	29600.76
578.72	29825.45
578.88	29898.00
579.04	29745.87
579.21	29851.19
579.37	29677.99
579.53	29572.67
579.69	29708.42
579.85	29546.92
580.01	29984.60
580.17	29490.75
580.33	29902.68
580.49	29788.00
580.65	29776.30
580.82	29661.61
580.98	29909.71
581.14	29900.34
581.30	30153.12
581.46	29804.38
581.62	29390.11
581.78	29476.71
581.94	30082.91
582.10	29673.31
582.26	29570.33
582.42	29731.83
582.58	29816.08
582.74	29677.99
582.90	29701.40
583.06	29497.77
583.22	29443.94
583.38	29937.79
583.54	29582.03
583.70	29596.07
583.86	29830.13
584.02	29661.61
584.18	29984.60
584.34	29771.61
584.50	29965.88
584.66	29710.76
584.82	29465.00
584.98	29713.10
585.14	29525.86
585.30	29748.21
585.46	29577.35
585.62	29921.41
585.78	29898.00
585.94	29624.16
586.10	29621.82
586.26	29736.51
586.42	30038.44
586.58	30106.31
586.74	29879.28
586.90	29802.04
587.06	29677.99
587.22	30089.93
587.38	29949.50
587.54	29905.02
587.70	29993.97
587.86	29855.87
588.02	29397.13
588.18	29907.37
588.34	29621.82
588.49	29848.85
588.65	29724.80
588.81	29869.92
588.97	30335.68
589.13	29539.90
589.29	29853.53
589.45	30230.36
589.61	29745.87
589.77	29652.25
589.93	30295.89
590.08	30600.16
590.24	29928.43
590.40	30160.14
590.56	29935.45
590.72	29605.44
590.88	29364.36
591.04	29893.32
591.20	29928.43
591.35	29914.39
591.51	30057.16
591.67	30249.08
591.83	30099.29
