SpectraSuite Data File
++++++++++++++++++++++++++++++++++++
Date: Fri Oct 04 11:48:21 GMT-05:00 2013
User: price-jones
Dark Spectrum Present: No
Reference Spectrum Present: No
Number of Sampled Component Spectra: 1
Spectrometers: USB2+H05261
Integration Time (usec): 100000 (USB2+H05261)
Spectra Averaged: 1 (USB2+H05261)
Boxcar Smoothing: 0 (USB2+H05261)
Correct for Electrical Dark: No (USB2+H05261)
Strobe/Lamp Enabled: No (USB2+H05261)
Correct for Detector Non-linearity: No (USB2+H05261)
Correct for Stray Light: No (USB2+H05261)
Number of Pixels in Processed Spectrum: 2048
>>>>>Begin Processed Spectral Data<<<<<
365.73	0.00
365.92	0.00
366.12	0.00
366.32	4.68
366.52	0.00
366.72	0.00
366.91	0.00
367.11	0.00
367.31	0.00
367.51	0.00
367.70	0.00
367.90	0.00
368.10	0.00
368.30	0.00
368.49	0.00
368.69	0.00
368.89	0.00
369.09	0.00
369.28	0.00
369.48	0.00
369.68	0.00
369.87	0.00
370.07	0.00
370.27	0.00
370.47	25.75
370.66	51.49
370.86	32.77
371.06	107.66
371.25	147.45
371.45	102.98
371.65	86.60
371.84	105.32
372.04	124.05
372.24	60.85
372.44	86.60
372.63	142.77
372.83	191.92
373.03	79.58
373.22	95.96
373.42	131.07
373.62	154.48
373.81	74.90
374.01	166.18
374.21	201.29
374.40	170.86
374.60	133.41
374.79	135.75
374.99	215.33
375.19	189.58
375.38	170.86
375.58	215.33
375.78	198.95
375.97	191.92
376.17	259.80
376.37	191.92
376.56	128.73
376.76	212.99
376.95	170.86
377.15	154.48
377.35	145.11
377.54	133.41
377.74	163.84
377.93	110.01
378.13	187.24
378.33	238.73
378.52	163.84
378.72	234.05
378.91	170.86
379.11	161.50
379.31	74.90
379.50	191.92
379.70	210.65
379.89	184.90
380.09	245.76
380.28	119.37
380.48	112.35
380.68	154.48
380.87	163.84
381.07	194.26
381.26	208.31
381.46	161.50
381.65	198.95
381.85	95.96
382.04	156.82
382.24	220.01
382.43	208.31
382.63	152.13
382.83	224.69
383.02	201.29
383.22	198.95
383.41	166.18
383.61	102.98
383.80	131.07
384.00	135.75
384.19	245.76
384.39	252.78
384.58	168.52
384.78	212.99
384.97	245.76
385.17	189.58
385.36	180.22
385.56	215.33
385.75	147.45
385.95	210.65
386.14	311.29
386.34	252.78
386.53	234.05
386.72	208.31
386.92	320.65
387.11	156.82
387.31	184.90
387.50	243.42
387.70	229.37
387.89	140.43
388.09	262.14
388.28	278.52
388.48	241.08
388.67	273.84
388.86	131.07
389.06	198.95
389.25	257.46
389.45	194.26
389.64	231.71
389.84	217.67
390.03	297.25
390.22	250.44
390.42	194.26
390.61	264.48
390.81	166.18
391.00	241.08
391.19	255.12
391.39	236.39
391.58	299.59
391.78	311.29
391.97	248.10
392.16	264.48
392.36	297.25
392.55	262.14
392.75	257.46
392.94	325.33
393.13	372.15
393.33	243.42
393.52	285.55
393.71	346.40
393.91	308.95
394.10	262.14
394.29	290.23
394.49	266.82
394.68	313.63
394.88	327.68
395.07	262.14
395.26	266.82
395.46	315.97
395.65	355.76
395.84	311.29
396.04	425.98
396.23	367.46
396.42	290.23
396.62	308.95
396.81	297.25
397.00	402.57
397.19	339.38
397.39	365.12
397.58	425.98
397.77	360.44
397.97	372.15
398.16	388.53
398.35	346.40
398.55	421.30
398.74	372.15
398.93	416.62
399.12	374.49
399.32	388.53
399.51	355.76
399.70	430.66
399.90	491.51
400.09	486.83
400.28	498.53
400.47	425.98
400.67	423.64
400.86	463.43
401.05	482.15
401.24	479.81
401.44	458.74
401.63	451.72
401.82	477.47
402.01	447.04
402.21	437.68
402.40	552.37
402.59	442.36
402.78	496.19
402.97	507.90
403.17	552.37
403.36	533.64
403.55	535.98
403.74	538.32
403.93	547.69
404.13	622.58
404.32	578.11
404.51	580.45
404.70	592.16
404.89	587.47
405.09	720.88
405.28	638.97
405.47	580.45
405.66	629.60
405.85	681.10
406.05	685.78
406.24	643.65
406.43	669.39
406.62	667.05
406.81	763.01
407.00	713.86
407.20	645.99
407.39	657.69
407.58	765.36
407.77	774.72
407.96	704.50
408.15	751.31
408.34	835.57
408.54	840.25
408.73	741.95
408.92	763.01
409.11	770.04
409.30	795.78
409.49	894.08
409.68	821.53
409.87	905.79
410.07	858.98
410.26	800.46
410.45	802.80
410.64	868.34
410.83	903.45
411.02	849.61
411.21	973.66
411.40	1006.43
411.59	968.98
411.78	964.30
411.98	933.87
412.17	1078.99
412.36	1100.05
412.55	1071.97
412.74	1107.07
412.93	1100.05
413.12	1167.93
413.31	1100.05
413.50	1027.50
413.69	1125.80
413.88	1167.93
414.07	1135.16
414.26	1200.69
414.45	1097.71
414.64	1095.37
414.83	1149.20
415.02	1177.29
415.22	1212.40
415.41	1254.53
415.60	1214.74
415.79	1221.76
415.98	1301.34
416.17	1348.15
416.36	1301.34
416.55	1296.66
416.74	1259.21
416.93	1373.89
417.12	1317.72
417.31	1299.00
417.50	1322.40
417.69	1427.73
417.88	1406.66
418.07	1341.13
418.26	1371.55
418.45	1451.13
418.64	1439.43
418.83	1586.88
419.02	1446.45
419.21	1411.34
419.39	1565.82
419.58	1411.34
419.77	1467.52
419.96	1528.37
420.15	1556.46
420.34	1535.39
420.53	1533.05
420.72	1598.59
420.91	1589.22
421.10	1547.09
421.29	1675.82
421.48	1579.86
421.67	1610.29
421.86	1614.97
422.05	1614.97
422.24	1535.39
422.43	1579.86
422.61	1514.33
422.80	1666.46
422.99	1621.99
423.18	1600.93
423.37	1706.25
423.56	1666.46
423.75	1593.90
423.94	1638.38
424.13	1521.35
424.32	1603.27
424.50	1682.85
424.69	1699.23
424.88	1687.53
425.07	1593.90
425.26	1732.00
425.45	1678.16
425.64	1668.80
425.83	1685.19
426.01	1645.40
426.20	1682.85
426.39	1612.63
426.58	1661.78
426.77	1713.27
426.96	1664.12
427.15	1664.12
427.33	1783.49
427.52	1888.81
427.71	1741.36
427.90	1701.57
428.09	1750.72
428.28	1694.55
428.46	1902.86
428.65	1790.51
428.84	1888.81
429.03	1799.87
429.22	1818.60
429.40	1858.39
429.59	1797.53
429.78	1734.34
429.97	1832.64
430.16	1732.00
430.34	1844.34
430.53	1907.54
430.72	1886.47
430.91	1982.43
431.10	1865.41
431.28	1879.45
431.47	1923.92
431.66	1877.11
431.85	1949.67
432.03	2008.18
432.22	2113.50
432.41	1961.37
432.60	2008.18
432.79	2001.16
432.97	2057.33
433.16	1973.07
433.35	1980.09
433.54	2071.37
433.72	2010.52
433.91	1984.77
434.10	2057.33
434.28	2106.48
434.47	2129.89
434.66	2162.66
434.85	2069.03
435.03	2125.21
435.22	1966.05
435.41	2108.82
435.59	2221.17
435.78	2134.57
435.97	2148.61
436.16	2176.70
436.34	2134.57
436.53	2303.09
436.72	2237.55
436.90	2141.59
437.09	2179.04
437.28	2118.18
437.46	2188.40
437.65	2279.68
437.84	2228.19
438.02	2296.07
438.21	2293.72
438.40	2197.76
438.58	2361.60
438.77	2338.20
438.96	2403.73
439.14	2321.81
439.33	2321.81
439.52	2431.82
439.70	2443.52
439.89	2469.27
440.08	2546.50
440.26	2417.77
440.45	2497.35
440.63	2518.42
440.82	2541.82
441.01	2654.17
441.19	2509.05
441.38	2502.03
441.57	2675.23
441.75	2654.17
441.94	2572.25
442.12	2654.17
442.31	2672.89
442.50	2607.36
442.68	2630.76
442.87	2668.21
443.05	2689.28
443.24	2885.88
443.43	2733.75
443.61	2813.32
443.80	2796.94
443.98	2689.28
444.17	2649.49
444.35	2656.51
444.54	2895.24
444.73	2860.13
444.91	2813.32
445.10	2743.11
445.28	2771.19
445.47	2789.92
445.65	2808.64
445.84	2857.79
446.02	2895.24
446.21	2794.60
446.39	2890.56
446.58	2754.81
446.77	2892.90
446.95	2717.36
447.14	2778.22
447.32	2860.13
447.51	2808.64
447.69	2759.49
447.88	2839.07
448.06	2822.69
448.25	2874.18
448.43	2958.44
448.62	2881.20
448.80	2853.11
448.99	2909.29
449.17	2998.23
449.36	2874.18
449.54	3023.97
449.73	2960.78
449.91	3012.27
450.10	3077.80
450.28	2979.50
450.46	3077.80
450.65	3206.53
450.83	3019.29
451.02	3108.23
451.20	3059.08
451.39	3141.00
451.57	3084.83
451.76	3108.23
451.94	3178.45
452.13	3131.64
452.31	2958.44
452.49	3059.08
452.68	3108.23
452.86	3073.12
453.05	3162.06
453.23	3162.06
453.42	3028.65
453.60	3077.80
453.78	3225.26
453.97	3075.46
454.15	3194.83
454.34	3208.87
454.52	3243.98
454.70	3361.01
454.89	3384.41
455.07	3243.98
455.26	3379.73
455.44	3330.58
455.62	3208.87
455.81	3290.79
455.99	3353.99
456.17	3545.91
456.36	3398.46
456.54	3356.33
456.73	3358.67
456.91	3581.02
457.09	3536.55
457.28	3461.65
457.46	3391.44
457.64	3501.44
457.83	3559.95
458.01	3503.78
458.19	3578.68
458.38	3508.46
458.56	3543.57
458.74	3684.00
458.93	3515.48
459.11	3559.95
459.29	3557.61
459.48	3562.30
459.66	3646.55
459.84	3620.81
460.03	3707.41
460.21	3646.55
460.39	3566.98
460.57	3674.64
460.76	3765.92
460.94	3702.73
461.12	3728.47
461.31	3667.62
461.49	3646.55
461.67	3733.15
461.85	3665.28
462.04	3679.32
462.22	4348.72
462.40	3789.33
462.59	3885.29
462.77	3882.95
462.95	3854.86
463.13	3911.04
463.32	3857.20
463.50	3831.46
463.68	3782.31
463.86	3840.82
464.05	3817.41
464.23	3873.59
464.41	3992.95
464.59	3810.39
464.78	3925.08
464.96	3918.06
465.14	3932.10
465.32	4070.19
465.50	3974.23
465.69	4053.81
465.87	4028.06
466.05	3843.16
466.23	3995.29
466.41	4032.74
466.60	4154.45
466.78	4084.23
466.96	4056.15
467.14	4030.40
467.32	4175.52
467.51	4166.15
467.69	4004.66
467.87	4191.90
468.05	4128.70
468.23	4271.48
468.41	4135.73
468.60	4126.36
468.78	4224.67
468.96	4271.48
469.14	4194.24
469.32	4161.47
469.50	4198.92
469.69	4301.90
469.87	4201.26
470.05	4327.65
470.23	4365.10
470.41	4231.69
470.59	4299.56
470.77	4337.01
470.95	4383.82
471.14	4400.21
471.32	4304.25
471.50	4496.17
471.68	4559.36
471.86	4596.81
472.04	4414.25
472.22	4542.98
472.40	4428.29
472.58	4514.89
472.77	4491.49
472.95	4704.48
473.13	4809.80
473.31	4681.07
473.49	4645.96
473.67	4706.82
473.85	4807.46
474.03	4739.58
474.21	4823.84
474.39	4898.74
474.57	5050.88
474.75	4840.23
474.93	4788.74
475.12	4842.57
475.30	4912.78
475.48	4987.68
475.66	5083.64
475.84	4905.76
476.02	4903.42
476.20	4966.62
476.38	5074.28
476.56	5191.31
476.74	5036.83
476.92	5172.58
477.10	5139.82
477.28	5221.74
477.46	5235.78
477.64	5359.83
477.82	5446.43
478.00	5397.28
478.18	5507.28
478.36	5448.77
478.54	5659.42
478.72	5600.90
478.90	5680.48
479.08	5743.67
479.26	5699.20
479.44	5788.14
479.62	6019.86
479.80	5823.25
479.98	5743.67
480.16	5879.43
480.34	5975.39
480.52	6073.69
480.70	6087.73
480.88	6216.46
481.06	6104.12
481.24	6101.78
481.41	6129.86
481.59	6291.36
481.77	6396.68
481.95	6303.06
482.13	6429.45
482.31	6333.49
482.49	6366.26
482.67	6452.86
482.85	6466.90
483.03	6546.48
483.21	6850.75
483.39	6782.87
483.57	6806.28
483.74	6883.52
483.92	6834.36
484.10	6906.92
484.28	6913.94
484.46	7250.98
484.64	6951.39
484.82	7176.08
485.00	7070.76
485.18	7309.49
485.35	7286.09
485.53	7419.50
485.71	7440.56
485.89	7356.30
486.07	7412.48
486.25	7459.29
486.43	7496.74
486.61	7522.48
486.78	7838.45
486.96	7735.47
487.14	7819.73
487.32	7782.28
487.50	8037.40
487.68	8046.76
487.85	8053.78
488.03	8329.97
488.21	8229.32
488.39	8201.24
488.57	8245.71
488.75	8320.60
488.92	8772.33
489.10	8203.58
489.28	8716.16
489.46	8484.44
489.64	8435.29
489.81	8711.47
489.99	8891.70
490.17	8784.03
490.35	9050.85
490.53	8950.21
490.70	8947.87
490.88	9029.79
491.06	9029.79
491.24	8945.53
491.41	9378.53
491.59	9420.66
491.77	9352.78
491.95	9334.06
492.13	9329.38
492.30	9490.87
492.48	9460.45
492.66	9544.70
492.84	9661.73
493.01	9788.12
493.19	9811.53
493.37	10003.45
493.54	9886.42
493.72	10033.88
493.90	9881.74
494.08	9958.98
494.25	9987.07
494.43	10115.80
494.61	10298.36
494.79	10218.78
494.96	10335.81
495.14	10490.28
495.32	10478.58
495.49	10321.76
495.67	10586.24
495.85	10586.24
496.02	10544.11
496.20	10635.39
496.38	10862.43
496.55	10614.33
496.73	11054.35
496.91	10925.62
497.09	10920.94
497.26	11192.44
497.44	11035.63
497.62	11014.56
497.79	11314.15
497.97	11321.17
498.14	11492.03
498.32	11473.31
498.50	11454.58
498.67	11489.69
498.85	11407.77
499.03	11428.84
499.20	11702.68
499.38	11438.20
499.56	11702.68
499.73	11955.46
499.91	11878.22
500.08	11873.54
500.26	11735.45
500.44	11920.35
500.61	11859.49
500.79	11838.43
500.97	12203.55
501.14	11995.25
501.32	12194.19
501.49	12156.74
501.67	12145.04
501.84	12311.22
502.02	12395.48
502.20	12173.13
502.37	12414.20
502.55	12538.25
502.72	12571.02
502.90	12559.31
503.07	12294.83
503.25	12369.73
503.43	12369.73
503.60	12795.71
503.78	12805.07
503.95	12725.49
504.13	12901.03
504.30	12652.94
504.48	12943.16
504.65	13090.62
504.83	13111.68
505.01	12985.29
505.18	12959.55
505.36	13308.29
505.53	12950.18
505.71	13099.98
505.88	13041.46
506.06	13069.55
506.23	13193.60
506.41	13261.48
506.58	13591.49
506.76	13322.33
506.93	13476.80
507.11	13280.20
507.28	13472.12
507.46	13525.96
507.63	13551.70
507.81	13834.91
507.98	13589.15
508.16	13806.82
508.33	13752.99
508.50	13930.87
508.68	13865.33
508.85	14134.50
509.03	13804.48
509.20	14106.41
509.38	14033.85
509.55	14115.77
509.73	14274.93
509.90	14300.67
510.08	14097.05
510.25	14202.37
510.42	14228.12
510.60	14281.95
510.77	14424.72
510.95	14216.41
511.12	14562.81
511.30	14597.92
511.47	14693.88
511.64	14546.43
511.82	14654.09
511.99	14759.42
512.17	14665.80
512.34	14831.97
512.51	14878.79
512.69	14899.85
512.86	14775.80
513.04	14925.60
513.21	15159.65
513.38	14918.57
513.56	15061.35
513.73	15269.66
513.90	15091.77
514.08	14944.32
514.25	15232.21
514.43	15459.24
514.60	15407.75
514.77	15133.90
514.95	15405.41
515.12	14979.43
515.29	15332.85
515.47	15599.67
515.64	15840.75
515.81	15531.80
515.99	15908.62
516.16	15826.70
516.33	15861.81
516.51	15941.39
516.68	15517.75
516.85	15728.40
517.03	15941.39
517.20	15824.36
517.37	15875.85
517.54	15840.75
517.72	16145.02
517.89	16128.63
518.06	16009.26
518.24	16091.18
518.41	16025.65
518.58	16173.10
518.75	16123.95
518.93	16348.64
519.10	16196.51
519.27	16081.82
519.45	16252.68
519.62	16423.54
519.79	16168.42
519.96	16386.09
520.14	16437.58
520.31	16334.60
520.48	16500.78
520.65	16460.99
520.83	16627.17
521.00	16648.23
521.17	16489.07
521.34	16486.73
521.52	16673.98
521.69	16507.80
521.86	16407.16
522.03	17015.69
522.20	16891.65
522.38	16903.35
522.55	17200.60
522.72	16678.66
522.89	16891.65
523.07	16947.82
523.24	17114.00
523.41	17376.14
523.58	17111.66
523.75	16835.47
523.92	17273.15
524.10	17242.73
524.27	17364.43
524.44	17291.88
524.61	17270.81
524.78	17352.73
524.96	17275.49
525.13	17427.63
525.30	17298.90
525.47	17301.24
525.64	17504.87
525.81	17516.57
525.98	17769.35
526.16	17493.16
526.33	17881.69
526.50	17408.90
526.67	17434.65
526.84	17724.88
527.01	17493.16
527.18	17598.49
527.36	17921.48
527.53	17923.82
527.70	18017.44
527.87	17900.42
528.04	18040.85
528.21	18057.23
528.38	18197.67
528.55	18050.21
528.72	18059.57
528.89	17940.21
529.07	18066.60
529.24	18017.44
529.41	18082.98
529.58	17980.00
529.75	18225.75
529.92	18050.21
530.09	18118.09
530.26	18111.07
530.43	18368.52
530.60	18221.07
530.77	17928.50
530.94	18347.46
531.11	18312.35
531.28	18480.87
531.46	18696.20
531.63	18595.56
531.80	18717.26
531.97	18764.07
532.14	18654.07
532.31	18761.73
532.48	18518.32
532.65	18895.14
532.82	18614.28
532.99	18757.05
533.16	18618.96
533.33	18801.52
533.50	18913.87
533.67	18752.37
533.84	18623.64
534.01	18869.40
534.18	18735.99
534.35	18703.22
534.52	18801.52
534.69	19225.16
534.86	19122.18
535.03	18860.04
535.20	18878.76
535.37	18920.89
535.54	19250.91
535.71	18934.93
535.88	18838.97
536.05	19173.67
536.22	19543.47
536.38	19403.04
536.55	19491.98
536.72	19297.72
536.89	19293.04
537.06	19131.54
537.23	19445.17
537.40	19152.60
537.57	19342.19
537.74	19054.30
537.91	19908.60
538.08	19367.93
538.25	19389.00
538.42	19468.58
538.59	19634.75
538.75	19187.71
538.92	19318.78
539.09	19604.33
539.26	19531.77
539.43	19578.58
539.60	19613.69
539.77	19623.05
539.94	19520.07
540.11	19538.79
540.28	19637.09
540.44	19709.65
540.61	19807.95
540.78	19932.00
540.95	19648.80
541.12	19810.29
541.29	20002.22
541.46	19922.64
541.62	19833.70
541.79	20053.71
541.96	19484.96
542.13	19756.46
542.30	19831.36
542.47	20088.82
542.63	19653.48
542.80	20039.67
542.97	20095.84
543.14	19999.88
543.31	20243.29
543.48	20299.47
543.64	20294.79
543.81	20325.21
543.98	20397.77
544.15	20365.00
544.32	20187.12
544.48	20123.93
544.65	19913.28
544.82	20231.59
544.99	20170.74
545.16	20484.37
545.32	19922.64
545.49	20453.94
545.66	20526.50
545.83	20423.51
546.00	20542.88
546.16	20264.36
546.33	20421.17
546.50	20276.06
546.67	20365.00
546.83	20458.62
547.00	20451.60
547.17	20278.40
547.34	20964.18
547.50	20538.20
547.67	20713.74
547.84	20610.76
548.00	20875.24
548.17	20648.21
548.34	20570.97
548.51	20685.65
548.67	20570.97
548.84	20903.32
549.01	20933.75
549.18	20641.18
549.34	20704.38
549.51	20919.71
549.68	20746.51
549.84	20774.60
550.01	20769.91
550.18	21041.42
550.34	20947.79
550.51	20879.92
550.68	20692.68
550.84	20732.47
551.01	20915.03
551.18	20622.46
551.34	20919.71
551.51	20912.69
551.68	21151.42
551.84	21200.57
552.01	20765.23
552.18	21226.32
552.34	20842.47
552.51	21074.18
552.68	20725.44
552.84	20964.18
553.01	21118.65
553.18	21263.77
553.34	21212.28
553.51	21156.10
553.67	20959.50
553.84	21415.90
554.01	21329.30
554.17	21116.31
554.34	21116.31
554.51	21212.28
554.67	21296.53
554.84	21329.30
555.00	21268.45
555.17	21399.52
555.33	21202.91
555.50	21483.78
555.67	21394.84
555.83	21432.29
556.00	21324.62
556.16	21673.36
556.33	21324.62
556.50	21539.95
556.66	21493.14
556.83	21483.78
556.99	21544.63
557.16	21762.30
557.32	21231.00
557.49	21514.20
557.65	21242.70
557.82	21523.57
557.98	21378.45
558.15	21195.89
558.32	21729.53
558.48	21378.45
558.65	21542.29
558.81	21701.45
558.98	21308.24
559.14	21397.18
559.31	21654.64
559.47	21500.16
559.64	21584.42
559.80	21722.51
559.97	21673.36
560.13	21418.24
560.30	21542.29
560.46	21886.35
560.63	21582.08
560.79	21500.16
560.96	21734.21
561.12	21436.97
561.29	21586.76
561.45	21537.61
561.61	21568.04
561.78	21759.96
561.94	21673.36
562.11	21914.44
562.27	21664.00
562.44	21654.64
562.60	21612.51
562.77	21752.94
562.93	21841.88
563.10	21776.34
563.26	21502.50
563.42	22045.51
563.59	21596.12
563.75	21654.64
563.92	21661.66
564.08	21844.22
564.24	21834.86
564.41	21916.78
564.57	21675.70
564.74	21722.51
564.90	22005.72
565.07	21919.12
565.23	21989.33
565.39	21675.70
565.56	21774.00
565.72	21701.45
565.88	21832.52
566.05	21411.22
566.21	21736.56
566.38	21642.93
566.54	21741.24
566.70	22012.74
566.87	21654.64
567.03	21635.91
567.19	21998.70
567.36	22064.23
567.52	21696.77
567.68	21839.54
567.85	22045.51
568.01	22043.17
568.17	21827.84
568.34	21699.11
568.50	21900.39
568.66	21900.39
568.83	22197.64
568.99	21717.83
569.15	22031.46
569.32	21652.30
569.48	21795.07
569.64	21979.97
569.81	21804.43
569.97	21919.12
570.13	21979.97
570.30	21802.09
570.46	21947.20
570.62	21738.90
570.78	21542.29
570.95	22148.49
571.11	21869.97
571.27	21762.30
571.43	21664.00
571.60	21975.29
571.76	22160.19
571.92	22202.32
572.09	21949.54
572.25	21982.31
572.41	21933.16
572.57	22164.87
572.74	22244.45
572.90	22073.59
573.06	21928.48
573.22	22178.92
573.38	22106.36
573.55	22356.80
573.71	22171.89
573.87	22015.08
574.03	21986.99
574.20	21851.24
574.36	22071.25
574.52	21848.90
574.68	21834.86
574.84	21869.97
575.01	22029.12
575.17	21902.73
575.33	21809.11
575.49	22038.48
575.65	22277.22
575.82	21942.52
575.98	22317.01
576.14	21900.39
576.30	22230.41
576.46	22089.98
576.62	21949.54
576.79	21699.11
576.95	21919.12
577.11	22080.61
577.27	21891.03
577.43	22094.66
577.59	21965.93
577.75	21972.95
577.92	21755.28
578.08	22043.17
578.24	21764.64
578.40	22199.98
578.56	22059.55
578.72	22045.51
578.88	22204.66
579.04	22190.62
579.21	21965.93
579.37	22101.68
579.53	21869.97
579.69	21935.50
579.85	21832.52
580.01	22099.34
580.17	22047.85
580.33	21956.57
580.49	21900.39
580.65	22099.34
580.82	22326.37
580.98	22029.12
581.14	22024.44
581.30	22300.62
581.46	21858.26
581.62	22375.52
581.78	22047.85
581.94	22075.93
582.10	22319.35
582.26	21914.44
582.42	22242.11
582.58	22146.15
582.74	22111.04
582.90	21837.20
583.06	22127.42
583.22	21975.29
583.38	22164.87
583.54	22071.25
583.70	22115.72
583.86	22066.57
584.02	22120.40
584.18	22188.28
584.34	22066.57
584.50	22188.28
584.66	22052.53
584.82	21982.31
584.98	22111.04
585.14	21937.84
585.30	22026.78
585.46	21752.94
585.62	21975.29
585.78	21951.88
585.94	21963.59
586.10	22169.55
586.26	21996.35
586.42	22300.62
586.58	22211.68
586.74	22075.93
586.90	22059.55
587.06	22214.02
587.22	22277.22
587.38	21900.39
587.54	22281.90
587.70	22225.73
587.86	22162.53
588.02	22267.86
588.18	22354.46
588.34	22401.27
588.49	22087.64
588.65	21898.05
588.81	22022.10
588.97	22094.66
589.13	22094.66
589.29	22185.94
589.45	22335.73
589.61	21951.88
589.77	22251.47
589.93	22354.46
590.08	22181.26
590.24	21968.27
590.40	22181.26
590.56	22089.98
590.72	22326.37
590.88	22108.70
591.04	22106.36
591.20	22431.69
591.35	22412.97
591.51	22537.02
591.67	22424.67
591.83	22675.11
591.99	22471.48
592.15	22178.92
592.31	22335.73
592.46	22218.71
592.62	22197.64
