SpectraSuite Data File
++++++++++++++++++++++++++++++++++++
Date: Fri Oct 04 11:48:41 GMT-05:00 2013
User: price-jones
Dark Spectrum Present: No
Reference Spectrum Present: No
Number of Sampled Component Spectra: 1
Spectrometers: USB2+H05261
Integration Time (usec): 100000 (USB2+H05261)
Spectra Averaged: 1 (USB2+H05261)
Boxcar Smoothing: 0 (USB2+H05261)
Correct for Electrical Dark: No (USB2+H05261)
Strobe/Lamp Enabled: No (USB2+H05261)
Correct for Detector Non-linearity: No (USB2+H05261)
Correct for Stray Light: No (USB2+H05261)
Number of Pixels in Processed Spectrum: 2048
>>>>>Begin Processed Spectral Data<<<<<
365.73	93.62
365.92	93.62
366.12	93.62
366.32	0.00
366.52	0.00
366.72	0.00
366.91	0.00
367.11	0.00
367.31	0.00
367.51	0.00
367.70	0.00
367.90	0.00
368.10	0.00
368.30	0.00
368.49	0.00
368.69	0.00
368.89	0.00
369.09	0.00
369.28	0.00
369.48	0.00
369.68	0.00
369.87	0.00
370.07	0.00
370.27	25.75
370.47	86.60
370.66	383.85
370.86	351.08
371.06	418.96
371.25	493.85
371.45	475.13
371.65	491.51
371.84	449.38
372.04	472.79
372.24	503.22
372.44	627.26
372.63	554.71
372.83	634.29
373.03	498.53
373.22	561.73
373.42	571.09
373.62	517.26
373.81	592.16
374.01	557.05
374.21	550.03
374.40	627.26
374.60	589.82
374.79	638.97
374.99	622.58
375.19	645.99
375.38	608.54
375.58	629.60
375.78	601.52
375.97	671.73
376.17	683.44
376.37	657.69
376.56	674.07
376.76	683.44
376.95	643.65
377.15	737.27
377.35	725.57
377.54	699.82
377.74	589.82
377.93	674.07
378.13	748.97
378.33	751.31
378.52	657.69
378.72	805.14
378.91	695.14
379.11	648.33
379.31	692.80
379.50	800.46
379.70	774.72
379.89	791.10
380.09	711.52
380.28	812.17
380.48	763.01
380.68	765.36
380.87	774.72
381.07	695.14
381.26	844.93
381.46	863.66
381.65	788.76
381.85	763.01
382.04	863.66
382.24	837.91
382.43	809.83
382.63	830.89
382.83	753.65
383.02	819.19
383.22	873.02
383.41	828.55
383.61	882.38
383.80	943.24
384.00	856.64
384.19	929.19
384.39	884.72
384.58	910.47
384.78	919.83
384.97	908.13
385.17	873.02
385.36	978.34
385.56	931.53
385.75	940.90
385.95	919.83
386.14	1046.22
386.34	999.41
386.53	1095.37
386.72	943.24
386.92	915.15
387.11	1020.47
387.31	1025.15
387.50	964.30
387.70	936.21
387.89	1043.88
388.09	1004.09
388.28	973.66
388.48	1032.18
388.67	1160.91
388.86	1004.09
389.06	1118.78
389.25	992.39
389.45	1100.05
389.64	1060.26
389.84	1111.75
390.03	1100.05
390.22	1174.95
390.42	1149.20
390.61	1158.57
390.81	1123.46
391.00	1221.76
391.19	1228.78
391.39	1163.25
391.58	1284.95
391.78	1163.25
391.97	1231.12
392.16	1224.10
392.36	1345.81
392.55	1303.68
392.75	1252.19
392.94	1252.19
393.13	1338.79
393.33	1233.46
393.52	1268.57
393.71	1392.62
393.91	1352.83
394.10	1362.19
394.29	1291.98
394.49	1357.51
394.68	1397.30
394.88	1366.87
395.07	1416.02
395.26	1411.34
395.46	1413.68
395.65	1460.49
395.84	1444.11
396.04	1537.73
396.23	1554.12
396.42	1481.56
396.62	1516.67
396.81	1509.65
397.00	1474.54
397.19	1497.94
397.39	1500.28
397.58	1554.12
397.77	1544.75
397.97	1605.61
398.16	1558.80
398.35	1617.31
398.55	1696.89
398.74	1661.78
398.93	1692.21
399.12	1612.63
399.32	1600.93
399.51	1617.31
399.70	1710.93
399.90	1713.27
400.09	1680.50
400.28	1652.42
400.47	1710.93
400.67	1827.96
400.86	1792.85
401.05	1811.57
401.24	1867.75
401.44	1949.67
401.63	1858.39
401.82	1856.04
402.01	1778.81
402.21	1928.60
402.40	1954.35
402.59	1874.77
402.78	1860.73
402.97	1895.83
403.17	1996.48
403.36	2001.16
403.55	1959.03
403.74	2015.20
403.93	2054.99
404.13	2106.48
404.32	2078.40
404.51	2118.18
404.70	2190.74
404.89	2083.08
405.09	2132.23
405.28	2157.97
405.47	2204.78
405.66	2225.85
405.85	2188.40
406.05	2204.78
406.24	2321.81
406.43	2209.47
406.62	2396.71
406.81	2370.96
407.00	2282.02
407.20	2270.32
407.39	2228.19
407.58	2410.75
407.77	2495.01
407.96	2457.56
408.15	2455.22
408.34	2443.52
408.54	2572.25
408.73	2511.39
408.92	2429.48
409.11	2588.63
409.30	2595.65
409.49	2626.08
409.68	2450.54
409.87	2698.64
410.07	2745.45
410.26	2686.94
410.45	2619.06
410.64	2651.83
410.83	2665.87
411.02	2787.58
411.21	2841.41
411.40	2825.03
411.59	2745.45
411.78	2864.82
411.98	2998.23
412.17	2937.37
412.36	2759.49
412.55	2986.52
412.74	3063.76
412.93	3007.59
413.12	2984.18
413.31	3082.49
413.50	3047.38
413.69	3234.62
413.88	3211.22
414.07	3211.22
414.26	3241.64
414.45	3236.96
414.64	3229.94
414.83	3421.86
415.02	3293.13
415.22	3489.74
415.41	3562.30
415.60	3569.32
415.79	3522.51
415.98	3623.15
416.17	3637.19
416.36	3618.47
416.55	3709.75
416.74	3705.07
416.93	3756.56
417.12	3779.97
417.31	3698.05
417.50	3801.03
417.69	3885.29
417.88	3822.09
418.07	3892.31
418.26	3824.44
418.45	3758.90
418.64	4098.28
418.83	4091.26
419.02	3936.78
419.21	4030.40
419.39	4044.45
419.58	3981.25
419.77	3922.74
419.96	4093.60
420.15	4042.11
420.34	4063.17
420.53	4095.94
420.72	4369.78
420.91	4070.19
421.10	4159.13
421.29	4353.40
421.48	4243.39
421.67	4315.95
421.86	4203.60
422.05	4351.06
422.24	4498.51
422.43	4259.78
422.61	4248.07
422.80	4376.80
422.99	4447.02
423.18	4571.07
423.37	4472.76
423.56	4395.53
423.75	4379.14
423.94	4332.33
424.13	4161.47
424.32	4278.50
424.50	4517.23
424.69	4393.19
424.88	4601.49
425.07	4423.61
425.26	4423.61
425.45	4437.66
425.64	4376.80
425.83	4557.02
426.01	4486.81
426.20	4521.92
426.39	4589.79
426.58	4461.06
426.77	4524.26
426.96	4634.26
427.15	4629.58
427.33	4636.60
427.52	4594.47
427.71	4795.76
427.90	4727.88
428.09	4753.63
428.28	4704.48
428.46	4711.50
428.65	4706.82
428.84	4919.81
429.03	5025.13
429.22	4830.87
429.40	5046.20
429.59	5078.96
429.78	4915.12
429.97	4858.95
430.16	5020.45
430.34	4912.78
430.53	5071.94
430.72	5011.09
430.91	5018.11
431.10	4987.68
431.28	5205.35
431.47	5320.04
431.66	5345.78
431.85	5181.95
432.03	5420.68
432.22	5303.65
432.41	5275.57
432.60	5343.44
432.79	5359.83
432.97	5493.24
433.16	5509.62
433.35	5439.40
433.54	5516.64
433.72	5643.03
433.91	5575.16
434.10	5575.16
434.28	5561.11
434.47	5724.95
434.66	5624.31
434.85	5668.78
435.03	5797.51
435.22	5668.78
435.41	6071.35
435.59	5774.10
435.78	5888.79
435.97	5816.23
436.16	5951.98
436.34	5820.91
436.53	5980.07
436.72	6017.52
436.90	5839.64
437.09	5940.28
437.28	5951.98
437.46	6129.86
437.65	5984.75
437.84	6099.44
438.02	6169.65
438.21	6115.82
438.40	6033.90
438.58	6335.83
438.77	6387.32
438.96	6370.94
439.14	6366.26
439.33	6464.56
439.52	6555.84
439.70	6565.20
439.89	6623.72
440.08	6707.98
440.26	6731.38
440.45	6656.48
440.63	6703.29
440.82	6909.26
441.01	6815.64
441.19	7089.48
441.38	6883.52
441.57	7082.46
441.75	7133.95
441.94	7124.59
442.12	7138.63
442.31	7173.74
442.50	7431.20
442.68	7258.00
442.87	7452.27
443.05	7604.40
443.24	7576.31
443.43	7258.00
443.61	7403.11
443.80	7761.22
443.98	7529.50
444.17	7318.86
444.35	7468.65
444.54	7644.19
444.73	7573.97
444.91	7658.23
445.10	7613.76
445.28	7440.56
445.47	7426.52
445.65	7606.74
445.84	7882.92
446.02	7634.83
446.21	7536.52
446.39	7616.10
446.58	7508.44
446.77	7770.58
446.95	7466.31
447.14	7641.85
447.32	7723.77
447.51	7777.60
447.69	7683.98
447.88	7705.04
448.06	7716.75
448.25	7838.45
448.43	7941.44
448.62	7976.55
448.80	7911.01
448.99	8035.06
449.17	7955.48
449.36	7927.39
449.54	8060.80
449.73	8212.94
449.91	8154.43
450.10	8163.79
450.28	8287.84
450.46	8262.09
450.65	8472.74
450.83	8297.20
451.02	8313.58
451.20	8575.72
451.39	8409.54
451.57	8105.28
451.76	8402.52
451.94	8444.65
452.13	8379.12
452.31	8566.36
452.49	8493.80
452.68	8472.74
452.86	8428.27
453.05	8732.54
453.23	8774.67
453.42	8587.43
453.60	8423.59
453.78	8753.60
453.97	8697.43
454.15	8861.27
454.34	8760.63
454.52	8863.61
454.70	8908.08
454.89	8982.98
455.07	9053.19
455.26	9025.11
455.44	8926.80
455.62	8788.71
455.81	9092.98
455.99	9095.32
456.17	9137.45
456.36	9352.78
456.54	9378.53
456.73	9228.73
456.91	9518.96
457.09	9549.39
457.28	9689.82
457.46	9476.83
457.64	9738.97
457.83	9657.05
458.01	9558.75
458.19	9926.21
458.38	9757.69
458.56	9727.27
458.74	9914.51
458.93	9727.27
459.11	9919.19
459.29	9710.88
459.48	9954.30
459.66	9872.38
459.84	10094.73
460.03	10267.93
460.21	9954.30
460.39	10059.62
460.57	10181.33
460.76	10036.22
460.94	10384.96
461.12	10242.18
461.31	10200.05
461.49	10204.74
461.67	10207.08
461.85	10675.18
462.04	10600.29
462.22	10909.24
462.40	10532.41
462.59	10501.98
462.77	10314.74
462.95	10644.76
463.13	10539.43
463.32	10501.98
463.50	10696.25
463.68	10736.04
463.86	10642.42
464.05	10546.45
464.23	10539.43
464.41	10937.32
464.59	10703.27
464.78	10988.82
464.96	11080.10
465.14	10824.98
465.32	11108.18
465.50	11169.04
465.69	11169.04
465.87	10883.49
466.05	10998.18
466.23	10867.11
466.41	11281.38
466.60	11475.65
466.78	11112.86
466.96	11047.33
467.14	11403.09
467.32	11456.92
467.51	11403.09
467.69	11431.18
467.87	11358.62
468.05	11255.64
468.23	11185.42
468.41	11501.39
468.60	11499.05
468.78	11833.75
468.96	11396.07
469.14	11775.24
469.32	11868.86
469.50	11625.44
469.69	11899.28
469.87	11950.78
470.05	12079.50
470.23	12072.48
470.41	12159.08
470.59	12016.31
470.77	12154.40
470.95	12320.58
471.14	12327.60
471.32	12042.06
471.50	12465.69
471.68	12348.67
471.86	12512.50
472.04	12545.27
472.22	12940.82
472.40	12484.42
472.58	12851.88
472.77	12716.13
472.95	12938.48
473.13	13593.83
473.31	12774.64
473.49	12933.80
473.67	13181.90
473.85	13195.94
474.03	13467.44
474.21	13329.35
474.39	13516.59
474.57	13610.22
474.75	13839.59
474.93	13809.16
475.12	13783.41
475.30	13942.57
475.48	14033.85
475.66	14047.90
475.84	14143.86
476.02	13998.74
476.20	14361.53
476.38	14476.21
476.56	14710.27
476.74	14759.42
476.92	14611.96
477.10	14607.28
477.28	15119.86
477.46	14822.61
477.64	15201.78
477.82	15311.78
478.00	15662.86
478.18	15583.29
478.36	15906.28
478.54	16013.95
478.72	15716.70
478.90	16140.33
479.08	16397.79
479.26	16327.58
479.44	16446.94
479.62	16411.84
479.80	17006.33
479.98	16704.40
480.16	17092.93
480.34	16800.37
480.52	17064.85
480.70	17130.38
480.88	16898.67
481.06	17256.77
481.24	17273.15
481.41	17645.30
481.59	17916.80
481.77	17820.84
481.95	18029.15
482.13	18405.97
482.31	17888.71
482.49	18391.93
482.67	18485.55
482.85	18979.40
483.03	18848.33
483.21	19225.16
483.39	19318.78
483.57	19295.38
483.74	19468.58
483.92	19695.61
484.10	19477.94
484.28	20060.73
484.46	20018.60
484.64	20638.84
484.82	20208.19
485.00	20446.92
485.18	21050.78
485.35	21130.36
485.53	21275.47
485.71	21202.91
485.89	21738.90
486.07	21458.03
486.25	21549.31
486.43	22153.17
486.61	22141.47
486.78	22197.64
486.96	22424.67
487.14	22941.93
487.32	22705.54
487.50	23136.20
487.68	23112.79
487.85	23515.36
488.03	23847.72
488.21	23697.92
488.39	24037.30
488.57	24105.18
488.75	24444.56
488.92	24620.10
489.10	25181.82
489.28	25071.82
489.46	25235.66
489.64	25055.43
489.81	25656.95
489.99	25647.59
490.17	25607.80
490.35	25865.26
490.53	25991.65
490.70	26354.43
490.88	26370.82
491.06	26834.24
491.24	26686.79
491.41	26895.10
491.59	27522.36
491.77	27110.43
491.95	27417.04
492.13	27913.23
492.30	28070.04
492.48	27599.60
492.66	28479.64
492.84	28095.79
493.01	28744.12
493.19	28624.75
493.37	28889.23
493.54	29062.43
493.72	29315.21
493.90	28912.64
494.08	29593.73
494.25	29677.99
494.43	29958.86
494.61	30300.58
494.79	30295.89
494.96	30321.64
495.14	30359.09
495.32	30904.43
495.49	30661.02
495.67	31007.42
495.85	31304.67
496.02	31477.86
496.20	31927.25
496.38	31496.59
496.55	31534.04
496.73	32205.77
496.91	32430.46
497.09	32486.64
497.26	32400.04
497.44	32154.28
497.62	33020.28
497.79	33153.69
497.97	33502.43
498.14	33535.20
498.32	33706.05
498.50	33827.76
498.67	33975.22
498.85	33766.91
499.03	34082.88
499.20	34113.31
499.38	34160.12
499.56	34829.51
499.73	34913.77
499.91	34909.09
500.08	35028.46
500.26	34923.13
500.44	35248.47
500.61	35274.21
500.79	35365.49
500.97	35697.85
501.14	36158.94
501.32	36154.26
501.49	35967.01
501.67	35988.08
501.84	36210.43
502.02	36378.95
502.20	36706.62
502.37	36582.57
502.55	36889.18
502.72	36828.33
502.90	36905.57
503.07	37046.00
503.25	37418.14
503.43	36919.61
503.60	37717.73
503.78	37914.34
503.95	37504.74
504.13	37783.27
504.30	37830.08
504.48	37907.32
504.65	38342.66
504.83	38321.59
505.01	38501.81
505.18	38440.96
505.36	39164.18
505.53	38527.56
505.71	38574.37
505.88	38967.58
506.06	38841.19
506.23	39206.31
506.41	39351.43
506.58	39248.44
506.76	39103.33
506.93	39477.82
507.11	39409.94
507.28	39796.13
507.46	39957.63
507.63	40205.72
507.81	40463.18
507.98	39920.18
508.16	40133.17
508.33	40538.08
508.50	40495.95
508.68	40554.46
508.85	41350.24
509.03	41195.77
509.20	41378.33
509.38	41567.91
509.55	41610.04
509.73	42157.73
509.90	41701.32
510.08	41673.24
510.25	41869.84
510.42	42071.13
510.60	42014.96
510.77	42469.02
510.95	42380.08
511.12	42579.03
511.30	42473.70
511.47	42609.45
511.64	42515.83
511.82	43133.73
511.99	43351.40
512.17	43056.50
512.34	43030.75
512.51	43452.05
512.69	43320.98
512.86	43569.07
513.04	44107.40
513.21	43861.64
513.38	43941.22
513.56	43672.06
513.73	43861.64
513.90	43952.92
514.08	44041.86
514.25	44392.94
514.43	44271.23
514.60	44264.21
514.77	44996.80
514.95	44732.32
515.12	44421.03
515.29	44631.68
515.47	45027.23
515.64	45469.59
515.81	44872.75
515.99	45158.30
516.16	46019.61
516.33	45595.98
516.51	46085.15
516.68	45148.93
516.85	45780.88
517.03	46342.61
517.20	46239.62
517.37	45890.88
517.54	46651.56
517.72	46190.47
517.89	45694.28
518.06	45909.61
518.24	46293.46
518.41	46562.62
518.58	46653.90
518.75	46658.58
518.93	47126.69
519.10	46520.49
519.27	47199.24
519.45	46993.28
519.62	46941.78
519.79	47063.49
519.96	47098.60
520.14	47384.15
520.31	47349.04
520.48	47690.76
520.65	47760.97
520.83	47831.19
521.00	48086.31
521.17	47674.37
521.34	48259.51
521.52	48308.66
521.69	47971.62
521.86	48179.93
522.03	48329.72
522.20	48346.11
522.38	48825.92
522.55	48608.25
522.72	48559.09
522.89	48919.54
523.07	49090.40
523.24	48861.02
523.41	49265.94
523.58	49151.25
523.75	49219.13
523.92	48985.07
524.10	49507.01
524.27	49485.95
524.44	49832.35
524.61	49844.05
524.78	49577.23
524.96	49827.66
525.13	49614.68
525.30	49834.69
525.47	49879.16
525.64	49792.56
525.81	49982.14
525.98	50155.34
526.16	50344.92
526.33	50085.12
526.50	50326.20
526.67	49867.45
526.84	50361.31
527.01	50466.63
527.18	50333.22
527.36	50475.99
527.53	50983.89
527.70	51152.41
527.87	51042.40
528.04	50782.60
528.21	50960.48
528.38	51168.79
528.55	51260.07
528.72	50965.17
528.89	51028.36
529.07	51290.50
529.24	51337.31
529.41	51379.44
529.58	51318.59
529.75	51299.86
529.92	51756.27
530.09	51440.29
530.26	51901.38
530.43	51522.21
530.60	51693.07
530.77	51632.22
530.94	51856.91
531.11	51419.23
531.28	51852.23
531.46	51980.96
531.63	52023.09
531.80	52179.90
531.97	52526.30
532.14	52044.15
532.31	52083.94
532.48	52076.92
532.65	52130.75
532.82	52140.11
532.99	52645.67
533.16	52245.44
533.33	52458.43
533.50	52952.28
533.67	52804.83
533.84	52662.05
534.01	52769.72
534.18	52828.23
534.35	52743.97
534.52	52954.62
534.69	52975.69
534.86	53298.68
535.03	53010.79
535.20	52999.09
535.37	53088.03
535.54	53169.95
535.71	52949.94
535.88	53226.12
536.05	53308.04
536.22	53212.08
536.38	53200.38
536.55	53539.75
536.72	53530.39
536.89	53329.11
537.06	53638.06
537.23	53422.73
537.40	53542.10
537.57	53450.81
537.74	53619.33
537.91	53876.79
538.08	53881.47
538.25	53839.34
538.42	53785.51
538.59	54113.19
538.75	53776.15
538.92	53766.79
539.09	54218.51
539.26	54061.69
539.43	54073.40
539.60	53996.16
539.77	54368.30
539.94	54272.34
540.11	54033.61
540.28	54298.09
540.44	54246.60
540.61	54241.92
540.78	54305.11
540.95	54642.15
541.12	54651.51
541.29	54635.13
541.46	54663.21
541.62	54473.63
541.79	54424.48
541.96	54365.96
542.13	54387.03
542.30	54361.28
542.47	54770.88
542.63	54731.09
542.80	54784.92
542.97	55112.59
543.14	55140.68
543.31	55114.94
543.48	55086.85
543.64	55400.48
543.81	55470.70
543.98	55145.36
544.15	55510.49
544.32	55426.23
544.48	55491.76
544.65	55508.14
544.82	55246.00
544.99	55281.11
545.16	55496.44
545.32	55276.43
545.49	55632.19
545.66	55833.48
545.83	55971.57
546.00	55791.35
546.16	55583.04
546.33	55505.80
546.50	55515.17
546.67	55636.87
546.83	55339.63
547.00	55779.65
547.17	55903.70
547.34	55966.89
547.50	55917.74
547.67	56090.94
547.84	56027.74
548.00	56034.77
548.17	55863.91
548.34	56032.42
548.51	56212.65
548.67	56250.09
548.84	56357.76
549.01	56158.81
549.18	56292.22
549.34	56144.77
549.51	56427.98
549.68	56381.16
549.84	56133.07
550.01	56458.40
550.18	56203.28
550.34	56411.59
550.51	56275.84
550.68	56406.91
550.84	56053.49
551.01	56568.41
551.18	56374.14
551.34	56165.84
551.51	56399.89
551.68	56652.67
551.84	56732.25
552.01	56533.30
552.18	56729.90
552.34	56509.89
552.51	56732.25
552.68	56477.13
552.84	56835.23
553.01	56987.36
553.18	56886.72
553.34	57034.17
553.51	57006.09
553.67	57020.13
553.84	57024.81
554.01	56978.00
554.17	56912.47
554.34	56886.72
554.51	57076.30
554.67	56931.19
554.84	56921.83
555.00	56989.70
555.17	57195.67
555.33	57378.23
555.50	56924.17
555.67	57279.93
555.83	57125.46
556.00	57062.26
556.16	57375.89
556.33	57354.83
556.50	57373.55
556.66	57345.47
556.83	57228.44
556.99	57659.10
557.16	57656.76
557.32	57502.28
557.49	57794.85
557.65	57364.19
557.82	57478.88
557.98	57272.91
558.15	57553.77
558.32	57418.02
558.48	57808.89
558.65	57736.34
558.81	57684.84
558.98	57743.36
559.14	57436.75
559.31	57499.94
559.47	57808.89
559.64	57677.82
559.80	57890.81
559.97	57766.76
560.13	57846.34
560.30	57808.89
560.46	57792.51
560.63	57785.49
560.79	57748.04
560.96	57895.49
561.12	57719.95
561.29	57628.67
561.45	57851.02
561.61	58068.69
561.78	57946.98
561.94	57874.43
562.11	57925.92
562.27	57858.04
562.44	57904.85
562.60	58012.52
562.77	57832.30
562.93	58078.05
563.10	58356.58
563.26	57897.83
563.42	58471.26
563.59	57989.11
563.75	57972.73
563.92	58120.18
564.08	57907.19
564.24	58195.08
564.41	58157.63
564.57	57996.13
564.74	58197.42
564.90	58356.58
565.07	58408.07
565.23	58354.24
565.39	58174.02
565.56	58298.06
565.72	58230.19
565.88	58356.58
566.05	57949.32
566.21	58197.42
566.38	58099.12
566.54	58138.91
566.70	58485.31
566.87	58387.00
567.03	58426.79
567.19	58487.65
567.36	58384.66
567.52	58230.19
567.68	58401.05
567.85	58188.06
568.01	58478.28
568.17	58213.80
568.34	58658.51
568.50	58691.27
568.66	58534.46
568.83	58487.65
568.99	58391.68
569.15	58518.07
569.32	58515.73
569.48	58356.58
569.64	58518.07
569.81	58522.76
569.97	58403.39
570.13	58679.57
570.30	58522.76
570.46	58452.54
570.62	58497.01
570.78	58567.23
570.95	58506.37
571.11	58508.71
571.27	58515.73
571.43	58740.42
571.60	58618.72
571.76	58763.83
571.92	58738.08
572.09	58805.96
572.25	58562.54
572.41	58513.39
572.57	58761.49
572.74	58726.38
572.90	58541.48
573.06	58801.28
573.22	58656.17
573.38	58588.29
573.55	58745.11
573.71	59011.93
573.87	59032.99
574.03	58623.40
574.20	58637.44
574.36	58738.08
574.52	58614.04
574.68	58834.05
574.84	58702.98
575.01	58810.64
575.17	58845.75
575.33	58817.66
575.49	58838.73
575.65	59014.27
575.82	58941.71
575.98	58808.30
576.14	59143.00
576.30	58897.24
576.46	58876.18
576.62	58838.73
576.79	58899.58
576.95	58747.45
577.11	58859.79
577.27	58894.90
577.43	59091.51
577.59	58995.54
577.75	58815.32
577.92	58789.58
578.08	58791.92
578.24	58798.94
578.40	58700.64
578.56	58843.41
578.72	58801.28
578.88	59110.23
579.04	59082.14
579.21	58927.67
579.37	59058.74
579.53	59114.91
579.69	58871.49
579.85	58883.20
580.01	59004.91
580.17	58944.05
580.33	58794.26
580.49	58958.09
580.65	59164.06
580.82	58958.09
580.98	59047.04
581.14	58906.60
581.30	59086.82
581.46	58859.79
581.62	58827.02
581.78	58749.79
581.94	59112.57
582.10	59000.22
582.26	59044.69
582.42	58939.37
582.58	59023.63
582.74	59119.59
582.90	59112.57
583.06	58904.26
583.22	58972.14
583.38	58976.82
583.54	59302.15
583.70	59040.01
583.86	59147.68
584.02	58988.52
584.18	59206.19
584.34	59236.62
584.50	59370.03
584.66	59021.29
584.82	59054.06
584.98	58983.84
585.14	58967.46
585.30	58766.17
585.46	59054.06
585.62	58911.28
585.78	58815.32
585.94	59077.46
586.10	59103.21
586.26	59049.38
586.42	59470.67
586.58	59433.22
586.74	59128.95
586.90	58918.31
587.06	59159.38
587.22	59236.62
587.38	59068.10
587.54	59306.83
587.70	59107.89
587.86	59402.80
588.02	59447.27
588.18	59435.56
588.34	59304.49
588.49	59309.18
588.65	59086.82
588.81	59208.53
588.97	59297.47
589.13	59185.13
589.29	59175.76
