SpectraSuite Data File
++++++++++++++++++++++++++++++++++++
Date: Fri Oct 04 11:48:28 GMT-05:00 2013
User: price-jones
Dark Spectrum Present: No
Reference Spectrum Present: No
Number of Sampled Component Spectra: 1
Spectrometers: USB2+H05261
Integration Time (usec): 100000 (USB2+H05261)
Spectra Averaged: 1 (USB2+H05261)
Boxcar Smoothing: 0 (USB2+H05261)
Correct for Electrical Dark: No (USB2+H05261)
Strobe/Lamp Enabled: No (USB2+H05261)
Correct for Detector Non-linearity: No (USB2+H05261)
Correct for Stray Light: No (USB2+H05261)
Number of Pixels in Processed Spectrum: 2048
>>>>>Begin Processed Spectral Data<<<<<
365.73	7.02
365.92	7.02
366.12	7.02
366.32	0.00
366.52	0.00
366.72	0.00
366.91	0.00
367.11	0.00
367.31	0.00
367.51	0.00
367.70	0.00
367.90	0.00
368.10	0.00
368.30	0.00
368.49	0.00
368.69	0.00
368.89	0.00
369.09	0.00
369.28	0.00
369.48	0.00
369.68	0.00
369.87	0.00
370.07	0.00
370.27	0.00
370.47	81.92
370.66	362.78
370.86	355.76
371.06	381.51
371.25	514.92
371.45	437.68
371.65	372.15
371.84	407.25
372.04	337.04
372.24	486.83
372.44	451.72
372.63	477.47
372.83	465.77
373.03	528.96
373.22	437.68
373.42	545.34
373.62	547.69
373.81	517.26
374.01	524.28
374.21	596.84
374.40	559.39
374.60	613.22
374.79	575.77
374.99	566.41
375.19	547.69
375.38	627.26
375.58	543.00
375.78	603.86
375.97	566.41
376.17	627.26
376.37	617.90
376.56	592.16
376.76	678.76
376.95	641.31
377.15	613.22
377.35	557.05
377.54	547.69
377.74	596.84
377.93	657.69
378.13	723.23
378.33	723.23
378.52	678.76
378.72	627.26
378.91	615.56
379.11	688.12
379.31	681.10
379.50	634.29
379.70	781.74
379.89	732.59
380.09	599.18
380.28	741.95
380.48	720.88
380.68	634.29
380.87	676.41
381.07	678.76
381.26	802.80
381.46	763.01
381.65	786.42
381.85	739.61
382.04	720.88
382.24	814.51
382.43	870.68
382.63	737.27
382.83	718.54
383.02	779.40
383.22	774.72
383.41	788.76
383.61	828.55
383.80	847.27
384.00	809.83
384.19	795.78
384.39	877.70
384.58	851.96
384.78	798.12
384.97	805.14
385.17	805.14
385.36	786.42
385.56	908.13
385.75	812.17
385.95	905.79
386.14	950.26
386.34	901.11
386.53	917.49
386.72	931.53
386.92	924.51
387.11	954.94
387.31	1041.54
387.50	877.70
387.70	966.64
387.89	1039.20
388.09	971.32
388.28	894.08
388.48	922.17
388.67	1050.90
388.86	1116.44
389.06	1008.77
389.25	1097.71
389.45	1004.09
389.64	1043.88
389.84	1062.60
390.03	1015.79
390.22	1125.80
390.42	1095.37
390.61	1130.48
390.81	952.60
391.00	1036.86
391.19	1196.01
391.39	1118.78
391.58	1102.39
391.78	1193.67
391.97	1172.61
392.16	1090.69
392.36	1205.38
392.55	1095.37
392.75	1228.78
392.94	1165.59
393.13	1226.44
393.33	1186.65
393.52	1226.44
393.71	1196.01
393.91	1366.87
394.10	1165.59
394.29	1231.12
394.49	1233.46
394.68	1315.38
394.88	1291.98
395.07	1294.32
395.26	1343.47
395.46	1317.72
395.65	1308.36
395.84	1404.32
396.04	1380.92
396.23	1404.32
396.42	1322.40
396.62	1399.64
396.81	1406.66
397.00	1416.02
397.19	1423.05
397.39	1462.83
397.58	1458.15
397.77	1430.07
397.97	1544.75
398.16	1570.50
398.35	1603.27
398.55	1476.88
398.74	1483.90
398.93	1556.46
399.12	1472.20
399.32	1502.62
399.51	1610.29
399.70	1516.67
399.90	1624.33
400.09	1610.29
400.28	1626.67
400.47	1586.88
400.67	1685.19
400.86	1753.06
401.05	1652.42
401.24	1645.40
401.44	1710.93
401.63	1811.57
401.82	1708.59
402.01	1650.08
402.21	1776.47
402.40	1806.89
402.59	1732.00
402.78	1837.32
402.97	1870.09
403.17	1853.70
403.36	1834.98
403.55	1825.62
403.74	1966.05
403.93	1935.62
404.13	2003.50
404.32	1867.75
404.51	1919.24
404.70	1944.99
404.89	1952.01
405.09	2008.18
405.28	1944.99
405.47	1987.11
405.66	2090.10
405.85	1952.01
406.05	2085.42
406.24	2031.58
406.43	2190.74
406.62	2186.06
406.81	2106.48
407.00	2113.50
407.20	2169.68
407.39	2165.00
407.58	2242.23
407.77	2326.49
407.96	2256.28
408.15	2307.77
408.34	2317.13
408.54	2349.90
408.73	2235.21
408.92	2279.68
409.11	2326.49
409.30	2396.71
409.49	2300.75
409.68	2476.29
409.87	2464.58
410.07	2530.12
410.26	2511.39
410.45	2607.36
410.64	2476.29
410.83	2628.42
411.02	2555.86
411.21	2560.55
411.40	2654.17
411.59	2675.23
411.78	2705.66
411.98	2698.64
412.17	2754.81
412.36	2729.06
412.55	2796.94
412.74	2885.88
412.93	2913.97
413.12	2825.03
413.31	2923.33
413.50	3063.76
413.69	2923.33
413.88	3033.33
414.07	3070.78
414.26	3155.04
414.45	3007.59
414.64	3016.95
414.83	3052.06
415.02	3117.59
415.22	3262.71
415.41	3356.33
415.60	3300.16
415.79	3169.09
415.98	3286.11
416.17	3370.37
416.36	3253.34
416.55	3384.41
416.74	3297.81
416.93	3527.19
417.12	3478.04
417.31	3536.55
417.50	3611.45
417.69	3660.60
417.88	3646.55
418.07	3597.40
418.26	3660.60
418.45	3569.32
418.64	3700.39
418.83	3744.86
419.02	3665.28
419.21	3805.71
419.39	3742.52
419.58	3880.61
419.77	3782.31
419.96	3943.80
420.15	4002.32
420.34	3845.50
420.53	3901.67
420.72	3904.01
420.91	3967.21
421.10	4105.30
421.29	4077.21
421.48	4030.40
421.67	4030.40
421.86	4032.74
422.05	4119.34
422.24	4074.87
422.43	4109.98
422.61	4126.36
422.80	4175.52
422.99	4191.90
423.18	4156.79
423.37	4163.81
423.56	4297.22
423.75	4091.26
423.94	4039.76
424.13	3854.86
424.32	4095.94
424.50	4245.73
424.69	4327.65
424.88	4297.22
425.07	4210.62
425.26	4166.15
425.45	4124.02
425.64	4325.31
425.83	4175.52
426.01	4294.88
426.20	4159.13
426.39	4372.12
426.58	4297.22
426.77	4283.18
426.96	4463.40
427.15	4227.01
427.33	4400.21
427.52	4388.50
427.71	4386.16
427.90	4428.29
428.09	4519.57
428.28	4444.68
428.46	4507.87
428.65	4582.77
428.84	4800.44
429.03	4624.90
429.22	4564.04
429.40	4582.77
429.59	4667.03
429.78	4699.80
429.97	4493.83
430.16	4491.49
430.34	4835.55
430.53	4854.27
430.72	4765.33
430.91	4676.39
431.10	4755.97
431.28	4926.83
431.47	4851.93
431.66	4994.70
431.85	4709.16
432.03	5149.18
432.22	5205.35
432.41	5076.62
432.60	5008.75
432.79	4999.38
432.97	4873.00
433.16	5296.63
433.35	5167.90
433.54	5205.35
433.72	5043.85
433.91	5132.79
434.10	5296.63
434.28	5254.50
434.47	5205.35
434.66	5366.85
434.85	5341.10
435.03	5294.29
435.22	5364.51
435.41	5806.87
435.59	5582.18
435.78	5511.96
435.97	5579.84
436.16	5537.71
436.34	5612.60
436.53	5481.53
436.72	5575.16
436.90	5591.54
437.09	5696.86
437.28	5605.58
437.46	5738.99
437.65	5605.58
437.84	5834.96
438.02	5762.40
438.21	5631.33
438.40	5696.86
438.58	5923.90
438.77	5942.62
438.96	5940.28
439.14	6057.31
439.33	6181.35
439.52	6279.66
439.70	6244.55
439.89	6249.23
440.08	6193.06
440.26	6272.64
440.45	6211.78
440.63	6263.27
440.82	6555.84
441.01	6415.41
441.19	6441.15
441.38	6586.27
441.57	6553.50
441.75	6693.93
441.94	6970.12
442.12	6878.83
442.31	6946.71
442.50	6897.56
442.68	6782.87
442.87	6974.80
443.05	7035.65
443.24	6979.48
443.43	7117.57
443.61	7187.79
443.80	7126.93
443.98	7080.12
444.17	6726.70
444.35	6930.33
444.54	7206.51
444.73	7028.63
444.91	7119.91
445.10	7096.50
445.28	7019.27
445.47	7133.95
445.65	7222.89
445.84	7276.73
446.02	7339.92
446.21	7143.32
446.39	7314.17
446.58	7293.11
446.77	7363.33
446.95	7187.79
447.14	7269.70
447.32	7377.37
447.51	7075.44
447.69	7337.58
447.88	7164.38
448.06	7332.90
448.25	7377.37
448.43	7148.00
448.62	7286.09
448.80	7227.57
448.99	7438.22
449.17	7421.84
449.36	7494.40
449.54	7541.21
449.73	7700.36
449.91	7686.32
450.10	7548.23
450.28	7709.72
450.46	7824.41
450.65	7744.83
450.83	7770.58
451.02	7679.30
451.20	7906.33
451.39	7913.35
451.57	7868.88
451.76	7796.32
451.94	7864.20
452.13	8009.31
452.31	8231.66
452.49	7875.90
452.68	7929.74
452.86	7971.86
453.05	8109.96
453.23	8105.28
453.42	8135.70
453.60	8194.22
453.78	8290.18
453.97	8159.11
454.15	8116.98
454.34	8238.69
454.52	8250.39
454.70	8271.45
454.89	8535.93
455.07	8269.11
455.26	8535.93
455.44	8613.17
455.62	8655.30
455.81	8463.38
455.99	8442.31
456.17	8489.12
456.36	8564.02
456.54	8624.87
456.73	8767.65
456.91	8865.95
457.09	8889.35
457.28	9085.96
457.46	8854.25
457.64	9071.92
457.83	9130.43
458.01	8957.23
458.19	9114.05
458.38	9020.42
458.56	9392.57
458.74	9252.14
458.93	9399.59
459.11	9245.12
459.29	9366.82
459.48	9270.86
459.66	9479.17
459.84	9554.07
460.03	9441.72
460.21	9247.46
460.39	9481.51
460.57	9228.73
460.76	9359.80
460.94	9554.07
461.12	9544.70
461.31	9832.59
461.49	9551.73
461.67	9565.77
461.85	9638.33
462.04	9998.77
462.22	10279.63
462.40	9731.95
462.59	9736.63
462.77	10064.30
462.95	9961.32
463.13	9930.89
463.32	9947.28
463.50	9975.36
463.68	10043.24
463.86	10246.87
464.05	10190.69
464.23	10150.90
464.41	10204.74
464.59	10083.03
464.78	10483.26
464.96	10125.16
465.14	10064.30
465.32	10382.62
465.50	10406.02
465.69	10445.81
465.87	10324.10
466.05	10511.35
466.23	10272.61
466.41	10684.55
466.60	10689.23
466.78	10523.05
466.96	10604.97
467.14	10506.66
467.32	10665.82
467.51	10916.26
467.69	10600.29
467.87	10672.84
468.05	10621.35
468.23	10370.91
468.41	10609.65
468.60	10789.87
468.78	10902.22
468.96	10923.28
469.14	11180.74
469.32	10986.47
469.50	10817.96
469.69	11295.43
469.87	11302.45
470.05	11218.19
470.23	11267.34
470.41	11346.92
470.59	11431.18
470.77	11276.70
470.95	11461.60
471.14	11468.62
471.32	11300.11
471.50	11810.34
471.68	11784.60
471.86	11838.43
472.04	11639.48
472.22	12030.35
472.40	11971.84
472.58	12123.98
472.77	11843.11
472.95	12093.55
473.13	12475.06
473.31	11971.84
473.49	12194.19
473.67	12404.84
473.85	12372.07
474.03	12491.44
474.21	12564.00
474.39	12746.56
474.57	12641.23
474.75	13013.38
474.93	13188.92
475.12	12854.22
475.30	13181.90
475.48	12606.13
475.66	13156.15
475.84	13193.60
476.02	13212.32
476.20	13289.56
476.38	13507.23
476.56	13563.40
476.74	13886.40
476.92	13621.92
477.10	13692.13
477.28	13973.00
477.46	13989.38
477.64	13942.57
477.82	14141.52
478.00	14541.75
478.18	14773.46
478.36	14871.76
478.54	15066.03
478.72	14789.85
478.90	14951.34
479.08	14963.04
479.26	15183.06
479.44	15431.15
479.62	15419.45
479.80	15573.92
479.98	15939.05
480.16	15714.36
480.34	15932.03
480.52	16093.52
480.70	16339.28
480.88	15765.85
481.06	16500.78
481.24	16386.09
481.41	16383.75
481.59	17046.12
481.77	16837.81
481.95	17053.14
482.13	17216.98
482.31	17130.38
482.49	17324.65
482.67	17242.73
482.85	17745.94
483.03	17916.80
483.21	18260.86
483.39	18094.68
483.57	18017.44
483.74	18492.57
483.92	18452.78
484.10	18342.78
484.28	18710.24
484.46	19042.60
484.64	19484.96
484.82	18981.74
485.00	19367.93
485.18	19482.62
485.35	19800.93
485.53	20173.08
485.71	20112.22
485.89	20240.95
486.07	20004.56
486.25	20540.54
486.43	20751.19
486.61	20582.67
486.78	20868.22
486.96	20959.50
487.14	21659.32
487.32	21282.49
487.50	21593.78
487.68	21710.81
487.85	21703.79
488.03	22001.04
488.21	22504.25
488.39	22340.41
488.57	22506.59
488.75	22434.03
488.92	22925.55
489.10	23185.35
489.28	23412.38
489.46	23487.28
489.64	23363.23
489.81	24004.53
489.99	24034.96
490.17	24034.96
490.35	24334.55
490.53	24334.55
490.70	24528.81
490.88	24844.79
491.06	25207.57
491.24	24863.51
491.41	25184.16
491.59	25359.70
491.77	25443.96
491.95	25860.58
492.13	25942.50
492.30	26108.68
492.48	26335.71
492.66	26183.57
492.84	26366.13
493.01	26728.92
493.19	26487.84
493.37	26984.04
493.54	27248.52
493.72	27599.60
493.90	27239.15
494.08	27693.22
494.25	27917.91
494.43	28203.46
494.61	28622.41
494.79	28257.29
494.96	28573.26
495.14	28657.52
495.32	28823.70
495.49	28624.75
495.67	28947.75
495.85	29308.19
496.02	29266.06
496.20	29649.91
496.38	29635.86
496.55	29827.79
496.73	30223.34
496.91	30302.92
497.09	30082.91
497.26	30415.26
497.44	30558.03
497.62	30916.14
497.79	31175.94
497.97	31187.64
498.14	31115.08
498.32	31725.96
498.50	31775.11
498.67	31990.44
498.85	31674.47
499.03	31805.54
499.20	32161.30
499.38	32299.39
499.56	32383.65
499.73	32713.67
499.91	32882.19
500.08	32877.51
500.26	32395.35
500.44	32793.25
500.61	33254.33
500.79	33364.34
500.97	33268.37
501.14	33937.77
501.32	33888.62
501.49	33741.16
501.67	33848.83
501.84	33694.35
502.02	34136.71
502.20	34593.12
502.37	34487.79
502.55	34740.57
502.72	34012.66
502.90	34775.68
503.07	34382.47
503.25	34939.52
503.43	34845.90
503.60	35281.24
503.78	35498.91
503.95	35000.37
504.13	35220.38
504.30	35185.27
504.48	35580.82
504.65	35601.89
504.83	35885.09
505.01	36451.50
505.18	36114.47
505.36	36224.47
505.53	35789.13
505.71	36114.47
505.88	36613.00
506.06	36533.42
506.23	36858.76
506.41	36804.92
506.58	37069.40
506.76	37153.66
506.93	37062.38
507.11	37064.72
507.28	37631.13
507.46	37233.24
507.63	37488.36
507.81	38220.95
507.98	37727.10
508.16	38337.98
508.33	37635.81
508.50	38108.60
508.68	38466.70
508.85	38600.12
509.03	38314.57
509.20	38761.61
509.38	38965.24
509.55	39250.78
509.73	39108.01
509.90	38930.13
510.08	39105.67
510.25	39611.23
510.42	39676.76
510.60	39473.13
510.77	39845.28
510.95	39988.05
511.12	39559.73
511.30	39714.21
511.47	40348.50
511.64	40250.19
511.82	40610.64
511.99	40540.42
512.17	40589.57
512.34	40374.24
512.51	40793.20
512.69	41113.85
512.86	40610.64
513.04	41338.54
513.21	41284.71
513.38	41591.32
513.56	41755.16
513.73	41471.95
513.90	41483.66
514.08	41418.12
514.25	41514.08
514.43	41947.08
514.60	41741.11
514.77	42047.72
514.95	42136.66
515.12	41710.69
515.29	42178.79
515.47	42457.32
515.64	42452.64
515.81	42607.11
515.99	42974.58
516.16	42824.78
516.33	43178.20
516.51	43234.38
516.68	42913.72
516.85	43227.35
517.03	43281.19
517.20	43438.00
517.37	43435.66
517.54	43608.86
517.72	43929.51
517.89	43672.06
518.06	43896.75
518.24	43871.00
518.41	43552.69
518.58	44142.50
518.75	43838.23
518.93	44210.38
519.10	43924.83
519.27	44542.74
519.45	44229.10
519.62	44243.15
519.79	44561.46
519.96	44849.35
520.14	44875.09
520.31	44814.24
520.48	45312.77
520.65	45207.45
520.83	45502.35
521.00	45282.34
521.17	45120.85
521.34	45256.60
521.52	45925.99
521.69	45675.55
521.86	45713.00
522.03	45923.65
522.20	45642.79
522.38	45977.48
522.55	45977.48
522.72	45780.88
522.89	46286.43
523.07	46534.53
523.24	46333.24
523.41	46632.83
523.58	46284.09
523.75	46487.72
523.92	46546.23
524.10	46501.76
524.27	46714.75
524.44	46777.95
524.61	47498.83
524.78	47084.56
524.96	46946.47
525.13	47550.32
525.30	47042.43
525.47	47437.98
525.64	47592.45
525.81	47594.79
525.98	47866.30
526.16	47765.65
526.33	47311.59
526.50	47854.59
526.67	47728.20
526.84	48184.61
527.01	47880.34
527.18	48002.05
527.36	48151.84
527.53	48514.62
527.70	48959.33
527.87	48624.63
528.04	48376.53
528.21	48336.74
528.38	48451.43
528.55	48631.65
528.72	48807.19
528.89	49022.52
529.07	48474.84
529.24	48882.09
529.41	48886.77
529.58	48961.67
529.75	49038.90
529.92	49055.29
530.09	49099.76
530.26	49022.52
530.43	48989.75
530.60	49326.79
530.77	49301.04
530.94	49354.88
531.11	49418.07
531.28	49130.19
531.46	49317.43
531.63	49350.20
531.80	49755.11
531.97	49907.24
532.14	50176.40
532.31	49911.92
532.48	49757.45
532.65	50045.33
532.82	49977.46
532.99	50234.92
533.16	50195.13
533.33	50576.64
533.50	50738.13
533.67	50213.85
533.84	50429.18
534.01	50401.10
534.18	50330.88
534.35	50639.83
534.52	50611.74
534.69	50796.65
534.86	51033.04
535.03	50691.32
535.20	50801.33
535.37	50930.06
535.54	51147.73
535.71	50834.10
535.88	51061.13
536.05	50841.12
536.22	51442.63
536.38	51407.53
536.55	51152.41
536.72	51126.66
536.89	51236.67
537.06	51562.00
537.23	51554.98
537.40	51278.80
537.57	51346.67
537.74	51711.80
537.91	51805.42
538.08	51831.16
538.25	51393.48
538.42	51323.27
538.59	51798.40
538.75	51763.29
538.92	51723.50
539.09	52182.24
539.26	51690.73
539.43	51945.85
539.60	52156.50
539.77	52196.29
539.94	52212.67
540.11	52144.80
540.28	52065.22
540.44	52004.36
540.61	52259.48
540.78	52334.38
540.95	52353.10
541.12	52437.36
541.29	52374.17
541.46	52371.83
541.62	52430.34
541.79	52460.77
541.96	52107.35
542.13	52470.13
542.30	52514.60
542.47	52809.51
542.63	52650.35
542.80	52823.55
542.97	52835.25
543.14	53006.11
543.31	52650.35
543.48	52861.00
543.64	53298.68
543.81	53298.68
543.98	53436.77
544.15	53389.96
544.32	53233.14
544.48	53722.32
544.65	53354.85
544.82	53471.88
544.99	53207.40
545.16	53499.97
545.32	53464.86
545.49	53567.84
545.66	53776.15
545.83	53958.71
546.00	53794.87
546.16	53572.52
546.33	53434.43
546.50	53186.33
546.67	53476.56
546.83	53413.37
547.00	53958.71
547.17	53750.40
547.34	53708.27
547.50	53949.35
547.67	54143.61
547.84	54031.27
548.00	54057.01
548.17	54160.00
548.34	54288.73
548.51	54590.66
548.67	54260.64
548.84	54181.06
549.01	53944.67
549.18	54012.54
549.34	54272.34
549.51	54220.85
549.68	54319.15
549.84	54281.70
550.01	54529.80
550.18	54092.12
550.34	54443.20
550.51	54459.58
550.68	54574.27
550.84	54220.85
551.01	54532.14
551.18	54499.37
551.34	54438.52
551.51	54571.93
551.68	54759.17
551.84	54850.45
552.01	54525.12
552.18	54841.09
552.34	54686.62
552.51	54775.56
552.68	54789.60
552.84	54578.95
553.01	55091.53
553.18	54838.75
553.34	54965.14
553.51	55009.61
553.67	55110.25
553.84	55309.20
554.01	55089.19
554.17	55068.12
554.34	55283.45
554.51	54995.57
554.67	55309.20
554.84	55370.05
555.00	55227.28
555.17	55189.83
555.33	55283.45
555.50	55187.49
555.67	55250.69
555.83	55374.73
556.00	55248.35
556.16	55466.02
556.33	55536.23
556.50	55395.80
556.66	55496.44
556.83	55330.26
556.99	55561.98
557.16	55585.38
557.32	55547.93
557.49	55543.25
557.65	55449.63
557.82	55430.91
557.98	55636.87
558.15	55758.58
558.32	55657.94
558.48	55784.33
558.65	55854.54
558.81	55735.18
558.98	55702.41
559.14	55636.87
559.31	55660.28
559.47	55627.51
559.64	55702.41
559.80	56027.74
559.97	56123.71
560.13	55861.57
560.30	55969.23
560.46	56243.07
560.63	55952.85
560.79	56072.21
560.96	56069.87
561.12	56259.46
561.29	56135.41
561.45	56048.81
561.61	56275.84
561.78	56271.16
561.94	56327.33
562.11	56062.85
562.27	56172.86
562.44	56217.33
562.60	56006.68
562.77	56212.65
562.93	56512.23
563.10	56324.99
563.26	56219.67
563.42	56395.21
563.59	56442.02
563.75	56432.66
563.92	56420.95
564.08	56060.51
564.24	56292.22
564.41	56259.46
564.57	56299.25
564.74	56327.33
564.90	56451.38
565.07	56456.06
565.23	56488.83
565.39	56442.02
565.56	56664.37
565.72	56299.25
565.88	56598.83
566.05	56205.62
566.21	56306.27
566.38	56479.47
566.54	56275.84
566.70	56662.03
566.87	56765.01
567.03	56430.32
567.19	56685.43
567.36	56528.62
567.52	56406.91
567.68	56350.74
567.85	56324.99
568.01	56549.68
568.17	56416.27
568.34	56846.93
568.50	56706.50
568.66	56814.16
568.83	56853.95
568.99	56580.11
569.15	56757.99
569.32	56750.97
569.48	56552.02
569.64	56884.38
569.81	56720.54
569.97	56713.52
570.13	56729.90
570.30	56697.14
570.46	56760.33
570.62	56905.44
570.78	56690.12
570.95	56669.05
571.11	56690.12
571.27	56584.79
571.43	56795.44
571.60	57088.01
571.76	56769.69
571.92	57064.60
572.09	56793.10
572.25	56584.79
572.41	56757.99
572.57	56947.57
572.74	57020.13
572.90	56537.98
573.06	56933.53
573.22	56772.03
573.38	57099.71
573.55	56830.55
573.71	57130.14
573.87	57113.75
574.03	57043.54
574.20	56818.84
574.36	56830.55
574.52	56720.54
574.68	57286.95
574.84	57059.92
575.01	57088.01
575.17	57134.82
575.33	57017.79
575.49	57181.63
575.65	57118.43
575.82	57127.80
575.98	56669.05
576.14	57198.01
576.30	57162.90
576.46	56842.25
576.62	57024.81
576.79	56849.27
576.95	56954.60
577.11	57125.46
577.27	57052.90
577.43	57237.80
577.59	57216.74
577.75	57275.25
577.92	57071.62
578.08	56956.94
578.24	56795.44
578.40	57015.45
578.56	57090.35
578.72	57181.63
578.88	57120.77
579.04	57340.78
579.21	57160.56
579.37	57071.62
579.53	57221.42
579.69	57148.86
579.85	57207.37
580.01	57212.06
580.17	56959.28
580.33	57027.15
580.49	57371.21
580.65	57420.36
580.82	57270.57
580.98	57102.05
581.14	57272.91
581.30	57237.80
581.46	57148.86
581.62	57219.08
581.78	57095.03
581.94	57247.16
582.10	56938.21
582.26	57359.51
582.42	57279.93
582.58	57415.68
582.74	57441.43
582.90	57399.30
583.06	57422.70
583.22	57350.15
583.38	57244.82
583.54	57322.06
583.70	57380.57
583.86	57209.71
584.02	57125.46
584.18	57226.10
584.34	57303.34
584.50	57509.30
584.66	57331.42
584.82	57181.63
584.98	57331.42
585.14	57293.97
585.30	57097.37
585.46	57242.48
585.62	57317.38
585.78	57230.78
585.94	57118.43
586.10	57200.35
586.26	57123.11
586.42	57696.55
586.58	57406.32
586.74	57333.76
586.90	57312.70
587.06	57361.85
587.22	57495.26
587.38	57394.62
587.54	57261.21
587.70	57778.46
587.86	57492.92
588.02	57263.55
588.18	57626.33
588.34	57181.63
588.49	57434.41
588.65	57174.61
588.81	57209.71
588.97	57581.86
589.13	57471.85
589.29	57272.91
589.45	57359.51
589.61	57661.44
