SpectraSuite Data File
++++++++++++++++++++++++++++++++++++
Date: Fri Oct 04 11:48:47 GMT-05:00 2013
User: price-jones
Dark Spectrum Present: No
Reference Spectrum Present: No
Number of Sampled Component Spectra: 1
Spectrometers: USB2+H05261
Integration Time (usec): 100000 (USB2+H05261)
Spectra Averaged: 1 (USB2+H05261)
Boxcar Smoothing: 0 (USB2+H05261)
Correct for Electrical Dark: No (USB2+H05261)
Strobe/Lamp Enabled: No (USB2+H05261)
Correct for Detector Non-linearity: No (USB2+H05261)
Correct for Stray Light: No (USB2+H05261)
Number of Pixels in Processed Spectrum: 2048
>>>>>Begin Processed Spectral Data<<<<<
365.73	37.45
365.92	37.45
366.12	37.45
366.32	0.00
366.52	0.00
366.72	0.00
366.91	0.00
367.11	0.00
367.31	0.00
367.51	0.00
367.70	0.00
367.90	0.00
368.10	0.00
368.30	0.00
368.49	0.00
368.69	0.00
368.89	0.00
369.09	0.00
369.28	0.00
369.48	0.00
369.68	0.00
369.87	0.00
370.07	0.00
370.27	21.06
370.47	149.79
370.66	397.89
370.86	369.80
371.06	374.49
371.25	505.56
371.45	486.83
371.65	550.03
371.84	468.11
372.04	451.72
372.24	512.58
372.44	587.47
372.63	477.47
372.83	545.34
373.03	500.87
373.22	554.71
373.42	533.64
373.62	575.77
373.81	538.32
374.01	622.58
374.21	603.86
374.40	589.82
374.60	610.88
374.79	575.77
374.99	608.54
375.19	634.29
375.38	631.94
375.58	648.33
375.78	674.07
375.97	676.41
376.17	732.59
376.37	697.48
376.56	643.65
376.76	685.78
376.95	748.97
377.15	732.59
377.35	664.71
377.54	702.16
377.74	706.84
377.93	751.31
378.13	741.95
378.33	809.83
378.52	746.63
378.72	802.80
378.91	795.78
379.11	770.04
379.31	786.42
379.50	784.08
379.70	713.86
379.89	774.72
380.09	755.99
380.28	716.20
380.48	730.25
380.68	732.59
380.87	788.76
381.07	870.68
381.26	870.68
381.46	844.93
381.65	784.08
381.85	884.72
382.04	868.34
382.24	856.64
382.43	793.44
382.63	770.04
382.83	894.08
383.02	903.45
383.22	945.58
383.41	856.64
383.61	861.32
383.80	903.45
384.00	938.55
384.19	882.38
384.39	1029.84
384.58	905.79
384.78	940.90
384.97	961.96
385.17	894.08
385.36	908.13
385.56	901.11
385.75	805.14
385.95	985.37
386.14	985.37
386.34	922.17
386.53	1064.94
386.72	1006.43
386.92	1114.10
387.11	1043.88
387.31	992.39
387.50	992.39
387.70	1022.81
387.89	1032.18
388.09	1121.12
388.28	1093.03
388.48	1041.54
388.67	1123.46
388.86	1071.97
389.06	1167.93
389.25	1207.72
389.45	1217.08
389.64	1142.18
389.84	1191.33
390.03	1130.48
390.22	1291.98
390.42	1146.86
390.61	1067.28
390.81	1196.01
391.00	1240.48
391.19	1188.99
391.39	1196.01
391.58	1380.92
391.78	1352.83
391.97	1263.89
392.16	1228.78
392.36	1373.89
392.55	1423.05
392.75	1282.61
392.94	1331.76
393.13	1306.02
393.33	1315.38
393.52	1338.79
393.71	1259.21
393.91	1446.45
394.10	1359.85
394.29	1317.72
394.49	1460.49
394.68	1362.19
394.88	1455.81
395.07	1495.60
395.26	1437.09
395.46	1504.96
395.65	1589.22
395.84	1617.31
396.04	1612.63
396.23	1596.25
396.42	1476.88
396.62	1572.84
396.81	1614.97
397.00	1547.09
397.19	1633.69
397.39	1701.57
397.58	1682.85
397.77	1645.40
397.97	1811.57
398.16	1650.08
398.35	1839.66
398.55	1713.27
398.74	1762.42
398.93	1806.89
399.12	1788.17
399.32	1795.19
399.51	1680.50
399.70	1881.79
399.90	1771.79
400.09	1844.34
400.28	1818.60
400.47	1825.62
400.67	1849.02
400.86	1923.92
401.05	1870.09
401.24	1940.30
401.44	1905.20
401.63	1935.62
401.82	1942.64
402.01	2026.90
402.21	1996.48
402.40	2054.99
402.59	1954.35
402.78	2143.93
402.97	2097.12
403.17	2026.90
403.36	2181.38
403.55	2092.44
403.74	2150.95
403.93	2174.36
404.13	2204.78
404.32	2186.06
404.51	2153.29
404.70	2193.08
404.89	2239.89
405.09	2267.98
405.28	2307.77
405.47	2321.81
405.66	2457.56
405.85	2333.51
406.05	2342.88
406.24	2438.84
406.43	2443.52
406.62	2527.78
406.81	2518.42
407.00	2544.16
407.20	2560.55
407.39	2497.35
407.58	2593.31
407.77	2567.57
407.96	2605.02
408.15	2537.14
408.34	2509.05
408.54	2656.51
408.73	2644.81
408.92	2700.98
409.11	2841.41
409.30	2848.43
409.49	2930.35
409.68	2787.58
409.87	2855.45
410.07	2864.82
410.26	2850.77
410.45	2913.97
410.64	2899.92
410.83	3019.29
411.02	2888.22
411.21	3009.93
411.40	2993.55
411.59	3056.74
411.78	3082.49
411.98	3087.17
412.17	3201.85
412.36	3056.74
412.55	3234.62
412.74	3227.60
412.93	3302.50
413.12	3307.18
413.31	3466.33
413.50	3368.03
413.69	3459.31
413.88	3419.52
414.07	3555.27
414.26	3578.68
414.45	3557.61
414.64	3524.85
414.83	3662.94
415.02	3616.13
415.22	3637.19
415.41	3686.34
415.60	3854.86
415.79	3871.25
415.98	3819.75
416.17	3880.61
416.36	3894.65
416.55	3964.87
416.74	4023.38
416.93	3889.97
417.12	3981.25
417.31	4105.30
417.50	4126.36
417.69	4308.93
417.88	4290.20
418.07	4241.05
418.26	4283.18
418.45	4283.18
418.64	4444.68
418.83	4486.81
419.02	4252.75
419.21	4601.49
419.39	4386.16
419.58	4280.84
419.77	4421.27
419.96	4463.40
420.15	4575.75
420.34	4400.21
420.53	4512.55
420.72	4533.62
420.91	4739.58
421.10	4753.63
421.29	4732.56
421.48	4535.96
421.67	4908.10
421.86	4805.12
422.05	4912.78
422.24	4753.63
422.43	4812.14
422.61	4793.42
422.80	4858.95
422.99	4919.81
423.18	4837.89
423.37	4891.72
423.56	4746.61
423.75	4856.61
423.94	4716.18
424.13	4482.13
424.32	4559.36
424.50	5004.07
424.69	4889.38
424.88	5081.30
425.07	4870.65
425.26	4851.93
425.45	4793.42
425.64	4912.78
425.83	4744.27
426.01	4961.94
426.20	5013.43
426.39	4961.94
426.58	5085.98
426.77	4985.34
426.96	4966.62
427.15	5254.50
427.33	5205.35
427.52	5090.67
427.71	5179.61
427.90	5385.57
428.09	5240.46
428.28	5142.16
428.46	5254.50
428.65	5345.78
428.84	5521.32
429.03	5504.94
429.22	5263.86
429.40	5504.94
429.59	5469.83
429.78	5268.55
429.97	5174.92
430.16	5338.76
430.34	5523.66
430.53	5617.29
430.72	5680.48
430.91	5483.88
431.10	5542.39
431.28	5675.80
431.47	5643.03
431.66	5799.85
431.85	5741.33
432.03	5832.62
432.22	5827.93
432.41	6045.60
432.60	5914.53
432.79	5767.08
432.97	6029.22
433.16	5944.96
433.35	6054.97
433.54	6115.82
433.72	6099.44
433.91	5968.37
434.10	6174.33
434.28	5926.24
434.47	6237.53
434.66	6190.72
434.85	6310.08
435.03	6450.52
435.22	6277.32
435.41	6527.75
435.59	6354.55
435.78	6480.94
435.97	6511.37
436.16	6415.41
436.34	6464.56
436.53	6527.75
436.72	6682.23
436.90	6415.41
437.09	6588.61
437.28	6541.80
437.46	6546.48
437.65	6415.41
437.84	6649.46
438.02	6764.15
438.21	6747.76
438.40	6628.40
438.58	6808.62
438.77	7087.14
438.96	6953.73
439.14	7037.99
439.33	7096.50
439.52	7166.72
439.70	7229.91
439.89	7328.22
440.08	7180.76
440.26	7269.70
440.45	7389.07
440.63	7435.88
440.82	7529.50
441.01	7485.03
441.19	7548.23
441.38	7707.38
441.57	7634.83
441.75	7754.19
441.94	7829.09
442.12	8011.65
442.31	8088.89
442.50	8021.02
442.68	7992.93
442.87	8121.66
443.05	7946.12
443.24	8163.79
443.43	8109.96
443.61	8028.04
443.80	8542.96
443.98	8098.25
444.17	7779.94
444.35	8346.35
444.54	8407.20
444.73	8327.63
444.91	8318.26
445.10	8189.53
445.28	8355.71
445.47	8163.79
445.65	8287.84
445.84	8439.97
446.02	8418.91
446.21	8468.06
446.39	8444.65
446.58	8271.45
446.77	8484.44
446.95	8437.63
447.14	8393.16
447.32	8617.85
447.51	8425.93
447.69	8554.66
447.88	8547.64
448.06	8760.63
448.25	8365.07
448.43	8615.51
448.62	8606.15
448.80	8580.40
448.99	8681.05
449.17	8695.09
449.36	8643.60
449.54	8973.61
449.73	8973.61
449.91	8992.34
450.10	9013.40
450.28	8975.95
450.46	9104.68
450.65	8997.02
450.83	9221.71
451.02	9036.81
451.20	9217.03
451.39	9224.05
451.57	9050.85
451.76	9158.52
451.94	9240.44
452.13	9413.63
452.31	9247.46
452.49	9177.24
452.68	9502.58
452.86	9380.87
453.05	9628.96
453.23	9619.60
453.42	9528.32
453.60	9329.38
453.78	9579.81
453.97	9675.77
454.15	9514.28
454.34	9345.76
454.52	9661.73
454.70	9715.56
454.89	9785.78
455.07	9713.22
455.26	10073.67
455.44	10003.45
455.62	10003.45
455.81	10026.86
455.99	10267.93
456.17	10054.94
456.36	9949.62
456.54	10303.04
456.73	10260.91
456.91	10565.18
457.09	10593.26
457.28	10553.48
457.46	10335.81
457.64	10504.32
457.83	10747.74
458.01	10286.65
458.19	10675.18
458.38	10548.79
458.56	10703.27
458.74	10920.94
458.93	10640.08
459.11	10743.06
459.29	10637.73
459.48	10759.44
459.66	10820.30
459.84	10906.90
460.03	11059.03
460.21	10967.75
460.39	10927.96
460.57	11087.12
460.76	11173.72
460.94	11365.64
461.12	11185.42
461.31	11187.76
461.49	11274.36
461.67	11365.64
461.85	11712.04
462.04	11396.07
462.22	11939.07
462.40	11639.48
462.59	11424.15
462.77	11747.15
462.95	11838.43
463.13	11772.89
463.32	11786.94
463.50	11758.85
463.68	11836.09
463.86	11784.60
464.05	11686.29
464.23	11845.45
464.41	11866.52
464.59	11786.94
464.78	12161.42
464.96	12039.72
465.14	11824.39
465.32	12215.26
465.50	12217.60
465.69	12432.93
465.87	12119.29
466.05	12224.62
466.23	12140.36
466.41	12362.71
466.60	12739.54
466.78	12131.00
466.96	12372.07
467.14	12095.89
467.32	12432.93
467.51	12388.46
467.69	12547.61
467.87	12571.02
468.05	12566.34
468.23	12706.77
468.41	12493.78
468.60	12674.00
468.78	12650.60
468.96	12688.04
469.14	12861.24
469.32	12711.45
469.50	12706.77
469.69	13107.00
469.87	12959.55
470.05	13193.60
470.23	13029.76
470.41	13263.82
470.59	13834.91
470.77	13322.33
470.95	13437.02
471.14	13654.69
471.32	13514.25
471.50	13816.18
471.68	13762.35
471.86	13614.90
472.04	13722.56
472.22	14143.86
472.40	13525.96
472.58	13792.78
472.77	14080.66
472.95	14143.86
473.13	14373.23
473.31	14115.77
473.49	14246.84
473.67	14544.09
473.85	14420.04
474.03	14422.38
474.21	14794.53
474.39	14789.85
474.57	15044.96
474.75	14906.87
474.93	15344.55
475.12	14890.49
475.30	15063.69
475.48	15192.42
475.66	15302.42
475.84	15133.90
476.02	15709.68
476.20	15468.60
476.38	15906.28
476.56	16294.81
476.74	16079.48
476.92	15892.24
477.10	16037.35
477.28	16203.53
477.46	16507.80
477.64	16390.77
477.82	16795.68
478.00	17165.49
478.18	17167.83
478.36	17149.11
478.54	17399.54
478.72	17392.52
478.90	17413.59
479.08	17565.72
479.26	17804.46
479.44	18115.75
479.62	18321.71
479.80	18279.58
479.98	18050.21
480.16	18335.76
480.34	18253.84
480.52	19005.15
480.70	18881.10
480.88	18637.69
481.06	18623.64
481.24	18939.62
481.41	19058.98
481.59	19697.95
481.77	19679.22
481.95	19796.25
482.13	20095.84
482.31	19985.83
482.49	20259.68
482.67	20360.32
482.85	20547.56
483.03	20783.96
483.21	21006.31
483.39	21242.70
483.57	21116.31
483.74	21371.43
483.92	21607.83
484.10	21411.22
484.28	22284.24
484.46	22199.98
484.64	22754.69
484.82	22132.11
485.00	22558.08
485.18	22944.27
485.35	22916.19
485.53	22988.74
485.71	23234.50
485.89	23730.69
486.07	23480.25
486.25	23391.31
486.43	24018.58
486.61	24123.90
486.78	24512.43
486.96	24783.93
487.14	24584.99
487.32	24907.98
487.50	25116.29
487.68	25200.55
487.85	25696.74
488.03	25795.04
488.21	26312.30
488.39	26403.58
488.57	26206.98
488.75	26611.89
488.92	27014.46
489.10	26885.73
489.28	26780.41
489.46	27517.68
489.64	27328.10
489.81	27775.14
489.99	28084.09
490.17	28271.33
490.35	28428.15
490.53	28692.63
490.70	28795.61
490.88	28673.90
491.06	29022.64
491.24	29146.69
491.41	29481.39
491.59	29553.94
491.77	29755.23
491.95	30185.89
492.13	30031.41
492.30	30602.50
492.48	30476.12
492.66	30661.02
492.84	30749.96
493.01	31063.59
493.19	30976.99
493.37	31580.85
493.54	31770.43
493.72	31885.12
493.90	31688.51
494.08	32098.11
494.25	32383.65
494.43	32896.23
494.61	32847.08
494.79	32982.83
494.96	32980.49
495.14	33373.70
495.32	33640.52
495.49	34000.96
495.67	33879.25
495.85	34288.85
496.02	34382.47
496.20	35084.63
496.38	34483.11
496.55	34883.34
496.73	34937.18
496.91	35367.84
497.09	35222.72
497.26	35679.13
497.44	35178.25
497.62	35489.54
497.79	36257.24
497.97	36072.34
498.14	36655.13
498.32	36474.91
498.50	36879.82
498.67	37385.38
498.85	36996.85
499.03	37071.75
499.20	37528.15
499.38	37347.93
499.56	37303.46
499.73	37801.99
499.91	38010.30
500.08	38005.62
500.26	37647.52
500.44	38019.66
500.61	38377.76
500.79	38649.27
500.97	38808.42
501.14	38986.30
501.32	39131.42
501.49	38998.01
501.67	39550.37
501.84	39213.34
502.02	39625.27
502.20	39423.98
502.37	39959.97
502.55	40067.63
502.72	40074.65
502.90	39611.23
503.07	39744.64
503.25	40247.85
503.43	40528.72
503.60	40601.27
503.78	40362.54
503.95	40804.90
504.13	40758.09
504.30	41263.64
504.48	41280.03
504.65	41504.72
504.83	41687.28
505.01	42096.88
505.18	41816.01
505.36	42202.20
505.53	42068.79
505.71	42288.80
505.88	42281.78
506.06	41909.63
506.23	42419.87
506.41	42579.03
506.58	42684.35
506.76	43119.69
506.93	43115.01
507.11	42789.67
507.28	43068.20
507.46	43641.63
507.63	43241.40
507.81	43913.13
507.98	43466.09
508.16	43756.32
508.33	43669.72
508.50	43768.02
508.68	44676.15
508.85	44739.34
509.03	44144.84
509.20	44851.69
509.38	44758.06
509.55	45043.61
509.73	44917.22
509.90	45102.12
510.08	45137.23
510.25	45361.92
510.42	45539.80
510.60	45591.30
510.77	45907.27
510.95	45727.05
511.12	45315.11
511.30	45705.98
511.47	45902.59
511.64	45897.91
511.82	46298.14
511.99	46387.08
512.17	46665.60
512.34	46707.73
512.51	46595.38
512.69	47173.50
512.86	47278.82
513.04	47533.94
513.21	47283.50
513.38	47145.41
513.56	47470.75
513.73	46995.62
513.90	47459.04
514.08	47494.15
514.25	47896.72
514.43	47861.61
514.60	48177.59
514.77	48203.33
514.95	48158.86
515.12	48224.40
515.29	47938.85
515.47	48257.17
515.64	48839.96
515.81	48832.94
515.99	48793.15
516.16	48966.35
516.33	49015.50
516.51	49319.77
516.68	48933.58
516.85	49013.16
517.03	49605.31
517.20	49509.35
517.37	49794.90
517.54	49577.23
517.72	49488.29
517.89	49476.58
518.06	49642.76
518.24	49848.73
518.41	49347.86
518.58	49642.76
518.75	49794.90
518.93	49965.76
519.10	50223.22
519.27	50309.82
519.45	50452.59
519.62	50443.23
519.79	50506.42
519.96	50316.84
520.14	50567.27
520.31	50534.51
520.48	50871.54
520.65	51065.81
520.83	51100.92
521.00	51033.04
521.17	51133.68
521.34	50848.14
521.52	51489.45
521.69	51587.75
521.86	51475.40
522.03	51650.94
522.20	51723.50
522.38	51679.03
522.55	51508.17
522.72	51784.35
522.89	51842.87
523.07	52081.60
523.24	51828.82
523.41	52097.98
523.58	51882.66
523.75	52079.26
523.92	52343.74
524.10	52210.33
524.27	52423.32
524.44	52631.63
524.61	52853.98
524.78	52655.03
524.96	52725.25
525.13	52491.19
525.30	52861.00
525.47	52949.94
525.64	52886.74
525.81	52828.23
525.98	53176.97
526.16	52996.75
526.33	52821.21
526.50	53240.17
526.67	53104.41
526.84	53347.83
527.01	53373.58
527.18	53174.63
527.36	53521.03
527.53	53577.20
527.70	53663.80
527.87	53645.08
528.04	53691.89
528.21	53727.00
528.38	53567.84
528.55	53867.43
528.72	53680.19
528.89	54136.59
529.07	53703.59
529.24	53890.83
529.41	53998.50
529.58	54124.89
529.75	54049.99
529.92	54174.04
530.09	54042.97
530.26	54447.88
530.43	54251.28
530.60	54066.38
530.77	54520.44
530.94	54618.74
531.11	54497.03
531.28	54670.23
531.46	54429.16
531.63	54705.34
531.80	54595.34
531.97	55000.25
532.14	54801.30
532.31	54543.84
532.48	54827.05
532.65	54923.01
532.82	54780.24
532.99	54784.92
533.16	55201.53
533.33	55189.83
533.50	55220.26
533.67	55199.19
533.84	55044.72
534.01	55238.98
534.18	55040.04
534.35	55470.70
534.52	55260.05
534.69	55363.03
534.86	55737.52
535.03	55533.89
535.20	55620.49
535.37	55398.14
535.54	55594.74
535.71	55594.74
535.88	55599.43
536.05	55662.62
536.22	55882.63
536.38	55863.91
536.55	55814.76
536.72	55962.21
536.89	55711.77
537.06	56009.02
537.23	55908.38
537.40	55856.88
537.57	55746.88
537.74	55952.85
537.91	56203.28
538.08	56154.13
538.25	56114.34
538.42	56186.90
538.59	56390.53
538.75	55936.46
538.92	56186.90
539.09	56472.45
539.26	56619.90
539.43	56640.96
539.60	56521.60
539.77	56479.47
539.94	56568.41
540.11	56657.35
540.28	56528.62
540.44	56523.94
540.61	56659.69
540.78	56559.05
540.95	56788.42
541.12	56926.51
541.29	57015.45
541.46	56577.77
541.62	56512.23
541.79	56837.57
541.96	56568.41
542.13	56996.73
542.30	57024.81
542.47	57233.12
542.63	57352.49
542.80	57193.33
542.97	57282.27
543.14	57516.32
543.31	57357.17
543.48	57230.78
543.64	57460.15
543.81	57560.79
543.98	57883.79
544.15	57448.45
544.32	57708.25
544.48	57799.53
544.65	57635.69
544.82	57654.42
544.99	57380.57
545.16	57874.43
545.32	57623.99
545.49	57975.07
545.66	57900.17
545.83	57916.56
546.00	58082.73
546.16	57829.96
546.33	57698.89
546.50	57684.84
546.67	57762.08
546.83	57806.55
547.00	58101.46
547.17	57963.37
547.34	57970.39
547.50	58124.86
547.67	58188.06
547.84	58260.62
548.00	58106.14
548.17	58396.37
548.34	58080.39
548.51	58316.79
548.67	58536.80
548.84	58356.58
549.01	58197.42
549.18	58454.88
549.34	58344.87
549.51	58347.21
549.68	58309.77
549.84	58478.28
550.01	58665.53
550.18	58379.98
550.34	58592.97
550.51	58525.10
550.68	58651.48
550.84	58464.24
551.01	58473.60
551.18	58389.34
551.34	58635.10
551.51	58625.74
551.68	58667.87
551.84	58862.13
552.01	58822.34
552.18	59016.61
552.34	58796.60
552.51	58890.22
552.68	58927.67
552.84	58787.24
553.01	59025.97
553.18	59065.76
553.34	59135.98
553.51	59000.22
553.67	59131.29
553.84	59327.90
554.01	59290.45
554.17	59210.87
554.34	58997.88
554.51	59103.21
554.67	59367.69
554.84	59138.32
555.00	59145.34
555.17	59292.79
555.33	59260.02
555.50	59245.98
555.67	58995.54
555.83	59269.39
556.00	59133.63
556.16	59447.27
556.33	59325.56
556.50	59419.18
556.66	59620.47
556.83	59367.69
556.99	59590.04
557.16	59587.70
557.32	59334.92
557.49	59545.57
557.65	59393.43
557.82	59426.20
557.98	59536.21
558.15	59423.86
558.32	59634.51
558.48	59604.08
558.65	59732.81
558.81	59725.79
558.98	59793.67
559.14	59772.60
559.31	59629.83
559.47	59627.49
559.64	59774.94
559.80	59901.33
559.97	59913.03
560.13	59643.87
560.30	59859.20
560.46	59901.33
560.63	59978.57
560.79	59868.56
560.96	59833.46
561.12	59714.09
561.29	59870.90
561.45	60086.23
561.61	59849.84
561.78	59906.01
561.94	59948.14
562.11	59870.90
562.27	59826.43
562.44	59838.14
562.60	60051.12
562.77	60184.54
562.93	60004.31
563.10	60327.31
563.26	59873.24
563.42	60451.36
563.59	60135.38
563.75	60086.23
563.92	60123.68
564.08	59772.60
564.24	60191.56
564.41	60079.21
564.57	59952.82
564.74	60051.12
564.90	60177.51
565.07	60170.49
565.23	60315.61
565.39	60322.63
565.56	60376.46
565.72	60184.54
565.88	60189.22
566.05	60353.05
566.21	60097.94
566.38	60135.38
566.54	60119.00
566.70	60289.86
566.87	60420.93
567.03	60231.35
567.19	60589.45
567.36	60385.82
567.52	60236.03
567.68	60353.05
567.85	60259.43
568.01	60432.63
568.17	60214.96
568.34	60507.53
568.50	60566.04
568.66	60355.39
568.83	60575.40
568.99	60261.77
569.15	60430.29
569.32	60186.88
569.48	60275.82
569.64	60388.16
569.81	60179.85
569.97	60449.02
570.13	60563.70
570.30	60530.93
570.46	60364.76
570.62	60395.18
570.78	60367.10
570.95	60320.29
571.11	60392.84
571.27	60523.91
571.43	60559.02
571.60	60573.06
571.76	60608.17
571.92	60673.71
572.09	60540.30
572.25	60601.15
572.41	60631.58
572.57	60526.25
572.74	60764.99
572.90	60519.23
573.06	60640.94
573.22	60568.38
573.38	60786.05
573.55	60699.45
573.71	60975.64
573.87	60837.54
574.03	60573.06
574.20	60734.56
574.36	60657.32
574.52	60678.39
574.68	60636.26
574.84	60626.90
575.01	60846.91
575.17	60762.65
575.33	60781.37
575.49	60764.99
575.65	61193.31
575.82	61048.19
575.98	60568.38
576.14	60465.40
576.30	60624.56
576.46	60882.02
576.62	60636.26
576.79	60687.75
576.95	60584.77
577.11	60748.60
577.27	60748.60
577.43	60748.60
577.59	60837.54
577.75	60697.11
577.92	60832.86
578.08	60502.85
578.24	60774.35
578.40	60685.41
578.56	60867.97
578.72	60893.72
578.88	60860.95
579.04	60872.65
579.21	60671.37
579.37	60767.33
579.53	61006.06
579.69	60547.32
579.85	60654.98
580.01	60788.39
580.17	60779.03
580.33	60945.21
580.49	61048.19
580.65	61247.14
580.82	61118.41
580.98	61134.79
581.14	60900.74
581.30	61076.28
581.46	60914.78
581.62	60563.70
581.78	60617.53
581.94	61022.45
582.10	60781.37
582.26	60877.33
582.42	60980.32
582.58	61066.92
582.74	61031.81
582.90	61034.15
583.06	60999.04
583.22	61134.79
583.38	61041.17
583.54	60830.52
583.70	61038.83
583.86	61083.30
584.02	60996.70
584.18	61006.06
584.34	61066.92
584.50	61219.05
584.66	60987.34
584.82	60795.42
584.98	61151.18
585.14	60912.44
585.30	60842.23
585.46	60966.27
585.62	60975.64
585.78	61071.60
585.94	60980.32
586.10	61066.92
586.26	61169.90
586.42	61069.26
586.58	60982.66
586.74	61008.40
586.90	60886.70
587.06	60975.64
587.22	61020.11
587.38	60968.61
587.54	61139.47
587.70	61315.01
587.86	61200.33
588.02	61043.51
588.18	61123.09
588.34	61146.50
588.49	61153.52
588.65	61036.49
588.81	61202.67
588.97	61034.15
589.13	61141.81
