SpectraSuite Data File
++++++++++++++++++++++++++++++++++++
Date: Fri Oct 04 11:48:43 GMT-05:00 2013
User: price-jones
Dark Spectrum Present: No
Reference Spectrum Present: No
Number of Sampled Component Spectra: 1
Spectrometers: USB2+H05261
Integration Time (usec): 100000 (USB2+H05261)
Spectra Averaged: 1 (USB2+H05261)
Boxcar Smoothing: 0 (USB2+H05261)
Correct for Electrical Dark: No (USB2+H05261)
Strobe/Lamp Enabled: No (USB2+H05261)
Correct for Detector Non-linearity: No (USB2+H05261)
Correct for Stray Light: No (USB2+H05261)
Number of Pixels in Processed Spectrum: 2048
>>>>>Begin Processed Spectral Data<<<<<
365.73	58.51
365.92	58.51
366.12	58.51
366.32	0.00
366.52	0.00
366.72	0.00
366.91	0.00
367.11	0.00
367.31	0.00
367.51	0.00
367.70	0.00
367.90	0.00
368.10	0.00
368.30	0.00
368.49	0.00
368.69	0.00
368.89	0.00
369.09	0.00
369.28	0.00
369.48	0.00
369.68	0.00
369.87	0.00
370.07	0.00
370.27	67.88
370.47	93.62
370.66	154.48
370.86	147.45
371.06	182.56
371.25	290.23
371.45	180.22
371.65	180.22
371.84	182.56
372.04	149.79
372.24	276.18
372.44	290.23
372.63	259.80
372.83	351.08
373.03	238.73
373.22	285.55
373.42	280.86
373.62	271.50
373.81	358.10
374.01	315.97
374.21	344.06
374.40	372.15
374.60	334.70
374.79	278.52
374.99	325.33
375.19	313.63
375.38	320.65
375.58	297.25
375.78	369.80
375.97	313.63
376.17	334.70
376.37	271.50
376.56	353.42
376.76	327.68
376.95	353.42
377.15	393.21
377.35	397.89
377.54	353.42
377.74	379.17
377.93	245.76
378.13	299.59
378.33	365.12
378.52	358.10
378.72	397.89
378.91	386.19
379.11	348.74
379.31	355.76
379.50	351.08
379.70	341.72
379.89	351.08
380.09	330.02
380.28	367.46
380.48	374.49
380.68	311.29
380.87	299.59
381.07	351.08
381.26	444.70
381.46	369.80
381.65	407.25
381.85	416.62
382.04	449.38
382.24	390.87
382.43	416.62
382.63	353.42
382.83	386.19
383.02	472.79
383.22	482.15
383.41	421.30
383.61	360.44
383.80	425.98
384.00	423.64
384.19	414.27
384.39	365.12
384.58	531.30
384.78	454.06
384.97	498.53
385.17	482.15
385.36	479.81
385.56	475.13
385.75	395.55
385.95	510.24
386.14	482.15
386.34	454.06
386.53	421.30
386.72	489.17
386.92	564.07
387.11	543.00
387.31	493.85
387.50	484.49
387.70	496.19
387.89	505.56
388.09	498.53
388.28	477.47
388.48	493.85
388.67	528.96
388.86	592.16
389.06	533.64
389.25	535.98
389.45	571.09
389.64	615.56
389.84	559.39
390.03	519.60
390.22	596.84
390.42	496.19
390.61	526.62
390.81	470.45
391.00	599.18
391.19	561.73
391.39	533.64
391.58	622.58
391.78	592.16
391.97	608.54
392.16	517.26
392.36	683.44
392.55	606.20
392.75	643.65
392.94	645.99
393.13	671.73
393.33	655.35
393.52	606.20
393.71	674.07
393.91	634.29
394.10	688.12
394.29	678.76
394.49	641.31
394.68	671.73
394.88	706.84
395.07	718.54
395.26	582.79
395.46	695.14
395.65	706.84
395.84	699.82
396.04	730.25
396.23	805.14
396.42	739.61
396.62	741.95
396.81	744.29
397.00	758.33
397.19	784.08
397.39	739.61
397.58	863.66
397.77	716.20
397.97	770.04
398.16	826.21
398.35	807.48
398.55	800.46
398.74	870.68
398.93	772.38
399.12	844.93
399.32	784.08
399.51	898.77
399.70	940.90
399.90	880.04
400.09	915.15
400.28	880.04
400.47	908.13
400.67	905.79
400.86	943.24
401.05	973.66
401.24	922.17
401.44	945.58
401.63	926.85
401.82	990.05
402.01	968.98
402.21	961.96
402.40	1015.79
402.59	1041.54
402.78	961.96
402.97	1069.62
403.17	1086.01
403.36	1111.75
403.55	1004.09
403.74	1060.26
403.93	1181.97
404.13	1158.57
404.32	1179.63
404.51	1100.05
404.70	1050.90
404.89	1181.97
405.09	1270.91
405.28	1158.57
405.47	1160.91
405.66	1219.42
405.85	1306.02
406.05	1256.87
406.24	1228.78
406.43	1277.93
406.62	1313.04
406.81	1369.21
407.00	1299.00
407.20	1315.38
407.39	1261.55
407.58	1329.42
407.77	1425.39
407.96	1401.98
408.15	1502.62
408.34	1530.71
408.54	1479.22
408.73	1453.47
408.92	1500.28
409.11	1621.99
409.30	1497.94
409.49	1547.09
409.68	1547.09
409.87	1621.99
410.07	1636.03
410.26	1544.75
410.45	1652.42
410.64	1666.46
410.83	1617.31
411.02	1694.55
411.21	1746.04
411.40	1689.87
411.59	1717.95
411.78	1727.32
411.98	1757.74
412.17	1774.13
412.36	1811.57
412.55	1860.73
412.74	1907.54
412.93	1851.36
413.12	1867.75
413.31	1914.56
413.50	1849.02
413.69	1994.14
413.88	1952.01
414.07	2045.63
414.26	1942.64
414.45	2029.24
414.64	2050.31
414.83	2104.14
415.02	2015.20
415.22	2190.74
415.41	2141.59
415.60	2249.25
415.79	2230.53
415.98	2167.34
416.17	2282.02
416.36	2256.28
416.55	2211.81
416.74	2354.58
416.93	2251.60
417.12	2427.14
417.31	2265.64
417.50	2436.50
417.69	2572.25
417.88	2497.35
418.07	2394.37
418.26	2476.29
418.45	2530.12
418.64	2516.08
418.83	2558.21
419.02	2609.70
419.21	2597.99
419.39	2640.12
419.58	2551.18
419.77	2621.40
419.96	2548.84
420.15	2691.62
420.34	2588.63
420.53	2621.40
420.72	2726.72
420.91	2724.38
421.10	2733.75
421.29	2754.81
421.48	2635.44
421.67	2782.90
421.86	2820.35
422.05	2834.39
422.24	2757.15
422.43	2771.19
422.61	2841.41
422.80	2803.96
422.99	2834.39
423.18	2888.22
423.37	2871.84
423.56	2836.73
423.75	2785.24
423.94	2794.60
424.13	2757.15
424.32	2761.83
424.50	2864.82
424.69	2909.29
424.88	3047.38
425.07	2970.14
425.26	2850.77
425.45	2794.60
425.64	2813.32
425.83	2988.86
426.01	2923.33
426.20	2885.88
426.39	2974.82
426.58	2913.97
426.77	3019.29
426.96	2984.18
427.15	2935.03
427.33	3038.02
427.52	3129.30
427.71	3056.74
427.90	3059.08
428.09	3049.72
428.28	2974.82
428.46	3169.09
428.65	3197.17
428.84	3267.39
429.03	3279.09
429.22	3042.70
429.40	3138.66
429.59	3215.90
429.78	3084.83
429.97	3178.45
430.16	3026.31
430.34	3150.36
430.53	3234.62
430.72	3370.37
430.91	3290.79
431.10	3157.38
431.28	3356.33
431.47	3410.16
431.66	3522.51
431.85	3316.54
432.03	3349.31
432.22	3566.98
432.41	3501.44
432.60	3531.87
432.79	3368.03
432.97	3503.78
433.16	3555.27
433.35	3417.18
433.54	3684.00
433.72	3583.36
433.91	3581.02
434.10	3597.40
434.28	3578.68
434.47	3480.38
434.66	3527.19
434.85	3728.47
435.03	3613.79
435.22	3857.20
435.41	3871.25
435.59	3588.04
435.78	3623.15
435.97	3747.20
436.16	3854.86
436.34	3751.88
436.53	3850.18
436.72	3866.56
436.90	3810.39
437.09	3892.31
437.28	3815.07
437.46	3962.53
437.65	3941.46
437.84	3892.31
438.02	4060.83
438.21	4079.55
438.40	3908.69
438.58	4058.49
438.77	3868.91
438.96	4109.98
439.14	4231.69
439.33	4056.15
439.52	4168.49
439.70	4215.30
439.89	4369.78
440.08	4271.48
440.26	4437.66
440.45	4297.22
440.63	4372.12
440.82	4416.59
441.01	4348.72
441.19	4472.76
441.38	4559.36
441.57	4475.10
441.75	4603.83
441.94	4727.88
442.12	4704.48
442.31	4606.17
442.50	4718.52
442.68	4683.41
442.87	4767.67
443.05	4800.44
443.24	4748.95
443.43	4877.68
443.61	4767.67
443.80	4938.53
443.98	4645.96
444.17	4861.29
444.35	4751.29
444.54	4980.66
444.73	4816.82
444.91	4837.89
445.10	4854.27
445.28	4744.27
445.47	4915.12
445.65	4826.18
445.84	4947.89
446.02	4877.68
446.21	4943.21
446.39	4929.17
446.58	4950.23
446.77	4905.76
446.95	4858.95
447.14	4798.10
447.32	5050.88
447.51	5004.07
447.69	5076.62
447.88	5025.13
448.06	4908.10
448.25	5046.20
448.43	5111.73
448.62	4980.66
448.80	4975.98
448.99	4973.64
449.17	5048.54
449.36	5069.60
449.54	5170.24
449.73	5217.05
449.91	5336.42
450.10	5310.68
450.28	5280.25
450.46	5200.67
450.65	5233.44
450.83	5226.42
451.02	5247.48
451.20	5359.83
451.39	5472.17
451.57	5432.38
451.76	5198.33
451.94	5240.46
452.13	5502.60
452.31	5317.70
452.49	5296.63
452.68	5373.87
452.86	5439.40
453.05	5488.56
453.23	5502.60
453.42	5331.74
453.60	5371.53
453.78	5432.38
453.97	5320.04
454.15	5369.19
454.34	5537.71
454.52	5586.86
454.70	5741.33
454.89	5783.46
455.07	5661.76
455.26	5710.91
455.44	5738.99
455.62	5757.72
455.81	5785.80
455.99	5888.79
456.17	5888.79
456.36	5781.12
456.54	5806.87
456.73	5923.90
456.91	5991.77
457.09	6059.65
457.28	6162.63
457.46	5949.64
457.64	6033.90
457.83	6003.47
458.01	6045.60
458.19	6181.35
458.38	6216.46
458.56	6345.19
458.74	6120.50
458.93	6251.57
459.11	6279.66
459.29	6235.19
459.48	6181.35
459.66	6305.40
459.84	6190.72
460.03	6380.30
460.21	6284.34
460.39	6284.34
460.57	6396.68
460.76	6424.77
460.94	6511.37
461.12	6562.86
461.31	6443.49
461.49	6380.30
461.67	6324.13
461.85	6597.97
462.04	6471.58
462.22	7070.76
462.40	6607.33
462.59	6647.12
462.77	6775.85
462.95	6656.48
463.13	6698.61
463.32	6773.51
463.50	6754.79
463.68	6656.48
463.86	6935.01
464.05	6834.36
464.23	6944.37
464.41	6909.26
464.59	6719.68
464.78	6754.79
464.96	6904.58
465.14	6719.68
465.32	7052.03
465.50	7028.63
465.69	7089.48
465.87	6862.45
466.05	6729.04
466.23	7056.72
466.41	7073.10
466.60	7211.19
466.78	7035.65
466.96	7155.02
467.14	7005.22
467.32	7159.70
467.51	7225.23
467.69	7101.19
467.87	7204.17
468.05	7082.46
468.23	7187.79
468.41	7227.57
468.60	7159.70
468.78	7309.49
468.96	7286.09
469.14	7459.29
469.32	7412.48
469.50	7218.21
469.69	7541.21
469.87	7599.72
470.05	7695.68
470.23	7588.02
470.41	7644.19
470.59	7550.57
470.77	7365.67
470.95	7468.65
471.14	7719.09
471.32	7674.62
471.50	7695.68
471.68	7726.11
471.86	7709.72
472.04	8009.31
472.22	8013.99
472.40	7836.11
472.58	8004.63
472.77	7992.93
472.95	8053.78
473.13	8203.58
473.31	8116.98
473.49	8231.66
473.67	7922.71
473.85	8131.02
474.03	8465.72
474.21	8346.35
474.39	8463.38
474.57	8432.95
474.75	8706.79
474.93	8596.79
475.12	8526.57
475.30	8542.96
475.48	8571.04
475.66	8688.07
475.84	8755.94
476.02	8870.63
476.20	8961.91
476.38	8877.65
476.56	9057.87
476.74	9263.84
476.92	9109.36
477.10	9088.30
477.28	9228.73
477.46	9261.50
477.64	9200.65
477.82	9329.38
478.00	9380.87
478.18	9472.15
478.36	9753.01
478.54	9811.53
478.72	9760.03
478.90	9930.89
479.08	10118.14
479.26	10139.20
479.44	10209.42
479.62	10204.74
479.80	10256.23
479.98	10111.11
480.16	10410.70
480.34	10279.63
480.52	10473.90
480.70	10602.63
480.88	10420.06
481.06	10649.44
481.24	10623.69
481.41	10642.42
481.59	10836.68
481.77	11119.89
481.95	11330.53
482.13	11297.77
482.31	11070.73
482.49	11468.62
482.67	11513.10
482.85	11679.27
483.03	11913.33
483.21	11941.41
483.39	11992.90
483.57	11793.96
483.74	11920.35
483.92	12102.91
484.10	12149.72
484.28	12446.97
484.46	12400.16
484.64	12732.51
484.82	12559.31
485.00	12397.82
485.18	12662.30
485.35	12936.14
485.53	12994.65
485.71	12861.24
485.89	13352.76
486.07	13301.26
486.25	13359.78
486.43	13399.57
486.61	13462.76
486.78	13650.00
486.96	13687.45
487.14	13996.40
487.32	13879.38
487.50	14171.94
487.68	14150.88
487.85	14274.93
488.03	14363.87
488.21	14602.60
488.39	14576.86
488.57	14860.06
488.75	14878.79
488.92	15281.36
489.10	14817.93
489.28	14993.47
489.46	15548.18
489.64	15321.15
489.81	15548.18
489.99	15866.49
490.17	15817.34
490.35	16020.97
490.53	15962.45
490.70	16056.08
490.88	16088.84
491.06	16341.62
491.24	16201.19
491.41	16592.06
491.59	16589.72
491.77	16489.07
491.95	16774.62
492.13	16772.28
492.30	16863.56
492.48	16837.81
492.66	16865.90
492.84	17191.23
493.01	17404.22
493.19	17565.72
493.37	17493.16
493.54	17547.00
493.72	17565.72
493.90	17858.29
494.08	18022.12
494.25	18305.33
494.43	18251.50
494.61	18335.76
494.79	18508.96
494.96	18155.54
495.14	18398.95
495.32	18370.86
495.49	18841.31
495.67	19012.17
495.85	18958.34
496.02	19192.39
496.20	19138.56
496.38	19304.74
496.55	19152.60
496.73	19541.13
496.91	19630.07
497.09	19714.33
497.26	19634.75
497.44	20025.62
497.62	19964.77
497.79	20126.27
497.97	19999.88
498.14	20201.16
498.32	20233.93
498.50	20229.25
498.67	20585.01
498.85	20393.09
499.03	20517.14
499.20	20432.88
499.38	20856.51
499.56	20716.08
499.73	20896.30
499.91	21158.44
500.08	21123.33
500.26	20950.14
500.44	21291.85
500.61	21458.03
500.79	21387.82
500.97	21675.70
501.14	21907.41
501.32	21696.77
501.49	21766.98
501.67	22022.10
501.84	21921.46
502.02	22036.14
502.20	22057.21
502.37	22045.51
502.55	22127.42
502.72	22181.26
502.90	21902.73
503.07	22403.61
503.25	22649.36
503.43	22202.32
503.60	22616.60
503.78	22661.07
503.95	22560.42
504.13	22874.06
504.30	22775.75
504.48	22876.40
504.65	22848.31
504.83	22925.55
505.01	23686.22
505.18	23396.00
505.36	23421.74
505.53	23325.78
505.71	23386.63
505.88	23843.04
506.06	23681.54
506.23	23672.18
506.41	23651.11
506.58	23967.09
506.76	23985.81
506.93	24002.19
507.11	23864.10
507.28	23997.51
507.46	24151.99
507.63	24283.06
507.81	24411.79
507.98	24533.50
508.16	24512.43
508.33	24769.89
508.50	24751.17
508.68	24687.97
508.85	24926.71
509.03	25046.07
509.20	24999.26
509.38	25153.74
509.55	25315.23
509.73	25420.56
509.90	25570.35
510.08	25324.60
510.25	25378.43
510.42	25706.10
510.60	25841.85
510.77	25383.11
510.95	26082.93
511.12	25851.22
511.30	25621.84
511.47	26157.83
511.64	25912.07
511.82	26384.86
511.99	26246.77
512.17	26396.56
512.34	26565.08
512.51	26424.65
512.69	26506.57
512.86	26686.79
513.04	26717.22
513.21	26909.14
513.38	27000.42
513.56	26710.19
513.73	26857.65
513.90	26876.37
514.08	26813.18
514.25	27080.00
514.43	27082.34
514.60	27288.31
514.77	27459.16
514.95	27234.47
515.12	27150.21
515.29	27391.29
515.47	27410.01
515.64	27953.02
515.81	27672.15
515.99	28030.26
516.16	28086.43
516.33	27709.60
516.51	27793.86
516.68	27623.00
516.85	28030.26
517.03	28105.15
517.20	28526.45
517.37	28496.02
517.54	28386.02
517.72	28056.00
517.89	28428.15
518.06	28369.63
518.24	28601.35
518.41	28755.82
518.58	28486.66
518.75	28694.97
518.93	29057.75
519.10	28566.24
519.27	28739.44
519.45	29174.78
519.62	28762.84
519.79	28933.70
519.96	29130.31
520.14	29490.75
520.31	29024.98
520.48	29076.48
520.65	29502.45
520.83	29734.17
521.00	29413.51
521.17	29380.74
521.34	29343.30
521.52	29563.31
521.69	29839.49
521.86	29806.72
522.03	30099.29
522.20	29785.66
522.38	30024.39
522.55	29975.24
522.72	30068.86
522.89	30185.89
523.07	30574.42
523.24	30576.76
523.41	30190.57
523.58	30251.42
523.75	30527.61
523.92	30494.84
524.10	30263.13
524.27	30789.75
524.44	30934.86
524.61	31028.48
524.78	30511.22
524.96	31161.89
525.13	30728.89
525.30	30993.37
525.47	31206.36
525.64	31269.56
525.81	31433.39
525.98	31103.38
526.16	31498.93
526.33	31199.34
526.50	31388.92
526.67	31417.01
526.84	31332.75
527.01	31562.12
527.18	31501.27
527.36	31524.68
527.53	31868.73
527.70	31859.37
527.87	31557.44
528.04	31505.95
528.21	31964.70
528.38	31889.80
528.55	31962.36
528.72	31924.91
528.89	32070.02
529.07	31810.22
529.24	32512.38
529.41	32037.25
529.58	32247.90
529.75	31927.25
529.92	32666.86
530.09	32247.90
530.26	32374.29
530.43	32341.52
530.60	32393.01
530.77	32374.29
530.94	32580.26
531.11	32484.30
531.28	32528.77
531.46	32535.79
531.63	33015.60
531.80	32781.54
531.97	32921.98
532.14	33003.89
532.31	32711.33
532.48	32889.21
532.65	33027.30
532.82	32912.61
532.99	33020.28
533.16	33149.01
533.33	33654.56
533.50	33727.12
533.67	33703.71
533.84	33024.96
534.01	33088.15
534.18	33273.06
534.35	33593.71
534.52	33362.00
534.69	33563.28
534.86	33752.87
535.03	33476.68
535.20	34120.33
535.37	33598.39
535.54	33462.64
535.71	33584.35
535.88	34057.14
536.05	33876.91
536.22	34071.18
536.38	34059.48
536.55	34031.39
536.72	34220.97
536.89	33914.36
537.06	34117.99
537.23	34452.69
537.40	34401.19
537.57	34033.73
537.74	34356.72
537.91	34366.09
538.08	34178.84
538.25	34864.62
538.42	34073.52
538.59	34410.56
538.75	34160.12
538.92	34660.99
539.09	34754.61
539.26	34665.67
539.43	34539.29
539.60	34852.92
539.77	34309.91
539.94	34787.38
540.11	34579.07
540.28	34700.78
540.44	34494.82
540.61	34422.26
540.78	34787.38
540.95	34876.32
541.12	35093.99
541.29	35049.52
541.46	34838.87
541.62	34607.16
541.79	35316.34
541.96	34464.39
542.13	34969.94
542.30	35274.21
542.47	35035.48
542.63	35321.02
542.80	35667.42
542.97	35438.05
543.14	35669.76
543.31	35660.40
543.48	36079.36
543.64	35952.97
543.81	36088.72
543.98	36079.36
544.15	35995.10
544.32	35999.78
544.48	36306.39
544.65	35943.61
544.82	36114.47
544.99	35885.09
545.16	36327.45
545.32	35725.94
545.49	36313.41
545.66	36095.74
545.83	36540.44
546.00	36224.47
546.16	36687.90
546.33	36304.05
546.50	36154.26
546.67	35693.17
546.83	36219.79
547.00	36652.79
547.17	36364.90
547.34	36652.79
547.50	36744.07
547.67	36978.12
547.84	36156.60
548.00	36631.72
548.17	36884.50
548.34	36704.28
548.51	36856.42
548.67	37006.21
548.84	36900.89
549.01	36781.52
549.18	36589.59
549.34	36610.66
549.51	36402.35
549.68	36713.64
549.84	37219.20
550.01	37156.00
550.18	36800.24
550.34	37301.12
550.51	37294.10
550.68	37090.47
550.84	37013.23
551.01	37242.60
551.18	37233.24
551.34	36940.68
551.51	36971.10
551.68	37085.79
551.84	37385.38
552.01	37516.45
552.18	37549.21
552.34	37518.79
552.51	37549.21
552.68	37104.51
552.84	37462.61
553.01	37619.43
553.18	37420.48
553.34	37804.33
553.51	37539.85
553.67	37876.89
553.84	38036.05
554.01	38211.59
554.17	37696.67
554.34	37811.35
554.51	37635.81
554.67	37865.19
554.84	38478.41
555.00	37607.73
555.17	37888.59
555.33	38054.77
555.50	37895.61
555.67	37886.25
555.83	37708.37
556.00	37778.59
556.16	37897.95
556.33	37811.35
556.50	37663.90
556.66	38417.55
556.83	37738.80
556.99	38396.49
557.16	38473.73
557.32	38597.77
557.49	38134.35
557.65	37631.13
557.82	38234.99
557.98	37961.15
558.15	38185.84
558.32	38387.13
558.48	38284.14
558.65	38562.67
558.81	38466.70
558.98	38127.33
559.14	37961.15
559.31	38204.56
559.47	38572.03
559.64	38424.57
559.80	38616.50
559.97	38410.53
560.13	38415.21
560.30	38398.83
560.46	38443.30
560.63	38625.86
560.79	38178.82
560.96	38700.76
561.12	38211.59
561.29	38426.92
561.45	38541.60
561.61	38768.63
561.78	38675.01
561.94	38440.96
562.11	38506.49
562.27	38742.89
562.44	38497.13
562.60	38735.87
562.77	38462.02
562.93	38670.33
563.10	39054.18
563.26	38492.45
563.42	39285.89
563.59	38515.86
563.75	38672.67
563.92	39091.63
564.08	38700.76
564.24	38714.80
564.41	38637.56
564.57	38801.40
564.74	38768.63
564.90	38850.55
565.07	38656.29
565.23	39044.82
565.39	39061.20
565.56	38700.76
565.72	38450.32
565.88	38972.26
566.05	38653.95
566.21	38609.48
566.38	38932.47
566.54	39227.38
566.70	39051.84
566.87	39005.03
567.03	39306.96
567.19	38824.81
567.36	38590.75
567.52	38579.05
567.68	38852.89
567.85	38843.53
568.01	38761.61
568.17	39321.00
568.34	39346.75
568.50	39093.97
568.66	38951.20
568.83	39182.91
568.99	38721.82
569.15	39021.41
569.32	38731.18
569.48	38550.96
569.64	38691.40
569.81	38735.87
569.97	38967.58
570.13	39119.71
570.30	38876.30
570.46	39044.82
570.62	38925.45
570.78	38930.13
570.95	38700.76
571.11	38810.76
571.27	39084.61
571.43	38714.80
571.60	39182.91
571.76	39412.28
571.92	38885.66
572.09	39316.32
572.25	39421.64
572.41	39367.81
572.57	39412.28
572.74	39606.55
572.90	39178.23
573.06	39365.47
573.22	39093.97
573.38	39442.71
573.55	39051.84
573.71	39838.26
573.87	39648.68
574.03	39321.00
574.20	39243.76
574.36	38937.15
574.52	39269.51
574.68	39150.14
574.84	39426.32
575.01	39295.25
575.17	39108.01
575.33	39587.82
575.49	39356.11
575.65	39379.51
575.82	39496.54
575.98	39000.35
576.14	39119.71
576.30	39056.52
576.46	38902.04
576.62	38979.28
576.79	39075.24
576.95	39086.95
577.11	39103.33
577.27	39573.78
577.43	39248.44
577.59	39140.78
577.75	39412.28
577.92	38880.98
578.08	38944.17
578.24	39423.98
578.40	39250.78
578.56	39332.70
578.72	39182.91
578.88	39082.27
579.04	39189.93
579.21	39651.02
579.37	39129.08
579.53	39732.93
579.69	39330.36
579.85	39154.82
580.01	39257.81
580.17	39056.52
580.33	39442.71
580.49	39196.95
580.65	39730.59
580.82	39866.34
580.98	39728.25
581.14	39505.90
581.30	39639.31
581.46	38909.07
581.62	39274.19
581.78	39241.42
581.94	39751.66
582.10	39051.84
582.26	39473.13
582.42	39611.23
582.58	39414.62
582.74	39959.97
582.90	39702.51
583.06	39510.58
583.22	39187.59
583.38	39374.83
583.54	39229.72
583.70	39473.13
583.86	39468.45
584.02	39091.63
584.18	39533.99
584.34	39330.36
584.50	39489.52
584.66	39578.46
584.82	39072.90
584.98	39414.62
585.14	39428.66
585.30	39384.19
585.46	39512.92
585.62	39229.72
585.78	39337.38
585.94	39353.77
586.10	39428.66
586.26	39503.56
586.42	39356.11
586.58	39395.90
586.74	39267.17
586.90	39232.06
587.06	39271.85
587.22	39646.33
587.38	39388.88
587.54	39749.32
587.70	39566.76
587.86	39372.49
588.02	39267.17
588.18	39868.69
588.34	39377.17
588.49	39402.92
588.65	39342.06
588.81	39370.15
588.97	39292.91
589.13	39173.55
589.29	39842.94
589.45	39423.98
589.61	39515.26
589.77	39889.75
589.93	39950.60
590.08	39959.97
590.24	40004.44
590.40	39585.48
590.56	39311.64
590.72	39173.55
590.88	39194.61
591.04	39442.71
591.20	39714.21
