SpectraSuite Data File
++++++++++++++++++++++++++++++++++++
Date: Fri Oct 04 11:48:27 GMT-05:00 2013
User: price-jones
Dark Spectrum Present: No
Reference Spectrum Present: No
Number of Sampled Component Spectra: 1
Spectrometers: USB2+H05261
Integration Time (usec): 100000 (USB2+H05261)
Spectra Averaged: 1 (USB2+H05261)
Boxcar Smoothing: 0 (USB2+H05261)
Correct for Electrical Dark: No (USB2+H05261)
Strobe/Lamp Enabled: No (USB2+H05261)
Correct for Detector Non-linearity: No (USB2+H05261)
Correct for Stray Light: No (USB2+H05261)
Number of Pixels in Processed Spectrum: 2048
>>>>>Begin Processed Spectral Data<<<<<
365.73	28.09
365.92	28.09
366.12	28.09
366.32	0.00
366.52	0.00
366.72	0.00
366.91	0.00
367.11	0.00
367.31	0.00
367.51	0.00
367.70	0.00
367.90	0.00
368.10	0.00
368.30	0.00
368.49	0.00
368.69	0.00
368.89	0.00
369.09	0.00
369.28	0.00
369.48	0.00
369.68	0.00
369.87	0.00
370.07	0.00
370.27	67.88
370.47	105.32
370.66	79.58
370.86	203.63
371.06	163.84
371.25	187.24
371.45	234.05
371.65	250.44
371.84	128.73
372.04	273.84
372.24	243.42
372.44	252.78
372.63	273.84
372.83	325.33
373.03	201.29
373.22	184.90
373.42	269.16
373.62	266.82
373.81	308.95
374.01	280.86
374.21	339.38
374.40	255.12
374.60	362.78
374.79	271.50
374.99	325.33
375.19	311.29
375.38	308.95
375.58	294.91
375.78	353.42
375.97	362.78
376.17	369.80
376.37	276.18
376.56	332.36
376.76	287.89
376.95	245.76
377.15	318.31
377.35	339.38
377.54	341.72
377.74	318.31
377.93	273.84
378.13	308.95
378.33	351.08
378.52	346.40
378.72	299.59
378.91	332.36
379.11	299.59
379.31	379.17
379.50	376.83
379.70	339.38
379.89	374.49
380.09	311.29
380.28	276.18
380.48	409.59
380.68	369.80
380.87	334.70
381.07	337.04
381.26	418.96
381.46	351.08
381.65	318.31
381.85	454.06
382.04	362.78
382.24	353.42
382.43	411.93
382.63	367.46
382.83	355.76
383.02	409.59
383.22	428.32
383.41	383.85
383.61	308.95
383.80	372.15
384.00	313.63
384.19	390.87
384.39	433.00
384.58	390.87
384.78	395.55
384.97	334.70
385.17	470.45
385.36	404.91
385.56	416.62
385.75	390.87
385.95	414.27
386.14	479.81
386.34	444.70
386.53	407.25
386.72	484.49
386.92	461.09
387.11	470.45
387.31	362.78
387.50	381.51
387.70	533.64
387.89	491.51
388.09	440.02
388.28	449.38
388.48	507.90
388.67	547.69
388.86	475.13
389.06	557.05
389.25	514.92
389.45	505.56
389.64	535.98
389.84	505.56
390.03	437.68
390.22	409.59
390.42	552.37
390.61	521.94
390.81	514.92
391.00	477.47
391.19	493.85
391.39	528.96
391.58	507.90
391.78	489.17
391.97	648.33
392.16	564.07
392.36	587.47
392.55	589.82
392.75	486.83
392.94	540.66
393.13	615.56
393.33	503.22
393.52	603.86
393.71	554.71
393.91	582.79
394.10	596.84
394.29	594.50
394.49	533.64
394.68	582.79
394.88	655.35
395.07	660.03
395.26	638.97
395.46	601.52
395.65	613.22
395.84	671.73
396.04	720.88
396.23	582.79
396.42	657.69
396.62	624.92
396.81	674.07
397.00	697.48
397.19	594.50
397.39	681.10
397.58	697.48
397.77	603.86
397.97	718.54
398.16	662.37
398.35	702.16
398.55	674.07
398.74	688.12
398.93	667.05
399.12	737.27
399.32	788.76
399.51	664.71
399.70	772.38
399.90	727.91
400.09	767.70
400.28	800.46
400.47	774.72
400.67	858.98
400.86	786.42
401.05	866.00
401.24	833.23
401.44	819.19
401.63	856.64
401.82	805.14
402.01	828.55
402.21	802.80
402.40	847.27
402.59	877.70
402.78	877.70
402.97	854.30
403.17	971.32
403.36	940.90
403.55	884.72
403.74	891.74
403.93	840.25
404.13	1032.18
404.32	999.41
404.51	992.39
404.70	957.28
404.89	938.55
405.09	994.73
405.28	1032.18
405.47	924.51
405.66	1018.13
405.85	1025.15
406.05	1055.58
406.24	1036.86
406.43	1083.67
406.62	1132.82
406.81	1128.14
407.00	1057.92
407.20	1083.67
407.39	1074.31
407.58	1088.35
407.77	1104.73
407.96	1181.97
408.15	1280.27
408.34	1221.76
408.54	1238.14
408.73	1153.88
408.92	1167.93
409.11	1186.65
409.30	1294.32
409.49	1196.01
409.68	1327.08
409.87	1207.72
410.07	1212.40
410.26	1270.91
410.45	1273.25
410.64	1418.36
410.83	1252.19
411.02	1322.40
411.21	1366.87
411.40	1343.47
411.59	1322.40
411.78	1320.06
411.98	1462.83
412.17	1495.60
412.36	1406.66
412.55	1427.73
412.74	1626.67
412.93	1526.03
413.12	1404.32
413.31	1502.62
413.50	1528.37
413.69	1626.67
413.88	1556.46
414.07	1603.27
414.26	1582.20
414.45	1495.60
414.64	1582.20
414.83	1619.65
415.02	1535.39
415.22	1715.61
415.41	1746.04
415.60	1762.42
415.79	1753.06
415.98	1834.98
416.17	1816.26
416.36	1865.41
416.55	1750.72
416.74	1900.52
416.93	1849.02
417.12	1760.08
417.31	1739.02
417.50	1877.11
417.69	1940.30
417.88	2005.84
418.07	1856.04
418.26	1905.20
418.45	1919.24
418.64	1933.28
418.83	1968.39
419.02	1870.09
419.21	2003.50
419.39	1982.43
419.58	2001.16
419.77	2001.16
419.96	2012.86
420.15	2167.34
420.34	2113.50
420.53	2080.74
420.72	2157.97
420.91	2050.31
421.10	2160.31
421.29	2090.10
421.48	2132.23
421.67	2167.34
421.86	2207.13
422.05	2150.95
422.24	2211.81
422.43	2195.42
422.61	2225.85
422.80	2218.83
422.99	2207.13
423.18	2275.00
423.37	2251.60
423.56	2083.08
423.75	2113.50
423.94	2190.74
424.13	2106.48
424.32	2188.40
424.50	2347.56
424.69	2214.15
424.88	2272.66
425.07	2370.96
425.26	2270.32
425.45	2193.08
425.64	2258.62
425.83	2211.81
426.01	2263.30
426.20	2296.07
426.39	2354.58
426.58	2307.77
426.77	2326.49
426.96	2363.94
427.15	2298.41
427.33	2312.45
427.52	2256.28
427.71	2246.91
427.90	2321.81
428.09	2438.84
428.28	2403.73
428.46	2436.50
428.65	2455.22
428.84	2349.90
429.03	2469.27
429.22	2436.50
429.40	2457.56
429.59	2579.27
429.78	2459.90
429.97	2368.62
430.16	2359.26
430.34	2525.44
430.53	2530.12
430.72	2546.50
430.91	2569.91
431.10	2511.39
431.28	2616.72
431.47	2590.97
431.66	2612.04
431.85	2642.46
432.03	2607.36
432.22	2771.19
432.41	2766.51
432.60	2698.64
432.79	2640.12
432.97	2679.91
433.16	2745.45
433.35	2630.76
433.54	2712.68
433.72	2843.75
433.91	2654.17
434.10	2738.43
434.28	2733.75
434.47	2677.57
434.66	2818.00
434.85	2881.20
435.03	2740.77
435.22	2857.79
435.41	3103.55
435.59	2864.82
435.78	2899.92
435.97	2960.78
436.16	2832.05
436.34	2906.95
436.53	2822.69
436.72	2986.52
436.90	2745.45
437.09	2888.22
437.28	2885.88
437.46	2874.18
437.65	3068.44
437.84	3126.96
438.02	3091.85
438.21	3059.08
438.40	3023.97
438.58	2953.76
438.77	3286.11
438.96	3157.38
439.14	3197.17
439.33	3232.28
439.52	3251.00
439.70	3248.66
439.89	3269.73
440.08	3274.41
440.26	3353.99
440.45	3386.76
440.63	3440.59
440.82	3321.22
441.01	3487.40
441.19	3332.92
441.38	3515.48
441.57	3365.69
441.75	3426.54
441.94	3569.32
442.12	3480.38
442.31	3522.51
442.50	3625.49
442.68	3428.88
442.87	3466.33
443.05	3627.83
443.24	3693.37
443.43	3702.73
443.61	3763.58
443.80	3768.26
443.98	3747.20
444.17	3508.46
444.35	3728.47
444.54	3815.07
444.73	3716.77
444.91	3815.07
445.10	3672.30
445.28	3716.77
445.47	3768.26
445.65	3707.41
445.84	3658.26
446.02	3723.79
446.21	3838.48
446.39	3723.79
446.58	3915.72
446.77	3850.18
446.95	3756.56
447.14	3723.79
447.32	3779.97
447.51	3815.07
447.69	3763.58
447.88	3840.82
448.06	3852.52
448.25	3894.65
448.43	3817.41
448.62	3927.42
448.80	3929.76
448.99	3915.72
449.17	3950.82
449.36	3850.18
449.54	3932.10
449.73	3929.76
449.91	4107.64
450.10	4072.53
450.28	3976.57
450.46	4042.11
450.65	3960.19
450.83	4088.92
451.02	4016.36
451.20	4138.07
451.39	4205.94
451.57	4095.94
451.76	4079.55
451.94	4273.82
452.13	4138.07
452.31	4236.37
452.49	4114.66
452.68	4208.28
452.86	4198.92
453.05	4404.89
453.23	4299.56
453.42	4077.21
453.60	4262.12
453.78	4315.95
453.97	4243.39
454.15	4252.75
454.34	4269.14
454.52	4294.88
454.70	4292.54
454.89	4273.82
455.07	4344.03
455.26	4327.65
455.44	4468.08
455.62	4322.97
455.81	4461.06
455.99	4479.79
456.17	4451.70
456.36	4533.62
456.54	4603.83
456.73	4568.73
456.91	4725.54
457.09	4704.48
457.28	4833.21
457.46	4627.24
457.64	4695.11
457.83	4685.75
458.01	4636.60
458.19	4730.22
458.38	4606.17
458.56	4870.65
458.74	4798.10
458.93	4734.90
459.11	4863.63
459.29	4814.48
459.48	4898.74
459.66	4919.81
459.84	5071.94
460.03	4957.25
460.21	4896.40
460.39	5006.41
460.57	4971.30
460.76	5060.24
460.94	4919.81
461.12	4865.97
461.31	4924.49
461.49	5184.29
461.67	4966.62
461.85	4999.38
462.04	5191.31
462.22	5488.56
462.40	5060.24
462.59	5172.58
462.77	5081.30
462.95	5305.99
463.13	5305.99
463.32	5198.33
463.50	5235.78
463.68	5350.46
463.86	5125.77
464.05	5170.24
464.23	5203.01
464.41	5313.02
464.59	5193.65
464.78	5401.96
464.96	5334.08
465.14	5345.78
465.32	5317.70
465.50	5476.85
465.69	5439.40
465.87	5284.93
466.05	5313.02
466.23	5238.12
466.41	5448.77
466.60	5509.62
466.78	5423.02
466.96	5404.30
467.14	5621.97
467.32	5612.60
467.51	5570.48
467.69	5355.15
467.87	5416.00
468.05	5636.01
468.23	5460.47
468.41	5495.58
468.60	5521.32
468.78	5607.92
468.96	5528.35
469.14	5638.35
469.32	5795.17
469.50	5568.13
469.69	5926.24
469.87	5774.10
470.05	5783.46
470.23	5811.55
470.41	5884.11
470.59	5935.60
470.77	5832.62
470.95	5832.62
471.14	6141.57
471.32	5928.58
471.50	6125.18
471.68	5930.92
471.86	6108.80
472.04	5926.24
472.22	6167.31
472.40	6153.27
472.58	6384.98
472.77	6223.48
472.95	6335.83
473.13	6408.39
473.31	6197.74
473.49	6188.38
473.67	6314.77
473.85	6225.82
474.03	6485.62
474.21	6394.34
474.39	6574.56
474.57	6600.31
474.75	6558.18
474.93	6808.62
475.12	6586.27
475.30	6630.74
475.48	6494.99
475.66	6707.98
475.84	6759.47
476.02	6939.69
476.20	6796.92
476.38	6942.03
476.56	6984.16
476.74	6963.09
476.92	6881.18
477.10	7145.66
477.28	7023.95
477.46	7052.03
477.64	7171.40
477.82	7148.00
478.00	7412.48
478.18	7328.22
478.36	7440.56
478.54	7309.49
478.72	7522.48
478.90	7548.23
479.08	7616.10
479.26	7566.95
479.44	7808.03
479.62	7824.41
479.80	7899.31
479.98	7964.84
480.16	8016.33
480.34	7779.94
480.52	8161.45
480.70	8154.43
480.88	8091.23
481.06	8381.46
481.24	8299.54
481.41	8430.61
481.59	8659.98
481.77	8468.06
481.95	8695.09
482.13	8734.88
482.31	8664.66
482.49	8706.79
482.67	8702.11
482.85	8863.61
483.03	8926.80
483.21	9177.24
483.39	9114.05
483.57	9224.05
483.74	9245.12
483.92	9238.09
484.10	8936.17
484.28	9563.43
484.46	9537.68
484.64	9558.75
484.82	9533.00
485.00	9628.96
485.18	9949.62
485.35	10239.84
485.53	10139.20
485.71	10005.79
485.89	10111.11
486.07	10045.58
486.25	10431.77
486.43	10150.90
486.61	10459.85
486.78	10607.31
486.96	10651.78
487.14	10677.52
487.32	10689.23
487.50	10668.16
487.68	10853.06
487.85	11286.06
488.03	11246.27
488.21	11262.66
488.39	11288.40
488.57	11265.00
488.75	11529.48
488.92	11613.74
489.10	11651.19
489.28	11784.60
489.46	11908.65
489.64	11723.74
489.81	11920.35
489.99	12121.63
490.17	12056.10
490.35	12318.24
490.53	12095.89
490.70	12339.30
490.88	12376.75
491.06	12554.63
491.24	12442.29
491.41	12538.25
491.59	12470.37
491.77	12809.75
491.95	12961.89
492.13	12795.71
492.30	13018.06
492.48	13135.09
492.66	12748.90
492.84	13132.75
493.01	13310.63
493.19	13270.84
493.37	13785.76
493.54	13486.17
493.72	13540.00
493.90	13846.61
494.08	13661.71
494.25	13638.30
494.43	13919.17
494.61	14235.14
494.79	14008.11
494.96	14073.64
495.14	13942.57
495.32	14223.44
495.49	14366.21
495.67	14597.92
495.85	14595.58
496.02	14794.53
496.20	14904.53
496.38	14670.48
496.55	15005.17
496.73	15199.44
496.91	14782.82
497.09	15218.16
497.26	15508.39
497.44	15112.84
497.62	15147.95
497.79	15667.55
497.97	15112.84
498.14	15489.67
498.32	15742.44
498.50	15573.92
498.67	15548.18
498.85	15723.72
499.03	15552.86
499.20	16011.60
499.38	16201.19
499.56	15789.25
499.73	16088.84
499.91	16306.51
500.08	16133.31
500.26	16292.47
500.44	16432.90
500.61	16528.86
500.79	16428.22
500.97	16690.36
501.14	16858.88
501.32	16613.12
501.49	16606.10
501.67	16414.18
501.84	16961.86
502.02	17027.40
502.20	17149.11
502.37	16922.07
502.55	16903.35
502.72	17006.33
502.90	16966.54
503.07	17376.14
503.25	17046.12
503.43	17432.31
503.60	17596.15
503.78	17547.00
503.95	17427.63
504.13	17476.78
504.30	17514.23
504.48	17556.36
504.65	17851.27
504.83	18082.98
505.01	17862.97
505.18	18274.90
505.36	17872.33
505.53	18188.30
505.71	18085.32
505.88	17942.55
506.06	18246.82
506.23	18347.46
506.41	18214.05
506.58	18326.39
506.76	18513.64
506.93	18560.45
507.11	18717.26
507.28	18771.10
507.46	18757.05
507.63	18710.24
507.81	18869.40
507.98	18670.45
508.16	18843.65
508.33	18778.12
508.50	18803.86
508.68	19026.21
508.85	19054.30
509.03	19019.19
509.20	19143.24
509.38	19463.90
509.55	19358.57
509.73	19440.49
509.90	19599.65
510.08	19763.48
510.25	19459.21
510.42	19634.75
510.60	19946.05
510.77	19756.46
510.95	19901.58
511.12	19997.54
511.30	19885.19
511.47	20058.39
511.64	20269.04
511.82	20100.52
511.99	20116.90
512.17	20526.50
512.34	20182.44
512.51	20262.02
512.69	20561.61
512.86	20467.98
513.04	20786.30
513.21	20800.34
513.38	20615.44
513.56	20739.49
513.73	20360.32
513.90	20542.88
514.08	20889.28
514.25	20821.41
514.43	20971.20
514.60	21137.38
514.77	20989.92
514.95	21207.59
515.12	20744.17
515.29	21041.42
515.47	21116.31
515.64	21167.80
515.81	21252.06
515.99	21333.98
516.16	21664.00
516.33	21834.86
516.51	21467.39
516.68	21490.80
516.85	21586.76
517.03	21612.51
517.20	21661.66
517.37	21813.79
517.54	21979.97
517.72	21610.17
517.89	21759.96
518.06	21989.33
518.24	22082.95
518.41	21984.65
518.58	22082.95
518.75	22087.64
518.93	22157.85
519.10	22195.30
519.27	22541.70
519.45	22176.58
519.62	22359.14
519.79	22260.84
519.96	22293.60
520.14	22775.75
520.31	22209.34
520.48	22745.33
520.65	22380.20
520.83	22827.24
521.00	22480.85
521.17	22890.44
521.34	22607.23
521.52	22963.00
521.69	23026.19
521.86	23388.97
522.03	22794.48
522.20	23084.70
522.38	23171.30
522.55	23138.54
522.72	22972.36
522.89	23433.44
523.07	23316.42
523.24	23424.08
523.41	23269.61
523.58	23180.67
523.75	23267.27
523.92	23548.13
524.10	23709.63
524.27	23754.10
524.44	23648.77
524.61	24027.94
524.78	24163.69
524.96	23262.58
525.13	23861.76
525.30	23452.17
525.47	23821.97
525.64	23882.83
525.81	23871.12
525.98	24051.34
526.16	23988.15
526.33	23929.64
526.50	24217.52
526.67	24154.33
526.84	23749.42
527.01	24271.36
527.18	24280.72
527.36	24140.29
527.53	23995.17
527.70	24662.22
527.87	24479.66
528.04	24680.95
528.21	24552.22
528.38	24795.64
528.55	24847.13
528.72	24463.28
528.89	24603.71
529.07	24594.35
529.24	24395.40
529.41	24732.44
529.58	24666.91
529.75	24814.36
529.92	25060.12
530.09	25017.99
530.26	24826.06
530.43	25116.29
530.60	24999.26
530.77	24961.81
530.94	25453.33
531.11	25013.31
531.28	25282.47
531.46	25242.68
531.63	25380.77
531.80	25113.95
531.97	25624.18
532.14	25450.99
532.31	25228.63
532.48	25219.27
532.65	25331.62
532.82	25319.92
532.99	25373.75
533.16	25556.31
533.33	25525.88
533.50	25724.83
533.67	25806.75
533.84	25443.96
534.01	25415.88
534.18	25432.26
534.35	25933.14
534.52	25811.43
534.69	25841.85
534.86	26017.40
535.03	25745.89
535.20	26064.21
535.37	26073.57
535.54	25958.88
535.71	26001.01
535.88	26040.80
536.05	26068.89
536.22	26188.25
536.38	26380.18
536.55	26216.34
536.72	26029.10
536.89	25907.39
537.06	26153.15
537.23	26382.52
537.40	26094.63
537.57	26403.58
537.74	26221.02
537.91	26443.37
538.08	26623.59
538.25	26251.45
538.42	26574.44
538.59	26759.34
538.75	26242.09
538.92	26623.59
539.09	26752.32
539.26	26881.05
539.43	26836.58
539.60	26630.62
539.77	26672.74
539.94	27316.39
540.11	26991.06
540.28	27000.42
540.44	27056.59
540.61	26995.74
540.78	27204.05
540.95	27082.34
541.12	27105.74
541.29	27314.05
541.46	27042.55
541.62	26803.82
541.79	27061.27
541.96	26387.20
542.13	27065.96
542.30	27023.83
542.47	27372.57
542.63	27302.35
542.80	27517.68
542.97	27843.01
543.14	27360.86
543.31	27552.79
543.48	27435.76
543.64	27789.18
543.81	27711.94
543.98	27812.59
544.15	27875.78
544.32	27716.62
544.48	27997.49
544.65	28095.79
544.82	28041.96
544.99	27906.21
545.16	27733.01
545.32	27587.89
545.49	28395.38
545.66	28112.17
545.83	27978.76
546.00	28444.53
546.16	28065.36
546.33	27934.29
546.50	27543.42
546.67	28102.81
546.83	27630.02
547.00	28147.28
547.17	28250.27
547.34	27779.82
547.50	28306.44
547.67	28318.14
547.84	28297.08
548.00	28481.98
548.17	28409.42
548.34	27887.48
548.51	28498.36
548.67	28617.73
548.84	28451.55
549.01	28510.07
549.18	28559.22
549.34	28519.43
549.51	28769.86
549.68	28486.66
549.84	28582.62
550.01	28687.95
550.18	28685.61
550.34	28545.17
550.51	28652.84
550.68	28786.25
550.84	28444.53
551.01	28774.55
551.18	28519.43
551.34	28716.03
551.51	28936.04
551.68	28907.96
551.84	29202.86
552.01	28755.82
552.18	29113.92
552.34	28875.19
552.51	28865.83
552.68	29015.62
552.84	28886.89
553.01	29010.94
553.18	28973.49
553.34	29514.16
553.51	29301.17
553.67	29177.12
553.84	29436.92
554.01	29394.79
554.17	29097.54
554.34	29088.18
554.51	29163.08
554.67	29350.32
554.84	29465.00
555.00	29432.24
555.17	29216.91
555.33	29289.46
555.50	29380.74
555.67	29338.62
555.83	28938.38
556.00	29443.94
556.16	29532.88
556.33	29575.01
556.50	29420.53
556.66	29626.50
556.83	29598.41
556.99	30068.86
557.16	29432.24
557.32	29268.40
557.49	29614.80
557.65	29322.23
557.82	29097.54
557.98	29427.56
558.15	29329.25
558.32	29497.77
558.48	29757.57
558.65	30019.71
558.81	29649.91
558.98	29242.65
559.14	29525.86
559.31	29823.11
559.47	29795.02
559.64	29734.17
559.80	29390.11
559.97	29778.64
560.13	29748.21
560.30	29851.19
560.46	29488.41
560.63	29820.77
560.79	29848.85
560.96	30178.87
561.12	29640.54
561.29	29633.52
561.45	29883.96
561.61	29972.90
561.78	30225.68
561.94	29984.60
562.11	29745.87
562.27	29570.33
562.44	29923.75
562.60	29851.19
562.77	30284.19
562.93	29909.71
563.10	30281.85
563.26	30265.47
563.42	30153.12
563.59	30433.99
563.75	30387.18
563.92	30265.47
564.08	30012.69
564.24	30092.27
564.41	30099.29
564.57	29935.45
564.74	30110.99
564.90	30354.41
565.07	30316.96
565.23	30396.54
565.39	30195.25
565.56	30349.73
565.72	29785.66
565.88	30244.40
566.05	30127.38
566.21	30396.54
566.38	30082.91
566.54	30197.59
566.70	30366.11
566.87	30309.94
567.03	30108.65
567.19	30286.53
567.36	30197.59
567.52	29975.24
567.68	30249.08
567.85	30190.57
568.01	30040.78
568.17	30178.87
568.34	30267.81
568.50	30654.00
568.66	30321.64
568.83	30426.96
568.99	30216.32
569.15	30794.43
569.32	30125.04
569.48	30000.99
569.64	30408.24
569.81	30398.88
569.97	30307.60
570.13	30347.39
570.30	30349.73
570.46	30302.92
570.62	30848.26
570.78	30216.32
570.95	30246.74
571.11	30483.14
571.27	29919.07
571.43	30448.03
571.60	30752.30
571.76	30455.05
571.92	30441.01
572.09	30328.66
572.25	30258.45
572.41	30525.27
572.57	30382.49
572.74	30515.90
572.90	30143.76
573.06	30270.15
573.22	30389.52
573.38	30600.16
573.55	30803.79
573.71	30506.54
573.87	30768.68
574.03	30637.61
574.20	30473.78
574.36	30305.26
574.52	30401.22
574.68	30462.07
574.84	30417.60
575.01	30335.68
575.17	30794.43
575.33	30476.12
575.49	30302.92
575.65	30670.38
575.82	30291.21
575.98	30235.04
576.14	30628.25
576.30	30412.92
576.46	30686.76
576.62	30129.72
576.79	30576.76
576.95	30363.77
577.11	30616.55
577.27	30501.86
577.43	30841.24
577.59	30785.07
577.75	30733.57
577.92	30597.82
578.08	30611.87
578.24	30621.23
578.40	30267.81
578.56	30260.79
578.72	30586.12
578.88	31138.49
579.04	31044.87
579.21	30710.17
579.37	30749.96
579.53	30693.79
579.69	30281.85
579.85	30506.54
580.01	30590.80
580.17	30431.65
580.33	30735.92
580.49	30588.46
580.65	30813.15
580.82	31012.10
580.98	30710.17
581.14	30754.64
581.30	30639.95
581.46	30174.19
581.62	30656.34
581.78	30658.68
581.94	30492.50
582.10	30384.83
582.26	30698.47
582.42	30511.22
582.58	30923.16
582.74	30817.83
582.90	31061.25
583.06	30469.09
583.22	30525.27
583.38	30567.40
583.54	30609.53
583.70	30581.44
583.86	30658.68
584.02	30326.32
584.18	30560.37
584.34	30649.32
584.50	30780.39
584.66	30866.98
584.82	30600.16
584.98	30494.84
585.14	30862.30
585.30	30274.83
585.46	30602.50
585.62	30787.41
585.78	30649.32
585.94	30387.18
586.10	31225.09
586.26	30745.28
586.42	30850.60
586.58	30827.20
586.74	30469.09
586.90	30298.23
587.06	30646.97
587.22	30490.16
587.38	30590.80
587.54	30646.97
587.70	30794.43
587.86	30607.19
588.02	30859.96
588.18	30684.42
588.34	30792.09
588.49	30602.50
588.65	30426.96
588.81	30312.28
588.97	30890.39
589.13	30639.95
589.29	30593.14
589.45	30766.34
589.61	30979.33
589.77	30836.56
589.93	30923.16
590.08	30728.89
590.24	30679.74
590.40	30656.34
590.56	30799.11
590.72	30904.43
590.88	30555.69
591.04	31063.59
591.20	31168.91
591.35	31192.32
591.51	31269.56
591.67	31068.27
