SpectraSuite Data File
++++++++++++++++++++++++++++++++++++
Date: Fri Oct 04 11:48:24 GMT-05:00 2013
User: price-jones
Dark Spectrum Present: No
Reference Spectrum Present: No
Number of Sampled Component Spectra: 1
Spectrometers: USB2+H05261
Integration Time (usec): 100000 (USB2+H05261)
Spectra Averaged: 1 (USB2+H05261)
Boxcar Smoothing: 0 (USB2+H05261)
Correct for Electrical Dark: No (USB2+H05261)
Strobe/Lamp Enabled: No (USB2+H05261)
Correct for Detector Non-linearity: No (USB2+H05261)
Correct for Stray Light: No (USB2+H05261)
Number of Pixels in Processed Spectrum: 2048
>>>>>Begin Processed Spectral Data<<<<<
365.73	49.15
365.92	49.15
366.12	49.15
366.32	0.00
366.52	25.75
366.72	0.00
366.91	0.00
367.11	0.00
367.31	0.00
367.51	0.00
367.70	0.00
367.90	0.00
368.10	0.00
368.30	0.00
368.49	0.00
368.69	0.00
368.89	0.00
369.09	0.00
369.28	0.00
369.48	0.00
369.68	0.00
369.87	0.00
370.07	0.00
370.27	0.00
370.47	140.43
370.66	437.68
370.86	465.77
371.06	535.98
371.25	489.17
371.45	575.77
371.65	615.56
371.84	454.06
372.04	512.58
372.24	557.05
372.44	641.31
372.63	592.16
372.83	643.65
373.03	629.60
373.22	575.77
373.42	711.52
373.62	573.43
373.81	645.99
374.01	765.36
374.21	702.16
374.40	695.14
374.60	688.12
374.79	739.61
374.99	781.74
375.19	718.54
375.38	723.23
375.58	697.48
375.78	716.20
375.97	805.14
376.17	868.34
376.37	720.88
376.56	734.93
376.76	770.04
376.95	798.12
377.15	812.17
377.35	807.48
377.54	788.76
377.74	774.72
377.93	807.48
378.13	847.27
378.33	854.30
378.52	940.90
378.72	896.43
378.91	896.43
379.11	830.89
379.31	901.11
379.50	840.25
379.70	849.61
379.89	1011.11
380.09	978.34
380.28	950.26
380.48	973.66
380.68	858.98
380.87	933.87
381.07	990.05
381.26	1006.43
381.46	966.64
381.65	954.94
381.85	1008.77
382.04	1020.47
382.24	1036.86
382.43	987.71
382.63	1057.92
382.83	980.68
383.02	1027.50
383.22	997.07
383.41	961.96
383.61	1008.77
383.80	1020.47
384.00	1081.33
384.19	1029.84
384.39	1041.54
384.58	1100.05
384.78	1076.65
384.97	1116.44
385.17	1071.97
385.36	1151.54
385.56	1139.84
385.75	1088.35
385.95	1088.35
386.14	1184.31
386.34	1156.22
386.53	1226.44
386.72	1100.05
386.92	1224.10
387.11	1217.08
387.31	1196.01
387.50	1247.51
387.70	1163.25
387.89	1249.85
388.09	1322.40
388.28	1291.98
388.48	1212.40
388.67	1313.04
388.86	1282.61
389.06	1282.61
389.25	1315.38
389.45	1357.51
389.64	1348.15
389.84	1324.74
390.03	1490.92
390.22	1376.24
390.42	1376.24
390.61	1394.96
390.81	1329.42
391.00	1472.20
391.19	1526.03
391.39	1341.13
391.58	1430.07
391.78	1423.05
391.97	1390.28
392.16	1425.39
392.36	1486.24
392.55	1425.39
392.75	1511.99
392.94	1469.86
393.13	1579.86
393.33	1444.11
393.52	1570.50
393.71	1584.54
393.91	1734.34
394.10	1603.27
394.29	1586.88
394.49	1645.40
394.68	1689.87
394.88	1554.12
395.07	1732.00
395.26	1729.66
395.46	1605.61
395.65	1823.28
395.84	1774.13
396.04	1827.96
396.23	1802.21
396.42	1764.76
396.62	1902.86
396.81	1839.66
397.00	1638.38
397.19	1853.70
397.39	1853.70
397.58	1956.69
397.77	1888.81
397.97	1919.24
398.16	1830.30
398.35	1827.96
398.55	1984.77
398.74	2062.01
398.93	2108.82
399.12	1998.82
399.32	1898.17
399.51	1944.99
399.70	2172.02
399.90	2031.58
400.09	2097.12
400.28	2153.29
400.47	2115.84
400.67	2120.53
400.86	2165.00
401.05	2209.47
401.24	2263.30
401.44	2134.57
401.63	2209.47
401.82	2237.55
402.01	2239.89
402.21	2207.13
402.40	2263.30
402.59	2265.64
402.78	2235.21
402.97	2211.81
403.17	2342.88
403.36	2321.81
403.55	2466.92
403.74	2511.39
403.93	2438.84
404.13	2466.92
404.32	2359.26
404.51	2466.92
404.70	2588.63
404.89	2574.59
405.09	2682.25
405.28	2630.76
405.47	2600.34
405.66	2649.49
405.85	2792.26
406.05	2644.81
406.24	2712.68
406.43	2644.81
406.62	2775.88
406.81	2822.69
407.00	2787.58
407.20	2731.41
407.39	2773.53
407.58	2766.51
407.77	2853.11
407.96	2874.18
408.15	2902.26
408.34	2993.55
408.54	2923.33
408.73	2979.50
408.92	2942.05
409.11	3068.44
409.30	3056.74
409.49	3075.46
409.68	3035.67
409.87	3052.06
410.07	3258.03
410.26	3190.15
410.45	3239.30
410.64	3274.41
410.83	3337.60
411.02	3239.30
411.21	3370.37
411.40	3346.97
411.59	3300.16
411.78	3363.35
411.98	3342.28
412.17	3494.42
412.36	3260.37
412.55	3510.80
412.74	3555.27
412.93	3702.73
413.12	3604.42
413.31	3803.37
413.50	3616.13
413.69	3632.51
413.88	3794.01
414.07	3843.16
414.26	3838.48
414.45	3740.18
414.64	3955.51
414.83	4014.02
415.02	3957.85
415.22	4037.42
415.41	4168.49
415.60	4011.68
415.79	4187.22
415.98	4070.19
416.17	4114.66
416.36	4224.67
416.55	4397.87
416.74	4301.90
416.93	4337.01
417.12	4505.53
417.31	4500.85
417.50	4421.27
417.69	4622.56
417.88	4734.90
418.07	4575.75
418.26	4620.22
418.45	4606.17
418.64	4767.67
418.83	4660.01
419.02	4814.48
419.21	4727.88
419.39	4819.16
419.58	4662.35
419.77	4912.78
419.96	4898.74
420.15	4917.47
420.34	4798.10
420.53	5076.62
420.72	4957.25
420.91	4990.02
421.10	5085.98
421.29	5081.30
421.48	4908.10
421.67	5224.08
421.86	5128.11
422.05	5046.20
422.24	5125.77
422.43	5057.90
422.61	5137.48
422.80	5301.31
422.99	5191.31
423.18	5357.49
423.37	5404.30
423.56	5203.01
423.75	5254.50
423.94	5144.50
424.13	4887.04
424.32	5083.64
424.50	5282.59
424.69	5509.62
424.88	5378.55
425.07	5310.68
425.26	5188.97
425.45	5219.39
425.64	5406.64
425.83	5308.34
426.01	5483.88
426.20	5327.06
426.39	5401.96
426.58	5289.61
426.77	5432.38
426.96	5481.53
427.15	5521.32
427.33	5350.46
427.52	5516.64
427.71	5579.84
427.90	5558.77
428.09	5657.07
428.28	5708.57
428.46	5748.36
428.65	5528.35
428.84	5916.87
429.03	5898.15
429.22	5708.57
429.40	5977.73
429.59	5973.05
429.78	5603.24
429.97	5584.52
430.16	5685.16
430.34	6036.24
430.53	6005.81
430.72	5984.75
430.91	6080.71
431.10	5973.05
431.28	5998.79
431.47	6029.22
431.66	6200.08
431.85	6143.91
432.03	6396.68
432.22	6471.58
432.41	6249.23
432.60	6406.05
432.79	6366.26
432.97	6284.34
433.16	6511.37
433.35	6380.30
433.54	6546.48
433.72	6548.82
433.91	6342.85
434.10	6576.91
434.28	6476.26
434.47	6670.53
434.66	6846.07
434.85	6717.34
435.03	6586.27
435.22	6764.15
435.41	6974.80
435.59	6651.80
435.78	6773.51
435.97	6846.07
436.16	6942.03
436.34	6972.46
436.53	7096.50
436.72	7293.11
436.90	6897.56
437.09	7075.44
437.28	6874.15
437.46	7162.04
437.65	7171.40
437.84	7550.57
438.02	7229.91
438.21	7225.23
438.40	7215.87
438.58	7534.18
438.77	7524.82
438.96	7475.67
439.14	7674.62
439.33	7644.19
439.52	7854.84
439.70	7733.13
439.89	7836.11
440.08	7880.58
440.26	8226.98
440.45	7899.31
440.63	8058.46
440.82	8180.17
441.01	7967.18
441.19	8163.79
441.38	8248.05
441.57	8479.76
441.75	8430.61
441.94	8428.27
442.12	8559.34
442.31	8683.39
442.50	8489.12
442.68	8655.30
442.87	8659.98
443.05	8725.52
443.24	8702.11
443.43	8961.91
443.61	8849.57
443.80	9062.55
443.98	8638.92
444.17	8629.56
444.35	8966.59
444.54	8973.61
444.73	8908.08
444.91	9226.39
445.10	8781.69
445.28	9004.04
445.47	9015.74
445.65	8929.14
445.84	8929.14
446.02	9188.94
446.21	9001.70
446.39	8807.44
446.58	9095.32
446.77	9273.20
446.95	8917.44
447.14	8987.66
447.32	9186.60
447.51	9184.26
447.69	9142.13
447.88	9317.67
448.06	9284.91
448.25	9139.79
448.43	9139.79
448.62	9282.56
448.80	9448.74
448.99	9373.85
449.17	9411.29
449.36	9284.91
449.54	9778.76
449.73	9635.99
449.91	9788.12
450.10	9607.90
450.28	10017.49
450.46	9781.10
450.65	9750.67
450.83	9568.11
451.02	9596.20
451.20	10143.88
451.39	9790.46
451.57	9937.91
451.76	9928.55
451.94	9898.13
452.13	10106.43
452.31	9762.37
452.49	9865.36
452.68	9863.02
452.86	10113.45
453.05	10200.05
453.23	10235.16
453.42	10094.73
453.60	10127.50
453.78	10225.80
453.97	10090.05
454.15	10279.63
454.34	10134.52
454.52	10450.49
454.70	10586.24
454.89	10492.62
455.07	10644.76
455.26	10719.65
455.44	10707.95
455.62	10579.22
455.81	10511.35
455.99	10857.75
456.17	10913.92
456.36	10958.39
456.54	11105.84
456.73	11293.08
456.91	11288.40
457.09	11435.86
457.28	11419.47
457.46	11192.44
457.64	11283.72
457.83	11508.41
458.01	11393.73
458.19	11625.44
458.38	11492.03
458.56	11749.49
458.74	11716.72
458.93	11606.72
459.11	11403.09
459.29	11566.93
459.48	11786.94
459.66	11634.80
459.84	11880.56
460.03	11934.39
460.21	11943.75
460.39	11763.53
460.57	11833.75
460.76	12044.40
460.94	12070.14
461.12	12175.47
461.31	12393.14
461.49	12159.08
461.67	12210.57
461.85	12468.03
462.04	12456.33
462.22	12603.78
462.40	12470.37
462.59	12369.73
462.77	12624.85
462.95	12585.06
463.13	12685.70
463.32	12737.20
463.50	12379.09
463.68	12781.67
463.86	12849.54
464.05	12674.00
464.23	12814.43
464.41	13085.94
464.59	12603.78
464.78	13102.32
464.96	12922.10
465.14	12812.09
465.32	13146.79
465.50	13259.13
465.69	13224.03
465.87	13139.77
466.05	13114.02
466.23	13357.44
466.41	13275.52
466.60	13731.92
466.78	13331.69
466.96	13151.47
467.14	13394.89
467.32	13284.88
467.51	13682.77
467.69	13071.89
467.87	13565.74
468.05	13633.62
468.23	13465.10
468.41	13689.79
468.60	13469.78
468.78	13947.25
468.96	13612.56
469.14	14075.98
469.32	13750.65
469.50	13528.30
469.69	14246.84
469.87	14303.01
470.05	14640.05
470.23	14108.75
470.41	14197.69
470.59	14525.36
470.77	14303.01
470.95	14700.90
471.14	14925.60
471.32	14434.08
471.50	15087.09
471.68	14878.79
471.86	14906.87
472.04	15122.20
472.22	15417.11
472.40	14820.27
472.58	15126.88
472.77	15246.25
472.95	15503.71
473.13	15770.53
473.31	15222.84
473.49	15150.29
473.67	15309.44
473.85	15417.11
474.03	15829.04
474.21	15929.69
474.39	15999.90
474.57	16327.58
474.75	16435.24
474.93	16348.64
475.12	16329.92
475.30	16358.00
475.48	16620.14
475.66	16505.46
475.84	16816.75
476.02	16996.97
476.20	16896.33
476.38	17036.76
476.56	17429.97
476.74	17420.61
476.92	17334.01
477.10	17539.97
477.28	17745.94
477.46	17598.49
477.64	18019.78
477.82	18160.22
478.00	18501.93
478.18	18628.32
478.36	18611.94
478.54	18684.50
478.72	18808.54
478.90	19194.73
479.08	19257.93
479.26	19129.20
479.44	19262.61
479.62	19403.04
479.80	19297.72
479.98	19924.98
480.16	20203.50
480.34	20065.41
480.52	20430.54
480.70	20355.64
480.88	20350.96
481.06	20669.27
481.24	20889.28
481.41	21102.27
481.59	20996.95
481.77	21429.94
481.95	21488.46
482.13	21486.12
482.31	21633.57
482.49	22263.18
482.67	21830.18
482.85	22223.39
483.03	22759.37
483.21	22965.34
483.39	23300.03
483.57	22754.69
483.74	23405.36
483.92	23239.18
484.10	23257.90
484.28	23861.76
484.46	24311.14
484.64	24486.68
484.82	23988.15
485.00	24304.12
485.18	24973.52
485.35	25259.06
485.53	25312.89
485.71	25062.46
485.89	25731.85
486.07	26005.69
486.25	25720.15
486.43	25797.38
486.61	26031.44
486.78	26436.35
486.96	26508.91
487.14	27445.12
487.32	27007.44
487.50	27590.24
487.68	27147.87
487.85	27742.37
488.03	28070.04
488.21	28481.98
488.39	28716.03
488.57	28847.10
488.75	28898.59
488.92	29130.31
489.10	29457.98
489.28	29280.10
489.46	29799.70
489.64	29577.35
489.81	30632.93
489.99	30696.13
490.17	30988.69
490.35	31115.08
490.53	31349.14
490.70	31302.32
490.88	31412.33
491.06	31578.51
491.24	31625.32
491.41	31611.28
491.59	31768.09
491.77	32191.73
491.95	32655.15
492.13	32388.33
492.30	33076.45
492.48	33177.09
492.66	33490.73
492.84	33626.48
493.01	33790.31
493.19	34190.55
493.37	34129.69
493.54	34597.80
493.72	34644.61
493.90	34920.79
494.08	34871.64
494.25	35208.68
494.43	35620.61
494.61	35997.44
494.79	35599.55
494.96	35548.06
495.14	36215.11
495.32	36030.21
495.49	36098.08
495.67	36772.16
495.85	37083.45
496.02	37429.85
496.20	37209.84
496.38	37251.97
496.55	37624.11
496.73	38286.48
496.91	38223.29
497.09	38733.53
497.26	38614.16
497.44	38333.29
497.62	38714.80
497.79	39012.05
497.97	39178.23
498.14	39576.12
498.32	40299.34
498.50	39681.44
498.67	40044.23
498.85	40224.45
499.03	40416.37
499.20	40488.93
499.38	40669.15
499.56	41137.26
499.73	41383.01
499.91	41074.06
500.08	41617.07
500.26	41174.70
500.44	41261.30
500.61	41783.24
500.79	41799.63
500.97	41825.37
501.14	42363.70
501.32	42316.89
501.49	42412.85
501.67	42541.58
501.84	42305.18
502.02	42794.36
502.20	43086.92
502.37	43470.77
502.55	43262.46
502.72	43358.42
502.90	43608.86
503.07	43555.03
503.25	43555.03
503.43	43913.13
503.60	44123.78
503.78	44318.04
503.95	44619.97
504.13	44505.29
504.30	44584.86
504.48	44381.24
504.65	44339.11
504.83	45322.13
505.01	45448.52
505.18	45284.68
505.36	45691.94
505.53	45359.58
505.71	45415.76
505.88	46010.25
506.06	45689.60
506.23	46326.22
506.41	46050.04
506.58	45954.08
506.76	46012.59
506.93	46878.59
507.11	46141.32
507.28	46260.69
507.46	46646.88
507.63	47351.38
507.81	47365.42
507.98	46906.68
508.16	46976.89
508.33	47208.61
508.50	47377.12
508.68	47791.40
508.85	48067.58
509.03	47852.25
509.20	48023.11
509.38	48264.19
509.55	48474.84
509.73	48444.41
509.90	48425.68
510.08	48549.73
510.25	48369.51
510.42	48669.10
510.60	49364.24
510.77	49031.88
510.95	49392.33
511.12	48783.79
511.30	49261.26
511.47	49235.51
511.64	49977.46
511.82	50026.61
511.99	49797.24
512.17	49890.86
512.34	49930.65
512.51	50174.06
512.69	50365.99
512.86	50578.98
513.04	50480.67
513.21	50677.28
513.38	50534.51
513.56	50969.85
513.73	50571.96
513.90	50808.35
514.08	50768.56
514.25	50885.59
514.43	51037.72
514.60	51117.30
514.77	51330.29
514.95	51547.96
515.12	51131.34
515.29	51271.78
515.47	51641.58
515.64	51512.85
515.81	51664.99
515.99	52147.14
516.16	52215.01
516.33	52247.78
516.51	52133.09
516.68	51990.32
516.85	52280.55
517.03	52458.43
517.20	52444.38
517.37	52671.42
517.54	52598.86
517.72	52502.90
517.89	52591.84
518.06	52954.62
518.24	52795.46
518.41	52877.38
518.58	52877.38
518.75	52774.40
518.93	53151.23
519.10	53111.44
519.27	53043.56
519.45	53174.63
519.62	53474.22
519.79	53249.53
519.96	53581.88
520.14	53722.32
520.31	53553.80
520.48	53825.30
520.65	53659.12
520.83	53832.32
521.00	53911.90
521.17	53858.07
521.34	54038.29
521.52	54122.55
521.69	54319.15
521.86	54232.55
522.03	54454.90
522.20	54232.55
522.38	54422.14
522.55	54501.71
522.72	54541.50
522.89	54525.12
523.07	54773.22
523.24	54646.83
523.41	54810.67
523.58	54600.02
523.75	54965.14
523.92	55164.09
524.10	54834.07
524.27	55346.65
524.44	55356.01
524.61	55576.02
524.78	55285.79
524.96	55281.11
525.13	55414.52
525.30	55477.72
525.47	55391.12
525.64	55515.17
525.81	55632.19
525.98	55915.40
526.16	55627.51
526.33	55847.52
526.50	55978.59
526.67	55667.30
526.84	56020.72
527.01	55817.10
527.18	56065.19
527.36	56222.01
527.53	56170.52
527.70	56423.29
527.87	56376.48
528.04	56189.24
528.21	56374.14
528.38	56310.95
528.55	56446.70
528.72	56364.78
528.89	56566.07
529.07	56420.95
529.24	56439.68
529.41	56552.02
529.58	56676.07
529.75	56212.65
529.92	56739.27
530.09	56800.12
530.26	56830.55
530.43	56797.78
530.60	56928.85
530.77	56851.61
530.94	57083.33
531.11	56954.60
531.28	56933.53
531.46	56935.87
531.63	57181.63
531.80	57481.22
531.97	57190.99
532.14	57254.18
532.31	57333.76
532.48	57359.51
532.65	57329.08
532.82	57441.43
532.99	57446.11
533.16	57450.79
533.33	57598.24
533.50	57930.60
533.67	57780.81
533.84	57631.01
534.01	57701.23
534.18	57577.18
534.35	57869.75
534.52	57682.50
534.69	57911.88
534.86	58131.89
535.03	57663.78
535.20	57996.13
535.37	58096.78
535.54	58115.50
535.71	57907.19
535.88	57996.13
536.05	58305.09
536.22	58433.81
536.38	58204.44
536.55	58522.76
536.72	58419.77
536.89	58293.38
537.06	58447.86
537.23	58312.11
537.40	58457.22
537.57	58253.59
537.74	58468.92
537.91	58808.30
538.08	58817.66
538.25	58527.44
538.42	58557.86
538.59	58560.20
538.75	58541.48
538.92	58796.60
539.09	58588.29
539.26	58906.60
539.43	58798.94
539.60	59112.57
539.77	59009.59
539.94	59126.61
540.11	59021.29
540.28	59133.63
540.44	59098.53
540.61	59196.83
540.78	58927.67
540.95	59260.02
541.12	59332.58
541.29	59208.53
541.46	59358.33
541.62	59402.80
541.79	59114.91
541.96	58979.16
542.13	59201.51
542.30	59473.01
542.47	59475.35
542.63	59615.79
542.80	59601.74
542.97	59826.43
543.14	59580.68
543.31	59442.59
543.48	59756.22
543.64	59807.71
543.81	60067.51
543.98	59952.82
544.15	60044.10
544.32	60095.60
544.48	60179.85
544.65	59962.18
544.82	60032.40
544.99	59774.94
545.16	60065.17
545.32	59962.18
545.49	60399.86
545.66	60430.29
545.83	60470.08
546.00	60254.75
546.16	60395.18
546.33	60130.70
546.50	60069.85
546.67	60275.82
546.83	59973.89
547.00	60278.16
547.17	60444.33
547.34	60282.84
547.50	60570.72
547.67	60603.49
547.84	60460.72
548.00	60582.43
548.17	60739.24
548.34	60568.38
548.51	60757.97
548.67	60715.84
548.84	60886.70
549.01	60596.47
549.18	60739.24
549.34	60776.69
549.51	60654.98
549.68	60764.99
549.84	60669.03
550.01	60795.42
550.18	60638.60
550.34	60896.06
550.51	60952.23
550.68	61087.98
550.84	60989.68
551.01	60912.44
551.18	60931.17
551.34	60994.36
551.51	60905.42
551.68	61146.50
551.84	61254.16
552.01	61010.74
552.18	61205.01
552.34	61169.90
552.51	61319.70
552.68	60954.57
552.84	61312.67
553.01	61446.08
553.18	61146.50
553.34	61336.08
553.51	61340.76
553.67	61275.22
553.84	61616.94
554.01	61668.44
554.17	61490.55
554.34	61694.18
554.51	61638.01
554.67	61670.78
554.84	61628.65
555.00	61469.49
555.17	61766.74
555.33	61698.86
555.50	61619.28
555.67	61666.09
555.83	61497.58
556.00	61619.28
556.16	61843.98
556.33	61764.40
556.50	61759.72
556.66	61778.44
556.83	61698.86
556.99	61991.43
557.16	61932.92
557.32	61846.32
557.49	62042.92
557.65	61649.71
557.82	61832.27
557.98	61982.07
558.15	62047.60
558.32	62061.64
558.48	62141.22
558.65	62110.80
558.81	62068.67
558.98	62078.03
559.14	61811.21
559.31	62073.35
559.47	62045.26
559.64	62190.37
559.80	62211.44
559.97	62335.49
560.13	62080.37
560.30	62274.63
560.46	62148.24
560.63	62199.74
560.79	62197.40
560.96	62307.40
561.12	62269.95
561.29	62099.09
561.45	62237.19
561.61	62316.76
561.78	62382.30
561.94	62447.83
562.11	62548.48
562.27	62293.36
562.44	62356.55
562.60	62340.17
562.77	62225.48
562.93	62525.07
563.10	62646.78
563.26	62468.90
563.42	62705.29
563.59	62482.94
563.75	62473.58
563.92	62583.58
564.08	62515.71
564.24	62644.44
564.41	62473.58
564.57	62522.73
564.74	62569.54
564.90	62649.12
565.07	62763.81
565.23	62871.47
565.39	62555.50
565.56	62763.81
565.72	62415.07
565.88	62609.33
566.05	62850.41
566.21	62660.82
566.38	62803.59
566.54	62890.19
566.70	62901.90
566.87	62822.32
567.03	62906.58
567.19	63007.22
567.36	62899.56
567.52	62679.55
567.68	62775.51
567.85	62625.71
568.01	62667.84
568.17	62621.03
568.34	62731.04
568.50	62841.04
568.66	62801.25
568.83	62937.01
568.99	62777.85
569.15	62958.07
569.32	62688.91
569.48	62651.46
569.64	62796.57
569.81	62838.70
569.97	62885.51
570.13	63023.61
570.30	62897.22
570.46	63042.33
570.62	63098.50
570.78	62946.37
570.95	62859.77
571.11	63068.08
571.27	62873.81
571.43	62845.72
571.60	63063.39
571.76	63004.88
571.92	63135.95
572.09	62948.71
572.25	63075.10
572.41	63126.59
572.57	63079.78
572.74	63112.55
572.90	62990.84
573.06	63086.80
573.22	62976.79
573.38	63096.16
573.55	63082.12
573.71	63391.07
573.87	63168.72
574.03	62946.37
574.20	63192.12
574.36	62974.45
574.52	62972.11
574.68	63065.73
574.84	63117.23
575.01	63217.87
575.17	63182.76
575.33	63206.17
575.49	63306.81
575.65	63367.66
575.82	63426.18
575.98	63119.57
576.14	63355.96
576.30	63327.87
576.46	63274.04
576.62	63257.66
576.79	63241.28
576.95	63274.04
577.11	63365.32
577.27	63105.52
577.43	63243.62
577.59	63276.38
577.75	63182.76
577.92	63220.21
578.08	63206.17
578.24	63159.36
578.40	63215.53
578.56	63210.85
578.72	63351.28
578.88	63412.13
579.04	63575.97
579.21	63229.57
579.37	63330.22
579.53	63454.26
579.69	63147.65
579.85	63264.68
580.01	63278.72
580.17	63400.43
580.33	63166.38
580.49	63414.47
580.65	63515.12
580.82	63428.52
580.98	63215.53
581.14	63257.66
581.30	63477.67
581.46	63234.25
581.62	63362.98
581.78	63241.28
581.94	63370.00
582.10	63182.76
582.26	63421.50
582.42	63367.66
582.58	63501.07
582.74	63409.79
582.90	63461.29
583.06	63456.60
583.22	63355.96
583.38	63297.45
583.54	63341.92
583.70	63428.52
583.86	63339.58
584.02	63327.87
584.18	63550.23
584.34	63580.65
584.50	63615.76
584.66	63388.73
584.82	63281.06
584.98	63498.73
585.14	63426.18
585.30	63407.45
585.46	63435.54
585.62	63311.49
585.78	63463.63
585.94	63159.36
586.10	63566.61
586.26	63554.91
586.42	63538.52
586.58	63550.23
586.74	63381.71
586.90	63454.26
587.06	63592.36
587.22	63423.84
587.38	63398.09
587.54	63669.59
587.70	63784.28
587.86	63810.03
588.02	63606.40
588.18	63884.92
588.34	63667.25
588.49	63625.12
588.65	63454.26
