SpectraSuite Data File
++++++++++++++++++++++++++++++++++++
Date: Fri Oct 04 11:48:30 GMT-05:00 2013
User: price-jones
Dark Spectrum Present: No
Reference Spectrum Present: No
Number of Sampled Component Spectra: 1
Spectrometers: USB2+H05261
Integration Time (usec): 100000 (USB2+H05261)
Spectra Averaged: 1 (USB2+H05261)
Boxcar Smoothing: 0 (USB2+H05261)
Correct for Electrical Dark: No (USB2+H05261)
Strobe/Lamp Enabled: No (USB2+H05261)
Correct for Detector Non-linearity: No (USB2+H05261)
Correct for Stray Light: No (USB2+H05261)
Number of Pixels in Processed Spectrum: 2048
>>>>>Begin Processed Spectral Data<<<<<
365.73	0.00
365.92	0.00
366.12	0.00
366.32	0.00
366.52	0.00
366.72	0.00
366.91	0.00
367.11	0.00
367.31	0.00
367.51	0.00
367.70	0.00
367.90	0.00
368.10	0.00
368.30	0.00
368.49	0.00
368.69	0.00
368.89	0.00
369.09	0.00
369.28	9.36
369.48	0.00
369.68	0.00
369.87	0.00
370.07	0.00
370.27	60.85
370.47	102.98
370.66	449.38
370.86	444.70
371.06	414.27
371.25	484.49
371.45	397.89
371.65	510.24
371.84	407.25
372.04	451.72
372.24	465.77
372.44	472.79
372.63	435.34
372.83	543.00
373.03	510.24
373.22	524.28
373.42	507.90
373.62	545.34
373.81	634.29
374.01	608.54
374.21	603.86
374.40	589.82
374.60	650.67
374.79	538.32
374.99	594.50
375.19	557.05
375.38	711.52
375.58	641.31
375.78	594.50
375.97	622.58
376.17	685.78
376.37	669.39
376.56	674.07
376.76	627.26
376.95	664.71
377.15	667.05
377.35	629.60
377.54	697.48
377.74	716.20
377.93	704.50
378.13	660.03
378.33	739.61
378.52	678.76
378.72	788.76
378.91	683.44
379.11	734.93
379.31	704.50
379.50	704.50
379.70	727.91
379.89	779.40
380.09	781.74
380.28	690.46
380.48	718.54
380.68	819.19
380.87	751.31
381.07	802.80
381.26	770.04
381.46	788.76
381.65	760.67
381.85	793.44
382.04	753.65
382.24	784.08
382.43	774.72
382.63	739.61
382.83	842.59
383.02	840.25
383.22	868.34
383.41	844.93
383.61	882.38
383.80	847.27
384.00	858.98
384.19	795.78
384.39	816.85
384.58	938.55
384.78	837.91
384.97	889.40
385.17	884.72
385.36	959.62
385.56	889.40
385.75	894.08
385.95	957.28
386.14	1006.43
386.34	980.68
386.53	971.32
386.72	1048.56
386.92	1013.45
387.11	1060.26
387.31	999.41
387.50	938.55
387.70	959.62
387.89	1062.60
388.09	1074.31
388.28	1027.50
388.48	1027.50
388.67	1022.81
388.86	1067.28
389.06	978.34
389.25	1048.56
389.45	1095.37
389.64	1039.20
389.84	1107.07
390.03	1034.52
390.22	1076.65
390.42	1053.24
390.61	1123.46
390.81	1235.80
391.00	1090.69
391.19	1137.50
391.39	1252.19
391.58	1240.48
391.78	1196.01
391.97	1167.93
392.16	1205.38
392.36	1186.65
392.55	1242.82
392.75	1263.89
392.94	1261.55
393.13	1275.59
393.33	1387.94
393.52	1317.72
393.71	1357.51
393.91	1238.14
394.10	1296.66
394.29	1324.74
394.49	1322.40
394.68	1460.49
394.88	1355.17
395.07	1441.77
395.26	1495.60
395.46	1373.89
395.65	1481.56
395.84	1509.65
396.04	1481.56
396.23	1378.58
396.42	1479.22
396.62	1465.18
396.81	1521.35
397.00	1465.18
397.19	1371.55
397.39	1558.80
397.58	1500.28
397.77	1441.77
397.97	1565.82
398.16	1643.06
398.35	1493.26
398.55	1654.76
398.74	1666.46
398.93	1666.46
399.12	1605.61
399.32	1540.07
399.51	1542.41
399.70	1652.42
399.90	1661.78
400.09	1600.93
400.28	1741.36
400.47	1760.08
400.67	1755.40
400.86	1764.76
401.05	1764.76
401.24	1827.96
401.44	1769.44
401.63	1827.96
401.82	1886.47
402.01	1802.21
402.21	1790.51
402.40	1973.07
402.59	1893.49
402.78	1888.81
402.97	1851.36
403.17	1914.56
403.36	1977.75
403.55	1987.11
403.74	1963.71
403.93	1912.22
404.13	2090.10
404.32	2031.58
404.51	2012.86
404.70	2153.29
404.89	1893.49
405.09	2083.08
405.28	2012.86
405.47	2162.66
405.66	2157.97
405.85	2146.27
406.05	2282.02
406.24	2214.15
406.43	2186.06
406.62	2300.75
406.81	2321.81
407.00	2265.64
407.20	2282.02
407.39	2277.34
407.58	2457.56
407.77	2387.35
407.96	2363.94
408.15	2434.16
408.34	2338.20
408.54	2445.86
408.73	2464.58
408.92	2392.03
409.11	2504.37
409.30	2506.71
409.49	2420.11
409.68	2420.11
409.87	2534.80
410.07	2583.95
410.26	2628.42
410.45	2679.91
410.64	2612.04
410.83	2640.12
411.02	2724.38
411.21	2860.13
411.40	2757.15
411.59	2829.71
411.78	2829.71
411.98	2862.48
412.17	2944.39
412.36	2878.86
412.55	3108.23
412.74	2972.48
412.93	3009.93
413.12	2928.01
413.31	3162.06
413.50	3180.79
413.69	3103.55
413.88	3185.47
414.07	3112.91
414.26	3166.74
414.45	3183.13
414.64	3155.04
414.83	3248.66
415.02	3445.27
415.22	3421.86
415.41	3541.23
415.60	3508.46
415.79	3445.27
415.98	3489.74
416.17	3527.19
416.36	3440.59
416.55	3461.65
416.74	3613.79
416.93	3548.25
417.12	3653.58
417.31	3707.41
417.50	3630.17
417.69	3803.37
417.88	3756.56
418.07	3784.65
418.26	3749.54
418.45	3826.78
418.64	3875.93
418.83	3969.55
419.02	3866.56
419.21	4079.55
419.39	3939.12
419.58	3885.29
419.77	3971.89
419.96	3913.38
420.15	4053.81
420.34	4046.79
420.53	4117.00
420.72	4074.87
420.91	4121.68
421.10	4187.22
421.29	4470.42
421.48	4152.11
421.67	4353.40
421.86	4241.05
422.05	4358.08
422.24	4231.69
422.43	4124.02
422.61	4355.74
422.80	4365.10
422.99	4243.39
423.18	4395.53
423.37	4440.00
423.56	4301.90
423.75	4458.72
423.94	4318.29
424.13	4016.36
424.32	4259.78
424.50	4358.08
424.69	4615.54
424.88	4585.11
425.07	4468.08
425.26	4362.76
425.45	4322.97
425.64	4374.46
425.83	4381.48
426.01	4407.23
426.20	4395.53
426.39	4533.62
426.58	4587.45
426.77	4531.28
426.96	4568.73
427.15	4596.81
427.33	4606.17
427.52	4510.21
427.71	4594.47
427.90	4505.53
428.09	4753.63
428.28	4697.46
428.46	4830.87
428.65	4720.86
428.84	4793.42
429.03	4933.85
429.22	4779.37
429.40	4905.76
429.59	4947.89
429.78	4655.33
429.97	4739.58
430.16	4779.37
430.34	4924.49
430.53	5020.45
430.72	5123.43
430.91	4702.14
431.10	4858.95
431.28	5214.71
431.47	5186.63
431.66	5158.54
431.85	5064.92
432.03	5224.08
432.22	5273.23
432.41	5153.86
432.60	5310.68
432.79	5404.30
432.97	5294.29
433.16	5317.70
433.35	5420.68
433.54	5504.94
433.72	5385.57
433.91	5355.15
434.10	5364.51
434.28	5584.52
434.47	5577.50
434.66	5486.22
434.85	5481.53
435.03	5659.42
435.22	5624.31
435.41	5954.32
435.59	5577.50
435.78	5647.71
435.97	5769.42
436.16	5696.86
436.34	5792.83
436.53	5870.06
436.72	5987.09
436.90	5809.21
437.09	5935.60
437.28	5865.38
437.46	5923.90
437.65	5940.28
437.84	5973.05
438.02	5984.75
438.21	6036.24
438.40	6237.53
438.58	6153.27
438.77	6260.93
438.96	6225.82
439.14	6136.88
439.33	6413.07
439.52	6258.59
439.70	6471.58
439.89	6457.54
440.08	6551.16
440.26	6469.24
440.45	6464.56
440.63	6532.44
440.82	6761.81
441.01	6839.05
441.19	6925.65
441.38	6829.68
441.57	6906.92
441.75	7000.54
441.94	6977.14
442.12	6958.41
442.31	7148.00
442.50	7281.41
442.68	7190.13
442.87	7276.73
443.05	7211.19
443.24	7325.88
443.43	7229.91
443.61	7297.79
443.80	7536.52
443.98	7220.55
444.17	7005.22
444.35	7478.01
444.54	7470.99
444.73	7442.90
444.91	7447.58
445.10	7262.68
445.28	7316.51
445.47	7442.90
445.65	7424.18
445.84	7325.88
446.02	7527.16
446.21	7503.76
446.39	7548.23
446.58	7627.81
446.77	7559.93
446.95	7513.12
447.14	7559.93
447.32	7705.04
447.51	7522.48
447.69	7541.21
447.88	7705.04
448.06	7754.19
448.25	7716.75
448.43	7524.82
448.62	7595.04
448.80	7552.91
448.99	7695.68
449.17	7852.50
449.36	7698.02
449.54	7943.78
449.73	8016.33
449.91	7981.23
450.10	8098.25
450.28	8182.51
450.46	7962.50
450.65	8145.06
450.83	8292.52
451.02	8093.57
451.20	8067.83
451.39	8109.96
451.57	8280.82
451.76	8084.21
451.94	8175.49
452.13	8381.46
452.31	8472.74
452.49	8252.73
452.68	8339.33
452.86	8292.52
453.05	8533.59
453.23	8699.77
453.42	8542.96
453.60	8451.67
453.78	8442.31
453.97	8535.93
454.15	8353.37
454.34	8606.15
454.52	8821.48
454.70	8449.33
454.89	8816.80
455.07	8711.47
455.26	8936.17
455.44	8861.27
455.62	8929.14
455.81	8891.70
455.99	9032.13
456.17	9004.04
456.36	9132.77
456.54	9207.67
456.73	9118.73
456.91	9350.44
457.09	9327.03
457.28	9472.15
457.46	9256.82
457.64	9322.35
457.83	9343.42
458.01	9289.59
458.19	9575.13
458.38	9296.61
458.56	9624.28
458.74	9673.43
458.93	9530.66
459.11	9643.01
459.29	9650.03
459.48	9823.23
459.66	9837.27
459.84	9738.97
460.03	9912.17
460.21	9699.18
460.39	9818.55
460.57	9961.32
460.76	9764.72
460.94	10026.86
461.12	10157.92
461.31	10083.03
461.49	10134.52
461.67	9984.73
461.85	10216.44
462.04	10225.80
462.22	10850.72
462.40	10176.65
462.59	10204.74
462.77	10562.84
462.95	10431.77
463.13	10436.45
463.32	10581.56
463.50	10523.05
463.68	10511.35
463.86	10469.22
464.05	10464.54
464.23	10541.77
464.41	10682.20
464.59	10389.64
464.78	10747.74
464.96	10621.35
465.14	10705.61
465.32	10874.13
465.50	10801.57
465.69	10984.13
465.87	10614.33
466.05	10848.38
466.23	10925.62
466.41	11089.46
466.60	11513.10
466.78	10890.51
466.96	10817.96
467.14	11098.82
467.32	11145.63
467.51	11302.45
467.69	10963.07
467.87	11250.96
468.05	11166.70
468.23	11047.33
468.41	11103.50
468.60	11145.63
468.78	11632.46
468.96	11253.30
469.14	11562.25
469.32	11676.93
469.50	11108.18
469.69	11712.04
469.87	11906.31
470.05	11761.19
470.23	11625.44
470.41	11950.78
470.59	11997.59
470.77	11805.66
470.95	11927.37
471.14	11943.75
471.32	12058.44
471.50	12376.75
471.68	12264.41
471.86	12135.68
472.04	12430.59
472.22	12706.77
472.40	12098.23
472.58	12444.63
472.77	12718.47
472.95	12725.49
473.13	13095.30
473.31	12549.95
473.49	12664.64
473.67	12816.77
473.85	12917.42
474.03	13186.58
474.21	12989.97
474.39	13324.67
474.57	13252.11
474.75	13596.17
474.93	13570.43
475.12	13261.48
475.30	13558.72
475.48	13437.02
475.66	13809.16
475.84	13820.86
476.02	13745.97
476.20	14015.13
476.38	14230.46
476.56	14141.52
476.74	14410.68
476.92	14345.14
477.10	14246.84
477.28	14829.63
477.46	14548.77
477.64	14862.40
477.82	14909.21
478.00	15061.35
478.18	15414.77
478.36	15248.59
478.54	15257.95
478.72	15623.08
478.90	15733.08
479.08	15929.69
479.26	15868.83
479.44	15800.96
479.62	15992.88
479.80	16341.62
479.98	16360.34
480.16	16809.73
480.34	16510.14
480.52	16936.12
480.70	17043.78
480.88	16681.00
481.06	16821.43
481.24	16720.79
481.41	17238.05
481.59	17373.80
481.77	17591.47
481.95	17678.07
482.13	17919.14
482.31	17710.83
482.49	18031.49
482.67	18422.36
482.85	18569.81
483.03	18649.39
483.21	18885.78
483.39	19150.26
483.57	19061.32
483.74	19297.72
483.92	19531.77
484.10	19442.83
484.28	19447.51
484.46	20255.00
484.64	20402.45
484.82	19889.87
485.00	20123.93
485.18	20783.96
485.35	20620.12
485.53	20884.60
485.71	21050.78
485.89	21223.98
486.07	21032.05
486.25	21186.53
486.43	21582.08
486.61	21397.18
486.78	21832.52
486.96	22040.82
487.14	22270.20
487.32	22122.74
487.50	22544.04
487.68	22588.51
487.85	22869.37
488.03	23133.86
488.21	23620.69
488.39	23246.20
488.57	23749.42
488.75	23711.97
488.92	24144.97
489.10	24177.73
489.28	24236.25
489.46	24673.93
489.64	24526.47
489.81	25029.69
489.99	25132.67
490.17	25230.98
490.35	25570.35
490.53	25563.33
490.70	26143.78
490.88	25663.97
491.06	26031.44
491.24	26143.78
491.41	26267.83
491.59	26705.51
491.77	26630.62
491.95	27021.48
492.13	27477.89
492.30	27161.92
492.48	27424.06
492.66	27386.61
492.84	27646.41
493.01	27854.72
493.19	27917.91
493.37	27990.47
493.54	28334.53
493.72	28606.03
493.90	28510.07
494.08	28758.16
494.25	29069.45
494.43	29151.37
494.61	29357.34
494.79	29450.96
494.96	29390.11
495.14	29355.00
495.32	30190.57
495.49	30019.71
495.67	29914.39
495.85	30731.23
496.02	30764.00
496.20	30810.81
496.38	30883.37
496.55	31056.57
496.73	31714.26
496.91	31105.72
497.09	31938.95
497.26	31793.84
497.44	31702.56
497.62	31901.50
497.79	32194.07
497.97	32418.76
498.14	32634.09
498.32	32673.88
498.50	32786.22
498.67	33530.51
498.85	33425.19
499.03	33149.01
499.20	33261.35
499.38	33776.27
499.56	33874.57
499.73	34064.16
499.91	33799.68
500.08	34483.11
500.26	33717.76
500.44	34323.96
500.61	34604.82
500.79	34675.04
500.97	34958.24
501.14	34939.52
501.32	35026.12
501.49	34979.31
501.67	34944.20
501.84	35461.46
502.02	35714.23
502.20	35812.54
502.37	35777.43
502.55	35445.07
502.72	36243.20
502.90	36414.05
503.07	35730.62
503.25	36467.89
503.43	36367.24
503.60	36341.50
503.78	36737.05
503.95	37020.25
504.13	37064.72
504.30	37273.03
504.48	36872.80
504.65	36964.08
504.83	37649.86
505.01	37771.57
505.18	37516.45
505.36	37979.87
505.53	37429.85
505.71	38113.28
505.88	38426.92
506.06	37900.29
506.23	38410.53
506.41	38384.79
506.58	38892.68
506.76	38873.96
506.93	38550.96
507.11	38995.67
507.28	39051.84
507.46	38775.66
507.63	39100.99
507.81	39440.37
507.98	39299.94
508.16	39690.80
508.33	39203.97
508.50	39756.34
508.68	39866.34
508.85	40121.46
509.03	40566.16
509.20	40189.34
509.38	40914.90
509.55	40959.38
509.73	40928.95
509.90	40797.88
510.08	40325.09
510.25	40978.10
510.42	41041.29
510.60	41258.96
510.77	41310.46
510.95	41808.99
511.12	41600.68
511.30	41315.14
511.47	41603.02
511.64	41986.87
511.82	42623.50
511.99	42131.98
512.17	42454.98
512.34	41984.53
512.51	42497.11
512.69	42789.67
512.86	42384.76
513.04	42892.66
513.21	42918.40
513.38	43002.66
513.56	43171.18
513.73	42557.96
513.90	43379.49
514.08	43152.46
514.25	43077.56
514.43	43768.02
514.60	43742.27
514.77	43505.88
514.95	43550.35
515.12	43852.28
515.29	43555.03
515.47	44470.18
515.64	44502.95
515.81	44027.82
515.99	44554.44
516.16	44673.81
516.33	44612.95
516.51	45027.23
516.68	44697.21
516.85	44371.88
517.03	45247.24
517.20	45095.10
517.37	45031.91
517.54	45230.85
517.72	45378.31
517.89	45652.15
518.06	45071.70
518.24	45394.69
518.41	45488.31
518.58	45488.31
518.75	46108.55
518.93	46176.43
519.10	45958.76
519.27	46197.49
519.45	45820.67
519.62	46286.43
519.79	46602.41
519.96	46520.49
520.14	46597.73
520.31	46445.59
520.48	46808.37
520.65	46930.08
520.83	46927.74
521.00	47189.88
521.17	46660.92
521.34	47152.43
521.52	47283.50
521.69	47475.43
521.86	47611.18
522.03	47505.85
522.20	47845.23
522.38	47461.38
522.55	47672.03
522.72	47845.23
522.89	48322.70
523.07	48009.07
523.24	48376.53
523.41	48327.38
523.58	47980.98
523.75	48659.74
523.92	47945.87
524.10	48278.23
524.27	48533.35
524.44	48832.94
524.61	49186.36
524.78	49237.85
524.96	48935.92
525.13	48875.07
525.30	48601.22
525.47	49125.50
525.64	48687.82
525.81	49621.70
525.98	49425.09
526.16	49397.01
526.33	49329.13
526.50	49783.19
526.67	49221.47
526.84	49492.97
527.01	49602.97
527.18	49638.08
527.36	49890.86
527.53	49996.18
527.70	50054.70
527.87	50085.12
528.04	50038.31
528.21	49986.82
528.38	50209.17
528.55	50085.12
528.72	50094.49
528.89	50447.91
529.07	50419.82
529.24	50232.58
529.41	50576.64
529.58	50244.28
529.75	50712.39
529.92	50377.69
530.09	50780.26
530.26	50747.50
530.43	50845.80
530.60	51021.34
530.77	50845.80
530.94	50934.74
531.11	50925.38
531.28	50838.78
531.46	50927.72
531.63	51065.81
531.80	51107.94
531.97	51578.39
532.14	51341.99
532.31	51496.47
532.48	51377.10
532.65	51870.95
532.82	51473.06
532.99	51758.61
533.16	51470.72
533.33	51786.69
533.50	51955.21
533.67	51889.68
533.84	51821.80
534.01	52027.77
534.18	51693.07
534.35	52142.45
534.52	52289.91
534.69	52193.95
534.86	52563.75
535.03	52177.56
535.20	52161.18
535.37	52231.40
535.54	52362.46
535.71	51938.83
535.88	52580.13
536.05	52711.20
536.22	52416.30
536.38	52545.03
536.55	52851.64
536.72	52781.42
536.89	52512.26
537.06	52523.96
537.23	52484.17
537.40	52788.44
537.57	52615.24
537.74	53073.99
537.91	53247.19
538.08	53137.18
538.25	53183.99
538.42	53052.92
538.59	53090.37
538.75	53038.88
538.92	53027.18
539.09	53399.32
539.26	53275.27
539.43	53230.80
539.60	53483.58
539.77	53680.19
539.94	53546.78
540.11	53518.69
540.28	53565.50
540.44	53659.12
540.61	53420.39
540.78	53574.86
540.95	53748.06
541.12	53986.80
541.29	53708.27
541.46	53581.88
541.62	53743.38
541.79	53778.49
541.96	53514.01
542.13	53633.38
542.30	53904.88
542.47	53801.89
542.63	54155.32
542.80	54461.93
542.97	54342.56
543.14	54241.92
543.31	54452.56
543.48	54433.84
543.64	54433.84
543.81	54731.09
543.98	54262.98
544.15	54642.15
544.32	54623.42
544.48	55103.23
544.65	54719.38
544.82	54883.22
544.99	54604.70
545.16	54773.22
545.32	54787.26
545.49	55035.36
545.66	55157.06
545.83	55096.21
546.00	55014.29
546.16	54831.73
546.33	54948.76
546.50	54714.70
546.67	54705.34
546.83	54667.89
547.00	54981.52
547.17	55166.43
547.34	55213.24
547.50	55016.63
547.67	55430.91
547.84	55215.58
548.00	55592.40
548.17	55515.17
548.34	55283.45
548.51	55377.08
548.67	55557.30
548.84	55646.24
549.01	55503.46
549.18	55423.89
549.34	55356.01
549.51	55648.58
549.68	55543.25
549.84	55650.92
550.01	55550.27
550.18	55533.89
550.34	55578.36
550.51	55791.35
550.68	55950.51
550.84	55590.06
551.01	55847.52
551.18	55505.80
551.34	55711.77
551.51	55753.90
551.68	55646.24
551.84	56048.81
552.01	55772.63
552.18	55948.17
552.34	56002.00
552.51	55938.80
552.68	55976.25
552.84	55957.53
553.01	56353.08
553.18	56034.77
553.34	56212.65
553.51	56409.25
553.67	56114.34
553.84	56296.91
554.01	56404.57
554.17	56303.93
554.34	56554.36
554.51	56409.25
554.67	56547.34
554.84	56545.00
555.00	56495.85
555.17	56299.25
555.33	56488.83
555.50	56306.27
555.67	56261.80
555.83	56736.93
556.00	56509.89
556.16	56692.46
556.33	56498.19
556.50	56743.95
556.66	56530.96
556.83	56502.87
556.99	56839.91
557.16	56671.39
557.32	56793.10
557.49	56779.06
557.65	56816.50
557.82	56605.86
557.98	56547.34
558.15	56739.27
558.32	56926.51
558.48	56875.02
558.65	56975.66
558.81	56949.92
558.98	56896.08
559.14	56886.72
559.31	57036.51
559.47	57034.17
559.64	56903.10
559.80	57226.10
559.97	56996.73
560.13	57235.46
560.30	57097.37
560.46	57200.35
560.63	57027.15
560.79	57052.90
560.96	57352.49
561.12	57083.33
561.29	57111.41
561.45	57146.52
561.61	57073.96
561.78	57343.12
561.94	57411.00
562.11	57329.08
562.27	57429.72
562.44	57069.28
562.60	57464.83
562.77	57141.84
562.93	57481.22
563.10	57565.48
563.26	57392.28
563.42	57698.89
563.59	57663.78
563.75	57361.85
563.92	57478.88
564.08	57279.93
564.24	57364.19
564.41	57256.53
564.57	57279.93
564.74	57429.72
564.90	57579.52
565.07	57492.92
565.23	57631.01
565.39	57616.97
565.56	57495.26
565.72	57223.76
565.88	57502.28
566.05	57378.23
566.21	57556.11
566.38	57820.59
566.54	57612.29
566.70	57703.57
566.87	57794.85
567.03	57743.36
567.19	58010.18
567.36	57755.06
567.52	57432.07
567.68	57675.48
567.85	57490.58
568.01	57521.01
568.17	57591.22
568.34	57855.70
568.50	57895.49
568.66	57722.29
568.83	57832.30
568.99	57757.40
569.15	57813.57
569.32	57750.38
569.48	57614.63
569.64	57886.13
569.81	57780.81
569.97	57918.90
570.13	57916.56
570.30	57968.05
570.46	58071.03
570.62	57942.30
570.78	57792.51
570.95	57867.40
571.11	57975.07
571.27	57780.81
571.43	57771.44
571.60	58042.95
571.76	57879.11
571.92	57942.30
572.09	57975.07
572.25	57949.32
572.41	58049.97
572.57	57963.37
572.74	58099.12
572.90	57675.48
573.06	57902.51
573.22	57883.79
573.38	57925.92
573.55	57972.73
573.71	58288.70
573.87	58384.66
574.03	57907.19
574.20	58326.15
574.36	57832.30
574.52	57733.99
574.68	58000.82
574.84	58021.88
575.01	58085.07
575.17	58255.93
575.33	58007.84
575.49	58195.08
575.65	58241.89
575.82	58195.08
575.98	58262.96
576.14	58206.78
576.30	58328.49
576.46	58012.52
576.62	58042.95
576.79	57792.51
576.95	58017.20
577.11	58267.64
577.27	58293.38
577.43	58398.71
577.59	58122.52
577.75	58223.17
577.92	58019.54
578.08	58047.63
578.24	58047.63
578.40	58209.12
578.56	58141.25
578.72	58059.33
578.88	58438.50
579.04	58164.65
579.21	58255.93
579.37	58382.32
579.53	58232.53
579.69	58164.65
579.85	58298.06
580.01	58401.05
580.17	58113.16
580.33	58468.92
580.49	58333.17
580.65	58237.21
580.82	58129.54
580.98	58316.79
581.14	58239.55
581.30	58365.94
581.46	58096.78
581.62	58028.90
581.78	58096.78
581.94	58489.99
582.10	58447.86
582.26	58351.90
582.42	58337.85
582.58	58494.67
582.74	58506.37
582.90	58398.71
583.06	58576.59
583.22	58532.12
583.38	58546.16
583.54	58239.55
583.70	58431.47
583.86	58464.24
584.02	58422.11
584.18	58520.41
584.34	58482.97
584.50	58557.86
584.66	58525.10
584.82	58286.36
584.98	58372.96
585.14	58309.77
585.30	58295.72
585.46	58387.00
585.62	58078.05
585.78	58405.73
585.94	58066.35
586.10	58480.63
586.26	58578.93
586.42	58705.32
586.58	58768.51
586.74	58108.48
586.90	58265.30
587.06	58223.17
587.22	58408.07
587.38	58555.52
587.54	58754.47
587.70	58576.59
587.86	58731.06
588.02	58595.31
588.18	58670.21
588.34	58628.08
588.49	58405.73
588.65	58541.48
588.81	58326.15
588.97	58635.10
589.13	58511.05
589.29	58688.93
589.45	58644.46
