SpectraSuite Data File
++++++++++++++++++++++++++++++++++++
Date: Fri Oct 04 11:48:47 GMT-05:00 2013
User: price-jones
Dark Spectrum Present: No
Reference Spectrum Present: No
Number of Sampled Component Spectra: 1
Spectrometers: USB2+H05261
Integration Time (usec): 100000 (USB2+H05261)
Spectra Averaged: 1 (USB2+H05261)
Boxcar Smoothing: 0 (USB2+H05261)
Correct for Electrical Dark: No (USB2+H05261)
Strobe/Lamp Enabled: No (USB2+H05261)
Correct for Detector Non-linearity: No (USB2+H05261)
Correct for Stray Light: No (USB2+H05261)
Number of Pixels in Processed Spectrum: 2048
>>>>>Begin Processed Spectral Data<<<<<
365.73	4.68
365.92	4.68
366.12	4.68
366.32	0.00
366.52	0.00
366.72	0.00
366.91	0.00
367.11	0.00
367.31	0.00
367.51	0.00
367.70	0.00
367.90	0.00
368.10	0.00
368.30	0.00
368.49	0.00
368.69	0.00
368.89	0.00
369.09	0.00
369.28	0.00
369.48	0.00
369.68	0.00
369.87	0.00
370.07	0.00
370.27	0.00
370.47	114.69
370.66	367.46
370.86	437.68
371.06	442.36
371.25	521.94
371.45	486.83
371.65	486.83
371.84	554.71
372.04	440.02
372.24	491.51
372.44	512.58
372.63	528.96
372.83	594.50
373.03	496.19
373.22	503.22
373.42	479.81
373.62	468.11
373.81	566.41
374.01	575.77
374.21	601.52
374.40	531.30
374.60	662.37
374.79	571.09
374.99	650.67
375.19	613.22
375.38	631.94
375.58	634.29
375.78	702.16
375.97	599.18
376.17	599.18
376.37	723.23
376.56	674.07
376.76	636.63
376.95	662.37
377.15	713.86
377.35	669.39
377.54	674.07
377.74	690.46
377.93	681.10
378.13	720.88
378.33	739.61
378.52	685.78
378.72	795.78
378.91	739.61
379.11	737.27
379.31	772.38
379.50	678.76
379.70	739.61
379.89	746.63
380.09	821.53
380.28	732.59
380.48	835.57
380.68	798.12
380.87	727.91
381.07	837.91
381.26	793.44
381.46	718.54
381.65	866.00
381.85	830.89
382.04	802.80
382.24	816.85
382.43	866.00
382.63	851.96
382.83	837.91
383.02	837.91
383.22	842.59
383.41	858.98
383.61	924.51
383.80	805.14
384.00	952.60
384.19	866.00
384.39	844.93
384.58	936.21
384.78	910.47
384.97	945.58
385.17	964.30
385.36	896.43
385.56	936.21
385.75	915.15
385.95	936.21
386.14	922.17
386.34	912.81
386.53	940.90
386.72	940.90
386.92	1001.75
387.11	1046.22
387.31	1025.15
387.50	1043.88
387.70	971.32
387.89	938.55
388.09	1020.47
388.28	1100.05
388.48	1097.71
388.67	971.32
388.86	1090.69
389.06	1050.90
389.25	1064.94
389.45	1172.61
389.64	1151.54
389.84	1193.67
390.03	1128.14
390.22	1107.07
390.42	1100.05
390.61	1198.35
390.81	1146.86
391.00	1214.74
391.19	1263.89
391.39	1217.08
391.58	1240.48
391.78	1238.14
391.97	1277.93
392.16	1294.32
392.36	1317.72
392.55	1357.51
392.75	1287.29
392.94	1263.89
393.13	1348.15
393.33	1387.94
393.52	1329.42
393.71	1373.89
393.91	1397.30
394.10	1301.34
394.29	1380.92
394.49	1273.25
394.68	1446.45
394.88	1411.34
395.07	1472.20
395.26	1446.45
395.46	1437.09
395.65	1502.62
395.84	1406.66
396.04	1460.49
396.23	1610.29
396.42	1490.92
396.62	1437.09
396.81	1516.67
397.00	1540.07
397.19	1549.43
397.39	1626.67
397.58	1540.07
397.77	1526.03
397.97	1596.25
398.16	1565.82
398.35	1689.87
398.55	1591.56
398.74	1654.76
398.93	1668.80
399.12	1680.50
399.32	1657.10
399.51	1816.26
399.70	1792.85
399.90	1710.93
400.09	1788.17
400.28	1837.32
400.47	1729.66
400.67	1825.62
400.86	1867.75
401.05	1842.00
401.24	1818.60
401.44	1834.98
401.63	1898.17
401.82	1977.75
402.01	1895.83
402.21	1919.24
402.40	1970.73
402.59	2022.22
402.78	1900.52
402.97	1998.82
403.17	2148.61
403.36	2050.31
403.55	2012.86
403.74	2054.99
403.93	2101.80
404.13	2193.08
404.32	2052.65
404.51	2120.53
404.70	2284.36
404.89	2256.28
405.09	2319.47
405.28	2263.30
405.47	2181.38
405.66	2246.91
405.85	2246.91
406.05	2471.61
406.24	2239.89
406.43	2354.58
406.62	2443.52
406.81	2380.32
407.00	2422.45
407.20	2450.54
407.39	2476.29
407.58	2356.92
407.77	2502.03
407.96	2553.52
408.15	2541.82
408.34	2558.21
408.54	2619.06
408.73	2623.74
408.92	2588.63
409.11	2715.02
409.30	2736.09
409.49	2642.46
409.68	2654.17
409.87	2717.36
410.07	2928.01
410.26	2937.37
410.45	2874.18
410.64	2829.71
410.83	2815.66
411.02	2836.73
411.21	2965.46
411.40	2953.76
411.59	3052.06
411.78	2988.86
411.98	2995.89
412.17	3148.02
412.36	3133.98
412.55	3194.83
412.74	3321.22
412.93	3190.15
413.12	3206.53
413.31	3323.56
413.50	3353.99
413.69	3459.31
413.88	3414.84
414.07	3529.53
414.26	3407.82
414.45	3548.25
414.64	3550.59
414.83	3672.30
415.02	3597.40
415.22	3754.22
415.41	3684.00
415.60	3794.01
415.79	3707.41
415.98	3815.07
416.17	3714.43
416.36	3829.12
416.55	3892.31
416.74	3861.88
416.93	3882.95
417.12	3927.42
417.31	3915.72
417.50	3974.23
417.69	4219.99
417.88	4194.24
418.07	4086.58
418.26	4042.11
418.45	4208.28
418.64	4264.46
418.83	4320.63
419.02	4168.49
419.21	4191.90
419.39	4264.46
419.58	4196.58
419.77	4227.01
419.96	4287.86
420.15	4479.79
420.34	4411.91
420.53	4461.06
420.72	4411.91
420.91	4418.93
421.10	4418.93
421.29	4748.95
421.48	4435.32
421.67	4636.60
421.86	4545.32
422.05	4767.67
422.24	4762.99
422.43	4601.49
422.61	4734.90
422.80	4720.86
422.99	4779.37
423.18	4805.12
423.37	4741.93
423.56	4746.61
423.75	4809.80
423.94	4748.95
424.13	4526.60
424.32	4671.71
424.50	4910.44
424.69	4933.85
424.88	4788.74
425.07	4627.24
425.26	4624.90
425.45	4851.93
425.64	4795.76
425.83	4868.31
426.01	4959.60
426.20	4835.55
426.39	4842.57
426.58	4919.81
426.77	4856.61
426.96	5088.32
427.15	4931.51
427.33	4858.95
427.52	5104.71
427.71	4959.60
427.90	5039.17
428.09	5181.95
428.28	5167.90
428.46	5137.48
428.65	5069.60
428.84	5387.91
429.03	5359.83
429.22	5135.14
429.40	5413.66
429.59	5315.36
429.78	5074.28
429.97	5123.43
430.16	5369.19
430.34	5413.66
430.53	5387.91
430.72	5437.06
430.91	5385.57
431.10	5460.47
431.28	5584.52
431.47	5507.28
431.66	5708.57
431.85	5610.26
432.03	5650.05
432.22	5884.11
432.41	5565.79
432.60	5729.63
432.79	5792.83
432.97	5881.77
433.16	5788.14
433.35	5888.79
433.54	5809.21
433.72	5975.39
433.91	5802.19
434.10	5966.03
434.28	5947.30
434.47	6104.12
434.66	6129.86
434.85	6108.80
435.03	6148.59
435.22	6054.97
435.41	6328.81
435.59	6286.68
435.78	6155.61
435.97	6249.23
436.16	6373.28
436.34	6171.99
436.53	6274.98
436.72	6389.66
436.90	6223.48
437.09	6562.86
437.28	6230.51
437.46	6361.58
437.65	6356.90
437.84	6621.38
438.02	6420.09
438.21	6459.88
438.40	6445.84
438.58	7019.27
438.77	6871.81
438.96	6750.10
439.14	6822.66
439.33	7030.97
439.52	6965.43
439.70	7030.97
439.89	7152.68
440.08	7342.26
440.26	7000.54
440.45	7040.33
440.63	7145.66
440.82	7414.82
441.01	7428.86
441.19	7428.86
441.38	7288.43
441.57	7461.63
441.75	7705.04
441.94	7887.61
442.12	7747.17
442.31	7971.86
442.50	7925.05
442.68	7754.19
442.87	7889.95
443.05	7967.18
443.24	8018.68
443.43	7793.98
443.61	8095.91
443.80	8304.22
443.98	7850.16
444.17	7751.85
444.35	8173.15
444.54	8271.45
444.73	8264.43
444.91	8166.13
445.10	8262.09
445.28	8074.85
445.47	7978.89
445.65	8039.74
445.84	8290.18
446.02	8290.18
446.21	8238.69
446.39	8161.45
446.58	8189.53
446.77	8306.56
446.95	8138.04
447.14	8381.46
447.32	8313.58
447.51	8332.31
447.69	8383.80
447.88	8463.38
448.06	8231.66
448.25	8201.24
448.43	8301.88
448.62	8318.26
448.80	8416.57
448.99	8491.46
449.17	8594.45
449.36	8432.95
449.54	8798.07
449.73	8772.33
449.91	8622.53
450.10	8835.52
450.28	8842.54
450.46	8720.84
450.65	8959.57
450.83	9011.06
451.02	8954.89
451.20	8985.32
451.39	8997.02
451.57	8987.66
451.76	8884.67
451.94	8870.63
452.13	9102.34
452.31	8854.25
452.49	9121.07
452.68	9219.37
452.86	9188.94
453.05	9083.62
453.23	9198.31
453.42	9074.26
453.60	9076.60
453.78	9268.52
453.97	9130.43
454.15	9362.14
454.34	9315.33
454.52	9547.05
454.70	9266.18
454.89	9467.47
455.07	9486.19
455.26	9680.46
455.44	9841.95
455.62	9504.92
455.81	9619.60
455.99	9722.59
456.17	9811.53
456.36	9933.23
456.54	10132.18
456.73	10031.54
456.91	10232.82
457.09	10211.76
457.28	10399.00
457.46	10010.47
457.64	10274.95
457.83	10356.87
458.01	10125.16
458.19	10459.85
458.38	10410.70
458.56	10427.09
458.74	10534.75
458.93	10525.39
459.11	10485.60
459.29	10328.78
459.48	10710.29
459.66	10630.71
459.84	10743.06
460.03	10897.53
460.21	10581.56
460.39	10857.75
460.57	10443.47
460.76	10885.83
460.94	10984.13
461.12	10878.81
461.31	10977.11
461.49	11082.44
461.67	10853.06
461.85	11307.13
462.04	11133.93
462.22	11829.07
462.40	11283.72
462.59	11087.12
462.77	11206.48
462.95	11314.15
463.13	11520.12
463.32	11372.66
463.50	11461.60
463.68	11599.70
463.86	11510.75
464.05	11243.93
464.23	11527.14
464.41	11515.44
464.59	11176.06
464.78	11702.68
464.96	11571.61
465.14	11726.08
465.32	11829.07
465.50	11829.07
465.69	11981.20
465.87	11789.28
466.05	11836.09
466.23	11864.18
466.41	12058.44
466.60	12369.73
466.78	11833.75
466.96	12016.31
467.14	12152.06
467.32	12283.13
467.51	12257.39
467.69	12100.57
467.87	12081.85
468.05	12222.28
468.23	12262.07
468.41	12194.19
468.60	12472.71
468.78	12624.85
468.96	12126.32
469.14	12400.16
469.32	12538.25
469.50	12140.36
469.69	12952.52
469.87	12765.28
470.05	12868.27
470.23	12868.27
470.41	12863.58
470.59	13076.57
470.77	13067.21
470.95	13099.98
471.14	13184.24
471.32	12683.36
471.50	13329.35
471.68	13504.89
471.86	13359.78
472.04	13399.57
472.22	13645.32
472.40	13488.51
472.58	13914.48
472.77	13654.69
472.95	13947.25
473.13	14333.44
473.31	13652.34
473.49	13767.03
473.67	14155.56
473.85	13916.83
474.03	14246.84
474.21	14406.00
474.39	14359.19
474.57	14490.26
474.75	14593.24
474.93	14656.43
475.12	14623.67
475.30	14633.03
475.48	14682.18
475.66	14839.00
475.84	14796.87
476.02	14953.68
476.20	15136.24
476.38	15211.14
476.56	15550.52
476.74	15896.92
476.92	15559.88
477.10	15845.43
477.28	15864.15
477.46	16067.78
477.64	15985.86
477.82	16280.77
478.00	16615.46
478.18	16685.68
478.36	16840.15
478.54	16711.42
478.72	16903.35
478.90	17099.95
479.08	16987.61
479.26	17453.37
479.44	17343.37
479.62	17628.92
479.80	17649.98
479.98	17671.04
480.16	17998.72
480.34	18075.96
480.52	18508.96
480.70	18286.61
480.88	18164.90
481.06	18466.83
481.24	18333.42
481.41	18745.35
481.59	18911.53
481.77	19054.30
481.95	19243.88
482.13	19456.87
482.31	19515.39
482.49	19740.08
482.67	19910.94
482.85	20161.37
483.03	20475.01
483.21	20702.04
483.39	20847.15
483.57	20446.92
483.74	20882.26
483.92	21050.78
484.10	20910.35
484.28	21544.63
484.46	21635.91
484.64	21893.37
484.82	21523.57
485.00	21790.39
485.18	22363.82
485.35	22663.41
485.53	22768.73
485.71	22551.06
485.89	22995.76
486.07	22771.07
486.25	22824.90
486.43	23164.28
486.61	23599.62
486.78	23679.20
486.96	23873.46
487.14	24292.42
487.32	24269.01
487.50	24779.25
487.68	24790.95
487.85	25160.76
488.03	25130.33
488.21	25553.97
488.39	25518.86
488.57	25598.44
488.75	25591.42
488.92	26157.83
489.10	26342.73
489.28	26359.11
489.46	26918.50
489.64	26785.09
489.81	27014.46
489.99	27129.15
490.17	27620.66
490.35	27894.50
490.53	27667.47
490.70	28315.80
490.88	28095.79
491.06	28706.67
491.24	28514.75
491.41	28428.15
491.59	28837.74
491.77	29102.22
491.95	29006.26
492.13	29092.86
492.30	29422.87
492.48	29570.33
492.66	29827.79
492.84	29670.97
493.01	30511.22
493.19	30752.30
493.37	31117.42
493.54	30572.08
493.72	31140.83
493.90	31077.63
494.08	31435.74
494.25	31899.16
494.43	32020.87
494.61	31791.50
494.79	32177.68
494.96	32070.02
495.14	32385.99
495.32	32954.74
495.49	32851.76
495.67	33050.70
495.85	33294.12
496.02	33422.85
496.20	33500.09
496.38	33666.27
496.55	33638.18
496.73	34213.95
496.91	34518.22
497.09	34237.36
497.26	34646.95
497.44	34356.72
497.62	34548.65
497.79	35269.53
497.97	34859.94
498.14	35321.02
498.32	36074.68
498.50	35529.33
498.67	35999.78
498.85	35702.53
499.03	36175.32
499.20	36247.88
499.38	36250.22
499.56	37085.79
499.73	36680.88
499.91	37258.99
500.08	37071.75
500.26	36989.83
500.44	37581.98
500.61	37486.02
500.79	37457.93
500.97	37830.08
501.14	38403.51
501.32	38153.07
501.49	37750.50
501.67	37996.26
501.84	38263.08
502.02	38396.49
502.20	38394.15
502.37	38958.22
502.55	38878.64
502.72	38920.77
502.90	38852.89
503.07	38979.28
503.25	39381.85
503.43	39115.03
503.60	40065.29
503.78	39995.07
503.95	39959.97
504.13	40058.27
504.30	40018.48
504.48	39999.76
504.65	40126.14
504.83	40713.62
505.01	41209.81
505.18	41163.00
505.36	41221.52
505.53	41179.39
505.71	40985.12
505.88	41755.16
506.06	41015.55
506.23	41486.00
506.41	41509.40
506.58	41783.24
506.76	41680.26
506.93	42059.43
507.11	41895.59
507.28	42167.09
507.46	42110.92
507.63	42876.27
507.81	42536.90
507.98	42501.79
508.16	43049.47
508.33	42658.60
508.50	43475.45
508.68	43407.58
508.85	43672.06
509.03	43442.68
509.20	43573.75
509.38	43786.74
509.55	44245.49
509.73	43952.92
509.90	43910.79
510.08	44058.24
510.25	43924.83
510.42	44619.97
510.60	44261.87
510.77	44980.42
510.95	44753.38
511.12	44491.24
511.30	44617.63
511.47	45043.61
511.64	44924.24
511.82	45528.10
511.99	45315.11
512.17	45212.13
512.34	45495.33
512.51	45998.55
512.69	45741.09
512.86	45993.87
513.04	46204.52
513.21	46333.24
513.38	46658.58
513.56	46593.04
513.73	46298.14
513.90	46361.33
514.08	46527.51
514.25	47150.09
514.43	46703.05
514.60	47014.34
514.77	46857.52
514.95	47377.12
515.12	47166.48
515.29	47056.47
515.47	47342.02
515.64	47793.74
515.81	47533.94
515.99	47573.73
516.16	48177.59
516.33	48119.07
516.51	48053.54
516.68	47819.49
516.85	47784.38
517.03	48484.20
517.20	48493.56
517.37	48182.27
517.54	48500.58
517.72	48350.79
517.89	48514.62
518.06	48566.12
518.24	48549.73
518.41	48762.72
518.58	48968.69
518.75	48982.73
518.93	49441.48
519.10	49022.52
519.27	49434.45
519.45	49326.79
519.62	49432.11
519.79	49570.21
519.96	49432.11
520.14	50234.92
520.31	49900.22
520.48	50066.40
520.65	49844.05
520.83	50209.17
521.00	49930.65
521.17	50220.87
521.34	50153.00
521.52	50497.06
521.69	50623.45
521.86	50635.15
522.03	50464.29
522.20	50380.03
522.38	51054.11
522.55	50827.07
522.72	50742.81
522.89	51217.94
523.07	51426.25
523.24	51138.36
523.41	51262.41
523.58	50967.51
523.75	51386.46
523.92	51290.50
524.10	51227.31
524.27	51613.49
524.44	51711.80
524.61	51751.59
524.78	51704.77
524.96	52074.58
525.13	51718.82
525.30	51894.36
525.47	51971.60
525.64	51892.02
525.81	52285.23
525.98	52229.05
526.16	52317.99
526.33	52285.23
526.50	52357.78
526.67	52144.80
526.84	52507.58
527.01	52458.43
527.18	52776.74
527.36	52959.30
527.53	52954.62
527.70	52940.58
527.87	53076.33
528.04	52781.42
528.21	53036.54
528.38	52924.19
528.55	53228.46
528.72	53202.72
528.89	53448.47
529.07	53277.61
529.24	53106.76
529.41	53340.81
529.58	53097.39
529.75	53198.04
529.92	53209.74
530.09	53411.02
530.26	53492.94
530.43	53483.58
530.60	53256.55
530.77	53485.92
530.94	53619.33
531.11	53382.94
531.28	53183.99
531.46	53621.67
531.63	53897.86
531.80	54017.22
531.97	54108.50
532.14	54045.31
532.31	53993.82
532.48	53855.73
532.65	54019.56
532.82	54082.76
532.99	54078.08
533.16	54326.17
533.33	54515.76
533.50	54707.68
533.67	54459.58
533.84	54251.28
534.01	54520.44
534.18	54234.89
534.35	54471.29
534.52	54543.84
534.69	54810.67
534.86	55007.27
535.03	54726.41
535.20	55128.98
535.37	54740.45
535.54	55082.17
535.71	55164.09
535.88	54908.97
536.05	55030.68
536.22	55072.81
536.38	55220.26
536.55	54997.91
536.72	55306.86
536.89	55114.94
537.06	55238.98
537.23	55318.56
537.40	55119.62
537.57	55100.89
537.74	55206.22
537.91	55657.94
538.08	55564.32
538.25	55379.42
538.42	55316.22
538.59	55629.85
538.75	55161.75
538.92	55421.55
539.09	55814.76
539.26	55901.36
539.43	55536.23
539.60	55735.18
539.77	55643.90
539.94	55964.55
540.11	55615.81
540.28	56107.32
540.44	55889.65
540.61	55744.54
540.78	55753.90
540.95	56083.92
541.12	56072.21
541.29	56112.00
541.46	55985.61
541.62	56076.90
541.79	56247.75
541.96	56165.84
542.13	56369.46
542.30	56456.06
542.47	56552.02
542.63	56528.62
542.80	56521.60
542.97	56837.57
543.14	56739.27
543.31	56680.75
543.48	56664.37
543.64	56669.05
543.81	56931.19
543.98	57120.77
544.15	56753.31
544.32	56889.06
544.48	57324.40
544.65	56889.06
544.82	56940.55
544.99	56781.40
545.16	57158.22
545.32	56982.68
545.49	57179.29
545.66	57474.20
545.83	57317.38
546.00	57476.54
546.16	57153.54
546.33	57069.28
546.50	57123.11
546.67	57240.14
546.83	56980.34
547.00	57336.10
547.17	57198.01
547.34	57322.06
547.50	57579.52
547.67	57387.60
547.84	57546.75
548.00	57666.12
548.17	57565.48
548.34	57523.35
548.51	57401.64
548.67	57663.78
548.84	57895.49
549.01	57572.50
549.18	57773.78
549.34	57762.08
549.51	57696.55
549.68	57783.15
549.84	57570.16
550.01	57804.21
550.18	57818.25
550.34	58052.31
550.51	57904.85
550.68	58096.78
550.84	57698.89
551.01	57942.30
551.18	57886.13
551.34	57914.22
551.51	57916.56
551.68	58300.40
551.84	58103.80
552.01	57939.96
552.18	58351.90
552.34	58101.46
552.51	58473.60
552.68	58155.29
552.84	58171.67
553.01	58426.79
553.18	58192.74
553.34	58454.88
553.51	58225.51
553.67	58518.07
553.84	58717.02
554.01	58536.80
554.17	58513.39
554.34	58197.42
554.51	58431.47
554.67	58777.87
554.84	58489.99
555.00	58457.22
555.17	58401.05
555.33	58646.80
555.50	58576.59
555.67	58562.54
555.83	58492.33
556.00	58588.29
556.16	58824.68
556.33	58759.15
556.50	58656.17
556.66	58642.12
556.83	58829.37
556.99	58871.49
557.16	58850.43
557.32	58988.52
557.49	59063.42
557.65	58939.37
557.82	58686.59
557.98	58918.31
558.15	58759.15
558.32	59014.27
558.48	58775.53
558.65	58993.20
558.81	59002.56
558.98	59110.23
559.14	59175.76
559.31	58670.21
559.47	58976.82
559.64	58841.07
559.80	59316.20
559.97	59215.55
560.13	59044.69
560.30	59285.77
560.46	59419.18
560.63	59260.02
560.79	59255.34
560.96	59269.39
561.12	59126.61
561.29	59107.89
561.45	59213.21
561.61	59168.74
561.78	59414.50
561.94	59189.81
562.11	59320.88
562.27	59311.52
562.44	59276.41
562.60	59274.07
562.77	59384.07
562.93	59435.56
563.10	59779.62
563.26	59444.93
563.42	59559.61
563.59	59571.32
563.75	59414.50
563.92	59470.67
564.08	59423.86
564.24	59320.88
564.41	59384.07
564.57	59444.93
564.74	59407.48
564.90	59566.63
565.07	59594.72
565.23	59601.74
565.39	59508.12
565.56	59742.17
565.72	59461.31
565.88	59512.80
566.05	59405.14
566.21	59416.84
566.38	59395.77
566.54	59660.26
566.70	59730.47
566.87	59814.73
567.03	59707.07
567.19	59880.27
567.36	59903.67
567.52	59697.70
567.68	59903.67
567.85	59576.00
568.01	59800.69
568.17	59641.53
568.34	59819.41
568.50	59767.92
568.66	59817.07
568.83	59737.49
568.99	59587.70
569.15	59758.56
569.32	59721.11
569.48	59618.13
569.64	59845.16
569.81	59735.15
569.97	59976.23
570.13	59812.39
570.30	60013.68
570.46	59887.29
570.62	59751.54
570.78	59812.39
570.95	59863.88
571.11	59873.24
571.27	59849.84
571.43	59884.95
571.60	59840.48
571.76	59765.58
571.92	60016.02
572.09	60123.68
572.25	59786.64
572.41	59929.42
572.57	59875.58
572.74	60009.00
572.90	59992.61
573.06	59987.93
573.22	59826.43
573.38	60072.19
573.55	60051.12
573.71	60205.60
573.87	60193.90
574.03	59831.11
574.20	59931.76
574.36	59861.54
574.52	59929.42
574.68	59938.78
574.84	60100.28
575.01	60282.84
575.17	60172.83
575.33	59957.50
575.49	60037.08
575.65	60189.22
575.82	60039.42
575.98	60126.02
576.14	60093.25
576.30	60231.35
576.46	60030.06
576.62	60020.70
576.79	59906.01
576.95	59849.84
577.11	60053.47
577.27	60128.36
577.43	60018.36
577.59	60072.19
577.75	59980.91
577.92	59964.52
578.08	60074.53
578.24	60074.53
578.40	60308.58
578.56	59906.01
578.72	60196.24
578.88	60327.31
579.04	60119.00
579.21	59906.01
579.37	60009.00
579.53	60217.30
579.69	60016.02
579.85	60135.38
580.01	60214.96
580.17	60210.28
580.33	60268.79
580.49	60081.55
580.65	60203.26
580.82	60488.80
580.98	60378.80
581.14	60285.18
581.30	60275.82
581.46	60069.85
581.62	60306.24
581.78	60104.96
581.94	60207.94
582.10	60224.32
582.26	60119.00
582.42	60203.26
582.58	60434.97
582.74	60259.43
582.90	60404.55
583.06	60430.29
583.22	60217.30
583.38	60252.41
583.54	60285.18
583.70	60186.88
583.86	60467.74
584.02	60266.45
584.18	60556.68
584.34	60434.97
584.50	60362.42
584.66	60423.27
584.82	60306.24
584.98	60334.33
585.14	60252.41
585.30	60198.58
585.46	60353.05
585.62	60355.39
585.78	60762.65
585.94	60165.81
586.10	60189.22
586.26	60437.31
586.42	60402.21
586.58	60458.38
586.74	60378.80
586.90	60411.57
587.06	60413.91
587.22	60392.84
587.38	60292.20
587.54	60343.69
587.70	60477.10
587.86	60544.98
588.02	60369.44
588.18	60299.22
588.34	60395.18
588.49	60371.78
588.65	60308.58
588.81	60074.53
588.97	60392.84
589.13	60392.84
