SpectraSuite Data File
++++++++++++++++++++++++++++++++++++
Date: Fri Oct 04 11:48:41 GMT-05:00 2013
User: price-jones
Dark Spectrum Present: No
Reference Spectrum Present: No
Number of Sampled Component Spectra: 1
Spectrometers: USB2+H05261
Integration Time (usec): 100000 (USB2+H05261)
Spectra Averaged: 1 (USB2+H05261)
Boxcar Smoothing: 0 (USB2+H05261)
Correct for Electrical Dark: No (USB2+H05261)
Strobe/Lamp Enabled: No (USB2+H05261)
Correct for Detector Non-linearity: No (USB2+H05261)
Correct for Stray Light: No (USB2+H05261)
Number of Pixels in Processed Spectrum: 2048
>>>>>Begin Processed Spectral Data<<<<<
365.73	4.68
365.92	4.68
366.12	4.68
366.32	0.00
366.52	0.00
366.72	0.00
366.91	0.00
367.11	0.00
367.31	0.00
367.51	0.00
367.70	0.00
367.90	0.00
368.10	0.00
368.30	0.00
368.49	0.00
368.69	0.00
368.89	0.00
369.09	0.00
369.28	9.36
369.48	0.00
369.68	0.00
369.87	0.00
370.07	0.00
370.27	30.43
370.47	140.43
370.66	393.21
370.86	367.46
371.06	470.45
371.25	458.74
371.45	418.96
371.65	491.51
371.84	458.74
372.04	482.15
372.24	486.83
372.44	505.56
372.63	437.68
372.83	528.96
373.03	559.39
373.22	477.47
373.42	535.98
373.62	571.09
373.81	613.22
374.01	531.30
374.21	571.09
374.40	678.76
374.60	657.69
374.79	564.07
374.99	702.16
375.19	653.01
375.38	671.73
375.58	571.09
375.78	636.63
375.97	564.07
376.17	755.99
376.37	662.37
376.56	690.46
376.76	678.76
376.95	702.16
377.15	671.73
377.35	751.31
377.54	617.90
377.74	706.84
377.93	695.14
378.13	725.57
378.33	779.40
378.52	739.61
378.72	763.01
378.91	734.93
379.11	774.72
379.31	711.52
379.50	711.52
379.70	753.65
379.89	842.59
380.09	706.84
380.28	734.93
380.48	821.53
380.68	875.36
380.87	788.76
381.07	805.14
381.26	931.53
381.46	898.77
381.65	866.00
381.85	887.06
382.04	903.45
382.24	873.02
382.43	912.81
382.63	826.21
382.83	910.47
383.02	926.85
383.22	922.17
383.41	917.49
383.61	812.17
383.80	896.43
384.00	945.58
384.19	908.13
384.39	992.39
384.58	985.37
384.78	957.28
384.97	947.92
385.17	894.08
385.36	889.40
385.56	945.58
385.75	931.53
385.95	940.90
386.14	964.30
386.34	954.94
386.53	976.00
386.72	1001.75
386.92	980.68
387.11	1050.90
387.31	1057.92
387.50	1086.01
387.70	1116.44
387.89	1128.14
388.09	1022.81
388.28	1177.29
388.48	1095.37
388.67	1102.39
388.86	1135.16
389.06	1170.27
389.25	1142.18
389.45	1100.05
389.64	1109.41
389.84	1163.25
390.03	1210.06
390.22	1125.80
390.42	1177.29
390.61	1224.10
390.81	1132.82
391.00	1240.48
391.19	1228.78
391.39	1142.18
391.58	1193.67
391.78	1259.21
391.97	1210.06
392.16	1245.16
392.36	1296.66
392.55	1423.05
392.75	1394.96
392.94	1275.59
393.13	1207.72
393.33	1352.83
393.52	1334.11
393.71	1313.04
393.91	1397.30
394.10	1331.76
394.29	1465.18
394.49	1432.41
394.68	1373.89
394.88	1537.73
395.07	1416.02
395.26	1519.01
395.46	1423.05
395.65	1460.49
395.84	1575.18
396.04	1584.54
396.23	1540.07
396.42	1584.54
396.62	1657.10
396.81	1654.76
397.00	1647.74
397.19	1554.12
397.39	1575.18
397.58	1605.61
397.77	1579.86
397.97	1755.40
398.16	1668.80
398.35	1582.20
398.55	1577.52
398.74	1713.27
398.93	1778.81
399.12	1724.97
399.32	1643.06
399.51	1732.00
399.70	1696.89
399.90	1799.87
400.09	1771.79
400.28	1863.07
400.47	1795.19
400.67	1949.67
400.86	1893.49
401.05	1858.39
401.24	1893.49
401.44	1914.56
401.63	1933.28
401.82	1987.11
402.01	1888.81
402.21	1877.11
402.40	1942.64
402.59	1961.37
402.78	1952.01
402.97	2087.76
403.17	2111.16
403.36	2108.82
403.55	2104.14
403.74	2115.84
403.93	2099.46
404.13	2223.51
404.32	2160.31
404.51	2165.00
404.70	2270.32
404.89	2165.00
405.09	2249.25
405.28	2239.89
405.47	2267.98
405.66	2293.72
405.85	2275.00
406.05	2420.11
406.24	2284.36
406.43	2399.05
406.62	2483.31
406.81	2537.14
407.00	2455.22
407.20	2370.96
407.39	2457.56
407.58	2544.16
407.77	2422.45
407.96	2469.27
408.15	2553.52
408.34	2628.42
408.54	2534.80
408.73	2717.36
408.92	2691.62
409.11	2675.23
409.30	2677.57
409.49	2619.06
409.68	2642.46
409.87	2698.64
410.07	2825.03
410.26	2813.32
410.45	2803.96
410.64	2841.41
410.83	2864.82
411.02	2850.77
411.21	2958.44
411.40	2796.94
411.59	2939.71
411.78	2986.52
411.98	3014.61
412.17	3136.32
412.36	3112.91
412.55	3183.13
412.74	3119.93
412.93	3131.64
413.12	3293.13
413.31	3286.11
413.50	3302.50
413.69	3255.69
413.88	3300.16
414.07	3342.28
414.26	3375.05
414.45	3365.69
414.64	3480.38
414.83	3475.70
415.02	3529.53
415.22	3475.70
415.41	3602.08
415.60	3702.73
415.79	3564.64
415.98	3667.62
416.17	3719.11
416.36	3630.17
416.55	3688.68
416.74	3714.43
416.93	3892.31
417.12	3896.99
417.31	4028.06
417.50	3948.48
417.69	4009.34
417.88	4011.68
418.07	4105.30
418.26	4049.13
418.45	4109.98
418.64	4229.35
418.83	4255.09
419.02	4135.73
419.21	4166.15
419.39	4177.86
419.58	4198.92
419.77	4124.02
419.96	4287.86
420.15	4252.75
420.34	4313.61
420.53	4451.70
420.72	4559.36
420.91	4458.72
421.10	4514.89
421.29	4482.13
421.48	4329.99
421.67	4531.28
421.86	4390.84
422.05	4594.47
422.24	4521.92
422.43	4505.53
422.61	4479.79
422.80	4650.64
422.99	4542.98
423.18	4585.11
423.37	4624.90
423.56	4585.11
423.75	4482.13
423.94	4542.98
424.13	4308.93
424.32	4395.53
424.50	4660.01
424.69	4840.23
424.88	4725.54
425.07	4613.20
425.26	4564.04
425.45	4615.54
425.64	4655.33
425.83	4739.58
426.01	4751.29
426.20	4819.16
426.39	4774.69
426.58	4798.10
426.77	4681.07
426.96	4667.03
427.15	4823.84
427.33	4828.53
427.52	4781.71
427.71	4854.27
427.90	5029.81
428.09	5057.90
428.28	4917.47
428.46	4983.00
428.65	5174.92
428.84	5067.26
429.03	5081.30
429.22	4968.96
429.40	5221.74
429.59	5050.88
429.78	5219.39
429.97	5043.85
430.16	5043.85
430.34	5109.39
430.53	5324.72
430.72	5364.51
430.91	5308.34
431.10	5287.27
431.28	5231.10
431.47	5373.87
431.66	5549.41
431.85	5418.34
432.03	5423.02
432.22	5720.27
432.41	5661.76
432.60	5593.88
432.79	5586.86
432.97	5650.05
433.16	5708.57
433.35	5720.27
433.54	5682.82
433.72	5776.44
433.91	5762.40
434.10	5727.29
434.28	5731.97
434.47	5748.36
434.66	5902.83
434.85	5837.30
435.03	5865.38
435.22	5898.15
435.41	6303.06
435.59	6047.94
435.78	6113.48
435.97	6122.84
436.16	6029.22
436.34	6059.65
436.53	6218.80
436.72	6122.84
436.90	6104.12
437.09	6235.19
437.28	6303.06
437.46	6134.54
437.65	6160.29
437.84	6399.02
438.02	6469.24
438.21	6377.96
438.40	6396.68
438.58	6464.56
438.77	6586.27
438.96	6623.72
439.14	6700.95
439.33	6604.99
439.52	6715.00
439.70	6707.98
439.89	6810.96
440.08	6888.20
440.26	6813.30
440.45	6960.75
440.63	7002.88
440.82	7084.80
441.01	7037.99
441.19	7248.64
441.38	7365.67
441.57	7431.20
441.75	7276.73
441.94	7475.67
442.12	7571.63
442.31	7658.23
442.50	7592.70
442.68	7461.63
442.87	7569.29
443.05	7688.66
443.24	7665.25
443.43	7714.41
443.61	7911.01
443.80	8013.99
443.98	7627.81
444.17	7440.56
444.35	8006.97
444.54	8138.04
444.73	7882.92
444.91	8011.65
445.10	7964.84
445.28	8006.97
445.47	7789.30
445.65	7911.01
445.84	7908.67
446.02	7953.14
446.21	7875.90
446.39	8030.38
446.58	8168.47
446.77	8100.59
446.95	7962.50
447.14	7908.67
447.32	8051.44
447.51	8004.63
447.69	8124.00
447.88	8037.40
448.06	8208.26
448.25	7969.52
448.43	8142.72
448.62	8168.47
448.80	8152.09
448.99	8051.44
449.17	8318.26
449.36	8273.79
449.54	8425.93
449.73	8407.20
449.91	8674.03
450.10	8421.25
450.28	8690.41
450.46	8659.98
450.65	8777.01
450.83	8580.40
451.02	8613.17
451.20	8826.16
451.39	8809.78
451.57	8702.11
451.76	8683.39
451.94	8872.97
452.13	9057.87
452.31	8819.14
452.49	8875.31
452.68	8800.41
452.86	8732.54
453.05	9078.94
453.23	8992.34
453.42	8760.63
453.60	8971.27
453.78	9200.65
453.97	8982.98
454.15	9104.68
454.34	9181.92
454.52	9310.65
454.70	9263.84
454.89	9378.53
455.07	9598.54
455.26	9542.36
455.44	9586.83
455.62	9453.42
455.81	9439.38
455.99	9533.00
456.17	9579.81
456.36	9516.62
456.54	9729.61
456.73	9603.22
456.91	10132.18
457.09	10080.69
457.28	10132.18
457.46	9797.48
457.64	9867.70
457.83	9944.94
458.01	9951.96
458.19	10106.43
458.38	10078.35
458.56	10263.25
458.74	10204.74
458.93	10136.86
459.11	10080.69
459.29	10064.30
459.48	10326.44
459.66	10279.63
459.84	10303.04
460.03	10827.32
460.21	10441.13
460.39	10436.45
460.57	10312.40
460.76	10555.82
460.94	10473.90
461.12	10553.48
461.31	10663.48
461.49	10721.99
461.67	10736.04
461.85	10911.58
462.04	10939.66
462.22	11190.10
462.40	10930.30
462.59	10965.41
462.77	11044.99
462.95	11091.80
463.13	11138.61
463.32	11286.06
463.50	11150.31
463.68	11103.50
463.86	11220.53
464.05	11133.93
464.23	11101.16
464.41	11440.54
464.59	10918.60
464.78	11672.25
464.96	11351.60
465.14	11145.63
465.32	11452.24
465.50	11751.83
465.69	11662.89
465.87	11447.56
466.05	11400.75
466.23	11648.85
466.41	11510.75
466.60	11908.65
466.78	11641.82
466.96	11660.55
467.14	11576.29
467.32	11716.72
467.51	11950.78
467.69	11583.31
467.87	11833.75
468.05	11999.93
468.23	11964.82
468.41	11838.43
468.60	12100.57
468.78	12301.86
468.96	11847.79
469.14	12079.50
469.32	12219.94
469.50	12168.45
469.69	12416.54
469.87	12751.24
470.05	12421.22
470.23	12699.75
470.41	12528.89
470.59	12683.36
470.77	12566.34
470.95	12730.17
471.14	12865.92
471.32	12641.23
471.50	13069.55
471.68	13081.25
471.86	13156.15
472.04	13415.95
472.22	13224.03
472.40	13266.16
472.58	13420.63
472.77	13224.03
472.95	13530.64
473.13	13855.97
473.31	13406.59
473.49	13474.46
473.67	13603.19
473.85	13687.45
474.03	13919.17
474.21	13956.61
474.39	13851.29
474.57	14146.20
474.75	14260.88
474.93	14249.18
475.12	14328.76
475.30	14600.26
475.48	14485.58
475.66	14551.11
475.84	14733.67
476.02	14806.23
476.20	14764.10
476.38	15068.37
476.56	15091.77
476.74	15445.20
476.92	15283.70
477.10	15367.96
477.28	15508.39
477.46	15412.43
477.64	15946.07
477.82	15974.16
478.00	15957.77
478.18	16259.70
478.36	16540.57
478.54	16411.84
478.72	16685.68
478.90	16884.62
479.08	16582.70
479.26	17067.19
479.44	16844.84
479.62	17153.79
479.80	17394.86
479.98	17547.00
480.16	17741.26
480.34	17532.95
480.52	18260.86
480.70	17774.03
480.88	17891.06
481.06	18195.32
481.24	18061.91
481.41	18738.33
481.59	18438.74
481.77	18813.23
481.95	18766.42
482.13	19199.41
482.31	19300.06
482.49	19260.27
482.67	19372.61
482.85	19653.48
483.03	19934.34
483.21	20231.59
483.39	20011.58
483.57	20166.06
483.74	20432.88
483.92	20388.41
484.10	20659.91
484.28	20856.51
484.46	21329.30
484.64	21404.20
484.82	21310.58
485.00	21408.88
485.18	21853.58
485.35	22207.00
485.53	21949.54
485.71	22324.03
485.89	22506.59
486.07	22661.07
486.25	22665.75
486.43	22742.99
486.61	23040.23
486.78	23449.83
486.96	23564.51
487.14	23981.13
487.32	23955.38
487.50	24126.24
487.68	24088.79
487.85	24376.68
488.03	24912.66
488.21	25015.65
488.39	25500.14
488.57	25362.04
488.75	25357.36
488.92	25486.09
489.10	25818.45
489.28	25979.95
489.46	26132.08
489.64	26195.28
489.81	26654.02
489.99	26618.91
490.17	26576.78
490.35	27374.91
490.53	27424.06
490.70	27693.22
490.88	27580.87
491.06	28070.04
491.24	27840.67
491.41	28058.34
491.59	28570.92
491.77	28297.08
491.95	28809.65
492.13	28898.59
492.30	28957.11
492.48	29083.50
492.66	28854.12
492.84	28854.12
493.01	29638.20
493.19	30122.69
493.37	30129.72
493.54	30429.30
493.72	30499.52
493.90	30359.09
494.08	30536.97
494.25	31438.08
494.43	31040.18
494.61	31580.85
494.79	31424.03
494.96	31484.89
495.14	31807.88
495.32	32112.15
495.49	31641.70
495.67	32685.58
495.85	32343.86
496.02	32788.56
496.20	33085.81
496.38	33113.90
496.55	33354.97
496.73	33825.42
496.91	33720.10
497.09	33858.19
497.26	34075.86
497.44	33848.83
497.62	33979.90
497.79	34562.69
497.97	34621.20
498.14	35007.39
498.32	35152.51
498.50	34951.22
498.67	35723.60
498.85	34967.60
499.03	35660.40
499.20	35461.46
499.38	35702.53
499.56	35620.61
499.73	36081.70
499.91	36240.86
500.08	36400.01
500.26	36575.55
500.44	36531.08
500.61	36671.51
500.79	36968.76
500.97	37193.45
501.14	37647.52
501.32	37851.14
501.49	37556.24
501.67	37436.87
501.84	37364.31
502.02	37670.92
502.20	37879.23
502.37	38242.01
502.55	38340.32
502.72	38298.19
502.90	38785.02
503.07	38333.29
503.25	38359.04
503.43	38586.07
503.60	39042.48
503.78	39615.91
503.95	39105.67
504.13	39082.27
504.30	39459.09
504.48	39669.74
504.65	39611.23
504.83	39995.07
505.01	40699.58
505.18	40126.14
505.36	40378.92
505.53	39768.04
505.71	40509.99
505.88	40549.78
506.06	40238.49
506.23	41127.89
506.41	40596.59
506.58	41233.22
506.76	41158.32
506.93	40910.22
507.11	41214.49
507.28	40978.10
507.46	40989.80
507.63	42143.69
507.81	42192.84
507.98	41792.61
508.16	41642.81
508.33	42171.77
508.50	42169.43
508.68	42136.66
508.85	42890.32
509.03	42789.67
509.20	42895.00
509.38	42731.16
509.55	43325.66
509.73	43213.31
509.90	43159.48
510.08	43016.71
510.25	43742.27
510.42	43201.61
510.60	44055.90
510.77	43564.39
510.95	44692.53
511.12	44072.29
511.30	43655.67
511.47	44465.50
511.64	44765.09
511.82	45090.42
511.99	44748.70
512.17	44828.28
512.34	44727.64
512.51	44940.63
512.69	45764.49
512.86	45280.00
513.04	45581.93
513.21	45736.41
513.38	45516.40
513.56	45766.84
513.73	45338.52
513.90	46082.81
514.08	45846.41
514.25	46277.07
514.43	46068.76
514.60	46738.16
514.77	46738.16
514.95	46649.22
515.12	46410.48
515.29	46319.20
515.47	46990.94
515.64	47302.23
515.81	47433.30
515.99	47138.39
516.16	47330.31
516.33	47077.54
516.51	47742.25
516.68	47693.10
516.85	47154.77
517.03	47908.43
517.20	47622.88
517.37	47859.27
517.54	47941.19
517.72	47880.34
517.89	47931.83
518.06	47608.84
518.24	47847.57
518.41	47978.64
518.58	48493.56
518.75	48458.45
518.93	48512.28
519.10	48563.78
519.27	48809.53
519.45	48470.15
519.62	49151.25
519.79	48996.77
519.96	49200.40
520.14	49366.58
520.31	49174.66
520.48	49460.20
520.65	49329.13
520.83	49738.72
521.00	49326.79
521.17	49837.03
521.34	49654.47
521.52	49682.55
521.69	49965.76
521.86	49890.86
522.03	50073.42
522.20	50295.77
522.38	50143.64
522.55	50506.42
522.72	50244.28
522.89	50691.32
523.07	50726.43
523.24	50625.79
523.41	50688.98
523.58	50471.31
523.75	50878.57
523.92	50637.49
524.10	50955.80
524.27	50806.01
524.44	51070.49
524.61	51391.14
524.78	51388.80
524.96	51360.72
525.13	51182.84
525.30	51302.20
525.47	51482.42
525.64	51278.80
525.81	51709.46
525.98	51903.72
526.16	51674.35
526.33	52133.09
526.50	52046.49
526.67	51641.58
526.84	51847.55
527.01	51641.58
527.18	51913.08
527.36	52395.23
527.53	52322.68
527.70	52612.90
527.87	52619.92
528.04	52329.70
528.21	52729.93
528.38	52507.58
528.55	52512.26
528.72	52348.42
528.89	52626.95
529.07	52598.86
529.24	52617.58
529.41	52549.71
529.58	52530.98
529.75	52732.27
529.92	52900.79
530.09	52896.11
530.26	52982.71
530.43	53130.16
530.60	53045.90
530.77	53090.37
530.94	53155.91
531.11	52966.32
531.28	52935.90
531.46	53450.81
531.63	53378.26
531.80	53532.73
531.97	53911.90
532.14	53605.29
532.31	53471.88
532.48	53584.22
532.65	53642.74
532.82	53516.35
532.99	54082.76
533.16	53670.82
533.33	54031.27
533.50	54068.72
533.67	54103.82
533.84	54038.29
534.01	53963.39
534.18	53855.73
534.35	54145.95
534.52	54052.33
534.69	54534.48
534.86	54335.54
535.03	54218.51
535.20	54300.43
535.37	54351.92
535.54	54714.70
535.71	54452.56
535.88	54372.99
536.05	54590.66
536.22	54546.18
536.38	54787.26
536.55	54635.13
536.72	54979.18
536.89	54838.75
537.06	54923.01
537.23	54948.76
537.40	54824.71
537.57	54672.57
537.74	55007.27
537.91	55077.49
538.08	55323.24
538.25	54986.21
538.42	55054.08
538.59	55100.89
538.75	54899.61
538.92	55058.76
539.09	55487.08
539.26	55253.03
539.43	55351.33
539.60	55475.38
539.77	55243.66
539.94	55547.93
540.11	55299.84
540.28	55522.19
540.44	55676.66
540.61	55702.41
540.78	55524.53
540.95	55969.23
541.12	55697.73
541.29	55763.26
541.46	56006.68
541.62	55744.54
541.79	55903.70
541.96	55510.49
542.13	56011.36
542.30	55964.55
542.47	55662.62
542.63	56252.44
542.80	56041.79
542.97	56275.84
543.14	56186.90
543.31	56177.54
543.48	56212.65
543.64	56884.38
543.81	56786.08
543.98	56788.42
544.15	56498.19
544.32	56713.52
544.48	57088.01
544.65	56662.03
544.82	56694.80
544.99	56254.78
545.16	56924.17
545.32	56659.69
545.49	56783.74
545.66	56905.44
545.83	56910.13
546.00	56970.98
546.16	56837.57
546.33	56559.05
546.50	56488.83
546.67	56889.06
546.83	56844.59
547.00	56765.01
547.17	57034.17
547.34	56769.69
547.50	56968.64
547.67	57317.38
547.84	57305.68
548.00	57137.16
548.17	57235.46
548.34	57235.46
548.51	57378.23
548.67	57275.25
548.84	57371.21
549.01	57378.23
549.18	57153.54
549.34	57352.49
549.51	57293.97
549.68	57289.29
549.84	57521.01
550.01	57499.94
550.18	57249.50
550.34	57546.75
550.51	57577.18
550.68	57635.69
550.84	57518.67
551.01	57687.18
551.18	57640.37
551.34	57539.73
551.51	57626.33
551.68	58000.82
551.84	57893.15
552.01	57801.87
552.18	57874.43
552.34	57560.79
552.51	58157.63
552.68	57757.40
552.84	57822.93
553.01	58164.65
553.18	57956.35
553.34	58026.56
553.51	58241.89
553.67	58181.04
553.84	58576.59
554.01	58379.98
554.17	58265.30
554.34	58068.69
554.51	58129.54
554.67	58248.91
554.84	58394.03
555.00	58113.16
555.17	58347.21
555.33	58302.74
555.50	58394.03
555.67	58174.02
555.83	58562.54
556.00	58309.77
556.16	58614.04
556.33	58595.31
556.50	58681.91
556.66	58508.71
556.83	58347.21
556.99	58749.79
557.16	58726.38
557.32	58775.53
557.49	58738.08
557.65	58599.99
557.82	58511.05
557.98	58747.45
558.15	58649.14
558.32	58894.90
558.48	58686.59
558.65	58766.17
558.81	58848.09
558.98	58763.83
559.14	58784.90
559.31	58890.22
559.47	58857.45
559.64	58944.05
559.80	58887.88
559.97	59023.63
560.13	58822.34
560.30	58824.68
560.46	59004.91
560.63	59004.91
560.79	58986.18
560.96	58937.03
561.12	59194.49
561.29	58810.64
561.45	59061.08
561.61	59250.66
561.78	59112.57
561.94	59236.62
562.11	59213.21
562.27	59002.56
562.44	59128.95
562.60	59112.57
562.77	59150.02
562.93	59196.83
563.10	59540.89
563.26	59348.96
563.42	59824.09
563.59	59337.26
563.75	59442.59
563.92	59297.47
564.08	59372.37
564.24	59229.60
564.41	59068.10
564.57	59166.40
564.74	59353.65
564.90	59580.68
565.07	59538.55
565.23	59494.08
565.39	59550.25
565.56	59332.58
565.72	59332.58
565.88	59400.46
566.05	59267.05
566.21	59409.82
566.38	59271.73
566.54	59568.97
566.70	59590.04
566.87	59664.94
567.03	59463.65
567.19	59877.93
567.36	59681.32
567.52	59587.70
567.68	59606.42
567.85	59447.27
568.01	59529.19
568.17	59463.65
568.34	59788.98
568.50	59653.23
568.66	59477.69
568.83	59653.23
568.99	59629.83
569.15	59430.88
569.32	59508.12
569.48	59636.85
569.64	59592.38
569.81	59592.38
569.97	59580.68
570.13	59721.11
570.30	59639.19
570.46	59538.55
570.62	59913.03
570.78	59566.63
570.95	59760.90
571.11	59934.10
571.27	59508.12
571.43	59559.61
571.60	59891.97
571.76	59847.50
571.92	59847.50
572.09	59845.16
572.25	59915.37
572.41	59664.94
572.57	59767.92
572.74	59849.84
572.90	59554.93
573.06	59613.44
573.22	59868.56
573.38	60065.17
573.55	59980.91
573.71	60161.13
573.87	60158.79
574.03	59976.23
574.20	59976.23
574.36	59934.10
574.52	59749.20
574.68	59847.50
574.84	59810.05
575.01	59920.05
575.17	59934.10
575.33	60079.21
575.49	59873.24
575.65	60259.43
575.82	60111.98
575.98	59889.63
576.14	60210.28
576.30	60135.38
576.46	60163.47
576.62	60172.83
576.79	59859.20
576.95	59781.96
577.11	60044.10
577.27	60119.00
577.43	60149.43
577.59	60100.28
577.75	60025.38
577.92	60044.10
578.08	59943.46
578.24	59767.92
578.40	59913.03
578.56	59882.61
578.72	60123.68
578.88	60158.79
579.04	60053.47
579.21	60086.23
579.37	60142.41
579.53	60107.30
579.69	59922.40
579.85	60196.24
580.01	59973.89
580.17	59913.03
580.33	59985.59
580.49	60055.81
580.65	60294.54
580.82	60306.24
580.98	60163.47
581.14	60210.28
581.30	60378.80
581.46	59873.24
581.62	60001.97
581.78	59920.05
581.94	60250.07
582.10	60392.84
582.26	60186.88
582.42	60411.57
582.58	60362.42
582.74	60250.07
582.90	60399.86
583.06	60329.65
583.22	59849.84
583.38	60130.70
583.54	60327.31
583.70	60261.77
583.86	59941.12
584.02	60177.51
584.18	60315.61
584.34	60437.31
584.50	60671.37
584.66	60292.20
584.82	60102.62
584.98	60200.92
585.14	60154.11
585.30	60154.11
585.46	60154.11
585.62	60140.07
585.78	60301.56
585.94	60299.22
586.10	60259.43
586.26	60301.56
586.42	60287.52
586.58	60474.76
586.74	60186.88
586.90	60308.58
587.06	60229.01
587.22	60353.05
587.38	60322.63
587.54	60229.01
587.70	60317.95
587.86	60434.97
588.02	60495.83
588.18	60509.87
588.34	60327.31
588.49	60383.48
588.65	60552.00
588.81	60444.33
588.97	60549.66
589.13	60399.86
589.29	60322.63
