SpectraSuite Data File
++++++++++++++++++++++++++++++++++++
Date: Fri Oct 04 11:48:22 GMT-05:00 2013
User: price-jones
Dark Spectrum Present: No
Reference Spectrum Present: No
Number of Sampled Component Spectra: 1
Spectrometers: USB2+H05261
Integration Time (usec): 100000 (USB2+H05261)
Spectra Averaged: 1 (USB2+H05261)
Boxcar Smoothing: 0 (USB2+H05261)
Correct for Electrical Dark: No (USB2+H05261)
Strobe/Lamp Enabled: No (USB2+H05261)
Correct for Detector Non-linearity: No (USB2+H05261)
Correct for Stray Light: No (USB2+H05261)
Number of Pixels in Processed Spectrum: 2048
>>>>>Begin Processed Spectral Data<<<<<
365.73	72.56
365.92	72.56
366.12	72.56
366.32	0.00
366.52	0.00
366.72	18.72
366.91	0.00
367.11	0.00
367.31	0.00
367.51	0.00
367.70	0.00
367.90	0.00
368.10	0.00
368.30	0.00
368.49	0.00
368.69	0.00
368.89	0.00
369.09	0.00
369.28	0.00
369.48	0.00
369.68	0.00
369.87	0.00
370.07	0.00
370.27	0.00
370.47	32.77
370.66	229.37
370.86	212.99
371.06	149.79
371.25	306.61
371.45	264.48
371.65	224.69
371.84	262.14
372.04	238.73
372.24	292.57
372.44	278.52
372.63	266.82
372.83	339.38
373.03	290.23
373.22	301.93
373.42	215.33
373.62	283.20
373.81	355.76
374.01	334.70
374.21	351.08
374.40	292.57
374.60	318.31
374.79	430.66
374.99	320.65
375.19	285.55
375.38	353.42
375.58	418.96
375.78	372.15
375.97	330.02
376.17	454.06
376.37	360.44
376.56	334.70
376.76	376.83
376.95	362.78
377.15	423.64
377.35	374.49
377.54	416.62
377.74	367.46
377.93	365.12
378.13	294.91
378.33	374.49
378.52	400.23
378.72	430.66
378.91	381.51
379.11	414.27
379.31	470.45
379.50	404.91
379.70	379.17
379.89	404.91
380.09	425.98
380.28	381.51
380.48	409.59
380.68	351.08
380.87	407.25
381.07	393.21
381.26	423.64
381.46	411.93
381.65	507.90
381.85	416.62
382.04	479.81
382.24	472.79
382.43	411.93
382.63	428.32
382.83	468.11
383.02	524.28
383.22	454.06
383.41	418.96
383.61	468.11
383.80	465.77
384.00	435.34
384.19	512.58
384.39	486.83
384.58	524.28
384.78	493.85
384.97	428.32
385.17	458.74
385.36	514.92
385.56	507.90
385.75	517.26
385.95	479.81
386.14	493.85
386.34	451.72
386.53	538.32
386.72	468.11
386.92	475.13
387.11	517.26
387.31	545.34
387.50	472.79
387.70	475.13
387.89	592.16
388.09	559.39
388.28	482.15
388.48	580.45
388.67	568.75
388.86	608.54
389.06	533.64
389.25	624.92
389.45	613.22
389.64	596.84
389.84	641.31
390.03	615.56
390.22	615.56
390.42	629.60
390.61	571.09
390.81	667.05
391.00	594.50
391.19	613.22
391.39	674.07
391.58	676.41
391.78	622.58
391.97	690.46
392.16	641.31
392.36	819.19
392.55	760.67
392.75	594.50
392.94	596.84
393.13	697.48
393.33	671.73
393.52	683.44
393.71	718.54
393.91	739.61
394.10	765.36
394.29	716.20
394.49	720.88
394.68	723.23
394.88	765.36
395.07	798.12
395.26	753.65
395.46	777.06
395.65	751.31
395.84	765.36
396.04	873.02
396.23	835.57
396.42	758.33
396.62	777.06
396.81	863.66
397.00	770.04
397.19	849.61
397.39	844.93
397.58	957.28
397.77	873.02
397.97	933.87
398.16	837.91
398.35	851.96
398.55	910.47
398.74	917.49
398.93	933.87
399.12	905.79
399.32	873.02
399.51	952.60
399.70	966.64
399.90	985.37
400.09	1064.94
400.28	1064.94
400.47	936.21
400.67	1015.79
400.86	1081.33
401.05	1050.90
401.24	957.28
401.44	1069.62
401.63	1102.39
401.82	1151.54
402.01	1128.14
402.21	1139.84
402.40	1177.29
402.59	1268.57
402.78	1193.67
402.97	1233.46
403.17	1231.12
403.36	1291.98
403.55	1249.85
403.74	1235.80
403.93	1282.61
404.13	1282.61
404.32	1280.27
404.51	1275.59
404.70	1266.23
404.89	1376.24
405.09	1322.40
405.28	1348.15
405.47	1270.91
405.66	1369.21
405.85	1397.30
406.05	1373.89
406.24	1401.98
406.43	1488.58
406.62	1530.71
406.81	1568.16
407.00	1540.07
407.20	1399.64
407.39	1448.79
407.58	1437.09
407.77	1511.99
407.96	1568.16
408.15	1575.18
408.34	1556.46
408.54	1650.08
408.73	1710.93
408.92	1584.54
409.11	1701.57
409.30	1614.97
409.49	1849.02
409.68	1739.02
409.87	1673.48
410.07	1771.79
410.26	1739.02
410.45	1825.62
410.64	1858.39
410.83	1842.00
411.02	1886.47
411.21	1907.54
411.40	1891.15
411.59	1975.41
411.78	1921.58
411.98	1891.15
412.17	2064.35
412.36	1877.11
412.55	2010.52
412.74	2094.78
412.93	2083.08
413.12	2050.31
413.31	2218.83
413.50	2174.36
413.69	2197.76
413.88	2251.60
414.07	2127.55
414.26	2207.13
414.45	2263.30
414.64	2314.79
414.83	2382.67
415.02	2312.45
415.22	2340.54
415.41	2448.20
415.60	2495.01
415.79	2399.05
415.98	2502.03
416.17	2459.90
416.36	2429.48
416.55	2565.23
416.74	2436.50
416.93	2597.99
417.12	2700.98
417.31	2630.76
417.50	2630.76
417.69	2726.72
417.88	2698.64
418.07	2654.17
418.26	2815.66
418.45	2818.00
418.64	2810.98
418.83	2766.51
419.02	2736.09
419.21	2752.47
419.39	2939.71
419.58	2836.73
419.77	2855.45
419.96	2953.76
420.15	2913.97
420.34	2794.60
420.53	2974.82
420.72	3045.04
420.91	3061.42
421.10	3016.95
421.29	3157.38
421.48	2953.76
421.67	3035.67
421.86	3042.70
422.05	3049.72
422.24	3059.08
422.43	3143.34
422.61	3157.38
422.80	3110.57
422.99	3108.23
423.18	3225.26
423.37	3124.62
423.56	2986.52
423.75	3082.49
423.94	3141.00
424.13	3026.31
424.32	2991.20
424.50	3180.79
424.69	3290.79
424.88	3206.53
425.07	3105.89
425.26	3101.21
425.45	3068.44
425.64	3056.74
425.83	3002.91
426.01	3342.28
426.20	3197.17
426.39	3192.49
426.58	3129.30
426.77	3208.87
426.96	3288.45
427.15	3262.71
427.33	3389.10
427.52	3361.01
427.71	3332.92
427.90	3311.86
428.09	3251.00
428.28	3410.16
428.46	3466.33
428.65	3375.05
428.84	3517.83
429.03	3562.30
429.22	3428.88
429.40	3536.55
429.59	3529.53
429.78	3300.16
429.97	3405.48
430.16	3325.90
430.34	3482.72
430.53	3627.83
430.72	3545.91
430.91	3581.02
431.10	3707.41
431.28	3761.24
431.47	3676.98
431.66	3751.88
431.85	3679.32
432.03	3896.99
432.22	3859.54
432.41	3756.56
432.60	3922.74
432.79	3758.90
432.97	3922.74
433.16	3822.09
433.35	3875.93
433.54	3927.42
433.72	3847.84
433.91	3908.69
434.10	4063.17
434.28	3798.69
434.47	3920.40
434.66	4018.70
434.85	4011.68
435.03	4028.06
435.22	4163.81
435.41	4248.07
435.59	4105.30
435.78	4177.86
435.97	4142.75
436.16	4166.15
436.34	4002.32
436.53	4084.23
436.72	4229.35
436.90	4269.14
437.09	4180.20
437.28	4222.33
437.46	4212.96
437.65	4344.03
437.84	4493.83
438.02	4292.54
438.21	4367.44
438.40	4219.99
438.58	4521.92
438.77	4542.98
438.96	4348.72
439.14	4622.56
439.33	4634.26
439.52	4678.73
439.70	4835.55
439.89	4709.16
440.08	4816.82
440.26	4840.23
440.45	4699.80
440.63	4741.93
440.82	4833.21
441.01	4877.68
441.19	4788.74
441.38	4933.85
441.57	4957.25
441.75	5001.72
441.94	5125.77
442.12	5132.79
442.31	5233.44
442.50	5181.95
442.68	5172.58
442.87	5277.91
443.05	5221.74
443.24	5226.42
443.43	5191.31
443.61	5235.78
443.80	5467.49
443.98	5284.93
444.17	5034.49
444.35	5385.57
444.54	5511.96
444.73	5399.62
444.91	5425.36
445.10	5212.37
445.28	5334.08
445.47	5373.87
445.65	5341.10
445.84	5317.70
446.02	5411.32
446.21	5301.31
446.39	5275.57
446.58	5465.15
446.77	5369.19
446.95	5210.03
447.14	5352.81
447.32	5544.73
447.51	5420.68
447.69	5568.13
447.88	5598.56
448.06	5537.71
448.25	5514.30
448.43	5558.77
448.62	5385.57
448.80	5563.45
448.99	5570.48
449.17	5565.79
449.36	5558.77
449.54	5664.10
449.73	5687.50
449.91	5874.74
450.10	5607.92
450.28	5757.72
450.46	5795.17
450.65	5823.25
450.83	5806.87
451.02	5776.44
451.20	5720.27
451.39	5771.76
451.57	5888.79
451.76	5785.80
451.94	5970.71
452.13	6150.93
452.31	5902.83
452.49	5921.56
452.68	6134.54
452.86	6040.92
453.05	6054.97
453.23	5959.00
453.42	5905.17
453.60	6045.60
453.78	6162.63
453.97	6106.46
454.15	6202.42
454.34	5996.45
454.52	6244.55
454.70	6221.14
454.89	6050.28
455.07	6282.00
455.26	6265.61
455.44	6497.33
455.62	6272.64
455.81	6237.53
455.99	6464.56
456.17	6342.85
456.36	6511.37
456.54	6675.21
456.73	6590.95
456.91	6705.63
457.09	6581.59
457.28	6803.94
457.46	6647.12
457.64	6679.89
457.83	6799.26
458.01	6651.80
458.19	7035.65
458.38	6670.53
458.56	6923.30
458.74	6855.43
458.93	6932.67
459.11	7082.46
459.29	6977.14
459.48	7033.31
459.66	6965.43
459.84	6939.69
460.03	7077.78
460.21	7089.48
460.39	7068.42
460.57	6953.73
460.76	7115.23
460.94	7178.42
461.12	7208.85
461.31	6956.07
461.49	7155.02
461.67	7033.31
461.85	7255.66
462.04	7178.42
462.22	7770.58
462.40	7255.66
462.59	7300.13
462.77	7307.15
462.95	7531.84
463.13	7475.67
463.32	7492.05
463.50	7442.90
463.68	7339.92
463.86	7410.14
464.05	7433.54
464.23	7379.71
464.41	7754.19
464.59	7569.29
464.78	7667.60
464.96	7576.31
465.14	7456.95
465.32	7826.75
465.50	7470.99
465.69	7826.75
465.87	7681.64
466.05	7658.23
466.23	7765.90
466.41	7796.32
466.60	8016.33
466.78	7630.15
466.96	7754.19
467.14	7751.85
467.32	7768.24
467.51	7969.52
467.69	7688.66
467.87	7866.54
468.05	8077.19
468.23	7786.96
468.41	7744.83
468.60	8067.83
468.78	8154.43
468.96	7896.97
469.14	8138.04
469.32	8339.33
469.50	8152.09
469.69	8332.31
469.87	8215.28
470.05	8470.40
470.23	8280.82
470.41	8285.50
470.59	8493.80
470.77	8404.86
470.95	8592.11
471.14	8470.40
471.32	8292.52
471.50	8484.44
471.68	8744.24
471.86	8540.61
472.04	8711.47
472.22	8805.10
472.40	8629.56
472.58	8865.95
472.77	8826.16
472.95	8966.59
473.13	9177.24
473.31	9088.30
473.49	9041.49
473.67	8798.07
473.85	8891.70
474.03	9039.15
474.21	9074.26
474.39	9394.91
474.57	9343.42
474.75	9607.90
474.93	9504.92
475.12	9217.03
475.30	9544.70
475.48	9401.93
475.66	9837.27
475.84	9472.15
476.02	9659.39
476.20	9514.28
476.38	10019.83
476.56	9970.68
476.74	9958.98
476.92	9961.32
477.10	10146.22
477.28	10078.35
477.46	9994.09
477.64	10136.86
477.82	10640.08
478.00	10583.90
478.18	10736.04
478.36	10738.38
478.54	10787.53
478.72	10860.09
478.90	10721.99
479.08	11044.99
479.26	11073.07
479.44	11159.67
479.62	11145.63
479.80	11407.77
479.98	11398.41
480.16	11421.81
480.34	11360.96
480.52	11894.60
480.70	11648.85
480.88	11683.95
481.06	11768.21
481.24	11918.01
481.41	11985.88
481.59	12088.87
481.77	12081.85
481.95	12308.88
482.13	12379.09
482.31	12290.15
482.49	12549.95
482.67	12465.69
482.85	12676.34
483.03	12936.14
483.21	13160.83
483.39	13186.58
483.57	13022.74
483.74	13348.08
483.92	13472.12
484.10	13371.48
484.28	13706.18
484.46	13612.56
484.64	13596.17
484.82	13752.99
485.00	14043.21
485.18	14185.99
485.35	14387.27
485.53	14335.78
485.71	14157.90
485.89	14675.16
486.07	14576.86
486.25	14710.27
486.43	14736.01
486.61	14874.10
486.78	15124.54
486.96	15232.21
487.14	15171.35
487.32	15499.03
487.50	15597.33
487.68	15550.52
487.85	15702.65
488.03	16166.08
488.21	16264.38
488.39	15955.43
488.57	15950.75
488.75	16189.49
488.92	16542.91
489.10	16758.24
489.28	16968.88
489.46	17060.16
489.64	16786.32
489.81	17221.66
489.99	17326.99
490.17	17296.56
490.35	17741.26
490.53	17680.41
490.70	17933.18
490.88	17755.30
491.06	18092.34
491.24	18185.96
491.41	18101.70
491.59	18417.68
491.77	18195.32
491.95	18644.71
492.13	18759.39
492.30	18731.31
492.48	18944.30
492.66	18923.23
492.84	19185.37
493.01	19211.12
493.19	18979.40
493.37	19246.23
493.54	19545.81
493.72	19323.46
493.90	19559.86
494.08	19789.23
494.25	19770.51
494.43	19866.47
494.61	20283.08
494.79	20210.53
494.96	20435.22
495.14	20437.56
495.32	20830.77
495.49	20758.21
495.67	20699.70
495.85	20823.75
496.02	21146.74
496.20	21277.81
496.38	21191.21
496.55	21249.72
496.73	21425.26
496.91	21371.43
497.09	21692.08
497.26	21659.32
497.44	21928.48
497.62	22036.14
497.79	22153.17
497.97	21921.46
498.14	22754.69
498.32	22490.21
498.50	22735.96
498.67	23044.91
498.85	22724.26
499.03	22710.22
499.20	22792.14
499.38	23157.26
499.56	23494.30
499.73	23403.02
499.91	23124.49
500.08	23452.17
500.26	23082.36
500.44	23651.11
500.61	23630.05
500.79	23861.76
500.97	23810.27
501.14	24126.24
501.32	24247.95
501.49	24123.90
501.67	24285.40
501.84	24123.90
502.02	24510.09
502.20	24540.52
502.37	24704.35
502.55	24538.18
502.72	24896.28
502.90	24624.78
503.07	24259.65
503.25	25069.48
503.43	24985.22
503.60	24828.40
503.78	25069.48
503.95	25355.02
504.13	25301.19
504.30	25474.39
504.48	25240.34
504.65	25551.63
504.83	25699.08
505.01	25881.64
505.18	25977.61
505.36	26298.26
505.53	25804.41
505.71	26197.62
505.88	25982.29
506.06	26316.98
506.23	26167.19
506.41	26211.66
506.58	26757.00
506.76	26492.52
506.93	26544.02
507.11	26522.95
507.28	26565.08
507.46	26478.48
507.63	26965.31
507.81	27522.36
507.98	27028.51
508.16	27316.39
508.33	27087.02
508.50	26906.80
508.68	27213.41
508.85	27618.32
509.03	27260.22
509.20	27599.60
509.38	28018.55
509.55	27992.81
509.73	27637.05
509.90	27976.42
510.08	28325.16
510.25	28315.80
510.42	28184.73
510.60	28629.43
510.77	28339.21
510.95	28804.97
511.12	28348.57
511.30	28346.23
511.47	28339.21
511.64	28910.30
511.82	28950.09
511.99	28683.27
512.17	29156.05
512.34	29095.20
512.51	29242.65
512.69	29392.45
512.86	29467.34
513.04	29713.10
513.21	29359.68
513.38	29935.45
513.56	29507.13
513.73	29392.45
513.90	29982.26
514.08	29773.95
514.25	29907.37
514.43	29797.36
514.60	30167.16
514.77	29958.86
514.95	29919.07
515.12	30232.70
515.29	30291.21
515.47	30394.20
515.64	30609.53
515.81	30719.53
515.99	30473.78
516.16	30991.03
516.33	30712.51
516.51	31145.51
516.68	30740.60
516.85	31103.38
517.03	31189.98
517.20	31040.18
517.37	31239.13
517.54	31524.68
517.72	31412.33
517.89	31250.83
518.06	31480.21
518.24	31512.97
518.41	31398.29
518.58	31669.79
518.75	31679.15
518.93	31824.26
519.10	31309.35
519.27	31976.40
519.45	31765.75
519.62	31779.79
519.79	32039.59
519.96	31906.18
520.14	32245.56
520.31	31826.60
520.48	32334.50
520.65	32435.14
520.83	32835.38
521.00	32444.51
521.17	32334.50
521.34	32760.48
521.52	32823.67
521.69	32666.86
521.86	32999.21
522.03	33207.52
522.20	33247.31
522.38	33462.64
522.55	33198.16
522.72	33338.59
522.89	33537.54
523.07	33436.89
523.24	33067.09
523.41	33720.10
523.58	33139.65
523.75	33600.73
523.92	33457.96
524.10	33752.87
524.27	33909.68
524.44	34031.39
524.61	34330.98
524.78	34197.57
524.96	34249.06
525.13	34263.10
525.30	34291.19
525.47	34511.20
525.64	33944.79
525.81	34169.48
525.98	34579.07
526.16	34637.59
526.33	34735.89
526.50	34672.70
526.67	34579.07
526.84	34881.00
527.01	34527.58
527.18	34965.26
527.36	35037.82
527.53	35199.32
527.70	35405.28
527.87	35283.58
528.04	34934.84
528.21	35122.08
528.38	35445.07
528.55	35400.60
528.72	35356.13
528.89	35166.55
529.07	35810.20
529.24	34948.88
529.41	35747.00
529.58	35386.56
529.75	35505.93
529.92	35763.39
530.09	36184.68
530.26	35529.33
530.43	35931.90
530.60	35828.92
530.77	35494.22
530.94	36086.38
531.11	35981.06
531.28	35782.11
531.46	35840.62
531.63	36065.31
531.80	36865.78
531.97	36123.83
532.14	36205.75
532.31	35892.12
532.48	36196.38
532.65	36430.44
532.82	36416.40
532.99	36510.02
533.16	36531.08
533.33	36788.54
533.50	37127.92
533.67	37092.81
533.84	36568.53
534.01	36713.64
534.18	36470.23
534.35	36795.56
534.52	36491.29
534.69	37280.05
534.86	37378.36
535.03	37158.34
535.20	37284.73
535.37	37123.24
535.54	37034.30
535.71	36891.52
535.88	36978.12
536.05	37542.19
536.22	37544.53
536.38	37404.10
536.55	37581.98
536.72	37429.85
536.89	37649.86
537.06	37895.61
537.23	37778.59
537.40	37724.75
537.57	37790.29
537.74	37972.85
537.91	38352.02
538.08	37816.04
538.25	37549.21
538.42	37956.47
538.59	38148.39
538.75	37874.55
538.92	37797.31
539.09	37717.73
539.26	38164.78
539.43	38298.19
539.60	38548.62
539.77	38218.61
539.94	38794.38
540.11	38412.87
540.28	38527.56
540.44	38403.51
540.61	38122.65
540.78	38323.93
540.95	38710.12
541.12	38501.81
541.29	38742.89
541.46	38590.75
541.62	38548.62
541.79	38792.04
541.96	38354.36
542.13	38728.84
542.30	39166.52
542.47	39016.73
542.63	38878.64
542.80	38995.67
542.97	39730.59
543.14	39566.76
543.31	39316.32
543.48	39105.67
543.64	39646.33
543.81	39817.19
543.98	39826.56
544.15	39917.84
544.32	40114.44
544.48	40062.95
544.65	39529.31
544.82	39763.36
544.99	39377.17
545.16	39564.42
545.32	39433.35
545.49	40128.48
545.66	40051.25
545.83	40205.72
546.00	40397.65
546.16	39821.87
546.33	39971.67
546.50	39768.04
546.67	40177.64
546.83	39613.57
547.00	40102.74
547.17	40175.30
547.34	40350.84
547.50	40154.23
547.67	40041.88
547.84	40257.21
548.00	40217.43
548.17	40559.14
548.34	40620.00
548.51	40662.13
548.67	40753.41
548.84	40734.68
549.01	40765.11
549.18	40444.46
549.34	40692.55
549.51	40699.58
549.68	40800.22
549.84	40404.67
550.01	40755.75
550.18	40786.18
550.34	41071.72
550.51	41134.92
550.68	41244.92
550.84	41001.50
551.01	40863.41
551.18	41008.53
551.34	40685.53
551.51	40842.35
551.68	40856.39
551.84	41415.78
552.01	41097.47
552.18	41181.73
552.34	41144.28
552.51	41319.82
552.68	41383.01
552.84	41188.75
553.01	41254.28
553.18	41148.96
553.34	41748.14
553.51	41256.62
553.67	41731.75
553.84	41958.78
554.01	41448.55
554.17	41596.00
554.34	41380.67
554.51	41401.74
554.67	41698.98
554.84	41474.29
555.00	41661.54
555.17	41731.75
555.33	41614.72
555.50	41837.08
555.67	41249.60
555.83	41640.47
556.00	41773.88
556.16	42052.41
556.33	41521.10
556.50	41956.44
556.66	41846.44
556.83	41956.44
556.99	41830.05
557.16	41944.74
557.32	42026.66
557.49	41986.87
557.65	41818.35
557.82	42014.96
557.98	42005.59
558.15	41921.34
558.32	42312.20
558.48	42564.98
558.65	42078.15
558.81	41977.51
558.98	42075.81
559.14	42038.36
559.31	42153.05
559.47	42260.71
559.64	42433.91
559.80	42471.36
559.97	42359.02
560.13	42071.13
560.30	42309.86
560.46	42787.33
560.63	41921.34
560.79	42267.73
560.96	42492.43
561.12	42218.58
561.29	42504.13
561.45	42576.69
561.61	42646.90
561.78	42366.04
561.94	42363.70
562.11	42337.95
562.27	42602.43
562.44	42328.59
562.60	42539.24
562.77	42838.83
562.93	42153.05
563.10	42616.47
563.26	42459.66
563.42	42555.62
563.59	42794.36
563.75	43019.05
563.92	42693.71
564.08	42501.79
564.24	42745.20
564.41	42534.56
564.57	42742.86
564.74	42607.11
564.90	42864.57
565.07	42761.59
565.23	42815.42
565.39	42417.53
565.56	42958.19
565.72	42574.34
565.88	43002.66
566.05	42983.94
566.21	42579.03
566.38	42689.03
566.54	42768.61
566.70	43318.64
566.87	43082.24
567.03	42878.61
567.19	43201.61
567.36	42972.24
567.52	42667.97
567.68	43154.80
567.85	42780.31
568.01	43253.10
568.17	42866.91
568.34	43058.84
568.50	43051.81
568.66	42604.77
568.83	43166.50
568.99	42792.01
569.15	42941.81
569.32	42595.41
569.48	42745.20
569.64	42934.79
569.81	43213.31
569.97	43100.97
570.13	43452.05
570.30	42810.74
570.46	43353.74
570.62	42913.72
570.78	42749.88
570.95	43117.35
571.11	42946.49
571.27	43140.75
571.43	42382.42
571.60	43166.50
571.76	42855.21
571.92	43276.51
572.09	43150.12
572.25	42988.62
572.41	43285.87
572.57	42754.57
572.74	43531.62
572.90	43061.18
573.06	43384.17
573.22	42927.77
573.38	43086.92
573.55	43302.25
573.71	43709.50
573.87	43655.67
574.03	43143.09
574.20	43260.12
574.36	43564.39
574.52	42766.27
574.68	42972.24
574.84	43320.98
575.01	43288.21
575.17	42974.58
575.33	43290.55
575.49	43241.40
575.65	43192.25
575.82	43526.94
575.98	43276.51
576.14	43248.42
576.30	43000.32
576.46	43182.88
576.62	43138.41
576.79	43473.11
576.95	43047.13
577.11	42969.90
577.27	43449.70
577.43	43393.53
577.59	43203.95
577.75	43152.46
577.92	42979.26
578.08	43203.95
578.24	43356.08
578.40	43503.54
578.56	43023.73
578.72	43386.51
578.88	43360.76
579.04	43840.57
579.21	43213.31
579.37	43173.52
579.53	43564.39
579.69	42958.19
579.85	43058.84
580.01	43173.52
580.17	42759.25
580.33	43133.73
580.49	43590.14
580.65	43643.97
580.82	43529.28
580.98	43250.76
581.14	43269.48
581.30	43524.60
581.46	43166.50
581.62	43185.22
581.78	43105.65
581.94	43433.32
582.10	42899.68
582.26	43309.27
582.42	43463.75
582.58	43416.94
582.74	43320.98
582.90	43456.73
583.06	43253.10
583.22	43487.15
583.38	43185.22
583.54	43381.83
583.70	43306.93
583.86	43136.07
584.02	43147.78
584.18	43526.94
584.34	43662.69
584.50	43824.19
584.66	43320.98
584.82	43629.93
584.98	43370.13
585.14	43295.23
585.30	43328.00
585.46	43480.13
585.62	43220.33
585.78	43599.50
585.94	43182.88
586.10	42927.77
586.26	43512.90
586.42	43615.88
586.58	43842.92
586.74	43768.02
586.90	43117.35
587.06	43105.65
587.22	43309.27
587.38	43501.20
587.54	43564.39
587.70	43962.28
587.86	43573.75
588.02	43665.03
588.18	43934.20
588.34	43445.02
588.49	43435.66
588.65	43573.75
588.81	43648.65
588.97	43452.05
589.13	43475.45
589.29	43302.25
589.45	43856.96
589.61	43550.35
589.77	43807.81
589.93	43550.35
590.08	44135.48
590.24	43522.26
590.40	43758.66
590.56	43964.62
590.72	43552.69
590.88	43243.74
591.04	43295.23
