SpectraSuite Data File
++++++++++++++++++++++++++++++++++++
Date: Fri Oct 04 11:48:38 GMT-05:00 2013
User: price-jones
Dark Spectrum Present: No
Reference Spectrum Present: No
Number of Sampled Component Spectra: 1
Spectrometers: USB2+H05261
Integration Time (usec): 100000 (USB2+H05261)
Spectra Averaged: 1 (USB2+H05261)
Boxcar Smoothing: 0 (USB2+H05261)
Correct for Electrical Dark: No (USB2+H05261)
Strobe/Lamp Enabled: No (USB2+H05261)
Correct for Detector Non-linearity: No (USB2+H05261)
Correct for Stray Light: No (USB2+H05261)
Number of Pixels in Processed Spectrum: 2048
>>>>>Begin Processed Spectral Data<<<<<
365.73	23.41
365.92	23.41
366.12	23.41
366.32	0.00
366.52	0.00
366.72	0.00
366.91	0.00
367.11	0.00
367.31	0.00
367.51	0.00
367.70	0.00
367.90	25.75
368.10	0.00
368.30	0.00
368.49	0.00
368.69	0.00
368.89	0.00
369.09	0.00
369.28	0.00
369.48	0.00
369.68	37.45
369.87	0.00
370.07	0.00
370.27	14.04
370.47	49.15
370.66	264.48
370.86	318.31
371.06	334.70
371.25	285.55
371.45	395.55
371.65	374.49
371.84	388.53
372.04	332.36
372.24	383.85
372.44	358.10
372.63	470.45
372.83	472.79
373.03	414.27
373.22	458.74
373.42	472.79
373.62	437.68
373.81	386.19
374.01	489.17
374.21	468.11
374.40	451.72
374.60	437.68
374.79	475.13
374.99	479.81
375.19	402.57
375.38	451.72
375.58	458.74
375.78	568.75
375.97	510.24
376.17	503.22
376.37	519.60
376.56	526.62
376.76	451.72
376.95	454.06
377.15	566.41
377.35	500.87
377.54	526.62
377.74	524.28
377.93	575.77
378.13	578.11
378.33	524.28
378.52	519.60
378.72	629.60
378.91	599.18
379.11	603.86
379.31	535.98
379.50	519.60
379.70	580.45
379.89	610.88
380.09	559.39
380.28	575.77
380.48	510.24
380.68	573.43
380.87	594.50
381.07	629.60
381.26	622.58
381.46	601.52
381.65	657.69
381.85	613.22
382.04	613.22
382.24	596.84
382.43	507.90
382.63	711.52
382.83	657.69
383.02	676.41
383.22	777.06
383.41	690.46
383.61	650.67
383.80	634.29
384.00	622.58
384.19	655.35
384.39	770.04
384.58	641.31
384.78	751.31
384.97	676.41
385.17	585.13
385.36	699.82
385.56	744.29
385.75	692.80
385.95	650.67
386.14	655.35
386.34	737.27
386.53	662.37
386.72	690.46
386.92	823.87
387.11	777.06
387.31	727.91
387.50	835.57
387.70	793.44
387.89	692.80
388.09	753.65
388.28	781.74
388.48	758.33
388.67	849.61
388.86	755.99
389.06	786.42
389.25	849.61
389.45	910.47
389.64	851.96
389.84	896.43
390.03	779.40
390.22	887.06
390.42	936.21
390.61	933.87
390.81	870.68
391.00	877.70
391.19	901.11
391.39	947.92
391.58	957.28
391.78	903.45
391.97	966.64
392.16	961.96
392.36	1034.52
392.55	950.26
392.75	978.34
392.94	889.40
393.13	1011.11
393.33	940.90
393.52	999.41
393.71	1006.43
393.91	931.53
394.10	987.71
394.29	1163.25
394.49	1001.75
394.68	1090.69
394.88	938.55
395.07	1116.44
395.26	1146.86
395.46	1153.88
395.65	1062.60
395.84	1160.91
396.04	1153.88
396.23	1200.69
396.42	1163.25
396.62	1210.06
396.81	1118.78
397.00	1179.63
397.19	1207.72
397.39	1132.82
397.58	1200.69
397.77	1130.48
397.97	1231.12
398.16	1226.44
398.35	1416.02
398.55	1219.42
398.74	1289.64
398.93	1284.95
399.12	1331.76
399.32	1331.76
399.51	1289.64
399.70	1451.13
399.90	1259.21
400.09	1413.68
400.28	1413.68
400.47	1387.94
400.67	1444.11
400.86	1483.90
401.05	1462.83
401.24	1476.88
401.44	1533.05
401.63	1565.82
401.82	1526.03
402.01	1481.56
402.21	1479.22
402.40	1605.61
402.59	1682.85
402.78	1533.05
402.97	1516.67
403.17	1664.12
403.36	1603.27
403.55	1575.18
403.74	1715.61
403.93	1607.95
404.13	1753.06
404.32	1603.27
404.51	1741.36
404.70	1846.68
404.89	1834.98
405.09	1802.21
405.28	1863.07
405.47	1792.85
405.66	1853.70
405.85	1806.89
406.05	1949.67
406.24	1872.43
406.43	1916.90
406.62	2022.22
406.81	1970.73
407.00	1881.79
407.20	1949.67
407.39	1963.71
407.58	2033.93
407.77	1959.03
407.96	2111.16
408.15	2085.42
408.34	2010.52
408.54	2162.66
408.73	2132.23
408.92	2153.29
409.11	2148.61
409.30	2183.72
409.49	2183.72
409.68	2207.13
409.87	2132.23
410.07	2300.75
410.26	2200.10
410.45	2359.26
410.64	2312.45
410.83	2242.23
411.02	2319.47
411.21	2415.43
411.40	2586.29
411.59	2541.82
411.78	2473.95
411.98	2502.03
412.17	2705.66
412.36	2532.46
412.55	2555.86
412.74	2677.57
412.93	2630.76
413.12	2597.99
413.31	2789.92
413.50	2773.53
413.69	2789.92
413.88	2803.96
414.07	2810.98
414.26	2892.90
414.45	2867.16
414.64	2871.84
414.83	3009.93
415.02	3162.06
415.22	3110.57
415.41	3023.97
415.60	3197.17
415.79	3129.30
415.98	3222.92
416.17	3061.42
416.36	3180.79
416.55	3176.11
416.74	3276.75
416.93	3222.92
417.12	3311.86
417.31	3314.20
417.50	3503.78
417.69	3384.41
417.88	3478.04
418.07	3442.93
418.26	3564.64
418.45	3389.10
418.64	3510.80
418.83	3503.78
419.02	3555.27
419.21	3543.57
419.39	3691.02
419.58	3639.53
419.77	3728.47
419.96	3758.90
420.15	3700.39
420.34	3730.81
420.53	3681.66
420.72	3786.99
420.91	3681.66
421.10	3889.97
421.29	3857.20
421.48	3728.47
421.67	3826.78
421.86	3922.74
422.05	3896.99
422.24	3941.46
422.43	3843.16
422.61	3985.93
422.80	3859.54
422.99	3901.67
423.18	4102.96
423.37	3992.95
423.56	4067.85
423.75	3981.25
423.94	3936.78
424.13	3723.79
424.32	3908.69
424.50	4004.66
424.69	3992.95
424.88	4079.55
425.07	4084.23
425.26	4147.43
425.45	4079.55
425.64	3985.93
425.83	4002.32
426.01	4177.86
426.20	4121.68
426.39	4046.79
426.58	4156.79
426.77	4037.42
426.96	4259.78
427.15	4175.52
427.33	4180.20
427.52	4308.93
427.71	4170.83
427.90	4311.27
428.09	4236.37
428.28	4229.35
428.46	4428.29
428.65	4458.72
428.84	4578.09
429.03	4395.53
429.22	4269.14
429.40	4414.25
429.59	4596.81
429.78	4182.54
429.97	4428.29
430.16	4264.46
430.34	4468.08
430.53	4648.30
430.72	4706.82
430.91	4528.94
431.10	4507.87
431.28	4641.28
431.47	4706.82
431.66	4741.93
431.85	4779.37
432.03	4854.27
432.22	4901.08
432.41	4905.76
432.60	4781.71
432.79	4842.57
432.97	4980.66
433.16	4837.89
433.35	4865.97
433.54	4905.76
433.72	5034.49
433.91	4901.08
434.10	5013.43
434.28	5170.24
434.47	5104.71
434.66	5139.82
434.85	5118.75
435.03	5320.04
435.22	5233.44
435.41	5219.39
435.59	5231.10
435.78	5172.58
435.97	5315.36
436.16	5156.20
436.34	5177.26
436.53	5186.63
436.72	5451.11
436.90	5301.31
437.09	5371.53
437.28	5350.46
437.46	5373.87
437.65	5399.62
437.84	5331.74
438.02	5406.64
438.21	5750.70
438.40	5523.66
438.58	5626.65
438.77	5797.51
438.96	5729.63
439.14	5757.72
439.33	5713.25
439.52	5877.09
439.70	5888.79
439.89	5809.21
440.08	6127.52
440.26	5944.96
440.45	6017.52
440.63	6139.23
440.82	6202.42
441.01	6019.86
441.19	6452.86
441.38	6356.90
441.57	6155.61
441.75	6258.59
441.94	6520.73
442.12	6518.39
442.31	6527.75
442.50	6621.38
442.68	6572.22
442.87	6544.14
443.05	6630.74
443.24	6651.80
443.43	6958.41
443.61	6764.15
443.80	6864.79
443.98	6555.84
444.17	6457.54
444.35	6745.42
444.54	7054.37
444.73	6787.55
444.91	6766.49
445.10	6988.84
445.28	6670.53
445.47	6672.87
445.65	6979.48
445.84	6796.92
446.02	6916.28
446.21	6801.60
446.39	6677.55
446.58	6806.28
446.77	6796.92
446.95	6836.70
447.14	6834.36
447.32	6930.33
447.51	6860.11
447.69	6981.82
447.88	6897.56
448.06	6843.73
448.25	6913.94
448.43	7108.21
448.62	7054.37
448.80	6913.94
448.99	6953.73
449.17	7080.12
449.36	7075.44
449.54	7222.89
449.73	7379.71
449.91	7302.47
450.10	7459.29
450.28	7417.16
450.46	7286.09
450.65	7564.61
450.83	7447.58
451.02	7466.31
451.20	7566.95
451.39	7431.20
451.57	7431.20
451.76	7566.95
451.94	7499.08
452.13	7681.64
452.31	7599.72
452.49	7595.04
452.68	7588.02
452.86	7534.18
453.05	7625.47
453.23	7733.13
453.42	7817.39
453.60	7609.08
453.78	7669.94
453.97	7524.82
454.15	7719.09
454.34	7822.07
454.52	7901.65
454.70	7786.96
454.89	7941.44
455.07	7866.54
455.26	8243.37
455.44	8074.85
455.62	7969.52
455.81	8009.31
455.99	8011.65
456.17	8287.84
456.36	8229.32
456.54	8177.83
456.73	8327.63
456.91	8432.95
457.09	8336.99
457.28	8564.02
457.46	8348.69
457.64	8507.85
457.83	8627.21
458.01	8566.36
458.19	8664.66
458.38	8484.44
458.56	8819.14
458.74	8741.90
458.93	8573.38
459.11	8596.79
459.29	8568.70
459.48	8889.35
459.66	8655.30
459.84	8858.93
460.03	9048.51
460.21	8821.48
460.39	8887.01
460.57	8713.81
460.76	9050.85
460.94	9191.28
461.12	9156.18
461.31	9074.26
461.49	8966.59
461.67	9029.79
461.85	9219.37
462.04	9121.07
462.22	9542.36
462.40	9111.71
462.59	9219.37
462.77	9327.03
462.95	9380.87
463.13	9376.19
463.32	9310.65
463.50	9476.83
463.68	9680.46
463.86	9418.32
464.05	9317.67
464.23	9394.91
464.41	9523.64
464.59	9490.87
464.78	9832.59
464.96	9657.05
465.14	9661.73
465.32	9561.09
465.50	9844.29
465.69	9879.40
465.87	9652.37
466.05	9816.21
466.23	9624.28
466.41	9600.88
466.60	10118.14
466.78	10008.13
466.96	9951.96
467.14	9614.92
467.32	9919.19
467.51	10197.71
467.69	9877.06
467.87	10001.11
468.05	10197.71
468.23	10195.37
468.41	9937.91
468.60	10106.43
468.78	10242.18
468.96	10291.34
469.14	10497.30
469.32	10516.03
469.50	10181.33
469.69	10560.50
469.87	10635.39
470.05	10682.20
470.23	10534.75
470.41	10640.08
470.59	10743.06
470.77	10527.73
470.95	10768.80
471.14	10787.53
471.32	10738.38
471.50	11063.71
471.68	10670.50
471.86	11049.67
472.04	10942.00
472.22	10986.47
472.40	10754.76
472.58	10988.82
472.77	11159.67
472.95	11625.44
473.13	11616.08
473.31	11386.71
473.49	11211.17
473.67	11590.33
473.85	11346.92
474.03	11651.19
474.21	11597.35
474.39	11889.92
474.57	11772.89
474.75	12095.89
474.93	12032.69
475.12	11850.13
475.30	11992.90
475.48	12198.87
475.66	12280.79
475.84	12383.77
476.02	12578.04
476.20	12397.82
476.38	12676.34
476.56	12592.08
476.74	12842.52
476.92	12732.51
477.10	12791.03
477.28	13252.11
477.46	12905.71
477.64	13170.19
477.82	13355.10
478.00	13635.96
478.18	13862.99
478.36	13802.14
478.54	13687.45
478.72	13809.16
478.90	13706.18
479.08	14022.15
479.26	14249.18
479.44	14115.77
479.62	14434.08
479.80	14436.42
479.98	14518.34
480.16	14761.76
480.34	14630.69
480.52	15049.64
480.70	14750.06
480.88	14726.65
481.06	14979.43
481.24	15260.29
481.41	15213.48
481.59	15506.05
481.77	15442.85
481.95	15871.17
482.13	16053.73
482.31	15976.50
482.49	16231.62
482.67	16098.20
482.85	16306.51
483.03	16545.25
483.21	16812.07
483.39	16898.67
483.57	16699.72
483.74	16805.05
483.92	17071.87
484.10	16924.41
484.28	17502.53
484.46	17528.27
484.64	18052.55
484.82	17743.60
485.00	17858.29
485.18	18434.06
485.35	18614.28
485.53	18040.85
485.71	18331.08
485.89	18759.39
486.07	18630.66
486.25	18651.73
486.43	18951.32
486.61	18871.74
486.78	19267.29
486.96	19330.48
487.14	19763.48
487.32	19534.11
487.50	19789.23
487.68	19676.88
487.85	20142.65
488.03	20493.73
488.21	20594.37
488.39	20800.34
488.57	20861.19
488.75	20978.22
488.92	21549.31
489.10	21497.82
489.28	21488.46
489.46	21813.79
489.64	21673.36
489.81	22118.06
489.99	22185.94
490.17	22359.14
490.35	22487.87
490.53	22555.74
490.70	22927.89
490.88	22405.95
491.06	23105.77
491.24	22986.40
491.41	23269.61
491.59	23304.71
491.77	23510.68
491.95	23924.96
492.13	23768.14
492.30	23899.21
492.48	24020.92
492.66	24093.47
492.84	24013.90
493.01	24779.25
493.19	24584.99
493.37	24957.13
493.54	24830.74
493.72	25172.46
493.90	25022.67
494.08	25869.94
494.25	25476.73
494.43	25783.34
494.61	25811.43
494.79	26258.47
494.96	25963.56
495.14	26403.58
495.32	26429.33
495.49	26527.63
495.67	26602.53
495.85	26778.07
496.02	26829.56
496.20	27250.86
496.38	27309.37
496.55	27281.28
496.73	27756.41
496.91	27644.07
497.09	27894.50
497.26	27946.00
497.44	28088.77
497.62	28095.79
497.79	28238.56
497.97	28180.05
498.14	29078.82
498.32	29076.48
498.50	29001.58
498.67	28975.83
498.85	28973.49
499.03	29067.11
499.20	28954.77
499.38	29495.43
499.56	29607.78
499.73	29837.15
499.91	30047.80
500.08	30171.85
500.26	29804.38
500.44	30082.91
500.61	30164.82
500.79	30326.32
500.97	30808.47
501.14	30866.98
501.32	30668.04
501.49	30953.58
501.67	30635.27
501.84	31068.27
502.02	31199.34
502.20	31033.16
502.37	31264.88
502.55	31505.95
502.72	31264.88
502.90	31529.36
503.07	31831.29
503.25	32065.34
503.43	31690.85
503.60	31985.76
503.78	32238.54
503.95	31948.31
504.13	32348.54
504.30	32304.07
504.48	32034.91
504.65	32730.05
504.83	33013.26
505.01	33221.56
505.18	32802.61
505.36	33233.27
505.53	33074.11
505.71	33097.52
505.88	33673.29
506.06	33127.94
506.23	33759.89
506.41	33546.90
506.58	33755.21
506.76	34103.95
506.93	34066.50
507.11	33598.39
507.28	34150.76
507.46	34232.68
507.63	34073.52
507.81	34806.11
507.98	34342.68
508.16	35108.04
508.33	34426.94
508.50	35122.08
508.68	35255.49
508.85	35590.19
509.03	34890.37
509.20	35419.33
509.38	35372.52
509.55	35550.40
509.73	35480.18
509.90	35234.42
510.08	35356.13
510.25	35503.59
510.42	36261.92
510.60	36154.26
510.77	36329.80
510.95	36407.03
511.12	36503.00
511.30	36350.86
511.47	36346.18
511.64	37046.00
511.82	36879.82
511.99	36884.50
512.17	37237.92
512.34	36772.16
512.51	37069.40
512.69	37015.57
512.86	37146.64
513.04	37696.67
513.21	38061.79
513.38	38106.26
513.56	37682.62
513.73	37380.70
513.90	37972.85
514.08	37832.42
514.25	38649.27
514.43	38623.52
514.60	38223.29
514.77	38213.93
514.95	38836.51
515.12	38553.30
515.29	38838.85
515.47	38438.62
515.64	38986.30
515.81	38979.28
515.99	39234.40
516.16	39311.64
516.33	39292.91
516.51	39641.65
516.68	38960.56
516.85	39171.21
517.03	39526.97
517.20	39826.56
517.37	39405.26
517.54	39807.83
517.72	40055.93
517.89	39908.47
518.06	39908.47
518.24	40222.11
518.41	40025.50
518.58	40224.45
518.75	40233.81
518.93	40313.39
519.10	40545.10
519.27	40334.45
519.45	40292.32
519.62	40737.02
519.79	40655.11
519.96	40802.56
520.14	41163.00
520.31	40622.34
520.48	41010.87
520.65	40655.11
520.83	41490.68
521.00	41563.23
521.17	41640.47
521.34	41476.63
521.52	41127.89
521.69	41469.61
521.86	41844.10
522.03	42124.96
522.20	42169.43
522.38	41989.21
522.55	42291.14
522.72	42181.13
522.89	42515.83
523.07	42454.98
523.24	42319.23
523.41	42789.67
523.58	42375.40
523.75	42904.36
523.92	42845.85
524.10	42852.87
524.27	43110.33
524.44	43248.42
524.61	43260.12
524.78	43215.65
524.96	43234.38
525.13	43271.82
525.30	43365.45
525.47	43302.25
525.64	42857.55
525.81	43629.93
525.98	43840.57
526.16	43667.37
526.33	43796.10
526.50	44032.50
526.67	43646.31
526.84	43824.19
527.01	43529.28
527.18	44133.14
527.36	44451.45
527.53	44727.64
527.70	44371.88
527.87	44512.31
528.04	43955.26
528.21	44425.71
528.38	44577.84
528.55	44741.68
528.72	44683.17
528.89	44641.04
529.07	44596.57
529.24	44626.99
529.41	44912.54
529.58	44854.03
529.75	45020.20
529.92	44961.69
530.09	44926.58
530.26	44996.80
530.43	45397.03
530.60	45038.93
530.77	44701.89
530.94	45780.88
531.11	45453.20
531.28	45495.33
531.46	45411.07
531.63	45177.02
531.80	45933.01
531.97	45769.18
532.14	45914.29
532.31	45984.51
532.48	46085.15
532.65	45614.70
532.82	45895.56
532.99	46567.30
533.16	45851.09
533.33	46330.90
533.50	46649.22
533.67	46253.67
533.84	46342.61
534.01	46284.09
534.18	46092.17
534.35	46780.29
534.52	46417.50
534.69	46866.89
534.86	46829.44
535.03	46611.77
535.20	46789.65
535.37	47007.32
535.54	46850.50
535.71	46862.21
535.88	46600.07
536.05	46820.08
536.22	47351.38
536.38	47428.62
536.55	47075.19
536.72	47271.80
536.89	46817.74
537.06	47646.29
537.23	47700.12
537.40	47220.31
537.57	47435.64
537.74	47346.70
537.91	48116.73
538.08	47522.24
538.25	47501.17
538.42	47632.24
538.59	47845.23
538.75	47374.78
538.92	47749.27
539.09	47779.70
539.26	48006.73
539.43	48252.48
539.60	48210.35
539.77	47983.32
539.94	48339.08
540.11	48069.92
540.28	47941.19
540.44	48498.24
540.61	48479.52
540.78	48355.47
540.95	48369.51
541.12	48727.61
541.29	47990.34
541.46	48683.14
541.62	48425.68
541.79	48439.73
541.96	48374.19
542.13	48685.48
542.30	48989.75
542.47	49008.48
542.63	48884.43
542.80	49233.17
542.97	49020.18
543.14	49181.68
543.31	49050.61
543.48	48722.93
543.64	49511.69
543.81	49734.04
543.98	49415.73
544.15	49586.59
544.32	49734.04
544.48	49347.86
544.65	49226.15
544.82	49298.70
544.99	49165.29
545.16	49687.23
545.32	49361.90
545.49	49808.94
545.66	49834.69
545.83	49694.25
546.00	49883.84
546.16	50284.07
546.33	49291.68
546.50	49455.52
546.67	50241.94
546.83	49525.74
547.00	50094.49
547.17	49954.05
547.34	50012.57
547.50	50094.49
547.67	50461.95
547.84	50085.12
548.00	50190.45
548.17	50490.04
548.34	50064.06
548.51	50461.95
548.67	50536.85
548.84	50024.27
549.01	49937.67
549.18	50721.75
549.34	50541.53
549.51	50581.32
549.68	50478.33
549.84	50370.67
550.01	50497.06
550.18	50759.20
550.34	50550.89
550.51	50611.74
550.68	50843.46
550.84	50375.35
551.01	50651.53
551.18	50574.30
551.34	50422.16
551.51	51040.06
551.68	51072.83
551.84	51019.00
552.01	50983.89
552.18	50768.56
552.34	50639.83
552.51	50937.08
552.68	50951.12
552.84	51082.19
553.01	51173.47
553.18	51292.84
553.34	51196.88
553.51	51178.15
553.67	50901.97
553.84	51751.59
554.01	51569.02
554.17	51643.92
554.34	51210.92
554.51	51435.61
554.67	51552.64
554.84	51133.68
555.00	51601.79
555.17	51793.71
555.33	51098.58
555.50	51091.55
555.67	51231.99
555.83	51515.19
556.00	51164.11
556.16	51536.26
556.33	51332.63
556.50	51765.63
556.66	51627.54
556.83	51643.92
556.99	52004.36
557.16	52217.35
557.32	51728.18
557.49	51569.02
557.65	51545.62
557.82	51632.22
557.98	51943.51
558.15	51559.66
558.32	51882.66
558.48	51758.61
558.65	51697.75
558.81	51938.83
558.98	51894.36
559.14	51779.67
559.31	51767.97
559.47	51735.20
559.64	51892.02
559.80	52198.63
559.97	52088.62
560.13	52051.17
560.30	52196.29
560.46	52435.02
560.63	52128.41
560.79	52200.97
560.96	51992.66
561.12	51690.73
561.29	51938.83
561.45	51892.02
561.61	52280.55
561.78	52570.77
561.94	52435.02
562.11	52463.11
562.27	52177.56
562.44	52058.20
562.60	52215.01
562.77	52215.01
562.93	52156.50
563.10	52444.38
563.26	52119.05
563.42	52570.77
563.59	52533.32
563.75	52334.38
563.92	52559.07
564.08	52203.31
564.24	52051.17
564.41	52261.82
564.57	52231.40
564.74	52463.11
564.90	52472.47
565.07	52601.20
565.23	52512.26
565.39	52250.12
565.56	52669.08
565.72	52168.20
565.88	52229.05
566.05	52425.66
566.21	52720.57
566.38	52191.61
566.54	52479.49
566.70	52409.28
566.87	52577.79
567.03	52254.80
567.19	52919.51
567.36	52608.22
567.52	52444.38
567.68	52832.91
567.85	52439.70
568.01	52266.50
568.17	52591.84
568.34	52699.50
568.50	52603.54
568.66	52753.33
568.83	52713.55
568.99	52589.50
569.15	52680.78
569.32	52727.59
569.48	52346.08
569.64	52542.69
569.81	52643.33
569.97	52736.95
570.13	52978.03
570.30	52842.27
570.46	52987.39
570.62	52629.29
570.78	52786.10
570.95	52549.71
571.11	52856.32
571.27	52449.06
571.43	52507.58
571.60	52659.71
571.76	52545.03
571.92	52907.81
572.09	52898.45
572.25	53050.58
572.41	52687.80
572.57	52699.50
572.74	52615.24
572.90	52795.46
573.06	52650.35
573.22	52650.35
573.38	52568.43
573.55	52741.63
573.71	52938.24
573.87	53015.47
574.03	53015.47
574.20	52971.00
574.36	52746.31
574.52	52912.49
574.68	52758.02
574.84	53057.60
575.01	52891.43
575.17	52928.87
575.33	52638.65
575.49	52795.46
575.65	52978.03
575.82	53139.52
575.98	53062.29
576.14	52905.47
576.30	53179.31
576.46	52966.32
576.62	52575.45
576.79	52966.32
576.95	52678.44
577.11	53073.99
577.27	52556.73
577.43	53041.22
577.59	52856.32
577.75	52907.81
577.92	52671.42
578.08	52949.94
578.24	52823.55
578.40	52875.04
578.56	53059.94
578.72	53078.67
578.88	53139.52
579.04	52966.32
579.21	52933.56
579.37	53242.51
579.53	53031.86
579.69	52865.68
579.85	52612.90
580.01	52561.41
580.17	52652.69
580.33	52631.63
580.49	52877.38
580.65	53209.74
580.82	53031.86
580.98	52790.78
581.14	52725.25
581.30	53099.73
581.46	52577.79
581.62	52765.04
581.78	52596.52
581.94	52823.55
582.10	52926.53
582.26	53062.29
582.42	53146.54
582.58	53050.58
582.74	53127.82
582.90	52865.68
583.06	53186.33
583.22	52931.22
583.38	53097.39
583.54	53183.99
583.70	52940.58
583.86	53104.41
584.02	52842.27
584.18	53305.70
584.34	53242.51
584.50	53153.57
584.66	52767.38
584.82	52727.59
584.98	53062.29
585.14	53160.59
585.30	52671.42
585.46	53052.92
585.62	53052.92
585.78	53514.01
585.94	52989.73
586.10	52870.36
586.26	53036.54
586.42	53127.82
586.58	53361.87
586.74	53066.97
586.90	52739.29
587.06	52687.80
587.22	53158.25
587.38	53041.22
587.54	52921.85
587.70	53315.06
587.86	53343.15
588.02	53359.53
588.18	53301.02
588.34	52924.19
588.49	53368.90
588.65	52921.85
588.81	53221.44
588.97	53104.41
589.13	53104.41
589.29	53202.72
589.45	53130.16
589.61	53488.26
589.77	53429.75
589.93	53631.04
590.08	53317.40
