SpectraSuite Data File
++++++++++++++++++++++++++++++++++++
Date: Fri Oct 04 11:48:44 GMT-05:00 2013
User: price-jones
Dark Spectrum Present: No
Reference Spectrum Present: No
Number of Sampled Component Spectra: 1
Spectrometers: USB2+H05261
Integration Time (usec): 100000 (USB2+H05261)
Spectra Averaged: 1 (USB2+H05261)
Boxcar Smoothing: 0 (USB2+H05261)
Correct for Electrical Dark: No (USB2+H05261)
Strobe/Lamp Enabled: No (USB2+H05261)
Correct for Detector Non-linearity: No (USB2+H05261)
Correct for Stray Light: No (USB2+H05261)
Number of Pixels in Processed Spectrum: 2048
>>>>>Begin Processed Spectral Data<<<<<
365.73	98.30
365.92	98.30
366.12	98.30
366.32	2.34
366.52	0.00
366.72	0.00
366.91	0.00
367.11	0.00
367.31	0.00
367.51	0.00
367.70	0.00
367.90	0.00
368.10	0.00
368.30	0.00
368.49	0.00
368.69	0.00
368.89	0.00
369.09	0.00
369.28	0.00
369.48	49.15
369.68	0.00
369.87	0.00
370.07	11.70
370.27	0.00
370.47	248.10
370.66	533.64
370.86	566.41
371.06	624.92
371.25	582.79
371.45	540.66
371.65	720.88
371.84	613.22
372.04	608.54
372.24	634.29
372.44	662.37
372.63	669.39
372.83	699.82
373.03	688.12
373.22	730.25
373.42	809.83
373.62	737.27
373.81	788.76
374.01	800.46
374.21	767.70
374.40	772.38
374.60	854.30
374.79	816.85
374.99	774.72
375.19	744.29
375.38	774.72
375.58	929.19
375.78	940.90
375.97	854.30
376.17	793.44
376.37	947.92
376.56	870.68
376.76	763.01
376.95	844.93
377.15	901.11
377.35	990.05
377.54	938.55
377.74	945.58
377.93	889.40
378.13	910.47
378.33	987.71
378.52	847.27
378.72	945.58
378.91	987.71
379.11	973.66
379.31	917.49
379.50	959.62
379.70	933.87
379.89	1004.09
380.09	926.85
380.28	1013.45
380.48	1025.15
380.68	957.28
380.87	1104.73
381.07	1083.67
381.26	1001.75
381.46	1043.88
381.65	1074.31
381.85	1109.41
382.04	1076.65
382.24	1160.91
382.43	1076.65
382.63	1139.84
382.83	1172.61
383.02	1210.06
383.22	1191.33
383.41	1156.22
383.61	1235.80
383.80	1254.53
384.00	1174.95
384.19	1181.97
384.39	1310.70
384.58	1193.67
384.78	1238.14
384.97	1331.76
385.17	1266.23
385.36	1280.27
385.56	1329.42
385.75	1240.48
385.95	1259.21
386.14	1259.21
386.34	1266.23
386.53	1329.42
386.72	1378.58
386.92	1291.98
387.11	1383.26
387.31	1282.61
387.50	1336.45
387.70	1296.66
387.89	1399.64
388.09	1430.07
388.28	1413.68
388.48	1420.71
388.67	1334.11
388.86	1558.80
389.06	1434.75
389.25	1366.87
389.45	1521.35
389.64	1476.88
389.84	1554.12
390.03	1481.56
390.22	1486.24
390.42	1507.30
390.61	1519.01
390.81	1596.25
391.00	1671.14
391.19	1619.65
391.39	1664.12
391.58	1654.76
391.78	1664.12
391.97	1741.36
392.16	1593.90
392.36	1736.68
392.55	1781.15
392.75	1778.81
392.94	1687.53
393.13	1732.00
393.33	1645.40
393.52	1804.55
393.71	1851.36
393.91	1816.26
394.10	1825.62
394.29	1851.36
394.49	1769.44
394.68	1898.17
394.88	1893.49
395.07	1923.92
395.26	1825.62
395.46	1898.17
395.65	1977.75
395.84	1984.77
396.04	1970.73
396.23	2022.22
396.42	2001.16
396.62	2111.16
396.81	2062.01
397.00	2017.54
397.19	2050.31
397.39	2031.58
397.58	2087.76
397.77	2153.29
397.97	2078.40
398.16	2225.85
398.35	2232.87
398.55	2122.87
398.74	2193.08
398.93	2242.23
399.12	2265.64
399.32	2214.15
399.51	2221.17
399.70	2375.64
399.90	2181.38
400.09	2328.83
400.28	2392.03
400.47	2436.50
400.67	2427.14
400.86	2410.75
401.05	2572.25
401.24	2424.80
401.44	2574.59
401.63	2480.97
401.82	2485.65
402.01	2466.92
402.21	2583.95
402.40	2621.40
402.59	2530.12
402.78	2607.36
402.97	2555.86
403.17	2726.72
403.36	2621.40
403.55	2565.23
403.74	2808.64
403.93	2888.22
404.13	2827.37
404.32	2822.69
404.51	2752.47
404.70	2818.00
404.89	2839.07
405.09	2874.18
405.28	2928.01
405.47	3061.42
405.66	2867.16
405.85	2960.78
406.05	2918.65
406.24	3049.72
406.43	2995.89
406.62	3101.21
406.81	3164.40
407.00	3080.14
407.20	3176.11
407.39	2986.52
407.58	3318.88
407.77	3124.62
407.96	3330.58
408.15	3281.43
408.34	3148.02
408.54	3391.44
408.73	3414.84
408.92	3279.09
409.11	3332.92
409.30	3531.87
409.49	3480.38
409.68	3459.31
409.87	3440.59
410.07	3536.55
410.26	3627.83
410.45	3653.58
410.64	3653.58
410.83	3712.09
411.02	3611.45
411.21	3716.77
411.40	3798.69
411.59	3854.86
411.78	3808.05
411.98	3679.32
412.17	3812.73
412.36	3810.39
412.55	4009.34
412.74	4081.89
412.93	3960.19
413.12	3957.85
413.31	4257.43
413.50	4095.94
413.69	4236.37
413.88	4227.01
414.07	4308.93
414.26	4250.41
414.45	4271.48
414.64	4264.46
414.83	4423.61
415.02	4615.54
415.22	4454.04
415.41	4765.33
415.60	4667.03
415.79	4669.37
415.98	4840.23
416.17	4802.78
416.36	4807.46
416.55	4816.82
416.74	5006.41
416.93	4903.42
417.12	5027.47
417.31	5111.73
417.50	4873.00
417.69	5270.89
417.88	5090.67
418.07	5083.64
418.26	5067.26
418.45	5231.10
418.64	5378.55
418.83	5305.99
419.02	5170.24
419.21	5462.81
419.39	5465.15
419.58	5483.88
419.77	5509.62
419.96	5488.56
420.15	5500.26
420.34	5504.94
420.53	5551.75
420.72	5631.33
420.91	5769.42
421.10	5757.72
421.29	5921.56
421.48	5558.77
421.67	5830.27
421.86	5982.41
422.05	5757.72
422.24	5942.62
422.43	5631.33
422.61	5820.91
422.80	5937.94
422.99	5949.64
423.18	5907.51
423.37	6066.67
423.56	5968.37
423.75	5944.96
423.94	5757.72
424.13	5542.39
424.32	5493.24
424.50	6015.18
424.69	6101.78
424.88	6073.69
425.07	5870.06
425.26	6026.88
425.45	5844.32
425.64	5987.09
425.83	5956.66
426.01	6293.70
426.20	5947.30
426.39	6228.17
426.58	6087.73
426.77	6202.42
426.96	6036.24
427.15	6090.07
427.33	6171.99
427.52	6132.20
427.71	6211.78
427.90	6359.24
428.09	6338.17
428.28	6300.72
428.46	6422.43
428.65	6513.71
428.84	6729.04
429.03	6745.42
429.22	6471.58
429.40	6473.92
429.59	6864.79
429.78	6572.22
429.97	6537.12
430.16	6333.49
430.34	6771.17
430.53	6757.13
430.72	6792.23
430.91	6698.61
431.10	6707.98
431.28	6977.14
431.47	7005.22
431.66	7089.48
431.85	7023.95
432.03	7110.55
432.22	7119.91
432.41	7021.61
432.60	7204.17
432.79	7241.62
432.97	7232.26
433.16	7316.51
433.35	7323.54
433.54	7393.75
433.72	7529.50
433.91	7346.94
434.10	7485.03
434.28	7513.12
434.47	7595.04
434.66	7433.54
434.85	7548.23
435.03	7595.04
435.22	7698.02
435.41	7955.48
435.59	7475.67
435.78	7887.61
435.97	7793.98
436.16	7723.77
436.34	7896.97
436.53	7810.37
436.72	8149.75
436.90	7744.83
437.09	7990.59
437.28	7829.09
437.46	8079.53
437.65	8105.28
437.84	8088.89
438.02	8039.74
438.21	8116.98
438.40	8334.65
438.58	8449.33
438.77	8425.93
438.96	8313.58
439.14	8578.06
439.33	8699.77
439.52	8615.51
439.70	8879.99
439.89	8723.18
440.08	8943.19
440.26	9083.62
440.45	8940.85
440.63	9097.66
440.82	9324.69
441.01	9177.24
441.19	9348.10
441.38	9544.70
441.57	9350.44
441.75	9287.25
441.94	9607.90
442.12	9689.82
442.31	9881.74
442.50	9818.55
442.68	9666.41
442.87	9954.30
443.05	10050.26
443.24	9989.41
443.43	10139.20
443.61	10092.39
443.80	10291.34
443.98	9884.08
444.17	9533.00
444.35	10052.60
444.54	10214.10
444.73	10377.94
444.91	10076.01
445.10	10076.01
445.28	10251.55
445.47	10244.52
445.65	10237.50
445.84	10141.54
446.02	10373.25
446.21	10174.31
446.39	10230.48
446.58	10516.03
446.77	10270.27
446.95	10256.23
447.14	10134.52
447.32	10445.81
447.51	10319.42
447.69	10389.64
447.88	10525.39
448.06	10319.42
448.25	10258.57
448.43	10642.42
448.62	10410.70
448.80	10394.32
448.99	10487.94
449.17	10717.31
449.36	10724.33
449.54	10899.87
449.73	11154.99
449.91	10878.81
450.10	11016.90
450.28	10930.30
450.46	11145.63
450.65	11204.14
450.83	11131.59
451.02	11084.78
451.20	11328.19
451.39	11386.71
451.57	10984.13
451.76	11211.17
451.94	11524.80
452.13	11555.22
452.31	11477.99
452.49	11342.24
452.68	11609.06
452.86	11330.53
453.05	11740.13
453.23	11852.47
453.42	11564.59
453.60	11662.89
453.78	11782.26
453.97	11417.13
454.15	11894.60
454.34	11688.64
454.52	11941.41
454.70	12098.23
454.89	11868.86
455.07	12123.98
455.26	12128.66
455.44	12175.47
455.62	12322.92
455.81	12248.02
455.99	12400.16
456.17	12255.04
456.36	12458.67
456.54	12716.13
456.73	12631.87
456.91	12786.35
457.09	12915.08
457.28	13280.20
457.46	12809.75
457.64	12957.21
457.83	13048.49
458.01	12975.93
458.19	13083.59
458.38	12996.99
458.56	13231.05
458.74	13441.70
458.93	13167.85
459.11	13327.01
459.29	13334.03
459.48	13369.14
459.66	13521.27
459.84	13453.40
460.03	13650.00
460.21	13860.65
460.39	13502.55
460.57	13551.70
460.76	13865.33
460.94	13633.62
461.12	13741.29
461.31	13738.94
461.49	13771.71
461.67	13926.19
461.85	14111.09
462.04	14307.69
462.22	14569.83
462.40	14427.06
462.59	14169.60
462.77	14216.41
462.95	14436.42
463.13	14258.54
463.32	14443.45
463.50	14450.47
463.68	14541.75
463.86	14628.35
464.05	14583.88
464.23	14398.98
464.41	15000.49
464.59	14455.15
464.78	14895.17
464.96	14618.99
465.14	14672.82
465.32	15019.22
465.50	15208.80
465.69	14913.89
465.87	14899.85
466.05	14857.72
466.23	14939.64
466.41	15297.74
466.60	15658.18
466.78	15190.08
466.96	15250.93
467.14	15360.94
467.32	15307.10
467.51	15850.11
467.69	15147.95
467.87	15482.64
468.05	15709.68
468.23	15597.33
468.41	15342.21
468.60	15564.56
468.78	15627.76
468.96	15683.93
469.14	15927.35
469.32	16238.64
469.50	15957.77
469.69	16240.98
469.87	16353.32
470.05	16570.99
470.23	16126.29
470.41	16503.12
470.59	16573.33
470.77	16327.58
470.95	16652.91
471.14	16933.78
471.32	16425.88
471.50	16992.29
471.68	16863.56
471.86	17235.70
472.04	17057.82
472.22	17376.14
472.40	16910.37
472.58	17453.37
472.77	17357.41
472.95	17523.59
473.13	17909.78
473.31	17635.94
473.49	17858.29
473.67	17673.39
473.85	17745.94
474.03	18249.16
474.21	18094.68
474.39	18246.82
474.57	18396.61
474.75	18684.50
474.93	18925.57
475.12	18338.10
475.30	18555.77
475.48	18878.76
475.66	19225.16
475.84	18960.68
476.02	19136.22
476.20	19316.44
476.38	19840.72
476.56	19803.27
476.74	19723.69
476.92	19829.02
477.10	19730.72
477.28	20315.85
477.46	20259.68
477.64	20608.42
477.82	20816.72
478.00	21364.41
478.18	21074.18
478.36	21261.43
478.54	21525.91
478.72	21542.29
478.90	21549.31
479.08	21912.10
479.26	22073.59
479.44	22211.68
479.62	22621.28
479.80	22670.43
479.98	22649.36
480.16	23112.79
480.34	22967.68
480.52	23433.44
480.70	23321.10
480.88	23084.70
481.06	23449.83
481.24	23751.76
481.41	23548.13
481.59	24140.29
481.77	24638.82
481.95	24437.53
482.13	24797.98
482.31	24814.36
482.49	25170.12
482.67	25195.87
482.85	25319.92
483.03	25886.32
483.21	26216.34
483.39	26218.68
483.57	26785.09
483.74	26747.64
483.92	27103.40
484.10	26878.71
484.28	27583.21
484.46	27529.38
484.64	28126.22
484.82	27555.13
485.00	27948.34
485.18	28573.26
485.35	29090.52
485.53	28629.43
485.71	29132.65
485.89	29582.03
486.07	29289.46
486.25	29504.79
486.43	29645.23
486.61	30087.59
486.78	30281.85
486.96	30670.38
487.14	31192.32
487.32	31180.62
487.50	31386.58
487.68	31555.10
487.85	32077.04
488.03	32355.57
488.21	32730.05
488.39	32528.77
488.57	32678.56
488.75	32968.79
488.92	33411.15
489.10	33687.33
489.28	33462.64
489.46	34450.35
489.64	33965.85
489.81	34974.63
489.99	34579.07
490.17	34941.86
490.35	35452.09
490.53	35393.58
490.70	35945.95
490.88	35534.01
491.06	36067.66
491.24	35873.39
491.41	36130.85
491.59	36783.86
491.77	37214.52
491.95	37490.70
492.13	37542.19
492.30	37556.24
492.48	37874.55
492.66	37825.40
492.84	37961.15
493.01	38766.29
493.19	38452.66
493.37	39136.10
493.54	39297.59
493.72	39428.66
493.90	39084.61
494.08	40156.57
494.25	40498.29
494.43	40065.29
494.61	40816.60
494.79	40765.11
494.96	40840.01
495.14	41057.68
495.32	41432.16
495.49	41675.58
495.67	42000.91
495.85	42469.02
496.02	42586.05
496.20	42150.71
496.38	42759.25
496.55	42906.70
496.73	43428.64
496.91	43311.61
497.09	43494.18
497.26	43955.26
497.44	43831.21
497.62	44369.54
497.79	44704.23
497.97	44158.89
498.14	44884.45
498.32	45387.67
498.50	45464.91
498.67	45333.84
498.85	45397.03
499.03	45675.55
499.20	45860.46
499.38	45680.24
499.56	46155.36
499.73	46431.55
499.91	47012.00
500.08	46653.90
500.26	46536.87
500.44	46852.84
500.61	46820.08
500.79	47063.49
500.97	47538.62
501.14	47746.93
501.32	48051.20
501.49	47756.29
501.67	48264.19
501.84	48360.15
502.02	47969.28
502.20	48315.68
502.37	48547.39
502.55	48825.92
502.72	48666.76
502.90	48825.92
503.07	48772.08
503.25	48968.69
503.43	49488.29
503.60	49595.95
503.78	49106.78
503.95	49607.65
504.13	50028.95
504.30	49530.42
504.48	49724.68
504.65	50291.09
504.83	50471.31
505.01	50726.43
505.18	50284.07
505.36	50698.34
505.53	50656.21
505.71	50560.25
505.88	50829.41
506.06	50714.73
506.23	51215.60
506.41	51166.45
506.58	51517.53
506.76	51370.08
506.93	51524.55
507.11	51576.04
507.28	51578.39
507.46	51597.11
507.63	52032.45
507.81	52224.37
507.98	51789.03
508.16	52226.71
508.33	52018.41
508.50	52364.81
508.68	52273.52
508.85	52566.09
509.03	52453.75
509.20	53050.58
509.38	53151.23
509.55	53305.70
509.73	53174.63
509.90	53282.30
510.08	53361.87
510.25	53450.81
510.42	53558.48
510.60	53663.80
510.77	54035.95
510.95	53773.81
511.12	53684.87
511.30	54049.99
511.47	54244.26
511.64	54150.63
511.82	54265.32
511.99	54251.28
512.17	54513.42
512.34	54422.14
512.51	54663.21
512.69	54862.16
512.86	54670.23
513.04	54822.37
513.21	54981.52
513.38	54981.52
513.56	55061.10
513.73	54927.69
513.90	55370.05
514.08	54740.45
514.25	55196.85
514.43	55470.70
514.60	55351.33
514.77	55639.22
514.95	55587.72
515.12	55419.20
515.29	55702.41
515.47	55828.80
515.64	55973.91
515.81	55728.16
515.99	55796.03
516.16	56409.25
516.33	56161.15
516.51	56271.16
516.68	56123.71
516.85	56161.15
517.03	56633.94
517.20	56519.26
517.37	56521.60
517.54	56657.35
517.72	56568.41
517.89	56488.83
518.06	56533.30
518.24	56603.52
518.41	56905.44
518.58	56891.40
518.75	56762.67
518.93	57193.33
519.10	57104.39
519.27	57226.10
519.45	57001.41
519.62	57303.34
519.79	57315.04
519.96	57434.41
520.14	57776.12
520.31	57464.83
520.48	57563.14
520.65	57490.58
520.83	57815.91
521.00	57790.17
521.17	57691.86
521.34	57783.15
521.52	57818.25
521.69	58047.63
521.86	58272.32
522.03	58255.93
522.20	58195.08
522.38	58295.72
522.55	58391.68
522.72	58464.24
522.89	58382.32
523.07	58585.95
523.24	58583.61
523.41	58653.82
523.58	58447.86
523.75	58607.01
523.92	58733.40
524.10	58623.40
524.27	58824.68
524.44	59077.46
524.61	59028.31
524.78	59152.36
524.96	59065.76
525.13	59140.66
525.30	58997.88
525.47	59334.92
525.64	59456.63
525.81	59255.34
525.98	59489.40
526.16	59384.07
526.33	59437.90
526.50	59484.72
526.67	59318.54
526.84	59580.68
527.01	59526.84
527.18	59512.80
527.36	59688.34
527.53	59821.75
527.70	60039.42
527.87	59978.57
528.04	59833.46
528.21	59765.58
528.38	59796.01
528.55	60238.37
528.72	60154.11
528.89	60175.17
529.07	60114.32
529.24	60240.71
529.41	60320.29
529.58	60027.72
529.75	59990.27
529.92	60243.05
530.09	60243.05
530.26	60566.04
530.43	60505.19
530.60	60240.71
530.77	60409.23
530.94	60678.39
531.11	60355.39
531.28	60381.14
531.46	60704.13
531.63	60809.46
531.80	60842.23
531.97	60945.21
532.14	60865.63
532.31	60907.76
532.48	61003.72
532.65	60900.74
532.82	60851.59
532.99	60961.59
533.16	60989.68
533.33	61038.83
533.50	61219.05
533.67	61258.84
533.84	60956.91
534.01	61137.13
534.18	61017.77
534.35	61380.55
534.52	61382.89
534.69	61408.64
534.86	61502.26
535.03	61338.42
535.20	61701.20
535.37	61490.55
535.54	61605.24
535.71	61403.95
535.88	61661.41
536.05	61593.54
536.22	61862.70
536.38	61773.76
536.55	61932.92
536.72	62010.15
536.89	61684.82
537.06	61738.65
537.23	61731.63
537.40	61851.00
537.57	61907.17
537.74	62045.26
537.91	62192.72
538.08	61921.21
538.25	61876.74
538.42	61998.45
538.59	62183.35
538.75	61998.45
538.92	62024.20
539.09	62169.31
539.26	62248.89
539.43	62342.51
539.60	62349.53
539.77	62281.66
539.94	62422.09
540.11	62548.48
540.28	62478.26
540.44	62494.64
540.61	62312.08
540.78	62394.00
540.95	62550.82
541.12	62504.01
541.29	62571.88
541.46	62595.29
541.62	62452.51
541.79	62635.08
541.96	62721.68
542.13	62515.71
542.30	62967.43
542.47	62770.83
542.63	62738.06
542.80	63135.95
542.97	63171.06
543.14	63105.52
543.31	63238.93
543.48	63257.66
543.64	63327.87
543.81	63323.19
543.98	63386.39
544.15	63451.92
544.32	63348.94
544.48	63503.42
544.65	63393.41
544.82	63482.35
544.99	63330.22
545.16	63547.89
545.32	63360.64
545.49	63795.98
545.66	63702.36
545.83	63711.72
546.00	63852.15
546.16	63690.66
546.33	63515.12
546.50	63334.90
546.67	63611.08
546.83	63559.59
547.00	63711.72
547.17	63749.17
547.34	63760.87
547.50	63831.09
547.67	63945.78
547.84	63744.49
548.00	64062.80
548.17	64011.31
548.34	63976.20
548.51	64065.14
548.67	64140.04
548.84	64142.38
549.01	64142.38
549.18	64015.99
549.34	64051.10
549.51	63966.84
549.68	64140.04
549.84	64093.23
550.01	64205.58
550.18	64133.02
550.34	64416.22
550.51	64308.56
550.68	64273.45
550.84	64123.66
551.01	64411.54
551.18	64324.94
551.34	64116.64
551.51	64418.56
551.68	64573.04
551.84	64465.38
552.01	64413.88
552.18	64746.24
552.34	64594.10
552.51	64566.02
552.68	64633.89
552.84	64537.93
553.01	64631.55
553.18	64580.06
553.34	64769.64
553.51	64741.56
553.67	64633.89
553.84	65027.10
554.01	64959.23
554.17	65010.72
554.34	64968.59
554.51	64809.43
554.67	64949.87
554.84	65008.38
555.00	64825.82
555.17	64963.91
555.33	65029.44
555.50	64898.37
555.67	64966.25
555.83	64879.65
556.00	65043.49
556.16	65120.73
556.33	65080.94
556.50	65160.51
556.66	65216.69
556.83	65036.47
556.99	65314.99
557.16	65209.67
557.32	65272.86
557.49	65300.95
557.65	64945.18
557.82	65008.38
557.98	65254.14
558.15	65179.24
558.32	65352.44
558.48	65242.43
558.65	65535.00
558.81	65183.92
558.98	65415.63
559.14	65424.99
559.31	65338.40
559.47	65429.68
559.64	65535.00
559.80	65535.00
559.97	65471.81
560.13	65457.76
560.30	65535.00
560.46	65535.00
560.63	65535.00
560.79	65535.00
560.96	65535.00
561.12	65474.15
561.29	65490.53
561.45	65535.00
561.61	65535.00
561.78	65535.00
561.94	65535.00
562.11	65535.00
562.27	65535.00
562.44	65535.00
562.60	65535.00
562.77	65535.00
562.93	65535.00
563.10	65535.00
563.26	65535.00
563.42	65535.00
563.59	65535.00
563.75	65535.00
563.92	65535.00
564.08	65535.00
564.24	65535.00
564.41	65535.00
564.57	65535.00
564.74	65535.00
564.90	65535.00
565.07	65535.00
565.23	65535.00
565.39	65535.00
565.56	65535.00
565.72	65535.00
565.88	65535.00
566.05	65535.00
566.21	65535.00
566.38	65535.00
566.54	65535.00
566.70	65535.00
566.87	65535.00
567.03	65535.00
567.19	65535.00
567.36	65535.00
567.52	65535.00
567.68	65535.00
567.85	65535.00
568.01	65535.00
568.17	65535.00
568.34	65535.00
568.50	65535.00
568.66	65535.00
568.83	65535.00
568.99	65535.00
569.15	65535.00
569.32	65535.00
569.48	65535.00
569.64	65535.00
569.81	65535.00
569.97	65535.00
570.13	65535.00
570.30	65535.00
570.46	65535.00
570.62	65535.00
570.78	65535.00
570.95	65535.00
571.11	65535.00
571.27	65535.00
571.43	65535.00
571.60	65535.00
571.76	65535.00
571.92	65535.00
572.09	65535.00
572.25	65535.00
572.41	65535.00
572.57	65535.00
572.74	65535.00
572.90	65535.00
573.06	65535.00
573.22	65535.00
573.38	65535.00
573.55	65535.00
573.71	65535.00
573.87	65535.00
574.03	65535.00
574.20	65535.00
574.36	65535.00
574.52	65535.00
574.68	65535.00
574.84	65535.00
575.01	65535.00
575.17	65535.00
575.33	65535.00
575.49	65535.00
575.65	65535.00
575.82	65535.00
575.98	65535.00
576.14	65535.00
576.30	65535.00
576.46	65535.00
576.62	65535.00
576.79	65535.00
576.95	65535.00
577.11	65535.00
577.27	65535.00
577.43	65535.00
577.59	65535.00
577.75	65535.00
577.92	65535.00
578.08	65535.00
578.24	65535.00
578.40	65535.00
578.56	65535.00
578.72	65535.00
578.88	65535.00
579.04	65535.00
579.21	65535.00
579.37	65535.00
579.53	65535.00
579.69	65535.00
579.85	65535.00
580.01	65535.00
580.17	65535.00
580.33	65535.00
580.49	65535.00
580.65	65535.00
580.82	65535.00
580.98	65535.00
581.14	65535.00
581.30	65535.00
581.46	65535.00
581.62	65535.00
581.78	65535.00
581.94	65535.00
582.10	65535.00
582.26	65535.00
582.42	65535.00
582.58	65535.00
582.74	65535.00
582.90	65535.00
583.06	65535.00
583.22	65535.00
583.38	65535.00
583.54	65535.00
583.70	65535.00
583.86	65535.00
584.02	65535.00
584.18	65535.00
584.34	65535.00
584.50	65535.00
584.66	65535.00
584.82	65535.00
584.98	65535.00
585.14	65535.00
585.30	65535.00
585.46	65535.00
585.62	65535.00
585.78	65535.00
585.94	65535.00
586.10	65535.00
586.26	65535.00
586.42	65535.00
586.58	65535.00
586.74	65535.00
586.90	65535.00
587.06	65535.00
587.22	65535.00
587.38	65535.00
587.54	65535.00
587.70	65535.00
587.86	65535.00
588.02	65535.00
