SpectraSuite Data File
++++++++++++++++++++++++++++++++++++
Date: Fri Oct 04 11:48:29 GMT-05:00 2013
User: price-jones
Dark Spectrum Present: No
Reference Spectrum Present: No
Number of Sampled Component Spectra: 1
Spectrometers: USB2+H05261
Integration Time (usec): 100000 (USB2+H05261)
Spectra Averaged: 1 (USB2+H05261)
Boxcar Smoothing: 0 (USB2+H05261)
Correct for Electrical Dark: No (USB2+H05261)
Strobe/Lamp Enabled: No (USB2+H05261)
Correct for Detector Non-linearity: No (USB2+H05261)
Correct for Stray Light: No (USB2+H05261)
Number of Pixels in Processed Spectrum: 2048
>>>>>Begin Processed Spectral Data<<<<<
365.73	65.54
365.92	65.54
366.12	65.54
366.32	0.00
366.52	0.00
366.72	0.00
366.91	0.00
367.11	0.00
367.31	0.00
367.51	0.00
367.70	0.00
367.90	0.00
368.10	0.00
368.30	0.00
368.49	0.00
368.69	0.00
368.89	0.00
369.09	0.00
369.28	0.00
369.48	0.00
369.68	0.00
369.87	25.75
370.07	0.00
370.27	28.09
370.47	163.84
370.66	353.42
370.86	465.77
371.06	514.92
371.25	561.73
371.45	404.91
371.65	547.69
371.84	444.70
372.04	559.39
372.24	524.28
372.44	547.69
372.63	594.50
372.83	620.24
373.03	538.32
373.22	641.31
373.42	550.03
373.62	608.54
373.81	620.24
374.01	606.20
374.21	669.39
374.40	578.11
374.60	706.84
374.79	709.18
374.99	660.03
375.19	678.76
375.38	660.03
375.58	617.90
375.78	758.33
375.97	603.86
376.17	741.95
376.37	753.65
376.56	758.33
376.76	676.41
376.95	732.59
377.15	795.78
377.35	709.18
377.54	748.97
377.74	746.63
377.93	669.39
378.13	704.50
378.33	840.25
378.52	746.63
378.72	816.85
378.91	723.23
379.11	746.63
379.31	688.12
379.50	744.29
379.70	912.81
379.89	847.27
380.09	830.89
380.28	844.93
380.48	903.45
380.68	819.19
380.87	795.78
381.07	870.68
381.26	873.02
381.46	830.89
381.65	933.87
381.85	905.79
382.04	910.47
382.24	987.71
382.43	954.94
382.63	889.40
382.83	926.85
383.02	1004.09
383.22	968.98
383.41	938.55
383.61	901.11
383.80	954.94
384.00	1034.52
384.19	952.60
384.39	1018.13
384.58	1008.77
384.78	1060.26
384.97	985.37
385.17	1008.77
385.36	1036.86
385.56	1027.50
385.75	990.05
385.95	978.34
386.14	1081.33
386.34	971.32
386.53	1093.03
386.72	997.07
386.92	1076.65
387.11	1032.18
387.31	1104.73
387.50	1069.62
387.70	1153.88
387.89	1219.42
388.09	1132.82
388.28	1167.93
388.48	1069.62
388.67	1193.67
388.86	1270.91
389.06	1231.12
389.25	1221.76
389.45	1172.61
389.64	1181.97
389.84	1193.67
390.03	1196.01
390.22	1296.66
390.42	1242.82
390.61	1193.67
390.81	1188.99
391.00	1383.26
391.19	1345.81
391.39	1380.92
391.58	1294.32
391.78	1315.38
391.97	1409.00
392.16	1401.98
392.36	1334.11
392.55	1362.19
392.75	1362.19
392.94	1483.90
393.13	1341.13
393.33	1317.72
393.52	1409.00
393.71	1481.56
393.91	1439.43
394.10	1453.47
394.29	1425.39
394.49	1469.86
394.68	1600.93
394.88	1528.37
395.07	1617.31
395.26	1530.71
395.46	1629.01
395.65	1605.61
395.84	1551.78
396.04	1661.78
396.23	1703.91
396.42	1703.91
396.62	1687.53
396.81	1682.85
397.00	1661.78
397.19	1680.50
397.39	1633.69
397.58	1788.17
397.77	1720.29
397.97	1799.87
398.16	1809.23
398.35	1806.89
398.55	1760.08
398.74	1783.49
398.93	1853.70
399.12	1781.15
399.32	1769.44
399.51	1753.06
399.70	1947.33
399.90	1858.39
400.09	1858.39
400.28	1949.67
400.47	1963.71
400.67	2083.08
400.86	1947.33
401.05	1973.07
401.24	2031.58
401.44	1989.46
401.63	2122.87
401.82	2005.84
402.01	1989.46
402.21	1998.82
402.40	2165.00
402.59	2036.27
402.78	2120.53
402.97	2069.03
403.17	2129.89
403.36	2207.13
403.55	2242.23
403.74	2179.04
403.93	2221.17
404.13	2321.81
404.32	2312.45
404.51	2253.94
404.70	2413.09
404.89	2303.09
405.09	2317.13
405.28	2333.51
405.47	2448.20
405.66	2516.08
405.85	2375.64
406.05	2399.05
406.24	2413.09
406.43	2403.73
406.62	2471.61
406.81	2602.68
407.00	2605.02
407.20	2567.57
407.39	2633.10
407.58	2534.80
407.77	2621.40
407.96	2729.06
408.15	2537.14
408.34	2672.89
408.54	2635.44
408.73	2635.44
408.92	2792.26
409.11	2843.75
409.30	2745.45
409.49	2911.63
409.68	2829.71
409.87	2890.56
410.07	2874.18
410.26	3014.61
410.45	2808.64
410.64	2928.01
410.83	3049.72
411.02	2890.56
411.21	3141.00
411.40	3105.89
411.59	3126.96
411.78	3162.06
411.98	3094.19
412.17	3215.90
412.36	3321.22
412.55	3239.30
412.74	3318.88
412.93	3335.26
413.12	3342.28
413.31	3510.80
413.50	3274.41
413.69	3428.88
413.88	3492.08
414.07	3620.81
414.26	3478.04
414.45	3557.61
414.64	3501.44
414.83	3543.57
415.02	3744.86
415.22	3742.52
415.41	3726.13
415.60	3838.48
415.79	3763.58
415.98	3992.95
416.17	3939.12
416.36	3901.67
416.55	4025.72
416.74	3885.29
416.93	4215.30
417.12	4117.00
417.31	3988.27
417.50	4154.45
417.69	4222.33
417.88	4236.37
418.07	4390.84
418.26	4112.32
418.45	4397.87
418.64	4430.63
418.83	4393.19
419.02	4252.75
419.21	4332.33
419.39	4437.66
419.58	4444.68
419.77	4325.31
419.96	4641.28
420.15	4526.60
420.34	4514.89
420.53	4571.07
420.72	4535.96
420.91	4641.28
421.10	4697.46
421.29	4683.41
421.48	4524.26
421.67	4770.01
421.86	4727.88
422.05	4727.88
422.24	4636.60
422.43	4545.32
422.61	4936.19
422.80	4830.87
422.99	4784.06
423.18	4873.00
423.37	5071.94
423.56	4713.84
423.75	4861.29
423.94	4938.53
424.13	4535.96
424.32	4512.55
424.50	5018.11
424.69	4947.89
424.88	4910.44
425.07	4903.42
425.26	4793.42
425.45	4938.53
425.64	4765.33
425.83	4994.70
426.01	4999.38
426.20	4828.53
426.39	4980.66
426.58	5034.49
426.77	4945.55
426.96	5107.05
427.15	5022.79
427.33	5151.52
427.52	5060.24
427.71	5160.88
427.90	5114.07
428.09	5247.48
428.28	5301.31
428.46	5284.93
428.65	5404.30
428.84	5444.09
429.03	5446.43
429.22	5418.34
429.40	5259.18
429.59	5600.90
429.78	5254.50
429.97	5277.91
430.16	5423.02
430.34	5523.66
430.53	5556.43
430.72	5530.69
430.91	5458.13
431.10	5579.84
431.28	5788.14
431.47	5769.42
431.66	5891.13
431.85	5645.37
432.03	5841.98
432.22	5839.64
432.41	5827.93
432.60	5823.25
432.79	5741.33
432.97	5895.81
433.16	6001.13
433.35	5947.30
433.54	5970.71
433.72	6054.97
433.91	5987.09
434.10	6113.48
434.28	6090.07
434.47	6253.91
434.66	6204.76
434.85	6289.02
435.03	6382.64
435.22	6057.31
435.41	6504.35
435.59	6361.58
435.78	6331.15
435.97	6328.81
436.16	6277.32
436.34	6532.44
436.53	6406.05
436.72	6499.67
436.90	6513.71
437.09	6656.48
437.28	6445.84
437.46	6466.90
437.65	6569.88
437.84	6827.34
438.02	6883.52
438.21	6705.63
438.40	6628.40
438.58	7145.66
438.77	6874.15
438.96	6904.58
439.14	7140.97
439.33	7265.02
439.52	7143.32
439.70	7218.21
439.89	7253.32
440.08	7253.32
440.26	7176.08
440.45	7332.90
440.63	7440.56
440.82	7520.14
441.01	7517.80
441.19	7620.78
441.38	7655.89
441.57	7646.53
441.75	7803.35
441.94	7939.10
442.12	7770.58
442.31	8016.33
442.50	8009.31
442.68	7929.74
442.87	8063.15
443.05	8016.33
443.24	8056.12
443.43	8173.15
443.61	8336.99
443.80	8465.72
443.98	7997.61
444.17	7948.46
444.35	8154.43
444.54	8273.79
444.73	8257.41
444.91	8336.99
445.10	8320.60
445.28	8362.73
445.47	8336.99
445.65	8329.97
445.84	8552.32
446.02	8535.93
446.21	8444.65
446.39	8395.50
446.58	8409.54
446.77	8257.41
446.95	8472.74
447.14	8301.88
447.32	8549.98
447.51	8226.98
447.69	8535.93
447.88	8425.93
448.06	8365.07
448.25	8514.87
448.43	8636.58
448.62	8472.74
448.80	8470.40
448.99	8652.96
449.17	8945.53
449.36	8444.65
449.54	8889.35
449.73	8903.40
449.91	8973.61
450.10	8879.99
450.28	9071.92
450.46	9057.87
450.65	9207.67
450.83	9247.46
451.02	9193.62
451.20	9259.16
451.39	9090.64
451.57	9013.40
451.76	9142.13
451.94	9202.99
452.13	9462.79
452.31	9296.61
452.49	9287.25
452.68	9359.80
452.86	9441.72
453.05	9535.34
453.23	9612.58
453.42	9362.14
453.60	9376.19
453.78	9411.29
453.97	9495.55
454.15	9495.55
454.34	9626.62
454.52	9750.67
454.70	9675.77
454.89	9668.75
455.07	9722.59
455.26	9837.27
455.44	9858.34
455.62	9954.30
455.81	10188.35
455.99	10090.05
456.17	10111.11
456.36	9991.75
456.54	10237.50
456.73	10237.50
456.91	10366.23
457.09	10391.98
457.28	10579.22
457.46	10279.63
457.64	10483.26
457.83	10752.42
458.01	10450.49
458.19	10462.19
458.38	10740.72
458.56	10661.14
458.74	10824.98
458.93	10686.89
459.11	10600.29
459.29	10647.10
459.48	10888.17
459.66	10878.81
459.84	10934.98
460.03	11300.11
460.21	11096.48
460.39	11105.84
460.57	10988.82
460.76	11248.61
460.94	11286.06
461.12	11108.18
461.31	11234.57
461.49	11342.24
461.67	11269.68
461.85	11492.03
462.04	11662.89
462.22	11892.26
462.40	11602.04
462.59	11836.09
462.77	11639.48
462.95	11761.19
463.13	11695.66
463.32	11714.38
463.50	11611.40
463.68	11920.35
463.86	11836.09
464.05	11719.06
464.23	11929.71
464.41	12025.67
464.59	11772.89
464.78	12116.95
464.96	11913.33
465.14	11967.16
465.32	12123.98
465.50	12067.80
465.69	12308.88
465.87	12135.68
466.05	12166.10
466.23	12138.02
466.41	12376.75
466.60	12669.32
466.78	12329.94
466.96	12465.69
467.14	12142.70
467.32	12596.76
467.51	12589.74
467.69	12320.58
467.87	12334.62
468.05	12730.17
468.23	12500.80
468.41	12528.89
468.60	12559.31
468.78	12798.05
468.96	12589.74
469.14	12748.90
469.32	13081.25
469.50	12968.91
469.69	13151.47
469.87	13242.75
470.05	13217.01
470.23	13266.16
470.41	13256.79
470.59	13476.80
470.77	13137.43
470.95	13488.51
471.14	13598.51
471.32	13050.83
471.50	13944.91
471.68	13729.58
471.86	13888.74
472.04	13745.97
472.22	14225.78
472.40	13774.05
472.58	14075.98
472.77	13977.68
472.95	14406.00
473.13	14682.18
473.31	14169.60
473.49	14174.28
473.67	14349.82
473.85	14626.01
474.03	14782.82
474.21	14707.93
474.39	15108.16
474.57	15180.71
474.75	14986.45
474.93	15126.88
475.12	14956.02
475.30	15426.47
475.48	15246.25
475.66	15419.45
475.84	15407.75
476.02	15435.83
476.20	15744.78
476.38	15880.53
476.56	16313.53
476.74	16367.37
476.92	16109.91
477.10	16149.70
477.28	16320.56
477.46	16187.14
477.64	16725.47
477.82	16823.77
478.00	17219.32
478.18	17181.87
478.36	17160.81
478.54	17453.37
478.72	17476.78
478.90	17675.73
479.08	17635.94
479.26	17858.29
479.44	17963.61
479.62	17947.23
479.80	18324.05
479.98	18508.96
480.16	18462.15
480.34	18417.68
480.52	18785.14
480.70	18974.72
480.88	18663.43
481.06	19391.34
481.24	19108.13
481.41	19049.62
481.59	19838.38
481.77	19943.70
481.95	19681.56
482.13	20095.84
482.31	19995.20
482.49	20655.23
482.67	20449.26
482.85	20798.00
483.03	21003.97
483.21	21179.51
483.39	21081.21
483.57	21294.19
483.74	21607.83
483.92	22017.42
484.10	21696.77
484.28	22209.34
484.46	22192.96
484.64	22677.45
484.82	22492.55
485.00	22661.07
485.18	23096.41
485.35	23784.52
485.53	23124.49
485.71	23491.96
485.89	23828.99
486.07	23543.45
486.25	23833.68
486.43	24102.84
486.61	24156.67
486.78	24428.17
486.96	24610.73
487.14	25120.97
487.32	25041.39
487.50	25378.43
487.68	25563.33
487.85	25708.44
488.03	26071.23
488.21	26333.37
488.39	26295.92
488.57	26464.44
488.75	26752.32
488.92	26967.65
489.10	27239.15
489.28	27435.76
489.46	27786.84
489.64	27459.16
489.81	28224.52
489.99	27812.59
490.17	28510.07
490.35	28528.79
490.53	28706.67
490.70	29149.03
490.88	29104.56
491.06	29329.25
491.24	29249.67
491.41	29436.92
491.59	29853.53
491.77	29715.44
491.95	30167.16
492.13	30338.02
492.30	30735.92
492.48	30761.66
492.66	31192.32
492.84	31189.98
493.01	31442.76
493.19	31548.08
493.37	31529.36
493.54	31648.72
493.72	31866.39
493.90	32425.78
494.08	32570.90
494.25	32554.51
494.43	33076.45
494.61	33158.37
494.79	33626.48
494.96	33663.93
495.14	33518.81
495.32	33897.98
495.49	33858.19
495.67	34129.69
495.85	34476.09
496.02	34778.02
496.20	34881.00
496.38	35065.91
496.55	35161.87
496.73	35681.47
496.91	35299.96
497.09	35421.67
497.26	35828.92
497.44	35873.39
497.62	35929.56
497.79	36446.82
497.97	36383.63
498.14	37015.57
498.32	36935.99
498.50	37296.44
498.67	37233.24
498.85	37380.70
499.03	37319.84
499.20	37762.20
499.38	37486.02
499.56	37848.80
499.73	37944.76
499.91	38099.24
500.08	38738.21
500.26	38377.76
500.44	38560.33
500.61	38447.98
500.79	38466.70
500.97	38841.19
501.14	39477.82
501.32	39578.46
501.49	39548.03
501.67	39779.74
501.84	40020.82
502.02	39985.71
502.20	40011.46
502.37	40397.65
502.55	40449.14
502.72	40266.58
502.90	40392.97
503.07	40587.23
503.25	41174.70
503.43	40584.89
503.60	41209.81
503.78	41221.52
503.95	41055.34
504.13	41635.79
504.30	41141.94
504.48	41228.54
504.65	41722.39
504.83	42291.14
505.01	42342.63
505.18	42316.89
505.36	42588.39
505.53	42169.43
505.71	42314.55
505.88	42487.74
506.06	42515.83
506.23	42859.89
506.41	42794.36
506.58	43405.23
506.76	43342.04
506.93	43571.41
507.11	43388.85
507.28	43213.31
507.46	44011.43
507.63	43894.41
507.81	44051.22
507.98	43995.05
508.16	43863.98
508.33	44116.76
508.50	44264.21
508.68	44704.23
508.85	44720.62
509.03	45134.89
509.20	45006.16
509.38	45261.28
509.55	45638.11
509.73	45387.67
509.90	45523.42
510.08	45521.08
510.25	45738.75
510.42	45902.59
510.60	45638.11
510.77	46174.09
510.95	46120.26
511.12	46131.96
511.30	45911.95
511.47	46777.95
511.64	46586.02
511.82	47077.54
511.99	47182.86
512.17	46995.62
512.34	46574.32
512.51	47248.39
512.69	47241.37
512.86	47178.18
513.04	47702.46
513.21	47604.16
513.38	48048.86
513.56	48002.05
513.73	48076.94
513.90	47952.90
514.08	47997.37
514.25	48320.36
514.43	48575.48
514.60	48664.42
514.77	48636.33
514.95	48762.72
515.12	48135.46
515.29	48444.41
515.47	48706.55
515.64	49240.19
515.81	48683.14
515.99	49633.40
516.16	49368.92
516.33	49331.47
516.51	49467.22
516.68	49614.68
516.85	49008.48
517.03	49703.62
517.20	49935.33
517.37	49757.45
517.54	50080.44
517.72	50487.70
517.89	50033.63
518.06	50099.17
518.24	50436.20
518.41	50293.43
518.58	50237.26
518.75	50368.33
518.93	50674.94
519.10	50590.68
519.27	50567.27
519.45	50794.31
519.62	50925.38
519.79	50864.52
519.96	51250.71
520.14	51311.56
520.31	51086.87
520.48	51084.53
520.65	51379.44
520.83	51508.17
521.00	51334.97
521.17	51463.70
521.34	51494.13
521.52	51704.77
521.69	51856.91
521.86	51812.44
522.03	51877.97
522.20	52114.37
522.38	52484.17
522.55	52046.49
522.72	52172.88
522.89	52186.92
523.07	52746.31
523.24	52458.43
523.41	52516.94
523.58	52495.88
523.75	52472.47
523.92	52420.98
524.10	52596.52
524.27	52872.70
524.44	53015.47
524.61	53258.89
524.78	52994.41
524.96	52811.85
525.13	52811.85
525.30	52861.00
525.47	53123.14
525.64	52949.94
525.81	53638.06
525.98	53588.91
526.16	53729.34
526.33	53413.37
526.50	53937.65
526.67	53677.85
526.84	53495.28
527.01	53710.61
527.18	53724.66
527.36	54042.97
527.53	54120.21
527.70	54246.60
527.87	53986.80
528.04	53886.15
528.21	54092.12
528.38	54199.79
528.55	54134.25
528.72	54220.85
528.89	54511.08
529.07	54227.87
529.24	54223.19
529.41	54482.99
529.58	54478.31
529.75	54539.16
529.92	54363.62
530.09	54618.74
530.26	54686.62
530.43	54773.22
530.60	54588.31
530.77	54681.94
530.94	54803.64
531.11	54574.27
531.28	54667.89
531.46	54908.97
531.63	54955.78
531.80	55267.07
531.97	55267.07
532.14	54899.61
532.31	55320.90
532.48	55143.02
532.65	55409.84
532.82	55056.42
532.99	55405.16
533.16	55444.95
533.33	55384.10
533.50	55861.57
533.67	55547.93
533.84	55576.02
534.01	55536.23
534.18	55466.02
534.35	55899.01
534.52	56002.00
534.69	55601.77
534.86	56067.53
535.03	55870.93
535.20	55966.89
535.37	56072.21
535.54	56226.69
535.71	55821.78
535.88	55660.28
536.05	55889.65
536.22	56409.25
536.38	56435.00
536.55	56444.36
536.72	56168.18
536.89	56268.82
537.06	56432.66
537.23	56470.11
537.40	56362.44
537.57	56399.89
537.74	56601.18
537.91	56708.84
538.08	56687.78
538.25	56306.27
538.42	56495.85
538.59	56711.18
538.75	56591.81
538.92	56692.46
539.09	56851.61
539.26	56954.60
539.43	56898.42
539.60	57080.98
539.77	56956.94
539.94	57198.01
540.11	56832.89
540.28	56872.68
540.44	56893.74
540.61	56790.76
540.78	57013.11
540.95	57296.31
541.12	57270.57
541.29	57036.51
541.46	57329.08
541.62	57214.40
541.79	57249.50
541.96	57148.86
542.13	57261.21
542.30	57457.81
542.47	57675.48
542.63	57724.63
542.80	57595.90
542.97	57886.13
543.14	57668.46
543.31	57750.38
543.48	57860.38
543.64	57916.56
543.81	58024.22
543.98	58122.52
544.15	57916.56
544.32	58028.90
544.48	58211.46
544.65	58033.58
544.82	57963.37
544.99	57956.35
545.16	58155.29
545.32	58122.52
545.49	58468.92
545.66	58398.71
545.83	58337.85
546.00	58534.46
546.16	58080.39
546.33	58120.18
546.50	57886.13
546.67	58302.74
546.83	58110.82
547.00	58309.77
547.17	58464.24
547.34	58110.82
547.50	58494.67
547.67	58782.55
547.84	58539.14
548.00	58731.06
548.17	58915.96
548.34	58742.77
548.51	58756.81
548.67	58953.41
548.84	58815.32
549.01	58791.92
549.18	58803.62
549.34	58667.87
549.51	58894.90
549.68	58869.15
549.84	58892.56
550.01	59014.27
550.18	59009.59
550.34	59194.49
550.51	59145.34
550.68	58960.44
550.84	58812.98
551.01	59070.44
551.18	59014.27
551.34	58845.75
551.51	59016.61
551.68	59416.84
551.84	59358.33
552.01	59201.51
552.18	59245.98
552.34	59079.80
552.51	59306.83
552.68	59278.75
552.84	59241.30
553.01	59526.84
553.18	59192.15
553.34	59451.95
553.51	59515.14
553.67	59489.40
553.84	59566.63
554.01	59674.30
554.17	59660.26
554.34	59454.29
554.51	59590.04
554.67	59718.77
554.84	59650.89
555.00	59697.70
555.17	59728.13
555.33	59662.60
555.50	59948.14
555.67	59805.37
555.83	59622.81
556.00	59725.79
556.16	59966.87
556.33	59744.51
556.50	59828.77
556.66	59791.33
556.83	59763.24
556.99	59924.74
557.16	60018.36
557.32	60076.87
557.49	60041.76
557.65	59826.43
557.82	59758.56
557.98	60224.32
558.15	60083.89
558.32	60093.25
558.48	60048.78
558.65	60266.45
558.81	60142.41
558.98	60224.32
559.14	59966.87
559.31	59976.23
559.47	60200.92
559.64	60097.94
559.80	60647.96
559.97	60470.08
560.13	60238.37
560.30	60376.46
560.46	60350.71
560.63	60324.97
560.79	60493.49
560.96	60477.10
561.12	60444.33
561.29	60060.49
561.45	60453.70
561.61	60645.62
561.78	60530.93
561.94	60369.44
562.11	60580.09
562.27	60477.10
562.44	60399.86
562.60	60528.59
562.77	60404.55
562.93	60584.77
563.10	60547.32
563.26	60544.98
563.42	60837.54
563.59	60692.43
563.75	60697.11
563.92	60619.88
564.08	60371.78
564.24	60666.69
564.41	60608.17
564.57	60535.62
564.74	60669.03
564.90	60720.52
565.07	60739.24
565.23	60860.95
565.39	60814.14
565.56	60956.91
565.72	60416.25
565.88	60825.84
566.05	60741.58
566.21	60624.56
566.38	60694.77
566.54	60809.46
566.70	61148.84
566.87	61017.77
567.03	60781.37
567.19	61282.25
567.36	60842.23
567.52	60786.05
567.68	60975.64
567.85	60718.18
568.01	60776.69
568.17	60764.99
568.34	60896.06
568.50	61254.16
568.66	61123.09
568.83	61062.24
568.99	61020.11
569.15	60999.04
569.32	60886.70
569.48	60762.65
569.64	61090.32
569.81	60884.36
569.97	61092.66
570.13	61202.67
570.30	60999.04
570.46	60992.02
570.62	61066.92
570.78	61176.92
570.95	61109.05
571.11	61057.56
571.27	61261.18
571.43	61237.78
571.60	61268.20
571.76	61048.19
571.92	61385.23
572.09	61422.68
572.25	61116.07
572.41	61277.57
572.57	61031.81
572.74	61347.78
572.90	60959.25
573.06	61109.05
573.22	61216.71
573.38	61179.26
573.55	61212.03
573.71	61528.00
573.87	61279.91
574.03	61319.70
574.20	61272.88
574.36	61207.35
574.52	61275.22
574.68	61099.68
574.84	61181.60
575.01	61310.33
575.17	61504.60
575.33	61331.40
575.49	61200.33
575.65	61464.81
575.82	61572.47
575.98	61359.48
576.14	61471.83
576.30	61474.17
576.46	61282.25
576.62	61195.65
576.79	61132.45
576.95	61230.75
577.11	61270.54
577.27	61520.98
577.43	61340.76
577.59	61333.74
577.75	61434.38
577.92	61216.71
578.08	61228.41
578.24	61387.57
578.40	61371.19
578.56	61350.12
578.72	61471.83
578.88	61652.05
579.04	61647.37
579.21	61319.70
579.37	61506.94
579.53	61329.06
579.69	61289.27
579.85	61315.01
580.01	61441.40
580.17	61261.18
580.33	61673.12
580.49	61520.98
580.65	61607.58
580.82	61565.45
580.98	61602.90
581.14	61563.11
581.30	61450.77
581.46	61286.93
581.62	61422.68
581.78	61249.48
581.94	61319.70
582.10	61553.75
582.26	61577.15
582.42	61478.85
582.58	61642.69
582.74	61708.22
582.90	61670.78
583.06	61750.35
583.22	61347.78
583.38	61595.88
583.54	61694.18
583.70	61563.11
583.86	61588.86
584.02	61602.90
584.18	61708.22
584.34	61843.98
584.50	61764.40
584.66	61745.67
584.82	61322.04
584.98	61663.75
585.14	61413.32
585.30	61352.46
585.46	61577.15
585.62	61436.72
585.78	61698.86
585.94	61698.86
586.10	61769.08
586.26	61659.07
586.42	61867.38
586.58	61879.08
586.74	61556.09
586.90	61347.78
587.06	61623.96
587.22	61623.96
587.38	61502.26
587.54	61928.23
587.70	61876.74
587.86	61783.12
588.02	61804.19
588.18	61836.95
588.34	61787.80
588.49	61914.19
588.65	61689.50
588.81	61787.80
588.97	61708.22
