SpectraSuite Data File
++++++++++++++++++++++++++++++++++++
Date: Fri Oct 04 11:48:27 GMT-05:00 2013
User: price-jones
Dark Spectrum Present: No
Reference Spectrum Present: No
Number of Sampled Component Spectra: 1
Spectrometers: USB2+H05261
Integration Time (usec): 100000 (USB2+H05261)
Spectra Averaged: 1 (USB2+H05261)
Boxcar Smoothing: 0 (USB2+H05261)
Correct for Electrical Dark: No (USB2+H05261)
Strobe/Lamp Enabled: No (USB2+H05261)
Correct for Detector Non-linearity: No (USB2+H05261)
Correct for Stray Light: No (USB2+H05261)
Number of Pixels in Processed Spectrum: 2048
>>>>>Begin Processed Spectral Data<<<<<
365.73	16.38
365.92	16.38
366.12	16.38
366.32	0.00
366.52	0.00
366.72	0.00
366.91	0.00
367.11	0.00
367.31	0.00
367.51	0.00
367.70	0.00
367.90	0.00
368.10	0.00
368.30	0.00
368.49	0.00
368.69	0.00
368.89	0.00
369.09	0.00
369.28	0.00
369.48	0.00
369.68	0.00
369.87	0.00
370.07	21.06
370.27	0.00
370.47	102.98
370.66	437.68
370.86	500.87
371.06	564.07
371.25	580.45
371.45	580.45
371.65	615.56
371.84	636.63
372.04	575.77
372.24	671.73
372.44	622.58
372.63	594.50
372.83	697.48
373.03	653.01
373.22	739.61
373.42	667.05
373.62	734.93
373.81	713.86
374.01	732.59
374.21	791.10
374.40	720.88
374.60	802.80
374.79	793.44
374.99	765.36
375.19	737.27
375.38	734.93
375.58	837.91
375.78	849.61
375.97	835.57
376.17	950.26
376.37	753.65
376.56	821.53
376.76	760.67
376.95	884.72
377.15	826.21
377.35	877.70
377.54	882.38
377.74	812.17
377.93	889.40
378.13	905.79
378.33	994.73
378.52	847.27
378.72	961.96
378.91	945.58
379.11	833.23
379.31	868.34
379.50	931.53
379.70	994.73
379.89	964.30
380.09	990.05
380.28	933.87
380.48	929.19
380.68	980.68
380.87	940.90
381.07	933.87
381.26	1116.44
381.46	954.94
381.65	971.32
381.85	1015.79
382.04	999.41
382.24	1034.52
382.43	1046.22
382.63	1029.84
382.83	1102.39
383.02	1160.91
383.22	1139.84
383.41	1095.37
383.61	1006.43
383.80	1135.16
384.00	1125.80
384.19	1170.27
384.39	1158.57
384.58	1111.75
384.78	1165.59
384.97	1303.68
385.17	1219.42
385.36	1177.29
385.56	1240.48
385.75	1252.19
385.95	1177.29
386.14	1277.93
386.34	1245.16
386.53	1306.02
386.72	1268.57
386.92	1385.60
387.11	1299.00
387.31	1338.79
387.50	1343.47
387.70	1317.72
387.89	1341.13
388.09	1336.45
388.28	1430.07
388.48	1462.83
388.67	1357.51
388.86	1460.49
389.06	1423.05
389.25	1439.43
389.45	1390.28
389.64	1434.75
389.84	1474.54
390.03	1474.54
390.22	1495.60
390.42	1488.58
390.61	1420.71
390.81	1558.80
391.00	1568.16
391.19	1507.30
391.39	1575.18
391.58	1621.99
391.78	1528.37
391.97	1514.33
392.16	1650.08
392.36	1661.78
392.55	1689.87
392.75	1715.61
392.94	1739.02
393.13	1659.44
393.33	1605.61
393.52	1664.12
393.71	1748.38
393.91	1755.40
394.10	1713.27
394.29	1806.89
394.49	1673.48
394.68	1783.49
394.88	1802.21
395.07	1870.09
395.26	1888.81
395.46	1909.88
395.65	1982.43
395.84	1914.56
396.04	1902.86
396.23	1809.23
396.42	2047.97
396.62	2073.71
396.81	2015.20
397.00	1982.43
397.19	1947.33
397.39	2064.35
397.58	2031.58
397.77	2017.54
397.97	2115.84
398.16	2099.46
398.35	2069.03
398.55	1987.11
398.74	2099.46
398.93	2167.34
399.12	2169.68
399.32	2148.61
399.51	2188.40
399.70	2298.41
399.90	2225.85
400.09	2204.78
400.28	2279.68
400.47	2338.20
400.67	2366.28
400.86	2356.92
401.05	2366.28
401.24	2354.58
401.44	2317.13
401.63	2326.49
401.82	2464.58
402.01	2392.03
402.21	2525.44
402.40	2473.95
402.59	2455.22
402.78	2612.04
402.97	2525.44
403.17	2705.66
403.36	2541.82
403.55	2513.74
403.74	2642.46
403.93	2663.53
404.13	2731.41
404.32	2785.24
404.51	2663.53
404.70	2773.53
404.89	2771.19
405.09	2750.13
405.28	2803.96
405.47	2832.05
405.66	2885.88
405.85	2935.03
406.05	2923.33
406.24	2953.76
406.43	3052.06
406.62	2988.86
406.81	3059.08
407.00	2963.12
407.20	3047.38
407.39	3030.99
407.58	3124.62
407.77	3197.17
407.96	3180.79
408.15	3119.93
408.34	3023.97
408.54	3265.05
408.73	3220.58
408.92	3276.75
409.11	3176.11
409.30	3300.16
409.49	3358.67
409.68	3377.39
409.87	3361.01
410.07	3330.58
410.26	3492.08
410.45	3421.86
410.64	3513.14
410.83	3574.00
411.02	3517.83
411.21	3669.96
411.40	3597.40
411.59	3698.05
411.78	3852.52
411.98	3754.22
412.17	3868.91
412.36	3871.25
412.55	3939.12
412.74	3941.46
412.93	3918.06
413.12	3768.26
413.31	4039.76
413.50	4023.38
413.69	4112.32
413.88	4114.66
414.07	4229.35
414.26	4273.82
414.45	4372.12
414.64	4184.88
414.83	4285.52
415.02	4292.54
415.22	4470.42
415.41	4540.64
415.60	4348.72
415.79	4484.47
415.98	4634.26
416.17	4629.58
416.36	4699.80
416.55	4662.35
416.74	4711.50
416.93	4655.33
417.12	4758.31
417.31	4894.06
417.50	4894.06
417.69	4952.57
417.88	4821.50
418.07	4950.23
418.26	4912.78
418.45	5008.75
418.64	5238.12
418.83	5064.92
419.02	5043.85
419.21	5160.88
419.39	5167.90
419.58	5090.67
419.77	5102.37
419.96	5081.30
420.15	5364.51
420.34	5214.71
420.53	5341.10
420.72	5352.81
420.91	5500.26
421.10	5509.62
421.29	5603.24
421.48	5270.89
421.67	5628.99
421.86	5533.03
422.05	5643.03
422.24	5729.63
422.43	5554.09
422.61	5675.80
422.80	5750.70
422.99	5715.59
423.18	5827.93
423.37	5940.28
423.56	5767.08
423.75	5584.52
423.94	5729.63
424.13	5577.50
424.32	5511.96
424.50	5921.56
424.69	5982.41
424.88	5860.70
425.07	5701.54
425.26	5568.13
425.45	5785.80
425.64	5586.86
425.83	5811.55
426.01	5895.81
426.20	5612.60
426.39	6033.90
426.58	5837.30
426.77	5956.66
426.96	6169.65
427.15	5954.32
427.33	6157.95
427.52	6155.61
427.71	6050.28
427.90	6066.67
428.09	6218.80
428.28	5947.30
428.46	6324.13
428.65	6019.86
428.84	6471.58
429.03	6361.58
429.22	6190.72
429.40	6354.55
429.59	6368.60
429.78	6108.80
429.97	6118.16
430.16	6328.81
430.34	6513.71
430.53	6546.48
430.72	6750.10
430.91	6469.24
431.10	6516.05
431.28	6700.95
431.47	6644.78
431.66	6792.23
431.85	6565.20
432.03	6906.92
432.22	7007.56
432.41	7005.22
432.60	7056.72
432.79	6916.28
432.97	7007.56
433.16	7098.84
433.35	7002.88
433.54	7166.72
433.72	7250.98
433.91	7052.03
434.10	7246.30
434.28	7052.03
434.47	7206.51
434.66	7311.83
434.85	7356.30
435.03	7391.41
435.22	7393.75
435.41	7459.29
435.59	7407.80
435.78	7314.17
435.97	7506.10
436.16	7559.93
436.34	7688.66
436.53	7573.97
436.72	7808.03
436.90	7595.04
437.09	7850.16
437.28	7478.01
437.46	7871.22
437.65	7824.41
437.84	7749.51
438.02	7845.48
438.21	7995.27
438.40	7873.56
438.58	8245.71
438.77	8060.80
438.96	8187.19
439.14	8299.54
439.33	8421.25
439.52	8336.99
439.70	8571.04
439.89	8566.36
440.08	8545.30
440.26	8690.41
440.45	8547.64
440.63	8875.31
440.82	8964.25
441.01	8987.66
441.19	9109.36
441.38	9172.56
441.57	9195.96
441.75	9228.73
441.94	9427.68
442.12	9336.40
442.31	9486.19
442.50	9359.80
442.68	9561.09
442.87	9469.81
443.05	9495.55
443.24	9486.19
443.43	9509.60
443.61	9776.42
443.80	10038.56
443.98	9518.96
444.17	9444.06
444.35	9853.66
444.54	9846.63
444.73	9856.00
444.91	9811.53
445.10	9806.84
445.28	9853.66
445.47	9699.18
445.65	9851.31
445.84	9984.73
446.02	9865.36
446.21	10059.62
446.39	9837.27
446.58	10106.43
446.77	9909.83
446.95	9984.73
447.14	9884.08
447.32	10188.35
447.51	10195.37
447.69	10228.14
447.88	10099.41
448.06	9935.57
448.25	10134.52
448.43	10207.08
448.62	10064.30
448.80	10251.55
448.99	10157.92
449.17	10492.62
449.36	10193.03
449.54	10413.04
449.73	10567.52
449.91	10581.56
450.10	10637.73
450.28	10569.86
450.46	10757.10
450.65	10820.30
450.83	10890.51
451.02	10892.85
451.20	10824.98
451.39	10796.89
451.57	10920.94
451.76	10738.38
451.94	10960.73
452.13	11023.92
452.31	11080.10
452.49	11089.46
452.68	11033.29
452.86	11030.94
453.05	11176.06
453.23	11370.32
453.42	11279.04
453.60	11042.65
453.78	11117.54
453.97	11087.12
454.15	11407.77
454.34	11492.03
454.52	11576.29
454.70	11648.85
454.89	11576.29
455.07	11564.59
455.26	11520.12
455.44	12006.95
455.62	11971.84
455.81	11988.22
455.99	11744.81
456.17	12070.14
456.36	12182.49
456.54	12306.54
456.73	12311.22
456.91	12564.00
457.09	12294.83
457.28	12556.97
457.46	12362.71
457.64	12428.24
457.83	12472.71
458.01	12393.14
458.19	12669.32
458.38	12580.38
458.56	12798.05
458.74	12760.60
458.93	12503.14
459.11	12718.47
459.29	12968.91
459.48	12975.93
459.66	13011.04
459.84	13149.13
460.03	13081.25
460.21	13099.98
460.39	13317.65
460.57	13004.02
460.76	12865.92
460.94	13610.22
461.12	13193.60
461.31	13465.10
461.49	13500.21
461.67	13537.66
461.85	13724.90
462.04	13422.97
462.22	14134.50
462.40	13799.80
462.59	13544.68
462.77	13781.07
462.95	13891.08
463.13	14045.55
463.32	13884.06
463.50	14033.85
463.68	13884.06
463.86	14125.13
464.05	14146.20
464.23	14300.67
464.41	14207.05
464.59	13940.23
464.78	14370.89
464.96	14185.99
465.14	14200.03
465.32	14691.54
465.50	14628.35
465.69	14335.78
465.87	14115.77
466.05	14588.56
466.23	14492.60
466.41	14647.07
466.60	14965.39
466.78	14635.37
466.96	14581.54
467.14	14567.49
467.32	14897.51
467.51	15056.67
467.69	14621.33
467.87	14972.41
468.05	14658.78
468.23	14902.19
468.41	14787.50
468.60	15063.69
468.78	15084.75
468.96	14892.83
469.14	15166.67
469.32	15477.96
469.50	15049.64
469.69	15590.31
469.87	15936.71
470.05	15896.92
470.23	15957.77
470.41	15639.46
470.59	16116.93
470.77	15831.38
470.95	16004.58
471.14	16248.00
471.32	16091.18
471.50	16240.98
471.68	16142.67
471.86	16453.97
472.04	16493.76
472.22	16723.13
472.40	16585.04
472.58	16685.68
472.77	16837.81
472.95	17055.48
473.13	17310.60
473.31	16802.71
473.49	16695.04
473.67	16968.88
473.85	17053.14
474.03	17579.76
474.21	17488.48
474.39	17905.10
474.57	17619.55
474.75	17771.69
474.93	17916.80
475.12	17926.16
475.30	17764.67
475.48	18019.78
475.66	18354.48
475.84	18204.69
476.02	18274.90
476.20	18412.99
476.38	18888.12
476.56	19143.24
476.74	19077.71
476.92	19063.66
477.10	19054.30
477.28	19213.46
477.46	19620.71
477.64	19658.16
477.82	19985.83
478.00	20367.34
478.18	20386.07
478.36	20390.75
478.54	20624.80
478.72	20493.73
478.90	20849.49
479.08	21092.91
479.26	21357.39
479.44	21708.47
479.62	21654.64
479.80	21671.02
479.98	21898.05
480.16	22427.01
480.34	22345.09
480.52	22647.02
480.70	22251.47
480.88	22604.89
481.06	22792.14
481.24	22331.05
481.41	23077.68
481.59	23559.83
481.77	23496.64
481.95	23672.18
482.13	23756.44
482.31	23707.29
482.49	24224.54
482.67	24507.75
482.85	25003.94
483.03	24666.91
483.21	25647.59
483.39	25355.02
483.57	25432.26
483.74	25394.81
483.92	25839.51
484.10	25713.13
484.28	26288.90
484.46	26595.51
484.64	27119.79
484.82	26487.84
485.00	26909.14
485.18	27356.18
485.35	27924.93
485.53	27885.14
485.71	28044.30
485.89	28734.76
486.07	27953.02
486.25	28259.63
486.43	28954.77
486.61	28973.49
486.78	29177.12
486.96	29326.91
487.14	29890.98
487.32	29734.17
487.50	30223.34
487.68	30134.40
487.85	30527.61
488.03	30815.49
488.21	31166.57
488.39	31192.32
488.57	31992.78
488.75	31646.38
488.92	32034.91
489.10	32573.24
489.28	32222.16
489.46	33046.02
489.64	32744.09
489.81	33420.51
489.99	33350.29
490.17	33696.69
490.35	34003.30
490.53	34199.91
490.70	34756.96
490.88	33809.04
491.06	34939.52
491.24	35086.97
491.41	35112.72
491.59	35264.85
491.77	35583.16
491.95	35969.35
492.13	36184.68
492.30	36350.86
492.48	36552.15
492.66	36884.50
492.84	36671.51
493.01	37502.40
493.19	37109.19
493.37	37486.02
493.54	38218.61
493.72	38099.24
493.90	38328.61
494.08	38644.59
494.25	38843.53
494.43	39033.11
494.61	39344.41
494.79	39351.43
494.96	39356.11
495.14	39529.31
495.32	40287.64
495.49	40004.44
495.67	40322.75
495.85	41015.55
496.02	41207.47
496.20	40968.74
496.38	41055.34
496.55	41289.39
496.73	41921.34
496.91	41853.46
497.09	42340.29
497.26	42770.95
497.44	42204.54
497.62	42258.37
497.79	42827.12
497.97	42806.06
498.14	43360.76
498.32	43971.64
498.50	43849.94
498.67	44123.78
498.85	43761.00
499.03	43966.96
499.20	43875.68
499.38	44694.87
499.56	44762.75
499.73	45010.84
499.91	45205.11
500.08	45184.04
500.26	45038.93
500.44	45298.73
500.61	45492.99
500.79	45556.19
500.97	45991.53
501.14	46714.75
501.32	46075.79
501.49	46106.21
501.67	46108.55
501.84	46213.88
502.02	46464.32
502.20	46995.62
502.37	47381.80
502.55	47122.01
502.72	47269.46
502.90	47377.12
503.07	47269.46
503.25	47742.25
503.43	47840.55
503.60	47931.83
503.78	48140.14
503.95	48376.53
504.13	48175.25
504.30	48212.70
504.48	48271.21
504.65	48697.19
504.83	49123.16
505.01	49296.36
505.18	49010.82
505.36	49048.27
505.53	49017.84
505.71	49443.82
505.88	49563.18
506.06	49249.55
506.23	49893.20
506.41	49647.44
506.58	50211.51
506.76	50293.43
506.93	50071.08
507.11	50251.30
507.28	50403.44
507.46	50602.38
507.63	50625.79
507.81	51103.26
507.98	50635.15
508.16	50642.17
508.33	50916.01
508.50	51276.46
508.68	51283.48
508.85	51587.75
509.03	51452.00
509.20	51828.82
509.38	51985.64
509.55	51552.64
509.73	51913.08
509.90	52212.67
510.08	52032.45
510.25	52261.82
510.42	52442.04
510.60	52308.63
510.77	52781.42
510.95	52687.80
511.12	52512.26
511.30	52734.61
511.47	53113.78
511.64	53045.90
511.82	53200.38
511.99	53069.31
512.17	53242.51
512.34	53312.72
512.51	53303.36
512.69	53375.92
512.86	53415.71
513.04	53865.09
513.21	54012.54
513.38	54162.34
513.56	54117.87
513.73	53853.39
513.90	54138.93
514.08	53766.79
514.25	54101.48
514.43	54337.88
514.60	54365.96
514.77	54539.16
514.95	54485.33
515.12	54321.49
515.29	54628.10
515.47	54859.82
515.64	54756.83
515.81	54782.58
515.99	55072.81
516.16	55208.56
516.33	55047.06
516.51	55330.26
516.68	54878.54
516.85	55255.37
517.03	55522.19
517.20	55442.61
517.37	55407.50
517.54	55770.28
517.72	55428.57
517.89	55564.32
518.06	55847.52
518.24	55810.07
518.41	55756.24
518.58	56133.07
518.75	55882.63
518.93	56123.71
519.10	56100.30
519.27	56224.35
519.45	55838.16
519.62	55971.57
519.79	56095.62
519.96	56381.16
520.14	56594.15
520.31	56488.83
520.48	56821.19
520.65	56800.12
520.83	56837.57
521.00	56563.73
521.17	56772.03
521.34	56800.12
521.52	56842.25
521.69	56973.32
521.86	57303.34
522.03	57162.90
522.20	57188.65
522.38	57151.20
522.55	57286.95
522.72	57523.35
522.89	57499.94
523.07	57556.11
523.24	57436.75
523.41	57701.23
523.58	57549.09
523.75	57598.24
523.92	57682.50
524.10	57715.27
524.27	57766.76
524.44	57944.64
524.61	58166.99
524.78	58185.72
524.96	58028.90
525.13	57954.00
525.30	58309.77
525.47	58213.80
525.64	58433.81
525.81	58431.47
525.98	58515.73
526.16	58625.74
526.33	58433.81
526.50	58515.73
526.67	58590.63
526.84	58499.35
527.01	58550.84
527.18	58665.53
527.36	58590.63
527.53	58756.81
527.70	58665.53
527.87	58974.48
528.04	58763.83
528.21	58958.09
528.38	58890.22
528.55	59070.44
528.72	58976.82
528.89	59236.62
529.07	59157.04
529.24	58848.09
529.41	59089.16
529.58	59320.88
529.75	59194.49
529.92	59215.55
530.09	59377.05
530.26	59297.47
530.43	59564.29
530.60	59341.94
530.77	59519.82
530.94	59449.61
531.11	59440.24
531.28	59482.37
531.46	59587.70
531.63	59849.84
531.80	59833.46
531.97	60009.00
532.14	59770.26
532.31	59641.53
532.48	59915.37
532.65	59901.33
532.82	59751.54
532.99	60168.15
533.16	60060.49
533.33	60434.97
533.50	60369.44
533.67	60247.73
533.84	60079.21
534.01	60273.48
534.18	60109.64
534.35	60430.29
534.52	60390.50
534.69	60556.68
534.86	60685.41
535.03	60460.72
535.20	60650.30
535.37	60748.60
535.54	60626.90
535.71	60570.72
535.88	60708.82
536.05	60584.77
536.22	60821.16
536.38	60690.09
536.55	60547.32
536.72	60959.25
536.89	60793.07
537.06	60980.32
537.23	60874.99
537.40	60734.56
537.57	60940.53
537.74	60994.36
537.91	61230.75
538.08	61050.53
538.25	61109.05
538.42	61226.07
538.59	61291.61
538.75	61038.83
538.92	61221.39
539.09	61375.87
539.26	61092.66
539.43	61352.46
539.60	61537.36
539.77	61448.42
539.94	61542.05
540.11	61439.06
540.28	61551.41
540.44	61373.53
540.61	61476.51
540.78	61783.12
540.95	61694.18
541.12	61832.27
541.29	61769.08
541.46	61623.96
541.62	61680.14
541.79	61619.28
541.96	61520.98
542.13	61888.45
542.30	61953.98
542.47	61963.34
542.63	62082.71
542.80	62117.82
542.97	62265.27
543.14	62085.05
543.31	62213.78
543.48	62248.89
543.64	62386.98
543.81	62347.19
543.98	62431.45
544.15	62265.27
544.32	62548.48
544.48	62698.27
544.65	62410.38
544.82	62429.11
544.99	62300.38
545.16	62522.73
545.32	62684.23
545.49	62756.78
545.66	62845.72
545.83	62742.74
546.00	62857.43
546.16	62913.60
546.33	62602.31
546.50	62405.70
546.67	62679.55
546.83	62518.05
547.00	62731.04
547.17	62766.15
547.34	62876.15
547.50	62836.36
547.67	63159.36
547.84	63009.56
548.00	63082.12
548.17	63107.86
548.34	63203.83
548.51	63152.33
548.67	63360.64
548.84	63224.89
549.01	63267.02
549.18	63084.46
549.34	63016.58
549.51	63077.44
549.68	63079.78
549.84	63054.03
550.01	63318.51
550.18	63089.14
550.34	63489.37
550.51	63365.32
550.68	63252.98
550.84	63168.72
551.01	63498.73
551.18	63384.05
551.34	63381.71
551.51	63590.01
551.68	63671.93
551.84	63615.76
552.01	63264.68
552.18	63604.06
552.34	63526.82
552.51	63547.89
552.68	63634.48
552.84	63606.40
553.01	63657.89
553.18	63718.74
553.34	63732.79
553.51	63749.17
553.67	63866.20
553.84	63905.99
554.01	63873.22
554.17	64018.33
554.34	63781.94
554.51	63845.13
554.67	64030.04
554.84	64037.06
555.00	64212.60
555.17	63915.35
555.33	64097.91
555.50	63994.93
555.67	63990.25
555.83	63990.25
556.00	64018.33
556.16	64217.28
556.33	64041.74
556.50	64161.11
556.66	64231.32
556.83	64172.81
556.99	64420.90
557.16	64605.81
557.32	64289.84
557.49	64390.48
557.65	64275.79
557.82	64090.89
557.98	64397.50
558.15	64303.88
558.32	64463.03
558.48	64474.74
558.65	64331.96
558.81	64395.16
558.98	64559.00
559.14	64411.54
559.31	64474.74
559.47	64456.01
559.64	64528.57
559.80	64664.32
559.97	64725.17
560.13	64530.91
560.30	64587.08
560.46	64711.13
560.63	64626.87
560.79	64629.21
560.96	64746.24
561.12	64652.62
561.29	64797.73
561.45	64797.73
561.61	64881.99
561.78	64860.93
561.94	64666.66
562.11	64629.21
562.27	64690.07
562.44	64786.03
562.60	64858.59
562.77	64980.29
562.93	64647.94
563.10	65057.53
563.26	64722.83
563.42	64999.02
563.59	64961.57
563.75	64921.78
563.92	64874.97
564.08	64807.09
564.24	64837.52
564.41	64760.28
564.57	64839.86
564.74	65059.87
564.90	65050.51
565.07	65106.68
565.23	65181.58
565.39	65176.90
565.56	64900.71
565.72	64947.53
565.88	65022.42
566.05	65069.23
566.21	65102.00
566.38	64912.42
566.54	65099.66
566.70	65432.02
566.87	65392.23
567.03	65146.47
567.19	65481.17
567.36	65228.39
567.52	65022.42
567.68	65076.26
567.85	65055.19
568.01	65087.96
568.17	65137.11
568.34	65427.34
568.50	65270.52
568.66	65424.99
568.83	65462.44
568.99	65216.69
569.15	65235.41
569.32	65237.75
569.48	64992.00
569.64	65244.77
569.81	65237.75
569.97	65380.52
570.13	65415.63
570.30	65520.96
570.46	65439.04
570.62	65467.12
570.78	65371.16
570.95	65303.29
571.11	65179.24
571.27	65221.37
571.43	65439.04
571.60	65535.00
571.76	65516.28
571.92	65535.00
572.09	65530.32
572.25	65492.87
572.41	65284.56
572.57	65439.04
572.74	65509.25
572.90	65427.34
573.06	65406.27
573.22	65485.85
573.38	65535.00
573.55	65511.59
573.71	65535.00
573.87	65535.00
574.03	65499.89
574.20	65535.00
574.36	65457.76
574.52	65535.00
574.68	65490.53
574.84	65535.00
575.01	65535.00
575.17	65535.00
575.33	65535.00
575.49	65378.18
575.65	65535.00
575.82	65535.00
575.98	65535.00
576.14	65535.00
576.30	65535.00
576.46	65535.00
576.62	65495.21
576.79	65474.15
576.95	65389.89
577.11	65535.00
577.27	65535.00
577.43	65535.00
577.59	65535.00
577.75	65535.00
577.92	65476.49
578.08	65535.00
578.24	65535.00
578.40	65535.00
578.56	65535.00
578.72	65535.00
578.88	65535.00
579.04	65535.00
579.21	65535.00
579.37	65535.00
579.53	65535.00
579.69	65535.00
579.85	65535.00
580.01	65535.00
580.17	65535.00
580.33	65535.00
580.49	65535.00
580.65	65535.00
580.82	65535.00
580.98	65535.00
581.14	65535.00
581.30	65535.00
581.46	65535.00
581.62	65535.00
581.78	65535.00
581.94	65535.00
582.10	65535.00
582.26	65535.00
582.42	65535.00
582.58	65535.00
582.74	65535.00
582.90	65535.00
583.06	65535.00
583.22	65535.00
583.38	65535.00
583.54	65535.00
583.70	65535.00
583.86	65535.00
584.02	65535.00
584.18	65535.00
584.34	65535.00
584.50	65535.00
584.66	65535.00
584.82	65535.00
584.98	65535.00
585.14	65535.00
585.30	65535.00
585.46	65535.00
585.62	65535.00
585.78	65535.00
585.94	65535.00
586.10	65535.00
586.26	65535.00
586.42	65535.00
586.58	65535.00
586.74	65535.00
586.90	65535.00
587.06	65535.00
587.22	65535.00
587.38	65535.00
587.54	65535.00
587.70	65535.00
587.86	65535.00
588.02	65535.00
588.18	65535.00
588.34	65535.00
