SpectraSuite Data File
++++++++++++++++++++++++++++++++++++
Date: Fri Oct 04 11:48:20 GMT-05:00 2013
User: price-jones
Dark Spectrum Present: No
Reference Spectrum Present: No
Number of Sampled Component Spectra: 1
Spectrometers: USB2+H05261
Integration Time (usec): 100000 (USB2+H05261)
Spectra Averaged: 1 (USB2+H05261)
Boxcar Smoothing: 0 (USB2+H05261)
Correct for Electrical Dark: No (USB2+H05261)
Strobe/Lamp Enabled: No (USB2+H05261)
Correct for Detector Non-linearity: No (USB2+H05261)
Correct for Stray Light: No (USB2+H05261)
Number of Pixels in Processed Spectrum: 2048
>>>>>Begin Processed Spectral Data<<<<<
365.73	11.70
365.92	11.70
366.12	11.70
366.32	0.00
366.52	0.00
366.72	0.00
366.91	0.00
367.11	0.00
367.31	0.00
367.51	0.00
367.70	0.00
367.90	0.00
368.10	0.00
368.30	0.00
368.49	0.00
368.69	0.00
368.89	0.00
369.09	0.00
369.28	0.00
369.48	0.00
369.68	0.00
369.87	0.00
370.07	9.36
370.27	0.00
370.47	7.02
370.66	4.68
370.86	0.00
371.06	91.28
371.25	117.03
371.45	65.54
371.65	77.24
371.84	0.00
372.04	107.66
372.24	72.56
372.44	44.47
372.63	147.45
372.83	102.98
373.03	114.69
373.22	140.43
373.42	112.35
373.62	128.73
373.81	114.69
374.01	173.20
374.21	133.41
374.40	84.26
374.60	173.20
374.79	131.07
374.99	53.83
375.19	140.43
375.38	95.96
375.58	128.73
375.78	173.20
375.97	121.71
376.17	180.22
376.37	60.85
376.56	84.26
376.76	51.49
376.95	86.60
377.15	135.75
377.35	100.64
377.54	49.15
377.74	114.69
377.93	124.05
378.13	105.32
378.33	133.41
378.52	166.18
378.72	77.24
378.91	95.96
379.11	39.79
379.31	79.58
379.50	98.30
379.70	95.96
379.89	67.88
380.09	65.54
380.28	102.98
380.48	67.88
380.68	100.64
380.87	65.54
381.07	152.13
381.26	156.82
381.46	49.15
381.65	72.56
381.85	77.24
382.04	100.64
382.24	110.01
382.43	98.30
382.63	84.26
382.83	121.71
383.02	79.58
383.22	88.94
383.41	91.28
383.61	70.22
383.80	166.18
384.00	135.75
384.19	49.15
384.39	93.62
384.58	149.79
384.78	175.54
384.97	81.92
385.17	121.71
385.36	63.19
385.56	156.82
385.75	117.03
385.95	25.75
386.14	191.92
386.34	154.48
386.53	84.26
386.72	124.05
386.92	105.32
387.11	131.07
387.31	124.05
387.50	133.41
387.70	105.32
387.89	121.71
388.09	100.64
388.28	79.58
388.48	98.30
388.67	121.71
388.86	35.11
389.06	79.58
389.25	95.96
389.45	135.75
389.64	117.03
389.84	88.94
390.03	105.32
390.22	110.01
390.42	42.13
390.61	117.03
390.81	114.69
391.00	166.18
391.19	107.66
391.39	133.41
391.58	128.73
391.78	135.75
391.97	86.60
392.16	135.75
392.36	105.32
392.55	110.01
392.75	107.66
392.94	119.37
393.13	102.98
393.33	112.35
393.52	58.51
393.71	142.77
393.91	117.03
394.10	161.50
394.29	124.05
394.49	135.75
394.68	168.52
394.88	117.03
395.07	170.86
395.26	119.37
395.46	161.50
395.65	133.41
395.84	126.39
396.04	229.37
396.23	81.92
396.42	138.09
396.62	84.26
396.81	128.73
397.00	142.77
397.19	140.43
397.39	147.45
397.58	170.86
397.77	100.64
397.97	138.09
398.16	102.98
398.35	159.16
398.55	166.18
398.74	154.48
398.93	224.69
399.12	65.54
399.32	126.39
399.51	133.41
399.70	154.48
399.90	67.88
400.09	152.13
400.28	177.88
400.47	102.98
400.67	159.16
400.86	156.82
401.05	166.18
401.24	203.63
401.44	170.86
401.63	189.58
401.82	168.52
402.01	133.41
402.21	112.35
402.40	135.75
402.59	156.82
402.78	203.63
402.97	140.43
403.17	238.73
403.36	224.69
403.55	133.41
403.74	133.41
403.93	128.73
404.13	196.60
404.32	170.86
404.51	229.37
404.70	133.41
404.89	105.32
405.09	220.01
405.28	184.90
405.47	205.97
405.66	224.69
405.85	180.22
406.05	194.26
406.24	163.84
406.43	191.92
406.62	201.29
406.81	292.57
407.00	208.31
407.20	194.26
407.39	203.63
407.58	231.71
407.77	210.65
407.96	140.43
408.15	252.78
408.34	210.65
408.54	189.58
408.73	229.37
408.92	205.97
409.11	266.82
409.30	177.88
409.49	210.65
409.68	168.52
409.87	184.90
410.07	107.66
410.26	177.88
410.45	180.22
410.64	264.48
410.83	215.33
411.02	215.33
411.21	320.65
411.40	227.03
411.59	245.76
411.78	273.84
411.98	212.99
412.17	220.01
412.36	224.69
412.55	224.69
412.74	222.35
412.93	278.52
413.12	278.52
413.31	283.20
413.50	287.89
413.69	234.05
413.88	313.63
414.07	198.95
414.26	238.73
414.45	231.71
414.64	285.55
414.83	191.92
415.02	301.93
415.22	250.44
415.41	327.68
415.60	276.18
415.79	292.57
415.98	285.55
416.17	266.82
416.36	245.76
416.55	262.14
416.74	304.27
416.93	327.68
417.12	304.27
417.31	299.59
417.50	311.29
417.69	339.38
417.88	337.04
418.07	348.74
418.26	344.06
418.45	215.33
418.64	327.68
418.83	348.74
419.02	367.46
419.21	306.61
419.39	327.68
419.58	264.48
419.77	266.82
419.96	271.50
420.15	386.19
420.34	285.55
420.53	315.97
420.72	248.10
420.91	386.19
421.10	367.46
421.29	301.93
421.48	376.83
421.67	255.12
421.86	285.55
422.05	248.10
422.24	346.40
422.43	353.42
422.61	287.89
422.80	266.82
422.99	313.63
423.18	287.89
423.37	297.25
423.56	290.23
423.75	280.86
423.94	388.53
424.13	276.18
424.32	290.23
424.50	257.46
424.69	339.38
424.88	341.72
425.07	386.19
425.26	386.19
425.45	308.95
425.64	287.89
425.83	360.44
426.01	388.53
426.20	355.76
426.39	287.89
426.58	273.84
426.77	315.97
426.96	280.86
427.15	264.48
427.33	351.08
427.52	365.12
427.71	341.72
427.90	365.12
428.09	332.36
428.28	346.40
428.46	313.63
428.65	346.40
428.84	440.02
429.03	416.62
429.22	283.20
429.40	241.08
429.59	294.91
429.78	433.00
429.97	393.21
430.16	353.42
430.34	271.50
430.53	341.72
430.72	330.02
430.91	362.78
431.10	308.95
431.28	418.96
431.47	353.42
431.66	318.31
431.85	358.10
432.03	360.44
432.22	428.32
432.41	402.57
432.60	449.38
432.79	341.72
432.97	365.12
433.16	395.55
433.35	355.76
433.54	341.72
433.72	390.87
433.91	365.12
434.10	346.40
434.28	355.76
434.47	358.10
434.66	414.27
434.85	383.85
435.03	414.27
435.22	365.12
435.41	409.59
435.59	390.87
435.78	425.98
435.97	362.78
436.16	348.74
436.34	425.98
436.53	425.98
436.72	416.62
436.90	409.59
437.09	440.02
437.28	379.17
437.46	379.17
437.65	344.06
437.84	454.06
438.02	397.89
438.21	414.27
438.40	421.30
438.58	393.21
438.77	390.87
438.96	369.80
439.14	402.57
439.33	524.28
439.52	423.64
439.70	423.64
439.89	451.72
440.08	416.62
440.26	330.02
440.45	545.34
440.63	430.66
440.82	437.68
441.01	449.38
441.19	461.09
441.38	433.00
441.57	444.70
441.75	507.90
441.94	451.72
442.12	503.22
442.31	456.40
442.50	472.79
442.68	517.26
442.87	463.43
443.05	517.26
443.24	486.83
443.43	566.41
443.61	580.45
443.80	528.96
443.98	491.51
444.17	519.60
444.35	528.96
444.54	557.05
444.73	440.02
444.91	477.47
445.10	538.32
445.28	447.04
445.47	456.40
445.65	482.15
445.84	524.28
446.02	512.58
446.21	496.19
446.39	468.11
446.58	498.53
446.77	477.47
446.95	423.64
447.14	477.47
447.32	425.98
447.51	430.66
447.69	475.13
447.88	543.00
448.06	559.39
448.25	524.28
448.43	524.28
448.62	423.64
448.80	489.17
448.99	538.32
449.17	512.58
449.36	526.62
449.54	589.82
449.73	517.26
449.91	589.82
450.10	475.13
450.28	629.60
450.46	514.92
450.65	535.98
450.83	496.19
451.02	526.62
451.20	571.09
451.39	543.00
451.57	526.62
451.76	526.62
451.94	470.45
452.13	491.51
452.31	564.07
452.49	477.47
452.68	503.22
452.86	505.56
453.05	613.22
453.23	531.30
453.42	486.83
453.60	557.05
453.78	550.03
453.97	617.90
454.15	484.49
454.34	458.74
454.52	528.96
454.70	526.62
454.89	573.43
455.07	566.41
455.26	573.43
455.44	631.94
455.62	538.32
455.81	526.62
455.99	596.84
456.17	575.77
456.36	568.75
456.54	596.84
456.73	559.39
456.91	582.79
457.09	550.03
457.28	596.84
457.46	582.79
457.64	631.94
457.83	578.11
458.01	603.86
458.19	636.63
458.38	554.71
458.56	629.60
458.74	571.09
458.93	580.45
459.11	545.34
459.29	627.26
459.48	629.60
459.66	664.71
459.84	571.09
460.03	641.31
460.21	575.77
460.39	648.33
460.57	627.26
460.76	594.50
460.94	587.47
461.12	648.33
461.31	657.69
461.49	582.79
461.67	589.82
461.85	622.58
462.04	655.35
462.22	1032.18
462.40	641.31
462.59	697.48
462.77	557.05
462.95	657.69
463.13	587.47
463.32	622.58
463.50	678.76
463.68	561.73
463.86	610.88
464.05	629.60
464.23	645.99
464.41	671.73
464.59	594.50
464.78	592.16
464.96	692.80
465.14	709.18
465.32	641.31
465.50	582.79
465.69	667.05
465.87	667.05
466.05	617.90
466.23	617.90
466.41	641.31
466.60	664.71
466.78	617.90
466.96	557.05
467.14	697.48
467.32	751.31
467.51	660.03
467.69	624.92
467.87	727.91
468.05	723.23
468.23	781.74
468.41	624.92
468.60	554.71
468.78	716.20
468.96	739.61
469.14	645.99
469.32	610.88
469.50	678.76
469.69	765.36
469.87	772.38
470.05	751.31
470.23	711.52
470.41	692.80
470.59	690.46
470.77	748.97
470.95	744.29
471.14	760.67
471.32	774.72
471.50	744.29
471.68	702.16
471.86	777.06
472.04	730.25
472.22	779.40
472.40	704.50
472.58	760.67
472.77	688.12
472.95	763.01
473.13	833.23
473.31	751.31
473.49	690.46
473.67	678.76
473.85	737.27
474.03	753.65
474.21	713.86
474.39	737.27
474.57	765.36
474.75	798.12
474.93	786.42
475.12	660.03
475.30	770.04
475.48	704.50
475.66	800.46
475.84	751.31
476.02	755.99
476.20	809.83
476.38	835.57
476.56	828.55
476.74	805.14
476.92	758.33
477.10	819.19
477.28	898.77
477.46	800.46
477.64	880.04
477.82	863.66
478.00	814.51
478.18	873.02
478.36	908.13
478.54	908.13
478.72	882.38
478.90	793.44
479.08	870.68
479.26	873.02
479.44	870.68
479.62	966.64
479.80	901.11
479.98	919.83
480.16	952.60
480.34	952.60
480.52	994.73
480.70	968.98
480.88	898.77
481.06	910.47
481.24	940.90
481.41	905.79
481.59	980.68
481.77	922.17
481.95	882.38
482.13	994.73
482.31	943.24
482.49	968.98
482.67	945.58
482.85	950.26
483.03	940.90
483.21	983.02
483.39	966.64
483.57	1041.54
483.74	1081.33
483.92	1001.75
484.10	1078.99
484.28	1088.35
484.46	1093.03
484.64	976.00
484.82	1006.43
485.00	1022.81
485.18	1123.46
485.35	1125.80
485.53	1034.52
485.71	1067.28
485.89	1095.37
486.07	1071.97
486.25	1205.38
486.43	1125.80
486.61	1090.69
486.78	1144.52
486.96	1123.46
487.14	1177.29
487.32	1123.46
487.50	1135.16
487.68	1221.76
487.85	1156.22
488.03	1196.01
488.21	1221.76
488.39	1235.80
488.57	1261.55
488.75	1184.31
488.92	1451.13
489.10	1303.68
489.28	1235.80
489.46	1224.10
489.64	1233.46
489.81	1348.15
489.99	1315.38
490.17	1207.72
490.35	1357.51
490.53	1338.79
490.70	1273.25
490.88	1394.96
491.06	1348.15
491.24	1299.00
491.41	1397.30
491.59	1350.49
491.77	1345.81
491.95	1383.26
492.13	1366.87
492.30	1331.76
492.48	1376.24
492.66	1413.68
492.84	1350.49
493.01	1460.49
493.19	1378.58
493.37	1376.24
493.54	1479.22
493.72	1373.89
493.90	1434.75
494.08	1493.26
494.25	1453.47
494.43	1416.02
494.61	1444.11
494.79	1446.45
494.96	1453.47
495.14	1554.12
495.32	1488.58
495.49	1476.88
495.67	1479.22
495.85	1490.92
496.02	1432.41
496.20	1554.12
496.38	1469.86
496.55	1568.16
496.73	1565.82
496.91	1607.95
497.09	1547.09
497.26	1668.80
497.44	1528.37
497.62	1549.43
497.79	1603.27
497.97	1682.85
498.14	1647.74
498.32	1619.65
498.50	1701.57
498.67	1650.08
498.85	1645.40
499.03	1689.87
499.20	1696.89
499.38	1633.69
499.56	1657.10
499.73	1645.40
499.91	1675.82
500.08	1713.27
500.26	1645.40
500.44	1696.89
500.61	1741.36
500.79	1739.02
500.97	1743.70
501.14	1701.57
501.32	1767.10
501.49	1750.72
501.67	1638.38
501.84	1680.50
502.02	1666.46
502.20	1743.70
502.37	1771.79
502.55	1739.02
502.72	1727.32
502.90	1769.44
503.07	1760.08
503.25	1746.04
503.43	1694.55
503.60	1837.32
503.78	1727.32
503.95	1860.73
504.13	1837.32
504.30	1923.92
504.48	1842.00
504.65	1818.60
504.83	1820.94
505.01	1792.85
505.18	1867.75
505.36	1930.94
505.53	1708.59
505.71	1797.53
505.88	1991.80
506.06	1844.34
506.23	1872.43
506.41	1926.26
506.58	1912.22
506.76	1832.64
506.93	1820.94
507.11	1891.15
507.28	1851.36
507.46	1788.17
507.63	1865.41
507.81	1877.11
507.98	1928.60
508.16	1961.37
508.33	1961.37
508.50	1912.22
508.68	1973.07
508.85	1928.60
509.03	2043.29
509.20	1825.62
509.38	2038.61
509.55	1930.94
509.73	1989.46
509.90	2080.74
510.08	1954.35
510.25	1982.43
510.42	1914.56
510.60	1872.43
510.77	1987.11
510.95	2106.48
511.12	2005.84
511.30	2029.24
511.47	2186.06
511.64	2083.08
511.82	2031.58
511.99	2036.27
512.17	2005.84
512.34	2054.99
512.51	2087.76
512.69	2005.84
512.86	2040.95
513.04	2120.53
513.21	2085.42
513.38	2043.29
513.56	2097.12
513.73	2083.08
513.90	2101.80
514.08	2052.65
514.25	2036.27
514.43	2160.31
514.60	2127.55
514.77	2029.24
514.95	2200.10
515.12	2118.18
515.29	2202.44
515.47	2160.31
515.64	2134.57
515.81	2172.02
515.99	2157.97
516.16	2181.38
516.33	2190.74
516.51	2153.29
516.68	2083.08
516.85	2150.95
517.03	2094.78
517.20	2057.33
517.37	2136.91
517.54	2366.28
517.72	2183.72
517.89	2167.34
518.06	2160.31
518.24	2197.76
518.41	2209.47
518.58	2176.70
518.75	2127.55
518.93	2267.98
519.10	2277.34
519.27	2200.10
519.45	2291.38
519.62	2235.21
519.79	2223.51
519.96	2253.94
520.14	2221.17
520.31	2256.28
520.48	2195.42
520.65	2195.42
520.83	2270.32
521.00	2328.83
521.17	2235.21
521.34	2338.20
521.52	2396.71
521.69	2284.36
521.86	2284.36
522.03	2303.09
522.20	2326.49
522.38	2349.90
522.55	2260.96
522.72	2352.24
522.89	2363.94
523.07	2417.77
523.24	2282.02
523.41	2314.79
523.58	2352.24
523.75	2340.54
523.92	2368.62
524.10	2289.04
524.27	2429.48
524.44	2408.41
524.61	2359.26
524.78	2333.51
524.96	2377.98
525.13	2363.94
525.30	2356.92
525.47	2387.35
525.64	2190.74
525.81	2368.62
525.98	2415.43
526.16	2338.20
526.33	2370.96
526.50	2314.79
526.67	2366.28
526.84	2225.85
527.01	2347.56
527.18	2389.69
527.36	2385.01
527.53	2361.60
527.70	2506.71
527.87	2424.80
528.04	2413.09
528.21	2429.48
528.38	2413.09
528.55	2452.88
528.72	2443.52
528.89	2502.03
529.07	2504.37
529.24	2415.43
529.41	2382.67
529.58	2548.84
529.75	2511.39
529.92	2457.56
530.09	2349.90
530.26	2602.68
530.43	2377.98
530.60	2476.29
530.77	2497.35
530.94	2534.80
531.11	2588.63
531.28	2537.14
531.46	2551.18
531.63	2490.33
531.80	2504.37
531.97	2614.38
532.14	2429.48
532.31	2562.89
532.48	2450.54
532.65	2588.63
532.82	2586.29
532.99	2387.35
533.16	2518.42
533.33	2487.99
533.50	2651.83
533.67	2497.35
533.84	2576.93
534.01	2574.59
534.18	2487.99
534.35	2679.91
534.52	2562.89
534.69	2712.68
534.86	2619.06
535.03	2600.34
535.20	2464.58
535.37	2708.00
535.54	2527.78
535.71	2647.15
535.88	2572.25
536.05	2682.25
536.22	2708.00
536.38	2675.23
536.55	2562.89
536.72	2642.46
536.89	2647.15
537.06	2612.04
537.23	2675.23
537.40	2579.27
537.57	2555.86
537.74	2595.65
537.91	2654.17
538.08	2703.32
538.25	2693.96
538.42	2588.63
538.59	2712.68
538.75	2682.25
538.92	2558.21
539.09	2630.76
539.26	2572.25
539.43	2682.25
539.60	2740.77
539.77	2712.68
539.94	2586.29
540.11	2796.94
540.28	2712.68
540.44	2698.64
540.61	2668.21
540.78	2567.57
540.95	2698.64
541.12	2757.15
541.29	2740.77
541.46	2712.68
541.62	2682.25
541.79	2612.04
541.96	2616.72
542.13	2619.06
542.30	2679.91
542.47	2656.51
542.63	2700.98
542.80	2710.34
542.97	2656.51
543.14	2780.56
543.31	2719.70
543.48	2750.13
543.64	2710.34
543.81	2853.11
543.98	2759.49
544.15	2745.45
544.32	2759.49
544.48	2710.34
544.65	2801.62
544.82	2705.66
544.99	2726.72
545.16	2761.83
545.32	2712.68
545.49	2796.94
545.66	2864.82
545.83	2712.68
546.00	2775.88
546.16	2698.64
546.33	2717.36
546.50	2846.09
546.67	2738.43
546.83	2789.92
547.00	2803.96
547.17	2661.19
547.34	2768.85
547.50	2759.49
547.67	2794.60
547.84	2768.85
548.00	2759.49
548.17	2827.37
548.34	2862.48
548.51	2932.69
548.67	2843.75
548.84	2705.66
549.01	2785.24
549.18	2766.51
549.34	2675.23
549.51	2773.53
549.68	2869.50
549.84	2712.68
550.01	2818.00
550.18	2843.75
550.34	2946.73
550.51	2808.64
550.68	2946.73
550.84	2740.77
551.01	2764.17
551.18	2768.85
551.34	2876.52
551.51	2972.48
551.68	2792.26
551.84	2836.73
552.01	2799.28
552.18	2789.92
552.34	2740.77
552.51	2860.13
552.68	2815.66
552.84	2904.60
553.01	2834.39
553.18	2920.99
553.34	2942.05
553.51	2752.47
553.67	2808.64
553.84	2930.35
554.01	2839.07
554.17	2867.16
554.34	2913.97
554.51	2825.03
554.67	2928.01
554.84	2958.44
555.00	2780.56
555.17	2885.88
555.33	3035.67
555.50	2892.90
555.67	2906.95
555.83	2799.28
556.00	2899.92
556.16	3124.62
556.33	2841.41
556.50	2834.39
556.66	2942.05
556.83	2857.79
556.99	2815.66
557.16	2874.18
557.32	2874.18
557.49	2874.18
557.65	2761.83
557.82	2857.79
557.98	2780.56
558.15	2885.88
558.32	2902.26
558.48	2902.26
558.65	2843.75
558.81	2857.79
558.98	2846.09
559.14	2946.73
559.31	2998.23
559.47	2892.90
559.64	2876.52
559.80	2855.45
559.97	2906.95
560.13	2843.75
560.30	2766.51
560.46	2984.18
560.63	2855.45
560.79	2899.92
560.96	2916.31
561.12	2759.49
561.29	2834.39
561.45	2916.31
561.61	2925.67
561.78	2942.05
561.94	2813.32
562.11	2820.35
562.27	2904.60
562.44	2864.82
562.60	2956.10
562.77	2878.86
562.93	2867.16
563.10	2871.84
563.26	2881.20
563.42	3035.67
563.59	2913.97
563.75	2885.88
563.92	2820.35
564.08	3021.63
564.24	2993.55
564.41	2944.39
564.57	2897.58
564.74	2892.90
564.90	2935.03
565.07	2974.82
565.23	2984.18
565.39	2979.50
565.56	3038.02
565.72	2803.96
565.88	2895.24
566.05	2963.12
566.21	2832.05
566.38	2988.86
566.54	3021.63
566.70	2949.08
566.87	2986.52
567.03	2937.37
567.19	2949.08
567.36	2942.05
567.52	2902.26
567.68	2888.22
567.85	2825.03
568.01	2883.54
568.17	2925.67
568.34	3000.57
568.50	2892.90
568.66	2888.22
568.83	3052.06
568.99	2995.89
569.15	2909.29
569.32	2869.50
569.48	2874.18
569.64	2965.46
569.81	2963.12
569.97	2853.11
570.13	2920.99
570.30	2892.90
570.46	2920.99
570.62	2841.41
570.78	2944.39
570.95	2984.18
571.11	2937.37
571.27	2808.64
571.43	2881.20
571.60	2928.01
571.76	2820.35
571.92	3012.27
572.09	2993.55
572.25	2897.58
572.41	2902.26
572.57	2939.71
572.74	2911.63
572.90	2909.29
573.06	2782.90
573.22	2923.33
573.38	2848.43
573.55	3002.91
573.71	3112.91
573.87	2892.90
574.03	2825.03
574.20	2963.12
574.36	2897.58
574.52	3021.63
574.68	2923.33
574.84	2913.97
575.01	2949.08
575.17	3007.59
575.33	2860.13
575.49	3012.27
575.65	2981.84
575.82	2899.92
575.98	3066.10
576.14	2839.07
576.30	2862.48
576.46	2878.86
576.62	2820.35
576.79	2885.88
576.95	2876.52
577.11	2967.80
577.27	2909.29
577.43	2991.20
577.59	2923.33
577.75	3019.29
577.92	2850.77
578.08	2965.46
578.24	3021.63
578.40	3000.57
578.56	3009.93
578.72	3103.55
578.88	2970.14
579.04	3021.63
579.21	2923.33
579.37	2951.42
579.53	2956.10
579.69	2871.84
579.85	2850.77
580.01	2890.56
580.17	2911.63
580.33	2977.16
580.49	2913.97
580.65	3019.29
580.82	2923.33
580.98	3030.99
581.14	3005.25
581.30	2932.69
581.46	2906.95
581.62	3026.31
581.78	2902.26
581.94	2949.08
582.10	2899.92
582.26	2998.23
582.42	2963.12
582.58	2949.08
582.74	2953.76
582.90	3007.59
583.06	2949.08
583.22	3054.40
583.38	2979.50
583.54	2958.44
583.70	2956.10
583.86	3002.91
584.02	3045.04
584.18	3005.25
584.34	2860.13
584.50	2862.48
584.66	2935.03
584.82	2951.42
584.98	3063.76
585.14	2832.05
585.30	2892.90
585.46	3052.06
585.62	2939.71
585.78	2920.99
585.94	2911.63
586.10	2867.16
586.26	2970.14
586.42	2897.58
586.58	2995.89
586.74	2890.56
586.90	2881.20
587.06	2946.73
587.22	2928.01
587.38	2951.42
587.54	2923.33
587.70	3061.42
587.86	2918.65
588.02	2902.26
588.18	2932.69
588.34	2923.33
588.49	2839.07
588.65	2862.48
588.81	2883.54
588.97	2953.76
589.13	2993.55
589.29	2818.00
589.45	2860.13
589.61	2960.78
589.77	2937.37
589.93	2909.29
590.08	2829.71
590.24	2974.82
590.40	2825.03
590.56	2867.16
590.72	2839.07
590.88	2892.90
591.04	2967.80
591.20	2939.71
591.35	3033.33
591.51	3047.38
591.67	2864.82
591.83	2818.00
591.99	3021.63
592.15	2904.60
592.31	2827.37
592.46	2972.48
592.62	2944.39
592.78	2902.26
592.94	2944.39
593.10	2871.84
593.26	2988.86
593.41	2913.97
593.57	2836.73
593.73	2956.10
593.89	3007.59
594.05	3047.38
594.20	2876.52
594.36	2923.33
594.52	2869.50
594.68	2963.12
594.84	2958.44
594.99	2920.99
595.15	2916.31
595.31	2981.84
595.47	3075.46
595.62	2956.10
595.78	2902.26
595.94	2892.90
596.10	3033.33
596.25	2930.35
596.41	2944.39
596.57	2972.48
596.73	3047.38
596.88	2899.92
597.04	2827.37
597.20	3098.87
597.36	3045.04
597.51	3038.02
597.67	2810.98
597.83	2878.86
597.99	2949.08
598.14	2953.76
598.30	2899.92
598.46	2958.44
598.61	3012.27
598.77	2906.95
598.93	2860.13
599.09	2878.86
599.24	3066.10
599.40	2963.12
599.56	2993.55
599.71	2937.37
599.87	2972.48
600.03	2869.50
600.18	2930.35
600.34	3016.95
600.50	2963.12
600.65	2883.54
600.81	3073.12
600.97	3000.57
601.12	3117.59
601.28	3007.59
601.44	2981.84
601.59	3030.99
601.75	2930.35
601.91	2878.86
602.06	2839.07
602.22	2963.12
602.37	2855.45
602.53	2904.60
602.69	2913.97
602.84	2972.48
603.00	2916.31
603.16	2913.97
603.31	3012.27
