SpectraSuite Data File
++++++++++++++++++++++++++++++++++++
Date: Fri Oct 04 11:48:48 GMT-05:00 2013
User: price-jones
Dark Spectrum Present: No
Reference Spectrum Present: No
Number of Sampled Component Spectra: 1
Spectrometers: USB2+H05261
Integration Time (usec): 100000 (USB2+H05261)
Spectra Averaged: 1 (USB2+H05261)
Boxcar Smoothing: 0 (USB2+H05261)
Correct for Electrical Dark: No (USB2+H05261)
Strobe/Lamp Enabled: No (USB2+H05261)
Correct for Detector Non-linearity: No (USB2+H05261)
Correct for Stray Light: No (USB2+H05261)
Number of Pixels in Processed Spectrum: 2048
>>>>>Begin Processed Spectral Data<<<<<
365.73	4.68
365.92	4.68
366.12	4.68
366.32	0.00
366.52	0.00
366.72	0.00
366.91	0.00
367.11	0.00
367.31	0.00
367.51	0.00
367.70	0.00
367.90	0.00
368.10	0.00
368.30	0.00
368.49	0.00
368.69	0.00
368.89	0.00
369.09	0.00
369.28	0.00
369.48	0.00
369.68	0.00
369.87	14.04
370.07	7.02
370.27	0.00
370.47	84.26
370.66	212.99
370.86	227.03
371.06	201.29
371.25	283.20
371.45	269.16
371.65	227.03
371.84	255.12
372.04	248.10
372.24	294.91
372.44	262.14
372.63	297.25
372.83	360.44
373.03	299.59
373.22	255.12
373.42	301.93
373.62	283.20
373.81	297.25
374.01	395.55
374.21	304.27
374.40	332.36
374.60	383.85
374.79	297.25
374.99	292.57
375.19	292.57
375.38	341.72
375.58	334.70
375.78	297.25
375.97	374.49
376.17	451.72
376.37	355.76
376.56	395.55
376.76	379.17
376.95	311.29
377.15	355.76
377.35	287.89
377.54	379.17
377.74	388.53
377.93	369.80
378.13	358.10
378.33	315.97
378.52	400.23
378.72	381.51
378.91	411.93
379.11	348.74
379.31	416.62
379.50	358.10
379.70	416.62
379.89	383.85
380.09	313.63
380.28	416.62
380.48	304.27
380.68	400.23
380.87	416.62
381.07	454.06
381.26	428.32
381.46	388.53
381.65	440.02
381.85	411.93
382.04	330.02
382.24	454.06
382.43	418.96
382.63	437.68
382.83	400.23
383.02	454.06
383.22	472.79
383.41	346.40
383.61	472.79
383.80	416.62
384.00	416.62
384.19	407.25
384.39	435.34
384.58	423.64
384.78	500.87
384.97	521.94
385.17	447.04
385.36	468.11
385.56	475.13
385.75	456.40
385.95	465.77
386.14	463.43
386.34	411.93
386.53	442.36
386.72	528.96
386.92	510.24
387.11	540.66
387.31	564.07
387.50	475.13
387.70	496.19
387.89	585.13
388.09	475.13
388.28	416.62
388.48	531.30
388.67	514.92
388.86	596.84
389.06	573.43
389.25	601.52
389.45	664.71
389.64	629.60
389.84	622.58
390.03	587.47
390.22	521.94
390.42	531.30
390.61	561.73
390.81	617.90
391.00	592.16
391.19	617.90
391.39	660.03
391.58	641.31
391.78	683.44
391.97	669.39
392.16	559.39
392.36	676.41
392.55	641.31
392.75	596.84
392.94	596.84
393.13	552.37
393.33	571.09
393.52	631.94
393.71	641.31
393.91	699.82
394.10	650.67
394.29	699.82
394.49	674.07
394.68	706.84
394.88	709.18
395.07	727.91
395.26	741.95
395.46	685.78
395.65	716.20
395.84	760.67
396.04	868.34
396.23	800.46
396.42	786.42
396.62	725.57
396.81	734.93
397.00	746.63
397.19	837.91
397.39	777.06
397.58	765.36
397.77	819.19
397.97	807.48
398.16	821.53
398.35	889.40
398.55	903.45
398.74	854.30
398.93	922.17
399.12	863.66
399.32	814.51
399.51	849.61
399.70	954.94
399.90	922.17
400.09	917.49
400.28	961.96
400.47	887.06
400.67	1004.09
400.86	957.28
401.05	922.17
401.24	1057.92
401.44	1043.88
401.63	1022.81
401.82	1069.62
402.01	985.37
402.21	1132.82
402.40	1104.73
402.59	1027.50
402.78	1132.82
402.97	1048.56
403.17	1111.75
403.36	1142.18
403.55	1102.39
403.74	1093.03
403.93	1179.63
404.13	1224.10
404.32	1172.61
404.51	1135.16
404.70	1214.74
404.89	1198.35
405.09	1313.04
405.28	1254.53
405.47	1249.85
405.66	1284.95
405.85	1327.08
406.05	1242.82
406.24	1306.02
406.43	1387.94
406.62	1303.68
406.81	1338.79
407.00	1432.41
407.20	1282.61
407.39	1383.26
407.58	1423.05
407.77	1373.89
407.96	1390.28
408.15	1502.62
408.34	1483.90
408.54	1526.03
408.73	1497.94
408.92	1474.54
409.11	1535.39
409.30	1572.84
409.49	1577.52
409.68	1612.63
409.87	1659.44
410.07	1636.03
410.26	1570.50
410.45	1568.16
410.64	1586.88
410.83	1659.44
411.02	1727.32
411.21	1717.95
411.40	1834.98
411.59	1750.72
411.78	1797.53
411.98	1813.92
412.17	1767.10
412.36	1767.10
412.55	1785.83
412.74	1851.36
412.93	1961.37
413.12	1940.30
413.31	2066.69
413.50	1881.79
413.69	2003.50
413.88	2022.22
414.07	2038.61
414.26	2036.27
414.45	2157.97
414.64	2033.93
414.83	2083.08
415.02	2209.47
415.22	2174.36
415.41	2160.31
415.60	2195.42
415.79	2223.51
415.98	2279.68
416.17	2373.30
416.36	2317.13
416.55	2455.22
416.74	2270.32
416.93	2504.37
417.12	2450.54
417.31	2436.50
417.50	2438.84
417.69	2502.03
417.88	2565.23
418.07	2487.99
418.26	2572.25
418.45	2544.16
418.64	2647.15
418.83	2668.21
419.02	2597.99
419.21	2644.81
419.39	2583.95
419.58	2726.72
419.77	2708.00
419.96	2796.94
420.15	2722.04
420.34	2637.78
420.53	2733.75
420.72	2825.03
420.91	2808.64
421.10	2827.37
421.29	2808.64
421.48	2754.81
421.67	2930.35
421.86	2951.42
422.05	2855.45
422.24	2796.94
422.43	2787.58
422.61	2981.84
422.80	2967.80
422.99	2843.75
423.18	2876.52
423.37	2951.42
423.56	3021.63
423.75	2925.67
423.94	2930.35
424.13	2729.06
424.32	2747.79
424.50	3126.96
424.69	3115.25
424.88	3000.57
425.07	2857.79
425.26	2897.58
425.45	2960.78
425.64	2906.95
425.83	2923.33
426.01	2991.20
426.20	3038.02
426.39	3094.19
426.58	2871.84
426.77	2906.95
426.96	3002.91
427.15	3052.06
427.33	3054.40
427.52	3108.23
427.71	3119.93
427.90	3148.02
428.09	3141.00
428.28	3246.32
428.46	3171.43
428.65	3164.40
428.84	3361.01
429.03	3183.13
429.22	3131.64
429.40	3194.83
429.59	3234.62
429.78	3122.27
429.97	3204.19
430.16	3173.77
430.34	3234.62
430.53	3318.88
430.72	3358.67
430.91	3337.60
431.10	3510.80
431.28	3517.83
431.47	3368.03
431.66	3543.57
431.85	3426.54
432.03	3454.63
432.22	3651.24
432.41	3501.44
432.60	3492.08
432.79	3569.32
432.97	3606.77
433.16	3417.18
433.35	3555.27
433.54	3665.28
433.72	3651.24
433.91	3646.55
434.10	3719.11
434.28	3712.09
434.47	3557.61
434.66	3726.13
434.85	3463.99
435.03	3728.47
435.22	3754.22
435.41	3927.42
435.59	3794.01
435.78	3744.86
435.97	3763.58
436.16	3840.82
436.34	3925.08
436.53	3857.20
436.72	3840.82
436.90	3887.63
437.09	3941.46
437.28	3868.91
437.46	3889.97
437.65	3955.51
437.84	3934.44
438.02	3854.86
438.21	4011.68
438.40	4084.23
438.58	4173.18
438.77	4060.83
438.96	4011.68
439.14	4203.60
439.33	4224.67
439.52	4283.18
439.70	4353.40
439.89	4411.91
440.08	4393.19
440.26	4320.63
440.45	4470.42
440.63	4521.92
440.82	4332.33
441.01	4393.19
441.19	4535.96
441.38	4695.11
441.57	4554.68
441.75	4657.67
441.94	4631.92
442.12	4631.92
442.31	4765.33
442.50	4858.95
442.68	4793.42
442.87	4821.50
443.05	4793.42
443.24	4702.14
443.43	4877.68
443.61	4791.08
443.80	4898.74
443.98	4901.08
444.17	4718.52
444.35	4947.89
444.54	4968.96
444.73	4997.04
444.91	4903.42
445.10	4950.23
445.28	4873.00
445.47	4882.36
445.65	4912.78
445.84	4898.74
446.02	5060.24
446.21	5085.98
446.39	5018.11
446.58	5036.83
446.77	5027.47
446.95	4950.23
447.14	5025.13
447.32	5186.63
447.51	4938.53
447.69	5160.88
447.88	5069.60
448.06	5109.39
448.25	5057.90
448.43	4994.70
448.62	4873.00
448.80	5121.09
448.99	4980.66
449.17	5331.74
449.36	5322.38
449.54	5322.38
449.73	5210.03
449.91	5359.83
450.10	5224.08
450.28	5394.93
450.46	5355.15
450.65	5406.64
450.83	5451.11
451.02	5364.51
451.20	5315.36
451.39	5610.26
451.57	5458.13
451.76	5511.96
451.94	5413.66
452.13	5561.11
452.31	5493.24
452.49	5418.34
452.68	5453.45
452.86	5537.71
453.05	5748.36
453.23	5565.79
453.42	5495.58
453.60	5488.56
453.78	5624.31
453.97	5617.29
454.15	5584.52
454.34	5537.71
454.52	5795.17
454.70	5771.76
454.89	5802.19
455.07	5799.85
455.26	5802.19
455.44	5879.43
455.62	5832.62
455.81	5834.96
455.99	5973.05
456.17	6085.39
456.36	5928.58
456.54	6024.54
456.73	6045.60
456.91	6230.51
457.09	6211.78
457.28	6190.72
457.46	6160.29
457.64	6232.85
457.83	6256.25
458.01	6122.84
458.19	6291.36
458.38	6377.96
458.56	6349.87
458.74	6431.79
458.93	6263.27
459.11	6417.75
459.29	6160.29
459.48	6473.92
459.66	6431.79
459.84	6567.54
460.03	6516.05
460.21	6602.65
460.39	6670.53
460.57	6583.93
460.76	6560.52
460.94	6619.04
461.12	6555.84
461.31	6630.74
461.49	6649.46
461.67	6527.75
461.85	6778.19
462.04	6691.59
462.22	7232.26
462.40	6817.98
462.59	6675.21
462.77	6574.56
462.95	6909.26
463.13	6857.77
463.32	6839.05
463.50	7028.63
463.68	7066.08
463.86	6960.75
464.05	6738.40
464.23	6946.71
464.41	7190.13
464.59	6836.70
464.78	7101.19
464.96	6846.07
465.14	6911.60
465.32	6998.20
465.50	7119.91
465.69	7068.42
465.87	6991.18
466.05	7255.66
466.23	7042.67
466.41	7155.02
466.60	7272.04
466.78	7194.81
466.96	7208.85
467.14	7297.79
467.32	7442.90
467.51	7344.60
467.69	7173.74
467.87	7400.77
468.05	7183.10
468.23	7482.69
468.41	7384.39
468.60	7356.30
468.78	7599.72
468.96	7321.20
469.14	7323.54
469.32	7412.48
469.50	7318.86
469.69	7454.61
469.87	7763.56
470.05	7733.13
470.23	7730.79
470.41	7660.57
470.59	7552.91
470.77	7655.89
470.95	7716.75
471.14	7915.69
471.32	7836.11
471.50	7964.84
471.68	7859.52
471.86	7960.16
472.04	8016.33
472.22	8067.83
472.40	8065.49
472.58	8245.71
472.77	8009.31
472.95	8318.26
473.13	8585.08
473.31	8344.01
473.49	8454.02
473.67	8332.31
473.85	8276.13
474.03	8437.63
474.21	8542.96
474.39	8725.52
474.57	8741.90
474.75	8727.86
474.93	8664.66
475.12	8596.79
475.30	8781.69
475.48	8889.35
475.66	9006.38
475.84	8968.93
476.02	9008.72
476.20	8982.98
476.38	9179.58
476.56	9312.99
476.74	9233.41
476.92	9301.29
477.10	9191.28
477.28	9355.12
477.46	9387.89
477.64	9703.86
477.82	9692.16
478.00	9832.59
478.18	9923.87
478.36	9886.42
478.54	9738.97
478.72	10148.56
478.90	10073.67
479.08	10211.76
479.26	10438.79
479.44	10293.68
479.62	10504.32
479.80	10581.56
479.98	10373.25
480.16	10565.18
480.34	10693.91
480.52	10710.29
480.70	10909.24
480.88	10743.06
481.06	10864.77
481.24	10853.06
481.41	10998.18
481.59	11311.81
481.77	11276.70
481.95	11332.87
482.13	11496.71
482.31	11391.39
482.49	11744.81
482.67	11892.26
482.85	11789.28
483.03	11918.01
483.21	12149.72
483.39	12166.10
483.57	11950.78
483.74	12383.77
483.92	12313.56
484.10	12358.03
484.28	12662.30
484.46	12915.08
484.64	12940.82
484.82	12723.15
485.00	12741.88
485.18	13015.72
485.35	13160.83
485.53	13256.79
485.71	13331.69
485.89	13699.16
486.07	13589.15
486.25	13837.25
486.43	13680.43
486.61	13736.60
486.78	13846.61
486.96	14003.43
487.14	14047.90
487.32	14284.29
487.50	14347.48
487.68	14511.32
487.85	14504.30
488.03	14881.13
488.21	14918.57
488.39	14916.23
488.57	14771.12
488.75	15110.50
488.92	15688.61
489.10	15564.56
489.28	15534.14
489.46	15634.78
489.64	15826.70
489.81	15896.92
489.99	16027.99
490.17	16156.72
490.35	16381.41
490.53	16341.62
490.70	16212.89
490.88	16585.04
491.06	16526.52
491.24	16634.19
491.41	16582.70
491.59	16931.44
491.77	16910.37
491.95	16854.20
492.13	17125.70
492.30	17364.43
492.48	17224.00
492.66	17542.32
492.84	17666.36
493.01	17703.81
493.19	17837.22
493.37	17989.36
493.54	17862.97
493.72	17879.35
493.90	18190.64
494.08	18459.81
494.25	18586.19
494.43	18380.23
494.61	18726.63
494.79	18752.37
494.96	18881.10
495.14	18871.74
495.32	19096.43
495.49	19105.79
495.67	19435.81
495.85	19342.19
496.02	19220.48
496.20	19587.94
496.38	19510.71
496.55	19695.61
496.73	20077.12
496.91	19936.68
497.09	20154.35
497.26	20458.62
497.44	20105.20
497.62	20320.53
497.79	20446.92
497.97	20538.20
498.14	20648.21
498.32	20793.32
498.50	21123.33
498.67	21238.02
498.85	21029.71
499.03	21135.04
499.20	21085.89
499.38	21469.73
499.56	21167.80
499.73	21633.57
499.91	21895.71
500.08	21647.61
500.26	21535.27
500.44	21640.59
500.61	21888.69
500.79	21865.28
500.97	21806.77
501.14	22307.65
501.32	22431.69
501.49	22153.17
501.67	22209.34
501.84	22457.44
502.02	22235.09
502.20	22609.58
502.37	23094.07
502.55	22686.81
502.72	22792.14
502.90	22979.38
503.07	22927.89
503.25	22965.34
503.43	22960.66
503.60	23161.94
503.78	23201.73
503.95	23648.77
504.13	23335.14
504.30	23379.61
504.48	23445.15
504.65	23391.31
504.83	23744.73
505.01	23988.15
505.18	23843.04
505.36	23988.15
505.53	23878.15
505.71	24081.77
505.88	24091.13
506.06	24088.79
506.23	24554.56
506.41	24278.38
506.58	24802.66
506.76	24727.76
506.93	24650.52
507.11	24379.02
507.28	24584.99
507.46	24746.48
507.63	25146.72
507.81	25411.20
507.98	25043.73
508.16	24758.19
508.33	24851.81
508.50	25099.90
508.68	25263.74
508.85	25713.13
509.03	25266.08
509.20	25912.07
509.38	25813.77
509.55	25656.95
509.73	25998.67
509.90	25909.73
510.08	25558.65
510.25	26019.74
510.42	26089.95
510.60	26059.52
510.77	26141.44
510.95	26782.75
511.12	26555.72
511.30	26548.70
511.47	26735.94
511.64	26883.39
511.82	26918.50
511.99	26469.12
512.17	26960.63
512.34	26881.05
512.51	26902.12
512.69	27171.28
512.86	27257.88
513.04	27725.99
513.21	27566.83
513.38	27821.95
513.56	27693.22
513.73	27208.73
513.90	27435.76
514.08	27496.61
514.25	27779.82
514.43	27995.15
514.60	28278.35
514.77	28151.96
514.95	27936.63
515.12	28161.33
515.29	28065.36
515.47	28472.62
515.64	28313.46
515.81	28369.63
515.99	28327.50
516.16	28517.09
516.33	28624.75
516.51	28966.47
516.68	28540.49
516.85	28514.75
517.03	28697.31
517.20	28790.93
517.37	28987.53
517.54	29193.50
517.72	29062.43
517.89	29127.97
518.06	29015.62
518.24	28961.79
518.41	29146.69
518.58	29198.18
518.75	29221.59
518.93	29652.25
519.10	29401.81
519.27	29656.93
519.45	29357.34
519.62	29778.64
519.79	29596.07
519.96	30061.84
520.14	30288.87
520.31	29790.34
520.48	30141.42
520.65	30043.12
520.83	30274.83
521.00	30061.84
521.17	30370.79
521.34	30061.84
521.52	30253.76
521.69	30546.33
521.86	30630.59
522.03	30836.56
522.20	30918.48
522.38	30691.44
522.55	31007.42
522.72	31023.80
522.89	30794.43
523.07	31323.39
523.24	31033.16
523.41	30785.07
523.58	31342.11
523.75	31431.05
523.92	31005.08
524.10	31297.64
524.27	31337.43
524.44	31721.28
524.61	31964.70
524.78	31917.89
524.96	31257.85
525.13	31791.50
525.30	31545.74
525.47	31929.59
525.64	32070.02
525.81	32304.07
525.98	32346.20
526.16	32067.68
526.33	32067.68
526.50	32348.54
526.67	31962.36
526.84	31679.15
527.01	31962.36
527.18	32376.63
527.36	32332.16
527.53	32753.46
527.70	32606.00
527.87	32875.16
528.04	32716.01
528.21	32755.80
528.38	32694.94
528.55	32821.33
528.72	32690.26
528.89	32947.72
529.07	33200.50
529.24	32739.41
529.41	32833.04
529.58	33099.86
529.75	32847.08
529.92	33076.45
530.09	33064.75
530.26	32964.10
530.43	33305.82
530.60	33268.37
530.77	33364.34
530.94	33413.49
531.11	33425.19
531.28	33507.11
531.46	33422.85
531.63	33567.96
531.80	33757.55
531.97	33933.09
532.14	33762.23
532.31	33673.29
532.48	33804.36
532.65	33727.12
532.82	33745.84
532.99	33895.64
533.16	33944.79
533.33	34249.06
533.50	34555.67
533.67	34361.40
533.84	33942.45
534.01	34272.46
534.18	34054.79
534.35	34558.01
534.52	34330.98
534.69	34536.94
534.86	34869.30
535.03	34387.15
535.20	34497.16
535.37	34925.47
535.54	34637.59
535.71	34899.73
535.88	34998.03
536.05	34873.98
536.22	35065.91
536.38	35342.09
536.55	35016.75
536.72	35147.82
536.89	34356.72
537.06	35119.74
537.23	34897.39
537.40	35468.48
537.57	35058.88
537.74	34827.17
537.91	35789.13
538.08	35407.62
538.25	35466.14
538.42	34852.92
538.59	35388.90
538.75	35115.06
538.92	35445.07
539.09	35885.09
539.26	35526.99
539.43	35927.22
539.60	36140.21
539.77	35505.93
539.94	36084.04
540.11	35564.44
540.28	35611.25
540.44	35665.08
540.61	35739.98
540.78	35597.21
540.95	35882.75
541.12	35981.06
541.29	35959.99
541.46	36091.06
541.62	36184.68
541.79	36163.62
541.96	36163.62
542.13	35828.92
542.30	36180.00
542.47	36444.48
542.63	36556.83
542.80	36587.25
542.97	36739.39
543.14	36559.17
543.31	36687.90
543.48	36322.77
543.64	37237.92
543.81	36980.46
543.98	37113.87
544.15	36723.01
544.32	36748.75
544.48	37514.11
544.65	36739.39
544.82	37010.89
544.99	36432.78
545.16	37172.39
545.32	37069.40
545.49	37521.13
545.66	37357.29
545.83	37317.50
546.00	37476.66
546.16	37670.92
546.33	37057.70
546.50	37008.55
546.67	37336.23
546.83	36898.55
547.00	36914.93
547.17	37331.54
547.34	36868.12
547.50	37549.21
547.67	37481.34
547.84	37010.89
548.00	37823.06
548.17	37675.60
548.34	37797.31
548.51	38162.43
548.67	38029.02
548.84	37748.16
549.01	37949.45
549.18	37799.65
549.34	37766.88
549.51	37876.89
549.68	37996.26
549.84	37570.28
550.01	37806.67
550.18	37975.19
550.34	38066.47
550.51	38403.51
550.68	38438.62
550.84	38078.18
551.01	38040.73
551.18	38029.02
551.34	37734.12
551.51	38298.19
551.68	38335.63
551.84	38459.68
552.01	38401.17
552.18	38642.24
552.34	38766.29
552.51	38356.70
552.68	38356.70
552.84	38354.36
553.01	38717.14
553.18	38391.81
553.34	38892.68
553.51	38639.90
553.67	38796.72
553.84	39119.71
554.01	39075.24
554.17	39435.69
554.34	38562.67
554.51	38717.14
554.67	39271.85
554.84	38785.02
555.00	38679.69
555.17	39161.84
555.33	39196.95
555.50	38883.32
555.67	38761.61
555.83	38906.73
556.00	39388.88
556.16	39648.68
556.33	38979.28
556.50	38909.07
556.66	38920.77
556.83	38937.15
556.99	39108.01
557.16	39309.30
557.32	39416.96
557.49	39337.38
557.65	38864.60
557.82	38909.07
557.98	39241.42
558.15	39377.17
558.32	39632.29
558.48	39377.17
558.65	39243.76
558.81	39161.84
558.98	39166.52
559.14	39496.54
559.31	39358.45
559.47	39409.94
559.64	39236.74
559.80	39639.31
559.97	39578.46
560.13	38962.90
560.30	39842.94
560.46	39777.40
560.63	39503.56
560.79	40198.70
560.96	39796.13
561.12	39566.76
561.29	39449.73
561.45	39887.41
561.61	39920.18
561.78	39222.70
561.94	39569.10
562.11	39730.59
562.27	39847.62
562.44	39391.22
562.60	39859.32
562.77	39606.55
562.93	39704.85
563.10	40189.34
563.26	39562.08
563.42	40114.44
563.59	39718.89
563.75	40041.88
563.92	40034.86
564.08	39531.65
564.24	39653.36
564.41	39704.85
564.57	39571.44
564.74	40158.91
564.90	40325.09
565.07	40203.38
565.23	40016.14
565.39	40039.54
565.56	39985.71
565.72	39920.18
565.88	39377.17
566.05	40231.47
566.21	39517.60
566.38	39789.11
566.54	40271.26
566.70	40308.71
566.87	40652.76
567.03	39765.70
567.19	40102.74
567.36	40355.52
567.52	39854.64
567.68	40109.76
567.85	39906.13
568.01	40119.12
568.17	39873.37
568.34	40095.72
568.50	40509.99
568.66	40414.03
568.83	40374.24
568.99	40570.85
569.15	40687.87
569.32	40123.80
569.48	39894.43
569.64	40334.45
569.81	40297.00
569.97	39601.86
570.13	40140.19
570.30	40308.71
570.46	40493.61
570.62	39910.82
570.78	40325.09
570.95	40381.26
571.11	40390.62
571.27	39950.60
571.43	40002.10
571.60	40208.06
571.76	40430.41
571.92	40306.37
572.09	40329.77
572.25	40311.05
572.41	40519.35
572.57	40397.65
572.74	40617.66
572.90	40072.31
573.06	40706.60
573.22	40137.85
573.38	40500.63
573.55	40266.58
573.71	40858.73
573.87	40252.53
574.03	40282.96
574.20	40512.33
574.36	40362.54
574.52	40772.13
574.68	40432.75
574.84	40421.05
575.01	40383.60
575.17	40617.66
575.33	40931.29
575.49	40804.90
575.65	40458.50
575.82	40350.84
575.98	39917.84
576.14	40821.28
576.30	40547.44
576.46	40142.53
576.62	40769.79
576.79	40594.25
576.95	40942.99
577.11	40524.04
577.27	40727.66
577.43	40683.19
577.59	40224.45
577.75	40615.32
577.92	40252.53
578.08	40203.38
578.24	40243.17
578.40	40268.92
578.56	40683.19
578.72	40423.39
578.88	41127.89
579.04	40844.69
579.21	40196.36
579.37	40376.58
579.53	40643.40
579.69	40065.29
579.85	40533.40
580.01	40509.99
580.17	40432.75
580.33	40795.54
580.49	40790.86
580.65	40435.10
580.82	40746.39
580.98	40701.92
581.14	40460.84
581.30	40928.95
581.46	40657.45
581.62	40542.76
581.78	39854.64
581.94	40540.42
582.10	40390.62
582.26	40465.52
582.42	40547.44
582.58	40713.62
582.74	40664.47
582.90	40699.58
583.06	40907.88
583.22	40641.06
583.38	40311.05
583.54	40952.35
583.70	40449.14
583.86	40722.98
584.02	40149.55
584.18	40708.94
584.34	40910.22
584.50	41317.48
584.66	40484.25
584.82	40690.21
584.98	40959.38
585.14	40697.24
585.30	40222.11
585.46	40715.96
585.62	40397.65
585.78	40968.74
585.94	40786.18
586.10	41041.29
586.26	40704.26
586.42	40886.82
586.58	40533.40
586.74	40711.28
586.90	40622.34
587.06	40067.63
587.22	40931.29
587.38	40390.62
587.54	41064.70
587.70	40917.25
587.86	41130.23
588.02	41099.81
588.18	40971.08
588.34	40701.92
588.49	40545.10
588.65	40657.45
588.81	40535.74
588.97	40896.18
589.13	40570.85
589.29	40758.09
589.45	40811.92
589.61	40835.33
589.77	41137.26
589.93	40580.21
590.08	41170.02
590.24	41013.21
590.40	41170.02
590.56	40800.22
590.72	40304.02
590.88	40746.39
591.04	40313.39
591.20	41041.29
