SpectraSuite Data File
++++++++++++++++++++++++++++++++++++
Date: Fri Oct 04 11:48:28 GMT-05:00 2013
User: price-jones
Dark Spectrum Present: No
Reference Spectrum Present: No
Number of Sampled Component Spectra: 1
Spectrometers: USB2+H05261
Integration Time (usec): 100000 (USB2+H05261)
Spectra Averaged: 1 (USB2+H05261)
Boxcar Smoothing: 0 (USB2+H05261)
Correct for Electrical Dark: No (USB2+H05261)
Strobe/Lamp Enabled: No (USB2+H05261)
Correct for Detector Non-linearity: No (USB2+H05261)
Correct for Stray Light: No (USB2+H05261)
Number of Pixels in Processed Spectrum: 2048
>>>>>Begin Processed Spectral Data<<<<<
365.73	11.70
365.92	11.70
366.12	11.70
366.32	0.00
366.52	0.00
366.72	0.00
366.91	0.00
367.11	0.00
367.31	0.00
367.51	0.00
367.70	0.00
367.90	11.70
368.10	0.00
368.30	0.00
368.49	0.00
368.69	0.00
368.89	0.00
369.09	0.00
369.28	0.00
369.48	0.00
369.68	0.00
369.87	23.41
370.07	28.09
370.27	21.06
370.47	86.60
370.66	407.25
370.86	407.25
371.06	470.45
371.25	531.30
371.45	409.59
371.65	533.64
371.84	543.00
372.04	550.03
372.24	505.56
372.44	498.53
372.63	624.92
372.83	540.66
373.03	507.90
373.22	552.37
373.42	517.26
373.62	617.90
373.81	641.31
374.01	589.82
374.21	627.26
374.40	594.50
374.60	657.69
374.79	573.43
374.99	564.07
375.19	643.65
375.38	718.54
375.58	669.39
375.78	723.23
375.97	629.60
376.17	716.20
376.37	695.14
376.56	713.86
376.76	683.44
376.95	692.80
377.15	746.63
377.35	678.76
377.54	706.84
377.74	709.18
377.93	692.80
378.13	744.29
378.33	678.76
378.52	690.46
378.72	802.80
378.91	767.70
379.11	720.88
379.31	748.97
379.50	716.20
379.70	781.74
379.89	748.97
380.09	753.65
380.28	802.80
380.48	889.40
380.68	807.48
380.87	777.06
381.07	819.19
381.26	870.68
381.46	653.01
381.65	856.64
381.85	833.23
382.04	877.70
382.24	887.06
382.43	938.55
382.63	851.96
382.83	854.30
383.02	945.58
383.22	875.36
383.41	905.79
383.61	952.60
383.80	856.64
384.00	940.90
384.19	961.96
384.39	901.11
384.58	919.83
384.78	968.98
384.97	952.60
385.17	940.90
385.36	929.19
385.56	1025.15
385.75	929.19
385.95	957.28
386.14	957.28
386.34	1071.97
386.53	1069.62
386.72	1151.54
386.92	1062.60
387.11	1011.11
387.31	1086.01
387.50	1048.56
387.70	1067.28
387.89	1034.52
388.09	1060.26
388.28	1121.12
388.48	1181.97
388.67	1196.01
388.86	1144.52
389.06	1196.01
389.25	1130.48
389.45	1177.29
389.64	1219.42
389.84	1167.93
390.03	1081.33
390.22	1235.80
390.42	1327.08
390.61	1146.86
390.81	1280.27
391.00	1153.88
391.19	1338.79
391.39	1291.98
391.58	1205.38
391.78	1280.27
391.97	1299.00
392.16	1327.08
392.36	1263.89
392.55	1380.92
392.75	1315.38
392.94	1390.28
393.13	1387.94
393.33	1320.06
393.52	1357.51
393.71	1474.54
393.91	1401.98
394.10	1446.45
394.29	1451.13
394.49	1355.17
394.68	1483.90
394.88	1610.29
395.07	1509.65
395.26	1549.43
395.46	1437.09
395.65	1511.99
395.84	1458.15
396.04	1671.14
396.23	1565.82
396.42	1678.16
396.62	1631.35
396.81	1558.80
397.00	1640.72
397.19	1547.09
397.39	1624.33
397.58	1664.12
397.77	1650.08
397.97	1692.21
398.16	1614.97
398.35	1673.48
398.55	1654.76
398.74	1753.06
398.93	1708.59
399.12	1762.42
399.32	1647.74
399.51	1842.00
399.70	1781.15
399.90	1867.75
400.09	1984.77
400.28	1879.45
400.47	1842.00
400.67	1912.22
400.86	1898.17
401.05	1961.37
401.24	1909.88
401.44	2012.86
401.63	2040.95
401.82	1996.48
402.01	1952.01
402.21	2010.52
402.40	2094.78
402.59	2071.37
402.78	2071.37
402.97	2029.24
403.17	2148.61
403.36	2136.91
403.55	2202.44
403.74	2181.38
403.93	2277.34
404.13	2211.81
404.32	2202.44
404.51	2120.53
404.70	2279.68
404.89	2232.87
405.09	2363.94
405.28	2324.15
405.47	2307.77
405.66	2296.07
405.85	2272.66
406.05	2310.11
406.24	2377.98
406.43	2427.14
406.62	2394.37
406.81	2541.82
407.00	2396.71
407.20	2443.52
407.39	2462.24
407.58	2408.41
407.77	2366.28
407.96	2635.44
408.15	2553.52
408.34	2495.01
408.54	2605.02
408.73	2581.61
408.92	2633.10
409.11	2729.06
409.30	2705.66
409.49	2689.28
409.68	2796.94
409.87	2768.85
410.07	2738.43
410.26	2736.09
410.45	2869.50
410.64	2937.37
410.83	3068.44
411.02	2981.84
411.21	3066.10
411.40	3049.72
411.59	3019.29
411.78	3136.32
411.98	3007.59
412.17	3110.57
412.36	3204.19
412.55	3073.12
412.74	3272.07
412.93	3321.22
413.12	3260.37
413.31	3405.48
413.50	3351.65
413.69	3311.86
413.88	3417.18
414.07	3433.57
414.26	3616.13
414.45	3566.98
414.64	3449.95
414.83	3545.91
415.02	3651.24
415.22	3569.32
415.41	3618.47
415.60	3660.60
415.79	3751.88
415.98	3758.90
416.17	3775.28
416.36	3852.52
416.55	3782.31
416.74	3845.50
416.93	3843.16
417.12	3981.25
417.31	4039.76
417.50	4032.74
417.69	4086.58
417.88	4051.47
418.07	4037.42
418.26	4138.07
418.45	4133.39
418.64	4320.63
418.83	4189.56
419.02	4168.49
419.21	4243.39
419.39	4280.84
419.58	4187.22
419.77	4163.81
419.96	4273.82
420.15	4432.97
420.34	4397.87
420.53	4360.42
420.72	4444.68
420.91	4442.34
421.10	4507.87
421.29	4580.43
421.48	4329.99
421.67	4545.32
421.86	4610.86
422.05	4690.43
422.24	4678.73
422.43	4603.83
422.61	4760.65
422.80	4690.43
422.99	4765.33
423.18	4692.77
423.37	4601.49
423.56	4652.98
423.75	4573.41
423.94	4589.79
424.13	4456.38
424.32	4458.72
424.50	4697.46
424.69	4734.90
424.88	4901.08
425.07	4617.88
425.26	4844.91
425.45	4753.63
425.64	4847.25
425.83	4723.20
426.01	4842.57
426.20	4823.84
426.39	4858.95
426.58	4664.69
426.77	4905.76
426.96	4772.35
427.15	4985.34
427.33	4910.44
427.52	4887.04
427.71	5088.32
427.90	4952.57
428.09	5153.86
428.28	5107.05
428.46	5181.95
428.65	4990.02
428.84	5170.24
429.03	5348.12
429.22	5036.83
429.40	5170.24
429.59	5165.56
429.78	5104.71
429.97	5205.35
430.16	5128.11
430.34	5212.37
430.53	5439.40
430.72	5439.40
430.91	5310.68
431.10	5490.90
431.28	5504.94
431.47	5493.24
431.66	5453.45
431.85	5563.45
432.03	5682.82
432.22	5598.56
432.41	5561.11
432.60	5645.37
432.79	5699.20
432.97	5678.14
433.16	5811.55
433.35	5774.10
433.54	5675.80
433.72	5898.15
433.91	5846.66
434.10	5994.11
434.28	6050.28
434.47	5916.87
434.66	5968.37
434.85	6146.25
435.03	6069.01
435.22	6099.44
435.41	6331.15
435.59	6171.99
435.78	6200.08
435.97	6237.53
436.16	6270.30
436.34	6406.05
436.53	6099.44
436.72	6527.75
436.90	6120.50
437.09	6307.74
437.28	6228.17
437.46	6420.09
437.65	6382.64
437.84	6483.28
438.02	6513.71
438.21	6754.79
438.40	6164.97
438.58	6743.08
438.77	6651.80
438.96	6686.91
439.14	6733.72
439.33	6981.82
439.52	6801.60
439.70	6883.52
439.89	7180.76
440.08	7068.42
440.26	7201.83
440.45	7094.16
440.63	7316.51
440.82	7318.86
441.01	7150.34
441.19	7440.56
441.38	7463.97
441.57	7492.05
441.75	7592.70
441.94	7665.25
442.12	7543.55
442.31	7728.45
442.50	7698.02
442.68	7786.96
442.87	7815.05
443.05	7878.24
443.24	7943.78
443.43	7859.52
443.61	7843.14
443.80	8182.51
443.98	7742.49
444.17	7585.68
444.35	7983.57
444.54	7981.23
444.73	7943.78
444.91	8138.04
445.10	8245.71
445.28	7992.93
445.47	7735.47
445.65	7978.89
445.84	8245.71
446.02	8266.77
446.21	8241.03
446.39	8135.70
446.58	8313.58
446.77	8259.75
446.95	8067.83
447.14	8224.64
447.32	8189.53
447.51	8105.28
447.69	8187.19
447.88	8138.04
448.06	8294.86
448.25	8194.22
448.43	8236.35
448.62	8224.64
448.80	8374.44
448.99	8454.02
449.17	8409.54
449.36	8285.50
449.54	8617.85
449.73	8823.82
449.91	8659.98
450.10	8809.78
450.28	8882.33
450.46	8858.93
450.65	8734.88
450.83	8744.24
451.02	8648.28
451.20	8870.63
451.39	8784.03
451.57	8767.65
451.76	8774.67
451.94	8950.21
452.13	9167.88
452.31	9057.87
452.49	8854.25
452.68	9202.99
452.86	9111.71
453.05	9179.58
453.23	8994.68
453.42	9067.24
453.60	8999.36
453.78	9179.58
453.97	9167.88
454.15	9355.12
454.34	9142.13
454.52	9296.61
454.70	9474.49
454.89	9415.98
455.07	9418.32
455.26	9345.76
455.44	9603.22
455.62	9675.77
455.81	9469.81
455.99	9717.90
456.17	9797.48
456.36	9626.62
456.54	9895.78
456.73	9841.95
456.91	10169.63
457.09	9937.91
457.28	10331.12
457.46	9755.35
457.64	10183.67
457.83	10340.49
458.01	9970.68
458.19	10333.47
458.38	10286.65
458.56	10375.59
458.74	10314.74
458.93	10230.48
459.11	10305.38
459.29	10120.48
459.48	10534.75
459.66	10520.71
459.84	10619.01
460.03	10782.85
460.21	10384.96
460.39	10696.25
460.57	10656.46
460.76	10729.02
460.94	10911.58
461.12	10766.46
461.31	11082.44
461.49	11026.26
461.67	10534.75
461.85	11096.48
462.04	11342.24
462.22	11508.41
462.40	11183.08
462.59	11044.99
462.77	11208.83
462.95	11103.50
463.13	11136.27
463.32	11262.66
463.50	11480.33
463.68	11360.96
463.86	11314.15
464.05	11279.04
464.23	11475.65
464.41	11534.16
464.59	11389.05
464.78	11761.19
464.96	11667.57
465.14	11449.90
465.32	11609.06
465.50	11971.84
465.69	12020.99
465.87	11894.60
466.05	11826.73
466.23	11686.29
466.41	11967.16
466.60	12180.15
466.78	11859.49
466.96	11992.90
467.14	11843.11
467.32	12032.69
467.51	12217.60
467.69	11894.60
467.87	12121.63
468.05	12362.71
468.23	11934.39
468.41	11836.09
468.60	12259.73
468.78	12304.20
468.96	12325.26
469.14	12484.42
469.32	12608.47
469.50	12402.50
469.69	12636.55
469.87	12533.57
470.05	12727.83
470.23	12996.99
470.41	12814.43
470.59	13046.15
470.77	12882.31
470.95	12994.65
471.14	13235.73
471.32	13032.10
471.50	13469.78
471.68	13078.91
471.86	13308.29
472.04	13287.22
472.22	13547.02
472.40	13474.46
472.58	13738.94
472.77	13554.04
472.95	13657.03
473.13	14139.18
473.31	13893.42
473.49	13748.31
473.67	14045.55
473.85	13783.41
474.03	14251.52
474.21	14228.12
474.39	14445.79
474.57	14366.21
474.75	14794.53
474.93	14808.57
475.12	14766.44
475.30	14733.67
475.48	14541.75
475.66	14972.41
475.84	15356.25
476.02	15164.33
476.20	15108.16
476.38	15087.09
476.56	15454.56
476.74	15665.21
476.92	15559.88
477.10	15459.24
477.28	16025.65
477.46	15782.23
477.64	16032.67
477.82	16116.93
478.00	16662.27
478.18	16802.71
478.36	16678.66
478.54	16744.19
478.72	17032.08
478.90	17179.53
479.08	17226.34
479.26	17184.21
479.44	17357.41
479.62	17434.65
479.80	17493.16
479.98	17776.37
480.16	17972.97
480.34	17947.23
480.52	18558.11
480.70	18228.09
480.88	17722.54
481.06	18485.55
481.24	18459.81
481.41	18551.09
481.59	19054.30
481.77	19363.25
481.95	19136.22
482.13	19510.71
482.31	19538.79
482.49	19873.49
482.67	20135.63
482.85	19836.04
483.03	20243.29
483.21	20402.45
483.39	20357.98
483.57	20521.82
483.74	20795.66
483.92	21357.39
484.10	20908.01
484.28	21518.89
484.46	21708.47
484.64	21799.75
484.82	21853.58
485.00	21678.04
485.18	22192.96
485.35	22827.24
485.53	22609.58
485.71	22462.12
485.89	22904.48
486.07	23009.81
486.25	22984.06
486.43	23119.81
486.61	23124.49
486.78	23543.45
486.96	23997.51
487.14	24266.67
487.32	24264.33
487.50	24500.73
487.68	24624.78
487.85	24877.55
488.03	25216.93
488.21	25474.39
488.39	25493.12
488.57	25678.02
488.75	25509.50
488.92	26031.44
489.10	26424.65
489.28	26277.19
489.46	26647.00
489.64	26649.34
489.81	27374.91
489.99	27517.68
490.17	27412.35
490.35	27763.43
490.53	27754.07
490.70	28046.64
490.88	27899.19
491.06	28290.06
491.24	28077.07
491.41	28451.55
491.59	28910.30
491.77	28994.56
491.95	29322.23
492.13	29640.54
492.30	29633.52
492.48	29535.22
492.66	29687.36
492.84	30096.95
493.01	30143.76
493.19	30148.44
493.37	30541.65
493.54	30338.02
493.72	31178.28
493.90	30895.07
494.08	31204.02
494.25	31519.99
494.43	31894.48
494.61	32128.53
494.79	32084.06
494.96	32350.88
495.14	32507.70
495.32	32711.33
495.49	32739.41
495.67	32961.76
495.85	33362.00
496.02	33680.31
496.20	33149.01
496.38	33551.58
496.55	33591.37
496.73	34462.05
496.91	33916.70
497.09	34426.94
497.26	34871.64
497.44	34761.64
497.62	34749.93
497.79	34920.79
497.97	34913.77
498.14	35484.86
498.32	35679.13
498.50	35880.41
498.67	36130.85
498.85	35997.44
499.03	36655.13
499.20	36112.13
499.38	36423.42
499.56	36868.12
499.73	36748.75
499.91	36781.52
500.08	37172.39
500.26	37081.11
500.44	37455.59
500.61	37251.97
500.79	37621.77
500.97	37912.00
501.14	37839.44
501.32	38106.26
501.49	38017.32
501.67	38410.53
501.84	38171.80
502.02	38534.58
502.20	38834.17
502.37	38899.70
502.55	38864.60
502.72	38642.24
502.90	38965.24
503.07	39325.68
503.25	39889.75
503.43	39201.63
503.60	39861.66
503.78	39821.87
503.95	39674.42
504.13	39784.43
504.30	39739.96
504.48	40627.02
504.65	40512.33
504.83	40528.72
505.01	41177.04
505.18	40818.94
505.36	41280.03
505.53	40612.98
505.71	41060.02
505.88	41027.25
506.06	41188.75
506.23	41476.63
506.41	41191.09
506.58	41621.75
506.76	41769.20
506.93	41848.78
507.11	42064.11
507.28	42490.09
507.46	42429.23
507.63	42611.79
507.81	42726.48
507.98	42583.71
508.16	42555.62
508.33	42995.64
508.50	43065.86
508.68	43131.39
508.85	43215.65
509.03	43452.05
509.20	43882.70
509.38	43955.26
509.55	44147.18
509.73	43910.79
509.90	44032.50
510.08	44268.89
510.25	44067.61
510.42	44570.82
510.60	44514.65
510.77	44942.97
510.95	44839.98
511.12	44194.00
511.30	44425.71
511.47	44996.80
511.64	45256.60
511.82	45741.09
511.99	45729.39
512.17	45368.94
512.34	45570.23
512.51	45837.05
512.69	45752.79
512.86	45525.76
513.04	46419.84
513.21	46548.57
513.38	46639.86
513.56	46791.99
513.73	46361.33
513.90	46590.70
514.08	46632.83
514.25	46822.42
514.43	46754.54
514.60	47360.74
514.77	46803.69
514.95	47126.69
515.12	47477.77
515.29	46911.36
515.47	47540.96
515.64	47885.02
515.81	47866.30
515.99	47957.58
516.16	48306.32
516.33	48168.22
516.51	48189.29
516.68	47915.45
516.85	48191.63
517.03	48315.68
517.20	48919.54
517.37	48535.69
517.54	48690.16
517.72	48769.74
517.89	48573.14
518.06	48512.28
518.24	48711.23
518.41	49191.04
518.58	49059.97
518.75	48933.58
518.93	49326.79
519.10	49411.05
519.27	49464.88
519.45	49062.31
519.62	49588.93
519.79	49619.36
519.96	49734.04
520.14	50160.02
520.31	50122.57
520.48	50089.80
520.65	49895.54
520.83	50408.12
521.00	50344.92
521.17	50335.56
521.34	50241.94
521.52	50595.36
521.69	50401.10
521.86	50969.85
522.03	50810.69
522.20	50806.01
522.38	51072.83
522.55	51178.15
522.72	51051.76
522.89	50876.22
523.07	51276.46
523.24	51274.12
523.41	51341.99
523.58	51072.83
523.75	51339.65
523.92	51372.42
524.10	51196.88
524.27	51732.86
524.44	51885.00
524.61	52023.09
524.78	51971.60
524.96	52107.35
525.13	52135.43
525.30	51639.24
525.47	52041.81
525.64	52226.71
525.81	52121.39
525.98	52278.21
526.16	52598.86
526.33	52474.81
526.50	52505.24
526.67	52530.98
526.84	52741.63
527.01	52512.26
527.18	52552.05
527.36	52549.71
527.53	52673.76
527.70	52921.85
527.87	53577.20
528.04	52947.60
528.21	52802.49
528.38	52865.68
528.55	52851.64
528.72	53027.18
528.89	53595.93
529.07	53525.71
529.24	52844.62
529.41	53443.79
529.58	53518.69
529.75	53474.22
529.92	53504.65
530.09	53638.06
530.26	53364.21
530.43	53614.65
530.60	53670.82
530.77	53511.67
530.94	53719.98
531.11	53572.52
531.28	53668.48
531.46	53958.71
531.63	54061.69
531.80	53998.50
531.97	54061.69
532.14	54113.19
532.31	54103.82
532.48	54038.29
532.65	54255.96
532.82	54110.85
532.99	54237.23
533.16	53989.14
533.33	54700.66
533.50	54773.22
533.67	54548.53
533.84	54805.98
534.01	54461.93
534.18	54419.80
534.35	54850.45
534.52	54408.09
534.69	55068.12
534.86	54658.53
535.03	54803.64
535.20	55016.63
535.37	55138.34
535.54	55194.51
535.71	55021.31
535.88	54962.80
536.05	54955.78
536.22	55334.95
536.38	55508.14
536.55	55213.24
536.72	55180.47
536.89	55384.10
537.06	55627.51
537.23	55449.63
537.40	55215.58
537.57	55220.26
537.74	55444.95
537.91	55779.65
538.08	55618.15
538.25	55550.27
538.42	55753.90
538.59	55817.10
538.75	55536.23
538.92	55695.39
539.09	56016.04
539.26	55880.29
539.43	55803.05
539.60	55910.72
539.77	56144.77
539.94	56252.44
540.11	55810.07
540.28	56030.08
540.44	56081.58
540.61	55962.21
540.78	55903.70
540.95	56097.96
541.12	56554.36
541.29	56264.14
541.46	56140.09
541.62	56016.04
541.79	56214.99
541.96	56041.79
542.13	56212.65
542.30	56577.77
542.47	56378.82
542.63	56507.55
542.80	56860.97
542.97	56736.93
543.14	56853.95
543.31	56985.02
543.48	56767.35
543.64	57162.90
543.81	57111.41
543.98	56933.53
544.15	57202.69
544.32	57352.49
544.48	57216.74
544.65	57338.44
544.82	56727.56
544.99	56877.36
545.16	57137.16
545.32	57092.69
545.49	57581.86
545.66	57275.25
545.83	57497.60
546.00	57478.88
546.16	57340.78
546.33	57359.51
546.50	56896.08
546.67	57623.99
546.83	57352.49
547.00	57434.41
547.17	57265.89
547.34	57331.42
547.50	57525.69
547.67	57736.34
547.84	57539.73
548.00	57808.89
548.17	57689.52
548.34	57846.34
548.51	57876.77
548.67	58052.31
548.84	57979.75
549.01	57776.12
549.18	57860.38
549.34	57977.41
549.51	57736.34
549.68	57888.47
549.84	57684.84
550.01	58094.44
550.18	57717.61
550.34	58145.93
550.51	58230.19
550.68	58138.91
550.84	57925.92
551.01	57963.37
551.18	58087.42
551.34	58049.97
551.51	58351.90
551.68	58335.51
551.84	58628.08
552.01	58412.75
552.18	58485.31
552.34	58394.03
552.51	58564.88
552.68	58321.47
552.84	58513.39
553.01	58578.93
553.18	58391.68
553.34	58468.92
553.51	58625.74
553.67	58705.32
553.84	58752.13
554.01	58810.64
554.17	58681.91
554.34	58534.46
554.51	58646.80
554.67	59009.59
554.84	58681.91
555.00	58803.62
555.17	58857.45
555.33	58702.98
555.50	58628.08
555.67	58695.95
555.83	58628.08
556.00	59007.25
556.16	59288.11
556.33	59061.08
556.50	59124.27
556.66	59030.65
556.83	58848.09
556.99	59236.62
557.16	59107.89
557.32	59044.69
557.49	59035.33
557.65	58897.24
557.82	58960.44
557.98	59068.10
558.15	59117.25
558.32	59281.09
558.48	58845.75
558.65	59231.94
558.81	59224.92
558.98	59241.30
559.14	59220.23
559.31	59171.08
559.47	59236.62
559.64	59447.27
559.80	59327.90
559.97	59461.31
560.13	59353.65
560.30	59351.30
560.46	59501.10
560.63	59503.44
560.79	59744.51
560.96	59566.63
561.12	59330.24
561.29	59416.84
561.45	59440.24
561.61	59737.49
561.78	59613.44
561.94	59683.66
562.11	59634.51
562.27	59707.07
562.44	59473.01
562.60	59402.80
562.77	59618.13
562.93	59543.23
563.10	59711.75
563.26	59536.21
563.42	60018.36
563.59	59791.33
563.75	59529.19
563.92	59824.09
564.08	59536.21
564.24	59707.07
564.41	59604.08
564.57	59629.83
564.74	59833.46
564.90	59948.14
565.07	60032.40
565.23	59964.52
565.39	59992.61
565.56	59646.21
565.72	59695.36
565.88	59709.41
566.05	59749.20
566.21	59730.47
566.38	59678.98
566.54	59969.21
566.70	60264.11
566.87	60214.96
567.03	60016.02
567.19	60254.75
567.36	59943.46
567.52	60020.70
567.68	60051.12
567.85	59709.41
568.01	60055.81
568.17	59868.56
568.34	59934.10
568.50	59985.59
568.66	60090.91
568.83	60053.47
568.99	59880.27
569.15	59978.57
569.32	59924.74
569.48	59863.88
569.64	60074.53
569.81	59941.12
569.97	60233.69
570.13	60170.49
570.30	60144.75
570.46	60406.89
570.62	60196.24
570.78	60165.81
570.95	60093.25
571.11	60264.11
571.27	59915.37
571.43	60310.92
571.60	60339.01
571.76	60126.02
571.92	60526.25
572.09	60364.76
572.25	60184.54
572.41	60151.77
572.57	59964.52
572.74	60434.97
572.90	60221.98
573.06	60219.64
573.22	60198.58
573.38	60477.10
573.55	60240.71
573.71	60451.36
573.87	60608.17
574.03	60516.89
574.20	60364.76
574.36	60072.19
574.52	60233.69
574.68	60420.93
574.84	60399.86
575.01	60420.93
575.17	60362.42
575.33	60470.08
575.49	60498.17
575.65	60486.46
575.82	60580.09
575.98	60491.15
576.14	60493.49
576.30	60430.29
576.46	60589.45
576.62	60259.43
576.79	60355.39
576.95	60247.73
577.11	60346.03
577.27	60694.77
577.43	60650.30
577.59	60622.22
577.75	60451.36
577.92	60245.39
578.08	60458.38
578.24	60404.55
578.40	60451.36
578.56	60371.78
578.72	60289.86
578.88	60654.98
579.04	60516.89
579.21	60584.77
579.37	60446.68
579.53	60542.64
579.69	60411.57
579.85	60383.48
580.01	60584.77
580.17	60537.96
580.33	60439.65
580.49	60701.79
580.65	60811.80
580.82	60790.73
580.98	60687.75
581.14	60580.09
581.30	60556.68
581.46	60580.09
581.62	60444.33
581.78	60369.44
581.94	60774.35
582.10	60568.38
582.26	60645.62
582.42	60580.09
582.58	60683.07
582.74	60804.78
582.90	60924.14
583.06	60718.18
583.22	60552.00
583.38	60631.58
583.54	60828.18
583.70	60544.98
583.86	60772.01
584.02	60434.97
584.18	60654.98
584.34	60757.97
584.50	61118.41
584.66	60624.56
584.82	60594.13
584.98	60715.84
585.14	60673.71
585.30	60552.00
585.46	60743.92
585.62	60514.55
585.78	60673.71
585.94	60451.36
586.10	60591.79
586.26	60746.26
586.42	60989.68
586.58	60924.14
586.74	60699.45
586.90	60657.32
587.06	60622.22
587.22	60526.25
587.38	60549.66
587.54	60685.41
587.70	60781.37
587.86	60860.95
588.02	60949.89
588.18	60917.12
588.34	60720.52
588.49	60699.45
588.65	60783.71
588.81	60774.35
588.97	60825.84
589.13	60797.76
