SpectraSuite Data File
++++++++++++++++++++++++++++++++++++
Date: Fri Oct 04 11:48:40 GMT-05:00 2013
User: price-jones
Dark Spectrum Present: No
Reference Spectrum Present: No
Number of Sampled Component Spectra: 1
Spectrometers: USB2+H05261
Integration Time (usec): 100000 (USB2+H05261)
Spectra Averaged: 1 (USB2+H05261)
Boxcar Smoothing: 0 (USB2+H05261)
Correct for Electrical Dark: No (USB2+H05261)
Strobe/Lamp Enabled: No (USB2+H05261)
Correct for Detector Non-linearity: No (USB2+H05261)
Correct for Stray Light: No (USB2+H05261)
Number of Pixels in Processed Spectrum: 2048
>>>>>Begin Processed Spectral Data<<<<<
365.73	0.00
365.92	0.00
366.12	0.00
366.32	0.00
366.52	0.00
366.72	0.00
366.91	0.00
367.11	0.00
367.31	0.00
367.51	0.00
367.70	0.00
367.90	0.00
368.10	0.00
368.30	0.00
368.49	0.00
368.69	4.68
368.89	0.00
369.09	0.00
369.28	0.00
369.48	0.00
369.68	11.70
369.87	23.41
370.07	0.00
370.27	0.00
370.47	53.83
370.66	166.18
370.86	299.59
371.06	318.31
371.25	381.51
371.45	259.80
371.65	355.76
371.84	217.67
372.04	259.80
372.24	318.31
372.44	327.68
372.63	369.80
372.83	409.59
373.03	381.51
373.22	351.08
373.42	404.91
373.62	374.49
373.81	381.51
374.01	428.32
374.21	458.74
374.40	421.30
374.60	456.40
374.79	372.15
374.99	358.10
375.19	374.49
375.38	442.36
375.58	362.78
375.78	390.87
375.97	519.60
376.17	547.69
376.37	472.79
376.56	444.70
376.76	456.40
376.95	397.89
377.15	447.04
377.35	418.96
377.54	521.94
377.74	449.38
377.93	388.53
378.13	444.70
378.33	514.92
378.52	505.56
378.72	535.98
378.91	531.30
379.11	402.57
379.31	449.38
379.50	489.17
379.70	479.81
379.89	386.19
380.09	454.06
380.28	486.83
380.48	444.70
380.68	505.56
380.87	496.19
381.07	498.53
381.26	554.71
381.46	526.62
381.65	500.87
381.85	510.24
382.04	505.56
382.24	533.64
382.43	477.47
382.63	568.75
382.83	528.96
383.02	585.13
383.22	554.71
383.41	517.26
383.61	543.00
383.80	587.47
384.00	571.09
384.19	564.07
384.39	580.45
384.58	601.52
384.78	627.26
384.97	517.26
385.17	599.18
385.36	503.22
385.56	596.84
385.75	596.84
385.95	615.56
386.14	641.31
386.34	613.22
386.53	592.16
386.72	627.26
386.92	667.05
387.11	683.44
387.31	629.60
387.50	622.58
387.70	592.16
387.89	627.26
388.09	622.58
388.28	617.90
388.48	657.69
388.67	678.76
388.86	629.60
389.06	627.26
389.25	655.35
389.45	765.36
389.64	688.12
389.84	718.54
390.03	692.80
390.22	706.84
390.42	671.73
390.61	676.41
390.81	641.31
391.00	624.92
391.19	748.97
391.39	753.65
391.58	704.50
391.78	772.38
391.97	737.27
392.16	770.04
392.36	854.30
392.55	784.08
392.75	877.70
392.94	793.44
393.13	779.40
393.33	763.01
393.52	823.87
393.71	812.17
393.91	760.67
394.10	830.89
394.29	854.30
394.49	858.98
394.68	926.85
394.88	887.06
395.07	936.21
395.26	868.34
395.46	856.64
395.65	957.28
395.84	938.55
396.04	936.21
396.23	994.73
396.42	915.15
396.62	903.45
396.81	1062.60
397.00	1004.09
397.19	945.58
397.39	1001.75
397.58	959.62
397.77	905.79
397.97	1015.79
398.16	994.73
398.35	978.34
398.55	1053.24
398.74	1004.09
398.93	1114.10
399.12	1022.81
399.32	1020.47
399.51	1048.56
399.70	1107.07
399.90	1144.52
400.09	1135.16
400.28	1053.24
400.47	1109.41
400.67	1207.72
400.86	1196.01
401.05	1198.35
401.24	1116.44
401.44	1151.54
401.63	1233.46
401.82	1165.59
402.01	1184.31
402.21	1256.87
402.40	1261.55
402.59	1254.53
402.78	1313.04
402.97	1301.34
403.17	1294.32
403.36	1423.05
403.55	1409.00
403.74	1275.59
403.93	1338.79
404.13	1399.64
404.32	1453.47
404.51	1406.66
404.70	1409.00
404.89	1350.49
405.09	1383.26
405.28	1451.13
405.47	1453.47
405.66	1467.52
405.85	1558.80
406.05	1502.62
406.24	1488.58
406.43	1511.99
406.62	1547.09
406.81	1643.06
407.00	1528.37
407.20	1507.30
407.39	1509.65
407.58	1617.31
407.77	1626.67
407.96	1732.00
408.15	1631.35
408.34	1570.50
408.54	1575.18
408.73	1629.01
408.92	1572.84
409.11	1797.53
409.30	1778.81
409.49	1739.02
409.68	1722.63
409.87	1724.97
410.07	1785.83
410.26	1846.68
410.45	1956.69
410.64	1865.41
410.83	1827.96
411.02	1778.81
411.21	1844.34
411.40	1959.03
411.59	1989.46
411.78	2026.90
411.98	2047.97
412.17	2036.27
412.36	2022.22
412.55	2097.12
412.74	2087.76
412.93	2157.97
413.12	2050.31
413.31	2188.40
413.50	2197.76
413.69	2251.60
413.88	2111.16
414.07	2106.48
414.26	2167.34
414.45	2289.04
414.64	2303.09
414.83	2347.56
415.02	2249.25
415.22	2260.96
415.41	2438.84
415.60	2415.43
415.79	2469.27
415.98	2422.45
416.17	2612.04
416.36	2394.37
416.55	2562.89
416.74	2483.31
416.93	2548.84
417.12	2574.59
417.31	2476.29
417.50	2593.31
417.69	2729.06
417.88	2691.62
418.07	2579.27
418.26	2693.96
418.45	2761.83
418.64	2808.64
418.83	2761.83
419.02	2794.60
419.21	2731.41
419.39	2897.58
419.58	2768.85
419.77	2953.76
419.96	2911.63
420.15	2916.31
420.34	2944.39
420.53	3014.61
420.72	3035.67
420.91	2920.99
421.10	2937.37
421.29	3124.62
421.48	2958.44
421.67	3023.97
421.86	2932.69
422.05	2951.42
422.24	3049.72
422.43	3000.57
422.61	3054.40
422.80	3084.83
422.99	3035.67
423.18	3215.90
423.37	3000.57
423.56	3096.53
423.75	3136.32
423.94	3045.04
424.13	3016.95
424.32	3028.65
424.50	3269.73
424.69	3199.51
424.88	3262.71
425.07	3091.85
425.26	3101.21
425.45	3126.96
425.64	3201.85
425.83	3164.40
426.01	3218.24
426.20	3178.45
426.39	3199.51
426.58	3180.79
426.77	3241.64
426.96	3162.06
427.15	3304.84
427.33	3283.77
427.52	3255.69
427.71	3243.98
427.90	3281.43
428.09	3335.26
428.28	3344.63
428.46	3321.22
428.65	3480.38
428.84	3485.06
429.03	3377.39
429.22	3435.91
429.40	3508.46
429.59	3588.04
429.78	3407.82
429.97	3302.50
430.16	3377.39
430.34	3569.32
430.53	3520.17
430.72	3562.30
430.91	3424.20
431.10	3595.06
431.28	3667.62
431.47	3681.66
431.66	3702.73
431.85	3606.77
432.03	3648.90
432.22	3838.48
432.41	3824.44
432.60	3815.07
432.79	3831.46
432.97	3721.45
433.16	3838.48
433.35	3786.99
433.54	3878.27
433.72	3894.65
433.91	3836.14
434.10	3948.48
434.28	3885.29
434.47	4014.02
434.66	3906.35
434.85	3971.89
435.03	4035.08
435.22	3997.64
435.41	4131.05
435.59	4131.05
435.78	4046.79
435.97	4121.68
436.16	4128.70
436.34	4018.70
436.53	4067.85
436.72	4257.43
436.90	4131.05
437.09	4292.54
437.28	4124.02
437.46	4170.83
437.65	4257.43
437.84	4093.60
438.02	4264.46
438.21	4255.09
438.40	4294.88
438.58	4472.76
438.77	4470.42
438.96	4320.63
439.14	4507.87
439.33	4599.15
439.52	4617.88
439.70	4697.46
439.89	4709.16
440.08	4786.40
440.26	4788.74
440.45	4781.71
440.63	4891.72
440.82	4671.71
441.01	4781.71
441.19	4985.34
441.38	5008.75
441.57	4954.91
441.75	5093.01
441.94	5102.37
442.12	5001.72
442.31	5203.01
442.50	5034.49
442.68	5219.39
442.87	5186.63
443.05	5151.52
443.24	5284.93
443.43	5231.10
443.61	5418.34
443.80	5380.89
443.98	5172.58
444.17	5205.35
444.35	5254.50
444.54	5467.49
444.73	5240.46
444.91	5116.41
445.10	5305.99
445.28	5263.86
445.47	5355.15
445.65	5317.70
445.84	5434.72
446.02	5303.65
446.21	5268.55
446.39	5308.34
446.58	5493.24
446.77	5390.25
446.95	5348.12
447.14	5336.42
447.32	5444.09
447.51	5579.84
447.69	5392.59
447.88	5390.25
448.06	5537.71
448.25	5242.80
448.43	5474.51
448.62	5359.83
448.80	5439.40
448.99	5673.46
449.17	5605.58
449.36	5624.31
449.54	5846.66
449.73	5795.17
449.91	5710.91
450.10	5802.19
450.28	5788.14
450.46	5713.25
450.65	5729.63
450.83	5729.63
451.02	5741.33
451.20	5764.74
451.39	6064.33
451.57	5874.74
451.76	5832.62
451.94	5898.15
452.13	6057.31
452.31	5937.94
452.49	5905.17
452.68	5909.85
452.86	5905.17
453.05	6057.31
453.23	6118.16
453.42	6101.78
453.60	5942.62
453.78	5987.09
453.97	6101.78
454.15	6136.88
454.34	6045.60
454.52	6087.73
454.70	6307.74
454.89	6235.19
455.07	6263.27
455.26	6043.26
455.44	6480.94
455.62	6518.39
455.81	6279.66
455.99	6384.98
456.17	6408.39
456.36	6438.81
456.54	6604.99
456.73	6509.03
456.91	6600.31
457.09	6551.16
457.28	6752.45
457.46	6595.63
457.64	6782.87
457.83	6663.51
458.01	6700.95
458.19	6979.48
458.38	6766.49
458.56	6820.32
458.74	6862.45
458.93	6747.76
459.11	6918.62
459.29	6951.39
459.48	6810.96
459.66	6958.41
459.84	6920.96
460.03	6979.48
460.21	7016.93
460.39	6923.30
460.57	6923.30
460.76	7227.57
460.94	7248.64
461.12	7187.79
461.31	7180.76
461.49	7075.44
461.67	6979.48
461.85	7279.07
462.04	7243.96
462.22	7637.17
462.40	7171.40
462.59	7466.31
462.77	7473.33
462.95	7194.81
463.13	7475.67
463.32	7335.24
463.50	7524.82
463.68	7353.96
463.86	7571.63
464.05	7414.82
464.23	7571.63
464.41	7592.70
464.59	7435.88
464.78	7653.55
464.96	7681.64
465.14	7440.56
465.32	7424.18
465.50	7707.38
465.69	7840.79
465.87	7632.49
466.05	7798.66
466.23	7639.51
466.41	7831.43
466.60	8018.68
466.78	7878.24
466.96	7726.11
467.14	7627.81
467.32	7803.35
467.51	7920.37
467.69	7679.30
467.87	7896.97
468.05	8067.83
468.23	8056.12
468.41	7875.90
468.60	8159.11
468.78	8184.85
468.96	7962.50
469.14	8215.28
469.32	8107.62
469.50	8065.49
469.69	8407.20
469.87	8301.88
470.05	8198.90
470.23	8353.37
470.41	8259.75
470.59	8442.31
470.77	8287.84
470.95	8564.02
471.14	8599.13
471.32	8191.88
471.50	8650.62
471.68	8451.67
471.86	8592.11
472.04	8620.19
472.22	8929.14
472.40	8760.63
472.58	8730.20
472.77	8676.37
472.95	8905.74
473.13	9102.34
473.31	8835.52
473.49	9013.40
473.67	8767.65
473.85	8992.34
474.03	8975.95
474.21	9160.86
474.39	9511.94
474.57	9364.48
474.75	9401.93
474.93	9453.42
475.12	9502.58
475.30	9469.81
475.48	9418.32
475.66	9591.52
475.84	9748.33
476.02	9937.91
476.20	9633.64
476.38	10097.07
476.56	9933.23
476.74	10050.26
476.92	9944.94
477.10	10190.69
477.28	10059.62
477.46	9970.68
477.64	10157.92
477.82	10478.58
478.00	10600.29
478.18	10661.14
478.36	10761.78
478.54	10839.02
478.72	10902.22
478.90	10942.00
479.08	10857.75
479.26	10911.58
479.44	11293.08
479.62	11382.03
479.80	11243.93
479.98	11473.31
480.16	11522.46
480.34	11597.35
480.52	11698.00
480.70	11777.58
480.88	11641.82
481.06	11866.52
481.24	11838.43
481.41	11988.22
481.59	12248.02
481.77	12381.43
481.95	12484.42
482.13	12428.24
482.31	12262.07
482.49	12627.19
482.67	12596.76
482.85	12702.09
483.03	13083.59
483.21	13001.68
483.39	13434.68
483.57	12985.29
483.74	13373.82
483.92	13792.78
484.10	13493.19
484.28	13795.12
484.46	14106.41
484.64	14061.94
484.82	13727.24
485.00	13799.80
485.18	14368.55
485.35	14340.46
485.53	14394.29
485.71	14469.19
485.89	15028.58
486.07	14761.76
486.25	14647.07
486.43	14951.34
486.61	14930.28
486.78	15117.52
486.96	15215.82
487.14	15410.09
487.32	15407.75
487.50	15634.78
487.68	15630.10
487.85	16020.97
488.03	16109.91
488.21	16444.60
488.39	16386.09
488.57	16437.58
488.75	16610.78
488.92	16919.73
489.10	17048.46
489.28	16896.33
489.46	17362.09
489.64	17018.04
489.81	17432.31
489.99	17121.02
490.17	17495.50
490.35	18015.10
490.53	17390.18
490.70	18132.13
490.88	17972.97
491.06	17949.57
491.24	18263.20
491.41	18204.69
491.59	18408.31
491.77	18918.55
491.95	18824.93
492.13	18689.18
492.30	18771.10
492.48	18925.57
492.66	19058.98
492.84	19080.05
493.01	19049.62
493.19	19264.95
493.37	19819.66
493.54	19637.09
493.72	20020.94
493.90	19906.26
494.08	19906.26
494.25	20383.73
494.43	20252.66
494.61	20561.61
494.79	20222.23
494.96	20264.36
495.14	21020.35
495.32	21151.42
495.49	20833.11
495.67	20952.48
495.85	21181.85
496.02	21289.51
496.20	21350.37
496.38	21364.41
496.55	21708.47
496.73	22136.79
496.91	21654.64
497.09	21898.05
497.26	22218.71
497.44	21722.51
497.62	22059.55
497.79	22691.49
497.97	22218.71
498.14	22815.54
498.32	22827.24
498.50	22532.34
498.67	23166.62
498.85	22778.09
499.03	23140.88
499.20	22955.97
499.38	23859.42
499.56	23482.59
499.73	23534.09
499.91	23604.30
500.08	24201.14
500.26	23662.82
500.44	23927.30
500.61	23632.39
500.79	23992.83
500.97	24381.36
501.14	24261.99
501.32	24360.30
501.49	24428.17
501.67	24299.44
501.84	24638.82
502.02	24226.89
502.20	25010.96
502.37	24865.85
502.55	25233.32
502.72	25020.33
502.90	25071.82
503.07	25125.65
503.25	24933.73
503.43	24954.79
503.60	25743.55
503.78	25614.82
503.95	25553.97
504.13	25839.51
504.30	25989.31
504.48	25764.62
504.65	25907.39
504.83	26113.36
505.01	26244.43
505.18	25862.92
505.36	26464.44
505.53	26038.46
505.71	26050.16
505.88	26700.83
506.06	26279.54
506.23	26981.70
506.41	26689.13
506.58	26939.57
506.76	26630.62
506.93	27021.48
507.11	27030.85
507.28	26881.05
507.46	27360.86
507.63	27541.08
507.81	27552.79
507.98	27101.06
508.16	27328.10
508.33	27433.42
508.50	27892.16
508.68	27824.29
508.85	27850.03
509.03	27707.26
509.20	27885.14
509.38	28463.25
509.55	28257.29
509.73	28393.04
509.90	28250.27
510.08	28383.68
510.25	28479.64
510.42	28720.71
510.60	29104.56
510.77	29329.25
510.95	28868.17
511.12	28917.32
511.30	29043.71
511.47	29235.63
511.64	29097.54
511.82	29610.12
511.99	29366.70
512.17	29542.24
512.34	29443.94
512.51	29832.47
512.69	29783.32
512.86	29998.65
513.04	29937.79
513.21	29956.52
513.38	30178.87
513.56	30284.19
513.73	29912.05
513.90	30199.93
514.08	29888.64
514.25	30588.46
514.43	30675.06
514.60	30579.10
514.77	30426.96
514.95	30756.98
515.12	30466.75
515.29	30775.70
515.47	30913.80
515.64	31363.18
515.81	31328.07
515.99	31454.46
516.16	31290.62
516.33	31367.86
516.51	31737.66
516.68	31552.76
516.85	31491.91
517.03	31681.49
517.20	31864.05
517.37	32102.79
517.54	31707.24
517.72	31922.57
517.89	31421.69
518.06	31646.38
518.24	31903.84
518.41	32257.26
518.58	32414.08
518.75	31611.28
518.93	32601.32
519.10	32243.22
519.27	32580.26
519.45	32388.33
519.62	32327.48
519.79	32734.73
519.96	32437.48
520.14	32929.00
520.31	32912.61
520.48	32671.54
520.65	33149.01
520.83	32863.46
521.00	32966.45
521.17	32816.65
521.34	33486.04
521.52	33116.24
521.69	33532.86
521.86	33254.33
522.03	33516.47
522.20	34045.43
522.38	33961.17
522.55	34078.20
522.72	33883.94
522.89	33750.52
523.07	34267.78
523.24	34015.01
523.41	34445.66
523.58	33722.44
523.75	34356.72
523.92	34052.45
524.10	34403.53
524.27	34492.47
524.44	34822.49
524.61	34279.49
524.78	34871.64
524.96	34644.61
525.13	34550.99
525.30	35086.97
525.47	34553.33
525.64	34562.69
525.81	35323.36
525.98	35189.95
526.16	35276.55
526.33	34981.65
526.50	35323.36
526.67	34883.34
526.84	35658.06
527.01	35393.58
527.18	34969.94
527.36	35620.61
527.53	35381.88
527.70	36278.30
527.87	35849.99
528.04	35842.96
528.21	35908.50
528.38	35840.62
528.55	35800.83
528.72	36292.35
528.89	36484.27
529.07	35784.45
529.24	35950.63
529.41	36086.38
529.58	35807.86
529.75	36081.70
529.92	36388.31
530.09	36187.02
530.26	36392.99
530.43	36081.70
530.60	36533.42
530.77	36910.25
530.94	36505.34
531.11	36580.23
531.28	36437.46
531.46	36568.53
531.63	36641.09
531.80	37247.29
531.97	37092.81
532.14	37167.71
532.31	36418.74
532.48	36797.90
532.65	37359.63
532.82	37050.68
532.99	37659.22
533.16	37008.55
533.33	37635.81
533.50	37893.27
533.67	37567.94
533.84	37050.68
534.01	37516.45
534.18	37773.91
534.35	38361.38
534.52	37612.41
534.69	38096.90
534.86	37813.70
535.03	37827.74
535.20	38078.18
535.37	37715.39
535.54	38464.36
535.71	38019.66
535.88	38190.52
536.05	38588.41
536.22	38342.66
536.38	38249.03
536.55	38132.01
536.72	38124.99
536.89	38153.07
537.06	38377.76
537.23	38478.41
537.40	38497.13
537.57	38204.56
537.74	38616.50
537.91	38778.00
538.08	38873.96
538.25	38960.56
538.42	38808.42
538.59	38960.56
538.75	38857.57
538.92	38745.23
539.09	38841.19
539.26	39426.32
539.43	38780.34
539.60	39482.50
539.77	39653.36
539.94	39276.53
540.11	39306.96
540.28	39599.52
540.44	39388.88
540.61	39592.50
540.78	39686.12
540.95	39859.32
541.12	39557.39
541.29	39407.60
541.46	39508.24
541.62	38967.58
541.79	40203.38
541.96	39583.14
542.13	39641.65
542.30	39859.32
542.47	40055.93
542.63	39758.68
542.80	40297.00
542.97	40437.44
543.14	40378.92
543.31	40350.84
543.48	40161.25
543.64	40664.47
543.81	40460.84
543.98	41038.95
544.15	41055.34
544.32	40404.67
544.48	41109.17
544.65	40554.46
544.82	40655.11
544.99	39915.50
545.16	40872.78
545.32	40409.35
545.49	41003.85
545.66	41303.43
545.83	41074.06
546.00	41078.74
546.16	41148.96
546.33	40942.99
546.50	40402.33
546.67	41017.89
546.83	40849.37
547.00	40992.14
547.17	41181.73
547.34	40744.05
547.50	41177.04
547.67	41628.77
547.84	41153.64
548.00	41464.93
548.17	41933.04
548.34	41563.23
548.51	42026.66
548.67	42014.96
548.84	42087.51
549.01	41708.35
549.18	42052.41
549.34	41532.81
549.51	41762.18
549.68	41977.51
549.84	41895.59
550.01	41977.51
550.18	41701.32
550.34	42150.71
550.51	42394.12
550.68	41783.24
550.84	41500.04
551.01	42099.22
551.18	41771.54
551.34	42309.86
551.51	42197.52
551.68	42581.37
551.84	42972.24
552.01	42375.40
552.18	42085.17
552.34	42340.29
552.51	42604.77
552.68	41851.12
552.84	42504.13
553.01	42965.21
553.18	42431.57
553.34	43110.33
553.51	42820.10
553.67	42780.31
553.84	43199.27
554.01	42906.70
554.17	42761.59
554.34	43138.41
554.51	43044.79
554.67	42918.40
554.84	42731.16
555.00	42794.36
555.17	43241.40
555.33	43105.65
555.50	42990.96
555.67	42841.17
555.83	42916.06
556.00	43044.79
556.16	43182.88
556.33	43267.14
556.50	43005.00
556.66	43283.53
556.83	43014.37
556.99	43669.72
557.16	43566.73
557.32	43290.55
557.49	43856.96
557.65	42944.15
557.82	42990.96
557.98	43225.01
558.15	43477.79
558.32	43536.30
558.48	43688.44
558.65	43421.62
558.81	43508.22
558.98	43463.75
559.14	43585.46
559.31	43164.16
559.47	43140.75
559.64	43461.41
559.80	44168.25
559.97	43852.28
560.13	43908.45
560.30	44025.48
560.46	43995.05
560.63	43976.33
560.79	43681.42
560.96	44062.93
561.12	43866.32
561.29	44083.99
561.45	43770.36
561.61	44065.27
561.78	43873.34
561.94	44285.28
562.11	44011.43
562.27	43533.96
562.44	44273.57
562.60	44275.91
562.77	44203.36
562.93	44123.78
563.10	44151.87
563.26	43992.71
563.42	44371.88
563.59	44151.87
563.75	44201.02
563.92	44626.99
564.08	44006.75
564.24	44222.08
564.41	44069.95
564.57	44280.60
564.74	44327.41
564.90	44641.04
565.07	44376.56
565.23	44795.51
565.39	44451.45
565.56	44610.61
565.72	44460.82
565.88	44186.97
566.05	44144.84
566.21	44245.49
566.38	44495.92
566.54	44512.31
566.70	44776.79
566.87	44863.39
567.03	44598.91
567.19	44807.22
567.36	44828.28
567.52	44465.50
567.68	44706.57
567.85	44437.41
568.01	44273.57
568.17	44861.05
568.34	44741.68
568.50	44713.59
568.66	44638.70
568.83	44573.16
568.99	44411.67
569.15	44376.56
569.32	44809.56
569.48	44215.06
569.64	44662.10
569.81	44559.12
569.97	44622.31
570.13	44404.64
570.30	44687.85
570.46	44954.67
570.62	44629.34
570.78	44685.51
570.95	44519.33
571.11	44542.74
571.27	44327.41
571.43	44662.10
571.60	44772.11
571.76	44666.78
571.92	45247.24
572.09	45020.20
572.25	44882.11
572.41	45181.70
572.57	44842.32
572.74	44814.24
572.90	44563.80
573.06	44849.35
573.22	44741.68
573.38	44940.63
573.55	44762.75
573.71	45265.96
573.87	45324.47
574.03	44854.03
574.20	44971.05
574.36	44662.10
574.52	44713.59
574.68	45141.91
574.84	44690.19
575.01	45511.72
575.17	44954.67
575.33	44964.03
575.49	44882.11
575.65	44767.43
575.82	45029.57
575.98	45074.04
576.14	45006.16
576.30	44856.37
576.46	44816.58
576.62	45017.86
576.79	45139.57
576.95	44893.82
577.11	44790.83
577.27	45059.99
577.43	44900.84
577.59	45233.19
577.75	44978.07
577.92	44847.00
578.08	45078.72
578.24	45029.57
578.40	45120.85
578.56	44772.11
578.72	45141.91
578.88	45553.85
579.04	45799.60
579.21	45144.25
579.37	45165.32
579.53	45595.98
579.69	44992.12
579.85	44982.76
580.01	45244.90
580.17	45031.91
580.33	45198.09
580.49	45074.04
580.65	45691.94
580.82	45151.27
580.98	44865.73
581.14	45425.12
581.30	45577.25
581.46	45134.89
581.62	44500.61
581.78	45317.45
581.94	45191.06
582.10	45216.81
582.26	45240.21
582.42	45212.13
582.58	45390.01
582.74	45619.38
582.90	45343.20
583.06	45326.81
583.22	45207.45
583.38	45485.97
583.54	45013.18
583.70	45338.52
583.86	45352.56
584.02	45500.01
584.18	45553.85
584.34	45429.80
584.50	45277.66
584.66	45640.45
584.82	44992.12
584.98	45069.36
585.14	45237.87
585.30	45123.19
585.46	45071.70
585.62	44772.11
585.78	45404.05
585.94	45310.43
586.10	45303.41
586.26	45380.65
586.42	45382.99
586.58	45357.24
586.74	45247.24
586.90	45361.92
587.06	45067.02
587.22	45289.37
587.38	45280.00
587.54	45624.06
587.70	45492.99
587.86	45518.74
588.02	45792.58
588.18	45724.71
588.34	45132.55
588.49	45127.87
588.65	45160.64
588.81	45130.21
588.97	45549.17
589.13	45549.17
589.29	45202.77
589.45	45874.50
589.61	45649.81
589.77	45750.45
589.93	45492.99
590.08	45701.30
590.24	45684.92
590.40	45450.86
590.56	45925.99
590.72	45647.47
590.88	45322.13
