SpectraSuite Data File
++++++++++++++++++++++++++++++++++++
Date: Fri Oct 04 11:48:45 GMT-05:00 2013
User: price-jones
Dark Spectrum Present: No
Reference Spectrum Present: No
Number of Sampled Component Spectra: 1
Spectrometers: USB2+H05261
Integration Time (usec): 100000 (USB2+H05261)
Spectra Averaged: 1 (USB2+H05261)
Boxcar Smoothing: 0 (USB2+H05261)
Correct for Electrical Dark: No (USB2+H05261)
Strobe/Lamp Enabled: No (USB2+H05261)
Correct for Detector Non-linearity: No (USB2+H05261)
Correct for Stray Light: No (USB2+H05261)
Number of Pixels in Processed Spectrum: 2048
>>>>>Begin Processed Spectral Data<<<<<
365.73	4.68
365.92	4.68
366.12	4.68
366.32	0.00
366.52	0.00
366.72	21.06
366.91	0.00
367.11	0.00
367.31	0.00
367.51	0.00
367.70	0.00
367.90	0.00
368.10	0.00
368.30	0.00
368.49	0.00
368.69	0.00
368.89	0.00
369.09	0.00
369.28	0.00
369.48	0.00
369.68	0.00
369.87	0.00
370.07	0.00
370.27	74.90
370.47	133.41
370.66	437.68
370.86	489.17
371.06	493.85
371.25	514.92
371.45	517.26
371.65	510.24
371.84	475.13
372.04	587.47
372.24	496.19
372.44	601.52
372.63	613.22
372.83	683.44
373.03	713.86
373.22	608.54
373.42	660.03
373.62	648.33
373.81	650.67
374.01	716.20
374.21	777.06
374.40	758.33
374.60	741.95
374.79	748.97
374.99	713.86
375.19	699.82
375.38	734.93
375.58	751.31
375.78	699.82
375.97	730.25
376.17	779.40
376.37	744.29
376.56	767.70
376.76	748.97
376.95	826.21
377.15	781.74
377.35	847.27
377.54	912.81
377.74	751.31
377.93	730.25
378.13	786.42
378.33	788.76
378.52	823.87
378.72	870.68
378.91	901.11
379.11	854.30
379.31	901.11
379.50	891.74
379.70	835.57
379.89	908.13
380.09	812.17
380.28	856.64
380.48	992.39
380.68	926.85
380.87	882.38
381.07	957.28
381.26	994.73
381.46	868.34
381.65	978.34
381.85	964.30
382.04	990.05
382.24	1048.56
382.43	1027.50
382.63	997.07
382.83	1018.13
383.02	992.39
383.22	1095.37
383.41	1048.56
383.61	1067.28
383.80	1020.47
384.00	1086.01
384.19	1020.47
384.39	1029.84
384.58	1018.13
384.78	1111.75
384.97	1191.33
385.17	1062.60
385.36	1102.39
385.56	1060.26
385.75	1121.12
385.95	1083.67
386.14	1160.91
386.34	1118.78
386.53	1086.01
386.72	1093.03
386.92	1252.19
387.11	1273.25
387.31	1149.20
387.50	1196.01
387.70	1196.01
387.89	1207.72
388.09	1317.72
388.28	1240.48
388.48	1273.25
388.67	1315.38
388.86	1268.57
389.06	1275.59
389.25	1371.55
389.45	1322.40
389.64	1324.74
389.84	1355.17
390.03	1465.18
390.22	1409.00
390.42	1359.85
390.61	1385.60
390.81	1376.24
391.00	1294.32
391.19	1418.36
391.39	1418.36
391.58	1411.34
391.78	1483.90
391.97	1455.81
392.16	1444.11
392.36	1507.30
392.55	1547.09
392.75	1507.30
392.94	1509.65
393.13	1537.73
393.33	1535.39
393.52	1526.03
393.71	1572.84
393.91	1636.03
394.10	1650.08
394.29	1612.63
394.49	1600.93
394.68	1631.35
394.88	1666.46
395.07	1668.80
395.26	1727.32
395.46	1696.89
395.65	1710.93
395.84	1823.28
396.04	1879.45
396.23	1895.83
396.42	1753.06
396.62	1748.38
396.81	1750.72
397.00	1834.98
397.19	1937.96
397.39	1858.39
397.58	1898.17
397.77	1980.09
397.97	1867.75
398.16	1977.75
398.35	1933.28
398.55	1881.79
398.74	1989.46
398.93	2043.29
399.12	1982.43
399.32	1977.75
399.51	1994.14
399.70	2073.71
399.90	2003.50
400.09	2214.15
400.28	2183.72
400.47	2083.08
400.67	2225.85
400.86	2188.40
401.05	2155.63
401.24	2279.68
401.44	2310.11
401.63	2267.98
401.82	2282.02
402.01	2193.08
402.21	2246.91
402.40	2321.81
402.59	2263.30
402.78	2380.32
402.97	2403.73
403.17	2349.90
403.36	2480.97
403.55	2326.49
403.74	2530.12
403.93	2600.34
404.13	2502.03
404.32	2394.37
404.51	2401.39
404.70	2581.61
404.89	2462.24
405.09	2581.61
405.28	2623.74
405.47	2656.51
405.66	2717.36
405.85	2588.63
406.05	2661.19
406.24	2747.79
406.43	2773.53
406.62	2686.94
406.81	2780.56
407.00	2818.00
407.20	2605.02
407.39	2862.48
407.58	2916.31
407.77	2888.22
407.96	2918.65
408.15	3038.02
408.34	2951.42
408.54	2972.48
408.73	3000.57
408.92	3077.80
409.11	3045.04
409.30	3159.72
409.49	3166.74
409.68	3112.91
409.87	3178.45
410.07	3236.96
410.26	3302.50
410.45	3288.45
410.64	3243.98
410.83	3286.11
411.02	3293.13
411.21	3433.57
411.40	3361.01
411.59	3506.12
411.78	3557.61
411.98	3468.67
412.17	3449.95
412.36	3314.20
412.55	3599.74
412.74	3489.74
412.93	3691.02
413.12	3564.64
413.31	3969.55
413.50	3674.64
413.69	3742.52
413.88	3978.91
414.07	3845.50
414.26	3826.78
414.45	3866.56
414.64	3962.53
414.83	3983.59
415.02	4074.87
415.22	4234.03
415.41	4156.79
415.60	4201.26
415.79	4355.74
415.98	4196.58
416.17	4252.75
416.36	4294.88
416.55	4428.29
416.74	4395.53
416.93	4451.70
417.12	4334.67
417.31	4709.16
417.50	4629.58
417.69	4681.07
417.88	4652.98
418.07	4697.46
418.26	4641.28
418.45	4685.75
418.64	4814.48
418.83	4884.70
419.02	4770.01
419.21	4809.80
419.39	4788.74
419.58	4770.01
419.77	4791.08
419.96	4938.53
420.15	4973.64
420.34	4844.91
420.53	4994.70
420.72	5151.52
420.91	5149.18
421.10	5130.45
421.29	5256.84
421.48	5172.58
421.67	5315.36
421.86	5132.79
422.05	5364.51
422.24	5203.01
422.43	5322.38
422.61	5481.53
422.80	5472.17
422.99	5462.81
423.18	5406.64
423.37	5242.80
423.56	5385.57
423.75	5359.83
423.94	5249.82
424.13	5121.09
424.32	5305.99
424.50	5460.47
424.69	5556.43
424.88	5528.35
425.07	5397.28
425.26	5390.25
425.45	5390.25
425.64	5373.87
425.83	5313.02
426.01	5575.16
426.20	5451.11
426.39	5570.48
426.58	5467.49
426.77	5528.35
426.96	5584.52
427.15	5514.30
427.33	5591.54
427.52	5643.03
427.71	5682.82
427.90	5830.27
428.09	5736.65
428.28	5696.86
428.46	5870.06
428.65	5916.87
428.84	5944.96
429.03	5893.47
429.22	5856.02
429.40	6038.58
429.59	6043.26
429.78	5823.25
429.97	5746.02
430.16	5858.36
430.34	6174.33
430.53	6148.59
430.72	6267.95
430.91	6047.94
431.10	6230.51
431.28	6363.92
431.47	6256.25
431.66	6518.39
431.85	6389.66
432.03	6441.15
432.22	6516.05
432.41	6455.20
432.60	6502.01
432.79	6401.37
432.97	6459.88
433.16	6616.69
433.35	6656.48
433.54	6675.21
433.72	6588.61
433.91	6761.81
434.10	6850.75
434.28	6778.19
434.47	6883.52
434.66	6761.81
434.85	7045.01
435.03	6785.21
435.22	6827.34
435.41	7133.95
435.59	7087.14
435.78	6906.92
435.97	7059.06
436.16	7166.72
436.34	7178.42
436.53	7250.98
436.72	7274.38
436.90	7129.27
437.09	7332.90
437.28	6935.01
437.46	7197.15
437.65	7393.75
437.84	7297.79
438.02	7421.84
438.21	7419.50
438.40	7576.31
438.58	7744.83
438.77	7812.71
438.96	7765.90
439.14	8049.10
439.33	7925.05
439.52	7950.80
439.70	8016.33
439.89	8056.12
440.08	8133.36
440.26	8259.75
440.45	8238.69
440.63	8145.06
440.82	8255.07
441.01	8287.84
441.19	8243.37
441.38	8489.12
441.57	8575.72
441.75	8594.45
441.94	8826.16
442.12	8650.62
442.31	9032.13
442.50	8758.28
442.68	8692.75
442.87	8973.61
443.05	9008.72
443.24	9057.87
443.43	9102.34
443.61	9177.24
443.80	9172.56
443.98	9121.07
444.17	8814.46
444.35	8987.66
444.54	9245.12
444.73	9118.73
444.91	9121.07
445.10	9235.75
445.28	9369.16
445.47	9123.41
445.65	9181.92
445.84	9184.26
446.02	9249.80
446.21	9198.31
446.39	9373.85
446.58	9430.02
446.77	9277.88
446.95	9092.98
447.14	9390.23
447.32	9385.55
447.51	9500.23
447.69	9343.42
447.88	9448.74
448.06	9275.54
448.25	9413.63
448.43	9671.09
448.62	9549.39
448.80	9537.68
448.99	9596.20
449.17	9769.40
449.36	9664.07
449.54	9928.55
449.73	9774.08
449.91	9975.36
450.10	9944.94
450.28	9970.68
450.46	9870.04
450.65	9912.17
450.83	10111.11
451.02	9830.25
451.20	10111.11
451.39	10225.80
451.57	10197.71
451.76	10242.18
451.94	10078.35
452.13	10384.96
452.31	10422.41
452.49	9984.73
452.68	10340.49
452.86	10326.44
453.05	10555.82
453.23	10607.31
453.42	10565.18
453.60	10406.02
453.78	10450.49
453.97	10574.54
454.15	10611.99
454.34	10396.66
454.52	10827.32
454.70	10726.68
454.89	10820.30
455.07	10979.45
455.26	11040.31
455.44	11283.72
455.62	11054.35
455.81	10993.50
455.99	11110.52
456.17	11178.40
456.36	11162.01
456.54	11396.07
456.73	11440.54
456.91	11719.06
457.09	11442.88
457.28	11915.67
457.46	11618.42
457.64	11700.34
457.83	11779.92
458.01	11641.82
458.19	11957.80
458.38	11620.76
458.56	11985.88
458.74	12077.16
458.93	11777.58
459.11	11939.07
459.29	12086.53
459.48	12049.08
459.66	12095.89
459.84	12320.58
460.03	12224.62
460.21	12243.34
460.39	12187.17
460.57	12208.23
460.76	12428.24
460.94	12748.90
461.12	12713.79
461.31	12395.48
461.49	12308.88
461.67	12531.23
461.85	12922.10
462.04	12662.30
462.22	13355.10
462.40	12891.67
462.59	12730.17
462.77	12971.25
462.95	12957.21
463.13	12812.09
463.32	13095.30
463.50	13022.74
463.68	13104.66
463.86	13209.98
464.05	13041.46
464.23	13118.70
464.41	13212.32
464.59	13177.22
464.78	13682.77
464.96	13282.54
465.14	13130.41
465.32	13387.86
465.50	13448.72
465.69	13638.30
465.87	13570.43
466.05	13437.02
466.23	13556.38
466.41	13397.23
466.60	14073.64
466.78	13446.38
466.96	13486.17
467.14	13605.53
467.32	13874.70
467.51	14239.82
467.69	13671.07
467.87	13937.89
468.05	13891.08
468.23	13607.87
468.41	13841.93
468.60	14209.39
468.78	14209.39
468.96	14171.94
469.14	14052.58
469.32	14361.53
469.50	14012.79
469.69	14483.24
469.87	14785.16
470.05	14785.16
470.23	14462.17
470.41	14523.02
470.59	14752.40
470.77	14839.00
470.95	14956.02
471.14	15204.12
471.32	14843.68
471.50	15190.08
471.68	15192.42
471.86	15243.91
472.04	15407.75
472.22	15770.53
472.40	15330.51
472.58	15396.04
472.77	15669.89
472.95	15815.00
473.13	16126.29
473.31	15812.66
473.49	15960.11
473.67	16159.06
473.85	16137.99
474.03	16348.64
474.21	16042.03
474.39	16404.81
474.57	16837.81
474.75	16734.83
474.93	16968.88
475.12	16702.06
475.30	16844.84
475.48	16936.12
475.66	17032.08
475.84	17434.65
476.02	17317.62
476.20	17451.03
476.38	17741.26
476.56	18001.06
476.74	17554.02
476.92	17724.88
477.10	17919.14
477.28	18200.01
477.46	17720.20
477.64	18258.52
477.82	18700.88
478.00	18944.30
478.18	19157.28
478.36	19157.28
478.54	19054.30
478.72	19321.12
478.90	19417.08
479.08	19765.82
479.26	19644.12
479.44	19908.60
479.62	20425.86
479.80	20240.95
479.98	20575.65
480.16	20617.78
480.34	20634.16
480.52	21069.50
480.70	21149.08
480.88	21069.50
481.06	21102.27
481.24	21186.53
481.41	21729.53
481.59	22061.89
481.77	21898.05
481.95	22068.91
482.13	22281.90
482.31	22286.58
482.49	22534.68
482.67	22647.02
482.85	22869.37
483.03	23522.38
483.21	23817.29
483.39	23777.50
483.57	23627.71
483.74	23929.64
483.92	24180.07
484.10	24212.84
484.28	24512.43
484.46	24844.79
484.64	25596.10
484.82	24786.27
485.00	25202.89
485.18	25560.99
485.35	26059.52
485.53	26141.44
485.71	25895.69
485.89	26794.45
486.07	26539.33
486.25	26396.56
486.43	26434.01
486.61	27065.96
486.78	27323.41
486.96	27374.91
487.14	27833.65
487.32	27679.18
487.50	27950.68
487.68	28322.82
487.85	28531.13
488.03	29041.37
488.21	29074.13
488.39	29207.55
488.57	29628.84
488.75	29872.26
488.92	30190.57
489.10	30478.46
489.28	30045.46
489.46	30855.28
489.64	30780.39
489.81	31337.43
489.99	30967.63
490.17	30981.67
490.35	32091.09
490.53	32128.53
490.70	32479.61
490.88	32058.32
491.06	32584.94
491.24	32629.41
491.41	32594.30
491.59	33055.39
491.77	33008.58
491.95	33802.02
492.13	33472.00
492.30	34003.30
492.48	33872.23
492.66	34272.46
492.84	34223.31
493.01	34991.01
493.19	34766.32
493.37	35592.53
493.54	35243.79
493.72	35370.18
493.90	35875.73
494.08	36044.25
494.25	36245.54
494.43	36655.13
494.61	36503.00
494.79	36694.92
494.96	36680.88
495.14	37174.73
495.32	37525.81
495.49	37291.76
495.67	37904.98
495.85	38171.80
496.02	38333.29
496.20	38234.99
496.38	38618.84
496.55	38810.76
496.73	39728.25
496.91	39096.31
497.09	39622.93
497.26	39697.83
497.44	39433.35
497.62	39613.57
497.79	40467.86
497.97	40039.54
498.14	40868.09
498.32	40985.12
498.50	41055.34
498.67	41368.97
498.85	41202.79
499.03	41017.89
499.20	41336.20
499.38	42129.64
499.56	41724.73
499.73	42298.16
499.91	42344.97
500.08	42384.76
500.26	42347.31
500.44	42632.86
500.61	42827.12
500.79	42527.53
500.97	43210.97
501.14	43770.36
501.32	43232.04
501.49	43351.40
501.67	43384.17
501.84	43749.29
502.02	43838.23
502.20	43819.51
502.37	44086.33
502.55	44439.75
502.72	44442.09
502.90	44479.54
503.07	44540.39
503.25	45113.83
503.43	44718.28
503.60	45521.08
503.78	45219.15
503.95	45408.73
504.13	45322.13
504.30	45691.94
504.48	45275.32
504.65	46164.73
504.83	46230.26
505.01	46604.75
505.18	46272.39
505.36	46705.39
505.53	46174.09
505.71	46660.92
505.88	46738.16
506.06	46576.66
506.23	47136.05
506.41	47447.34
506.58	47386.49
506.76	47398.19
506.93	47590.11
507.11	47519.90
507.28	47585.43
507.46	47594.79
507.63	47983.32
507.81	48013.75
507.98	48011.41
508.16	48303.98
508.33	48266.53
508.50	48467.81
508.68	48727.61
508.85	49258.91
509.03	48914.86
509.20	49279.98
509.38	49591.27
509.55	49298.70
509.73	49460.20
509.90	49556.16
510.08	49614.68
510.25	49602.97
510.42	50162.36
510.60	49769.15
510.77	50190.45
510.95	50143.64
511.12	49801.92
511.30	50403.44
511.47	50574.30
511.64	50639.83
511.82	50965.17
511.99	50806.01
512.17	50913.67
512.34	50883.25
512.51	51047.08
512.69	51150.07
512.86	51356.03
513.04	51229.65
513.21	51676.69
513.38	51444.98
513.56	51917.76
513.73	51510.51
513.90	51910.74
514.08	51461.36
514.25	51910.74
514.43	52247.78
514.60	52200.97
514.77	52205.65
514.95	52303.95
515.12	51985.64
515.29	52289.91
515.47	52673.76
515.64	52956.96
515.81	52299.27
515.99	52942.92
516.16	52870.36
516.33	52837.59
516.51	53380.60
516.68	52891.43
516.85	52992.07
517.03	53499.97
517.20	53240.17
517.37	53715.29
517.54	53504.65
517.72	53422.73
517.89	53591.25
518.06	53492.94
518.24	53624.01
518.41	53457.84
518.58	53619.33
518.75	53897.86
518.93	54026.59
519.10	54073.40
519.27	54260.64
519.45	53949.35
519.62	54129.57
519.79	54333.20
519.96	54174.04
520.14	54787.26
520.31	54328.52
520.48	54677.25
520.65	54457.24
520.83	54824.71
521.00	54625.76
521.17	54628.10
521.34	55033.02
521.52	54759.17
521.69	54843.43
521.86	55271.75
522.03	55334.95
522.20	55105.57
522.38	55334.95
522.55	55231.96
522.72	55393.46
522.89	55480.06
523.07	55671.98
523.24	55491.76
523.41	55957.53
523.58	55599.43
523.75	55709.43
523.92	55702.41
524.10	55964.55
524.27	55971.57
524.44	56027.74
524.61	56210.31
524.78	56315.63
524.96	56044.13
525.13	56006.68
525.30	56420.95
525.47	56322.65
525.64	56259.46
525.81	56310.95
525.98	56512.23
526.16	56460.74
526.33	56322.65
526.50	56547.34
526.67	56149.45
526.84	56608.20
527.01	56711.18
527.18	56809.48
527.36	56989.70
527.53	56985.02
527.70	57190.99
527.87	57221.42
528.04	56963.96
528.21	56765.01
528.38	57155.88
528.55	57069.28
528.72	57174.61
528.89	57415.68
529.07	57275.25
529.24	57230.78
529.41	57558.45
529.58	57364.19
529.75	57153.54
529.92	57492.92
530.09	57654.42
530.26	57539.73
530.43	57703.57
530.60	57509.30
530.77	57694.21
530.94	57794.85
531.11	57572.50
531.28	57495.26
531.46	57621.65
531.63	57998.48
531.80	58120.18
531.97	58113.16
532.14	58064.01
532.31	58122.52
532.48	58162.31
532.65	58120.18
532.82	57834.64
532.99	58265.30
533.16	58085.07
533.33	58312.11
533.50	58679.57
533.67	58408.07
533.84	58342.53
534.01	58384.66
534.18	58415.09
534.35	58791.92
534.52	58679.57
534.69	58717.02
534.86	58740.42
535.03	58663.19
535.20	58859.79
535.37	58820.00
535.54	58775.53
535.71	58740.42
535.88	58908.94
536.05	58866.81
536.22	59110.23
536.38	59145.34
536.55	59011.93
536.72	59119.59
536.89	59021.29
537.06	59105.55
537.23	59114.91
537.40	59093.85
537.57	59072.78
537.74	59089.16
537.91	59405.14
538.08	59442.59
538.25	59227.26
538.42	59381.73
538.59	59423.86
538.75	59306.83
538.92	59519.82
539.09	59707.07
539.26	59489.40
539.43	59501.10
539.60	59767.92
539.77	59629.83
539.94	59737.49
540.11	59571.32
540.28	59655.57
540.44	59704.73
540.61	59870.90
540.78	59784.30
540.95	59772.60
541.12	59831.11
541.29	59969.21
541.46	59870.90
541.62	59753.88
541.79	59983.25
541.96	59884.95
542.13	59948.14
542.30	60044.10
542.47	60034.74
542.63	60390.50
542.80	60254.75
542.97	60383.48
543.14	60341.35
543.31	60549.66
543.48	60472.42
543.64	60870.31
543.81	60603.49
543.98	60774.35
544.15	60825.84
544.32	60694.77
544.48	60879.67
544.65	60736.90
544.82	60760.31
544.99	60622.22
545.16	60769.67
545.32	60701.79
545.49	61113.73
545.66	61109.05
545.83	60947.55
546.00	61006.06
546.16	60935.85
546.33	60919.46
546.50	60722.86
546.67	61207.35
546.83	60757.97
547.00	61109.05
547.17	61059.90
547.34	60905.42
547.50	61265.86
547.67	61425.02
547.84	61254.16
548.00	61277.57
548.17	61361.82
548.34	61183.94
548.51	61532.68
548.67	61574.81
548.84	61434.38
549.01	61425.02
549.18	61418.00
549.34	61382.89
549.51	61235.44
549.68	61336.08
549.84	61179.26
550.01	61490.55
550.18	61432.04
550.34	61593.54
550.51	61567.79
550.68	61673.12
550.84	61485.87
551.01	61712.91
551.18	61544.39
551.34	61701.20
551.51	61792.48
551.68	61829.93
551.84	62078.03
552.01	61914.19
552.18	62115.48
552.34	61862.70
552.51	62005.47
552.68	61890.79
552.84	61923.55
553.01	62061.64
553.18	61862.70
553.34	62045.26
553.51	62232.50
553.67	62108.46
553.84	62328.47
554.01	62260.59
554.17	62085.05
554.34	62134.20
554.51	62216.12
554.67	62422.09
554.84	62363.57
555.00	62099.09
555.17	62237.19
555.33	62199.74
555.50	62279.31
555.67	62260.59
555.83	62122.50
556.00	62445.49
556.16	62482.94
556.33	62546.14
556.50	62398.68
556.66	62363.57
556.83	62560.18
556.99	62815.30
557.16	62590.61
557.32	62623.37
557.49	62672.52
557.65	62457.20
557.82	62504.01
557.98	62571.88
558.15	62684.23
558.32	62759.12
558.48	62691.25
558.65	62761.47
558.81	62726.36
558.98	62808.28
559.14	62569.54
559.31	62700.61
559.47	62883.17
559.64	62922.96
559.80	62962.75
559.97	62845.72
560.13	62731.04
560.30	62855.09
560.46	62946.37
560.63	62969.77
560.79	62742.74
560.96	63112.55
561.12	62862.11
561.29	62794.23
561.45	63154.68
561.61	62911.26
561.78	63023.61
561.94	63063.39
562.11	63112.55
562.27	63126.59
562.44	63077.44
562.60	62925.30
562.77	63023.61
562.93	63171.06
563.10	63341.92
563.26	63018.92
563.42	63227.23
563.59	63164.04
563.75	63175.74
563.92	63105.52
564.08	63154.68
564.24	63138.29
564.41	62955.73
564.57	63084.46
564.74	63182.76
564.90	63344.26
565.07	63358.30
565.23	63309.15
565.39	63208.51
565.56	63334.90
565.72	63166.38
565.88	63377.03
566.05	63217.87
566.21	63182.76
566.38	63325.53
566.54	63421.50
566.70	63611.08
566.87	63564.27
567.03	63334.90
567.19	63613.42
567.36	63318.51
567.52	63456.60
567.68	63620.44
567.85	63114.89
568.01	63435.54
568.17	63440.22
568.34	63515.12
568.50	63519.80
568.66	63601.72
568.83	63634.48
568.99	63252.98
569.15	63501.07
569.32	63428.52
569.48	63302.13
569.64	63632.14
569.81	63653.21
569.97	63580.65
570.13	63636.83
570.30	63501.07
570.46	63472.99
570.62	63618.10
570.78	63491.71
570.95	63426.18
571.11	63468.31
571.27	63702.36
571.43	63632.14
571.60	63786.62
571.76	63751.51
571.92	63606.40
572.09	63676.61
572.25	63826.41
572.41	63765.56
572.57	63770.24
572.74	63798.32
572.90	63540.86
573.06	63653.21
573.22	63716.40
573.38	63788.96
573.55	63695.34
573.71	63931.73
573.87	63882.58
574.03	63758.53
574.20	63739.81
574.36	63765.56
574.52	63838.11
574.68	63746.83
574.84	63840.45
575.01	63948.12
575.17	63870.88
575.33	63863.86
575.49	63854.50
575.65	63882.58
575.82	63887.26
575.98	63625.12
576.14	63887.26
576.30	64048.76
576.46	64020.67
576.62	63901.31
576.79	63994.93
576.95	63819.39
577.11	63941.10
577.27	63913.01
577.43	64060.46
577.59	63983.22
577.75	63767.90
577.92	63629.80
578.08	63688.32
578.24	63838.11
578.40	63784.28
578.56	63807.68
578.72	63835.77
578.88	64097.91
579.04	64048.76
579.21	64034.72
579.37	64039.40
579.53	63877.90
579.69	63931.73
579.85	63992.59
580.01	63915.35
580.17	63945.78
580.33	63966.84
580.49	64184.51
580.65	64285.15
580.82	64140.04
580.98	64006.63
581.14	63997.27
581.30	64086.21
581.46	63959.82
581.62	64053.44
581.78	63877.90
581.94	64025.35
582.10	63994.93
582.26	64027.70
582.42	64128.34
582.58	64123.66
582.74	64053.44
582.90	64210.26
583.06	64018.33
583.22	63994.93
583.38	64060.46
583.54	64053.44
583.70	64154.08
583.86	64210.26
584.02	64116.64
584.18	64126.00
584.34	64491.12
584.50	64264.09
584.66	64231.32
584.82	63976.20
584.98	64020.67
585.14	64114.29
585.30	64062.80
585.46	64111.95
585.62	64015.99
585.78	64367.07
585.94	63980.88
586.10	64097.91
586.26	64126.00
586.42	64100.25
586.58	64381.12
586.74	64184.51
586.90	64238.34
587.06	64137.70
587.22	64161.11
587.38	64233.66
587.54	64126.00
587.70	64390.48
587.86	64275.79
588.02	64086.21
588.18	64334.31
588.34	64238.34
588.49	64273.45
588.65	64058.12
