SpectraSuite Data File
++++++++++++++++++++++++++++++++++++
Date: Fri Oct 04 11:48:21 GMT-05:00 2013
User: price-jones
Dark Spectrum Present: No
Reference Spectrum Present: No
Number of Sampled Component Spectra: 1
Spectrometers: USB2+H05261
Integration Time (usec): 100000 (USB2+H05261)
Spectra Averaged: 1 (USB2+H05261)
Boxcar Smoothing: 0 (USB2+H05261)
Correct for Electrical Dark: No (USB2+H05261)
Strobe/Lamp Enabled: No (USB2+H05261)
Correct for Detector Non-linearity: No (USB2+H05261)
Correct for Stray Light: No (USB2+H05261)
Number of Pixels in Processed Spectrum: 2048
>>>>>Begin Processed Spectral Data<<<<<
365.73	21.06
365.92	21.06
366.12	21.06
366.32	0.00
366.52	0.00
366.72	0.00
366.91	0.00
367.11	0.00
367.31	0.00
367.51	0.00
367.70	0.00
367.90	0.00
368.10	0.00
368.30	0.00
368.49	0.00
368.69	0.00
368.89	0.00
369.09	0.00
369.28	0.00
369.48	0.00
369.68	0.00
369.87	0.00
370.07	0.00
370.27	0.00
370.47	63.19
370.66	65.54
370.86	112.35
371.06	161.50
371.25	227.03
371.45	119.37
371.65	91.28
371.84	128.73
372.04	163.84
372.24	145.11
372.44	180.22
372.63	182.56
372.83	252.78
373.03	198.95
373.22	163.84
373.42	191.92
373.62	161.50
373.81	220.01
374.01	217.67
374.21	175.54
374.40	285.55
374.60	220.01
374.79	163.84
374.99	154.48
375.19	217.67
375.38	201.29
375.58	198.95
375.78	348.74
375.97	243.42
376.17	168.52
376.37	245.76
376.56	248.10
376.76	156.82
376.95	189.58
377.15	220.01
377.35	266.82
377.54	217.67
377.74	140.43
377.93	191.92
378.13	210.65
378.33	224.69
378.52	243.42
378.72	159.16
378.91	238.73
379.11	198.95
379.31	208.31
379.50	231.71
379.70	266.82
379.89	220.01
380.09	205.97
380.28	184.90
380.48	245.76
380.68	280.86
380.87	259.80
381.07	205.97
381.26	269.16
381.46	257.46
381.65	245.76
381.85	205.97
382.04	255.12
382.24	234.05
382.43	243.42
382.63	318.31
382.83	238.73
383.02	238.73
383.22	344.06
383.41	182.56
383.61	217.67
383.80	262.14
384.00	241.08
384.19	257.46
384.39	271.50
384.58	301.93
384.78	220.01
384.97	236.39
385.17	248.10
385.36	208.31
385.56	280.86
385.75	152.13
385.95	238.73
386.14	271.50
386.34	212.99
386.53	304.27
386.72	250.44
386.92	248.10
387.11	327.68
387.31	252.78
387.50	205.97
387.70	276.18
387.89	386.19
388.09	301.93
388.28	330.02
388.48	266.82
388.67	224.69
388.86	250.44
389.06	294.91
389.25	308.95
389.45	285.55
389.64	262.14
389.84	306.61
390.03	346.40
390.22	262.14
390.42	234.05
390.61	311.29
390.81	290.23
391.00	332.36
391.19	393.21
391.39	301.93
391.58	367.46
391.78	306.61
391.97	318.31
392.16	400.23
392.36	461.09
392.55	325.33
392.75	381.51
392.94	386.19
393.13	355.76
393.33	334.70
393.52	339.38
393.71	416.62
393.91	390.87
394.10	397.89
394.29	461.09
394.49	407.25
394.68	407.25
394.88	353.42
395.07	447.04
395.26	456.40
395.46	465.77
395.65	454.06
395.84	421.30
396.04	454.06
396.23	496.19
396.42	433.00
396.62	418.96
396.81	442.36
397.00	456.40
397.19	493.85
397.39	449.38
397.58	535.98
397.77	465.77
397.97	472.79
398.16	517.26
398.35	463.43
398.55	484.49
398.74	603.86
398.93	510.24
399.12	486.83
399.32	498.53
399.51	594.50
399.70	566.41
399.90	599.18
400.09	589.82
400.28	667.05
400.47	674.07
400.67	596.84
400.86	526.62
401.05	615.56
401.24	610.88
401.44	615.56
401.63	643.65
401.82	641.31
402.01	594.50
402.21	596.84
402.40	671.73
402.59	681.10
402.78	662.37
402.97	638.97
403.17	667.05
403.36	718.54
403.55	739.61
403.74	692.80
403.93	741.95
404.13	660.03
404.32	741.95
404.51	648.33
404.70	828.55
404.89	758.33
405.09	748.97
405.28	856.64
405.47	807.48
405.66	861.32
405.85	833.23
406.05	826.21
406.24	807.48
406.43	903.45
406.62	854.30
406.81	957.28
407.00	866.00
407.20	821.53
407.39	873.02
407.58	924.51
407.77	936.21
407.96	1034.52
408.15	1076.65
408.34	971.32
408.54	1011.11
408.73	1041.54
408.92	1048.56
409.11	968.98
409.30	1004.09
409.49	1020.47
409.68	1086.01
409.87	1188.99
410.07	1149.20
410.26	1083.67
410.45	1172.61
410.64	1107.07
410.83	1156.22
411.02	1139.84
411.21	1128.14
411.40	1193.67
411.59	1137.50
411.78	1235.80
411.98	1224.10
412.17	1369.21
412.36	1165.59
412.55	1193.67
412.74	1275.59
412.93	1287.29
413.12	1310.70
413.31	1455.81
413.50	1439.43
413.69	1451.13
413.88	1357.51
414.07	1392.62
414.26	1521.35
414.45	1565.82
414.64	1451.13
414.83	1509.65
415.02	1544.75
415.22	1481.56
415.41	1579.86
415.60	1572.84
415.79	1521.35
415.98	1586.88
416.17	1640.72
416.36	1549.43
416.55	1629.01
416.74	1596.25
416.93	1657.10
417.12	1652.42
417.31	1739.02
417.50	1741.36
417.69	1746.04
417.88	1729.66
418.07	1682.85
418.26	1746.04
418.45	1858.39
418.64	1792.85
418.83	1799.87
419.02	1912.22
419.21	1790.51
419.39	1870.09
419.58	1811.57
419.77	1816.26
419.96	1919.24
420.15	2017.54
420.34	1926.26
420.53	1921.58
420.72	2064.35
420.91	1949.67
421.10	1937.96
421.29	1954.35
421.48	2062.01
421.67	1928.60
421.86	2026.90
422.05	1980.09
422.24	1961.37
422.43	2120.53
422.61	1994.14
422.80	1975.41
422.99	2038.61
423.18	2090.10
423.37	2054.99
423.56	2069.03
423.75	2026.90
423.94	2062.01
424.13	1923.92
424.32	1984.77
424.50	2024.56
424.69	2092.44
424.88	2033.93
425.07	2097.12
425.26	1980.09
425.45	2071.37
425.64	1982.43
425.83	2054.99
426.01	1998.82
426.20	2183.72
426.39	2059.67
426.58	2052.65
426.77	2214.15
426.96	2188.40
427.15	2176.70
427.33	2167.34
427.52	2211.81
427.71	2172.02
427.90	2202.44
428.09	2157.97
428.28	2167.34
428.46	2183.72
428.65	2223.51
428.84	2359.26
429.03	2347.56
429.22	2256.28
429.40	2373.30
429.59	2370.96
429.78	2239.89
429.97	2186.06
430.16	2239.89
430.34	2317.13
430.53	2380.32
430.72	2417.77
430.91	2382.67
431.10	2291.38
431.28	2478.63
431.47	2429.48
431.66	2359.26
431.85	2495.01
432.03	2459.90
432.22	2572.25
432.41	2548.84
432.60	2469.27
432.79	2558.21
432.97	2462.24
433.16	2471.61
433.35	2572.25
433.54	2513.74
433.72	2684.59
433.91	2539.48
434.10	2684.59
434.28	2534.80
434.47	2590.97
434.66	2642.46
434.85	2562.89
435.03	2684.59
435.22	2726.72
435.41	2635.44
435.59	2806.30
435.78	2628.42
435.97	2640.12
436.16	2747.79
436.34	2698.64
436.53	2750.13
436.72	2771.19
436.90	2785.24
437.09	2857.79
437.28	2731.41
437.46	2787.58
437.65	2780.56
437.84	2761.83
438.02	2801.62
438.21	2942.05
438.40	2813.32
438.58	2899.92
438.77	2937.37
438.96	2953.76
439.14	3019.29
439.33	3087.17
439.52	3141.00
439.70	3143.34
439.89	3208.87
440.08	3152.70
440.26	3215.90
440.45	3112.91
440.63	3225.26
440.82	3183.13
441.01	3108.23
441.19	3126.96
441.38	3255.69
441.57	3126.96
441.75	3304.84
441.94	3311.86
442.12	3316.54
442.31	3389.10
442.50	3421.86
442.68	3400.80
442.87	3361.01
443.05	3393.78
443.24	3337.60
443.43	3281.43
443.61	3478.04
443.80	3588.04
443.98	3323.56
444.17	3328.24
444.35	3543.57
444.54	3468.67
444.73	3501.44
444.91	3527.19
445.10	3487.40
445.28	3438.25
445.47	3379.73
445.65	3428.88
445.84	3454.63
446.02	3389.10
446.21	3550.59
446.39	3517.83
446.58	3552.93
446.77	3634.85
446.95	3386.76
447.14	3452.29
447.32	3562.30
447.51	3644.21
447.69	3627.83
447.88	3574.00
448.06	3641.87
448.25	3492.08
448.43	3543.57
448.62	3576.34
448.80	3613.79
448.99	3604.42
449.17	3655.92
449.36	3763.58
449.54	3754.22
449.73	3700.39
449.91	3742.52
450.10	3737.84
450.28	3857.20
450.46	3911.04
450.65	3667.62
450.83	3885.29
451.02	3810.39
451.20	3726.13
451.39	3840.82
451.57	3794.01
451.76	3833.80
451.94	3705.07
452.13	3915.72
452.31	3894.65
452.49	3887.63
452.68	3889.97
452.86	3913.38
453.05	4086.58
453.23	4016.36
453.42	4028.06
453.60	3941.46
453.78	3948.48
453.97	3934.44
454.15	4095.94
454.34	4114.66
454.52	4077.21
454.70	3999.98
454.89	4142.75
455.07	4156.79
455.26	3988.27
455.44	3857.20
455.62	4114.66
455.81	4131.05
455.99	4145.09
456.17	4262.12
456.36	4294.88
456.54	4210.62
456.73	4208.28
456.91	4315.95
457.09	4458.72
457.28	4484.47
457.46	4306.59
457.64	4409.57
457.83	4351.06
458.01	4386.16
458.19	4545.32
458.38	4379.14
458.56	4397.87
458.74	4552.34
458.93	4219.99
459.11	4395.53
459.29	4381.48
459.48	4601.49
459.66	4535.96
459.84	4535.96
460.03	4737.24
460.21	4407.23
460.39	4428.29
460.57	4660.01
460.76	4573.41
460.94	4751.29
461.12	4683.41
461.31	4777.03
461.49	4678.73
461.67	4564.04
461.85	4638.94
462.04	4779.37
462.22	5348.12
462.40	4837.89
462.59	4713.84
462.77	4798.10
462.95	4910.44
463.13	4898.74
463.32	4975.98
463.50	4865.97
463.68	4919.81
463.86	4781.71
464.05	4800.44
464.23	4762.99
464.41	5011.09
464.59	4950.23
464.78	5062.58
464.96	5048.54
465.14	4903.42
465.32	5083.64
465.50	4929.17
465.69	4922.15
465.87	5013.43
466.05	5050.88
466.23	5013.43
466.41	5022.79
466.60	5214.71
466.78	5188.97
466.96	5034.49
467.14	5039.17
467.32	5132.79
467.51	5172.58
467.69	5036.83
467.87	5149.18
468.05	5118.75
468.23	5139.82
468.41	5132.79
468.60	5224.08
468.78	5420.68
468.96	5301.31
469.14	5184.29
469.32	5280.25
469.50	5139.82
469.69	5366.85
469.87	5497.92
470.05	5628.99
470.23	5336.42
470.41	5289.61
470.59	5423.02
470.77	5401.96
470.95	5540.05
471.14	5650.05
471.32	5448.77
471.50	5551.75
471.68	5582.18
471.86	5713.25
472.04	5755.38
472.22	5788.14
472.40	5561.11
472.58	5724.95
472.77	5675.80
472.95	5776.44
473.13	5970.71
473.31	5643.03
473.49	5874.74
473.67	5781.12
473.85	5942.62
474.03	6092.41
474.21	5879.43
474.39	5872.40
474.57	6113.48
474.75	6022.20
474.93	6057.31
475.12	6164.97
475.30	6162.63
475.48	6181.35
475.66	6345.19
475.84	6134.54
476.02	6345.19
476.20	6377.96
476.38	6483.28
476.56	6516.05
476.74	6424.77
476.92	6469.24
477.10	6572.22
477.28	6619.04
477.46	6434.13
477.64	6691.59
477.82	6597.97
478.00	6958.41
478.18	6787.55
478.36	6836.70
478.54	6911.60
478.72	7012.24
478.90	7047.35
479.08	7201.83
479.26	7159.70
479.44	7335.24
479.62	7162.04
479.80	7358.64
479.98	7393.75
480.16	7311.83
480.34	7503.76
480.52	7391.41
480.70	7585.68
480.88	7485.03
481.06	7555.25
481.24	7604.40
481.41	7646.53
481.59	8002.29
481.77	7885.26
481.95	7918.03
482.13	8079.53
482.31	8051.44
482.49	8149.75
482.67	8086.55
482.85	8140.38
483.03	8456.36
483.21	8297.20
483.39	8470.40
483.57	8454.02
483.74	8762.97
483.92	8592.11
484.10	8559.34
484.28	8901.06
484.46	9029.79
484.64	8978.30
484.82	8966.59
485.00	8940.85
485.18	9268.52
485.35	9139.79
485.53	9130.43
485.71	9366.82
485.89	9516.62
486.07	9486.19
486.25	9212.35
486.43	9612.58
486.61	9748.33
486.78	9870.04
486.96	9820.89
487.14	10040.90
487.32	9898.13
487.50	10001.11
487.68	10045.58
487.85	10033.88
488.03	10462.19
488.21	10448.15
488.39	10324.10
488.57	10506.66
488.75	10607.31
488.92	11023.92
489.10	10752.42
489.28	10747.74
489.46	11052.01
489.64	10918.60
489.81	11103.50
489.99	11117.54
490.17	10981.79
490.35	11405.43
490.53	11197.12
490.70	11683.95
490.88	11176.06
491.06	11595.01
491.24	11775.24
491.41	11798.64
491.59	11609.06
491.77	11679.27
491.95	11777.58
492.13	11800.98
492.30	11969.50
492.48	11688.64
492.66	11918.01
492.84	11932.05
493.01	12610.81
493.19	12233.98
493.37	12358.03
493.54	12636.55
493.72	12779.32
493.90	12578.04
494.08	12734.85
494.25	13025.08
494.43	12812.09
494.61	12683.36
494.79	12889.33
494.96	13029.76
495.14	13245.09
495.32	13270.84
495.49	13240.41
495.67	13427.65
495.85	13507.23
496.02	13647.66
496.20	13481.49
496.38	13664.05
496.55	13809.16
496.73	13942.57
496.91	13680.43
497.09	14178.97
497.26	14071.30
497.44	13937.89
497.62	14319.40
497.79	14237.48
497.97	14260.88
498.14	14520.68
498.32	14293.65
498.50	14635.37
498.67	14473.87
498.85	14719.63
499.03	14668.14
499.20	14675.16
499.38	14471.53
499.56	15000.49
499.73	14881.13
499.91	15005.17
500.08	14913.89
500.26	15016.88
500.44	14754.74
500.61	15190.08
500.79	15349.23
500.97	15344.55
501.14	15421.79
501.32	15758.83
501.49	15634.78
501.67	15370.30
501.84	15307.10
502.02	15590.31
502.20	15721.38
502.37	15606.69
502.55	15522.43
502.72	15906.28
502.90	16025.65
503.07	15857.13
503.25	16086.50
503.43	16072.46
503.60	15957.77
503.78	16163.74
503.95	15854.79
504.13	16123.95
504.30	16276.09
504.48	16255.02
504.65	16477.37
504.83	16381.41
505.01	16821.43
505.18	16535.88
505.36	16947.82
505.53	16549.93
505.71	16755.90
505.88	16690.36
506.06	16732.49
506.23	16549.93
506.41	16882.28
506.58	16847.18
506.76	16940.80
506.93	17020.38
507.11	17088.25
507.28	17055.48
507.46	17099.95
507.63	17406.56
507.81	17432.31
507.98	17495.50
508.16	17366.78
508.33	17530.61
508.50	17544.66
508.68	17605.51
508.85	17703.81
509.03	17563.38
509.20	17823.18
509.38	17797.43
509.55	17942.55
509.73	18043.19
509.90	18139.15
510.08	17914.46
510.25	18408.31
510.42	18368.52
510.60	18373.21
510.77	18129.79
510.95	18567.47
511.12	18012.76
511.30	18277.24
511.47	18593.22
511.64	18618.96
511.82	18611.94
511.99	18530.02
512.17	18801.52
512.34	18909.19
512.51	18956.00
512.69	19009.83
512.86	18808.54
513.04	19117.50
513.21	19007.49
513.38	19159.63
513.56	19108.13
513.73	19077.71
513.90	19021.53
514.08	19166.65
514.25	19108.13
514.43	19749.44
514.60	19688.59
514.77	19697.95
514.95	19555.18
515.12	19594.96
515.29	19281.33
515.47	19854.76
515.64	19665.18
515.81	19714.33
515.99	19953.07
516.16	19871.15
516.33	19859.45
516.51	20161.37
516.68	20065.41
516.85	19941.36
517.03	20273.72
517.20	20299.47
517.37	20159.03
517.54	20112.22
517.72	20451.60
517.89	20130.95
518.06	20119.24
518.24	20496.07
518.41	20079.46
518.58	20566.29
518.75	20414.15
518.93	20421.17
519.10	20601.40
519.27	20545.22
519.45	20615.44
519.62	20744.17
519.79	20809.70
519.96	20699.70
520.14	21195.89
520.31	20449.26
520.48	21003.97
520.65	20819.07
520.83	20931.41
521.00	20975.88
521.17	21015.67
521.34	20908.01
521.52	21380.79
521.69	21113.97
521.86	21317.60
522.03	21596.12
522.20	21570.38
522.38	21439.31
522.55	21411.22
522.72	21722.51
522.89	21462.71
523.07	21671.02
523.24	21565.70
523.41	22078.27
523.58	21448.67
523.75	21720.17
523.92	22223.39
524.10	21621.87
524.27	21823.16
524.44	21858.26
524.61	21844.22
524.78	21970.61
524.96	22293.60
525.13	21783.37
525.30	21961.25
525.47	21970.61
525.64	22071.25
525.81	22419.99
525.98	22162.53
526.16	22522.98
526.33	22441.06
526.50	22298.28
526.67	22195.30
526.84	22164.87
527.01	22515.95
527.18	22689.15
527.36	22515.95
527.53	22728.94
527.70	22642.34
527.87	23058.96
528.04	22902.14
528.21	22663.41
528.38	23054.28
528.55	22794.48
528.72	22953.63
528.89	22946.61
529.07	22787.46
529.24	22623.62
529.41	22974.70
529.58	22967.68
529.75	22834.27
529.92	23159.60
530.09	23000.44
530.26	23447.49
530.43	23126.83
530.60	23396.00
530.77	23293.01
530.94	23293.01
531.11	23300.03
531.28	23187.69
531.46	23527.06
531.63	23302.37
531.80	23545.79
531.97	23227.48
532.14	23592.60
532.31	23208.75
532.48	23440.47
532.65	23915.59
532.82	23632.39
532.99	23672.18
533.16	23845.38
533.33	23950.70
533.50	23679.20
533.67	23688.56
533.84	23405.36
534.01	23695.58
534.18	23702.61
534.35	24016.24
534.52	24037.30
534.69	23953.04
534.86	24067.73
535.03	24112.20
535.20	24025.60
535.37	24041.98
535.54	24229.23
535.71	24044.32
535.88	24271.36
536.05	24278.38
536.22	24428.17
536.38	24091.13
536.55	24250.29
536.72	24191.78
536.89	24173.05
537.06	24201.14
537.23	24421.15
537.40	24725.42
537.57	24531.15
537.74	24404.77
537.91	24467.96
538.08	24662.22
538.25	24549.88
538.42	24809.68
538.59	24753.51
538.75	24514.77
538.92	24732.44
539.09	24884.58
539.26	24379.02
539.43	24744.14
539.60	24933.73
539.77	24482.00
539.94	25317.57
540.11	24699.67
540.28	25062.46
540.44	24915.00
540.61	25123.31
540.78	24746.48
540.95	24886.92
541.12	25081.18
541.29	25120.97
541.46	24898.62
541.62	24847.13
541.79	25177.14
541.96	24954.79
542.13	25060.12
542.30	25226.29
542.47	25387.79
542.63	25055.43
542.80	25338.64
542.97	25928.45
543.14	25757.60
543.31	25343.32
543.48	25406.52
543.64	25837.17
543.81	25778.66
543.98	25750.57
544.15	25638.23
544.32	25865.26
544.48	25586.74
544.65	25937.82
544.82	25944.84
544.99	25598.44
545.16	25860.58
545.32	25844.20
545.49	26066.55
545.66	26518.27
545.83	26127.40
546.00	26160.17
546.16	26052.50
546.33	26040.80
546.50	25694.40
546.67	25858.24
546.83	25671.00
547.00	26071.23
547.17	25961.22
547.34	26235.06
547.50	26134.42
547.67	26218.68
547.84	26146.12
548.00	26089.95
548.17	26398.90
548.34	26363.79
548.51	26408.26
548.67	26412.95
548.84	26548.70
549.01	26494.86
549.18	26553.38
549.34	26555.72
549.51	26740.62
549.68	26665.72
549.84	26064.21
550.01	26670.40
550.18	26211.66
550.34	26749.98
550.51	26562.74
550.68	26436.35
550.84	26518.27
551.01	26611.89
551.18	26359.11
551.34	26448.05
551.51	26590.83
551.68	26513.59
551.84	26604.87
552.01	26534.65
552.18	26548.70
552.34	26806.16
552.51	26651.68
552.68	26459.76
552.84	26497.20
553.01	27080.00
553.18	26588.49
553.34	27016.80
553.51	26913.82
553.67	27009.78
553.84	27454.48
554.01	26885.73
554.17	26799.13
554.34	26728.92
554.51	27124.47
554.67	26972.33
554.84	27372.57
555.00	27220.43
555.17	27026.17
555.33	26951.27
555.50	27110.43
555.67	26796.79
555.83	26789.77
556.00	27005.10
556.16	27248.52
556.33	27555.13
556.50	27145.53
556.66	27484.91
556.83	27304.69
556.99	27517.68
557.16	27208.73
557.32	27360.86
557.49	27454.48
557.65	27211.07
557.82	27098.72
557.98	27023.83
558.15	26941.91
558.32	27545.76
558.48	27349.16
558.65	27309.37
558.81	27590.24
558.98	27501.29
559.14	27388.95
559.31	27475.55
559.47	27417.04
559.64	27498.95
559.80	27807.90
559.97	27522.36
560.13	27255.54
560.30	27646.41
560.46	27300.01
560.63	27559.81
560.79	27402.99
560.96	27637.05
561.12	27206.39
561.29	27491.93
561.45	27538.74
561.61	27831.31
561.78	27239.15
561.94	27550.45
562.11	27503.64
562.27	27433.42
562.44	27704.92
562.60	27615.98
562.77	27744.71
562.93	27695.56
563.10	27763.43
563.26	27515.34
563.42	27763.43
563.59	27768.12
563.75	27889.82
563.92	27620.66
564.08	27573.85
564.24	27587.89
564.41	27428.74
564.57	27482.57
564.74	27529.38
564.90	27735.35
565.07	27281.28
565.23	27843.01
565.39	27637.05
565.56	27733.01
565.72	27522.36
565.88	27770.46
566.05	27901.53
566.21	27421.72
566.38	27658.11
566.54	27749.39
566.70	28140.26
566.87	28065.36
567.03	27679.18
567.19	28018.55
567.36	27840.67
567.52	27946.00
567.68	27723.65
567.85	27592.58
568.01	27910.89
568.17	27660.45
568.34	27859.40
568.50	27775.14
568.66	27957.70
568.83	27805.56
568.99	27721.30
569.15	27571.51
569.32	27747.05
569.48	27332.78
569.64	27835.99
569.81	27995.15
569.97	28051.32
570.13	28027.92
570.30	28166.01
570.46	27997.49
570.62	27974.08
570.78	27660.45
570.95	27737.69
571.11	27873.44
571.27	27985.79
571.43	27782.16
571.60	27658.11
571.76	28041.96
571.92	27798.54
572.09	27840.67
572.25	28175.37
572.41	27800.88
572.57	27714.28
572.74	27789.18
572.90	27798.54
573.06	27833.65
573.22	27623.00
573.38	27875.78
573.55	27997.49
573.71	28224.52
573.87	28119.20
574.03	28067.70
574.20	28079.41
574.36	27763.43
574.52	27854.72
574.68	27637.05
574.84	27793.86
575.01	28065.36
575.17	28011.53
575.33	27833.65
575.49	28037.28
575.65	28390.70
575.82	28290.06
575.98	28126.22
576.14	28170.69
576.30	27992.81
576.46	27894.50
576.62	28187.07
576.79	27868.76
576.95	27988.13
577.11	28273.67
577.27	28048.98
577.43	28100.47
577.59	28004.51
577.75	27756.41
577.92	28018.55
578.08	27531.72
578.24	27807.90
578.40	28290.06
578.56	28224.52
578.72	27744.71
578.88	28357.93
579.04	28229.20
579.21	28004.51
579.37	27868.76
579.53	28051.32
579.69	27817.27
579.85	28149.62
580.01	27709.60
580.17	27927.27
580.33	27943.66
580.49	28048.98
580.65	27999.83
580.82	27913.23
580.98	28107.49
581.14	27999.83
581.30	28123.88
581.46	27513.00
581.62	27967.06
581.78	27812.59
581.94	27985.79
582.10	27749.39
582.26	27817.27
582.42	28224.52
582.58	28203.46
582.74	27922.59
582.90	27946.00
583.06	28374.31
583.22	28016.21
583.38	27997.49
583.54	27838.33
583.70	27784.50
583.86	27946.00
584.02	28011.53
584.18	28222.18
584.34	28292.40
584.50	28025.57
584.66	27660.45
584.82	28039.62
584.98	28414.10
585.14	28013.87
585.30	27587.89
585.46	27931.95
585.62	28065.36
585.78	28425.81
585.94	27814.93
586.10	28056.00
586.26	28318.14
586.42	28158.99
586.58	28491.34
586.74	27824.29
586.90	27992.81
587.06	27779.82
587.22	28404.74
587.38	27618.32
587.54	28037.28
587.70	27704.92
587.86	28032.60
588.02	28091.11
588.18	28053.66
588.34	28229.20
588.49	28128.56
588.65	27800.88
588.81	28098.13
588.97	28086.43
589.13	27962.38
589.29	28484.32
589.45	28306.44
589.61	28622.41
589.77	28453.89
589.93	28060.68
590.08	28411.76
590.24	28416.44
590.40	28348.57
590.56	28304.10
590.72	27812.59
590.88	28051.32
591.04	28421.13
591.20	28379.00
591.35	28236.22
591.51	28526.45
591.67	28257.29
591.83	28386.02
591.99	28432.83
