SpectraSuite Data File
++++++++++++++++++++++++++++++++++++
Date: Fri Oct 04 11:48:28 GMT-05:00 2013
User: price-jones
Dark Spectrum Present: No
Reference Spectrum Present: No
Number of Sampled Component Spectra: 1
Spectrometers: USB2+H05261
Integration Time (usec): 100000 (USB2+H05261)
Spectra Averaged: 1 (USB2+H05261)
Boxcar Smoothing: 0 (USB2+H05261)
Correct for Electrical Dark: No (USB2+H05261)
Strobe/Lamp Enabled: No (USB2+H05261)
Correct for Detector Non-linearity: No (USB2+H05261)
Correct for Stray Light: No (USB2+H05261)
Number of Pixels in Processed Spectrum: 2048
>>>>>Begin Processed Spectral Data<<<<<
365.73	46.81
365.92	46.81
366.12	46.81
366.32	0.00
366.52	0.00
366.72	0.00
366.91	0.00
367.11	0.00
367.31	0.00
367.51	0.00
367.70	0.00
367.90	0.00
368.10	0.00
368.30	0.00
368.49	0.00
368.69	0.00
368.89	0.00
369.09	0.00
369.28	0.00
369.48	0.00
369.68	0.00
369.87	35.11
370.07	0.00
370.27	0.00
370.47	58.51
370.66	315.97
370.86	402.57
371.06	437.68
371.25	386.19
371.45	311.29
371.65	400.23
371.84	475.13
372.04	421.30
372.24	493.85
372.44	470.45
372.63	498.53
372.83	526.62
373.03	444.70
373.22	428.32
373.42	477.47
373.62	517.26
373.81	528.96
374.01	458.74
374.21	538.32
374.40	472.79
374.60	528.96
374.79	550.03
374.99	585.13
375.19	538.32
375.38	669.39
375.58	571.09
375.78	578.11
375.97	617.90
376.17	622.58
376.37	608.54
376.56	643.65
376.76	573.43
376.95	641.31
377.15	559.39
377.35	631.94
377.54	636.63
377.74	676.41
377.93	648.33
378.13	582.79
378.33	727.91
378.52	627.26
378.72	690.46
378.91	702.16
379.11	655.35
379.31	648.33
379.50	650.67
379.70	730.25
379.89	641.31
380.09	589.82
380.28	681.10
380.48	720.88
380.68	704.50
380.87	709.18
381.07	697.48
381.26	725.57
381.46	737.27
381.65	723.23
381.85	606.20
382.04	716.20
382.24	765.36
382.43	718.54
382.63	753.65
382.83	716.20
383.02	800.46
383.22	807.48
383.41	795.78
383.61	870.68
383.80	812.17
384.00	763.01
384.19	847.27
384.39	940.90
384.58	798.12
384.78	788.76
384.97	830.89
385.17	807.48
385.36	844.93
385.56	842.59
385.75	840.25
385.95	915.15
386.14	929.19
386.34	912.81
386.53	851.96
386.72	889.40
386.92	903.45
387.11	929.19
387.31	922.17
387.50	924.51
387.70	851.96
387.89	961.96
388.09	950.26
388.28	959.62
388.48	945.58
388.67	985.37
388.86	926.85
389.06	983.02
389.25	1006.43
389.45	1015.79
389.64	985.37
389.84	1116.44
390.03	1013.45
390.22	1128.14
390.42	1078.99
390.61	1027.50
390.81	1097.71
391.00	961.96
391.19	1076.65
391.39	957.28
391.58	1081.33
391.78	1086.01
391.97	1111.75
392.16	1116.44
392.36	1074.31
392.55	1205.38
392.75	1205.38
392.94	1139.84
393.13	1174.95
393.33	1144.52
393.52	1228.78
393.71	1240.48
393.91	1228.78
394.10	1270.91
394.29	1167.93
394.49	1287.29
394.68	1252.19
394.88	1221.76
395.07	1254.53
395.26	1287.29
395.46	1338.79
395.65	1394.96
395.84	1369.21
396.04	1439.43
396.23	1322.40
396.42	1303.68
396.62	1390.28
396.81	1336.45
397.00	1310.70
397.19	1296.66
397.39	1362.19
397.58	1486.24
397.77	1439.43
397.97	1467.52
398.16	1411.34
398.35	1469.86
398.55	1474.54
398.74	1504.96
398.93	1511.99
399.12	1572.84
399.32	1416.02
399.51	1514.33
399.70	1638.38
399.90	1624.33
400.09	1657.10
400.28	1593.90
400.47	1579.86
400.67	1713.27
400.86	1547.09
401.05	1617.31
401.24	1657.10
401.44	1633.69
401.63	1586.88
401.82	1640.72
402.01	1577.52
402.21	1769.44
402.40	1851.36
402.59	1760.08
402.78	1750.72
402.97	1818.60
403.17	1703.91
403.36	1816.26
403.55	1825.62
403.74	1949.67
403.93	1863.07
404.13	1933.28
404.32	1893.49
404.51	1952.01
404.70	2031.58
404.89	1881.79
405.09	1905.20
405.28	2040.95
405.47	2076.06
405.66	2085.42
405.85	2069.03
406.05	1984.77
406.24	2073.71
406.43	2073.71
406.62	2052.65
406.81	2090.10
407.00	2204.78
407.20	2071.37
407.39	2036.27
407.58	2197.76
407.77	2120.53
407.96	2326.49
408.15	2298.41
408.34	2237.55
408.54	2272.66
408.73	2310.11
408.92	2267.98
409.11	2375.64
409.30	2434.16
409.49	2282.02
409.68	2377.98
409.87	2319.47
410.07	2487.99
410.26	2462.24
410.45	2546.50
410.64	2478.63
410.83	2490.33
411.02	2436.50
411.21	2588.63
411.40	2495.01
411.59	2609.70
411.78	2612.04
411.98	2654.17
412.17	2640.12
412.36	2700.98
412.55	2635.44
412.74	2682.25
412.93	2752.47
413.12	2679.91
413.31	2895.24
413.50	2939.71
413.69	2918.65
413.88	3089.51
414.07	2935.03
414.26	3063.76
414.45	2974.82
414.64	3171.43
414.83	3124.62
415.02	3150.36
415.22	3164.40
415.41	3232.28
415.60	3171.43
415.79	3286.11
415.98	3194.83
416.17	3389.10
416.36	3279.09
416.55	3342.28
416.74	3323.56
416.93	3208.87
417.12	3414.84
417.31	3487.40
417.50	3375.05
417.69	3552.93
417.88	3599.74
418.07	3513.14
418.26	3632.51
418.45	3634.85
418.64	3691.02
418.83	3686.34
419.02	3623.15
419.21	3784.65
419.39	3667.62
419.58	3847.84
419.77	3723.79
419.96	3700.39
420.15	3801.03
420.34	3684.00
420.53	3772.94
420.72	3843.16
420.91	3904.01
421.10	4126.36
421.29	4021.04
421.48	3922.74
421.67	4154.45
421.86	4077.21
422.05	3929.76
422.24	3885.29
422.43	3953.16
422.61	4016.36
422.80	4112.32
422.99	4152.11
423.18	4081.89
423.37	4159.13
423.56	4098.28
423.75	4109.98
423.94	4159.13
424.13	3983.59
424.32	3901.67
424.50	4044.45
424.69	4219.99
424.88	4252.75
425.07	4044.45
425.26	4135.73
425.45	4037.42
425.64	4135.73
425.83	4224.67
426.01	4142.75
426.20	4161.47
426.39	4219.99
426.58	4283.18
426.77	4257.43
426.96	4449.36
427.15	4341.69
427.33	4285.52
427.52	4365.10
427.71	4540.64
427.90	4437.66
428.09	4276.16
428.28	4461.06
428.46	4465.74
428.65	4575.75
428.84	4512.55
429.03	4575.75
429.22	4372.12
429.40	4559.36
429.59	4681.07
429.78	4475.10
429.97	4292.54
430.16	4440.00
430.34	4617.88
430.53	4589.79
430.72	4652.98
430.91	4627.24
431.10	4734.90
431.28	4823.84
431.47	4908.10
431.66	4917.47
431.85	4830.87
432.03	4880.02
432.22	5062.58
432.41	4922.15
432.60	4945.55
432.79	4870.65
432.97	4917.47
433.16	5123.43
433.35	4992.36
433.54	4964.28
433.72	5163.22
433.91	5111.73
434.10	5100.03
434.28	4964.28
434.47	5324.72
434.66	5193.65
434.85	5116.41
435.03	5383.23
435.22	5198.33
435.41	5460.47
435.59	5348.12
435.78	5331.74
435.97	5514.30
436.16	5376.21
436.34	5406.64
436.53	5338.76
436.72	5509.62
436.90	5383.23
437.09	5631.33
437.28	5465.15
437.46	5462.81
437.65	5687.50
437.84	5631.33
438.02	5596.22
438.21	5572.82
438.40	5500.26
438.58	5886.45
438.77	5755.38
438.96	5783.46
439.14	5891.13
439.33	5942.62
439.52	6113.48
439.70	5928.58
439.89	6155.61
440.08	6218.80
440.26	6052.63
440.45	6209.44
440.63	6485.62
440.82	6338.17
441.01	6363.92
441.19	6333.49
441.38	6452.86
441.57	6537.12
441.75	6668.19
441.94	6661.16
442.12	6626.06
442.31	6696.27
442.50	6782.87
442.68	6717.34
442.87	6729.04
443.05	6815.64
443.24	7098.84
443.43	6984.16
443.61	6832.02
443.80	7054.37
443.98	6867.13
444.17	6637.76
444.35	7005.22
444.54	7108.21
444.73	6930.33
444.91	7112.89
445.10	6974.80
445.28	6942.03
445.47	6930.33
445.65	6960.75
445.84	7201.83
446.02	7215.87
446.21	7084.80
446.39	7049.69
446.58	7316.51
446.77	7056.72
446.95	6920.96
447.14	7082.46
447.32	7302.47
447.51	7023.95
447.69	6993.52
447.88	7103.53
448.06	7211.19
448.25	7258.00
448.43	7325.88
448.62	7314.17
448.80	7234.60
448.99	7274.38
449.17	7166.72
449.36	7232.26
449.54	7461.63
449.73	7613.76
449.91	7538.87
450.10	7473.33
450.28	7747.17
450.46	7693.34
450.65	7494.40
450.83	7655.89
451.02	7667.60
451.20	7730.79
451.39	7866.54
451.57	7665.25
451.76	7552.91
451.94	7801.01
452.13	7651.21
452.31	7960.16
452.49	7672.28
452.68	7875.90
452.86	8114.64
453.05	7852.50
453.23	8023.36
453.42	7882.92
453.60	7836.11
453.78	7939.10
453.97	7857.18
454.15	7936.76
454.34	8037.40
454.52	8088.89
454.70	8088.89
454.89	8147.40
455.07	8166.13
455.26	8154.43
455.44	8266.77
455.62	8400.18
455.81	8329.97
455.99	8386.14
456.17	8535.93
456.36	8442.31
456.54	8461.04
456.73	8617.85
456.91	8734.88
457.09	8933.82
457.28	8791.05
457.46	8613.17
457.64	8805.10
457.83	8819.14
458.01	8744.24
458.19	8727.86
458.38	8798.07
458.56	9008.72
458.74	8943.19
458.93	8926.80
459.11	9074.26
459.29	9008.72
459.48	9041.49
459.66	9022.77
459.84	9097.66
460.03	9233.41
460.21	9102.34
460.39	9277.88
460.57	9214.69
460.76	9315.33
460.94	9270.86
461.12	9408.95
461.31	9413.63
461.49	9373.85
461.67	9488.53
461.85	9490.87
462.04	9628.96
462.22	9963.66
462.40	9380.87
462.59	9530.66
462.77	9685.14
462.95	9839.61
463.13	9652.37
463.32	9984.73
463.50	9830.25
463.68	9865.36
463.86	9848.97
464.05	9762.37
464.23	9710.88
464.41	10190.69
464.59	9767.06
464.78	10022.17
464.96	10141.54
465.14	10031.54
465.32	10122.82
465.50	10244.52
465.69	10260.91
465.87	10218.78
466.05	10403.68
466.23	10136.86
466.41	10384.96
466.60	10504.32
466.78	10293.68
466.96	10422.41
467.14	10221.12
467.32	10342.83
467.51	10436.45
467.69	10375.59
467.87	10382.62
468.05	10729.02
468.23	10328.78
468.41	10415.38
468.60	10569.86
468.78	10583.90
468.96	10457.51
469.14	10628.37
469.32	10752.42
469.50	10293.68
469.69	10881.15
469.87	11073.07
470.05	11119.89
470.23	11082.44
470.41	10892.85
470.59	11169.04
470.77	11007.54
470.95	11407.77
471.14	11314.15
471.32	11016.90
471.50	11587.99
471.68	11468.62
471.86	11405.43
472.04	11609.06
472.22	11655.87
472.40	11454.58
472.58	11564.59
472.77	11524.80
472.95	11786.94
473.13	12180.15
473.31	11829.07
473.49	11920.35
473.67	11999.93
473.85	12084.19
474.03	12016.31
474.21	12233.98
474.39	12294.83
474.57	12339.30
474.75	12470.37
474.93	12709.11
475.12	12709.11
475.30	12697.41
475.48	12624.85
475.66	12795.71
475.84	12954.87
476.02	13001.68
476.20	12781.67
476.38	13193.60
476.56	13511.91
476.74	13547.02
476.92	13535.32
477.10	13437.02
477.28	13706.18
477.46	13411.27
477.64	13865.33
477.82	14045.55
478.00	14324.08
478.18	14211.73
478.36	14111.09
478.54	14473.87
478.72	14672.82
478.90	14630.69
479.08	14792.19
479.26	15073.05
479.44	14892.83
479.62	15344.55
479.80	15126.88
479.98	15232.21
480.16	15398.38
480.34	15522.43
480.52	15655.84
480.70	15917.98
480.88	15871.17
481.06	15768.19
481.24	16020.97
481.41	16025.65
481.59	16374.39
481.77	16292.47
481.95	16449.28
482.13	16851.86
482.31	16716.11
482.49	16868.24
482.67	16868.24
482.85	17116.34
483.03	17453.37
483.21	17584.44
483.39	17949.57
483.57	17731.90
483.74	17989.36
483.92	17888.71
484.10	17980.00
484.28	18415.34
484.46	18405.97
484.64	18789.82
484.82	18567.47
485.00	18974.72
485.18	19293.04
485.35	19236.86
485.53	19576.24
485.71	19887.53
485.89	19960.09
486.07	19824.34
486.25	19665.18
486.43	20006.90
486.61	20350.96
486.78	20360.32
486.96	20837.79
487.14	20772.25
487.32	20805.02
487.50	21172.49
487.68	21338.66
487.85	21685.06
488.03	21937.84
488.21	22125.08
488.39	22087.64
488.57	22494.89
488.75	21970.61
488.92	22504.25
489.10	22663.41
489.28	22897.46
489.46	22848.31
489.64	22998.10
489.81	23506.00
489.99	23618.35
490.17	23316.42
490.35	23976.45
490.53	23817.29
490.70	24098.16
490.88	24393.06
491.06	24217.52
491.24	24395.40
491.41	24713.72
491.59	24655.20
491.77	24718.40
491.95	25036.71
492.13	25436.94
492.30	25502.48
492.48	25450.99
492.66	25788.02
492.84	25720.15
493.01	25914.41
493.19	25956.54
493.37	26345.07
493.54	26581.46
493.72	26525.29
493.90	26635.30
494.08	27110.43
494.25	27410.01
494.43	27307.03
494.61	27421.72
494.79	27653.43
494.96	27513.00
495.14	27627.68
495.32	27873.44
495.49	28362.61
495.67	28149.62
495.85	28299.42
496.02	28961.79
496.20	28734.76
496.38	28755.82
496.55	29123.29
496.73	29612.46
496.91	29647.57
497.09	29724.80
497.26	29900.34
497.44	29949.50
497.62	29935.45
497.79	29977.58
497.97	30316.96
498.14	30199.93
498.32	30328.66
498.50	30815.49
498.67	30955.93
498.85	30773.36
499.03	31232.11
499.20	31349.14
499.38	31388.92
499.56	31438.08
499.73	31873.42
499.91	31669.79
500.08	31976.40
500.26	31857.03
500.44	32233.86
500.61	32217.47
500.79	32322.80
500.97	32549.83
501.14	32924.32
501.32	32608.34
501.49	32898.57
501.67	33095.18
501.84	33200.50
502.02	32858.78
502.20	33397.10
502.37	33404.13
502.55	33448.60
502.72	33893.30
502.90	33862.87
503.07	33699.03
503.25	34382.47
503.43	34071.18
503.60	34359.06
503.78	34227.99
503.95	34618.86
504.13	34684.40
504.30	34873.98
504.48	34377.79
504.65	34888.03
504.83	35150.17
505.01	35503.59
505.18	35314.00
505.36	35494.22
505.53	35321.02
505.71	35526.99
505.88	35747.00
506.06	35494.22
506.23	36168.30
506.41	35971.69
506.58	35995.10
506.76	35868.71
506.93	35938.93
507.11	36051.27
507.28	36158.94
507.46	36655.13
507.63	36884.50
507.81	37181.75
507.98	36739.39
508.16	36875.14
508.33	37193.45
508.50	37298.78
508.68	37413.46
508.85	37825.40
509.03	37137.28
509.20	37893.27
509.38	37961.15
509.55	38010.30
509.73	37937.74
509.90	38096.90
510.08	38251.38
510.25	38658.63
510.42	38576.71
510.60	38782.68
510.77	38653.95
510.95	39077.58
511.12	38969.92
511.30	39267.17
511.47	39426.32
511.64	39283.55
511.82	39784.43
511.99	39587.82
512.17	39578.46
512.34	39896.77
512.51	40023.16
512.69	40151.89
512.86	40357.86
513.04	40404.67
513.21	40732.34
513.38	40505.31
513.56	40615.32
513.73	40322.75
513.90	40418.71
514.08	41174.70
514.25	40610.64
514.43	40755.75
514.60	40774.47
514.77	41205.13
514.95	41275.35
515.12	41265.99
515.29	41139.60
515.47	41507.06
515.64	42038.36
515.81	41677.92
515.99	41698.98
516.16	42057.09
516.33	41914.31
516.51	42150.71
516.68	41682.60
516.85	41935.38
517.03	42284.12
517.20	42674.99
517.37	42920.74
517.54	43201.61
517.72	42574.34
517.89	42738.18
518.06	42777.97
518.24	43009.68
518.41	43152.46
518.58	43360.76
518.75	42895.00
518.93	43157.14
519.10	43473.11
519.27	43267.14
519.45	43187.56
519.62	43419.28
519.79	43737.59
519.96	44093.35
520.14	44016.11
520.31	44074.63
520.48	43938.88
520.65	44428.05
520.83	44004.41
521.00	43915.47
521.17	44299.32
521.34	44594.23
521.52	44982.76
521.69	44559.12
521.86	45132.55
522.03	44910.20
522.20	44535.71
522.38	44891.48
522.55	45099.78
522.72	45244.90
522.89	45333.84
523.07	45631.08
523.24	45542.14
523.41	45752.79
523.58	45535.12
523.75	45743.43
523.92	45322.13
524.10	45736.41
524.27	45401.71
524.44	45979.82
524.61	46174.09
524.78	46487.72
524.96	46333.24
525.13	46164.73
525.30	45813.65
525.47	46134.30
525.64	46326.22
525.81	46817.74
525.98	47213.29
526.16	46492.40
526.33	46602.41
526.50	47215.63
526.67	46520.49
526.84	47023.70
527.01	46834.12
527.18	47063.49
527.36	47173.50
527.53	47487.13
527.70	47653.31
527.87	47576.07
528.04	47327.97
528.21	47423.93
528.38	47585.43
528.55	47859.27
528.72	47657.99
528.89	47533.94
529.07	47503.51
529.24	47929.49
529.41	48060.56
529.58	48205.67
529.75	47866.30
529.92	48186.95
530.09	48025.45
530.26	48289.93
530.43	48020.77
530.60	48203.33
530.77	48404.62
530.94	48746.34
531.11	48093.33
531.28	48751.02
531.46	48404.62
531.63	48903.15
531.80	49003.80
531.97	48980.39
532.14	49043.59
532.31	48858.68
532.48	49099.76
532.65	49071.67
532.82	48992.09
532.99	48924.22
533.16	49184.02
533.33	49499.99
533.50	49860.43
533.67	49649.78
533.84	49340.83
534.01	49509.35
534.18	49476.58
534.35	49827.66
534.52	50096.83
534.69	49867.45
534.86	49867.45
535.03	49907.24
535.20	49979.80
535.37	49991.50
535.54	50459.61
535.71	50010.23
535.88	50232.58
536.05	49993.84
536.22	50370.67
536.38	50335.56
536.55	50300.45
536.72	49958.73
536.89	50286.41
537.06	50501.74
537.23	50607.06
537.40	50422.16
537.57	50412.80
537.74	50611.74
537.91	50995.59
538.08	50988.57
538.25	50382.37
538.42	50848.14
538.59	51023.68
538.75	50801.33
538.92	50688.98
539.09	51100.92
539.26	51250.71
539.43	50990.91
539.60	51042.40
539.77	51260.07
539.94	51377.10
540.11	51229.65
540.28	51147.73
540.44	51379.44
540.61	51388.80
540.78	51517.53
540.95	51639.24
541.12	51941.17
541.29	51606.47
541.46	51224.96
541.62	51356.03
541.79	51515.19
541.96	51189.86
542.13	51985.64
542.30	51772.65
542.47	52126.07
542.63	52130.75
542.80	52240.76
542.97	52163.52
543.14	52266.50
543.31	52161.18
543.48	52182.24
543.64	52530.98
543.81	52655.03
543.98	52369.49
544.15	52229.05
544.32	52605.88
544.48	52666.73
544.65	52736.95
544.82	52765.04
544.99	52451.41
545.16	52844.62
545.32	52907.81
545.49	53230.80
545.66	53130.16
545.83	52842.27
546.00	52985.05
546.16	53013.13
546.33	52575.45
546.50	52484.17
546.67	53027.18
546.83	52736.95
547.00	52992.07
547.17	53179.31
547.34	52842.27
547.50	53045.90
547.67	53467.20
547.84	53144.20
548.00	53497.62
548.17	53401.66
548.34	53270.59
548.51	53684.87
548.67	53516.35
548.84	53406.34
549.01	53631.04
549.18	53528.05
549.34	53296.34
549.51	53333.79
549.68	53305.70
549.84	53633.38
550.01	53588.91
550.18	53593.59
550.34	53698.91
550.51	53689.55
550.68	53874.45
550.84	53506.99
551.01	53965.73
551.18	53640.40
551.34	53460.18
551.51	54120.21
551.68	53989.14
551.84	54225.53
552.01	54262.98
552.18	54143.61
552.34	54045.31
552.51	54309.79
552.68	54047.65
552.84	54239.57
553.01	54323.83
553.18	53925.94
553.34	54499.37
553.51	54342.56
553.67	54347.24
553.84	54550.87
554.01	54593.00
554.17	54405.75
554.34	54300.43
554.51	54499.37
554.67	54665.55
554.84	54457.24
555.00	54602.36
555.17	54253.62
555.33	54433.84
555.50	54550.87
555.67	54286.39
555.83	54717.04
556.00	54438.52
556.16	54841.09
556.33	54567.25
556.50	54475.97
556.66	54653.85
556.83	54660.87
556.99	54993.23
557.16	55065.78
557.32	54859.82
557.49	54965.14
557.65	54609.38
557.82	54520.44
557.98	54976.84
558.15	55246.00
558.32	55178.13
558.48	55061.10
558.65	55159.41
558.81	55164.09
558.98	54859.82
559.14	54836.41
559.31	55138.34
559.47	55269.41
559.64	55128.98
559.80	55098.55
559.97	55220.26
560.13	55215.58
560.30	55063.44
560.46	55248.35
560.63	55187.49
560.79	55316.22
560.96	55063.44
561.12	55288.13
561.29	55313.88
561.45	55501.12
561.61	55306.86
561.78	55526.87
561.94	55615.81
562.11	55531.55
562.27	55554.96
562.44	55400.48
562.60	55360.69
562.77	55437.93
562.93	55599.43
563.10	55805.39
563.26	55363.03
563.42	55650.92
563.59	55505.80
563.75	55430.91
563.92	55674.32
564.08	55526.87
564.24	55728.16
564.41	55456.65
564.57	55573.68
564.74	55688.37
564.90	55512.83
565.07	55753.90
565.23	55756.24
565.39	55704.75
565.56	55552.62
565.72	55292.82
565.88	55505.80
566.05	55786.67
566.21	55503.46
566.38	55613.47
566.54	55779.65
566.70	55884.97
566.87	55938.80
567.03	55779.65
567.19	56175.20
567.36	55828.80
567.52	55679.00
567.68	55786.67
567.85	55800.71
568.01	55463.67
568.17	55742.20
568.34	55980.93
568.50	56011.36
568.66	56039.45
568.83	56081.58
568.99	56041.79
569.15	55938.80
569.32	55910.72
569.48	55756.24
569.64	56161.15
569.81	55870.93
569.97	56186.90
570.13	55669.64
570.30	56037.11
570.46	56102.64
570.62	56023.06
570.78	56051.15
570.95	56058.17
571.11	56081.58
571.27	55529.21
571.43	56154.13
571.60	56404.57
571.76	56088.60
571.92	56093.28
572.09	56214.99
572.25	56142.43
572.41	55957.53
572.57	56062.85
572.74	56179.88
572.90	55976.25
573.06	55707.09
573.22	56229.03
573.38	56053.49
573.55	56088.60
573.71	56657.35
573.87	56575.43
574.03	56079.24
574.20	56427.98
574.36	56006.68
574.52	56168.18
574.68	56100.30
574.84	56142.43
575.01	56378.82
575.17	56456.06
575.33	56170.52
575.49	56374.14
575.65	56322.65
575.82	56437.34
575.98	55838.16
576.14	56495.85
576.30	56413.93
576.46	56282.86
576.62	56348.40
576.79	56119.02
576.95	56065.19
577.11	56278.18
577.27	56392.87
577.43	56287.54
577.59	56411.59
577.75	56533.30
577.92	56142.43
578.08	56193.92
578.24	56217.33
578.40	56210.31
578.56	56161.15
578.72	56222.01
578.88	56456.06
579.04	56640.96
579.21	56406.91
579.37	56435.00
579.53	56540.32
579.69	56257.12
579.85	56334.35
580.01	56624.58
580.17	56257.12
580.33	56493.51
580.49	56535.64
580.65	56481.81
580.82	56568.41
580.98	56360.10
581.14	56540.32
581.30	56666.71
581.46	56385.85
581.62	56144.77
581.78	56509.89
581.94	56348.40
582.10	56444.36
582.26	56610.54
582.42	56404.57
582.58	56818.84
582.74	56863.32
582.90	56746.29
583.06	56456.06
583.22	56512.23
583.38	56807.14
583.54	56753.31
583.70	56395.21
583.86	56605.86
584.02	56596.49
584.18	56748.63
584.34	56701.82
584.50	56652.67
584.66	56449.04
584.82	56186.90
584.98	56250.09
585.14	56711.18
585.30	56526.28
585.46	56624.58
585.62	56488.83
585.78	56825.87
585.94	56521.60
586.10	56755.65
586.26	56561.39
586.42	56683.09
586.58	56823.53
586.74	56383.51
586.90	56559.05
587.06	56659.69
587.22	56460.74
587.38	56619.90
587.54	56750.97
587.70	56907.79
587.86	56743.95
588.02	56594.15
588.18	56676.07
588.34	56676.07
588.49	56680.75
588.65	56435.00
588.81	56732.25
588.97	56938.21
589.13	56587.13
589.29	56886.72
589.45	56769.69
589.61	56818.84
589.77	56816.50
