SpectraSuite Data File
++++++++++++++++++++++++++++++++++++
Date: Fri Oct 04 11:48:22 GMT-05:00 2013
User: price-jones
Dark Spectrum Present: No
Reference Spectrum Present: No
Number of Sampled Component Spectra: 1
Spectrometers: USB2+H05261
Integration Time (usec): 100000 (USB2+H05261)
Spectra Averaged: 1 (USB2+H05261)
Boxcar Smoothing: 0 (USB2+H05261)
Correct for Electrical Dark: No (USB2+H05261)
Strobe/Lamp Enabled: No (USB2+H05261)
Correct for Detector Non-linearity: No (USB2+H05261)
Correct for Stray Light: No (USB2+H05261)
Number of Pixels in Processed Spectrum: 2048
>>>>>Begin Processed Spectral Data<<<<<
365.73	56.17
365.92	56.17
366.12	56.17
366.32	0.00
366.52	0.00
366.72	0.00
366.91	0.00
367.11	0.00
367.31	0.00
367.51	0.00
367.70	0.00
367.90	0.00
368.10	0.00
368.30	0.00
368.49	0.00
368.69	0.00
368.89	0.00
369.09	0.00
369.28	0.00
369.48	0.00
369.68	0.00
369.87	0.00
370.07	0.00
370.27	2.34
370.47	131.07
370.66	470.45
370.86	503.22
371.06	564.07
371.25	533.64
371.45	442.36
371.65	547.69
371.84	512.58
372.04	585.13
372.24	571.09
372.44	531.30
372.63	631.94
372.83	631.94
373.03	645.99
373.22	608.54
373.42	624.92
373.62	655.35
373.81	636.63
374.01	664.71
374.21	697.48
374.40	613.22
374.60	608.54
374.79	667.05
374.99	657.69
375.19	688.12
375.38	791.10
375.58	681.10
375.78	725.57
375.97	697.48
376.17	809.83
376.37	791.10
376.56	777.06
376.76	732.59
376.95	809.83
377.15	760.67
377.35	774.72
377.54	814.51
377.74	798.12
377.93	826.21
378.13	856.64
378.33	781.74
378.52	791.10
378.72	826.21
378.91	786.42
379.11	877.70
379.31	760.67
379.50	800.46
379.70	870.68
379.89	847.27
380.09	894.08
380.28	954.94
380.48	748.97
380.68	828.55
380.87	870.68
381.07	943.24
381.26	919.83
381.46	952.60
381.65	908.13
381.85	1006.43
382.04	947.92
382.24	926.85
382.43	933.87
382.63	926.85
382.83	1083.67
383.02	1022.81
383.22	1095.37
383.41	968.98
383.61	983.02
383.80	1004.09
384.00	931.53
384.19	1071.97
384.39	1034.52
384.58	964.30
384.78	915.15
384.97	954.94
385.17	1083.67
385.36	1125.80
385.56	1111.75
385.75	1102.39
385.95	1041.54
386.14	1083.67
386.34	1100.05
386.53	1149.20
386.72	1107.07
386.92	1156.22
387.11	1135.16
387.31	1210.06
387.50	1071.97
387.70	1158.57
387.89	1160.91
388.09	1256.87
388.28	1205.38
388.48	1186.65
388.67	1249.85
388.86	1336.45
389.06	1245.16
389.25	1217.08
389.45	1348.15
389.64	1287.29
389.84	1142.18
390.03	1238.14
390.22	1280.27
390.42	1287.29
390.61	1331.76
390.81	1352.83
391.00	1376.24
391.19	1390.28
391.39	1413.68
391.58	1420.71
391.78	1439.43
391.97	1469.86
392.16	1390.28
392.36	1544.75
392.55	1439.43
392.75	1420.71
392.94	1528.37
393.13	1666.46
393.33	1514.33
393.52	1533.05
393.71	1511.99
393.91	1563.48
394.10	1479.22
394.29	1626.67
394.49	1547.09
394.68	1671.14
394.88	1582.20
395.07	1586.88
395.26	1666.46
395.46	1654.76
395.65	1746.04
395.84	1640.72
396.04	1769.44
396.23	1689.87
396.42	1682.85
396.62	1743.70
396.81	1638.38
397.00	1650.08
397.19	1720.29
397.39	1858.39
397.58	1802.21
397.77	1825.62
397.97	1788.17
398.16	1919.24
398.35	2036.27
398.55	1886.47
398.74	1881.79
398.93	2038.61
399.12	1994.14
399.32	1935.62
399.51	2043.29
399.70	1991.80
399.90	1994.14
400.09	2008.18
400.28	2001.16
400.47	2003.50
400.67	2211.81
400.86	2155.63
401.05	2073.71
401.24	2155.63
401.44	2204.78
401.63	2136.91
401.82	2249.25
402.01	2127.55
402.21	2326.49
402.40	2310.11
402.59	2223.51
402.78	2256.28
402.97	2352.24
403.17	2328.83
403.36	2363.94
403.55	2359.26
403.74	2492.67
403.93	2385.01
404.13	2363.94
404.32	2504.37
404.51	2406.07
404.70	2597.99
404.89	2495.01
405.09	2658.85
405.28	2567.57
405.47	2736.09
405.66	2616.72
405.85	2747.79
406.05	2581.61
406.24	2623.74
406.43	2698.64
406.62	2656.51
406.81	2780.56
407.00	2787.58
407.20	2773.53
407.39	2876.52
407.58	2932.69
407.77	2963.12
407.96	2876.52
408.15	2834.39
408.34	3045.04
408.54	3047.38
408.73	3094.19
408.92	3129.30
409.11	3094.19
409.30	3136.32
409.49	3110.57
409.68	3220.58
409.87	3056.74
410.07	3213.56
410.26	3236.96
410.45	3204.19
410.64	3026.31
410.83	3316.54
411.02	3438.25
411.21	3454.63
411.40	3344.63
411.59	3412.50
411.78	3522.51
411.98	3463.99
412.17	3564.64
412.36	3419.52
412.55	3548.25
412.74	3693.37
412.93	3625.49
413.12	3634.85
413.31	3672.30
413.50	3581.02
413.69	3693.37
413.88	3929.76
414.07	3838.48
414.26	3894.65
414.45	3983.59
414.64	3873.59
414.83	3936.78
415.02	4187.22
415.22	4131.05
415.41	4236.37
415.60	4170.83
415.79	4222.33
415.98	4294.88
416.17	4079.55
416.36	4187.22
416.55	4411.91
416.74	4365.10
416.93	4416.59
417.12	4367.44
417.31	4599.15
417.50	4514.89
417.69	4730.22
417.88	4723.20
418.07	4660.01
418.26	4601.49
418.45	4706.82
418.64	4863.63
418.83	4861.29
419.02	4912.78
419.21	4844.91
419.39	4788.74
419.58	4917.47
419.77	4805.12
419.96	5039.17
420.15	4882.36
420.34	4844.91
420.53	5217.05
420.72	5139.82
420.91	5069.60
421.10	5116.41
421.29	5331.74
421.48	5083.64
421.67	5305.99
421.86	5078.96
422.05	5303.65
422.24	5268.55
422.43	5221.74
422.61	5387.91
422.80	5320.04
422.99	5369.19
423.18	5493.24
423.37	5427.70
423.56	5369.19
423.75	5317.70
423.94	5322.38
424.13	5055.56
424.32	5085.98
424.50	5352.81
424.69	5509.62
424.88	5448.77
425.07	5474.51
425.26	5320.04
425.45	5462.81
425.64	5413.66
425.83	5479.19
426.01	5563.45
426.20	5675.80
426.39	5469.83
426.58	5441.75
426.77	5535.37
426.96	5617.29
427.15	5565.79
427.33	5713.25
427.52	5750.70
427.71	5853.68
427.90	5813.89
428.09	5802.19
428.28	5647.71
428.46	5870.06
428.65	6141.57
428.84	5987.09
429.03	5994.11
429.22	5825.59
429.40	5942.62
429.59	6094.76
429.78	5673.46
429.97	5596.22
430.16	5832.62
430.34	6099.44
430.53	6256.25
430.72	6204.76
430.91	6120.50
431.10	6188.38
431.28	6279.66
431.47	6235.19
431.66	6338.17
431.85	6148.59
432.03	6595.63
432.22	6562.86
432.41	6401.37
432.60	6768.83
432.79	6457.54
432.97	6567.54
433.16	6616.69
433.35	6396.68
433.54	6801.60
433.72	6675.21
433.91	6855.43
434.10	6761.81
434.28	6747.76
434.47	6722.02
434.66	7028.63
434.85	6972.46
435.03	6904.58
435.22	6918.62
435.41	7183.10
435.59	7129.27
435.78	7110.55
435.97	6874.15
436.16	7234.60
436.34	7035.65
436.53	7122.25
436.72	7463.97
436.90	7073.10
437.09	7337.58
437.28	7386.73
437.46	7321.20
437.65	7356.30
437.84	7375.03
438.02	7351.62
438.21	7377.37
438.40	7438.22
438.58	7648.87
438.77	7691.00
438.96	7456.95
439.14	7887.61
439.33	7740.15
439.52	7826.75
439.70	8119.32
439.89	7913.35
440.08	8049.10
440.26	8210.60
440.45	8184.85
440.63	8304.22
440.82	8374.44
441.01	8250.39
441.19	8599.13
441.38	8685.73
441.57	8538.27
441.75	8507.85
441.94	8755.94
442.12	8812.12
442.31	8819.14
442.50	8863.61
442.68	8760.63
442.87	9004.04
443.05	8798.07
443.24	9163.20
443.43	9006.38
443.61	9191.28
443.80	9177.24
443.98	8954.89
444.17	8758.28
444.35	9109.36
444.54	9280.22
444.73	9305.97
444.91	9107.02
445.10	9163.20
445.28	9373.85
445.47	9238.09
445.65	9364.48
445.84	9397.25
446.02	9399.59
446.21	9315.33
446.39	9214.69
446.58	9542.36
446.77	9415.98
446.95	9186.60
447.14	9444.06
447.32	9441.72
447.51	9259.16
447.69	9399.59
447.88	9376.19
448.06	9254.48
448.25	9364.48
448.43	9563.43
448.62	9626.62
448.80	9472.15
448.99	9561.09
449.17	9511.94
449.36	9635.99
449.54	9799.82
449.73	10073.67
449.91	10043.24
450.10	9673.43
450.28	10239.84
450.46	9823.23
450.65	10085.37
450.83	10068.98
451.02	10108.77
451.20	10225.80
451.39	10160.27
451.57	9987.07
451.76	10125.16
451.94	10373.25
452.13	10464.54
452.31	10190.69
452.49	10270.27
452.68	10380.28
452.86	10178.99
453.05	10366.23
453.23	10743.06
453.42	10506.66
453.60	10298.36
453.78	10600.29
453.97	10504.32
454.15	10635.39
454.34	10457.51
454.52	10761.78
454.70	10766.46
454.89	10696.25
455.07	10892.85
455.26	10920.94
455.44	10937.32
455.62	11044.99
455.81	11257.98
455.99	11103.50
456.17	11283.72
456.36	11257.98
456.54	11435.86
456.73	11433.52
456.91	11442.88
457.09	11559.91
457.28	11735.45
457.46	11487.35
457.64	11824.39
457.83	11829.07
458.01	11555.22
458.19	11896.94
458.38	11707.36
458.56	11892.26
458.74	11990.56
458.93	11721.40
459.11	11955.46
459.29	11754.17
459.48	12072.48
459.66	12042.06
459.84	11943.75
460.03	12023.33
460.21	12269.09
460.39	12177.81
460.57	12418.88
460.76	12173.13
460.94	12372.07
461.12	12362.71
461.31	12704.43
461.49	12470.37
461.67	12519.53
461.85	12802.73
462.04	12627.19
462.22	13317.65
462.40	12985.29
462.59	12681.02
462.77	12910.40
462.95	13069.55
463.13	12996.99
463.32	12910.40
463.50	13177.22
463.68	13020.40
463.86	13163.17
464.05	12835.50
464.23	12989.97
464.41	13226.37
464.59	13034.44
464.78	13413.61
464.96	13282.54
465.14	13067.21
465.32	13191.26
465.50	13537.66
465.69	13760.01
465.87	13366.80
466.05	13305.95
466.23	13579.79
466.41	13631.28
466.60	14193.01
466.78	13483.83
466.96	13561.06
467.14	13809.16
467.32	13797.46
467.51	13912.14
467.69	13549.36
467.87	13888.74
468.05	13987.04
468.23	13951.93
468.41	13769.37
468.60	13944.91
468.78	14085.34
468.96	13956.61
469.14	14424.72
469.32	14361.53
469.50	14190.67
469.69	14738.35
469.87	14698.56
470.05	14640.05
470.23	14714.95
470.41	14558.13
470.59	14794.53
470.77	14829.63
470.95	15044.96
471.14	15122.20
471.32	14583.88
471.50	14993.47
471.68	15358.60
471.86	15286.04
472.04	15468.60
472.22	15435.83
472.40	15302.42
472.58	15552.86
472.77	15728.40
472.95	15836.06
473.13	15995.22
473.31	16065.44
473.49	16063.10
473.67	15882.88
473.85	15772.87
474.03	16453.97
474.21	16224.59
474.39	16482.05
474.57	16528.86
474.75	16783.98
474.93	16606.10
475.12	16664.61
475.30	16886.97
475.48	16854.20
475.66	16978.25
475.84	17060.16
476.02	17273.15
476.20	17212.30
476.38	17516.57
476.56	17898.08
476.74	17975.31
476.92	17547.00
477.10	18127.45
477.28	17994.04
477.46	18164.90
477.64	18429.38
477.82	18527.68
478.00	18972.38
478.18	19030.90
478.36	19101.11
478.54	19204.10
478.72	19433.47
478.90	19346.87
479.08	19639.44
479.26	20020.94
479.44	20018.60
479.62	20077.12
479.80	20072.43
479.98	20276.06
480.16	20540.54
480.34	20512.46
480.52	20772.25
480.70	21174.83
480.88	20872.90
481.06	21193.55
481.24	20999.29
481.41	21448.67
481.59	21750.60
481.77	21724.85
481.95	22038.48
482.13	22309.99
482.31	22178.92
482.49	22752.35
482.67	22710.22
482.85	22937.25
483.03	23393.65
483.21	23733.03
483.39	23447.49
483.57	23756.44
483.74	23695.58
483.92	24123.90
484.10	24222.20
484.28	24723.08
484.46	24606.05
484.64	25219.27
484.82	24739.46
485.00	25006.28
485.18	25488.43
485.35	25762.28
485.53	25617.16
485.71	26211.66
485.89	26534.65
486.07	25902.71
486.25	26312.30
486.43	26441.03
486.61	26852.97
486.78	27028.51
486.96	27414.69
487.14	28018.55
487.32	27501.29
487.50	28063.02
487.68	28261.97
487.85	28341.55
488.03	28868.17
488.21	29120.95
488.39	29303.51
488.57	29305.85
488.75	29666.29
488.92	29888.64
489.10	30443.35
489.28	30122.69
489.46	30946.56
489.64	30253.76
489.81	31030.82
489.99	31122.10
490.17	31496.59
490.35	31372.54
490.53	32112.15
490.70	31576.17
490.88	31730.64
491.06	32685.58
491.24	32526.42
491.41	32863.46
491.59	33106.88
491.77	33397.10
491.95	33247.31
492.13	33890.96
492.30	33715.42
492.48	33944.79
492.66	34143.74
492.84	34433.96
493.01	34838.87
493.19	34534.60
493.37	35171.23
493.54	34848.24
493.72	35227.40
493.90	35604.23
494.08	35728.28
494.25	36259.58
494.43	36355.54
494.61	36425.76
494.79	36758.11
494.96	36540.44
495.14	37085.79
495.32	37116.22
495.49	37432.19
495.67	37832.42
495.85	37954.13
496.02	37853.48
496.20	38307.55
496.38	38515.86
496.55	38323.93
496.73	39068.22
496.91	38969.92
497.09	39292.91
497.26	39651.02
497.44	39110.35
497.62	39571.44
497.79	40308.71
497.97	40076.99
498.14	40968.74
498.32	40449.14
498.50	40395.31
498.67	41130.23
498.85	41123.21
499.03	40996.82
499.20	41326.84
499.38	42103.90
499.56	41647.49
499.73	41848.78
499.91	42305.18
500.08	42274.76
500.26	41996.23
500.44	42387.10
500.61	42902.02
500.79	42642.22
500.97	43044.79
501.14	43370.13
501.32	43210.97
501.49	43248.42
501.67	43510.56
501.84	43531.62
502.02	43440.34
502.20	43880.36
502.37	43620.56
502.55	44304.00
502.72	44051.22
502.90	44486.56
503.07	43871.00
503.25	44437.41
503.43	44495.92
503.60	44912.54
503.78	45043.61
503.95	45261.28
504.13	45146.59
504.30	45399.37
504.48	45731.73
504.65	45897.91
504.83	45956.42
505.01	46541.55
505.18	46216.22
505.36	46417.50
505.53	46323.88
505.71	46162.39
505.88	46878.59
506.06	46295.80
506.23	47224.99
506.41	46981.57
506.58	47257.76
506.76	47056.47
506.93	47327.97
507.11	47442.66
507.28	47494.15
507.46	47892.04
507.63	47856.93
507.81	48156.52
507.98	47789.06
508.16	48315.68
508.33	47964.60
508.50	48381.21
508.68	48186.95
508.85	48725.27
509.03	49134.87
509.20	49179.34
509.38	48964.01
509.55	49130.19
509.73	49598.29
509.90	49284.66
510.08	49038.90
510.25	49389.98
510.42	49865.11
510.60	49932.99
510.77	49888.52
510.95	50195.13
511.12	50071.08
511.30	50251.30
511.47	50075.76
511.64	50087.46
511.82	50759.20
511.99	50646.85
512.17	50831.75
512.34	50564.93
512.51	50848.14
512.69	50880.91
512.86	51100.92
513.04	51351.35
513.21	51283.48
513.38	51634.56
513.56	51503.49
513.73	51440.29
513.90	51564.34
514.08	51400.50
514.25	51803.08
514.43	51889.68
514.60	51969.26
514.77	51707.12
514.95	52135.43
515.12	51789.03
515.29	51845.21
515.47	52362.46
515.64	52425.66
515.81	52467.79
515.99	52870.36
516.16	52912.49
516.33	52863.34
516.51	52767.38
516.68	52767.38
516.85	52608.22
517.03	52954.62
517.20	53518.69
517.37	53303.36
517.54	53385.28
517.72	53125.48
517.89	53490.60
518.06	53429.75
518.24	53345.49
518.41	53502.31
518.58	53422.73
518.75	53261.23
518.93	53975.09
519.10	53755.08
519.27	53853.39
519.45	53371.24
519.62	53806.58
519.79	53977.43
519.96	54391.71
520.14	54309.79
520.31	54330.86
520.48	54372.99
520.65	54553.21
520.83	54639.81
521.00	54492.35
521.17	54365.96
521.34	54700.66
521.52	55128.98
521.69	54829.39
521.86	55000.25
522.03	55084.51
522.20	55145.36
522.38	55131.32
522.55	55341.97
522.72	55075.15
522.89	55215.58
523.07	55629.85
523.24	55320.90
523.41	55531.55
523.58	55295.16
523.75	55674.32
523.92	55353.67
524.10	55592.40
524.27	55781.99
524.44	55749.22
524.61	56200.94
524.78	55999.66
524.96	55987.95
525.13	55777.31
525.30	56034.77
525.47	56229.03
525.64	56161.15
525.81	56346.06
525.98	56313.29
526.16	56310.95
526.33	56112.00
526.50	56713.52
526.67	56184.56
526.84	56385.85
527.01	56397.55
527.18	56608.20
527.36	56673.73
527.53	56886.72
527.70	56676.07
527.87	56926.51
528.04	56570.75
528.21	56851.61
528.38	56601.18
528.55	56825.87
528.72	56917.15
528.89	57015.45
529.07	56989.70
529.24	56947.57
529.41	57041.20
529.58	57076.30
529.75	57015.45
529.92	57188.65
530.09	57233.12
530.26	57315.04
530.43	57504.62
530.60	57226.10
530.77	57181.63
530.94	57478.88
531.11	57492.92
531.28	57736.34
531.46	57584.20
531.63	57790.17
531.80	57719.95
531.97	57939.96
532.14	57972.73
532.31	57797.19
532.48	57764.42
532.65	57888.47
532.82	58101.46
532.99	57989.11
533.16	57729.31
533.33	58181.04
533.50	58239.55
533.67	58253.59
533.84	58197.42
534.01	58045.29
534.18	57832.30
534.35	58361.26
534.52	58394.03
534.69	58389.34
534.86	58511.05
535.03	58618.72
535.20	58618.72
535.37	58443.18
535.54	58632.76
535.71	58302.74
535.88	58789.58
536.05	58424.45
536.22	58702.98
536.38	58843.41
536.55	58789.58
536.72	58939.37
536.89	58637.44
537.06	58740.42
537.23	58850.43
537.40	59040.01
537.57	58937.03
537.74	58946.39
537.91	59182.79
538.08	59168.74
538.25	58934.69
538.42	58951.07
538.59	59128.95
538.75	58941.71
538.92	59011.93
539.09	59145.34
539.26	59208.53
539.43	59262.36
539.60	59444.93
539.77	59236.62
539.94	59552.59
540.11	59473.01
540.28	59538.55
540.44	59451.95
540.61	59463.65
540.78	59491.74
540.95	59531.53
541.12	59458.97
541.29	59784.30
541.46	59571.32
541.62	59594.72
541.79	59838.14
541.96	59330.24
542.13	59590.04
542.30	59803.03
542.47	60018.36
542.63	60051.12
542.80	60121.34
542.97	60348.37
543.14	60198.58
543.31	60179.85
543.48	60161.13
543.64	60481.78
543.81	60416.25
543.98	60479.44
544.15	60430.29
544.32	60427.95
544.48	60385.82
544.65	60320.29
544.82	60214.96
544.99	60221.98
545.16	60217.30
545.32	60453.70
545.49	60727.54
545.66	60917.12
545.83	60650.30
546.00	60750.94
546.16	60671.37
546.33	60528.59
546.50	60456.04
546.67	60605.83
546.83	60397.52
547.00	60647.96
547.17	60973.30
547.34	60907.76
547.50	60961.59
547.67	61120.75
547.84	60949.89
548.00	61024.79
548.17	61057.56
548.34	60849.25
548.51	61092.66
548.67	61209.69
548.84	61347.78
549.01	61102.03
549.18	61036.49
549.34	61172.24
549.51	61268.20
549.68	61214.37
549.84	61153.52
550.01	61254.16
550.18	61120.75
550.34	61422.68
550.51	61352.46
550.68	61420.34
550.84	61305.65
551.01	61537.36
551.18	61209.69
551.34	61251.82
551.51	61453.11
551.68	61434.38
551.84	61553.75
552.01	61418.00
552.18	61640.35
552.34	61635.67
552.51	61628.65
552.68	61530.34
552.84	61535.02
553.01	61801.85
553.18	61776.10
553.34	61881.42
553.51	61687.16
553.67	61799.50
553.84	61921.21
554.01	61687.16
554.17	61757.38
554.34	61701.20
554.51	61726.95
554.67	61970.36
554.84	62042.92
555.00	61965.68
555.17	61890.79
555.33	62155.27
555.50	61972.70
555.67	61946.96
555.83	61949.30
556.00	62042.92
556.16	62087.39
556.33	62127.18
556.50	61970.36
556.66	62204.42
556.83	62230.16
556.99	62379.96
557.16	62293.36
557.32	62335.49
557.49	62307.40
557.65	61979.73
557.82	62094.41
557.98	62145.90
558.15	62358.89
558.32	62295.70
558.48	62384.64
558.65	62590.61
558.81	62513.37
558.98	62344.85
559.14	62372.94
559.31	62361.23
559.47	62335.49
559.64	62293.36
559.80	62391.66
559.97	62564.86
560.13	62574.22
560.30	62585.92
560.46	62726.36
560.63	62438.47
560.79	62630.40
560.96	62738.06
561.12	62478.26
561.29	62560.18
561.45	62496.98
561.61	62656.14
561.78	62562.52
561.94	62635.08
562.11	62770.83
562.27	62857.43
562.44	62693.59
562.60	62642.10
562.77	62672.52
562.93	62628.05
563.10	62859.77
563.26	62695.93
563.42	63089.14
563.59	62815.30
563.75	62649.12
563.92	62855.09
564.08	62578.90
564.24	62773.17
564.41	62770.83
564.57	62929.98
564.74	62988.50
564.90	62759.12
565.07	62848.06
565.23	62899.56
565.39	63009.56
565.56	62944.03
565.72	62941.69
565.88	63028.29
566.05	62726.36
566.21	62838.70
566.38	62756.78
566.54	63037.65
566.70	63238.93
566.87	63124.25
567.03	63194.46
567.19	63337.24
567.36	63093.82
567.52	63035.31
567.68	63039.99
567.85	63021.26
568.01	63077.44
568.17	63100.84
568.34	63070.42
568.50	63107.86
568.66	63154.68
568.83	63171.06
568.99	62967.43
569.15	63166.38
569.32	63096.16
569.48	63154.68
569.64	62986.16
569.81	63068.08
569.97	63063.39
570.13	63208.51
570.30	63255.32
570.46	63229.57
570.62	63089.14
570.78	62955.73
570.95	63114.89
571.11	63157.02
571.27	62981.48
571.43	62993.18
571.60	63271.70
571.76	63229.57
571.92	63320.85
572.09	63423.84
572.25	63362.98
572.41	63215.53
572.57	63128.93
572.74	63398.09
572.90	63135.95
573.06	63304.47
573.22	63264.68
573.38	63440.22
573.55	63419.16
573.71	63475.33
573.87	63554.91
574.03	63334.90
574.20	63220.21
574.36	63196.80
574.52	63444.90
574.68	63299.79
574.84	63248.30
575.01	63526.82
575.17	63281.06
575.33	63517.46
575.49	63313.83
575.65	63430.86
575.82	63447.24
575.98	63320.85
576.14	63477.67
576.30	63299.79
576.46	63582.99
576.62	63454.26
576.79	63281.06
576.95	63430.86
577.11	63442.56
577.27	63571.29
577.43	63400.43
577.59	63416.82
577.75	63423.84
577.92	63412.13
578.08	63302.13
578.24	63374.69
578.40	63505.76
578.56	63678.96
578.72	63723.43
578.88	63730.45
579.04	63707.04
579.21	63428.52
579.37	63561.93
579.53	63594.70
579.69	63386.39
579.85	63592.36
580.01	63536.18
580.17	63461.29
580.33	63566.61
580.49	63655.55
580.65	63756.19
580.82	63746.83
580.98	63508.10
581.14	63508.10
581.30	63540.86
581.46	63330.22
581.62	63533.84
581.78	63472.99
581.94	63795.98
582.10	63444.90
582.26	63767.90
582.42	63709.38
582.58	63702.36
582.74	63587.67
582.90	63636.83
583.06	63674.27
583.22	63566.61
583.38	63529.16
583.54	63477.67
583.70	63407.45
583.86	63573.63
584.02	63732.79
584.18	63728.11
584.34	63746.83
584.50	63749.17
584.66	63730.45
584.82	63550.23
584.98	63646.19
585.14	63512.78
585.30	63587.67
585.46	63660.23
585.62	63721.08
585.78	63779.60
585.94	63468.31
586.10	63697.68
586.26	63578.31
586.42	63707.04
586.58	63866.20
586.74	63608.74
586.90	63650.87
587.06	63395.75
587.22	63772.58
587.38	63688.32
587.54	63910.67
587.70	63678.96
587.86	63870.88
588.02	63859.18
588.18	64074.51
588.34	63852.15
588.49	63781.94
588.65	63707.04
