SpectraSuite Data File
++++++++++++++++++++++++++++++++++++
Date: Fri Oct 04 11:48:46 GMT-05:00 2013
User: price-jones
Dark Spectrum Present: No
Reference Spectrum Present: No
Number of Sampled Component Spectra: 1
Spectrometers: USB2+H05261
Integration Time (usec): 100000 (USB2+H05261)
Spectra Averaged: 1 (USB2+H05261)
Boxcar Smoothing: 0 (USB2+H05261)
Correct for Electrical Dark: No (USB2+H05261)
Strobe/Lamp Enabled: No (USB2+H05261)
Correct for Detector Non-linearity: No (USB2+H05261)
Correct for Stray Light: No (USB2+H05261)
Number of Pixels in Processed Spectrum: 2048
>>>>>Begin Processed Spectral Data<<<<<
365.73	0.00
365.92	0.00
366.12	0.00
366.32	0.00
366.52	0.00
366.72	0.00
366.91	0.00
367.11	0.00
367.31	0.00
367.51	0.00
367.70	2.34
367.90	0.00
368.10	0.00
368.30	0.00
368.49	0.00
368.69	0.00
368.89	0.00
369.09	0.00
369.28	0.00
369.48	0.00
369.68	0.00
369.87	4.68
370.07	0.00
370.27	0.00
370.47	70.22
370.66	369.80
370.86	503.22
371.06	484.49
371.25	477.47
371.45	437.68
371.65	606.20
371.84	496.19
372.04	493.85
372.24	418.96
372.44	543.00
372.63	540.66
372.83	566.41
373.03	559.39
373.22	524.28
373.42	641.31
373.62	587.47
373.81	660.03
374.01	613.22
374.21	685.78
374.40	629.60
374.60	620.24
374.79	648.33
374.99	575.77
375.19	716.20
375.38	657.69
375.58	589.82
375.78	697.48
375.97	601.52
376.17	758.33
376.37	699.82
376.56	601.52
376.76	779.40
376.95	622.58
377.15	751.31
377.35	697.48
377.54	634.29
377.74	720.88
377.93	674.07
378.13	650.67
378.33	781.74
378.52	676.41
378.72	791.10
378.91	734.93
379.11	716.20
379.31	814.51
379.50	840.25
379.70	805.14
379.89	849.61
380.09	711.52
380.28	793.44
380.48	814.51
380.68	847.27
380.87	788.76
381.07	837.91
381.26	781.74
381.46	805.14
381.65	851.96
381.85	922.17
382.04	805.14
382.24	863.66
382.43	842.59
382.63	849.61
382.83	910.47
383.02	973.66
383.22	950.26
383.41	901.11
383.61	936.21
383.80	905.79
384.00	880.04
384.19	908.13
384.39	966.64
384.58	938.55
384.78	938.55
384.97	992.39
385.17	905.79
385.36	987.71
385.56	1034.52
385.75	997.07
385.95	1011.11
386.14	1125.80
386.34	1039.20
386.53	1032.18
386.72	1055.58
386.92	1020.47
387.11	1067.28
387.31	1107.07
387.50	1081.33
387.70	1034.52
387.89	1163.25
388.09	1055.58
388.28	1219.42
388.48	1071.97
388.67	1135.16
388.86	1135.16
389.06	1165.59
389.25	1198.35
389.45	1132.82
389.64	1160.91
389.84	1121.12
390.03	1160.91
390.22	1249.85
390.42	1289.64
390.61	1282.61
390.81	1142.18
391.00	1196.01
391.19	1245.16
391.39	1217.08
391.58	1324.74
391.78	1221.76
391.97	1277.93
392.16	1261.55
392.36	1394.96
392.55	1315.38
392.75	1390.28
392.94	1282.61
393.13	1378.58
393.33	1310.70
393.52	1338.79
393.71	1385.60
393.91	1434.75
394.10	1413.68
394.29	1362.19
394.49	1537.73
394.68	1448.79
394.88	1315.38
395.07	1430.07
395.26	1509.65
395.46	1483.90
395.65	1507.30
395.84	1561.14
396.04	1586.88
396.23	1481.56
396.42	1481.56
396.62	1504.96
396.81	1593.90
397.00	1650.08
397.19	1610.29
397.39	1657.10
397.58	1647.74
397.77	1706.25
397.97	1785.83
398.16	1689.87
398.35	1645.40
398.55	1706.25
398.74	1778.81
398.93	1778.81
399.12	1687.53
399.32	1720.29
399.51	1790.51
399.70	1900.52
399.90	1762.42
400.09	1842.00
400.28	1884.13
400.47	1947.33
400.67	1905.20
400.86	1919.24
401.05	1834.98
401.24	1909.88
401.44	1881.79
401.63	1930.94
401.82	1942.64
402.01	1970.73
402.21	2120.53
402.40	2052.65
402.59	2120.53
402.78	2111.16
402.97	1994.14
403.17	2057.33
403.36	2195.42
403.55	2200.10
403.74	2136.91
403.93	2195.42
404.13	2293.72
404.32	2235.21
404.51	2193.08
404.70	2256.28
404.89	2347.56
405.09	2464.58
405.28	2300.75
405.47	2251.60
405.66	2497.35
405.85	2511.39
406.05	2382.67
406.24	2448.20
406.43	2452.88
406.62	2520.76
406.81	2682.25
407.00	2417.77
407.20	2385.01
407.39	2530.12
407.58	2555.86
407.77	2567.57
407.96	2579.27
408.15	2759.49
408.34	2635.44
408.54	2703.32
408.73	2644.81
408.92	2806.30
409.11	2836.73
409.30	2799.28
409.49	2754.81
409.68	2818.00
409.87	2825.03
410.07	2813.32
410.26	3014.61
410.45	3019.29
410.64	2974.82
410.83	3033.33
411.02	3049.72
411.21	3129.30
411.40	3084.83
411.59	3220.58
411.78	3178.45
411.98	3180.79
412.17	3246.32
412.36	3141.00
412.55	3309.52
412.74	3482.72
412.93	3330.58
413.12	3279.09
413.31	3414.84
413.50	3480.38
413.69	3410.16
413.88	3475.70
414.07	3517.83
414.26	3510.80
414.45	3588.04
414.64	3691.02
414.83	3669.96
415.02	3728.47
415.22	3735.50
415.41	3761.24
415.60	3822.09
415.79	3796.35
415.98	3887.63
416.17	3978.91
416.36	3831.46
416.55	4018.70
416.74	4081.89
416.93	4107.64
417.12	4121.68
417.31	4091.26
417.50	4023.38
417.69	4198.92
417.88	4252.75
418.07	4262.12
418.26	4255.09
418.45	4285.52
418.64	4512.55
418.83	4503.19
419.02	4329.99
419.21	4444.68
419.39	4561.70
419.58	4425.95
419.77	4528.94
419.96	4484.47
420.15	4655.33
420.34	4552.34
420.53	4599.15
420.72	4713.84
420.91	4828.53
421.10	4699.80
421.29	4765.33
421.48	4779.37
421.67	4795.76
421.86	4662.35
422.05	4786.40
422.24	4758.31
422.43	4779.37
422.61	4922.15
422.80	4959.60
422.99	4882.36
423.18	5083.64
423.37	4908.10
423.56	4912.78
423.75	4887.04
423.94	4954.91
424.13	4643.62
424.32	4760.65
424.50	4908.10
424.69	5046.20
424.88	5118.75
425.07	4999.38
425.26	4999.38
425.45	4938.53
425.64	5015.77
425.83	4987.68
426.01	4961.94
426.20	5015.77
426.39	5128.11
426.58	4870.65
426.77	5064.92
426.96	5153.86
427.15	5109.39
427.33	5111.73
427.52	5149.18
427.71	5214.71
427.90	5341.10
428.09	5338.76
428.28	5357.49
428.46	5327.06
428.65	5432.38
428.84	5528.35
429.03	5617.29
429.22	5207.69
429.40	5420.68
429.59	5495.58
429.78	5193.65
429.97	5296.63
430.16	5195.99
430.34	5418.34
430.53	5671.12
430.72	5661.76
430.91	5558.77
431.10	5434.72
431.28	5762.40
431.47	5692.18
431.66	5912.19
431.85	5710.91
432.03	6024.54
432.22	5942.62
432.41	5937.94
432.60	5933.26
432.79	5902.83
432.97	5982.41
433.16	6080.71
433.35	6033.90
433.54	6085.39
433.72	6108.80
433.91	6214.12
434.10	6232.85
434.28	5893.47
434.47	6101.78
434.66	6265.61
434.85	6235.19
435.03	6183.70
435.22	6305.40
435.41	6544.14
435.59	6415.41
435.78	6321.79
435.97	6539.46
436.16	6726.70
436.34	6590.95
436.53	6588.61
436.72	6663.51
436.90	6530.09
437.09	6544.14
437.28	6593.29
437.46	6640.10
437.65	6579.25
437.84	6850.75
438.02	6759.47
438.21	6897.56
438.40	6829.68
438.58	7007.56
438.77	7150.34
438.96	7066.08
439.14	7105.87
439.33	7248.64
439.52	7201.83
439.70	7407.80
439.89	7475.67
440.08	7396.09
440.26	7447.58
440.45	7468.65
440.63	7569.29
440.82	7571.63
441.01	7658.23
441.19	7761.22
441.38	8053.78
441.57	7875.90
441.75	7749.51
441.94	7927.39
442.12	7997.61
442.31	8187.19
442.50	7969.52
442.68	8140.38
442.87	7960.16
443.05	8212.94
443.24	8386.14
443.43	8414.23
443.61	8290.18
443.80	8514.87
443.98	8198.90
444.17	7826.75
444.35	8360.39
444.54	8414.23
444.73	8257.41
444.91	8379.12
445.10	8182.51
445.28	8444.65
445.47	8439.97
445.65	8470.40
445.84	8549.98
446.02	8500.83
446.21	8318.26
446.39	8339.33
446.58	8683.39
446.77	8713.81
446.95	8528.91
447.14	8514.87
447.32	8636.58
447.51	8542.96
447.69	8559.34
447.88	8624.87
448.06	8699.77
448.25	8655.30
448.43	8678.71
448.62	8767.65
448.80	8692.75
448.99	8889.35
449.17	8709.13
449.36	8739.56
449.54	8997.02
449.73	8992.34
449.91	9095.32
450.10	8959.57
450.28	9081.28
450.46	9331.72
450.65	9137.45
450.83	9289.59
451.02	9109.36
451.20	9263.84
451.39	9394.91
451.57	9146.81
451.76	9385.55
451.94	9537.68
452.13	9607.90
452.31	9540.02
452.49	9289.59
452.68	9528.32
452.86	9640.67
453.05	9455.76
453.23	9692.16
453.42	9458.10
453.60	9570.45
453.78	9626.62
453.97	9645.35
454.15	9633.64
454.34	9465.13
454.52	9738.97
454.70	9811.53
454.89	9837.27
455.07	9799.82
455.26	10108.77
455.44	10101.75
455.62	9980.04
455.81	10157.92
455.99	10211.76
456.17	10244.52
456.36	10277.29
456.54	10314.74
456.73	10497.30
456.91	10733.70
457.09	10513.69
457.28	10799.23
457.46	10445.81
457.64	10743.06
457.83	10834.34
458.01	10595.61
458.19	10860.09
458.38	10686.89
458.56	10892.85
458.74	11068.39
458.93	10597.95
459.11	10714.97
459.29	10911.58
459.48	10853.06
459.66	10937.32
459.84	11215.85
460.03	11239.25
460.21	11220.53
460.39	11080.10
460.57	11030.94
460.76	11178.40
460.94	11412.45
461.12	11250.96
461.31	11356.28
461.49	11281.38
461.67	11435.86
461.85	11782.26
462.04	11262.66
462.22	12231.64
462.40	11669.91
462.59	11667.57
462.77	11667.57
462.95	11836.09
463.13	11768.21
463.32	12060.78
463.50	11892.26
463.68	11995.25
463.86	12086.53
464.05	11969.50
464.23	11829.07
464.41	12051.42
464.59	11887.58
464.78	12313.56
464.96	12348.67
465.14	12187.17
465.32	12554.63
465.50	12458.67
465.69	12102.91
465.87	12360.37
466.05	12315.90
466.23	12292.49
466.41	12287.81
466.60	12716.13
466.78	12372.07
466.96	12594.42
467.14	12430.59
467.32	12533.57
467.51	12479.74
467.69	12475.06
467.87	12758.26
468.05	12615.49
468.23	12683.36
468.41	12718.47
468.60	13015.72
468.78	12954.87
468.96	13022.74
469.14	13099.98
469.32	13348.08
469.50	12879.97
469.69	13310.63
469.87	13579.79
470.05	13547.02
470.23	13385.52
470.41	13483.83
470.59	13451.06
470.77	13582.13
470.95	13427.65
471.14	13673.41
471.32	13453.40
471.50	13717.88
471.68	13844.27
471.86	14097.05
472.04	14122.79
472.22	14113.43
472.40	13888.74
472.58	14150.88
472.77	14293.65
472.95	14590.90
473.13	14815.59
473.31	14548.77
473.49	14342.80
473.67	14434.08
473.85	14431.74
474.03	14775.80
474.21	14883.47
474.39	14806.23
474.57	15227.53
474.75	15124.54
474.93	15494.35
475.12	15154.97
475.30	15440.51
475.48	15180.71
475.66	15318.81
475.84	15602.01
476.02	15768.19
476.20	15620.74
476.38	15967.13
476.56	16407.16
476.74	16322.90
476.92	16123.95
477.10	16149.70
477.28	16617.80
477.46	16547.59
477.64	16765.26
477.82	17053.14
478.00	17088.25
478.18	17245.07
478.36	17444.01
478.54	17628.92
478.72	17575.08
478.90	17951.91
479.08	17771.69
479.26	17895.74
479.44	18403.63
479.62	18319.37
479.80	18361.50
479.98	18420.02
480.16	18794.50
480.34	18663.43
480.52	19110.47
480.70	19199.41
480.88	18768.76
481.06	19288.35
481.24	19262.61
481.41	19426.45
481.59	19796.25
481.77	20039.67
481.95	20126.27
482.13	20156.69
482.31	20257.34
482.49	20673.95
482.67	20650.55
482.85	21102.27
483.03	21298.88
483.21	21214.62
483.39	21259.09
483.57	21596.12
483.74	21675.70
483.92	21935.50
484.10	21694.43
484.28	22136.79
484.46	22539.36
484.64	22651.70
484.82	22787.46
485.00	22623.62
485.18	23384.29
485.35	23990.49
485.53	23426.42
485.71	23761.12
485.89	23803.25
486.07	23789.20
486.25	24140.29
486.43	24163.69
486.61	24465.62
486.78	24961.81
486.96	25006.28
487.14	25221.61
487.32	25565.67
487.50	25413.54
487.68	25539.93
487.85	26129.74
488.03	26766.37
488.21	26295.92
488.39	26621.25
488.57	26862.33
488.75	26998.08
488.92	27311.71
489.10	27374.91
489.28	27503.64
489.46	27924.93
489.64	27999.83
489.81	28493.68
489.99	28348.57
490.17	28472.62
490.35	28964.13
490.53	29132.65
490.70	29380.74
490.88	29134.99
491.06	29790.34
491.24	29556.28
491.41	29984.60
491.59	30256.11
491.77	29965.88
491.95	30132.06
492.13	30422.28
492.30	30838.90
492.48	30848.26
492.66	31299.98
492.84	31236.79
493.01	31529.36
493.19	31686.17
493.37	31974.06
493.54	32086.40
493.72	32308.76
493.90	32313.44
494.08	32329.82
494.25	33057.73
494.43	32994.53
494.61	33453.28
494.79	33312.84
494.96	33095.18
495.14	33347.95
495.32	33991.60
495.49	34061.82
495.67	34614.18
495.85	34614.18
496.02	34962.92
496.20	35056.54
496.38	35086.97
496.55	34948.88
496.73	36095.74
496.91	35775.09
497.09	35503.59
497.26	36259.58
497.44	35732.96
497.62	36182.34
497.79	36392.99
497.97	36559.17
498.14	36971.10
498.32	37205.16
498.50	37118.56
498.67	37691.99
498.85	37539.85
499.03	37408.78
499.20	37640.50
499.38	37916.68
499.56	38380.10
499.73	38459.68
499.91	38370.74
500.08	38686.71
500.26	38810.76
500.44	38370.74
500.61	38934.81
500.79	39089.29
500.97	39140.78
501.14	39854.64
501.32	39672.08
501.49	39421.64
501.67	39269.51
501.84	39494.20
502.02	39974.01
502.20	40048.91
502.37	40779.15
502.55	40456.16
502.72	40364.88
502.90	40999.16
503.07	40676.17
503.25	40533.40
503.43	40439.78
503.60	41497.70
503.78	41663.88
503.95	40868.09
504.13	41581.96
504.30	41446.21
504.48	41017.89
504.65	41680.26
504.83	42337.95
505.01	42768.61
505.18	42164.75
505.36	42693.71
505.53	42391.78
505.71	42670.31
505.88	42574.34
506.06	42777.97
506.23	43206.29
506.41	42895.00
506.58	43328.00
506.76	43175.86
506.93	43505.88
507.11	43391.19
507.28	43973.98
507.46	43503.54
507.63	44224.42
507.81	43894.41
507.98	44076.97
508.16	44006.75
508.33	44566.14
508.50	44584.86
508.68	44650.40
508.85	45270.64
509.03	45045.95
509.20	45439.16
509.38	45504.70
509.55	45811.31
509.73	45720.02
509.90	45455.54
510.08	45469.59
510.25	45656.83
510.42	46064.08
510.60	46099.19
510.77	46375.37
510.95	46260.69
511.12	46597.73
511.30	46293.46
511.47	46763.90
511.64	46754.54
511.82	47112.64
511.99	46756.88
512.17	47344.36
512.34	46997.96
512.51	47220.31
512.69	47239.03
512.86	47917.79
513.04	47880.34
513.21	48062.90
513.38	48460.79
513.56	48027.79
513.73	48060.56
513.90	47894.38
514.08	47775.02
514.25	48484.20
514.43	48554.41
514.60	48470.15
514.77	48687.82
514.95	48821.23
515.12	48353.13
515.29	48924.22
515.47	48945.28
515.64	49106.78
515.81	49198.06
515.99	49556.16
516.16	49532.76
516.33	49778.51
516.51	49827.66
516.68	49378.28
516.85	49556.16
517.03	49741.06
517.20	50138.96
517.37	50230.24
517.54	50108.53
517.72	50099.17
517.89	49890.86
518.06	50277.05
518.24	50298.11
518.41	50183.43
518.58	50431.52
518.75	50248.96
518.93	50686.64
519.10	50777.92
519.27	50979.21
519.45	50670.26
519.62	50986.23
519.79	51084.53
519.96	51112.62
520.14	51313.90
520.31	50997.93
520.48	51480.08
520.65	51257.73
520.83	51660.30
521.00	51484.76
521.17	51529.23
521.34	51826.48
521.52	51950.53
521.69	51798.40
521.86	51929.47
522.03	51821.80
522.20	52170.54
522.38	52067.56
522.55	52367.15
522.72	52079.26
522.89	52278.21
523.07	52767.38
523.24	52406.94
523.41	52633.97
523.58	52278.21
523.75	52624.60
523.92	52861.00
524.10	52652.69
524.27	53144.20
524.44	53132.50
524.61	53389.96
524.78	53198.04
524.96	53073.99
525.13	52992.07
525.30	53188.67
525.47	53401.66
525.64	53329.11
525.81	53481.24
525.98	53757.42
526.16	53544.44
526.33	53757.42
526.50	53591.25
526.67	53495.28
526.84	53703.59
527.01	53570.18
527.18	53869.77
527.36	54052.33
527.53	54113.19
527.70	54314.47
527.87	54209.15
528.04	54115.53
528.21	54244.26
528.38	54321.49
528.55	54246.60
528.72	54691.30
528.89	54548.53
529.07	54522.78
529.24	54326.17
529.41	54628.10
529.58	54277.02
529.75	54394.05
529.92	54738.11
530.09	54667.89
530.26	54899.61
530.43	54759.17
530.60	54574.27
530.77	54686.62
530.94	54848.11
531.11	55028.34
531.28	54829.39
531.46	54616.40
531.63	55147.70
531.80	55346.65
531.97	55297.50
532.14	55213.24
532.31	55192.17
532.48	55276.43
532.65	55267.07
532.82	55173.45
532.99	55545.59
533.16	55295.16
533.33	55601.77
533.50	55831.14
533.67	55601.77
533.84	55449.63
534.01	55351.33
534.18	55735.18
534.35	55976.25
534.52	55936.46
534.69	56151.79
534.86	56046.47
535.03	56130.73
535.20	56299.25
535.37	56126.05
535.54	56294.56
535.71	55772.63
535.88	55987.95
536.05	55957.53
536.22	56280.52
536.38	56530.96
536.55	56509.89
536.72	56383.51
536.89	56275.84
537.06	56545.00
537.23	56406.91
537.40	56320.31
537.57	56357.76
537.74	56505.21
537.91	56912.47
538.08	56903.10
538.25	56537.98
538.42	56797.78
538.59	56938.21
538.75	56633.94
538.92	56715.86
539.09	56975.66
539.26	56811.82
539.43	57034.17
539.60	56914.81
539.77	56825.87
539.94	57205.03
540.11	57076.30
540.28	56961.62
540.44	56683.09
540.61	56919.49
540.78	56961.62
540.95	57310.36
541.12	57230.78
541.29	57265.89
541.46	57148.86
541.62	57261.21
541.79	57425.04
541.96	57116.09
542.13	57265.89
542.30	57513.98
542.47	57413.34
542.63	57797.19
542.80	57673.14
542.97	57869.75
543.14	57925.92
543.31	57815.91
543.48	57584.20
543.64	57996.13
543.81	57944.64
543.98	58080.39
544.15	57911.88
544.32	58108.48
544.48	58122.52
544.65	57836.98
544.82	58106.14
544.99	57818.25
545.16	58237.21
545.32	57918.90
545.49	58291.04
545.66	58398.71
545.83	58396.37
546.00	58506.37
546.16	58323.81
546.33	58080.39
546.50	58007.84
546.67	58330.83
546.83	58155.29
547.00	58431.47
547.17	58431.47
547.34	58494.67
547.50	58443.18
547.67	58714.68
547.84	58501.69
548.00	58588.29
548.17	58735.74
548.34	58611.70
548.51	58712.34
548.67	58927.67
548.84	58995.54
549.01	58710.00
549.18	58635.10
549.34	58789.58
549.51	58775.53
549.68	58784.90
549.84	58796.60
550.01	58859.79
550.18	58864.47
550.34	59147.68
550.51	59135.98
550.68	59241.30
550.84	58948.73
551.01	59192.15
551.18	58904.26
551.34	58892.56
551.51	59164.06
551.68	59257.68
551.84	59229.60
552.01	59044.69
552.18	59332.58
552.34	59086.82
552.51	59210.87
552.68	59367.69
552.84	59451.95
553.01	59421.52
553.18	59077.46
553.34	59681.32
553.51	59400.46
553.67	59538.55
553.84	59737.49
554.01	59554.93
554.17	59662.60
554.34	59421.52
554.51	59348.96
554.67	59634.51
554.84	59742.17
555.00	59627.49
555.17	59700.04
555.33	59828.77
555.50	59641.53
555.67	59447.27
555.83	59522.16
556.00	59746.86
556.16	59796.01
556.33	59629.83
556.50	59751.54
556.66	60041.76
556.83	59784.30
556.99	60111.98
557.16	60013.68
557.32	59863.88
557.49	59945.80
557.65	59903.67
557.82	59707.07
557.98	60032.40
558.15	60055.81
558.32	60048.78
558.48	59980.91
558.65	60079.21
558.81	60214.96
558.98	60121.34
559.14	60011.34
559.31	59999.63
559.47	60233.69
559.64	59980.91
559.80	60175.17
559.97	60257.09
560.13	60193.90
560.30	60378.80
560.46	60296.88
560.63	60402.21
560.79	60530.93
560.96	60233.69
561.12	60088.57
561.29	60156.45
561.45	60573.06
561.61	60465.40
561.78	60456.04
561.94	60193.90
562.11	60264.11
562.27	60257.09
562.44	60360.08
562.60	60210.28
562.77	60460.72
562.93	60484.12
563.10	60643.28
563.26	60519.23
563.42	60711.16
563.59	60633.92
563.75	60463.06
563.92	60535.62
564.08	60313.26
564.24	60362.42
564.41	60439.65
564.57	60411.57
564.74	60554.34
564.90	60449.02
565.07	60727.54
565.23	60884.36
565.39	60736.90
565.56	60631.58
565.72	60397.52
565.88	60629.24
566.05	60434.97
566.21	60591.79
566.38	60657.32
566.54	60743.92
566.70	61022.45
566.87	60685.41
567.03	60858.61
567.19	60949.89
567.36	60715.84
567.52	60554.34
567.68	60870.31
567.85	60645.62
568.01	60842.23
568.17	60729.88
568.34	61111.39
568.50	60896.06
568.66	60970.96
568.83	60874.99
568.99	60786.05
569.15	60968.61
569.32	60793.07
569.48	60669.03
569.64	60816.48
569.81	60921.80
569.97	60863.29
570.13	61010.74
570.30	61003.72
570.46	60928.83
570.62	60802.44
570.78	61038.83
570.95	60736.90
571.11	60982.66
571.27	60769.67
571.43	60903.08
571.60	61102.03
571.76	60996.70
571.92	60935.85
572.09	61013.08
572.25	61095.00
572.41	61104.37
572.57	61179.26
572.74	61099.68
572.90	60954.57
573.06	61069.26
573.22	61015.43
573.38	61286.93
573.55	61165.22
573.71	61256.50
573.87	61305.65
574.03	61052.87
574.20	61242.46
574.36	60945.21
574.52	60999.04
574.68	60954.57
574.84	61001.38
575.01	61350.12
575.17	61254.16
575.33	61104.37
575.49	61038.83
575.65	61216.71
575.82	61095.00
575.98	61305.65
576.14	61389.91
576.30	61293.95
576.46	61076.28
576.62	61212.03
576.79	61109.05
576.95	61230.75
577.11	61254.16
577.27	61162.88
577.43	61497.58
577.59	61176.92
577.75	61340.76
577.92	61188.63
578.08	60907.76
578.24	61324.38
578.40	61174.58
578.56	61254.16
578.72	61076.28
578.88	61373.53
579.04	61432.04
579.21	61155.86
579.37	61247.14
579.53	61345.44
579.69	61137.13
579.85	61160.54
580.01	61326.72
580.17	61207.35
580.33	61333.74
580.49	61265.86
580.65	61495.24
580.82	61572.47
580.98	61350.12
581.14	61247.14
581.30	61296.29
581.46	61141.81
581.62	61205.01
581.78	61160.54
581.94	61368.85
582.10	61556.09
582.26	61315.01
582.42	61338.42
582.58	61406.30
582.74	61406.30
582.90	61329.06
583.06	61476.51
583.22	61396.93
583.38	61333.74
583.54	61410.98
583.70	61331.40
583.86	61315.01
584.02	61375.87
584.18	61593.54
584.34	61478.85
584.50	61471.83
584.66	61478.85
584.82	61324.38
584.98	61450.77
585.14	61455.45
585.30	61303.31
585.46	61284.59
585.62	61476.51
585.78	61663.75
585.94	61188.63
586.10	61413.32
586.26	61546.73
586.42	61511.62
586.58	61691.84
586.74	61389.91
586.90	61556.09
587.06	61256.50
587.22	61420.34
587.38	61272.88
587.54	61455.45
587.70	61485.87
587.86	61719.93
588.02	61516.30
588.18	61565.45
588.34	61565.45
588.49	61406.30
588.65	61291.61
588.81	61455.45
588.97	61525.66
589.13	61464.81
