SpectraSuite Data File
++++++++++++++++++++++++++++++++++++
Date: Fri Oct 04 11:48:27 GMT-05:00 2013
User: price-jones
Dark Spectrum Present: No
Reference Spectrum Present: No
Number of Sampled Component Spectra: 1
Spectrometers: USB2+H05261
Integration Time (usec): 100000 (USB2+H05261)
Spectra Averaged: 1 (USB2+H05261)
Boxcar Smoothing: 0 (USB2+H05261)
Correct for Electrical Dark: No (USB2+H05261)
Strobe/Lamp Enabled: No (USB2+H05261)
Correct for Detector Non-linearity: No (USB2+H05261)
Correct for Stray Light: No (USB2+H05261)
Number of Pixels in Processed Spectrum: 2048
>>>>>Begin Processed Spectral Data<<<<<
365.73	32.77
365.92	32.77
366.12	32.77
366.32	0.00
366.52	0.00
366.72	0.00
366.91	0.00
367.11	0.00
367.31	0.00
367.51	0.00
367.70	0.00
367.90	0.00
368.10	0.00
368.30	0.00
368.49	0.00
368.69	35.11
368.89	9.36
369.09	0.00
369.28	0.00
369.48	0.00
369.68	0.00
369.87	0.00
370.07	70.22
370.27	35.11
370.47	93.62
370.66	222.35
370.86	212.99
371.06	262.14
371.25	325.33
371.45	222.35
371.65	283.20
371.84	205.97
372.04	294.91
372.24	358.10
372.44	327.68
372.63	322.99
372.83	393.21
373.03	306.61
373.22	334.70
373.42	299.59
373.62	353.42
373.81	372.15
374.01	379.17
374.21	379.17
374.40	318.31
374.60	369.80
374.79	341.72
374.99	339.38
375.19	299.59
375.38	388.53
375.58	355.76
375.78	442.36
375.97	458.74
376.17	449.38
376.37	301.93
376.56	402.57
376.76	390.87
376.95	337.04
377.15	428.32
377.35	390.87
377.54	344.06
377.74	461.09
377.93	416.62
378.13	299.59
378.33	397.89
378.52	388.53
378.72	489.17
378.91	479.81
379.11	400.23
379.31	393.21
379.50	411.93
379.70	430.66
379.89	433.00
380.09	379.17
380.28	423.64
380.48	475.13
380.68	409.59
380.87	365.12
381.07	465.77
381.26	383.85
381.46	435.34
381.65	475.13
381.85	428.32
382.04	423.64
382.24	470.45
382.43	442.36
382.63	425.98
382.83	442.36
383.02	449.38
383.22	461.09
383.41	465.77
383.61	414.27
383.80	479.81
384.00	596.84
384.19	465.77
384.39	461.09
384.58	552.37
384.78	566.41
384.97	465.77
385.17	524.28
385.36	498.53
385.56	557.05
385.75	451.72
385.95	479.81
386.14	449.38
386.34	458.74
386.53	507.90
386.72	578.11
386.92	524.28
387.11	521.94
387.31	608.54
387.50	531.30
387.70	587.47
387.89	524.28
388.09	531.30
388.28	580.45
388.48	568.75
388.67	629.60
388.86	568.75
389.06	594.50
389.25	557.05
389.45	545.34
389.64	580.45
389.84	559.39
390.03	643.65
390.22	594.50
390.42	678.76
390.61	582.79
390.81	596.84
391.00	601.52
391.19	653.01
391.39	592.16
391.58	634.29
391.78	580.45
391.97	681.10
392.16	664.71
392.36	699.82
392.55	662.37
392.75	730.25
392.94	685.78
393.13	755.99
393.33	645.99
393.52	716.20
393.71	765.36
393.91	702.16
394.10	741.95
394.29	734.93
394.49	669.39
394.68	702.16
394.88	725.57
395.07	835.57
395.26	779.40
395.46	767.70
395.65	861.32
395.84	784.08
396.04	844.93
396.23	875.36
396.42	833.23
396.62	688.12
396.81	821.53
397.00	802.80
397.19	861.32
397.39	826.21
397.58	880.04
397.77	840.25
397.97	931.53
398.16	847.27
398.35	929.19
398.55	856.64
398.74	1039.20
398.93	924.51
399.12	938.55
399.32	861.32
399.51	952.60
399.70	847.27
399.90	950.26
400.09	915.15
400.28	1004.09
400.47	992.39
400.67	1078.99
400.86	1032.18
401.05	992.39
401.24	987.71
401.44	1020.47
401.63	992.39
401.82	976.00
402.01	971.32
402.21	1008.77
402.40	1036.86
402.59	1064.94
402.78	1102.39
402.97	1086.01
403.17	1207.72
403.36	1074.31
403.55	1074.31
403.74	1196.01
403.93	1245.16
404.13	1144.52
404.32	1144.52
404.51	1102.39
404.70	1252.19
404.89	1231.12
405.09	1284.95
405.28	1224.10
405.47	1193.67
405.66	1308.36
405.85	1345.81
406.05	1249.85
406.24	1233.46
406.43	1266.23
406.62	1313.04
406.81	1406.66
407.00	1308.36
407.20	1380.92
407.39	1348.15
407.58	1357.51
407.77	1341.13
407.96	1500.28
408.15	1416.02
408.34	1362.19
408.54	1338.79
408.73	1411.34
408.92	1430.07
409.11	1530.71
409.30	1474.54
409.49	1530.71
409.68	1519.01
409.87	1533.05
410.07	1469.86
410.26	1514.33
410.45	1572.84
410.64	1561.14
410.83	1600.93
411.02	1558.80
411.21	1659.44
411.40	1687.53
411.59	1689.87
411.78	1696.89
411.98	1666.46
412.17	1678.16
412.36	1540.07
412.55	1741.36
412.74	1846.68
412.93	1827.96
413.12	1783.49
413.31	1874.77
413.50	1827.96
413.69	1898.17
413.88	1935.62
414.07	1816.26
414.26	1926.26
414.45	1839.66
414.64	2029.24
414.83	1994.14
415.02	1952.01
415.22	2026.90
415.41	2108.82
415.60	2062.01
415.79	2186.06
415.98	2188.40
416.17	2120.53
416.36	2062.01
416.55	2069.03
416.74	2197.76
416.93	2162.66
417.12	2172.02
417.31	2176.70
417.50	2209.47
417.69	2253.94
417.88	2275.00
418.07	2246.91
418.26	2375.64
418.45	2385.01
418.64	2476.29
418.83	2338.20
419.02	2410.75
419.21	2431.82
419.39	2399.05
419.58	2420.11
419.77	2380.32
419.96	2464.58
420.15	2518.42
420.34	2527.78
420.53	2588.63
420.72	2502.03
420.91	2516.08
421.10	2616.72
421.29	2616.72
421.48	2471.61
421.67	2525.44
421.86	2583.95
422.05	2609.70
422.24	2593.31
422.43	2595.65
422.61	2523.10
422.80	2626.08
422.99	2726.72
423.18	2513.74
423.37	2792.26
423.56	2656.51
423.75	2635.44
423.94	2551.18
424.13	2513.74
424.32	2649.49
424.50	2757.15
424.69	2757.15
424.88	2768.85
425.07	2628.42
425.26	2675.23
425.45	2628.42
425.64	2719.70
425.83	2715.02
426.01	2743.11
426.20	2736.09
426.39	2661.19
426.58	2612.04
426.77	2649.49
426.96	2778.22
427.15	2738.43
427.33	2696.30
427.52	2862.48
427.71	2778.22
427.90	2808.64
428.09	2876.52
428.28	2843.75
428.46	2899.92
428.65	2836.73
428.84	2902.26
429.03	3028.65
429.22	2942.05
429.40	2920.99
429.59	2920.99
429.78	2906.95
429.97	2860.13
430.16	2909.29
430.34	2977.16
430.53	3150.36
430.72	2939.71
430.91	3122.27
431.10	2993.55
431.28	3012.27
431.47	3234.62
431.66	3045.04
431.85	3178.45
432.03	3159.72
432.22	3283.77
432.41	3229.94
432.60	3262.71
432.79	3204.19
432.97	3267.39
433.16	3197.17
433.35	3227.60
433.54	3260.37
433.72	3234.62
433.91	3361.01
434.10	3407.82
434.28	3180.79
434.47	3335.26
434.66	3342.28
434.85	3382.07
435.03	3365.69
435.22	3391.44
435.41	3522.51
435.59	3482.72
435.78	3461.65
435.97	3501.44
436.16	3475.70
436.34	3588.04
436.53	3445.27
436.72	3489.74
436.90	3492.08
437.09	3665.28
437.28	3449.95
437.46	3473.36
437.65	3550.59
437.84	3669.96
438.02	3646.55
438.21	3702.73
438.40	3569.32
438.58	3768.26
438.77	3779.97
438.96	3702.73
439.14	3805.71
439.33	3840.82
439.52	3955.51
439.70	3754.22
439.89	3971.89
440.08	3969.55
440.26	4035.08
440.45	3962.53
440.63	4035.08
440.82	4095.94
441.01	4074.87
441.19	4180.20
441.38	4219.99
441.57	4126.36
441.75	4140.41
441.94	4276.16
442.12	4271.48
442.31	4390.84
442.50	4390.84
442.68	4187.22
442.87	4283.18
443.05	4437.66
443.24	4477.44
443.43	4557.02
443.61	4465.74
443.80	4486.81
443.98	4327.65
444.17	4280.84
444.35	4465.74
444.54	4547.66
444.73	4486.81
444.91	4362.76
445.10	4423.61
445.28	4606.17
445.47	4409.57
445.65	4449.36
445.84	4652.98
446.02	4610.86
446.21	4498.51
446.39	4578.09
446.58	4660.01
446.77	4393.19
446.95	4489.15
447.14	4678.73
447.32	4571.07
447.51	4456.38
447.69	4484.47
447.88	4664.69
448.06	4601.49
448.25	4613.20
448.43	4727.88
448.62	4596.81
448.80	4650.64
448.99	4807.46
449.17	4734.90
449.36	4669.37
449.54	4751.29
449.73	4861.29
449.91	4699.80
450.10	4800.44
450.28	4805.12
450.46	4957.25
450.65	4887.04
450.83	4833.21
451.02	4987.68
451.20	4896.40
451.39	5109.39
451.57	5041.51
451.76	4968.96
451.94	4987.68
452.13	5008.75
452.31	5013.43
452.49	5064.92
452.68	5104.71
452.86	5050.88
453.05	5107.05
453.23	5144.50
453.42	4940.87
453.60	5167.90
453.78	5050.88
453.97	5025.13
454.15	5207.69
454.34	5240.46
454.52	5198.33
454.70	5263.86
454.89	5406.64
455.07	5207.69
455.26	5336.42
455.44	5451.11
455.62	5341.10
455.81	5210.03
455.99	5378.55
456.17	5502.60
456.36	5516.64
456.54	5490.90
456.73	5488.56
456.91	5703.89
457.09	5481.53
457.28	5680.48
457.46	5701.54
457.64	5767.08
457.83	5729.63
458.01	5535.37
458.19	5689.84
458.38	5703.89
458.56	5820.91
458.74	5774.10
458.93	5577.50
459.11	5708.57
459.29	5795.17
459.48	5687.50
459.66	5736.65
459.84	5898.15
460.03	5942.62
460.21	5806.87
460.39	6001.13
460.57	5907.51
460.76	5923.90
460.94	5989.43
461.12	6052.63
461.31	6026.88
461.49	6001.13
461.67	5989.43
461.85	6024.54
462.04	6066.67
462.22	6567.54
462.40	6076.03
462.59	6155.61
462.77	6181.35
462.95	6202.42
463.13	6277.32
463.32	6284.34
463.50	6338.17
463.68	6389.66
463.86	6321.79
464.05	6389.66
464.23	6230.51
464.41	6417.75
464.59	6139.23
464.78	6438.81
464.96	6436.47
465.14	6499.67
465.32	6600.31
465.50	6483.28
465.69	6604.99
465.87	6279.66
466.05	6504.35
466.23	6370.94
466.41	6530.09
466.60	6663.51
466.78	6401.37
466.96	6443.49
467.14	6579.25
467.32	6502.01
467.51	6619.04
467.69	6553.50
467.87	6789.89
468.05	6686.91
468.23	6675.21
468.41	6707.98
468.60	6651.80
468.78	6991.18
468.96	6649.46
469.14	6860.11
469.32	7007.56
469.50	6867.13
469.69	7117.57
469.87	7080.12
470.05	7042.67
470.23	6946.71
470.41	6925.65
470.59	7059.06
470.77	7094.16
470.95	6953.73
471.14	7185.44
471.32	7066.08
471.50	7258.00
471.68	7375.03
471.86	7360.98
472.04	7356.30
472.22	7344.60
472.40	7332.90
472.58	7487.37
472.77	7461.63
472.95	7564.61
473.13	7772.92
473.31	7470.99
473.49	7702.70
473.67	7691.00
473.85	7662.91
474.03	7728.45
474.21	7758.88
474.39	7962.50
474.57	7941.44
474.75	7887.61
474.93	8135.70
475.12	8039.74
475.30	8088.89
475.48	7995.27
475.66	8070.17
475.84	8028.04
476.02	8149.75
476.20	8332.31
476.38	8402.52
476.56	8540.61
476.74	8650.62
476.92	8557.00
477.10	8407.20
477.28	8641.26
477.46	8542.96
477.64	8851.91
477.82	8690.41
478.00	8997.02
478.18	8805.10
478.36	8917.44
478.54	9121.07
478.72	9165.54
478.90	9404.27
479.08	9287.25
479.26	9284.91
479.44	9268.52
479.62	9390.23
479.80	9479.17
479.98	9495.55
480.16	9689.82
480.34	9631.30
480.52	9839.61
480.70	10087.71
480.88	9914.51
481.06	10134.52
481.24	9825.57
481.41	10155.58
481.59	10396.66
481.77	10246.87
481.95	10445.81
482.13	10619.01
482.31	10317.08
482.49	10754.76
482.67	10473.90
482.85	10806.25
483.03	11066.05
483.21	11019.24
483.39	11005.20
483.57	10951.37
483.74	11159.67
483.92	11384.37
484.10	11517.78
484.28	11726.08
484.46	11796.30
484.64	11770.55
484.82	11618.42
485.00	11419.47
485.18	12161.42
485.35	12098.23
485.53	12194.19
485.71	12187.17
485.89	12269.09
486.07	12236.32
486.25	12468.03
486.43	12538.25
486.61	12620.17
486.78	12765.28
486.96	12901.03
487.14	13135.09
487.32	13207.64
487.50	12994.65
487.68	13266.16
487.85	13446.38
488.03	13610.22
488.21	13752.99
488.39	13621.92
488.57	13832.57
488.75	13919.17
488.92	14178.97
489.10	13998.74
489.28	14394.29
489.46	14445.79
489.64	14628.35
489.81	14595.58
489.99	14593.24
490.17	14663.46
490.35	14974.75
490.53	14679.84
490.70	15105.82
490.88	14728.99
491.06	15091.77
491.24	15215.82
491.41	15417.11
491.59	15499.03
491.77	15417.11
491.95	15807.98
492.13	15936.71
492.30	15805.64
492.48	15908.62
492.66	15906.28
492.84	15887.56
493.01	16278.43
493.19	16320.56
493.37	16350.98
493.54	16222.25
493.72	16496.10
493.90	16573.33
494.08	16652.91
494.25	17074.21
494.43	17092.93
494.61	17092.93
494.79	17303.58
494.96	17376.14
495.14	17121.02
495.32	17678.07
495.49	17568.06
495.67	17755.30
495.85	17689.77
496.02	18178.94
496.20	18164.90
496.38	17827.86
496.55	18094.68
496.73	18363.84
496.91	18401.29
497.09	18361.50
497.26	18579.17
497.44	18633.00
497.62	18637.69
497.79	18644.71
497.97	18871.74
498.14	19360.91
498.32	19290.70
498.50	18845.99
498.67	19154.94
498.85	19335.17
499.03	19328.14
499.20	19494.32
499.38	19438.15
499.56	19655.82
499.73	20002.22
499.91	19955.41
500.08	20006.90
500.26	19831.36
500.44	19761.14
500.61	19854.76
500.79	20404.79
500.97	20390.75
501.14	20505.43
501.32	20531.18
501.49	20664.59
501.67	20446.92
501.84	20318.19
502.02	20786.30
502.20	20858.85
502.37	21172.49
502.55	20882.26
502.72	20959.50
502.90	20996.95
503.07	21057.80
503.25	20786.30
503.43	21233.34
503.60	21411.22
503.78	21432.29
503.95	21743.58
504.13	21362.07
504.30	21493.14
504.48	21563.36
504.65	21671.02
504.83	21902.73
505.01	22232.75
505.18	21743.58
505.36	22157.85
505.53	21881.67
505.71	22111.04
505.88	22185.94
506.06	21888.69
506.23	22520.63
506.41	22317.01
506.58	22434.03
506.76	22534.68
506.93	22735.96
507.11	22780.43
507.28	22855.33
507.46	22640.00
507.63	22824.90
507.81	22806.18
507.98	22757.03
508.16	23213.43
508.33	22979.38
508.50	23351.52
508.68	23227.48
508.85	23625.37
509.03	23501.32
509.20	23580.90
509.38	23702.61
509.55	23660.48
509.73	23517.70
509.90	23749.42
510.08	24119.22
510.25	23690.90
510.42	23723.67
510.60	24318.17
510.77	23894.53
510.95	24215.18
511.12	24254.97
511.30	24109.86
511.47	24299.44
511.64	24500.73
511.82	24510.09
511.99	24573.28
512.17	24484.34
512.34	24657.54
512.51	24870.53
512.69	24966.49
512.86	24526.47
513.04	25329.28
513.21	24849.47
513.38	25020.33
513.56	25013.31
513.73	25174.80
513.90	25560.99
514.08	25214.59
514.25	25591.42
514.43	25476.73
514.60	25762.28
514.77	25951.86
514.95	25827.81
515.12	25568.01
515.29	26139.10
515.47	25893.35
515.64	26206.98
515.81	25895.69
515.99	26321.66
516.16	26394.22
516.33	26242.09
516.51	26494.86
516.68	26038.46
516.85	26190.59
517.03	26412.95
517.20	26663.38
517.37	26867.01
517.54	26501.89
517.72	26635.30
517.89	26670.40
518.06	26913.82
518.24	26785.09
518.41	26733.60
518.58	27047.23
518.75	26874.03
518.93	27227.45
519.10	27035.53
519.27	27131.49
519.45	27276.60
519.62	27068.30
519.79	27192.34
519.96	27302.35
520.14	27250.86
520.31	27716.62
520.48	27281.28
520.65	27545.76
520.83	27470.87
521.00	27854.72
521.17	27515.34
521.34	28222.18
521.52	28137.92
521.69	27786.84
521.86	28386.02
522.03	28496.02
522.20	28793.27
522.38	28329.84
522.55	28215.16
522.72	28322.82
522.89	28542.83
523.07	28891.57
523.24	28292.40
523.41	28484.32
523.58	28538.15
523.75	28603.69
523.92	28716.03
524.10	28589.64
524.27	29099.88
524.44	28844.76
524.61	29345.64
524.78	28795.61
524.96	29216.91
525.13	28994.56
525.30	29151.37
525.47	29177.12
525.64	28971.15
525.81	29596.07
525.98	29401.81
526.16	29577.35
526.33	29692.04
526.50	29523.52
526.67	29584.37
526.84	29731.83
527.01	29514.16
527.18	29575.01
527.36	29738.85
527.53	29830.13
527.70	30274.83
527.87	29804.38
528.04	29928.43
528.21	30546.33
528.38	30246.74
528.55	30005.67
528.72	30012.69
528.89	30141.42
529.07	29949.50
529.24	30363.77
529.41	30291.21
529.58	30574.42
529.75	30085.25
529.92	30469.09
530.09	30106.31
530.26	30249.08
530.43	30539.31
530.60	30651.66
530.77	30888.05
530.94	30810.81
531.11	30441.01
531.28	30422.28
531.46	30717.19
531.63	30862.30
531.80	31035.50
531.97	31112.74
532.14	31276.58
532.31	31000.40
532.48	31058.91
532.65	31363.18
532.82	31028.48
532.99	31391.26
533.16	31295.30
533.33	31271.90
533.50	31732.98
533.67	31398.29
533.84	31924.91
534.01	31302.32
534.18	31515.31
534.35	31606.59
534.52	31421.69
534.69	32070.02
534.86	31945.97
535.03	31515.31
535.20	31859.37
535.37	31943.63
535.54	31864.05
535.71	32016.19
535.88	32046.62
536.05	31845.33
536.22	32044.27
536.38	31952.99
536.55	31941.29
536.72	31988.10
536.89	31981.08
537.06	32158.96
537.23	32245.56
537.40	32126.19
537.57	32512.38
537.74	32690.26
537.91	32418.76
538.08	32360.25
538.25	32500.68
538.42	32219.81
538.59	32423.44
538.75	32313.44
538.92	32535.79
539.09	32842.40
539.26	32650.47
539.43	32905.59
539.60	32950.06
539.77	32591.96
539.94	33179.43
540.11	33146.67
540.28	33233.27
540.44	32830.69
540.61	33174.75
540.78	32982.83
540.95	33596.05
541.12	33118.58
541.29	33184.12
541.46	33216.88
541.62	33067.09
541.79	33226.24
541.96	33237.95
542.13	33467.32
542.30	33013.26
542.47	33259.01
542.63	33631.16
542.80	33577.33
542.97	33764.57
543.14	33624.14
543.31	33984.58
543.48	33720.10
543.64	34064.16
543.81	34150.76
543.98	33556.26
544.15	33963.51
544.32	34300.55
544.48	34213.95
544.65	34258.42
544.82	34249.06
544.99	33975.22
545.16	34192.89
545.32	34389.49
545.49	34567.37
545.66	34965.26
545.83	34391.83
546.00	34251.40
546.16	34417.58
546.33	33832.44
546.50	34003.30
546.67	34883.34
546.83	34043.09
547.00	34480.77
547.17	34415.24
547.34	34440.98
547.50	34712.49
547.67	35051.86
547.84	34822.49
548.00	34871.64
548.17	35000.37
548.34	34490.13
548.51	35035.48
548.67	35192.30
548.84	35072.93
549.01	34913.77
549.18	35248.47
549.34	35005.05
549.51	35288.26
549.68	35295.28
549.84	35133.78
550.01	35449.75
550.18	34672.70
550.34	35079.95
550.51	35386.56
550.68	35405.28
550.84	35157.19
551.01	35264.85
551.18	35531.67
551.34	35742.32
551.51	34998.03
551.68	35592.53
551.84	35662.74
552.01	35325.71
552.18	35653.38
552.34	35461.46
552.51	36046.59
552.68	35587.85
552.84	35704.87
553.01	35639.34
553.18	35770.41
553.34	35814.88
553.51	35817.22
553.67	35842.96
553.84	35887.43
554.01	35585.50
554.17	36072.34
554.34	36037.23
554.51	35566.78
554.67	36254.90
554.84	36278.30
555.00	36282.98
555.17	36453.84
555.33	36392.99
555.50	36325.11
555.67	35672.10
555.83	35997.44
556.00	36423.42
556.16	36723.01
556.33	36400.01
556.50	36306.39
556.66	36643.43
556.83	36226.81
556.99	36818.97
557.16	36505.34
557.32	36472.57
557.49	36718.32
557.65	35983.40
557.82	36587.25
557.98	36357.88
558.15	36699.60
558.32	36486.61
558.48	36425.76
558.65	36605.98
558.81	36643.43
558.98	36549.81
559.14	36659.81
559.31	36575.55
559.47	36636.41
559.64	36694.92
559.80	36748.75
559.97	36978.12
560.13	36624.70
560.30	36856.42
560.46	37177.07
560.63	36481.93
560.79	36692.58
560.96	36746.41
561.12	36933.65
561.29	37081.11
561.45	36645.77
561.61	37266.01
561.78	37177.07
561.94	36910.25
562.11	36989.83
562.27	36741.73
562.44	36931.31
562.60	36669.17
562.77	37156.00
562.93	37251.97
563.10	37261.33
563.26	37048.34
563.42	37141.96
563.59	36987.49
563.75	37247.29
563.92	37111.53
564.08	37525.81
564.24	37350.27
564.41	36865.78
564.57	37195.79
564.74	37156.00
564.90	37205.16
565.07	37722.41
565.23	37392.40
565.39	37336.23
565.56	37188.77
565.72	36671.51
565.88	37551.56
566.05	36840.03
566.21	36952.38
566.38	36975.78
566.54	37097.49
566.70	37553.90
566.87	37378.36
567.03	37598.37
567.19	37202.82
567.36	37193.45
567.52	36914.93
567.68	37312.82
567.85	37383.04
568.01	37373.67
568.17	37368.99
568.34	37518.79
568.50	37809.01
568.66	37439.21
568.83	37387.72
568.99	37532.83
569.15	37406.44
569.32	37205.16
569.48	37359.63
569.64	37614.75
569.81	37724.75
569.97	37816.04
570.13	37907.32
570.30	37275.37
570.46	37434.53
570.62	37799.65
570.78	37596.03
570.95	37666.24
571.11	37640.50
571.27	37460.27
571.43	37773.91
571.60	37914.34
571.76	37670.92
571.92	38403.51
572.09	37984.55
572.25	37516.45
572.41	37228.56
572.57	37392.40
572.74	37338.57
572.90	37642.84
573.06	37530.49
573.22	37598.37
573.38	37893.27
573.55	37965.83
573.71	37961.15
573.87	37862.85
574.03	37518.79
574.20	37467.30
574.36	37240.26
574.52	37839.44
574.68	37539.85
574.84	37689.65
575.01	37881.57
575.17	38419.89
575.33	38045.41
575.49	37825.40
575.65	37977.53
575.82	38174.14
575.98	37649.86
576.14	37813.70
576.30	38246.69
576.46	37684.97
576.62	37956.47
576.79	38061.79
576.95	37439.21
577.11	37837.10
577.27	37537.51
577.43	38417.55
577.59	37586.66
577.75	38452.66
577.92	37713.05
578.08	37853.48
578.24	37528.15
578.40	37865.19
578.56	37471.98
578.72	37741.14
578.88	37933.06
579.04	38019.66
579.21	37883.91
579.37	38167.12
579.53	37940.08
579.69	37497.72
579.85	37612.41
580.01	37872.21
580.17	38038.39
580.33	37888.59
580.49	38267.76
580.65	37986.89
580.82	38433.94
580.98	37949.45
581.14	37869.87
581.30	37830.08
581.46	38052.43
581.62	37701.35
581.78	37741.14
581.94	38064.13
582.10	38017.32
582.26	38321.59
582.42	37986.89
582.58	38359.04
582.74	38176.48
582.90	38497.13
583.06	38057.11
583.22	37862.85
583.38	38164.78
583.54	38178.82
583.70	38057.11
583.86	38256.06
584.02	37827.74
584.18	38150.73
584.34	38284.14
584.50	37914.34
584.66	38483.09
584.82	38068.81
584.98	38213.93
585.14	37734.12
585.30	38178.82
585.46	37645.18
585.62	37989.24
585.78	38426.92
585.94	37521.13
586.10	37928.38
586.26	38019.66
586.42	38436.28
586.58	38455.00
586.74	37436.87
586.90	37886.25
587.06	37708.37
587.22	37970.51
587.38	37809.01
587.54	38562.67
587.70	38342.66
587.86	38270.10
588.02	38263.08
588.18	38497.13
588.34	37909.66
588.49	38129.67
588.65	37956.47
588.81	37668.58
588.97	37757.52
589.13	38478.41
589.29	38274.78
589.45	38213.93
589.61	38686.71
589.77	38588.41
589.93	38553.30
590.08	38401.17
590.24	38132.01
590.40	37937.74
590.56	38471.39
590.72	38555.64
590.88	38066.47
591.04	37872.21
591.20	38649.27
