SpectraSuite Data File
++++++++++++++++++++++++++++++++++++
Date: Fri Oct 04 11:48:40 GMT-05:00 2013
User: price-jones
Dark Spectrum Present: No
Reference Spectrum Present: No
Number of Sampled Component Spectra: 1
Spectrometers: USB2+H05261
Integration Time (usec): 100000 (USB2+H05261)
Spectra Averaged: 1 (USB2+H05261)
Boxcar Smoothing: 0 (USB2+H05261)
Correct for Electrical Dark: No (USB2+H05261)
Strobe/Lamp Enabled: No (USB2+H05261)
Correct for Detector Non-linearity: No (USB2+H05261)
Correct for Stray Light: No (USB2+H05261)
Number of Pixels in Processed Spectrum: 2048
>>>>>Begin Processed Spectral Data<<<<<
365.73	56.17
365.92	56.17
366.12	56.17
366.32	0.00
366.52	0.00
366.72	11.70
366.91	0.00
367.11	0.00
367.31	0.00
367.51	0.00
367.70	16.38
367.90	0.00
368.10	0.00
368.30	0.00
368.49	0.00
368.69	0.00
368.89	0.00
369.09	16.38
369.28	0.00
369.48	53.83
369.68	0.00
369.87	16.38
370.07	4.68
370.27	2.34
370.47	51.49
370.66	332.36
370.86	390.87
371.06	400.23
371.25	397.89
371.45	486.83
371.65	433.00
371.84	400.23
372.04	491.51
372.24	547.69
372.44	442.36
372.63	421.30
372.83	458.74
373.03	493.85
373.22	507.90
373.42	479.81
373.62	550.03
373.81	447.04
374.01	568.75
374.21	547.69
374.40	571.09
374.60	578.11
374.79	587.47
374.99	503.22
375.19	533.64
375.38	580.45
375.58	561.73
375.78	606.20
375.97	606.20
376.17	753.65
376.37	524.28
376.56	648.33
376.76	634.29
376.95	561.73
377.15	596.84
377.35	692.80
377.54	667.05
377.74	613.22
377.93	610.88
378.13	580.45
378.33	653.01
378.52	704.50
378.72	669.39
378.91	748.97
379.11	667.05
379.31	711.52
379.50	660.03
379.70	720.88
379.89	688.12
380.09	657.69
380.28	772.38
380.48	744.29
380.68	751.31
380.87	788.76
381.07	734.93
381.26	784.08
381.46	692.80
381.65	739.61
381.85	702.16
382.04	674.07
382.24	737.27
382.43	800.46
382.63	746.63
382.83	788.76
383.02	840.25
383.22	854.30
383.41	777.06
383.61	863.66
383.80	746.63
384.00	873.02
384.19	807.48
384.39	772.38
384.58	908.13
384.78	863.66
384.97	847.27
385.17	940.90
385.36	842.59
385.56	894.08
385.75	880.04
385.95	842.59
386.14	851.96
386.34	823.87
386.53	952.60
386.72	884.72
386.92	968.98
387.11	959.62
387.31	997.07
387.50	933.87
387.70	912.81
387.89	973.66
388.09	987.71
388.28	950.26
388.48	945.58
388.67	983.02
388.86	922.17
389.06	1027.50
389.25	1057.92
389.45	1053.24
389.64	929.19
389.84	1029.84
390.03	999.41
390.22	1104.73
390.42	1048.56
390.61	1067.28
390.81	1020.47
391.00	1036.86
391.19	1167.93
391.39	1123.46
391.58	1116.44
391.78	1142.18
391.97	1053.24
392.16	1123.46
392.36	1102.39
392.55	1217.08
392.75	1137.50
392.94	1212.40
393.13	1228.78
393.33	1153.88
393.52	1252.19
393.71	1219.42
393.91	1097.71
394.10	1233.46
394.29	1364.53
394.49	1219.42
394.68	1245.16
394.88	1254.53
395.07	1266.23
395.26	1291.98
395.46	1238.14
395.65	1359.85
395.84	1334.11
396.04	1423.05
396.23	1406.66
396.42	1371.55
396.62	1376.24
396.81	1411.34
397.00	1399.64
397.19	1502.62
397.39	1476.88
397.58	1481.56
397.77	1425.39
397.97	1479.22
398.16	1558.80
398.35	1528.37
398.55	1488.58
398.74	1547.09
398.93	1458.15
399.12	1547.09
399.32	1483.90
399.51	1479.22
399.70	1596.25
399.90	1507.30
400.09	1577.52
400.28	1600.93
400.47	1664.12
400.67	1696.89
400.86	1666.46
401.05	1727.32
401.24	1743.70
401.44	1724.97
401.63	1701.57
401.82	1764.76
402.01	1710.93
402.21	1743.70
402.40	1762.42
402.59	1860.73
402.78	1771.79
402.97	1659.44
403.17	1795.19
403.36	1860.73
403.55	1877.11
403.74	2008.18
403.93	1898.17
404.13	1930.94
404.32	2015.20
404.51	1947.33
404.70	1984.77
404.89	1935.62
405.09	2050.31
405.28	2057.33
405.47	2099.46
405.66	1987.11
405.85	2167.34
406.05	2062.01
406.24	2080.74
406.43	2127.55
406.62	2071.37
406.81	2181.38
407.00	2101.80
407.20	2001.16
407.39	2132.23
407.58	2195.42
407.77	2286.70
407.96	2228.19
408.15	2324.15
408.34	2127.55
408.54	2312.45
408.73	2307.77
408.92	2333.51
409.11	2394.37
409.30	2317.13
409.49	2338.20
409.68	2328.83
409.87	2424.80
410.07	2471.61
410.26	2424.80
410.45	2548.84
410.64	2525.44
410.83	2513.74
411.02	2558.21
411.21	2649.49
411.40	2635.44
411.59	2691.62
411.78	2698.64
411.98	2654.17
412.17	2668.21
412.36	2679.91
412.55	2747.79
412.74	2899.92
412.93	2787.58
413.12	2836.73
413.31	2958.44
413.50	2942.05
413.69	2855.45
413.88	2981.84
414.07	2988.86
414.26	3096.53
414.45	2986.52
414.64	3110.57
414.83	3201.85
415.02	3047.38
415.22	3288.45
415.41	3199.51
415.60	3220.58
415.79	3265.05
415.98	3346.97
416.17	3281.43
416.36	3269.73
416.55	3421.86
416.74	3482.72
416.93	3543.57
417.12	3562.30
417.31	3421.86
417.50	3407.82
417.69	3616.13
417.88	3653.58
418.07	3541.23
418.26	3566.98
418.45	3585.70
418.64	3660.60
418.83	3796.35
419.02	3740.18
419.21	3660.60
419.39	3810.39
419.58	3641.87
419.77	3712.09
419.96	3831.46
420.15	3796.35
420.34	3784.65
420.53	3901.67
420.72	3997.64
420.91	3939.12
421.10	3941.46
421.29	3971.89
421.48	3922.74
421.67	4196.58
421.86	4079.55
422.05	4124.02
422.24	4205.94
422.43	4074.87
422.61	4149.77
422.80	4093.60
422.99	4105.30
423.18	4341.69
423.37	4175.52
423.56	4161.47
423.75	4128.70
423.94	4149.77
424.13	3866.56
424.32	4145.09
424.50	4262.12
424.69	4334.67
424.88	4203.60
425.07	4166.15
425.26	4329.99
425.45	4159.13
425.64	4215.30
425.83	4266.80
426.01	4388.50
426.20	4217.65
426.39	4236.37
426.58	4227.01
426.77	4280.84
426.96	4346.37
427.15	4292.54
427.33	4421.27
427.52	4372.12
427.71	4451.70
427.90	4393.19
428.09	4596.81
428.28	4423.61
428.46	4493.83
428.65	4606.17
428.84	4589.79
429.03	4667.03
429.22	4627.24
429.40	4461.06
429.59	4652.98
429.78	4550.00
429.97	4421.27
430.16	4519.57
430.34	4531.28
430.53	4732.56
430.72	4758.31
430.91	4781.71
431.10	4676.39
431.28	4922.15
431.47	4919.81
431.66	5025.13
431.85	4788.74
432.03	4990.02
432.22	5167.90
432.41	4985.34
432.60	5018.11
432.79	4877.68
432.97	5057.90
433.16	5191.31
433.35	5062.58
433.54	5102.37
433.72	5167.90
433.91	5071.94
434.10	5336.42
434.28	5151.52
434.47	5282.59
434.66	5252.16
434.85	5507.28
435.03	5203.01
435.22	5324.72
435.41	5479.19
435.59	5345.78
435.78	5305.99
435.97	5476.85
436.16	5479.19
436.34	5509.62
436.53	5432.38
436.72	5603.24
436.90	5418.34
437.09	5636.01
437.28	5413.66
437.46	5584.52
437.65	5638.35
437.84	5760.06
438.02	5568.13
438.21	5788.14
438.40	5748.36
438.58	5813.89
438.77	5893.47
438.96	5905.17
439.14	6143.91
439.33	6022.20
439.52	6127.52
439.70	5984.75
439.89	6061.99
440.08	6260.93
440.26	6097.10
440.45	6312.42
440.63	6211.78
440.82	6644.78
441.01	6504.35
441.19	6434.13
441.38	6518.39
441.57	6623.72
441.75	6626.06
441.94	6745.42
442.12	6766.49
442.31	6775.85
442.50	6878.83
442.68	6780.53
442.87	6759.47
443.05	6839.05
443.24	7042.67
443.43	6906.92
443.61	7108.21
443.80	7105.87
443.98	6857.77
444.17	6862.45
444.35	7117.57
444.54	7211.19
444.73	6960.75
444.91	6967.77
445.10	7171.40
445.28	6970.12
445.47	7084.80
445.65	6981.82
445.84	7052.03
446.02	7267.36
446.21	7250.98
446.39	7185.44
446.58	7314.17
446.77	7180.76
446.95	7082.46
447.14	7103.53
447.32	7262.68
447.51	7321.20
447.69	7225.23
447.88	7162.04
448.06	7122.25
448.25	7162.04
448.43	7295.45
448.62	7206.51
448.80	7283.75
448.99	7314.17
449.17	7428.86
449.36	7344.60
449.54	7550.57
449.73	7595.04
449.91	7733.13
450.10	7632.49
450.28	7681.64
450.46	7651.21
450.65	7691.00
450.83	7808.03
451.02	7749.51
451.20	7882.92
451.39	7911.01
451.57	7880.58
451.76	7819.73
451.94	7882.92
452.13	7899.31
452.31	7920.37
452.49	7772.92
452.68	7903.99
452.86	7934.42
453.05	7934.42
453.23	8016.33
453.42	7995.27
453.60	7936.76
453.78	8138.04
453.97	8016.33
454.15	8168.47
454.34	7960.16
454.52	8163.79
454.70	8149.75
454.89	8402.52
455.07	8334.65
455.26	8386.14
455.44	8390.82
455.62	8486.78
455.81	8353.37
455.99	8655.30
456.17	8545.30
456.36	8624.87
456.54	8608.49
456.73	8622.53
456.91	9111.71
457.09	8795.73
457.28	9067.24
457.46	8779.35
457.64	9015.74
457.83	8992.34
458.01	8835.52
458.19	9170.22
458.38	8952.55
458.56	9277.88
458.74	9004.04
458.93	9090.64
459.11	9226.39
459.29	9205.33
459.48	9217.03
459.66	9312.99
459.84	9444.06
460.03	9488.53
460.21	9305.97
460.39	9240.44
460.57	9411.29
460.76	9476.83
460.94	9626.62
461.12	9577.47
461.31	9561.09
461.49	9635.99
461.67	9448.74
461.85	9542.36
462.04	9661.73
462.22	10186.01
462.40	9701.52
462.59	10061.96
462.77	9907.49
462.95	9863.02
463.13	9891.10
463.32	9989.41
463.50	9820.89
463.68	9937.91
463.86	10136.86
464.05	10150.90
464.23	9940.26
464.41	10312.40
464.59	9774.08
464.78	10181.33
464.96	10272.61
465.14	10160.27
465.32	10298.36
465.50	10345.17
465.69	10523.05
465.87	10265.59
466.05	10207.08
466.23	10307.72
466.41	10413.04
466.60	10497.30
466.78	10581.56
466.96	10565.18
467.14	10567.52
467.32	10476.24
467.51	10651.78
467.69	10328.78
467.87	10721.99
468.05	10902.22
468.23	10485.60
468.41	10532.41
468.60	10785.19
468.78	10911.58
468.96	10768.80
469.14	11082.44
469.32	10986.47
469.50	10743.06
469.69	11136.27
469.87	11136.27
470.05	11265.00
470.23	11290.74
470.41	11234.57
470.59	11295.43
470.77	11288.40
470.95	11307.13
471.14	11740.13
471.32	11286.06
471.50	11627.78
471.68	11688.64
471.86	11744.81
472.04	11793.96
472.22	11885.24
472.40	11639.48
472.58	12095.89
472.77	11882.90
472.95	11934.39
473.13	12304.20
473.31	12191.85
473.49	12053.76
473.67	12156.74
473.85	12245.68
474.03	12437.61
474.21	12470.37
474.39	12690.38
474.57	12559.31
474.75	12690.38
474.93	12807.41
475.12	12641.23
475.30	12996.99
475.48	12706.77
475.66	13050.83
475.84	12947.84
476.02	13193.60
476.20	12992.31
476.38	13399.57
476.56	13472.12
476.74	13696.82
476.92	13460.42
477.10	13586.81
477.28	13949.59
477.46	13881.72
477.64	13745.97
477.82	14122.79
478.00	14682.18
478.18	14384.93
478.36	14518.34
478.54	14892.83
478.72	14553.45
478.90	14934.96
479.08	14827.29
479.26	14998.15
479.44	15096.46
479.62	15180.71
479.80	15367.96
479.98	15550.52
480.16	15578.61
480.34	15473.28
480.52	16091.18
480.70	16042.03
480.88	15779.89
481.06	16210.55
481.24	16161.40
481.41	16435.24
481.59	16688.02
481.77	16702.06
481.95	16884.62
482.13	17055.48
482.31	17128.04
482.49	17254.43
482.67	17369.12
482.85	17500.19
483.03	17790.41
483.21	18019.78
483.39	17944.89
483.57	18188.30
483.74	18195.32
483.92	18302.99
484.10	18459.81
484.28	18635.35
484.46	18944.30
484.64	18977.06
484.82	18991.11
485.00	19035.58
485.18	19756.46
485.35	19578.58
485.53	19765.82
485.71	19763.48
485.89	19910.94
486.07	20177.76
486.25	20060.73
486.43	20231.59
486.61	20465.64
486.78	20676.29
486.96	20922.05
487.14	21385.47
487.32	20877.58
487.50	21530.59
487.68	21532.93
487.85	21867.63
488.03	22008.06
488.21	22162.53
488.39	22537.02
488.57	22677.45
488.75	22508.93
488.92	23005.13
489.10	22972.36
489.28	22925.55
489.46	23328.12
489.64	23452.17
489.81	24098.16
489.99	23850.06
490.17	23941.34
490.35	24643.50
490.53	23920.28
490.70	24774.57
490.88	24418.81
491.06	24985.22
491.24	24907.98
491.41	24851.81
491.59	25450.99
491.77	25252.04
491.95	25752.91
492.13	25858.24
492.30	25577.37
492.48	25755.26
492.66	26127.40
492.84	26267.83
493.01	26206.98
493.19	26363.79
493.37	26951.27
493.54	27068.30
493.72	27150.21
493.90	27087.02
494.08	27674.49
494.25	27889.82
494.43	27908.55
494.61	27880.46
494.79	27955.36
494.96	28173.03
495.14	28037.28
495.32	28589.64
495.49	28580.28
495.67	28746.46
495.85	29017.96
496.02	29350.32
496.20	29277.76
496.38	29345.64
496.55	29677.99
496.73	30026.73
496.91	29841.83
497.09	30148.44
497.26	30410.58
497.44	30094.61
497.62	30082.91
497.79	30707.83
497.97	30569.74
498.14	31253.17
498.32	31316.37
498.50	31433.39
498.67	31571.49
498.85	31714.26
499.03	31632.34
499.20	31562.12
499.38	31882.78
499.56	32023.21
499.73	32196.41
499.91	32259.60
500.08	32598.98
500.26	32453.87
500.44	32444.51
500.61	32748.78
500.79	32573.24
500.97	33029.64
501.14	33233.27
501.32	33303.48
501.49	33303.48
501.67	33200.50
501.84	33811.38
502.02	33827.76
502.20	33860.53
502.37	34209.27
502.55	33979.90
502.72	34010.32
502.90	34391.83
503.07	34160.12
503.25	34529.92
503.43	34628.23
503.60	34988.67
503.78	34960.58
503.95	34593.12
504.13	35620.61
504.30	35070.59
504.48	35213.36
504.65	35309.32
504.83	35531.67
505.01	35866.37
505.18	35892.12
505.36	35674.45
505.53	35807.86
505.71	35899.14
505.88	36615.34
506.06	36065.31
506.23	36781.52
506.41	36374.27
506.58	36760.45
506.76	36194.04
506.93	36816.63
507.11	37104.51
507.28	37336.23
507.46	37198.13
507.63	37310.48
507.81	37404.10
507.98	37095.15
508.16	37432.19
508.33	37354.95
508.50	38115.62
508.68	37979.87
508.85	38192.86
509.03	38342.66
509.20	38644.59
509.38	38827.15
509.55	38462.02
509.73	38637.56
509.90	38672.67
510.08	38878.64
510.25	39414.62
510.42	39412.28
510.60	39040.14
510.77	39070.56
510.95	39625.27
511.12	39533.99
511.30	39576.12
511.47	39807.83
511.64	40102.74
511.82	40507.65
511.99	40023.16
512.17	39957.63
512.34	40076.99
512.51	40364.88
512.69	40542.76
512.86	40741.71
513.04	41139.60
513.21	40863.41
513.38	40945.33
513.56	41209.81
513.73	40816.60
513.90	41387.69
514.08	40816.60
514.25	41284.71
514.43	41607.70
514.60	41605.36
514.77	41741.11
514.95	41776.22
515.12	41336.20
515.29	41741.11
515.47	42021.98
515.64	42305.18
515.81	42328.59
515.99	42337.95
516.16	42623.50
516.33	42710.10
516.51	42834.14
516.68	42705.41
516.85	42520.51
517.03	42904.36
517.20	43580.78
517.37	43395.87
517.54	43430.98
517.72	43309.27
517.89	43049.47
518.06	43115.01
518.24	43576.09
518.41	43395.87
518.58	43646.31
518.75	43351.40
518.93	44292.30
519.10	43875.68
519.27	43931.86
519.45	43622.90
519.62	44055.90
519.79	44690.19
519.96	44500.61
520.14	44832.96
520.31	44629.34
520.48	45172.34
520.65	44652.74
520.83	44790.83
521.00	44591.89
521.17	44987.44
521.34	45134.89
521.52	45052.97
521.69	45057.65
521.86	45127.87
522.03	45483.63
522.20	45535.12
522.38	45588.95
522.55	45446.18
522.72	45888.54
522.89	46094.51
523.07	46347.29
523.24	46333.24
523.41	46597.73
523.58	46213.88
523.75	46344.95
523.92	46307.50
524.10	46635.17
524.27	46129.62
524.44	46700.71
524.61	46934.76
524.78	47026.04
524.96	47000.30
525.13	47016.68
525.30	46986.25
525.47	47129.03
525.64	47040.09
525.81	47445.00
525.98	47325.63
526.16	47484.79
526.33	47306.91
526.50	47847.57
526.67	47349.04
526.84	47665.01
527.01	47466.06
527.18	47767.99
527.36	47746.93
527.53	47807.78
527.70	48282.91
527.87	48151.84
528.04	48069.92
528.21	48065.24
528.38	48163.54
528.55	48619.95
528.72	48395.26
528.89	48484.20
529.07	48577.82
529.24	48444.41
529.41	48486.54
529.58	48788.47
529.75	48296.95
529.92	48388.24
530.09	48825.92
530.26	49237.85
530.43	48947.62
530.60	48837.62
530.77	48910.17
530.94	49556.16
531.11	48353.13
531.28	48917.20
531.46	48886.77
531.63	49425.09
531.80	49584.25
531.97	49619.36
532.14	49499.99
532.31	49329.13
532.48	49315.09
532.65	49682.55
532.82	49397.01
532.99	49668.51
533.16	49415.73
533.33	49947.03
533.50	50188.11
533.67	50042.99
533.84	49827.66
534.01	49998.52
534.18	50078.10
534.35	50380.03
534.52	50000.86
534.69	50340.24
534.86	50504.08
535.03	50260.66
535.20	50518.12
535.37	50623.45
535.54	50653.87
535.71	50298.11
535.88	50794.31
536.05	50452.59
536.22	50866.86
536.38	50986.23
536.55	50873.88
536.72	51021.34
536.89	50560.25
537.06	51023.68
537.23	50878.57
537.40	50969.85
537.57	50885.59
537.74	51547.96
537.91	51325.61
538.08	51569.02
538.25	51510.51
538.42	51061.13
538.59	51180.49
538.75	51091.55
538.92	51351.35
539.09	51531.57
539.26	51697.75
539.43	51461.36
539.60	51564.34
539.77	51674.35
539.94	51945.85
540.11	51700.09
540.28	52020.75
540.44	51657.96
540.61	51763.29
540.78	51917.76
540.95	52097.98
541.12	52238.42
541.29	51990.32
541.46	52266.50
541.62	51976.28
541.79	51976.28
541.96	51728.18
542.13	52191.61
542.30	52179.90
542.47	52591.84
542.63	52467.79
542.80	52519.28
542.97	52816.53
543.14	52811.85
543.31	52601.20
543.48	52545.03
543.64	53130.16
543.81	52968.66
543.98	52804.83
544.15	52992.07
544.32	53099.73
544.48	53214.42
544.65	52999.09
544.82	53188.67
544.99	53036.54
545.16	53242.51
545.32	52856.32
545.49	53361.87
545.66	53528.05
545.83	53375.92
546.00	53373.58
546.16	53301.02
546.33	53549.12
546.50	52966.32
546.67	53448.47
546.83	53380.60
547.00	53525.71
547.17	53621.67
547.34	53570.18
547.50	53703.59
547.67	53954.03
547.84	53661.46
548.00	53780.83
548.17	53900.20
548.34	53680.19
548.51	54103.82
548.67	54045.31
548.84	53986.80
549.01	53687.21
549.18	53883.81
549.34	54038.29
549.51	53815.94
549.68	53970.41
549.84	53942.33
550.01	54054.67
550.18	54096.80
550.34	54234.89
550.51	54302.77
550.68	54082.76
550.84	54049.99
551.01	54157.66
551.18	54174.04
551.34	53956.37
551.51	54300.43
551.68	54562.57
551.84	54546.18
552.01	54480.65
552.18	54578.95
552.34	54171.70
552.51	54663.21
552.68	54703.00
552.84	54380.01
553.01	54667.89
553.18	54637.47
553.34	54733.43
553.51	54719.38
553.67	54798.96
553.84	55023.65
554.01	54864.50
554.17	54707.68
554.34	54857.48
554.51	54859.82
554.67	54815.35
554.84	54918.33
555.00	55201.53
555.17	54855.14
555.33	54934.71
555.50	55016.63
555.67	54691.30
555.83	54635.13
556.00	55145.36
556.16	55009.61
556.33	55150.04
556.50	55112.59
556.66	55229.62
556.83	55145.36
556.99	55285.79
557.16	55220.26
557.32	55529.21
557.49	55671.98
557.65	54876.20
557.82	55014.29
557.98	55496.44
558.15	55365.37
558.32	55473.04
558.48	55489.42
558.65	55576.02
558.81	55386.44
558.98	55636.87
559.14	55231.96
559.31	55494.10
559.47	55704.75
559.64	55636.87
559.80	55646.24
559.97	55473.04
560.13	55480.06
560.30	55538.57
560.46	55489.42
560.63	55552.62
560.79	55686.03
560.96	55992.64
561.12	55973.91
561.29	55648.58
561.45	56016.04
561.61	55875.61
561.78	55547.93
561.94	55934.12
562.11	56081.58
562.27	55828.80
562.44	55693.05
562.60	55917.74
562.77	55725.81
562.93	55985.61
563.10	56135.41
563.26	56177.54
563.42	56268.82
563.59	56090.94
563.75	55920.08
563.92	55798.37
564.08	56044.13
564.24	56011.36
564.41	55976.25
564.57	56002.00
564.74	55964.55
564.90	56182.22
565.07	56355.42
565.23	56353.08
565.39	56292.22
565.56	56156.47
565.72	55917.74
565.88	56072.21
566.05	56072.21
566.21	55910.72
566.38	55807.73
566.54	56081.58
566.70	56491.17
566.87	56463.08
567.03	56275.84
567.19	56556.70
567.36	56179.88
567.52	56444.36
567.68	56364.78
567.85	56009.02
568.01	56163.50
568.17	56205.62
568.34	56238.39
568.50	56463.08
568.66	56292.22
568.83	56420.95
568.99	56217.33
569.15	56313.29
569.32	56229.03
569.48	56205.62
569.64	56402.23
569.81	56222.01
569.97	56341.38
570.13	56481.81
570.30	56147.11
570.46	56493.51
570.62	56463.08
570.78	56390.53
570.95	56537.98
571.11	56423.29
571.27	56451.38
571.43	56573.09
571.60	56467.76
571.76	56533.30
571.92	56788.42
572.09	56596.49
572.25	56453.72
572.41	56523.94
572.57	56596.49
572.74	56418.61
572.90	56519.26
573.06	56437.34
573.22	56526.28
573.38	56545.00
573.55	56451.38
573.71	56830.55
573.87	56891.40
574.03	56566.07
574.20	56566.07
574.36	56594.15
574.52	56849.27
574.68	56533.30
574.84	56783.74
575.01	56804.80
575.17	56835.23
575.33	56870.34
575.49	56816.50
575.65	56825.87
575.82	56753.31
575.98	56757.99
576.14	56858.63
576.30	56729.90
576.46	56666.71
576.62	56329.67
576.79	56933.53
576.95	56800.12
577.11	56701.82
577.27	56846.93
577.43	56889.06
577.59	56811.82
577.75	56886.72
577.92	56811.82
578.08	56736.93
578.24	56743.95
578.40	56673.73
578.56	56788.42
578.72	56617.56
578.88	57247.16
579.04	56959.28
579.21	56645.65
579.37	56985.02
579.53	57027.15
579.69	56692.46
579.85	56804.80
580.01	57034.17
580.17	56605.86
580.33	56860.97
580.49	56926.51
580.65	56694.80
580.82	56828.21
580.98	56879.70
581.14	56755.65
581.30	57151.20
581.46	56652.67
581.62	56605.86
581.78	56664.37
581.94	56952.26
582.10	56811.82
582.26	57073.96
582.42	57034.17
582.58	57099.71
582.74	56954.60
582.90	57024.81
583.06	57024.81
583.22	56933.53
583.38	56893.74
583.54	56959.28
583.70	57020.13
583.86	56870.34
584.02	56839.91
584.18	57003.75
584.34	57106.73
584.50	57092.69
584.66	57155.88
584.82	56928.85
584.98	56945.23
585.14	56849.27
585.30	56748.63
585.46	56931.19
585.62	56727.56
585.78	57097.37
585.94	56697.14
586.10	56772.03
586.26	56774.37
586.42	57165.24
586.58	57085.67
586.74	56956.94
586.90	57008.43
587.06	56952.26
587.22	56891.40
587.38	56788.42
587.54	57139.50
587.70	57279.93
587.86	57146.52
588.02	57099.71
588.18	57338.44
588.34	57228.44
588.49	57174.61
588.65	57116.09
588.81	56982.68
588.97	57071.62
589.13	57118.43
589.29	57001.41
589.45	57293.97
589.61	57207.37
