SpectraSuite Data File
++++++++++++++++++++++++++++++++++++
Date: Fri Oct 04 11:48:40 GMT-05:00 2013
User: price-jones
Dark Spectrum Present: No
Reference Spectrum Present: No
Number of Sampled Component Spectra: 1
Spectrometers: USB2+H05261
Integration Time (usec): 100000 (USB2+H05261)
Spectra Averaged: 1 (USB2+H05261)
Boxcar Smoothing: 0 (USB2+H05261)
Correct for Electrical Dark: No (USB2+H05261)
Strobe/Lamp Enabled: No (USB2+H05261)
Correct for Detector Non-linearity: No (USB2+H05261)
Correct for Stray Light: No (USB2+H05261)
Number of Pixels in Processed Spectrum: 2048
>>>>>Begin Processed Spectral Data<<<<<
365.73	16.38
365.92	16.38
366.12	16.38
366.32	0.00
366.52	0.00
366.72	0.00
366.91	0.00
367.11	0.00
367.31	0.00
367.51	0.00
367.70	0.00
367.90	0.00
368.10	0.00
368.30	0.00
368.49	0.00
368.69	0.00
368.89	0.00
369.09	0.00
369.28	0.00
369.48	0.00
369.68	0.00
369.87	0.00
370.07	0.00
370.27	46.81
370.47	28.09
370.66	180.22
370.86	224.69
371.06	306.61
371.25	355.76
371.45	297.25
371.65	264.48
371.84	224.69
372.04	369.80
372.24	276.18
372.44	346.40
372.63	320.65
372.83	353.42
373.03	358.10
373.22	337.04
373.42	383.85
373.62	454.06
373.81	393.21
374.01	365.12
374.21	362.78
374.40	421.30
374.60	440.02
374.79	379.17
374.99	397.89
375.19	470.45
375.38	388.53
375.58	470.45
375.78	468.11
375.97	479.81
376.17	587.47
376.37	433.00
376.56	538.32
376.76	482.15
376.95	437.68
377.15	454.06
377.35	479.81
377.54	482.15
377.74	484.49
377.93	404.91
378.13	465.77
378.33	482.15
378.52	498.53
378.72	470.45
378.91	493.85
379.11	407.25
379.31	435.34
379.50	465.77
379.70	517.26
379.89	587.47
380.09	493.85
380.28	503.22
380.48	437.68
380.68	486.83
380.87	503.22
381.07	517.26
381.26	512.58
381.46	578.11
381.65	512.58
381.85	456.40
382.04	528.96
382.24	489.17
382.43	653.01
382.63	564.07
382.83	524.28
383.02	575.77
383.22	578.11
383.41	554.71
383.61	566.41
383.80	592.16
384.00	622.58
384.19	559.39
384.39	550.03
384.58	622.58
384.78	568.75
384.97	641.31
385.17	545.34
385.36	566.41
385.56	636.63
385.75	589.82
385.95	657.69
386.14	704.50
386.34	627.26
386.53	685.78
386.72	608.54
386.92	692.80
387.11	638.97
387.31	610.88
387.50	662.37
387.70	727.91
387.89	678.76
388.09	648.33
388.28	669.39
388.48	716.20
388.67	667.05
388.86	692.80
389.06	697.48
389.25	730.25
389.45	770.04
389.64	699.82
389.84	723.23
390.03	723.23
390.22	711.52
390.42	720.88
390.61	765.36
390.81	706.84
391.00	779.40
391.19	835.57
391.39	791.10
391.58	744.29
391.78	720.88
391.97	816.85
392.16	849.61
392.36	840.25
392.55	814.51
392.75	858.98
392.94	812.17
393.13	954.94
393.33	816.85
393.52	894.08
393.71	980.68
393.91	873.02
394.10	833.23
394.29	877.70
394.49	882.38
394.68	938.55
394.88	924.51
395.07	943.24
395.26	887.06
395.46	926.85
395.65	875.36
395.84	903.45
396.04	1039.20
396.23	971.32
396.42	987.71
396.62	990.05
396.81	1062.60
397.00	994.73
397.19	968.98
397.39	1060.26
397.58	987.71
397.77	1048.56
397.97	1041.54
398.16	1107.07
398.35	1100.05
398.55	1074.31
398.74	1139.84
398.93	1093.03
399.12	1095.37
399.32	1095.37
399.51	1088.35
399.70	1048.56
399.90	1057.92
400.09	1137.50
400.28	1219.42
400.47	1188.99
400.67	1240.48
400.86	1291.98
401.05	1210.06
401.24	1191.33
401.44	1221.76
401.63	1336.45
401.82	1249.85
402.01	1268.57
402.21	1247.51
402.40	1219.42
402.59	1263.89
402.78	1303.68
402.97	1352.83
403.17	1397.30
403.36	1348.15
403.55	1401.98
403.74	1394.96
403.93	1453.47
404.13	1441.77
404.32	1530.71
404.51	1490.92
404.70	1458.15
404.89	1476.88
405.09	1488.58
405.28	1437.09
405.47	1519.01
405.66	1540.07
405.85	1600.93
406.05	1516.67
406.24	1495.60
406.43	1593.90
406.62	1591.56
406.81	1703.91
407.00	1614.97
407.20	1607.95
407.39	1666.46
407.58	1640.72
407.77	1753.06
407.96	1713.27
408.15	1736.68
408.34	1769.44
408.54	1823.28
408.73	1734.34
408.92	1783.49
409.11	1867.75
409.30	1837.32
409.49	1984.77
409.68	1912.22
409.87	2005.84
410.07	1919.24
410.26	1893.49
410.45	1984.77
410.64	1970.73
410.83	2019.88
411.02	1975.41
411.21	2118.18
411.40	2092.44
411.59	2087.76
411.78	2087.76
411.98	2047.97
412.17	2267.98
412.36	2139.25
412.55	2225.85
412.74	2244.57
412.93	2223.51
413.12	2256.28
413.31	2335.85
413.50	2300.75
413.69	2279.68
413.88	2387.35
414.07	2375.64
414.26	2401.39
414.45	2408.41
414.64	2527.78
414.83	2520.76
415.02	2497.35
415.22	2588.63
415.41	2668.21
415.60	2572.25
415.79	2588.63
415.98	2722.04
416.17	2579.27
416.36	2672.89
416.55	2717.36
416.74	2773.53
416.93	2841.41
417.12	2663.53
417.31	2761.83
417.50	2808.64
417.69	2984.18
417.88	2789.92
418.07	2895.24
418.26	2850.77
418.45	2984.18
418.64	3033.33
418.83	3082.49
419.02	2979.50
419.21	2998.23
419.39	3014.61
419.58	3063.76
419.77	2984.18
419.96	3208.87
420.15	3180.79
420.34	3084.83
420.53	3052.06
420.72	3225.26
420.91	3232.28
421.10	3131.64
421.29	3342.28
421.48	3133.98
421.67	3304.84
421.86	3321.22
422.05	3414.84
422.24	3314.20
422.43	3335.26
422.61	3361.01
422.80	3400.80
422.99	3253.34
423.18	3414.84
423.37	3375.05
423.56	3459.31
423.75	3386.76
423.94	3346.97
424.13	3091.85
424.32	3236.96
424.50	3344.63
424.69	3599.74
424.88	3515.48
425.07	3405.48
425.26	3351.65
425.45	3442.93
425.64	3365.69
425.83	3435.91
426.01	3634.85
426.20	3445.27
426.39	3396.12
426.58	3454.63
426.77	3492.08
426.96	3529.53
427.15	3667.62
427.33	3611.45
427.52	3503.78
427.71	3487.40
427.90	3452.29
428.09	3658.26
428.28	3709.75
428.46	3651.24
428.65	3662.94
428.84	3765.92
429.03	3782.31
429.22	3618.47
429.40	3728.47
429.59	3721.45
429.78	3578.68
429.97	3569.32
430.16	3566.98
430.34	3805.71
430.53	3920.40
430.72	3906.35
430.91	3833.80
431.10	3955.51
431.28	3887.63
431.47	3976.57
431.66	4037.42
431.85	3927.42
432.03	4060.83
432.22	4028.06
432.41	4067.85
432.60	4100.62
432.79	4025.72
432.97	4182.54
433.16	4070.19
433.35	4131.05
433.54	4093.60
433.72	4273.82
433.91	4194.24
434.10	4273.82
434.28	4245.73
434.47	4248.07
434.66	4388.50
434.85	4287.86
435.03	4528.94
435.22	4402.55
435.41	4348.72
435.59	4358.08
435.78	4283.18
435.97	4369.78
436.16	4575.75
436.34	4533.62
436.53	4390.84
436.72	4587.45
436.90	4456.38
437.09	4650.64
437.28	4493.83
437.46	4580.43
437.65	4582.77
437.84	4657.67
438.02	4812.14
438.21	4648.30
438.40	4688.09
438.58	4800.44
438.77	4870.65
438.96	4889.38
439.14	4957.25
439.33	4973.64
439.52	5022.79
439.70	4971.30
439.89	4940.87
440.08	5153.86
440.26	5102.37
440.45	5291.95
440.63	5294.29
440.82	5181.95
441.01	5289.61
441.19	5315.36
441.38	5287.27
441.57	5336.42
441.75	5547.07
441.94	5591.54
442.12	5408.98
442.31	5540.05
442.50	5600.90
442.68	5500.26
442.87	5605.58
443.05	5504.94
443.24	5617.29
443.43	5572.82
443.61	5776.44
443.80	5652.39
443.98	5577.50
444.17	5390.25
444.35	5818.57
444.54	5804.53
444.73	5802.19
444.91	5870.06
445.10	5783.46
445.28	5699.20
445.47	5638.35
445.65	5678.14
445.84	5820.91
446.02	5827.93
446.21	5706.23
446.39	5729.63
446.58	5820.91
446.77	5923.90
446.95	5849.00
447.14	5837.30
447.32	5926.24
447.51	5767.08
447.69	5935.60
447.88	5872.40
448.06	5881.77
448.25	5954.32
448.43	5956.66
448.62	5865.38
448.80	5996.45
448.99	5928.58
449.17	6115.82
449.36	5895.81
449.54	6076.03
449.73	6251.57
449.91	6263.27
450.10	6132.20
450.28	6303.06
450.46	6342.85
450.65	6328.81
450.83	6314.77
451.02	6356.90
451.20	6375.62
451.39	6429.45
451.57	6244.55
451.76	6232.85
451.94	6396.68
452.13	6417.75
452.31	6438.81
452.49	6256.25
452.68	6551.16
452.86	6516.05
453.05	6476.26
453.23	6502.01
453.42	6413.07
453.60	6272.64
453.78	6471.58
453.97	6354.55
454.15	6672.87
454.34	6518.39
454.52	6754.79
454.70	6647.12
454.89	6553.50
455.07	6881.18
455.26	6796.92
455.44	6846.07
455.62	6841.39
455.81	6684.57
455.99	6839.05
456.17	6937.35
456.36	7075.44
456.54	6935.01
456.73	7054.37
456.91	7201.83
457.09	7143.32
457.28	7262.68
457.46	7311.83
457.64	7286.09
457.83	7169.06
458.01	6965.43
458.19	7368.01
458.38	7255.66
458.56	7410.14
458.74	7410.14
458.93	7510.78
459.11	7424.18
459.29	7272.04
459.48	7307.15
459.66	7356.30
459.84	7538.87
460.03	7653.55
460.21	7456.95
460.39	7585.68
460.57	7541.21
460.76	7714.41
460.94	7716.75
461.12	7595.04
461.31	7653.55
461.49	7754.19
461.67	7719.09
461.85	8004.63
462.04	7854.84
462.22	8259.75
462.40	8018.68
462.59	7932.08
462.77	7960.16
462.95	8212.94
463.13	8009.31
463.32	8053.78
463.50	8046.76
463.68	7887.61
463.86	8259.75
464.05	7908.67
464.23	7957.82
464.41	8184.85
464.59	8114.64
464.78	8163.79
464.96	8126.34
465.14	8138.04
465.32	8191.88
465.50	8554.66
465.69	8369.76
465.87	8271.45
466.05	8393.16
466.23	8294.86
466.41	8145.06
466.60	8744.24
466.78	8390.82
466.96	8421.25
467.14	8259.75
467.32	8451.67
467.51	8674.03
467.69	8266.77
467.87	8484.44
468.05	8739.56
468.23	8524.23
468.41	8777.01
468.60	8496.14
468.78	8659.98
468.96	8655.30
469.14	8760.63
469.32	8678.71
469.50	8683.39
469.69	8645.94
469.87	9076.60
470.05	9015.74
470.23	8809.78
470.41	9022.77
470.59	9015.74
470.77	9088.30
470.95	9146.81
471.14	9076.60
471.32	9224.05
471.50	9406.61
471.68	9310.65
471.86	9132.77
472.04	9324.69
472.22	9680.46
472.40	9483.85
472.58	9600.88
472.77	9479.17
472.95	9638.33
473.13	9867.70
473.31	9568.11
473.49	9818.55
473.67	9774.08
473.85	9757.69
474.03	9928.55
474.21	9858.34
474.39	10150.90
474.57	10127.50
474.75	10253.89
474.93	10286.65
475.12	10101.75
475.30	10218.78
475.48	10132.18
475.66	10616.67
475.84	10300.70
476.02	10684.55
476.20	10497.30
476.38	10572.20
476.56	10841.36
476.74	10738.38
476.92	11030.94
477.10	10848.38
477.28	11044.99
477.46	10785.19
477.64	11187.76
477.82	11335.21
478.00	11403.09
478.18	11459.26
478.36	11705.02
478.54	11712.04
478.72	11815.02
478.90	12011.63
479.08	12065.46
479.26	11934.39
479.44	12067.80
479.62	12095.89
479.80	12269.09
479.98	12149.72
480.16	12606.13
480.34	12486.76
480.52	12779.32
480.70	12807.41
480.88	12564.00
481.06	12861.24
481.24	12517.18
481.41	12788.69
481.59	13256.79
481.77	13497.87
481.95	13284.88
482.13	13565.74
482.31	13504.89
482.49	13734.26
482.67	14017.47
482.85	14012.79
483.03	14083.00
483.21	14040.87
483.39	14200.03
483.57	14193.01
483.74	14188.33
483.92	14562.81
484.10	14457.49
484.28	15068.37
484.46	14857.72
484.64	15421.79
484.82	15087.09
485.00	15105.82
485.18	15304.76
485.35	15419.45
485.53	15297.74
485.71	15712.02
485.89	16095.86
486.07	16025.65
486.25	15854.79
486.43	15957.77
486.61	16468.01
486.78	16421.20
486.96	16397.79
487.14	16968.88
487.32	16610.78
487.50	16709.08
487.68	17036.76
487.85	17188.89
488.03	17696.79
488.21	17465.08
488.39	17811.48
488.57	17792.75
488.75	18141.49
488.92	18167.24
489.10	18134.47
489.28	18457.46
489.46	18546.40
489.64	18132.13
489.81	18782.80
489.99	18693.86
490.17	19035.58
490.35	19103.45
490.53	19063.66
490.70	19449.85
490.88	19590.28
491.06	19880.51
491.24	19611.35
491.41	19814.98
491.59	19730.72
491.77	19941.36
491.95	20489.05
492.13	20355.64
492.30	20130.95
492.48	20442.24
492.66	21001.63
492.84	20800.34
493.01	20922.05
493.19	21324.62
493.37	21167.80
493.54	21329.30
493.72	21427.60
493.90	21504.84
494.08	21872.31
494.25	21671.02
494.43	21914.44
494.61	22054.87
494.79	22221.05
494.96	22178.92
495.14	22111.04
495.32	22459.78
495.49	22604.89
495.67	22560.42
495.85	23000.44
496.02	22799.16
496.20	22974.70
496.38	23267.27
496.55	23314.08
496.73	23770.48
496.91	23688.56
497.09	23976.45
497.26	23871.12
497.44	23765.80
497.62	23632.39
497.79	24285.40
497.97	24119.22
498.14	24617.75
498.32	24624.78
498.50	24503.07
498.67	24566.26
498.85	25205.23
499.03	25362.04
499.20	24835.42
499.38	25034.37
499.56	25472.05
499.73	25062.46
499.91	25504.82
500.08	25668.66
500.26	25586.74
500.44	25727.17
500.61	25680.36
500.79	25652.27
500.97	26237.41
501.14	26115.70
501.32	26291.24
501.49	26274.85
501.67	26356.77
501.84	26314.64
502.02	26939.57
502.20	26876.37
502.37	26848.29
502.55	26703.17
502.72	26850.63
502.90	26845.94
503.07	26993.40
503.25	27494.27
503.43	26752.32
503.60	27548.11
503.78	27178.30
503.95	27419.38
504.13	27751.73
504.30	28006.85
504.48	27810.25
504.65	28161.33
504.83	28432.83
505.01	28070.04
505.18	28217.50
505.36	28673.90
505.53	27964.72
505.71	28627.09
505.88	28297.08
506.06	28538.15
506.23	28645.82
506.41	28779.23
506.58	28959.45
506.76	28982.85
506.93	29408.83
507.11	28947.75
507.28	29256.70
507.46	29443.94
507.63	29322.23
507.81	29930.77
507.98	29675.65
508.16	29804.38
508.33	29706.08
508.50	29919.07
508.68	30181.21
508.85	30263.13
509.03	30008.01
509.20	30574.42
509.38	30527.61
509.55	30494.84
509.73	30508.88
509.90	30581.44
510.08	30272.49
510.25	30518.25
510.42	30752.30
510.60	31201.68
510.77	31297.64
510.95	31550.42
511.12	31075.29
511.30	31505.95
511.47	31728.30
511.64	31309.35
511.82	32140.24
511.99	31365.52
512.17	32039.59
512.34	31646.38
512.51	31641.70
512.69	32009.17
512.86	31922.57
513.04	32484.30
513.21	32713.67
513.38	32521.74
513.56	32755.80
513.73	32713.67
513.90	32521.74
514.08	32652.81
514.25	33010.92
514.43	32921.98
514.60	32830.69
514.77	32851.76
514.95	33371.36
515.12	33034.32
515.29	32954.74
515.47	33579.67
515.64	33598.39
515.81	33514.13
515.99	33532.86
516.16	34476.09
516.33	33626.48
516.51	33820.74
516.68	33841.81
516.85	34192.89
517.03	34195.23
517.20	34469.07
517.37	34333.32
517.54	34412.90
517.72	34185.86
517.89	33830.10
518.06	34714.83
518.24	34789.72
518.41	34057.14
518.58	34857.60
518.75	35157.19
518.93	34775.68
519.10	35196.98
519.27	35187.61
519.45	34888.03
519.62	35220.38
519.79	35054.20
519.96	35428.69
520.14	35489.54
520.31	35332.73
520.48	35859.35
520.65	35854.67
520.83	35665.08
521.00	35321.02
521.17	35732.96
521.34	36084.04
521.52	36055.95
521.69	36158.94
521.86	36074.68
522.03	36027.87
522.20	36287.67
522.38	36329.80
522.55	36360.22
522.72	36311.07
522.89	36383.63
523.07	36542.78
523.24	36980.46
523.41	36622.36
523.58	36823.65
523.75	37027.28
523.92	36790.88
524.10	36973.44
524.27	37053.02
524.44	37258.99
524.61	37270.69
524.78	37181.75
524.96	37226.22
525.13	37469.64
525.30	37258.99
525.47	37521.13
525.64	37717.73
525.81	38153.07
525.98	38232.65
526.16	37523.47
526.33	37830.08
526.50	38583.73
526.67	37677.94
526.84	38050.09
527.01	38038.39
527.18	38134.35
527.36	38199.88
527.53	38326.27
527.70	39012.05
527.87	38171.80
528.04	38417.55
528.21	38714.80
528.38	38611.82
528.55	38670.33
528.72	38817.78
528.89	38424.57
529.07	38721.82
529.24	38965.24
529.41	38630.54
529.58	38763.95
529.75	39189.93
529.92	38974.60
530.09	39005.03
530.26	39318.66
530.43	39344.41
530.60	39234.40
530.77	39304.62
530.94	39632.29
531.11	39061.20
531.28	39295.25
531.46	39358.45
531.63	39775.06
531.80	39910.82
531.97	39800.81
532.14	39496.54
532.31	39533.99
532.48	39880.39
532.65	39988.05
532.82	39915.50
532.99	39814.85
533.16	40163.59
533.33	40552.12
533.50	40589.57
533.67	40538.08
533.84	39927.20
534.01	40285.30
534.18	40278.28
534.35	40779.15
534.52	40287.64
534.69	41155.98
534.86	40863.41
535.03	40685.53
535.20	40835.33
535.37	40776.81
535.54	41474.29
535.71	40615.32
535.88	40978.10
536.05	41099.81
536.22	41338.54
536.38	41404.08
536.55	41221.52
536.72	41514.08
536.89	41181.73
537.06	41551.53
537.23	41549.19
537.40	41099.81
537.57	41399.40
537.74	41137.26
537.91	41418.12
538.08	41937.72
538.25	41750.48
538.42	41532.81
538.59	41691.96
538.75	41574.94
538.92	41483.66
539.09	42272.42
539.26	42174.11
539.43	41993.89
539.60	41921.34
539.77	42192.84
539.94	41996.23
540.11	41914.31
540.28	42038.36
540.44	42335.61
540.61	42473.70
540.78	42319.23
540.95	42499.45
541.12	42632.86
541.29	42384.76
541.46	42520.51
541.62	42457.32
541.79	42452.64
541.96	42054.75
542.13	42583.71
542.30	42567.32
542.47	42841.17
542.63	43339.70
542.80	43381.83
542.97	42745.20
543.14	43311.61
543.31	43381.83
543.48	43096.28
543.64	43721.21
543.81	43531.62
543.98	43765.68
544.15	43744.61
544.32	44072.29
544.48	44058.24
544.65	44149.53
544.82	43281.19
544.99	43428.64
545.16	43536.30
545.32	43779.72
545.49	44238.47
545.66	43948.24
545.83	44151.87
546.00	44018.46
546.16	44083.99
546.33	43718.87
546.50	43585.46
546.67	44093.35
546.83	43622.90
547.00	44107.40
547.17	43887.39
547.34	44257.19
547.50	44395.28
547.67	44793.17
547.84	44320.38
548.00	44631.68
548.17	44666.78
548.34	44648.06
548.51	44561.46
548.67	44638.70
548.84	44306.34
549.01	44807.22
549.18	44610.61
549.34	44797.85
549.51	44570.82
549.68	44549.76
549.84	44783.81
550.01	44786.15
550.18	44708.91
550.34	44938.29
550.51	44940.63
550.68	45111.49
550.84	44652.74
551.01	45240.21
551.18	44655.08
551.34	45361.92
551.51	45261.28
551.68	45219.15
551.84	45504.70
552.01	45113.83
552.18	45710.66
552.34	45504.70
552.51	45715.34
552.68	45359.58
552.84	45422.78
553.01	45511.72
553.18	45462.57
553.34	45336.18
553.51	45500.01
553.67	45846.41
553.84	46038.34
554.01	45808.96
554.17	45766.84
554.34	45986.85
554.51	46003.23
554.67	45820.67
554.84	45855.78
555.00	45603.00
555.17	45993.87
555.33	46005.57
555.50	45738.75
555.67	45834.71
555.83	45577.25
556.00	45808.96
556.16	46054.72
556.33	45937.69
556.50	46043.02
556.66	46230.26
556.83	45855.78
556.99	46340.27
557.16	46571.98
557.32	46333.24
557.49	46698.37
557.65	46101.53
557.82	46227.92
557.98	45958.76
558.15	46415.16
558.32	46263.03
558.48	46363.67
558.65	46181.11
558.81	46632.83
558.98	46930.08
559.14	46637.51
559.31	46162.39
559.47	46263.03
559.64	46988.60
559.80	46759.22
559.97	46614.11
560.13	46349.63
560.30	46588.36
560.46	47084.56
560.63	46656.24
560.79	47180.52
560.96	47033.07
561.12	46438.57
561.29	46787.31
561.45	46623.47
561.61	47297.55
561.78	46473.68
561.94	46864.55
562.11	46539.21
562.27	46759.22
562.44	46717.09
562.60	46885.61
562.77	46644.54
562.93	47070.51
563.10	47187.54
563.26	46892.63
563.42	47173.50
563.59	47131.37
563.75	47030.72
563.92	47138.39
564.08	46871.57
564.24	46707.73
564.41	47246.05
564.57	47365.42
564.74	47119.66
564.90	47159.45
565.07	47477.77
565.23	47494.15
565.39	47402.87
565.56	47224.99
565.72	46817.74
565.88	47026.04
566.05	47484.79
566.21	46845.82
566.38	47332.65
566.54	47487.13
566.70	47686.07
566.87	47608.84
567.03	47672.03
567.19	48142.48
567.36	47145.41
567.52	47367.76
567.68	47482.45
567.85	47093.92
568.01	47150.09
568.17	47299.89
568.34	47316.27
568.50	47562.03
568.66	47215.63
568.83	47728.20
568.99	47264.78
569.15	47515.22
569.32	47489.47
569.48	47318.61
569.64	47625.22
569.81	47402.87
569.97	47152.43
570.13	47540.96
570.30	47613.52
570.46	47447.34
570.62	47569.05
570.78	47442.66
570.95	47098.60
571.11	47580.75
571.27	47234.35
571.43	47555.00
571.60	47866.30
571.76	47576.07
571.92	48163.54
572.09	47524.58
572.25	47487.13
572.41	47948.21
572.57	47547.98
572.74	47882.68
572.90	47012.00
573.06	47632.24
573.22	47662.67
573.38	47915.45
573.55	47859.27
573.71	47962.26
573.87	48231.42
574.03	47767.99
574.20	47550.32
574.36	47547.98
574.52	47672.03
574.68	47735.23
574.84	47782.04
575.01	47842.89
575.17	47973.96
575.33	47641.60
575.49	47889.70
575.65	48123.75
575.82	47435.64
575.98	47913.11
576.14	47943.53
576.30	47842.89
576.46	47601.82
576.62	47510.53
576.79	47817.14
576.95	47856.93
577.11	47800.76
577.27	47744.59
577.43	47753.95
577.59	47730.54
577.75	48182.27
577.92	47608.84
578.08	47484.79
578.24	47700.12
578.40	47896.72
578.56	48233.76
578.72	48196.31
578.88	48095.67
579.04	48105.03
579.21	47908.43
579.37	47835.87
579.53	48030.13
579.69	47845.23
579.85	47590.11
580.01	48114.39
580.17	47873.32
580.33	47889.70
580.49	48357.81
580.65	48198.65
580.82	48289.93
580.98	48257.17
581.14	48027.79
581.30	48177.59
581.46	48222.06
581.62	47882.68
581.78	47814.80
581.94	48425.68
582.10	47863.96
582.26	47999.71
582.42	47618.20
582.58	47700.12
582.74	48168.22
582.90	48177.59
583.06	48292.27
583.22	48093.33
583.38	47693.10
583.54	48048.86
583.70	47957.58
583.86	47966.94
584.02	48318.02
584.18	48303.98
584.34	48147.16
584.50	48315.68
584.66	48289.93
584.82	47950.56
584.98	48308.66
585.14	48172.91
585.30	48048.86
585.46	47782.04
585.62	47929.49
585.78	48350.79
585.94	47920.13
586.10	48535.69
586.26	48170.57
586.42	48126.10
586.58	48062.90
586.74	48053.54
586.90	48362.49
587.06	48095.67
587.22	48184.61
587.38	47992.68
587.54	47995.03
587.70	48526.33
587.86	48474.84
588.02	48519.31
588.18	48580.16
588.34	48603.56
588.49	48325.04
588.65	48713.57
588.81	47959.92
588.97	48126.10
589.13	47990.34
589.29	48271.21
589.45	48198.65
589.61	48493.56
589.77	48456.11
589.93	48603.56
590.08	48617.61
590.24	48390.58
590.40	48509.94
590.56	48570.80
590.72	48217.38
