SpectraSuite Data File
++++++++++++++++++++++++++++++++++++
Date: Fri Oct 04 11:48:29 GMT-05:00 2013
User: price-jones
Dark Spectrum Present: No
Reference Spectrum Present: No
Number of Sampled Component Spectra: 1
Spectrometers: USB2+H05261
Integration Time (usec): 100000 (USB2+H05261)
Spectra Averaged: 1 (USB2+H05261)
Boxcar Smoothing: 0 (USB2+H05261)
Correct for Electrical Dark: No (USB2+H05261)
Strobe/Lamp Enabled: No (USB2+H05261)
Correct for Detector Non-linearity: No (USB2+H05261)
Correct for Stray Light: No (USB2+H05261)
Number of Pixels in Processed Spectrum: 2048
>>>>>Begin Processed Spectral Data<<<<<
365.73	39.79
365.92	39.79
366.12	39.79
366.32	35.11
366.52	0.00
366.72	0.00
366.91	0.00
367.11	0.00
367.31	0.00
367.51	0.00
367.70	0.00
367.90	0.00
368.10	0.00
368.30	0.00
368.49	0.00
368.69	7.02
368.89	0.00
369.09	0.00
369.28	0.00
369.48	0.00
369.68	0.00
369.87	0.00
370.07	0.00
370.27	9.36
370.47	102.98
370.66	437.68
370.86	440.02
371.06	482.15
371.25	580.45
371.45	428.32
371.65	500.87
371.84	430.66
372.04	498.53
372.24	613.22
372.44	503.22
372.63	561.73
372.83	589.82
373.03	587.47
373.22	571.09
373.42	608.54
373.62	585.13
373.81	615.56
374.01	568.75
374.21	683.44
374.40	615.56
374.60	706.84
374.79	638.97
374.99	681.10
375.19	636.63
375.38	662.37
375.58	697.48
375.78	734.93
375.97	704.50
376.17	823.87
376.37	697.48
376.56	669.39
376.76	718.54
376.95	746.63
377.15	781.74
377.35	844.93
377.54	699.82
377.74	737.27
377.93	786.42
378.13	819.19
378.33	877.70
378.52	793.44
378.72	793.44
378.91	781.74
379.11	807.48
379.31	819.19
379.50	744.29
379.70	854.30
379.89	842.59
380.09	833.23
380.28	777.06
380.48	875.36
380.68	823.87
380.87	751.31
381.07	772.38
381.26	936.21
381.46	959.62
381.65	873.02
381.85	891.74
382.04	910.47
382.24	901.11
382.43	877.70
382.63	861.32
382.83	1015.79
383.02	1008.77
383.22	908.13
383.41	950.26
383.61	1004.09
383.80	997.07
384.00	997.07
384.19	917.49
384.39	894.08
384.58	987.71
384.78	987.71
384.97	964.30
385.17	938.55
385.36	1001.75
385.56	1067.28
385.75	954.94
385.95	987.71
386.14	990.05
386.34	1039.20
386.53	1130.48
386.72	1046.22
386.92	1083.67
387.11	1170.27
387.31	1160.91
387.50	1186.65
387.70	1186.65
387.89	1151.54
388.09	1165.59
388.28	1086.01
388.48	1137.50
388.67	1160.91
388.86	1109.41
389.06	1118.78
389.25	1165.59
389.45	1172.61
389.64	1212.40
389.84	1261.55
390.03	1362.19
390.22	1364.53
390.42	1219.42
390.61	1233.46
390.81	1357.51
391.00	1275.59
391.19	1336.45
391.39	1406.66
391.58	1352.83
391.78	1252.19
391.97	1387.94
392.16	1355.17
392.36	1404.32
392.55	1406.66
392.75	1488.58
392.94	1406.66
393.13	1462.83
393.33	1483.90
393.52	1467.52
393.71	1554.12
393.91	1460.49
394.10	1570.50
394.29	1540.07
394.49	1516.67
394.68	1425.39
394.88	1483.90
395.07	1579.86
395.26	1511.99
395.46	1476.88
395.65	1598.59
395.84	1645.40
396.04	1621.99
396.23	1636.03
396.42	1732.00
396.62	1696.89
396.81	1682.85
397.00	1696.89
397.19	1612.63
397.39	1783.49
397.58	1680.50
397.77	1792.85
397.97	1647.74
398.16	1657.10
398.35	1933.28
398.55	1750.72
398.74	1844.34
398.93	1944.99
399.12	1830.30
399.32	1785.83
399.51	1863.07
399.70	1888.81
399.90	1853.70
400.09	1968.39
400.28	1877.11
400.47	2008.18
400.67	1949.67
400.86	1980.09
401.05	1989.46
401.24	1959.03
401.44	2118.18
401.63	2183.72
401.82	2150.95
402.01	2066.69
402.21	2043.29
402.40	2162.66
402.59	2127.55
402.78	2155.63
402.97	2183.72
403.17	2090.10
403.36	2211.81
403.55	2232.87
403.74	2258.62
403.93	2214.15
404.13	2366.28
404.32	2298.41
404.51	2359.26
404.70	2396.71
404.89	2403.73
405.09	2427.14
405.28	2445.86
405.47	2466.92
405.66	2548.84
405.85	2483.31
406.05	2534.80
406.24	2581.61
406.43	2551.18
406.62	2710.34
406.81	2754.81
407.00	2672.89
407.20	2595.65
407.39	2708.00
407.58	2693.96
407.77	2675.23
407.96	2743.11
408.15	2736.09
408.34	2789.92
408.54	2717.36
408.73	2672.89
408.92	2703.32
409.11	2703.32
409.30	2785.24
409.49	2796.94
409.68	2874.18
409.87	2888.22
410.07	2963.12
410.26	3009.93
410.45	3068.44
410.64	2949.08
410.83	3105.89
411.02	3052.06
411.21	3126.96
411.40	3108.23
411.59	3272.07
411.78	3215.90
411.98	3117.59
412.17	3272.07
412.36	3297.81
412.55	3211.22
412.74	3407.82
412.93	3456.97
413.12	3356.33
413.31	3487.40
413.50	3456.97
413.69	3658.26
413.88	3576.34
414.07	3625.49
414.26	3524.85
414.45	3641.87
414.64	3590.38
414.83	3847.84
415.02	3728.47
415.22	3751.88
415.41	3838.48
415.60	3836.14
415.79	3957.85
415.98	3997.64
416.17	3918.06
416.36	3925.08
416.55	4051.47
416.74	4070.19
416.93	4063.17
417.12	4161.47
417.31	4124.02
417.50	4205.94
417.69	4301.90
417.88	4432.97
418.07	4133.39
418.26	4339.35
418.45	4383.82
418.64	4510.21
418.83	4503.19
419.02	4346.37
419.21	4416.59
419.39	4528.94
419.58	4552.34
419.77	4437.66
419.96	4447.02
420.15	4580.43
420.34	4470.42
420.53	4667.03
420.72	4585.11
420.91	4716.18
421.10	4681.07
421.29	4774.69
421.48	4725.54
421.67	4849.59
421.86	4798.10
422.05	4788.74
422.24	4746.61
422.43	4791.08
422.61	4947.89
422.80	4947.89
422.99	4833.21
423.18	4929.17
423.37	4985.34
423.56	4828.53
423.75	4851.93
423.94	4887.04
424.13	4594.47
424.32	4571.07
424.50	4891.72
424.69	4978.32
424.88	5076.62
425.07	4915.12
425.26	5139.82
425.45	4990.02
425.64	4873.00
425.83	5029.81
426.01	5095.35
426.20	5006.41
426.39	5184.29
426.58	5032.15
426.77	5039.17
426.96	5160.88
427.15	5034.49
427.33	5224.08
427.52	5345.78
427.71	5198.33
427.90	5217.05
428.09	5233.44
428.28	5345.78
428.46	5500.26
428.65	5380.89
428.84	5481.53
429.03	5479.19
429.22	5345.78
429.40	5465.15
429.59	5497.92
429.78	5301.31
429.97	5303.65
430.16	5469.83
430.34	5537.71
430.53	5799.85
430.72	5734.31
430.91	5708.57
431.10	5628.99
431.28	5888.79
431.47	5797.51
431.66	6047.94
431.85	5874.74
432.03	5870.06
432.22	5954.32
432.41	6078.37
432.60	6057.31
432.79	6122.84
432.97	6129.86
433.16	5975.39
433.35	6059.65
433.54	6099.44
433.72	6270.30
433.91	6122.84
434.10	6169.65
434.28	6258.59
434.47	6251.57
434.66	6188.38
434.85	6375.62
435.03	6225.82
435.22	6366.26
435.41	6506.69
435.59	6441.15
435.78	6527.75
435.97	6513.71
436.16	6478.60
436.34	6647.12
436.53	6483.28
436.72	6794.58
436.90	6492.65
437.09	6670.53
437.28	6457.54
437.46	6640.10
437.65	6782.87
437.84	7000.54
438.02	6883.52
438.21	6808.62
438.40	6675.21
438.58	7075.44
438.77	7005.22
438.96	7059.06
439.14	7393.75
439.33	7192.47
439.52	7314.17
439.70	7269.70
439.89	7363.33
440.08	7400.77
440.26	7419.50
440.45	7410.14
440.63	7531.84
440.82	7632.49
441.01	7555.25
441.19	7779.94
441.38	7768.24
441.57	7983.57
441.75	8131.02
441.94	8114.64
442.12	7983.57
442.31	8226.98
442.50	8102.93
442.68	8140.38
442.87	7971.86
443.05	8194.22
443.24	8154.43
443.43	8184.85
443.61	8266.77
443.80	8360.39
443.98	8388.48
444.17	8039.74
444.35	8470.40
444.54	8397.84
444.73	8748.92
444.91	8650.62
445.10	8526.57
445.28	8470.40
445.47	8489.12
445.65	8491.46
445.84	8322.94
446.02	8655.30
446.21	8524.23
446.39	8496.14
446.58	8533.59
446.77	8493.80
446.95	8723.18
447.14	8498.49
447.32	8622.53
447.51	8615.51
447.69	8650.62
447.88	8594.45
448.06	8540.61
448.25	8683.39
448.43	8849.57
448.62	9011.06
448.80	8798.07
448.99	8704.45
449.17	8854.25
449.36	8559.34
449.54	9139.79
449.73	9011.06
449.91	9076.60
450.10	9238.09
450.28	9294.27
450.46	9132.77
450.65	9270.86
450.83	9256.82
451.02	9231.07
451.20	9390.23
451.39	9284.91
451.57	9444.06
451.76	9357.46
451.94	9376.19
452.13	9596.20
452.31	9380.87
452.49	9376.19
452.68	9680.46
452.86	9287.25
453.05	9493.21
453.23	9851.31
453.42	9598.54
453.60	9521.30
453.78	9729.61
453.97	9523.64
454.15	9734.29
454.34	9736.63
454.52	9898.13
454.70	9504.92
454.89	10015.15
455.07	10038.56
455.26	10195.37
455.44	10099.41
455.62	10052.60
455.81	10132.18
455.99	10413.04
456.17	10310.06
456.36	10171.97
456.54	10583.90
456.73	10633.05
456.91	10698.59
457.09	10682.20
457.28	10918.60
457.46	10406.02
457.64	10693.91
457.83	10455.17
458.01	10441.13
458.19	10937.32
458.38	10801.57
458.56	11115.20
458.74	10892.85
458.93	10885.83
459.11	11026.26
459.29	11082.44
459.48	11044.99
459.66	10827.32
459.84	11215.85
460.03	11260.32
460.21	11108.18
460.39	11337.56
460.57	11194.78
460.76	11485.01
460.94	11557.57
461.12	11059.03
461.31	11339.90
461.49	11609.06
461.67	11609.06
461.85	11976.52
462.04	11335.21
462.22	12379.09
462.40	11932.05
462.59	11501.39
462.77	11836.09
462.95	12002.27
463.13	11995.25
463.32	11943.75
463.50	11946.09
463.68	12023.33
463.86	12098.23
464.05	12020.99
464.23	11784.60
464.41	12404.84
464.59	12042.06
464.78	12351.01
464.96	12039.72
465.14	11950.78
465.32	12269.09
465.50	12540.59
465.69	12533.57
465.87	12318.24
466.05	12252.70
466.23	12402.50
466.41	12559.31
466.60	12779.32
466.78	12596.76
466.96	12582.72
467.14	12414.20
467.32	12744.22
467.51	12908.05
467.69	12566.34
467.87	12788.69
468.05	12865.92
468.23	12851.88
468.41	12727.83
468.60	13027.42
468.78	13118.70
468.96	13001.68
469.14	13015.72
469.32	13249.77
469.50	13174.88
469.69	13275.52
469.87	12989.97
470.05	13270.84
470.23	13287.22
470.41	13394.89
470.59	13556.38
470.77	13767.03
470.95	13647.66
471.14	13696.82
471.32	13760.01
471.50	13965.98
471.68	13940.23
471.86	14136.84
472.04	14015.13
472.22	14260.88
472.40	14132.15
472.58	14225.78
472.77	14551.11
472.95	14654.09
473.13	14738.35
473.31	14317.06
473.49	14586.22
473.67	14476.21
473.85	14712.61
474.03	15234.55
474.21	14628.35
474.39	15030.92
474.57	15047.30
474.75	15316.47
474.93	15384.34
475.12	15396.04
475.30	15552.86
475.48	15524.77
475.66	15740.10
475.84	15786.91
476.02	15796.28
476.20	15733.08
476.38	16009.26
476.56	16437.58
476.74	16217.57
476.92	16208.21
477.10	16365.03
477.28	16643.55
477.46	16545.25
477.64	16929.09
477.82	17034.42
478.00	17380.82
478.18	17282.52
478.36	17621.89
478.54	17514.23
478.72	17554.02
478.90	18022.12
479.08	18148.51
479.26	18260.86
479.44	18335.76
479.62	18429.38
479.80	18586.19
479.98	18466.83
480.16	18876.42
480.34	19143.24
480.52	19197.07
480.70	19220.48
480.88	19040.26
481.06	19267.29
481.24	19262.61
481.41	19943.70
481.59	19917.96
481.77	20531.18
481.95	20264.36
482.13	20091.16
482.31	20697.36
482.49	20683.31
482.67	21006.31
482.85	21177.17
483.03	21198.23
483.21	21436.97
483.39	21834.86
483.57	21493.14
483.74	21689.74
483.92	21884.01
484.10	22174.24
484.28	22251.47
484.46	22775.75
484.64	22923.21
484.82	22691.49
485.00	22677.45
485.18	23695.58
485.35	23999.85
485.53	23587.92
485.71	23955.38
485.89	24325.19
486.07	24154.33
486.25	24304.12
486.43	24781.59
486.61	24828.40
486.78	25017.99
486.96	25001.60
487.14	25605.46
487.32	25607.80
487.50	25694.40
487.68	26150.81
487.85	26417.63
488.03	26462.10
488.21	26719.56
488.39	26981.70
488.57	27440.44
488.75	27084.68
488.92	27934.29
489.10	27648.75
489.28	27550.45
489.46	27817.27
489.64	28238.56
489.81	28584.96
489.99	28683.27
490.17	28947.75
490.35	29228.61
490.53	29439.26
490.70	29497.77
490.88	29390.11
491.06	29809.06
491.24	29944.81
491.41	30272.49
491.59	30251.42
491.77	30373.13
491.95	31063.59
492.13	30883.37
492.30	31065.93
492.48	31243.81
492.66	31192.32
492.84	31435.74
493.01	31995.12
493.19	31936.61
493.37	32020.87
493.54	32238.54
493.72	32631.75
493.90	32849.42
494.08	32627.07
494.25	33139.65
494.43	33340.93
494.61	33509.45
494.79	33724.78
494.96	33862.87
495.14	34075.86
495.32	34314.59
495.49	34139.05
495.67	34487.79
495.85	35271.87
496.02	34693.76
496.20	35140.80
496.38	35140.80
496.55	35377.20
496.73	36175.32
496.91	36442.14
497.09	36416.40
497.26	36706.62
497.44	36336.82
497.62	36620.02
497.79	36886.84
497.97	37015.57
498.14	37167.71
498.32	37684.97
498.50	37343.25
498.67	37799.65
498.85	37649.86
499.03	38359.04
499.20	38328.61
499.38	37958.81
499.56	38469.04
499.73	38785.02
499.91	38885.66
500.08	39108.01
500.26	38576.71
500.44	39145.46
500.61	39388.88
500.79	39496.54
500.97	39564.42
501.14	40009.12
501.32	39721.23
501.49	40051.25
501.67	40088.70
501.84	40463.18
502.02	40158.91
502.20	40914.90
502.37	40952.35
502.55	40776.81
502.72	41008.53
502.90	41214.49
503.07	40816.60
503.25	41607.70
503.43	41598.34
503.60	41574.94
503.78	41593.66
503.95	41846.44
504.13	41799.63
504.30	41830.05
504.48	41806.65
504.65	42518.17
504.83	42359.02
505.01	43234.38
505.18	42562.64
505.36	43096.28
505.53	42602.43
505.71	43143.09
505.88	42937.13
506.06	42997.98
506.23	43477.79
506.41	43522.26
506.58	43831.21
506.76	44041.86
506.93	44074.63
507.11	44114.42
507.28	44011.43
507.46	44713.59
507.63	44732.32
507.81	44957.01
507.98	44397.62
508.16	44584.86
508.33	44591.89
508.50	45467.25
508.68	45333.84
508.85	45731.73
509.03	45104.46
509.20	45469.59
509.38	46124.94
509.55	45748.11
509.73	45783.22
509.90	46389.42
510.08	46309.84
510.25	46532.19
510.42	46534.53
510.60	46740.50
510.77	46834.12
510.95	46951.15
511.12	46848.16
511.30	47086.90
511.47	47363.08
511.64	46873.91
511.82	47232.01
511.99	47461.38
512.17	47437.98
512.34	47459.04
512.51	47868.64
512.69	47985.66
512.86	48151.84
513.04	48839.96
513.21	48479.52
513.38	48568.46
513.56	48861.02
513.73	48144.82
513.90	48451.43
514.08	48687.82
514.25	48526.33
514.43	49006.14
514.60	49020.18
514.77	48861.02
514.95	49338.49
515.12	49331.47
515.29	49244.87
515.47	49558.50
515.64	49783.19
515.81	49577.23
515.99	49820.64
516.16	50129.59
516.33	50099.17
516.51	50487.70
516.68	50047.68
516.85	50113.21
517.03	50319.18
517.20	50387.05
517.37	50728.77
517.54	50681.96
517.72	50497.06
517.89	50656.21
518.06	50660.90
518.24	50611.74
518.41	50901.97
518.58	50988.57
518.75	50951.12
518.93	51180.49
519.10	50932.40
519.27	51278.80
519.45	51180.49
519.62	51278.80
519.79	51288.16
519.96	51409.87
520.14	51782.01
520.31	51679.03
520.48	51667.33
520.65	51779.67
520.83	51597.11
521.00	51980.96
521.17	51896.70
521.34	51910.74
521.52	52154.16
521.69	52112.03
521.86	52568.43
522.03	52470.13
522.20	52622.26
522.38	52519.28
522.55	52905.47
522.72	52690.14
522.89	52868.02
523.07	53003.77
523.24	52758.02
523.41	53284.64
523.58	52905.47
523.75	52968.66
523.92	53052.92
524.10	53172.29
524.27	53095.05
524.44	53378.26
524.61	53607.63
524.78	53654.44
524.96	53506.99
525.13	53485.92
525.30	53586.57
525.47	53670.82
525.64	53731.68
525.81	53848.71
525.98	54174.04
526.16	53989.14
526.33	53881.47
526.50	54197.44
526.67	54089.78
526.84	54335.54
527.01	53862.75
527.18	54309.79
527.36	54536.82
527.53	54511.08
527.70	54803.64
527.87	54698.32
528.04	54431.50
528.21	54202.13
528.38	54576.61
528.55	54604.70
528.72	54602.36
528.89	54822.37
529.07	54962.80
529.24	54766.20
529.41	54894.92
529.58	54972.16
529.75	54904.29
529.92	55014.29
530.09	55166.43
530.26	55426.23
530.43	55182.81
530.60	55072.81
530.77	55215.58
530.94	55437.93
531.11	55206.22
531.28	55229.62
531.46	55388.78
531.63	55676.66
531.80	55346.65
531.97	55622.83
532.14	55674.32
532.31	55730.50
532.48	55667.30
532.65	55571.34
532.82	55702.41
532.99	56055.83
533.16	55877.95
533.33	56048.81
533.50	56355.42
533.67	56219.67
533.84	55882.63
534.01	56193.92
534.18	56058.17
534.35	56341.38
534.52	56207.97
534.69	56486.49
534.86	56313.29
535.03	56416.27
535.20	56505.21
535.37	56491.17
535.54	56577.77
535.71	56463.08
535.88	56374.14
536.05	56500.53
536.22	56633.94
536.38	56814.16
536.55	56865.66
536.72	56697.14
536.89	56748.63
537.06	56811.82
537.23	56821.19
537.40	56570.75
537.57	56577.77
537.74	57092.69
537.91	57099.71
538.08	57095.03
538.25	56928.85
538.42	57155.88
538.59	57237.80
538.75	56746.29
538.92	57251.84
539.09	57221.42
539.26	57216.74
539.43	57235.46
539.60	57581.86
539.77	57340.78
539.94	57373.55
540.11	57427.38
540.28	57396.96
540.44	57347.81
540.61	57296.31
540.78	57485.90
540.95	57745.70
541.12	57722.29
541.29	57551.43
541.46	57780.81
541.62	57797.19
541.79	57862.72
541.96	57518.67
542.13	57691.86
542.30	57949.32
542.47	58122.52
542.63	58115.50
542.80	58253.59
542.97	58096.78
543.14	58361.26
543.31	58211.46
543.48	58211.46
543.64	58305.09
543.81	58475.94
543.98	58260.62
544.15	58148.27
544.32	58410.41
544.48	58712.34
544.65	58536.80
544.82	58583.61
544.99	58246.57
545.16	58658.51
545.32	58710.00
545.49	58796.60
545.66	58742.77
545.83	58784.90
546.00	58850.43
546.16	58864.47
546.33	58454.88
546.50	58443.18
546.67	58876.18
546.83	58651.48
547.00	58787.24
547.17	58796.60
547.34	58742.77
547.50	58911.28
547.67	59086.82
547.84	58937.03
548.00	59047.04
548.17	59227.26
548.34	59168.74
548.51	59381.73
548.67	59407.48
548.84	59299.81
549.01	59103.21
549.18	59306.83
549.34	59192.15
549.51	59250.66
549.68	59107.89
549.84	59290.45
550.01	59456.63
550.18	59231.94
550.34	59543.23
550.51	59522.16
550.68	59285.77
550.84	59255.34
551.01	59557.27
551.18	59351.30
551.34	59454.29
551.51	59646.21
551.68	59587.70
551.84	59700.04
552.01	59566.63
552.18	59737.49
552.34	59636.85
552.51	59952.82
552.68	59435.56
552.84	59702.38
553.01	59910.69
553.18	59718.77
553.34	60079.21
553.51	59955.16
553.67	59997.29
553.84	60058.15
554.01	60046.44
554.17	60013.68
554.34	59861.54
554.51	60151.77
554.67	60058.15
554.84	60214.96
555.00	60247.73
555.17	60158.79
555.33	60144.75
555.50	60126.02
555.67	59980.91
555.83	60144.75
556.00	60079.21
556.16	60261.77
556.33	60177.51
556.50	60299.22
556.66	60502.85
556.83	60069.85
556.99	60479.44
557.16	60299.22
557.32	60413.91
557.49	60568.38
557.65	60287.52
557.82	60488.80
557.98	60481.78
558.15	60399.86
558.32	60669.03
558.48	60757.97
558.65	60575.40
558.81	60544.98
558.98	60608.17
559.14	60647.96
559.31	60418.59
559.47	60488.80
559.64	60776.69
559.80	60725.20
559.97	60853.93
560.13	60512.21
560.30	60671.37
560.46	60591.79
560.63	60912.44
560.79	60760.31
560.96	60825.84
561.12	60697.11
561.29	60664.35
561.45	60774.35
561.61	60898.40
561.78	60954.57
561.94	60790.73
562.11	60919.46
562.27	60657.32
562.44	60973.30
562.60	60891.38
562.77	60898.40
562.93	60931.17
563.10	61123.09
563.26	60931.17
563.42	61195.65
563.59	61127.77
563.75	61031.81
563.92	60947.55
564.08	60985.00
564.24	61193.31
564.41	61141.81
564.57	60985.00
564.74	60963.93
564.90	61111.39
565.07	61092.66
565.23	61284.59
565.39	61350.12
565.56	61155.86
565.72	60809.46
565.88	61155.86
566.05	61015.43
566.21	61179.26
566.38	61073.94
566.54	61205.01
566.70	61368.85
566.87	61532.68
567.03	61460.13
567.19	61464.81
567.36	61286.93
567.52	61165.22
567.68	61406.30
567.85	61059.90
568.01	61448.42
568.17	61427.36
568.34	61319.70
568.50	61396.93
568.66	61490.55
568.83	61563.11
568.99	61396.93
569.15	61380.55
569.32	61464.81
569.48	61179.26
569.64	61364.17
569.81	61127.77
569.97	61476.51
570.13	61511.62
570.30	61656.73
570.46	61378.21
570.62	61703.54
570.78	61495.24
570.95	61347.78
571.11	61429.70
571.27	61176.92
571.43	61553.75
571.60	61591.20
571.76	61607.58
571.92	61757.38
572.09	61593.54
572.25	61471.83
572.41	61656.73
572.57	61661.41
572.74	61605.24
572.90	61666.09
573.06	61483.53
573.22	61427.36
573.38	61572.47
573.55	61567.79
573.71	61787.80
573.87	61743.33
574.03	61607.58
574.20	61769.08
574.36	61619.28
574.52	61708.22
574.68	61623.96
574.84	61787.80
575.01	61909.51
575.17	61815.89
575.33	61764.40
575.49	61724.61
575.65	61860.36
575.82	61984.41
575.98	61462.47
576.14	62129.52
576.30	61743.33
576.46	61743.33
576.62	61797.16
576.79	61492.89
576.95	61481.19
577.11	61731.63
577.27	61586.52
577.43	61944.62
577.59	61848.66
577.75	61736.31
577.92	61483.53
578.08	61523.32
578.24	61724.61
578.40	61717.59
578.56	61846.32
578.72	61855.68
578.88	62014.83
579.04	61972.70
579.21	61822.91
579.37	61701.20
579.53	61904.83
579.69	61612.26
579.85	62087.39
580.01	61815.89
580.17	61843.98
580.33	61759.72
580.49	62253.57
580.65	62035.90
580.82	62262.93
580.98	61904.83
581.14	62003.13
581.30	61930.58
581.46	61923.55
581.62	61881.42
581.78	61703.54
581.94	61834.61
582.10	61998.45
582.26	62181.01
582.42	61769.08
582.58	61827.59
582.74	62005.47
582.90	62026.54
583.06	62087.39
583.22	61989.09
583.38	62021.86
583.54	62052.28
583.70	61979.73
583.86	61984.41
584.02	61928.23
584.18	62082.71
584.34	62017.17
584.50	62232.50
584.66	62099.09
584.82	61841.63
584.98	62078.03
585.14	61925.89
585.30	61771.42
585.46	61822.91
585.62	61909.51
585.78	62047.60
585.94	61914.19
586.10	62061.64
586.26	62134.20
586.42	62216.12
586.58	62092.07
586.74	62005.47
586.90	62073.35
587.06	61951.64
587.22	61963.34
587.38	61888.45
587.54	62103.77
587.70	62433.79
587.86	62092.07
588.02	62171.65
588.18	62122.50
588.34	62181.01
588.49	62087.39
588.65	62066.33
588.81	62113.14
588.97	62190.37
