SpectraSuite Data File
++++++++++++++++++++++++++++++++++++
Date: Fri Oct 04 11:48:21 GMT-05:00 2013
User: price-jones
Dark Spectrum Present: No
Reference Spectrum Present: No
Number of Sampled Component Spectra: 1
Spectrometers: USB2+H05261
Integration Time (usec): 100000 (USB2+H05261)
Spectra Averaged: 1 (USB2+H05261)
Boxcar Smoothing: 0 (USB2+H05261)
Correct for Electrical Dark: No (USB2+H05261)
Strobe/Lamp Enabled: No (USB2+H05261)
Correct for Detector Non-linearity: No (USB2+H05261)
Correct for Stray Light: No (USB2+H05261)
Number of Pixels in Processed Spectrum: 2048
>>>>>Begin Processed Spectral Data<<<<<
365.73	37.45
365.92	37.45
366.12	37.45
366.32	0.00
366.52	0.00
366.72	0.00
366.91	0.00
367.11	0.00
367.31	0.00
367.51	0.00
367.70	0.00
367.90	0.00
368.10	0.00
368.30	0.00
368.49	0.00
368.69	0.00
368.89	0.00
369.09	0.00
369.28	18.72
369.48	0.00
369.68	0.00
369.87	0.00
370.07	0.00
370.27	0.00
370.47	0.00
370.66	107.66
370.86	65.54
371.06	180.22
371.25	140.43
371.45	128.73
371.65	156.82
371.84	154.48
372.04	63.19
372.24	133.41
372.44	175.54
372.63	182.56
372.83	184.90
373.03	154.48
373.22	196.60
373.42	231.71
373.62	189.58
373.81	173.20
374.01	243.42
374.21	220.01
374.40	210.65
374.60	196.60
374.79	105.32
374.99	245.76
375.19	222.35
375.38	203.63
375.58	208.31
375.78	194.26
375.97	252.78
376.17	273.84
376.37	184.90
376.56	177.88
376.76	170.86
376.95	217.67
377.15	245.76
377.35	215.33
377.54	276.18
377.74	227.03
377.93	189.58
378.13	245.76
378.33	220.01
378.52	262.14
378.72	269.16
378.91	271.50
379.11	231.71
379.31	203.63
379.50	198.95
379.70	255.12
379.89	250.44
380.09	245.76
380.28	210.65
380.48	266.82
380.68	236.39
380.87	210.65
381.07	243.42
381.26	262.14
381.46	266.82
381.65	241.08
381.85	220.01
382.04	273.84
382.24	304.27
382.43	222.35
382.63	257.46
382.83	273.84
383.02	304.27
383.22	278.52
383.41	250.44
383.61	238.73
383.80	264.48
384.00	292.57
384.19	257.46
384.39	367.46
384.58	243.42
384.78	285.55
384.97	285.55
385.17	348.74
385.36	325.33
385.56	322.99
385.75	229.37
385.95	325.33
386.14	341.72
386.34	222.35
386.53	236.39
386.72	252.78
386.92	299.59
387.11	266.82
387.31	227.03
387.50	205.97
387.70	367.46
387.89	278.52
388.09	325.33
388.28	358.10
388.48	313.63
388.67	372.15
388.86	306.61
389.06	390.87
389.25	379.17
389.45	372.15
389.64	358.10
389.84	301.93
390.03	301.93
390.22	294.91
390.42	337.04
390.61	325.33
390.81	304.27
391.00	416.62
391.19	313.63
391.39	393.21
391.58	376.83
391.78	397.89
391.97	407.25
392.16	297.25
392.36	360.44
392.55	330.02
392.75	294.91
392.94	330.02
393.13	332.36
393.33	337.04
393.52	362.78
393.71	393.21
393.91	435.34
394.10	404.91
394.29	465.77
394.49	407.25
394.68	407.25
394.88	484.49
395.07	449.38
395.26	425.98
395.46	409.59
395.65	486.83
395.84	442.36
396.04	528.96
396.23	468.11
396.42	414.27
396.62	498.53
396.81	444.70
397.00	545.34
397.19	456.40
397.39	404.91
397.58	578.11
397.77	528.96
397.97	589.82
398.16	470.45
398.35	582.79
398.55	589.82
398.74	559.39
398.93	510.24
399.12	500.87
399.32	482.15
399.51	543.00
399.70	596.84
399.90	620.24
400.09	603.86
400.28	690.46
400.47	617.90
400.67	613.22
400.86	716.20
401.05	610.88
401.24	664.71
401.44	751.31
401.63	636.63
401.82	697.48
402.01	650.67
402.21	671.73
402.40	674.07
402.59	678.76
402.78	788.76
402.97	718.54
403.17	741.95
403.36	676.41
403.55	873.02
403.74	716.20
403.93	755.99
404.13	819.19
404.32	807.48
404.51	828.55
404.70	777.06
404.89	842.59
405.09	826.21
405.28	873.02
405.47	809.83
405.66	992.39
405.85	840.25
406.05	912.81
406.24	863.66
406.43	898.77
406.62	929.19
406.81	875.36
407.00	957.28
407.20	976.00
407.39	976.00
407.58	954.94
407.77	1034.52
407.96	1039.20
408.15	1020.47
408.34	1013.45
408.54	1071.97
408.73	1088.35
408.92	985.37
409.11	1018.13
409.30	1160.91
409.49	1069.62
409.68	1104.73
409.87	1109.41
410.07	1193.67
410.26	1137.50
410.45	1137.50
410.64	1013.45
410.83	1186.65
411.02	1196.01
411.21	1221.76
411.40	1259.21
411.59	1259.21
411.78	1315.38
411.98	1299.00
412.17	1355.17
412.36	1277.93
412.55	1348.15
412.74	1434.75
412.93	1453.47
413.12	1345.81
413.31	1448.79
413.50	1411.34
413.69	1364.53
413.88	1497.94
414.07	1540.07
414.26	1551.78
414.45	1521.35
414.64	1558.80
414.83	1570.50
415.02	1547.09
415.22	1603.27
415.41	1689.87
415.60	1528.37
415.79	1767.10
415.98	1640.72
416.17	1813.92
416.36	1643.06
416.55	1753.06
416.74	1818.60
416.93	1788.17
417.12	1811.57
417.31	1739.02
417.50	1844.34
417.69	1907.54
417.88	1961.37
418.07	1844.34
418.26	1823.28
418.45	1769.44
418.64	1994.14
418.83	1891.15
419.02	1863.07
419.21	1968.39
419.39	1984.77
419.58	1884.13
419.77	1937.96
419.96	2038.61
420.15	1909.88
420.34	2083.08
420.53	2057.33
420.72	2054.99
420.91	2036.27
421.10	2024.56
421.29	2202.44
421.48	1959.03
421.67	2211.81
421.86	2104.14
422.05	2155.63
422.24	2216.49
422.43	2078.40
422.61	2087.76
422.80	2190.74
422.99	2073.71
423.18	2174.36
423.37	2270.32
423.56	2221.17
423.75	2284.36
423.94	2127.55
424.13	2057.33
424.32	2165.00
424.50	2153.29
424.69	2214.15
424.88	2108.82
425.07	2258.62
425.26	2174.36
425.45	2143.93
425.64	2132.23
425.83	2195.42
426.01	2279.68
426.20	2333.51
426.39	2188.40
426.58	2251.60
426.77	2230.53
426.96	2293.72
427.15	2214.15
427.33	2155.63
427.52	2312.45
427.71	2342.88
427.90	2293.72
428.09	2345.22
428.28	2403.73
428.46	2394.37
428.65	2413.09
428.84	2619.06
429.03	2427.14
429.22	2326.49
429.40	2321.81
429.59	2368.62
429.78	2420.11
429.97	2361.60
430.16	2354.58
430.34	2394.37
430.53	2621.40
430.72	2424.80
430.91	2431.82
431.10	2347.56
431.28	2593.31
431.47	2495.01
431.66	2523.10
431.85	2457.56
432.03	2595.65
432.22	2759.49
432.41	2668.21
432.60	2574.59
432.79	2616.72
432.97	2745.45
433.16	2623.74
433.35	2715.02
433.54	2818.00
433.72	2677.57
433.91	2663.53
434.10	2705.66
434.28	2747.79
434.47	2738.43
434.66	2773.53
434.85	2836.73
435.03	2874.18
435.22	2806.30
435.41	2977.16
435.59	2918.65
435.78	2916.31
435.97	2918.65
436.16	2942.05
436.34	2860.13
436.53	2890.56
436.72	2829.71
436.90	2892.90
437.09	2906.95
437.28	2890.56
437.46	2993.55
437.65	2904.60
437.84	2951.42
438.02	3073.12
438.21	3016.95
438.40	2956.10
438.58	3155.04
438.77	3042.70
438.96	2937.37
439.14	3129.30
439.33	3199.51
439.52	3325.90
439.70	3131.64
439.89	3239.30
440.08	3173.77
440.26	3304.84
440.45	3314.20
440.63	3307.18
440.82	3403.14
441.01	3391.44
441.19	3253.34
441.38	3412.50
441.57	3433.57
441.75	3478.04
441.94	3590.38
442.12	3496.76
442.31	3597.40
442.50	3602.08
442.68	3461.65
442.87	3456.97
443.05	3473.36
443.24	3557.61
443.43	3545.91
443.61	3571.66
443.80	3749.54
443.98	3501.44
444.17	3597.40
444.35	3627.83
444.54	3791.67
444.73	3648.90
444.91	3686.34
445.10	3702.73
445.28	3625.49
445.47	3543.57
445.65	3599.74
445.84	3758.90
446.02	3674.64
446.21	3749.54
446.39	3655.92
446.58	3723.79
446.77	3712.09
446.95	3620.81
447.14	3679.32
447.32	3868.91
447.51	3850.18
447.69	3747.20
447.88	3875.93
448.06	3810.39
448.25	3810.39
448.43	3911.04
448.62	4065.51
448.80	3911.04
448.99	3672.30
449.17	3826.78
449.36	3866.56
449.54	3904.01
449.73	3950.82
449.91	3941.46
450.10	3964.87
450.28	4081.89
450.46	3955.51
450.65	4011.68
450.83	3990.61
451.02	4028.06
451.20	4030.40
451.39	4021.04
451.57	4025.72
451.76	3885.29
451.94	4142.75
452.13	4114.66
452.31	4126.36
452.49	3974.23
452.68	4175.52
452.86	4016.36
453.05	4161.47
453.23	4177.86
453.42	4079.55
453.60	4086.58
453.78	4173.18
453.97	4173.18
454.15	4191.90
454.34	4042.11
454.52	4180.20
454.70	4259.78
454.89	4311.27
455.07	4306.59
455.26	4414.25
455.44	4437.66
455.62	4440.00
455.81	4475.10
455.99	4273.82
456.17	4468.08
456.36	4512.55
456.54	4425.95
456.73	4423.61
456.91	4372.12
457.09	4435.32
457.28	4566.39
457.46	4629.58
457.64	4608.51
457.83	4566.39
458.01	4582.77
458.19	4528.94
458.38	4468.08
458.56	4585.11
458.74	4793.42
458.93	4704.48
459.11	4777.03
459.29	4702.14
459.48	4709.16
459.66	4748.95
459.84	4741.93
460.03	4936.19
460.21	4734.90
460.39	4809.80
460.57	4777.03
460.76	4905.76
460.94	4983.00
461.12	4915.12
461.31	5102.37
461.49	4940.87
461.67	4758.31
461.85	5004.07
462.04	5050.88
462.22	5460.47
462.40	5064.92
462.59	5022.79
462.77	5188.97
462.95	5149.18
463.13	5095.35
463.32	4961.94
463.50	5064.92
463.68	5144.50
463.86	5116.41
464.05	5029.81
464.23	5226.42
464.41	5345.78
464.59	4997.04
464.78	5303.65
464.96	5249.82
465.14	5132.79
465.32	5205.35
465.50	5308.34
465.69	5397.28
465.87	5345.78
466.05	5308.34
466.23	5444.09
466.41	5287.27
466.60	5352.81
466.78	5392.59
466.96	5291.95
467.14	5233.44
467.32	5378.55
467.51	5549.41
467.69	5341.10
467.87	5420.68
468.05	5551.75
468.23	5518.98
468.41	5364.51
468.60	5565.79
468.78	5502.60
468.96	5551.75
469.14	5500.26
469.32	5603.24
469.50	5399.62
469.69	5678.14
469.87	5818.57
470.05	5771.76
470.23	5818.57
470.41	5771.76
470.59	5708.57
470.77	5762.40
470.95	5893.47
471.14	5851.34
471.32	5636.01
471.50	5975.39
471.68	5877.09
471.86	5968.37
472.04	6057.31
472.22	6101.78
472.40	5996.45
472.58	6001.13
472.77	5907.51
472.95	5989.43
473.13	6232.85
473.31	6045.60
473.49	6223.48
473.67	6111.14
473.85	6176.67
474.03	6342.85
474.21	6300.72
474.39	6312.42
474.57	6546.48
474.75	6553.50
474.93	6476.26
475.12	6586.27
475.30	6630.74
475.48	6555.84
475.66	6729.04
475.84	6604.99
476.02	6782.87
476.20	6642.44
476.38	6757.13
476.56	6890.54
476.74	6808.62
476.92	6775.85
477.10	6843.73
477.28	7073.10
477.46	7096.50
477.64	7089.48
477.82	7169.06
478.00	7269.70
478.18	7152.68
478.36	7370.35
478.54	7375.03
478.72	7297.79
478.90	7473.33
479.08	7644.19
479.26	7503.76
479.44	7524.82
479.62	7772.92
479.80	7562.27
479.98	7709.72
480.16	7971.86
480.34	7864.20
480.52	8004.63
480.70	8166.13
480.88	7789.30
481.06	8088.89
481.24	8119.32
481.41	8229.32
481.59	8210.60
481.77	8535.93
481.95	8348.69
482.13	8327.63
482.31	8524.23
482.49	8571.04
482.67	8676.37
482.85	8704.45
483.03	8793.39
483.21	8872.97
483.39	8856.59
483.57	8903.40
483.74	8999.36
483.92	9060.21
484.10	9067.24
484.28	9366.82
484.46	9582.15
484.64	9664.07
484.82	9390.23
485.00	9465.13
485.18	9650.03
485.35	9565.77
485.53	9809.19
485.71	9645.35
485.89	9935.57
486.07	9912.17
486.25	9996.43
486.43	10101.75
486.61	10139.20
486.78	10160.27
486.96	10471.56
487.14	10593.26
487.32	10434.11
487.50	10595.61
487.68	10265.59
487.85	10832.00
488.03	10888.17
488.21	10937.32
488.39	11030.94
488.57	11185.42
488.75	11227.55
488.92	11470.97
489.10	11335.21
489.28	11356.28
489.46	11384.37
489.64	11403.09
489.81	11655.87
489.99	11602.04
490.17	11698.00
490.35	11770.55
490.53	11808.00
490.70	11786.94
490.88	11932.05
491.06	12093.55
491.24	12194.19
491.41	12238.66
491.59	12112.27
491.77	12388.46
491.95	12524.21
492.13	12610.81
492.30	12713.79
492.48	12711.45
492.66	12664.64
492.84	12657.62
493.01	12898.69
493.19	13043.81
493.37	13043.81
493.54	13167.85
493.72	13209.98
493.90	13067.21
494.08	13380.84
494.25	13413.61
494.43	13593.83
494.61	13783.41
494.79	13757.67
494.96	13668.73
495.14	13741.29
495.32	13888.74
495.49	13926.19
495.67	13944.91
495.85	14113.43
496.02	14438.76
496.20	14480.89
496.38	14345.14
496.55	14480.89
496.73	14590.90
496.91	14420.04
497.09	14843.68
497.26	14665.80
497.44	14916.23
497.62	14888.15
497.79	14949.00
497.97	15005.17
498.14	15129.22
498.32	15180.71
498.50	15183.06
498.67	15272.00
498.85	15059.01
499.03	15396.04
499.20	15548.18
499.38	15632.44
499.56	15550.52
499.73	15644.14
499.91	16027.99
500.08	15915.64
500.26	15676.91
500.44	15775.21
500.61	16154.38
500.79	15723.72
500.97	15920.32
501.14	16453.97
501.32	16208.21
501.49	16119.27
501.67	16585.04
501.84	16381.41
502.02	16545.25
502.20	16826.11
502.37	16510.14
502.55	16603.76
502.72	16545.25
502.90	16489.07
503.07	16500.78
503.25	16828.45
503.43	16929.09
503.60	17041.44
503.78	16950.16
503.95	17085.91
504.13	16940.80
504.30	17202.94
504.48	17322.30
504.65	17425.29
504.83	17469.76
505.01	17310.60
505.18	17284.86
505.36	17532.95
505.53	17507.21
505.71	17551.68
505.88	17905.10
506.06	17193.58
506.23	17715.51
506.41	17928.50
506.58	17722.54
506.76	17937.87
506.93	18019.78
507.11	17944.89
507.28	18104.04
507.46	18082.98
507.63	18401.29
507.81	18398.95
507.98	18579.17
508.16	18403.63
508.33	18363.84
508.50	18408.31
508.68	18396.61
508.85	18857.70
509.03	18817.91
509.20	19002.81
509.38	18759.39
509.55	19108.13
509.73	19204.10
509.90	19119.84
510.08	19063.66
510.25	18998.13
510.42	19286.01
510.60	19506.02
510.77	19208.78
510.95	19604.33
511.12	19304.74
511.30	19431.13
511.47	19501.34
511.64	19393.68
511.82	19541.13
511.99	19637.09
512.17	19864.13
512.34	19892.21
512.51	19744.76
512.69	19962.43
512.86	19838.38
513.04	20051.37
513.21	20123.93
513.38	20208.19
513.56	20400.11
513.73	20322.87
513.90	20381.38
514.08	20173.08
514.25	20561.61
514.43	20404.79
514.60	20336.91
514.77	20620.12
514.95	20711.40
515.12	20383.73
515.29	20535.86
515.47	20706.72
515.64	20765.23
515.81	20851.83
515.99	20985.24
516.16	20821.41
516.33	20856.51
516.51	21036.74
516.68	20973.54
516.85	21193.55
517.03	20924.39
517.20	21336.32
517.37	21247.38
517.54	21308.24
517.72	21184.19
517.89	21270.79
518.06	21366.75
518.24	21212.28
518.41	21238.02
518.58	21537.61
518.75	21633.57
518.93	21582.08
519.10	21624.21
519.27	21521.23
519.45	21458.03
519.62	21631.23
519.79	21855.92
519.96	22059.55
520.14	21984.65
520.31	21743.58
520.48	22082.95
520.65	22111.04
520.83	22347.44
521.00	22274.88
521.17	22104.02
521.34	21867.63
521.52	22431.69
521.69	22345.09
521.86	22705.54
522.03	22960.66
522.20	22691.49
522.38	22544.04
522.55	22843.63
522.72	22511.27
522.89	22850.65
523.07	23197.05
523.24	22855.33
523.41	23115.13
523.58	22855.33
523.75	22993.42
523.92	22684.47
524.10	22658.73
524.27	23122.15
524.44	23349.18
524.61	23290.67
524.78	23447.49
524.96	23042.57
525.13	23297.69
525.30	23190.03
525.47	23562.17
525.64	23271.95
525.81	23484.94
525.98	23590.26
526.16	23482.59
526.33	23431.10
526.50	23868.78
526.67	23648.77
526.84	23243.86
527.01	23651.11
527.18	23882.83
527.36	23800.91
527.53	23730.69
527.70	24154.33
527.87	24322.85
528.04	23976.45
528.21	23866.44
528.38	23688.56
528.55	23971.77
528.72	23934.32
528.89	24065.39
529.07	23733.03
529.24	23864.10
529.41	23737.71
529.58	23929.64
529.75	24151.99
529.92	24297.10
530.09	24280.72
530.26	24638.82
530.43	24482.00
530.60	24070.07
530.77	24830.74
530.94	24463.28
531.11	24615.41
531.28	24589.67
531.46	24575.62
531.63	24966.49
531.80	24467.96
531.97	24779.25
532.14	24826.06
532.31	24709.04
532.48	25109.27
532.65	25055.43
532.82	24875.21
532.99	25186.50
533.16	24711.38
533.33	24837.76
533.50	25207.57
533.67	25294.17
533.84	24952.45
534.01	24945.43
534.18	25142.03
534.35	25043.73
534.52	25003.94
534.69	25181.82
534.86	25397.15
535.03	25029.69
535.20	25362.04
535.37	25486.09
535.54	25516.52
535.71	25191.19
535.88	25668.66
536.05	25474.39
536.22	25460.35
536.38	25825.47
536.55	25692.06
536.72	25795.04
536.89	25366.73
537.06	25687.38
537.23	25832.49
537.40	25596.10
537.57	25624.18
537.74	25558.65
537.91	26155.49
538.08	26024.42
538.25	25748.23
538.42	25909.73
538.59	25701.42
538.75	25514.18
538.92	25914.41
539.09	25942.50
539.26	26387.20
539.43	26450.39
539.60	26125.06
539.77	25893.35
539.94	26052.50
540.11	26127.40
540.28	26515.93
540.44	26319.32
540.61	26478.48
540.78	26742.96
540.95	26321.66
541.12	26326.35
541.29	26366.13
541.46	26370.82
541.62	26022.08
541.79	26394.22
541.96	26298.26
542.13	26223.36
542.30	26452.73
542.47	26581.46
542.63	26731.26
542.80	26834.24
542.97	27070.64
543.14	26962.97
543.31	27014.46
543.48	26611.89
543.64	27084.68
543.81	27166.60
543.98	27124.47
544.15	26824.88
544.32	27164.26
544.48	27374.91
544.65	26974.67
544.82	26752.32
544.99	26813.18
545.16	27159.58
545.32	26829.56
545.49	27335.12
545.66	27733.01
545.83	27725.99
546.00	27672.15
546.16	27470.87
546.33	27381.93
546.50	26780.41
546.67	27360.86
546.83	27388.95
547.00	27201.71
547.17	27438.10
547.34	27234.47
547.50	27412.35
547.67	27976.42
547.84	27503.64
548.00	27620.66
548.17	27807.90
548.34	27367.88
548.51	28046.64
548.67	27868.76
548.84	27704.92
549.01	28201.11
549.18	27454.48
549.34	27417.04
549.51	27833.65
549.68	28018.55
549.84	27751.73
550.01	27482.57
550.18	27756.41
550.34	28175.37
550.51	28641.14
550.68	27887.48
550.84	27913.23
551.01	27718.96
551.18	28013.87
551.34	27592.58
551.51	28070.04
551.68	28285.37
551.84	28149.62
552.01	28142.60
552.18	28135.58
552.34	27798.54
552.51	28163.67
552.68	27763.43
552.84	28201.11
553.01	28203.46
553.18	28350.91
553.34	28180.05
553.51	28393.04
553.67	28294.74
553.84	28481.98
554.01	28650.50
554.17	28273.67
554.34	28519.43
554.51	28266.65
554.67	28547.51
554.84	28486.66
555.00	28142.60
555.17	28449.21
555.33	28484.32
555.50	28107.49
555.67	28268.99
555.83	28212.82
556.00	28453.89
556.16	28914.98
556.33	28229.20
556.50	28503.04
556.66	28746.46
556.83	28449.21
556.99	29244.99
557.16	29060.09
557.32	28795.61
557.49	29034.35
557.65	28414.10
557.82	28716.03
557.98	28606.03
558.15	28905.62
558.32	28950.09
558.48	28907.96
558.65	28587.30
558.81	28840.08
558.98	28725.39
559.14	28758.16
559.31	28968.81
559.47	28510.07
559.64	28783.91
559.80	28849.44
559.97	28893.91
560.13	28540.49
560.30	28891.57
560.46	28617.73
560.63	29027.32
560.79	29048.39
560.96	28872.85
561.12	28718.37
561.29	28914.98
561.45	28879.87
561.61	29041.37
561.78	29057.75
561.94	29160.73
562.11	29085.84
562.27	28659.86
562.44	28893.91
562.60	28807.31
562.77	28673.90
562.93	29132.65
563.10	29469.69
563.26	28744.12
563.42	29029.66
563.59	29453.30
563.75	28835.40
563.92	29193.50
564.08	29022.64
564.24	29020.30
564.41	28615.39
564.57	29191.16
564.74	29404.15
564.90	29214.57
565.07	29350.32
565.23	29191.16
565.39	28809.65
565.56	29273.08
565.72	28978.17
565.88	28893.91
566.05	29046.05
566.21	29006.26
566.38	28856.46
566.54	29404.15
566.70	29228.61
566.87	29355.00
567.03	29336.27
567.19	29376.06
567.36	29631.18
567.52	28980.51
567.68	28840.08
567.85	29406.49
568.01	29067.11
568.17	29013.28
568.34	29153.71
568.50	29436.92
568.66	29397.13
568.83	29518.84
568.99	29432.24
569.15	29174.78
569.32	29322.23
569.48	29015.62
569.64	28828.38
569.81	28945.41
569.97	29322.23
570.13	29900.34
570.30	29158.39
570.46	29212.23
570.62	29029.66
570.78	29443.94
570.95	29514.16
571.11	29603.10
571.27	29303.51
571.43	29261.38
571.60	29450.96
571.76	29322.23
571.92	29230.95
572.09	29511.81
572.25	29479.05
572.41	29448.62
572.57	29193.50
572.74	29713.10
572.90	29329.25
573.06	29177.12
573.22	29415.85
573.38	29661.61
573.55	29518.84
573.71	29638.20
573.87	29385.43
574.03	29340.96
574.20	29638.20
574.36	29064.77
574.52	29567.99
574.68	29249.67
574.84	29373.72
575.01	29254.36
575.17	29689.70
575.33	29413.51
575.49	29134.99
575.65	29724.80
575.82	29385.43
575.98	29757.57
576.14	29645.23
576.30	29621.82
576.46	29163.08
576.62	29259.04
576.79	29130.31
576.95	29385.43
577.11	29453.30
577.27	29600.76
577.43	29214.57
577.59	29081.16
577.75	29500.11
577.92	29425.22
578.08	29352.66
578.24	29469.69
578.40	29149.03
578.56	29890.98
578.72	29745.87
578.88	29727.14
579.04	29701.40
579.21	29387.77
579.37	29596.07
579.53	29558.63
579.69	29893.32
579.85	29333.93
580.01	29572.67
580.17	29465.00
580.33	29228.61
580.49	29722.46
580.65	29802.04
580.82	29940.13
580.98	30094.61
581.14	29560.97
581.30	29818.42
581.46	29434.58
581.62	29434.58
581.78	29390.11
581.94	29661.61
582.10	29352.66
582.26	29453.30
582.42	29645.23
582.58	29610.12
582.74	29560.97
582.90	29432.24
583.06	29631.18
583.22	29036.69
583.38	29495.43
583.54	29680.33
583.70	29628.84
583.86	29542.24
584.02	29188.82
584.18	29792.68
584.34	29773.95
584.50	29696.72
584.66	29376.06
584.82	29495.43
584.98	29628.84
585.14	29432.24
585.30	29235.63
585.46	29443.94
585.62	29813.74
585.78	29600.76
585.94	29633.52
586.10	29621.82
586.26	29600.76
586.42	30162.48
586.58	29567.99
586.74	29869.92
586.90	29577.35
587.06	29530.54
587.22	29778.64
587.38	29764.59
587.54	29806.72
587.70	29914.39
587.86	30059.50
588.02	29677.99
588.18	29567.99
588.34	29436.92
588.49	29628.84
588.65	29516.50
588.81	29565.65
588.97	29729.48
589.13	29488.41
589.29	29773.95
589.45	29876.94
589.61	29612.46
589.77	30326.32
589.93	29996.31
590.08	29738.85
590.24	29982.26
590.40	29560.97
590.56	30031.41
590.72	30008.01
590.88	29481.39
591.04	29799.70
591.20	29783.32
591.35	30174.19
591.51	30284.19
591.67	29921.41
591.83	29989.28
