SpectraSuite Data File
++++++++++++++++++++++++++++++++++++
Date: Fri Oct 04 11:48:47 GMT-05:00 2013
User: price-jones
Dark Spectrum Present: No
Reference Spectrum Present: No
Number of Sampled Component Spectra: 1
Spectrometers: USB2+H05261
Integration Time (usec): 100000 (USB2+H05261)
Spectra Averaged: 1 (USB2+H05261)
Boxcar Smoothing: 0 (USB2+H05261)
Correct for Electrical Dark: No (USB2+H05261)
Strobe/Lamp Enabled: No (USB2+H05261)
Correct for Detector Non-linearity: No (USB2+H05261)
Correct for Stray Light: No (USB2+H05261)
Number of Pixels in Processed Spectrum: 2048
>>>>>Begin Processed Spectral Data<<<<<
365.73	35.11
365.92	35.11
366.12	35.11
366.32	14.04
366.52	0.00
366.72	0.00
366.91	0.00
367.11	0.00
367.31	0.00
367.51	0.00
367.70	0.00
367.90	0.00
368.10	0.00
368.30	0.00
368.49	0.00
368.69	0.00
368.89	0.00
369.09	0.00
369.28	0.00
369.48	0.00
369.68	0.00
369.87	0.00
370.07	0.00
370.27	16.38
370.47	149.79
370.66	388.53
370.86	449.38
371.06	496.19
371.25	505.56
371.45	458.74
371.65	503.22
371.84	486.83
372.04	477.47
372.24	547.69
372.44	575.77
372.63	566.41
372.83	571.09
373.03	662.37
373.22	540.66
373.42	571.09
373.62	554.71
373.81	641.31
374.01	657.69
374.21	613.22
374.40	655.35
374.60	648.33
374.79	629.60
374.99	594.50
375.19	683.44
375.38	594.50
375.58	681.10
375.78	629.60
375.97	709.18
376.17	730.25
376.37	732.59
376.56	753.65
376.76	723.23
376.95	716.20
377.15	669.39
377.35	800.46
377.54	699.82
377.74	706.84
377.93	755.99
378.13	770.04
378.33	842.59
378.52	779.40
378.72	683.44
378.91	795.78
379.11	798.12
379.31	713.86
379.50	725.57
379.70	767.70
379.89	753.65
380.09	802.80
380.28	739.61
380.48	816.85
380.68	786.42
380.87	877.70
381.07	842.59
381.26	805.14
381.46	835.57
381.65	884.72
381.85	833.23
382.04	858.98
382.24	821.53
382.43	919.83
382.63	849.61
382.83	896.43
383.02	889.40
383.22	880.04
383.41	884.72
383.61	968.98
383.80	938.55
384.00	1004.09
384.19	952.60
384.39	947.92
384.58	964.30
384.78	978.34
384.97	1008.77
385.17	1043.88
385.36	1013.45
385.56	1139.84
385.75	1008.77
385.95	994.73
386.14	1041.54
386.34	1078.99
386.53	968.98
386.72	1020.47
386.92	1095.37
387.11	1041.54
387.31	1081.33
387.50	1057.92
387.70	1050.90
387.89	1062.60
388.09	1130.48
388.28	1053.24
388.48	1203.04
388.67	1174.95
388.86	1142.18
389.06	1210.06
389.25	1214.74
389.45	1165.59
389.64	1172.61
389.84	1203.04
390.03	1277.93
390.22	1266.23
390.42	1240.48
390.61	1203.04
390.81	1233.46
391.00	1245.16
391.19	1261.55
391.39	1322.40
391.58	1338.79
391.78	1287.29
391.97	1266.23
392.16	1275.59
392.36	1397.30
392.55	1413.68
392.75	1437.09
392.94	1306.02
393.13	1338.79
393.33	1390.28
393.52	1406.66
393.71	1448.79
393.91	1537.73
394.10	1387.94
394.29	1366.87
394.49	1502.62
394.68	1476.88
394.88	1544.75
395.07	1481.56
395.26	1533.05
395.46	1582.20
395.65	1596.25
395.84	1479.22
396.04	1626.67
396.23	1526.03
396.42	1575.18
396.62	1598.59
396.81	1636.03
397.00	1652.42
397.19	1650.08
397.39	1724.97
397.58	1727.32
397.77	1652.42
397.97	1764.76
398.16	1671.14
398.35	1736.68
398.55	1685.19
398.74	1753.06
398.93	1849.02
399.12	1860.73
399.32	1846.68
399.51	1799.87
399.70	1949.67
399.90	1881.79
400.09	1914.56
400.28	1919.24
400.47	1928.60
400.67	2001.16
400.86	1944.99
401.05	1914.56
401.24	1987.11
401.44	1975.41
401.63	2118.18
401.82	2050.31
402.01	2045.63
402.21	2064.35
402.40	2069.03
402.59	2113.50
402.78	2127.55
402.97	2228.19
403.17	2136.91
403.36	2148.61
403.55	2235.21
403.74	2221.17
403.93	2345.22
404.13	2230.53
404.32	2394.37
404.51	2263.30
404.70	2370.96
404.89	2466.92
405.09	2382.67
405.28	2415.43
405.47	2387.35
405.66	2499.69
405.85	2377.98
406.05	2429.48
406.24	2476.29
406.43	2576.93
406.62	2518.42
406.81	2590.97
407.00	2506.71
407.20	2593.31
407.39	2586.29
407.58	2658.85
407.77	2715.02
407.96	2759.49
408.15	2729.06
408.34	2785.24
408.54	2710.34
408.73	2719.70
408.92	2806.30
409.11	2867.16
409.30	2883.54
409.49	3042.70
409.68	2874.18
409.87	2883.54
410.07	3045.04
410.26	2972.48
410.45	2967.80
410.64	3047.38
410.83	2906.95
411.02	2998.23
411.21	3023.97
411.40	3169.09
411.59	3192.49
411.78	3276.75
411.98	3143.34
412.17	3243.98
412.36	3218.24
412.55	3318.88
412.74	3480.38
412.93	3229.94
413.12	3358.67
413.31	3520.17
413.50	3386.76
413.69	3571.66
413.88	3520.17
414.07	3602.08
414.26	3653.58
414.45	3775.28
414.64	3847.84
414.83	3892.31
415.02	3796.35
415.22	3801.03
415.41	3833.80
415.60	3859.54
415.79	3950.82
415.98	3950.82
416.17	4039.76
416.36	3861.88
416.55	4079.55
416.74	4016.36
416.93	4161.47
417.12	4161.47
417.31	4203.60
417.50	4334.67
417.69	4376.80
417.88	4325.31
418.07	4360.42
418.26	4332.33
418.45	4344.03
418.64	4428.29
418.83	4496.17
419.02	4461.06
419.21	4599.15
419.39	4510.21
419.58	4564.04
419.77	4531.28
419.96	4676.39
420.15	4755.97
420.34	4629.58
420.53	4709.16
420.72	4741.93
420.91	4748.95
421.10	4898.74
421.29	4915.12
421.48	4821.50
421.67	4856.61
421.86	4784.06
422.05	4999.38
422.24	4828.53
422.43	4931.51
422.61	4957.25
422.80	5011.09
422.99	4980.66
423.18	5025.13
423.37	4943.21
423.56	5008.75
423.75	4774.69
423.94	5022.79
424.13	4615.54
424.32	4711.50
424.50	5160.88
424.69	4997.04
424.88	5102.37
425.07	4901.08
425.26	4983.00
425.45	5205.35
425.64	5013.43
425.83	4922.15
426.01	5303.65
426.20	5170.24
426.39	5177.26
426.58	5121.09
426.77	5142.16
426.96	5179.61
427.15	5191.31
427.33	5291.95
427.52	5261.52
427.71	5474.51
427.90	5317.70
428.09	5418.34
428.28	5462.81
428.46	5387.91
428.65	5593.88
428.84	5593.88
429.03	5528.35
429.22	5495.58
429.40	5467.49
429.59	5729.63
429.78	5472.17
429.97	5385.57
430.16	5680.48
430.34	5643.03
430.53	5844.32
430.72	5767.08
430.91	5781.12
431.10	5696.86
431.28	5813.89
431.47	5769.42
431.66	5900.49
431.85	5863.04
432.03	5961.34
432.22	6071.35
432.41	6118.16
432.60	6200.08
432.79	6040.92
432.97	6232.85
433.16	6242.21
433.35	6054.97
433.54	6157.95
433.72	6221.14
433.91	6132.20
434.10	6298.38
434.28	6293.70
434.47	6289.02
434.66	6530.09
434.85	6459.88
435.03	6579.25
435.22	6384.98
435.41	6679.89
435.59	6600.31
435.78	6518.39
435.97	6672.87
436.16	6628.40
436.34	6511.37
436.53	6633.08
436.72	6759.47
436.90	6644.78
437.09	6862.45
437.28	6857.77
437.46	6855.43
437.65	6722.02
437.84	7028.63
438.02	6817.98
438.21	6981.82
438.40	6965.43
438.58	7002.88
438.77	7283.75
438.96	7140.97
439.14	7522.48
439.33	7255.66
439.52	7478.01
439.70	7396.09
439.89	7609.08
440.08	7536.52
440.26	7595.04
440.45	7527.16
440.63	7597.38
440.82	7859.52
441.01	7644.19
441.19	7866.54
441.38	8063.15
441.57	8133.36
441.75	8109.96
441.94	8212.94
442.12	8149.75
442.31	8325.29
442.50	8173.15
442.68	8241.03
442.87	8344.01
443.05	8278.47
443.24	8486.78
443.43	8297.20
443.61	8498.49
443.80	8676.37
443.98	8421.25
444.17	8355.71
444.35	8311.24
444.54	8336.99
444.73	8484.44
444.91	8503.17
445.10	8531.25
445.28	8568.70
445.47	8418.91
445.65	8585.08
445.84	8629.56
446.02	8491.46
446.21	8423.59
446.39	8589.77
446.58	8566.36
446.77	8489.12
446.95	8545.30
447.14	8732.54
447.32	8868.29
447.51	8905.74
447.69	8821.48
447.88	8919.78
448.06	8982.98
448.25	8882.33
448.43	8884.67
448.62	8802.75
448.80	8697.43
448.99	8947.87
449.17	8987.66
449.36	8940.85
449.54	9095.32
449.73	9231.07
449.91	9097.66
450.10	9184.26
450.28	9135.11
450.46	9294.27
450.65	9338.74
450.83	9542.36
451.02	9352.78
451.20	9371.50
451.39	9324.69
451.57	9221.71
451.76	9565.77
451.94	9394.91
452.13	9720.24
452.31	9598.54
452.49	9516.62
452.68	9577.47
452.86	9554.07
453.05	9839.61
453.23	9753.01
453.42	9736.63
453.60	9678.12
453.78	9788.12
453.97	9689.82
454.15	9804.50
454.34	9841.95
454.52	9799.82
454.70	9900.47
454.89	10050.26
455.07	10029.20
455.26	10045.58
455.44	10340.49
455.62	10403.68
455.81	10106.43
455.99	10207.08
456.17	10174.31
456.36	10431.77
456.54	10815.62
456.73	10705.61
456.91	11026.26
457.09	11101.16
457.28	10953.71
457.46	10764.12
457.64	11044.99
457.83	10731.36
458.01	10757.10
458.19	10890.51
458.38	10677.52
458.56	11225.21
458.74	11126.91
458.93	10977.11
459.11	11208.83
459.29	11180.74
459.48	11433.52
459.66	11309.47
459.84	11358.62
460.03	11459.26
460.21	11183.08
460.39	11473.31
460.57	11360.96
460.76	11169.04
460.94	11531.82
461.12	11227.55
461.31	11529.48
461.49	11419.47
461.67	11445.22
461.85	11999.93
462.04	11765.87
462.22	12379.09
462.40	11964.82
462.59	11875.88
462.77	11899.28
462.95	11894.60
463.13	12037.38
463.32	11941.41
463.50	12229.30
463.68	12241.00
463.86	12161.42
464.05	12255.04
464.23	12175.47
464.41	12339.30
464.59	11974.18
464.78	12297.17
464.96	12521.87
465.14	12435.27
465.32	12606.13
465.50	12933.80
465.69	12627.19
465.87	12428.24
466.05	12578.04
466.23	12409.52
466.41	12589.74
466.60	13139.77
466.78	12894.01
466.96	12559.31
467.14	12533.57
467.32	12795.71
467.51	13050.83
467.69	12746.56
467.87	12697.41
468.05	12924.44
468.23	12732.51
468.41	12793.37
468.60	13018.06
468.78	13200.62
468.96	12891.67
469.14	13146.79
469.32	13607.87
469.50	13034.44
469.69	13652.34
469.87	13635.96
470.05	13544.68
470.23	13556.38
470.41	13525.96
470.59	13748.31
470.77	13750.65
470.95	13823.20
471.14	13970.66
471.32	13708.52
471.50	14031.51
471.68	13973.00
471.86	14277.27
472.04	14204.71
472.22	14462.17
472.40	14071.30
472.58	14520.68
472.77	14370.89
472.95	14689.20
473.13	15211.14
473.31	14583.88
473.49	14661.12
473.67	14717.29
473.85	14499.62
474.03	15129.22
474.21	14918.57
474.39	14916.23
474.57	15742.44
474.75	15365.62
474.93	15625.42
475.12	15482.64
475.30	15751.81
475.48	15492.01
475.66	15793.94
475.84	15810.32
476.02	16107.57
476.20	15817.34
476.38	16519.50
476.56	16657.59
476.74	16470.35
476.92	16290.13
477.10	16606.10
477.28	16751.21
477.46	16645.89
477.64	16819.09
477.82	17207.62
478.00	17792.75
478.18	17373.80
478.36	17855.95
478.54	17862.97
478.72	17692.11
478.90	18118.09
479.08	18223.41
479.26	18431.72
479.44	18452.78
479.62	19002.81
479.80	18946.64
479.98	18930.25
480.16	19171.33
480.34	19152.60
480.52	19435.81
480.70	19356.23
480.88	19384.32
481.06	19576.24
481.24	19908.60
481.41	19723.69
481.59	19927.32
481.77	20339.26
481.95	20280.74
482.13	20500.75
482.31	20720.76
482.49	20769.91
482.67	21202.91
482.85	21694.43
483.03	21596.12
483.21	21991.67
483.39	22160.19
483.57	21778.68
483.74	22153.17
483.92	22099.34
484.10	22398.93
484.28	22370.84
484.46	23143.22
484.64	23283.65
484.82	22696.17
485.00	23283.65
485.18	23587.92
485.35	23889.85
485.53	24180.07
485.71	23810.27
485.89	24608.39
486.07	24329.87
486.25	24322.85
486.43	24620.10
486.61	24980.54
486.78	25298.85
486.96	25359.70
487.14	25537.59
487.32	25490.77
487.50	25820.79
487.68	26139.10
487.85	26345.07
488.03	26829.56
488.21	27033.19
488.39	27332.78
488.57	27087.02
488.75	27594.92
488.92	27597.26
489.10	27985.79
489.28	27854.72
489.46	28137.92
489.64	28599.01
489.81	29022.64
489.99	28786.25
490.17	28669.22
490.35	29261.38
490.53	29394.79
490.70	29682.67
490.88	29626.50
491.06	30132.06
491.24	29696.72
491.41	30108.65
491.59	30536.97
491.77	30448.03
491.95	31058.91
492.13	31087.00
492.30	31398.29
492.48	31304.67
492.66	31510.63
492.84	31398.29
493.01	32290.03
493.19	32149.60
493.37	32362.59
493.54	32491.32
493.72	33181.77
493.90	33008.58
494.08	33324.55
494.25	33633.50
494.43	33970.54
494.61	33933.09
494.79	34417.58
494.96	34024.37
495.14	34057.14
495.32	34754.61
495.49	34696.10
495.67	34927.81
495.85	35332.73
496.02	35386.56
496.20	35686.15
496.38	35737.64
496.55	35501.25
496.73	36261.92
496.91	36233.83
497.09	36402.35
497.26	36477.25
497.44	36231.49
497.62	37172.39
497.79	36989.83
497.97	36952.38
498.14	37481.34
498.32	37907.32
498.50	37741.14
498.67	38099.24
498.85	38054.77
499.03	38085.20
499.20	38667.99
499.38	38508.83
499.56	38906.73
499.73	38873.96
499.91	39503.56
500.08	39477.82
500.26	39103.33
500.44	39316.32
500.61	39702.51
500.79	39295.25
500.97	39985.71
501.14	40238.49
501.32	40004.44
501.49	40264.24
501.67	40240.83
501.84	40126.14
502.02	40437.44
502.20	40814.26
502.37	41188.75
502.55	41045.97
502.72	41020.23
502.90	41088.10
503.07	40741.71
503.25	41633.45
503.43	41579.62
503.60	41703.67
503.78	42351.99
503.95	42246.67
504.13	41977.51
504.30	42501.79
504.48	41816.01
504.65	42703.07
504.83	42967.55
505.01	43122.03
505.18	42703.07
505.36	42834.14
505.53	43419.28
505.71	43159.48
505.88	43643.97
506.06	43360.76
506.23	44252.51
506.41	43789.08
506.58	43990.37
506.76	44032.50
506.93	44161.23
507.11	44116.76
507.28	44418.69
507.46	44603.59
507.63	44940.63
507.81	45193.40
507.98	44685.51
508.16	44931.26
508.33	44933.60
508.50	45467.25
508.68	45191.06
508.85	46113.23
509.03	45682.58
509.20	45818.33
509.38	46274.73
509.55	46576.66
509.73	46398.78
509.90	46103.87
510.08	46433.89
510.25	46298.14
510.42	46873.91
510.60	46843.48
510.77	47206.26
510.95	47056.47
511.12	46951.15
511.30	46995.62
511.47	47641.60
511.64	47283.50
511.82	47657.99
511.99	47852.25
512.17	47901.40
512.34	47810.12
512.51	48025.45
512.69	48491.22
512.86	47948.21
513.04	48402.28
513.21	48467.81
513.38	48959.33
513.56	48851.66
513.73	48629.31
513.90	48739.32
514.08	48872.73
514.25	49219.13
514.43	49034.22
514.60	49233.17
514.77	49448.50
514.95	49588.93
515.12	49453.18
515.29	49308.07
515.47	49649.78
515.64	49762.13
515.81	49940.01
515.99	50316.84
516.16	49869.79
516.33	50094.49
516.51	50272.37
516.68	50040.65
516.85	49970.44
517.03	50600.04
517.20	50670.26
517.37	50614.08
517.54	50616.43
517.72	50686.64
517.89	50780.26
518.06	50504.08
518.24	50705.37
518.41	51136.02
518.58	51152.41
518.75	51255.39
518.93	51299.86
519.10	51508.17
519.27	51604.13
519.45	51412.21
519.62	51657.96
519.79	51707.12
519.96	51859.25
520.14	51913.08
520.31	51849.89
520.48	51859.25
520.65	52018.41
520.83	51966.91
521.00	52294.59
521.17	51966.91
521.34	52271.18
521.52	52348.42
521.69	52481.83
521.86	52547.37
522.03	52601.20
522.20	52648.01
522.38	52669.08
522.55	52973.34
522.72	52671.42
522.89	52921.85
523.07	53275.27
523.24	53235.48
523.41	53212.08
523.58	53195.70
523.75	53244.85
523.92	53169.95
524.10	53137.18
524.27	53511.67
524.44	53642.74
524.61	53691.89
524.78	53764.45
524.96	53563.16
525.13	53525.71
525.30	53492.94
525.47	54017.22
525.64	53801.89
525.81	54054.67
525.98	53914.24
526.16	54049.99
526.33	54183.40
526.50	54415.11
526.67	54202.13
526.84	54272.34
527.01	54199.79
527.18	54595.34
527.36	54380.01
527.53	54876.20
527.70	54635.13
527.87	54630.44
528.04	54588.31
528.21	54766.20
528.38	54541.50
528.55	54988.55
528.72	54827.05
528.89	54894.92
529.07	54752.15
529.24	55112.59
529.41	55103.23
529.58	55044.72
529.75	55056.42
529.92	55033.02
530.09	55269.41
530.26	55297.50
530.43	55395.80
530.60	55025.99
530.77	55557.30
530.94	55430.91
531.11	55395.80
531.28	55346.65
531.46	55599.43
531.63	55538.57
531.80	55697.73
531.97	55920.08
532.14	55683.69
532.31	55604.11
532.48	55676.66
532.65	55718.79
532.82	55707.09
532.99	55959.87
533.16	55835.82
533.33	56163.50
533.50	56315.63
533.67	56135.41
533.84	56062.85
534.01	55910.72
534.18	55866.25
534.35	56266.48
534.52	56095.62
534.69	56418.61
534.86	56458.40
535.03	56353.08
535.20	56453.72
535.37	56231.37
535.54	56481.81
535.71	56200.94
535.88	56512.23
536.05	56647.99
536.22	56673.73
536.38	56765.01
536.55	56970.98
536.72	56886.72
536.89	56713.52
537.06	56849.27
537.23	57006.09
537.40	56832.89
537.57	56793.10
537.74	56818.84
537.91	57247.16
538.08	57167.58
538.25	57001.41
538.42	57165.24
538.59	57333.76
538.75	57118.43
538.92	57329.08
539.09	57240.14
539.26	57378.23
539.43	57338.44
539.60	57485.90
539.77	57378.23
539.94	57806.55
540.11	57350.15
540.28	57401.64
540.44	57279.93
540.61	57305.68
540.78	57532.71
540.95	57741.02
541.12	57656.76
541.29	57602.92
541.46	57663.78
541.62	57787.83
541.79	57598.24
541.96	57607.61
542.13	57661.44
542.30	57661.44
542.47	57984.43
542.63	58045.29
542.80	58246.57
542.97	58248.91
543.14	58281.68
543.31	58309.77
543.48	58143.59
543.64	58340.19
543.81	58450.20
543.98	58382.32
544.15	58368.28
544.32	58387.00
544.48	58677.23
544.65	58244.23
544.82	58546.16
544.99	58372.96
545.16	58702.98
545.32	58564.88
545.49	58614.04
545.66	58899.58
545.83	58894.90
546.00	59100.87
546.16	58951.07
546.33	58475.94
546.50	58492.33
546.67	58724.04
546.83	58684.25
547.00	58885.54
547.17	58585.95
547.34	58997.88
547.50	59042.35
547.67	59068.10
547.84	59079.80
548.00	59084.48
548.17	59171.08
548.34	59023.63
548.51	59049.38
548.67	59253.00
548.84	59208.53
549.01	59145.34
549.18	59292.79
549.34	59161.72
549.51	59257.68
549.68	59164.06
549.84	59131.29
550.01	59339.60
550.18	59152.36
550.34	59433.22
550.51	59412.16
550.68	59622.81
550.84	59327.90
551.01	59433.22
551.18	59365.35
551.34	59414.50
551.51	59468.33
551.68	59641.53
551.84	59496.42
552.01	59779.62
552.18	59618.13
552.34	59707.07
552.51	59711.75
552.68	59522.16
552.84	59634.51
553.01	59936.44
553.18	59646.21
553.34	59824.09
553.51	59828.77
553.67	59927.08
553.84	60060.49
554.01	60081.55
554.17	60154.11
554.34	60013.68
554.51	59992.61
554.67	59994.95
554.84	59962.18
555.00	60069.85
555.17	59959.84
555.33	60135.38
555.50	60165.81
555.67	60355.39
555.83	60041.76
556.00	60233.69
556.16	60128.36
556.33	60135.38
556.50	60278.16
556.66	60266.45
556.83	60243.05
556.99	60500.51
557.16	60402.21
557.32	60348.37
557.49	60357.74
557.65	60182.19
557.82	60198.58
557.98	60343.69
558.15	60423.27
558.32	60512.21
558.48	60437.31
558.65	60502.85
558.81	60683.07
558.98	60413.91
559.14	60640.94
559.31	60484.12
559.47	60486.46
559.64	60722.86
559.80	60587.11
559.97	60750.94
560.13	60463.06
560.30	60676.05
560.46	60645.62
560.63	60879.67
560.79	60619.88
560.96	60856.27
561.12	60767.33
561.29	60601.15
561.45	60867.97
561.61	60814.14
561.78	60825.84
561.94	60786.05
562.11	60788.39
562.27	60662.00
562.44	60664.35
562.60	60680.73
562.77	60975.64
562.93	60877.33
563.10	61130.11
563.26	60856.27
563.42	61256.50
563.59	60973.30
563.75	61059.90
563.92	61017.77
564.08	61059.90
564.24	61043.51
564.41	60811.80
564.57	60790.73
564.74	60755.63
564.90	61092.66
565.07	61230.75
565.23	61029.47
565.39	61106.71
565.56	61109.05
565.72	61031.81
565.88	61055.21
566.05	60945.21
566.21	61062.24
566.38	60879.67
566.54	61118.41
566.70	61434.38
566.87	61310.33
567.03	61307.99
567.19	61439.06
567.36	61340.76
567.52	61099.68
567.68	61389.91
567.85	61176.92
568.01	61167.56
568.17	61212.03
568.34	61513.96
568.50	61343.10
568.66	61277.57
568.83	61368.85
568.99	61359.48
569.15	61312.67
569.32	61134.79
569.48	61027.13
569.64	61312.67
569.81	61212.03
569.97	61396.93
570.13	61244.80
570.30	61247.14
570.46	61392.25
570.62	61570.13
570.78	61338.42
570.95	61139.47
571.11	61235.44
571.27	61317.35
571.43	61326.72
571.60	61464.81
571.76	61481.19
571.92	61359.48
572.09	61614.60
572.25	61612.26
572.41	61385.23
572.57	61478.85
572.74	61715.25
572.90	61307.99
573.06	61436.72
573.22	61366.51
573.38	61553.75
573.55	61591.20
573.71	61769.08
573.87	61820.57
574.03	61347.78
574.20	61574.81
574.36	61478.85
574.52	61422.68
574.68	61488.21
574.84	61553.75
575.01	61759.72
575.17	61537.36
575.33	61591.20
575.49	61502.26
575.65	61733.97
575.82	61801.85
575.98	61607.58
576.14	61652.05
576.30	61513.96
576.46	61595.88
576.62	61532.68
576.79	61439.06
576.95	61492.89
577.11	61673.12
577.27	61492.89
577.43	61654.39
577.59	61694.18
577.75	61504.60
577.92	61492.89
578.08	61535.02
578.24	61736.31
578.40	61539.71
578.56	61759.72
578.72	61476.51
578.88	61853.34
579.04	61839.29
579.21	61602.90
579.37	61712.91
579.53	61687.16
579.69	61453.11
579.85	61762.06
580.01	61748.01
580.17	61588.86
580.33	61717.59
580.49	61848.66
580.65	61883.76
580.82	61949.30
580.98	61684.82
581.14	61961.00
581.30	61879.08
581.46	61612.26
581.62	61652.05
581.78	61546.73
581.94	61846.32
582.10	61722.27
582.26	61778.44
582.42	61778.44
582.58	61853.34
582.74	61848.66
582.90	61855.68
583.06	61883.76
583.22	61729.29
583.38	61797.16
583.54	61930.58
583.70	61851.00
583.86	61963.34
584.02	61638.01
584.18	61851.00
584.34	61794.82
584.50	62040.58
584.66	61909.51
584.82	61839.29
584.98	61986.75
585.14	61975.05
585.30	61577.15
585.46	61787.80
585.62	61851.00
585.78	62059.30
585.94	61593.54
586.10	61991.43
586.26	61858.02
586.42	61939.94
586.58	61989.09
586.74	61897.81
586.90	61722.27
587.06	61738.65
587.22	61963.34
587.38	61757.38
587.54	62005.47
587.70	62005.47
587.86	62216.12
588.02	61970.36
588.18	62028.88
588.34	62150.59
588.49	61958.66
588.65	61949.30
588.81	61743.33
588.97	62066.33
