SpectraSuite Data File
++++++++++++++++++++++++++++++++++++
Date: Fri Oct 04 11:48:33 GMT-05:00 2013
User: price-jones
Dark Spectrum Present: No
Reference Spectrum Present: No
Number of Sampled Component Spectra: 1
Spectrometers: USB2+H05261
Integration Time (usec): 100000 (USB2+H05261)
Spectra Averaged: 1 (USB2+H05261)
Boxcar Smoothing: 0 (USB2+H05261)
Correct for Electrical Dark: No (USB2+H05261)
Strobe/Lamp Enabled: No (USB2+H05261)
Correct for Detector Non-linearity: No (USB2+H05261)
Correct for Stray Light: No (USB2+H05261)
Number of Pixels in Processed Spectrum: 2048
>>>>>Begin Processed Spectral Data<<<<<
365.73	0.00
365.92	0.00
366.12	0.00
366.32	0.00
366.52	0.00
366.72	9.36
366.91	0.00
367.11	0.00
367.31	0.00
367.51	18.72
367.70	0.00
367.90	0.00
368.10	0.00
368.30	16.38
368.49	0.00
368.69	0.00
368.89	0.00
369.09	0.00
369.28	0.00
369.48	0.00
369.68	0.00
369.87	18.72
370.07	0.00
370.27	58.51
370.47	227.03
370.66	638.97
370.86	641.31
371.06	580.45
371.25	734.93
371.45	617.90
371.65	683.44
371.84	744.29
372.04	697.48
372.24	711.52
372.44	720.88
372.63	758.33
372.83	802.80
373.03	835.57
373.22	823.87
373.42	812.17
373.62	856.64
373.81	816.85
374.01	889.40
374.21	786.42
374.40	849.61
374.60	828.55
374.79	903.45
374.99	868.34
375.19	894.08
375.38	931.53
375.58	912.81
375.78	978.34
375.97	990.05
376.17	994.73
376.37	924.51
376.56	968.98
376.76	952.60
376.95	968.98
377.15	973.66
377.35	1053.24
377.54	994.73
377.74	1050.90
377.93	1013.45
378.13	1032.18
378.33	1062.60
378.52	1097.71
378.72	1004.09
378.91	999.41
379.11	1015.79
379.31	1142.18
379.50	1008.77
379.70	1142.18
379.89	1104.73
380.09	1207.72
380.28	1186.65
380.48	1163.25
380.68	1057.92
380.87	1151.54
381.07	1160.91
381.26	1210.06
381.46	1245.16
381.65	1224.10
381.85	1186.65
382.04	1289.64
382.24	1217.08
382.43	1308.36
382.63	1249.85
382.83	1212.40
383.02	1228.78
383.22	1296.66
383.41	1235.80
383.61	1296.66
383.80	1245.16
384.00	1357.51
384.19	1299.00
384.39	1399.64
384.58	1488.58
384.78	1294.32
384.97	1401.98
385.17	1378.58
385.36	1401.98
385.56	1427.73
385.75	1439.43
385.95	1439.43
386.14	1533.05
386.34	1371.55
386.53	1373.89
386.72	1406.66
386.92	1516.67
387.11	1535.39
387.31	1507.30
387.50	1416.02
387.70	1486.24
387.89	1504.96
388.09	1614.97
388.28	1542.41
388.48	1617.31
388.67	1685.19
388.86	1629.01
389.06	1638.38
389.25	1610.29
389.45	1685.19
389.64	1678.16
389.84	1820.94
390.03	1720.29
390.22	1802.21
390.42	1699.23
390.61	1708.59
390.81	1734.34
391.00	1816.26
391.19	1687.53
391.39	1811.57
391.58	1912.22
391.78	1844.34
391.97	1914.56
392.16	1820.94
392.36	1975.41
392.55	1813.92
392.75	1998.82
392.94	1975.41
393.13	1949.67
393.33	1949.67
393.52	1949.67
393.71	2108.82
393.91	2019.88
394.10	2040.95
394.29	2094.78
394.49	2083.08
394.68	2073.71
394.88	2150.95
395.07	2232.87
395.26	2099.46
395.46	2246.91
395.65	2211.81
395.84	2218.83
396.04	2373.30
396.23	2300.75
396.42	2249.25
396.62	2289.04
396.81	2270.32
397.00	2410.75
397.19	2427.14
397.39	2382.67
397.58	2345.22
397.77	2338.20
397.97	2630.76
398.16	2518.42
398.35	2502.03
398.55	2497.35
398.74	2443.52
398.93	2513.74
399.12	2483.31
399.32	2408.41
399.51	2586.29
399.70	2684.59
399.90	2607.36
400.09	2600.34
400.28	2693.96
400.47	2752.47
400.67	2862.48
400.86	2616.72
401.05	2661.19
401.24	2679.91
401.44	2820.35
401.63	2794.60
401.82	2885.88
402.01	2860.13
402.21	2918.65
402.40	2974.82
402.59	2995.89
402.78	2855.45
402.97	3049.72
403.17	2981.84
403.36	2986.52
403.55	3056.74
403.74	3169.09
403.93	3115.25
404.13	3243.98
404.32	3098.87
404.51	3192.49
404.70	3290.79
404.89	3038.02
405.09	3290.79
405.28	3344.63
405.47	3321.22
405.66	3311.86
405.85	3372.71
406.05	3297.81
406.24	3433.57
406.43	3405.48
406.62	3471.01
406.81	3536.55
407.00	3545.91
407.20	3375.05
407.39	3597.40
407.58	3566.98
407.77	3590.38
407.96	3646.55
408.15	3688.68
408.34	3693.37
408.54	3824.44
408.73	3744.86
408.92	3983.59
409.11	3887.63
409.30	3911.04
409.49	3920.40
409.68	4014.02
409.87	4124.02
410.07	3960.19
410.26	3939.12
410.45	4114.66
410.64	4077.21
410.83	4100.62
411.02	4170.83
411.21	4182.54
411.40	4189.56
411.59	4304.25
411.78	4248.07
411.98	4255.09
412.17	4283.18
412.36	4489.15
412.55	4538.30
412.74	4671.71
412.93	4568.73
413.12	4594.47
413.31	4814.48
413.50	4676.39
413.69	4723.20
413.88	4910.44
414.07	4936.19
414.26	4894.06
414.45	4966.62
414.64	4891.72
414.83	5074.28
415.02	5057.90
415.22	5203.01
415.41	5329.40
415.60	5114.07
415.79	5160.88
415.98	5373.87
416.17	5341.10
416.36	5387.91
416.55	5493.24
416.74	5455.79
416.93	5472.17
417.12	5507.28
417.31	5647.71
417.50	5544.73
417.69	5764.74
417.88	5895.81
418.07	5736.65
418.26	5860.70
418.45	5928.58
418.64	5940.28
418.83	6106.46
419.02	6022.20
419.21	6134.54
419.39	6153.27
419.58	6132.20
419.77	6118.16
419.96	6118.16
420.15	6265.61
420.34	6249.23
420.53	6310.08
420.72	6452.86
420.91	6347.53
421.10	6480.94
421.29	6490.31
421.48	6307.74
421.67	6406.05
421.86	6471.58
422.05	6534.78
422.24	6640.10
422.43	6506.69
422.61	6775.85
422.80	6703.29
422.99	6710.32
423.18	6789.89
423.37	6637.76
423.56	6689.25
423.75	6679.89
423.94	6558.18
424.13	6420.09
424.32	6452.86
424.50	6729.04
424.69	6825.00
424.88	6832.02
425.07	6654.14
425.26	6593.29
425.45	6686.91
425.64	6923.30
425.83	6953.73
426.01	6888.20
426.20	6766.49
426.39	6843.73
426.58	7005.22
426.77	6878.83
426.96	6853.09
427.15	6920.96
427.33	7180.76
427.52	7117.57
427.71	7201.83
427.90	7105.87
428.09	7211.19
428.28	7145.66
428.46	7435.88
428.65	7442.90
428.84	7625.47
429.03	7496.74
429.22	7255.66
429.40	7522.48
429.59	7555.25
429.78	7365.67
429.97	6939.69
430.16	7435.88
430.34	7463.97
430.53	7875.90
430.72	7688.66
430.91	7669.94
431.10	7695.68
431.28	7836.11
431.47	7925.05
431.66	8278.47
431.85	7908.67
432.03	8107.62
432.22	8126.34
432.41	8315.92
432.60	8369.76
432.79	7967.18
432.97	8147.40
433.16	8318.26
433.35	8205.92
433.54	8355.71
433.72	8159.11
433.91	8346.35
434.10	8425.93
434.28	8432.95
434.47	8423.59
434.66	8557.00
434.85	8580.40
435.03	8528.91
435.22	8524.23
435.41	8894.04
435.59	8879.99
435.78	8819.14
435.97	8779.35
436.16	9078.94
436.34	8891.70
436.53	8720.84
436.72	9298.95
436.90	8933.82
437.09	9181.92
437.28	9018.08
437.46	9181.92
437.65	9137.45
437.84	9301.29
438.02	9380.87
438.21	9238.09
438.40	9074.26
438.58	9722.59
438.77	9675.77
438.96	9661.73
439.14	9853.66
439.33	9813.87
439.52	10008.13
439.70	10272.61
439.89	10118.14
440.08	10052.60
440.26	10354.53
440.45	10298.36
440.63	10431.77
440.82	10651.78
441.01	10464.54
441.19	10569.86
441.38	10644.76
441.57	10906.90
441.75	10803.91
441.94	11096.48
442.12	10939.66
442.31	11215.85
442.50	11075.42
442.68	11059.03
442.87	10977.11
443.05	11442.88
443.24	11363.30
443.43	11222.87
443.61	11440.54
443.80	11756.51
443.98	11267.34
444.17	11218.19
444.35	11557.57
444.54	11634.80
444.73	11566.93
444.91	11690.98
445.10	11585.65
445.28	11648.85
445.47	11485.01
445.65	11580.97
445.84	11733.11
446.02	11541.18
446.21	11674.59
446.39	11695.66
446.58	11936.73
446.77	11667.57
446.95	11527.14
447.14	12152.06
447.32	11873.54
447.51	11705.02
447.69	11950.78
447.88	12133.34
448.06	11885.24
448.25	11985.88
448.43	11901.62
448.62	11838.43
448.80	11925.03
448.99	12149.72
449.17	12285.47
449.36	12170.79
449.54	12554.63
449.73	12545.27
449.91	12697.41
450.10	12547.61
450.28	12688.04
450.46	12699.75
450.65	12477.40
450.83	12655.28
451.02	12538.25
451.20	12872.95
451.39	12835.50
451.57	12833.16
451.76	12613.15
451.94	12985.29
452.13	13041.46
452.31	12882.31
452.49	13088.28
452.68	12957.21
452.86	13139.77
453.05	13273.18
453.23	13085.94
453.42	13256.79
453.60	13083.59
453.78	13261.48
453.97	13280.20
454.15	13362.12
454.34	13170.19
454.52	13687.45
454.70	13650.00
454.89	13584.47
455.07	13799.80
455.26	13767.03
455.44	14099.39
455.62	13811.50
455.81	13965.98
455.99	13998.74
456.17	14075.98
456.36	14045.55
456.54	14513.66
456.73	14181.31
456.91	14576.86
457.09	14670.48
457.28	14794.53
457.46	14480.89
457.64	14506.64
457.83	14670.48
458.01	14253.86
458.19	14874.10
458.38	14899.85
458.56	15080.07
458.74	15005.17
458.93	15311.78
459.11	15145.61
459.29	15066.03
459.48	15342.21
459.66	15276.68
459.84	15372.64
460.03	15564.56
460.21	15117.52
460.39	15417.11
460.57	15234.55
460.76	15742.44
460.94	16058.42
461.12	15630.10
461.31	15461.58
461.49	15850.11
461.67	15623.08
461.85	16346.30
462.04	16025.65
462.22	16690.36
462.40	16203.53
462.59	16334.60
462.77	16540.57
462.95	16512.48
463.13	16517.16
463.32	16320.56
463.50	16276.09
463.68	16594.40
463.86	16856.54
464.05	16339.28
464.23	16657.59
464.41	17048.46
464.59	16163.74
464.78	17132.72
464.96	16922.07
465.14	16716.11
465.32	17401.88
465.50	17488.48
465.69	17308.26
465.87	16985.27
466.05	17341.03
466.23	16982.93
466.41	17408.90
466.60	17729.56
466.78	17137.40
466.96	17322.30
467.14	17486.14
467.32	17427.63
467.51	17657.00
467.69	17226.34
467.87	17633.60
468.05	17598.49
468.23	17633.60
468.41	17591.47
468.60	17680.41
468.78	17839.56
468.96	17727.22
469.14	18141.49
469.32	18284.26
469.50	17963.61
469.69	18328.74
469.87	18609.60
470.05	18523.00
470.23	18286.61
470.41	18679.82
470.59	18733.65
470.77	18649.39
470.95	19094.09
471.14	18988.77
471.32	18834.29
471.50	19463.90
471.68	19321.12
471.86	19201.76
472.04	19372.61
472.22	19866.47
472.40	19234.52
472.58	19864.13
472.77	19843.06
472.95	19887.53
473.13	20435.22
473.31	19777.53
473.49	20203.50
473.67	20236.27
473.85	20652.89
474.03	20912.69
474.21	20931.41
474.39	20802.68
474.57	21130.36
474.75	21235.68
474.93	21521.23
475.12	21177.17
475.30	21458.03
475.48	21366.75
475.66	21722.51
475.84	21617.19
476.02	21881.67
476.20	21774.00
476.38	22160.19
476.56	22714.90
476.74	22644.68
476.92	22691.49
477.10	22499.57
477.28	23152.58
477.46	22899.80
477.64	23400.68
477.82	23400.68
478.00	24217.52
478.18	23997.51
478.36	24259.65
478.54	24631.80
478.72	24800.32
478.90	24755.85
479.08	24933.73
479.26	25252.04
479.44	25266.08
479.62	25591.42
479.80	25773.98
479.98	26089.95
480.16	26520.61
480.34	26115.70
480.52	26792.11
480.70	26918.50
480.88	26387.20
481.06	27187.66
481.24	26764.03
481.41	27206.39
481.59	27962.38
481.77	27943.66
481.95	28098.13
482.13	28332.18
482.31	28395.38
482.49	28847.10
482.67	28706.67
482.85	28999.24
483.03	29846.51
483.21	30171.85
483.39	30082.91
483.57	29961.20
483.74	30143.76
483.92	30543.99
484.10	30658.68
484.28	31131.47
484.46	31463.82
484.64	31924.91
484.82	31480.21
485.00	31541.06
485.18	32381.31
485.35	32360.25
485.53	32641.11
485.71	32975.81
485.89	33539.88
486.07	33331.57
486.25	33439.23
486.43	34115.65
486.61	33947.13
486.78	34625.89
486.96	34801.43
487.14	35260.17
487.32	35550.40
487.50	35573.80
487.68	36114.47
487.85	36016.16
488.03	36975.78
488.21	36811.95
488.39	37237.92
488.57	36926.63
488.75	37720.07
488.92	38127.33
489.10	38043.07
489.28	38436.28
489.46	38621.18
489.64	39098.65
489.81	39915.50
489.99	39543.35
490.17	39304.62
490.35	40203.38
490.53	40130.83
490.70	40465.52
490.88	40390.62
491.06	41160.66
491.24	40964.06
491.41	41478.97
491.59	41869.84
491.77	42122.62
491.95	42401.14
492.13	42550.94
492.30	42864.57
492.48	42948.83
492.66	42543.92
492.84	42983.94
493.01	44062.93
493.19	43615.88
493.37	43924.83
493.54	44479.54
493.72	44617.63
493.90	44706.57
494.08	45139.57
494.25	45443.84
494.43	45794.92
494.61	45963.44
494.79	46120.26
494.96	46199.83
495.14	46459.63
495.32	47098.60
495.49	46925.40
495.67	47091.58
495.85	47686.07
496.02	47566.71
496.20	48055.88
496.38	47945.87
496.55	48259.51
496.73	48989.75
496.91	48781.45
497.09	49050.61
497.26	49102.10
497.44	49102.10
497.62	49532.76
497.79	49553.82
497.97	49406.37
498.14	49883.84
498.32	50155.34
498.50	50515.78
498.67	50532.17
498.85	50616.43
499.03	50871.54
499.20	50628.13
499.38	50932.40
499.56	51430.93
499.73	51938.83
499.91	51440.29
500.08	51753.93
500.26	51753.93
500.44	51681.37
500.61	52053.51
500.79	51655.62
500.97	52215.01
501.14	52545.03
501.32	52601.20
501.49	52502.90
501.67	52584.82
501.84	52741.63
502.02	52877.38
502.20	53331.45
502.37	53226.12
502.55	53003.77
502.72	53425.07
502.90	53434.43
503.07	53340.81
503.25	53511.67
503.43	53595.93
503.60	53799.55
503.78	54082.76
503.95	53928.28
504.13	54092.12
504.30	54124.89
504.48	54124.89
504.65	54227.87
504.83	54731.09
505.01	54913.65
505.18	54899.61
505.36	54986.21
505.53	54653.85
505.71	55147.70
505.88	55145.36
506.06	55217.92
506.23	55278.77
506.41	55334.95
506.58	55341.97
506.76	55547.93
506.93	55634.53
507.11	55257.71
507.28	55955.19
507.46	55959.87
507.63	56144.77
507.81	56161.15
507.98	55983.27
508.16	56343.72
508.33	56114.34
508.50	56399.89
508.68	56563.73
508.85	56804.80
509.03	56655.01
509.20	56760.33
509.38	57088.01
509.55	57059.92
509.73	56992.04
509.90	57137.16
510.08	57181.63
510.25	57041.20
510.42	57516.32
510.60	57499.94
510.77	57794.85
510.95	57399.30
511.12	57364.19
511.30	57476.54
511.47	57729.31
511.64	57844.00
511.82	58248.91
511.99	57876.77
512.17	58293.38
512.34	58024.22
512.51	58171.67
512.69	58262.96
512.86	58344.87
513.04	58717.02
513.21	58595.31
513.38	58614.04
513.56	58759.15
513.73	58518.07
513.90	58763.83
514.08	58714.68
514.25	58899.58
514.43	58976.82
514.60	59227.26
514.77	59098.53
514.95	59409.82
515.12	59068.10
515.29	58993.20
515.47	59323.22
515.64	59498.76
515.81	59327.90
515.99	59625.15
516.16	59641.53
516.33	59622.81
516.51	59627.49
516.68	59681.32
516.85	59728.13
517.03	60025.38
517.20	60046.44
517.37	60156.45
517.54	60172.83
517.72	59891.97
517.89	60158.79
518.06	60121.34
518.24	59987.93
518.41	60135.38
518.58	60568.38
518.75	60360.08
518.93	60591.79
519.10	60587.11
519.27	60650.30
519.45	60608.17
519.62	60633.92
519.79	60760.31
519.96	60704.13
520.14	61043.51
520.31	60814.14
520.48	61045.85
520.65	60994.36
520.83	61176.92
521.00	61176.92
521.17	61111.39
521.34	61146.50
521.52	61371.19
521.69	61214.37
521.86	61645.03
522.03	61504.60
522.20	61535.02
522.38	61528.00
522.55	61666.09
522.72	61680.14
522.89	61572.47
523.07	61909.51
523.24	61698.86
523.41	61989.09
523.58	61736.31
523.75	62073.35
523.92	61942.28
524.10	61986.75
524.27	62260.59
524.44	62152.93
524.61	62398.68
524.78	62440.81
524.96	62520.39
525.13	62314.42
525.30	62543.80
525.47	62555.50
525.64	62431.45
525.81	62808.28
525.98	62717.00
526.16	62794.23
526.33	62717.00
526.50	62791.89
526.67	62536.77
526.84	62707.63
527.01	62684.23
527.18	62726.36
527.36	62857.43
527.53	63222.55
527.70	63264.68
527.87	63227.23
528.04	63035.31
528.21	63299.79
528.38	63152.33
528.55	63365.32
528.72	63309.15
528.89	63330.22
529.07	63299.79
529.24	63189.78
529.41	63456.60
529.58	63379.37
529.75	63295.11
529.92	63636.83
530.09	63643.85
530.26	63779.60
530.43	63711.72
530.60	63641.51
530.77	63814.71
530.94	63552.57
531.11	63664.91
531.28	63753.85
531.46	63810.03
531.63	63845.13
531.80	64074.51
531.97	64055.78
532.14	64196.21
532.31	63978.54
532.48	64111.95
532.65	64193.87
532.82	63917.69
532.99	64126.00
533.16	64121.32
533.33	64441.97
533.50	64491.12
533.67	64432.61
533.84	64282.81
534.01	64189.19
534.18	64285.15
534.35	64556.66
534.52	64357.71
534.69	64708.79
534.86	64764.96
535.03	64612.83
535.20	64631.55
535.37	64673.68
535.54	64823.48
535.71	64615.17
535.88	64636.23
536.05	64800.07
536.22	64999.02
536.38	65120.73
536.55	65034.13
536.72	65045.83
536.89	64680.70
537.06	64940.50
537.23	65102.00
537.40	64874.97
537.57	65113.70
537.74	65132.43
537.91	65373.50
538.08	65190.94
538.25	65146.47
538.42	65008.38
538.59	65104.34
538.75	65137.11
538.92	65350.10
539.09	65476.49
539.26	65535.00
539.43	65535.00
539.60	65535.00
539.77	65497.55
539.94	65535.00
540.11	65535.00
540.28	65535.00
540.44	65535.00
540.61	65535.00
540.78	65535.00
540.95	65535.00
541.12	65535.00
541.29	65535.00
541.46	65535.00
541.62	65535.00
541.79	65535.00
541.96	65535.00
542.13	65535.00
542.30	65535.00
542.47	65535.00
542.63	65535.00
542.80	65535.00
542.97	65535.00
543.14	65535.00
543.31	65535.00
543.48	65535.00
543.64	65535.00
543.81	65535.00
543.98	65535.00
544.15	65535.00
544.32	65535.00
544.48	65535.00
544.65	65535.00
544.82	65535.00
544.99	65535.00
545.16	65535.00
545.32	65535.00
545.49	65535.00
545.66	65535.00
545.83	65535.00
546.00	65535.00
546.16	65535.00
546.33	65535.00
546.50	65535.00
546.67	65535.00
546.83	65535.00
547.00	65535.00
547.17	65535.00
547.34	65535.00
547.50	65535.00
547.67	65535.00
547.84	65535.00
548.00	65535.00
548.17	65535.00
548.34	65535.00
548.51	65535.00
548.67	65535.00
548.84	65535.00
549.01	65535.00
549.18	65535.00
549.34	65535.00
549.51	65535.00
549.68	65535.00
549.84	65535.00
550.01	65535.00
550.18	65535.00
550.34	65535.00
550.51	65535.00
550.68	65535.00
550.84	65535.00
551.01	65535.00
551.18	65535.00
551.34	65535.00
551.51	65535.00
551.68	65535.00
551.84	65535.00
552.01	65535.00
552.18	65535.00
552.34	65535.00
552.51	65535.00
552.68	65535.00
552.84	65535.00
553.01	65535.00
553.18	65535.00
553.34	65535.00
553.51	65535.00
553.67	65535.00
553.84	65535.00
554.01	65535.00
554.17	65535.00
554.34	65535.00
554.51	65535.00
554.67	65535.00
554.84	65535.00
555.00	65535.00
555.17	65535.00
555.33	65535.00
555.50	65535.00
555.67	65535.00
555.83	65535.00
556.00	65535.00
556.16	65535.00
556.33	65535.00
556.50	65535.00
556.66	65535.00
556.83	65535.00
556.99	65535.00
557.16	65535.00
557.32	65535.00
557.49	65535.00
557.65	65535.00
557.82	65535.00
557.98	65535.00
558.15	65535.00
558.32	65535.00
558.48	65535.00
558.65	65535.00
558.81	65535.00
558.98	65535.00
559.14	65535.00
559.31	65535.00
559.47	65535.00
559.64	65535.00
559.80	65535.00
559.97	65535.00
560.13	65535.00
560.30	65535.00
560.46	65535.00
560.63	65535.00
560.79	65535.00
560.96	65535.00
561.12	65535.00
561.29	65535.00
561.45	65535.00
561.61	65535.00
561.78	65535.00
561.94	65535.00
562.11	65535.00
562.27	65535.00
562.44	65535.00
562.60	65535.00
562.77	65535.00
562.93	65535.00
563.10	65535.00
563.26	65535.00
563.42	65535.00
563.59	65535.00
563.75	65535.00
563.92	65535.00
564.08	65535.00
564.24	65535.00
564.41	65535.00
564.57	65535.00
564.74	65535.00
564.90	65535.00
565.07	65535.00
565.23	65535.00
565.39	65535.00
565.56	65535.00
565.72	65535.00
565.88	65535.00
566.05	65535.00
566.21	65535.00
566.38	65535.00
566.54	65535.00
566.70	65535.00
566.87	65535.00
567.03	65535.00
567.19	65535.00
567.36	65535.00
567.52	65535.00
567.68	65535.00
567.85	65535.00
568.01	65535.00
568.17	65535.00
568.34	65535.00
568.50	65535.00
568.66	65535.00
568.83	65535.00
568.99	65535.00
569.15	65535.00
569.32	65535.00
569.48	65535.00
569.64	65535.00
569.81	65535.00
569.97	65535.00
570.13	65535.00
570.30	65535.00
570.46	65535.00
570.62	65535.00
570.78	65535.00
570.95	65535.00
571.11	65535.00
571.27	65535.00
571.43	65535.00
571.60	65535.00
571.76	65535.00
571.92	65535.00
572.09	65535.00
572.25	65535.00
572.41	65535.00
572.57	65535.00
572.74	65535.00
572.90	65535.00
573.06	65535.00
573.22	65535.00
573.38	65535.00
573.55	65535.00
573.71	65535.00
573.87	65535.00
574.03	65535.00
574.20	65535.00
574.36	65535.00
574.52	65535.00
574.68	65535.00
574.84	65535.00
575.01	65535.00
575.17	65535.00
575.33	65535.00
575.49	65535.00
575.65	65535.00
575.82	65535.00
575.98	65535.00
576.14	65535.00
576.30	65535.00
576.46	65535.00
576.62	65535.00
576.79	65535.00
576.95	65535.00
577.11	65535.00
577.27	65535.00
577.43	65535.00
577.59	65535.00
577.75	65535.00
577.92	65535.00
578.08	65535.00
578.24	65535.00
578.40	65535.00
578.56	65535.00
578.72	65535.00
578.88	65535.00
579.04	65535.00
579.21	65535.00
579.37	65535.00
579.53	65535.00
579.69	65535.00
579.85	65535.00
580.01	65535.00
580.17	65535.00
580.33	65535.00
580.49	65535.00
580.65	65535.00
580.82	65535.00
580.98	65535.00
581.14	65535.00
581.30	65535.00
581.46	65535.00
581.62	65535.00
581.78	65535.00
581.94	65535.00
582.10	65535.00
582.26	65535.00
582.42	65535.00
582.58	65535.00
582.74	65535.00
582.90	65535.00
583.06	65535.00
583.22	65535.00
583.38	65535.00
583.54	65535.00
583.70	65535.00
583.86	65535.00
584.02	65535.00
584.18	65535.00
584.34	65535.00
584.50	65535.00
584.66	65535.00
584.82	65535.00
584.98	65535.00
585.14	65535.00
585.30	65535.00
585.46	65535.00
585.62	65535.00
585.78	65535.00
585.94	65535.00
586.10	65535.00
586.26	65535.00
586.42	65535.00
586.58	65535.00
586.74	65535.00
586.90	65535.00
587.06	65535.00
587.22	65535.00
587.38	65535.00
587.54	65535.00
587.70	65535.00
