SpectraSuite Data File
++++++++++++++++++++++++++++++++++++
Date: Fri Oct 04 11:48:23 GMT-05:00 2013
User: price-jones
Dark Spectrum Present: No
Reference Spectrum Present: No
Number of Sampled Component Spectra: 1
Spectrometers: USB2+H05261
Integration Time (usec): 100000 (USB2+H05261)
Spectra Averaged: 1 (USB2+H05261)
Boxcar Smoothing: 0 (USB2+H05261)
Correct for Electrical Dark: No (USB2+H05261)
Strobe/Lamp Enabled: No (USB2+H05261)
Correct for Detector Non-linearity: No (USB2+H05261)
Correct for Stray Light: No (USB2+H05261)
Number of Pixels in Processed Spectrum: 2048
>>>>>Begin Processed Spectral Data<<<<<
365.73	0.00
365.92	0.00
366.12	0.00
366.32	0.00
366.52	0.00
366.72	0.00
366.91	0.00
367.11	0.00
367.31	0.00
367.51	0.00
367.70	0.00
367.90	0.00
368.10	0.00
368.30	0.00
368.49	0.00
368.69	0.00
368.89	0.00
369.09	0.00
369.28	0.00
369.48	0.00
369.68	0.00
369.87	0.00
370.07	0.00
370.27	14.04
370.47	170.86
370.66	500.87
370.86	599.18
371.06	594.50
371.25	634.29
371.45	645.99
371.65	645.99
371.84	634.29
372.04	685.78
372.24	601.52
372.44	528.96
372.63	678.76
372.83	716.20
373.03	660.03
373.22	751.31
373.42	805.14
373.62	720.88
373.81	716.20
374.01	830.89
374.21	800.46
374.40	748.97
374.60	835.57
374.79	863.66
374.99	751.31
375.19	788.76
375.38	800.46
375.58	753.65
375.78	861.32
375.97	840.25
376.17	896.43
376.37	781.74
376.56	805.14
376.76	805.14
376.95	889.40
377.15	861.32
377.35	931.53
377.54	896.43
377.74	800.46
377.93	952.60
378.13	950.26
378.33	898.77
378.52	936.21
378.72	947.92
378.91	936.21
379.11	929.19
379.31	868.34
379.50	912.81
379.70	952.60
379.89	1100.05
380.09	1107.07
380.28	961.96
380.48	1053.24
380.68	1039.20
380.87	1076.65
381.07	1029.84
381.26	1130.48
381.46	959.62
381.65	1032.18
381.85	1074.31
382.04	1090.69
382.24	1167.93
382.43	1111.75
382.63	1055.58
382.83	1088.35
383.02	1069.62
383.22	1170.27
383.41	1111.75
383.61	1104.73
383.80	1174.95
384.00	1135.16
384.19	1160.91
384.39	1217.08
384.58	1198.35
384.78	1254.53
384.97	1299.00
385.17	1280.27
385.36	1219.42
385.56	1275.59
385.75	1266.23
385.95	1399.64
386.14	1228.78
386.34	1249.85
386.53	1235.80
386.72	1214.74
386.92	1334.11
387.11	1301.34
387.31	1287.29
387.50	1331.76
387.70	1296.66
387.89	1282.61
388.09	1401.98
388.28	1495.60
388.48	1385.60
388.67	1385.60
388.86	1373.89
389.06	1451.13
389.25	1465.18
389.45	1495.60
389.64	1397.30
389.84	1519.01
390.03	1523.69
390.22	1547.09
390.42	1444.11
390.61	1448.79
390.81	1631.35
391.00	1586.88
391.19	1633.69
391.39	1563.48
391.58	1561.14
391.78	1781.15
391.97	1701.57
392.16	1610.29
392.36	1743.70
392.55	1799.87
392.75	1778.81
392.94	1666.46
393.13	1769.44
393.33	1703.91
393.52	1717.95
393.71	1865.41
393.91	1816.26
394.10	1804.55
394.29	1837.32
394.49	1720.29
394.68	1750.72
394.88	1820.94
395.07	1968.39
395.26	1914.56
395.46	1881.79
395.65	1980.09
395.84	1954.35
396.04	1956.69
396.23	2076.06
396.42	1963.71
396.62	2160.31
396.81	2036.27
397.00	2031.58
397.19	2062.01
397.39	2211.81
397.58	2143.93
397.77	2059.67
397.97	2115.84
398.16	2097.12
398.35	2211.81
398.55	2195.42
398.74	2333.51
398.93	2181.38
399.12	2197.76
399.32	2146.27
399.51	2277.34
399.70	2382.67
399.90	2403.73
400.09	2314.79
400.28	2422.45
400.47	2331.17
400.67	2480.97
400.86	2326.49
401.05	2420.11
401.24	2462.24
401.44	2506.71
401.63	2539.48
401.82	2523.10
402.01	2534.80
402.21	2548.84
402.40	2516.08
402.59	2485.65
402.78	2635.44
402.97	2534.80
403.17	2696.30
403.36	2715.02
403.55	2775.88
403.74	2792.26
403.93	2799.28
404.13	2637.78
404.32	2740.77
404.51	2754.81
404.70	2789.92
404.89	2836.73
405.09	2827.37
405.28	2841.41
405.47	2899.92
405.66	3012.27
405.85	2883.54
406.05	2981.84
406.24	2979.50
406.43	3042.70
406.62	2986.52
406.81	3105.89
407.00	2991.20
407.20	3021.63
407.39	3080.14
407.58	3213.56
407.77	3222.92
407.96	3328.24
408.15	3192.49
408.34	3260.37
408.54	3339.94
408.73	3361.01
408.92	3396.12
409.11	3412.50
409.30	3454.63
409.49	3391.44
409.68	3405.48
409.87	3510.80
410.07	3426.54
410.26	3552.93
410.45	3613.79
410.64	3574.00
410.83	3679.32
411.02	3604.42
411.21	3735.50
411.40	3646.55
411.59	3957.85
411.78	3810.39
411.98	3796.35
412.17	3955.51
412.36	3957.85
412.55	4049.13
412.74	4042.11
412.93	4035.08
413.12	3850.18
413.31	4255.09
413.50	4091.26
413.69	4208.28
413.88	4250.41
414.07	4344.03
414.26	4393.19
414.45	4297.22
414.64	4465.74
414.83	4507.87
415.02	4547.66
415.22	4765.33
415.41	4564.04
415.60	4723.20
415.79	4805.12
415.98	4919.81
416.17	4681.07
416.36	4652.98
416.55	4968.96
416.74	4863.63
416.93	4891.72
417.12	4992.36
417.31	5039.17
417.50	4905.76
417.69	5263.86
417.88	5167.90
418.07	5123.43
418.26	5193.65
418.45	5277.91
418.64	5404.30
418.83	5331.74
419.02	5327.06
419.21	5423.02
419.39	5378.55
419.58	5350.46
419.77	5476.85
419.96	5495.58
420.15	5533.03
420.34	5458.13
420.53	5558.77
420.72	5668.78
420.91	5542.39
421.10	5675.80
421.29	5743.67
421.48	5614.95
421.67	5760.06
421.86	5750.70
422.05	5694.52
422.24	5671.12
422.43	5652.39
422.61	5806.87
422.80	5905.17
422.99	5930.92
423.18	5860.70
423.37	5788.14
423.56	5966.03
423.75	6043.26
423.94	5839.64
424.13	5666.44
424.32	5621.97
424.50	5977.73
424.69	5888.79
424.88	6113.48
425.07	6040.92
425.26	5881.77
425.45	5893.47
425.64	5991.77
425.83	6083.05
426.01	6209.44
426.20	6043.26
426.39	6101.78
426.58	6045.60
426.77	6097.10
426.96	6214.12
427.15	6080.71
427.33	6052.63
427.52	6272.64
427.71	6506.69
427.90	6179.01
428.09	6541.80
428.28	6504.35
428.46	6520.73
428.65	6361.58
428.84	6506.69
429.03	6586.27
429.22	6406.05
429.40	6609.67
429.59	6693.93
429.78	6312.42
429.97	6338.17
430.16	6331.15
430.34	6771.17
430.53	6904.58
430.72	6939.69
430.91	6658.82
431.10	6719.68
431.28	6869.47
431.47	7037.99
431.66	7089.48
431.85	6839.05
432.03	7019.27
432.22	7185.44
432.41	7068.42
432.60	7084.80
432.79	7037.99
432.97	7159.70
433.16	7330.56
433.35	7215.87
433.54	7293.11
433.72	7461.63
433.91	7342.26
434.10	7400.77
434.28	7456.95
434.47	7463.97
434.66	7456.95
434.85	7630.15
435.03	7623.12
435.22	7569.29
435.41	7976.55
435.59	7726.11
435.78	7730.79
435.97	7613.76
436.16	7824.41
436.34	7953.14
436.53	7672.28
436.72	7981.23
436.90	7793.98
437.09	7878.24
437.28	7756.54
437.46	8135.70
437.65	8285.50
437.84	8241.03
438.02	8145.06
438.21	8301.88
438.40	8009.31
438.58	8468.06
438.77	8507.85
438.96	8336.99
439.14	8723.18
439.33	8716.16
439.52	8931.48
439.70	8779.35
439.89	8868.29
440.08	8987.66
440.26	9011.06
440.45	8872.97
440.63	9034.47
440.82	9238.09
441.01	9238.09
441.19	9308.31
441.38	9437.04
441.57	9511.94
441.75	9612.58
441.94	9715.56
442.12	9745.99
442.31	9951.96
442.50	9905.15
442.68	9813.87
442.87	9760.03
443.05	9865.36
443.24	10076.01
443.43	10202.40
443.61	10073.67
443.80	10153.24
443.98	9710.88
444.17	9633.64
444.35	10031.54
444.54	9973.02
444.73	10186.01
444.91	10214.10
445.10	10186.01
445.28	10134.52
445.47	10176.65
445.65	10087.71
445.84	10111.11
446.02	10324.10
446.21	10485.60
446.39	10216.44
446.58	10478.58
446.77	10394.32
446.95	10047.92
447.14	10284.31
447.32	10532.41
447.51	10181.33
447.69	10377.94
447.88	10555.82
448.06	10574.54
448.25	10483.26
448.43	10611.99
448.62	10249.21
448.80	10476.24
448.99	10668.16
449.17	10874.13
449.36	10424.75
449.54	10923.28
449.73	10927.96
449.91	10981.79
450.10	10871.79
450.28	11145.63
450.46	10808.59
450.65	10986.47
450.83	11372.66
451.02	11112.86
451.20	11452.24
451.39	11133.93
451.57	11023.92
451.76	11089.46
451.94	11211.17
452.13	11569.27
452.31	11438.20
452.49	11178.40
452.68	11431.18
452.86	11499.05
453.05	11566.93
453.23	11623.10
453.42	11634.80
453.60	11281.38
453.78	11646.51
453.97	11548.20
454.15	11826.73
454.34	11822.05
454.52	11943.75
454.70	11822.05
454.89	12002.27
455.07	11894.60
455.26	12184.83
455.44	12271.43
455.62	11922.69
455.81	12465.69
455.99	12189.51
456.17	12475.06
456.36	12479.74
456.54	12479.74
456.73	12578.04
456.91	12915.08
457.09	12784.01
457.28	13048.49
457.46	12835.50
457.64	12950.18
457.83	12903.37
458.01	12767.62
458.19	13165.51
458.38	12819.11
458.56	13240.41
458.74	13273.18
458.93	13043.81
459.11	13071.89
459.29	13114.02
459.48	13610.22
459.66	13357.44
459.84	13654.69
460.03	13858.31
460.21	13451.06
460.39	13317.65
460.57	13551.70
460.76	13680.43
460.94	13994.06
461.12	13668.73
461.31	13720.22
461.49	13731.92
461.67	13940.23
461.85	14108.75
462.04	14106.41
462.22	14672.82
462.40	14298.33
462.59	14113.43
462.77	14134.50
462.95	14490.26
463.13	14272.59
463.32	14485.58
463.50	14305.35
463.68	14490.26
463.86	14272.59
464.05	14483.24
464.23	14520.68
464.41	14462.17
464.59	14216.41
464.78	14698.56
464.96	14523.02
465.14	14513.66
465.32	14736.01
465.50	14822.61
465.69	14953.68
465.87	14839.00
466.05	15101.14
466.23	14869.42
466.41	15044.96
466.60	15573.92
466.78	15080.07
466.96	14890.49
467.14	15105.82
467.32	15208.80
467.51	15482.64
467.69	15131.56
467.87	15304.76
468.05	15351.57
468.23	15290.72
468.41	15527.11
468.60	15503.71
468.78	15815.00
468.96	15379.66
469.14	15826.70
469.32	15997.56
469.50	15639.46
469.69	15960.11
469.87	16063.10
470.05	16315.87
470.23	16107.57
470.41	16437.58
470.59	16346.30
470.77	16496.10
470.95	16475.03
471.14	16702.06
471.32	16645.89
471.50	17179.53
471.68	16814.41
471.86	16919.73
472.04	16964.20
472.22	17448.69
472.40	17163.15
472.58	17291.88
472.77	17539.97
472.95	17472.10
473.13	17884.03
473.31	17263.79
473.49	17635.94
473.67	17853.61
473.85	17703.81
474.03	17972.97
474.21	18064.25
474.39	18178.94
474.57	18455.12
474.75	18731.31
474.93	18813.23
475.12	18623.64
475.30	18705.56
475.48	18476.19
475.66	18960.68
475.84	19068.34
476.02	19166.65
476.20	19314.10
476.38	19709.65
476.56	19763.48
476.74	19896.89
476.92	19697.95
477.10	19548.15
477.28	20159.03
477.46	19889.87
477.64	20105.20
477.82	20643.52
478.00	21039.08
478.18	20964.18
478.36	21226.32
478.54	21294.19
478.72	21661.66
478.90	21804.43
479.08	21745.92
479.26	21867.63
479.44	22082.95
479.62	22307.65
479.80	22366.16
479.98	22450.42
480.16	23154.92
480.34	22815.54
480.52	22981.72
480.70	23264.92
480.88	23199.39
481.06	23124.49
481.24	23037.89
481.41	23810.27
481.59	24496.05
481.77	24180.07
481.95	24432.85
482.13	24823.72
482.31	24568.60
482.49	25055.43
482.67	25291.83
482.85	25883.98
483.03	25879.30
483.21	26082.93
483.39	26225.70
483.57	25947.18
483.74	26384.86
483.92	26733.60
484.10	26647.00
484.28	27318.73
484.46	27646.41
484.64	28025.57
484.82	27386.61
485.00	27576.19
485.18	28402.40
485.35	28905.62
485.53	28545.17
485.71	28601.35
485.89	29390.11
486.07	29205.20
486.25	29429.90
486.43	29729.48
486.61	29621.82
486.78	30190.57
486.96	30164.82
487.14	31054.23
487.32	30822.51
487.50	31070.61
487.68	31239.13
487.85	31857.03
488.03	32163.64
488.21	32311.10
488.39	32381.31
488.57	32388.33
488.75	32938.36
488.92	33408.81
489.10	33048.36
489.28	33680.31
489.46	33741.16
489.64	34061.82
489.81	34377.79
489.99	34471.41
490.17	34766.32
490.35	34555.67
490.53	35370.18
490.70	35477.84
490.88	35552.74
491.06	36072.34
491.24	36208.09
491.41	36079.36
491.59	36533.42
491.77	36896.20
491.95	37027.28
492.13	37483.68
492.30	37701.35
492.48	37109.19
492.66	37434.53
492.84	37771.57
493.01	38447.98
493.19	38417.55
493.37	38354.36
493.54	39033.11
493.72	39309.30
493.90	39531.65
494.08	39129.08
494.25	39934.22
494.43	40076.99
494.61	40690.21
494.79	40617.66
494.96	40437.44
495.14	41020.23
495.32	41153.64
495.49	41333.86
495.67	41642.81
495.85	41783.24
496.02	42380.08
496.20	42595.41
496.38	42232.63
496.55	42700.73
496.73	43552.69
496.91	42930.11
497.09	43643.97
497.26	43416.94
497.44	43337.36
497.62	43763.34
497.79	43840.57
497.97	44554.44
498.14	44664.44
498.32	44928.92
498.50	44776.79
498.67	45457.88
498.85	44818.92
499.03	45776.20
499.20	45382.99
499.38	45785.56
499.56	46160.05
499.73	46218.56
499.91	46499.42
500.08	46836.46
500.26	46237.28
500.44	46571.98
500.61	46728.80
500.79	46993.28
500.97	47386.49
501.14	47735.23
501.32	47445.00
501.49	47512.88
501.67	47814.80
501.84	47725.86
502.02	47840.55
502.20	48526.33
502.37	48215.04
502.55	48395.26
502.72	48350.79
502.90	48729.95
503.07	48334.40
503.25	49207.42
503.43	48645.69
503.60	49066.99
503.78	49186.36
503.95	49778.51
504.13	49385.30
504.30	49621.70
504.48	49595.95
504.65	49900.22
504.83	50064.06
505.01	50614.08
505.18	50347.26
505.36	50349.60
505.53	50630.47
505.71	50120.23
505.88	50791.97
506.06	50562.59
506.23	51103.26
506.41	50782.60
506.58	51220.28
506.76	51276.46
506.93	51295.18
507.11	51194.54
507.28	51613.49
507.46	51358.38
507.63	51732.86
507.81	52217.35
507.98	51653.28
508.16	51695.41
508.33	51971.60
508.50	51980.96
508.68	52395.23
508.85	52821.21
509.03	52640.99
509.20	52676.10
509.38	52851.64
509.55	52959.30
509.73	52870.36
509.90	52839.93
510.08	53064.63
510.25	53176.97
510.42	53298.68
510.60	53549.12
510.77	53434.43
510.95	53682.53
511.12	53514.01
511.30	53563.16
511.47	53745.72
511.64	54199.79
511.82	54103.82
511.99	54033.61
512.17	54312.13
512.34	53956.37
512.51	54464.27
512.69	54284.04
512.86	54700.66
513.04	54663.21
513.21	54485.33
513.38	54747.47
513.56	55107.91
513.73	54796.62
513.90	54693.64
514.08	54944.08
514.25	54913.65
514.43	55187.49
514.60	55276.43
514.77	55388.78
514.95	55440.27
515.12	55042.38
515.29	55379.42
515.47	55866.25
515.64	55924.76
515.81	55779.65
515.99	55861.57
516.16	56062.85
516.33	56069.87
516.51	56172.86
516.68	56133.07
516.85	56182.22
517.03	56233.71
517.20	56449.04
517.37	56292.22
517.54	56582.45
517.72	56411.59
517.89	56409.25
518.06	56542.66
518.24	56306.27
518.41	56385.85
518.58	56655.01
518.75	56856.29
518.93	56935.87
519.10	57034.17
519.27	57097.37
519.45	56622.24
519.62	57029.49
519.79	57106.73
519.96	57476.54
520.14	57261.21
520.31	57263.55
520.48	57277.59
520.65	57378.23
520.83	57682.50
521.00	57429.72
521.17	57549.09
521.34	57628.67
521.52	58064.01
521.69	57930.60
521.86	58178.70
522.03	58131.89
522.20	57888.47
522.38	58056.99
522.55	58012.52
522.72	58218.49
522.89	58354.24
523.07	58466.58
523.24	58333.17
523.41	58410.41
523.58	58190.40
523.75	58583.61
523.92	58251.25
524.10	58588.29
524.27	58461.90
524.44	58852.77
524.61	58906.60
524.78	58822.34
524.96	58770.85
525.13	58925.33
525.30	58972.14
525.47	59150.02
525.64	58735.74
525.81	59241.30
525.98	59325.56
526.16	59360.67
526.33	59175.76
526.50	59299.81
526.67	59128.95
526.84	59334.92
527.01	59159.38
527.18	59622.81
527.36	59437.90
527.53	59583.02
527.70	59863.88
527.87	59770.26
528.04	59653.23
528.21	59753.88
528.38	59678.98
528.55	59667.28
528.72	59657.91
528.89	59990.27
529.07	59838.14
529.24	59725.79
529.41	59884.95
529.58	60179.85
529.75	59976.23
529.92	60020.70
530.09	60114.32
530.26	60264.11
530.43	60238.37
530.60	60287.52
530.77	60245.39
530.94	60406.89
531.11	60257.09
531.28	60294.54
531.46	60329.65
531.63	60736.90
531.80	60626.90
531.97	60697.11
532.14	60638.60
532.31	60662.00
532.48	60650.30
532.65	60889.04
532.82	60540.30
532.99	60938.19
533.16	60779.03
533.33	60910.10
533.50	61099.68
533.67	61034.15
533.84	60741.58
534.01	60678.39
534.18	60877.33
534.35	61092.66
534.52	60954.57
534.69	61181.60
534.86	61242.46
535.03	61090.32
535.20	61193.31
535.37	61345.44
535.54	61340.76
535.71	61291.61
535.88	61439.06
536.05	61567.79
536.22	61661.41
536.38	61738.65
536.55	61630.99
536.72	61574.81
536.89	61343.10
537.06	61670.78
537.23	61729.29
537.40	61549.07
537.57	61722.27
537.74	61654.39
537.91	62017.17
538.08	61888.45
538.25	61900.15
538.42	61907.17
538.59	61820.57
538.75	61698.86
538.92	61834.61
539.09	62059.30
539.26	62035.90
539.43	62071.01
539.60	62092.07
539.77	62173.99
539.94	62185.69
540.11	62136.54
540.28	62241.87
540.44	62300.38
540.61	62136.54
540.78	62159.95
540.95	62372.94
541.12	62307.40
541.29	62330.81
541.46	62370.60
541.62	62382.30
541.79	62536.77
541.96	62300.38
542.13	62305.06
542.30	62740.40
542.47	62817.64
542.63	62749.76
542.80	62883.17
542.97	62866.79
543.14	62780.19
543.31	62712.31
543.48	63002.54
543.64	63061.05
543.81	63128.93
543.98	62997.86
544.15	63262.34
544.32	63238.93
544.48	63243.62
544.65	63105.52
544.82	63231.91
544.99	63173.40
545.16	63206.17
545.32	63159.36
545.49	63465.97
545.66	63557.25
545.83	63465.97
546.00	63730.45
546.16	63491.71
546.33	63318.51
546.50	63068.08
546.67	63437.88
546.83	63330.22
547.00	63400.43
547.17	63601.72
547.34	63634.48
547.50	63543.20
547.67	63859.18
547.84	63634.48
548.00	63613.42
548.17	63728.11
548.34	63774.92
548.51	63856.84
548.67	63891.94
548.84	63807.68
549.01	63788.96
549.18	63791.30
549.34	63962.16
549.51	63913.01
549.68	63880.24
549.84	63936.41
550.01	63950.46
550.18	63683.64
550.34	64027.70
550.51	63980.88
550.68	64207.92
550.84	63924.71
551.01	64161.11
551.18	64008.97
551.34	63936.41
551.51	64273.45
551.68	64224.30
551.84	64266.43
552.01	64240.68
552.18	64406.86
552.34	64116.64
552.51	64460.69
552.68	64257.07
552.84	64374.09
553.01	64278.13
553.18	64446.65
553.34	64540.27
553.51	64540.27
553.67	64402.18
553.84	64781.35
554.01	64640.92
554.17	64865.61
554.34	64448.99
554.51	64657.30
554.67	64767.30
554.84	64774.33
555.00	64549.63
555.17	64870.29
555.33	64856.24
555.50	64715.81
555.67	64680.70
555.83	64732.20
556.00	64713.47
556.16	64924.12
556.33	64708.79
556.50	64764.96
556.66	64835.18
556.83	64896.03
556.99	65204.98
557.16	65130.09
557.32	65034.13
557.49	65055.19
557.65	64825.82
557.82	65045.83
557.98	65010.72
558.15	65038.81
558.32	65078.60
558.48	65160.51
558.65	65317.33
558.81	65195.62
558.98	65193.28
559.14	65102.00
559.31	65214.35
559.47	65188.60
559.64	65179.24
559.80	65176.90
559.97	65244.77
560.13	65078.60
560.30	65310.31
560.46	65504.57
560.63	65467.12
560.79	65223.71
560.96	65237.75
561.12	65202.64
561.29	65193.28
561.45	65155.83
561.61	65345.42
561.78	65338.40
561.94	65535.00
562.11	65535.00
562.27	65389.89
562.44	65535.00
562.60	65535.00
562.77	65352.44
562.93	65422.65
563.10	65535.00
563.26	65453.08
563.42	65535.00
563.59	65535.00
563.75	65535.00
563.92	65535.00
564.08	65368.82
564.24	65535.00
564.41	65535.00
564.57	65535.00
564.74	65535.00
564.90	65535.00
565.07	65535.00
565.23	65535.00
565.39	65535.00
565.56	65535.00
565.72	65535.00
565.88	65535.00
566.05	65535.00
566.21	65490.53
566.38	65535.00
566.54	65535.00
566.70	65535.00
566.87	65535.00
567.03	65535.00
567.19	65535.00
567.36	65535.00
567.52	65535.00
567.68	65535.00
567.85	65535.00
568.01	65535.00
568.17	65535.00
568.34	65535.00
568.50	65535.00
568.66	65535.00
568.83	65535.00
568.99	65535.00
569.15	65535.00
569.32	65535.00
569.48	65535.00
569.64	65535.00
569.81	65535.00
569.97	65535.00
570.13	65535.00
570.30	65535.00
570.46	65535.00
570.62	65535.00
570.78	65535.00
570.95	65535.00
571.11	65535.00
571.27	65535.00
571.43	65535.00
571.60	65535.00
571.76	65535.00
571.92	65535.00
572.09	65535.00
572.25	65535.00
572.41	65535.00
572.57	65535.00
572.74	65535.00
572.90	65535.00
573.06	65535.00
573.22	65535.00
573.38	65535.00
573.55	65535.00
573.71	65535.00
573.87	65535.00
574.03	65535.00
574.20	65535.00
574.36	65535.00
574.52	65535.00
574.68	65535.00
574.84	65535.00
575.01	65535.00
575.17	65535.00
575.33	65535.00
575.49	65535.00
575.65	65535.00
575.82	65535.00
575.98	65535.00
576.14	65535.00
576.30	65535.00
576.46	65535.00
576.62	65535.00
576.79	65535.00
576.95	65535.00
577.11	65535.00
577.27	65535.00
577.43	65535.00
577.59	65535.00
577.75	65535.00
577.92	65535.00
578.08	65535.00
578.24	65535.00
578.40	65535.00
578.56	65535.00
578.72	65535.00
578.88	65535.00
579.04	65535.00
579.21	65535.00
579.37	65535.00
579.53	65535.00
579.69	65535.00
579.85	65535.00
580.01	65535.00
580.17	65535.00
580.33	65535.00
580.49	65535.00
580.65	65535.00
580.82	65535.00
580.98	65535.00
581.14	65535.00
581.30	65535.00
581.46	65535.00
581.62	65535.00
581.78	65535.00
581.94	65535.00
582.10	65535.00
582.26	65535.00
582.42	65535.00
582.58	65535.00
582.74	65535.00
582.90	65535.00
583.06	65535.00
583.22	65535.00
583.38	65535.00
583.54	65535.00
583.70	65535.00
583.86	65535.00
584.02	65535.00
584.18	65535.00
584.34	65535.00
584.50	65535.00
584.66	65535.00
584.82	65535.00
584.98	65535.00
585.14	65535.00
585.30	65535.00
585.46	65535.00
585.62	65535.00
585.78	65535.00
585.94	65535.00
586.10	65535.00
586.26	65535.00
586.42	65535.00
586.58	65535.00
586.74	65535.00
586.90	65535.00
587.06	65535.00
587.22	65535.00
587.38	65535.00
587.54	65535.00
587.70	65535.00
587.86	65535.00
588.02	65535.00
588.18	65535.00
