SpectraSuite Data File
++++++++++++++++++++++++++++++++++++
Date: Fri Oct 04 11:48:26 GMT-05:00 2013
User: price-jones
Dark Spectrum Present: No
Reference Spectrum Present: No
Number of Sampled Component Spectra: 1
Spectrometers: USB2+H05261
Integration Time (usec): 100000 (USB2+H05261)
Spectra Averaged: 1 (USB2+H05261)
Boxcar Smoothing: 0 (USB2+H05261)
Correct for Electrical Dark: No (USB2+H05261)
Strobe/Lamp Enabled: No (USB2+H05261)
Correct for Detector Non-linearity: No (USB2+H05261)
Correct for Stray Light: No (USB2+H05261)
Number of Pixels in Processed Spectrum: 2048
>>>>>Begin Processed Spectral Data<<<<<
365.73	107.66
365.92	107.66
366.12	107.66
366.32	0.00
366.52	0.00
366.72	0.00
366.91	0.00
367.11	0.00
367.31	0.00
367.51	0.00
367.70	0.00
367.90	0.00
368.10	0.00
368.30	0.00
368.49	0.00
368.69	0.00
368.89	0.00
369.09	0.00
369.28	0.00
369.48	14.04
369.68	0.00
369.87	35.11
370.07	0.00
370.27	51.49
370.47	145.11
370.66	491.51
370.86	552.37
371.06	603.86
371.25	585.13
371.45	599.18
371.65	592.16
371.84	641.31
372.04	580.45
372.24	676.41
372.44	657.69
372.63	723.23
372.83	653.01
373.03	676.41
373.22	732.59
373.42	772.38
373.62	664.71
373.81	779.40
374.01	924.51
374.21	809.83
374.40	819.19
374.60	753.65
374.79	807.48
374.99	821.53
375.19	910.47
375.38	924.51
375.58	795.78
375.78	903.45
375.97	849.61
376.17	896.43
376.37	894.08
376.56	891.74
376.76	891.74
376.95	784.08
377.15	924.51
377.35	926.85
377.54	866.00
377.74	863.66
377.93	847.27
378.13	905.79
378.33	912.81
378.52	971.32
378.72	936.21
378.91	961.96
379.11	908.13
379.31	919.83
379.50	1020.47
379.70	987.71
379.89	1074.31
380.09	1104.73
380.28	1025.15
380.48	1004.09
380.68	983.02
380.87	1076.65
381.07	1029.84
381.26	1111.75
381.46	1001.75
381.65	1057.92
381.85	1123.46
382.04	1107.07
382.24	1132.82
382.43	1067.28
382.63	1142.18
382.83	1139.84
383.02	1238.14
383.22	1226.44
383.41	1165.59
383.61	1221.76
383.80	1214.74
384.00	1102.39
384.19	1163.25
384.39	1170.27
384.58	1252.19
384.78	1242.82
384.97	1270.91
385.17	1163.25
385.36	1284.95
385.56	1193.67
385.75	1200.69
385.95	1324.74
386.14	1287.29
386.34	1231.12
386.53	1226.44
386.72	1345.81
386.92	1345.81
387.11	1315.38
387.31	1355.17
387.50	1369.21
387.70	1394.96
387.89	1317.72
388.09	1460.49
388.28	1486.24
388.48	1455.81
388.67	1465.18
388.86	1462.83
389.06	1460.49
389.25	1462.83
389.45	1516.67
389.64	1460.49
389.84	1551.78
390.03	1507.30
390.22	1556.46
390.42	1563.48
390.61	1537.73
390.81	1511.99
391.00	1607.95
391.19	1673.48
391.39	1621.99
391.58	1575.18
391.78	1565.82
391.97	1715.61
392.16	1636.03
392.36	1689.87
392.55	1708.59
392.75	1743.70
392.94	1778.81
393.13	1802.21
393.33	1776.47
393.52	1781.15
393.71	1902.86
393.91	1771.79
394.10	1905.20
394.29	1849.02
394.49	1825.62
394.68	1991.80
394.88	1891.15
395.07	1947.33
395.26	1905.20
395.46	1949.67
395.65	1980.09
395.84	2005.84
396.04	2101.80
396.23	2050.31
396.42	1966.05
396.62	2054.99
396.81	1984.77
397.00	2052.65
397.19	2066.69
397.39	2160.31
397.58	2122.87
397.77	2097.12
397.97	2157.97
398.16	2162.66
398.35	2235.21
398.55	2195.42
398.74	2314.79
398.93	2282.02
399.12	2345.22
399.32	2253.94
399.51	2284.36
399.70	2317.13
399.90	2307.77
400.09	2436.50
400.28	2352.24
400.47	2530.12
400.67	2471.61
400.86	2551.18
401.05	2602.68
401.24	2551.18
401.44	2593.31
401.63	2541.82
401.82	2539.48
402.01	2649.49
402.21	2485.65
402.40	2590.97
402.59	2513.74
402.78	2693.96
402.97	2710.34
403.17	2754.81
403.36	2597.99
403.55	2799.28
403.74	2853.11
403.93	2855.45
404.13	2916.31
404.32	2848.43
404.51	2794.60
404.70	2977.16
404.89	2832.05
405.09	2965.46
405.28	2923.33
405.47	2949.08
405.66	3138.66
405.85	3021.63
406.05	3166.74
406.24	3218.24
406.43	3183.13
406.62	3180.79
406.81	3225.26
407.00	3229.94
407.20	3136.32
407.39	3194.83
407.58	3377.39
407.77	3258.03
407.96	3405.48
408.15	3499.10
408.34	3328.24
408.54	3417.18
408.73	3424.20
408.92	3461.65
409.11	3531.87
409.30	3571.66
409.49	3609.11
409.68	3681.66
409.87	3597.40
410.07	3700.39
410.26	3695.71
410.45	3712.09
410.64	3611.45
410.83	3794.01
411.02	3812.73
411.21	3730.81
411.40	3817.41
411.59	4004.66
411.78	3880.61
411.98	3892.31
412.17	4016.36
412.36	3997.64
412.55	4166.15
412.74	4086.58
412.93	4063.17
413.12	4166.15
413.31	4234.03
413.50	4138.07
413.69	4348.72
413.88	4430.63
414.07	4360.42
414.26	4376.80
414.45	4292.54
414.64	4601.49
414.83	4697.46
415.02	4699.80
415.22	4655.33
415.41	4765.33
415.60	4725.54
415.79	4755.97
415.98	4809.80
416.17	4910.44
416.36	4875.34
416.55	5107.05
416.74	5088.32
416.93	4987.68
417.12	5132.79
417.31	5153.86
417.50	5130.45
417.69	5275.57
417.88	5266.21
418.07	5226.42
418.26	5383.23
418.45	5418.34
418.64	5462.81
418.83	5401.96
419.02	5439.40
419.21	5610.26
419.39	5570.48
419.58	5479.19
419.77	5413.66
419.96	5371.53
420.15	5729.63
420.34	5678.14
420.53	5710.91
420.72	5673.46
420.91	5638.35
421.10	5898.15
421.29	5902.83
421.48	5795.17
421.67	5856.02
421.86	5731.97
422.05	6003.47
422.24	5799.85
422.43	5944.96
422.61	6162.63
422.80	5951.98
422.99	5980.07
423.18	5968.37
423.37	6153.27
423.56	6101.78
423.75	6155.61
423.94	6090.07
424.13	5628.99
424.32	5980.07
424.50	6094.76
424.69	6270.30
424.88	6188.38
425.07	6148.59
425.26	6328.81
425.45	6331.15
425.64	6235.19
425.83	6274.98
426.01	6160.29
426.20	6183.70
426.39	6251.57
426.58	6413.07
426.77	6200.08
426.96	6265.61
427.15	6338.17
427.33	6403.71
427.52	6569.88
427.71	6480.94
427.90	6518.39
428.09	6480.94
428.28	6726.70
428.46	6569.88
428.65	6679.89
428.84	6803.94
429.03	6715.00
429.22	6773.51
429.40	6794.58
429.59	6698.61
429.78	6644.78
429.97	6630.74
430.16	6637.76
430.34	6745.42
430.53	6949.05
430.72	7002.88
430.91	6857.77
431.10	6874.15
431.28	7019.27
431.47	7094.16
431.66	7360.98
431.85	7208.85
432.03	7288.43
432.22	7375.03
432.41	7370.35
432.60	7520.14
432.79	7379.71
432.97	7419.50
433.16	7442.90
433.35	7391.41
433.54	7541.21
433.72	7618.44
433.91	7520.14
434.10	7700.36
434.28	7754.19
434.47	7686.32
434.66	7779.94
434.85	7911.01
435.03	7808.03
435.22	7852.50
435.41	8002.29
435.59	7859.52
435.78	7868.88
435.97	7992.93
436.16	7955.48
436.34	8194.22
436.53	8329.97
436.72	8252.73
436.90	8021.02
437.09	8372.10
437.28	7969.52
437.46	8212.94
437.65	8542.96
437.84	8365.07
438.02	8379.12
438.21	8552.32
438.40	8456.36
438.58	8739.56
438.77	8585.08
438.96	8800.41
439.14	8975.95
439.33	8952.55
439.52	9130.43
439.70	9067.24
439.89	9146.81
440.08	9312.99
440.26	9205.33
440.45	9310.65
440.63	9371.50
440.82	9366.82
441.01	9289.59
441.19	9706.20
441.38	9841.95
441.57	9610.24
441.75	9720.24
441.94	9935.57
442.12	9940.26
442.31	9966.00
442.50	10115.80
442.68	10097.07
442.87	10106.43
443.05	10129.84
443.24	10214.10
443.43	10108.77
443.61	10562.84
443.80	10647.10
443.98	10223.46
444.17	9848.97
444.35	10340.49
444.54	10628.37
444.73	10532.41
444.91	10368.57
445.10	10377.94
445.28	10424.75
445.47	10160.27
445.65	10380.28
445.84	10431.77
446.02	10525.39
446.21	10668.16
446.39	10602.63
446.58	10803.91
446.77	10902.22
446.95	10239.84
447.14	10586.24
447.32	10656.46
447.51	10714.97
447.69	10757.10
447.88	10780.51
448.06	10633.05
448.25	10906.90
448.43	10729.02
448.62	10759.44
448.80	11007.54
448.99	10949.03
449.17	11005.20
449.36	10656.46
449.54	11026.26
449.73	11225.21
449.91	11325.85
450.10	11213.51
450.28	11421.81
450.46	11555.22
450.65	11426.50
450.83	11531.82
451.02	11398.41
451.20	11527.14
451.39	11571.61
451.57	11552.88
451.76	11648.85
451.94	11662.89
452.13	11983.54
452.31	11765.87
452.49	11679.27
452.68	11880.56
452.86	11885.24
453.05	11936.73
453.23	12353.35
453.42	11779.92
453.60	11765.87
453.78	11843.11
453.97	12018.65
454.15	12266.75
454.34	12105.25
454.52	12224.62
454.70	12098.23
454.89	12585.06
455.07	12315.90
455.26	12594.42
455.44	12507.82
455.62	12734.85
455.81	12519.53
455.99	12587.40
456.17	12702.09
456.36	12746.56
456.54	12968.91
456.73	12987.63
456.91	13071.89
457.09	13242.75
457.28	13315.31
457.46	12898.69
457.64	13502.55
457.83	13209.98
458.01	13174.88
458.19	13476.80
458.38	13193.60
458.56	13832.57
458.74	13600.85
458.93	13631.28
459.11	13579.79
459.29	13621.92
459.48	13738.94
459.66	13521.27
459.84	13884.06
460.03	13907.46
460.21	13851.29
460.39	14031.51
460.57	13720.22
460.76	14277.27
460.94	13902.78
461.12	14281.95
461.31	14005.77
461.49	14139.18
461.67	14090.02
461.85	14387.27
462.04	14616.65
462.22	14883.47
462.40	14504.30
462.59	14663.46
462.77	14618.99
462.95	14558.13
463.13	14539.41
463.32	15056.67
463.50	15009.86
463.68	14881.13
463.86	14965.39
464.05	14682.18
464.23	14824.95
464.41	14977.09
464.59	14813.25
464.78	15382.00
464.96	15281.36
465.14	15028.58
465.32	15220.50
465.50	15468.60
465.69	15569.24
465.87	15468.60
466.05	15173.69
466.23	15297.74
466.41	15501.37
466.60	15995.22
466.78	15389.02
466.96	15442.85
467.14	15426.47
467.32	15592.65
467.51	15679.25
467.69	15564.56
467.87	15943.73
468.05	16112.25
468.23	15709.68
468.41	15487.32
468.60	15679.25
468.78	16264.38
468.96	16002.24
469.14	16463.33
469.32	16578.01
469.50	16142.67
469.69	16563.97
469.87	16926.75
470.05	17085.91
470.23	16884.62
470.41	16613.12
470.59	16819.09
470.77	16725.47
470.95	17053.14
471.14	17167.83
471.32	17053.14
471.50	17266.13
471.68	17212.30
471.86	17509.55
472.04	17476.78
472.22	17764.67
472.40	17605.51
472.58	17827.86
472.77	17603.17
472.95	17729.56
473.13	18853.02
473.31	17912.12
473.49	17961.27
473.67	18185.96
473.85	18441.08
474.03	18848.33
474.21	18417.68
474.39	18822.59
474.57	19042.60
474.75	19073.03
474.93	19501.34
475.12	19192.39
475.30	19096.43
475.48	19667.52
475.66	19475.60
475.84	19541.13
476.02	19761.14
476.20	19578.58
476.38	20318.19
476.56	20456.28
476.74	20451.60
476.92	19960.09
477.10	20582.67
477.28	20762.89
477.46	20652.89
477.64	20915.03
477.82	21270.79
478.00	21752.94
478.18	21853.58
478.36	21792.73
478.54	22001.04
478.72	22214.02
478.90	22176.58
479.08	22464.46
479.26	22831.93
479.44	22806.18
479.62	23054.28
479.80	23054.28
479.98	23386.63
480.16	23545.79
480.34	23051.94
480.52	24088.79
480.70	23859.42
480.88	23702.61
481.06	24081.77
481.24	24023.26
481.41	24666.91
481.59	24847.13
481.77	25006.28
481.95	25184.16
482.13	25631.21
482.31	25254.38
482.49	25661.63
482.67	25795.04
482.85	26183.57
483.03	26445.71
483.21	26979.36
483.39	26855.31
483.57	26773.39
483.74	27271.92
483.92	27482.57
484.10	27302.35
484.28	27711.94
484.46	28254.95
484.64	28774.55
484.82	28180.05
485.00	28322.82
485.18	29022.64
485.35	29479.05
485.53	29326.91
485.71	29436.92
485.89	30230.36
486.07	30204.61
486.25	30045.46
486.43	30403.56
486.61	30604.84
486.78	30958.27
486.96	31475.52
487.14	31990.44
487.32	31470.84
487.50	31723.62
487.68	31938.95
487.85	32802.61
488.03	32854.10
488.21	33212.20
488.39	33240.29
488.57	33542.22
488.75	33352.63
488.92	33963.51
489.10	34436.30
489.28	34333.32
489.46	35108.04
489.64	35199.32
489.81	35379.54
489.99	35309.32
490.17	35873.39
490.35	36058.29
490.53	36861.10
490.70	36643.43
490.88	36568.53
491.06	36783.86
491.24	36973.44
491.41	37441.55
491.59	37638.15
491.77	37844.12
491.95	38075.84
492.13	38698.42
492.30	38621.18
492.48	38890.34
492.66	38494.79
492.84	38855.23
493.01	39311.64
493.19	39428.66
493.37	39826.56
493.54	40011.46
493.72	40315.73
493.90	40547.44
494.08	40741.71
494.25	40999.16
494.43	41287.05
494.61	41436.84
494.79	41659.20
494.96	41832.39
495.14	41823.03
495.32	42403.49
495.49	42483.06
495.67	42906.70
495.85	43215.65
496.02	43311.61
496.20	43374.81
496.38	43512.90
496.55	43821.85
496.73	44519.33
496.91	44128.46
497.09	44353.15
497.26	44622.31
497.44	44435.07
497.62	44940.63
497.79	45404.05
497.97	44931.26
498.14	45710.66
498.32	46000.89
498.50	45996.21
498.67	46422.19
498.85	46370.69
499.03	46192.81
499.20	46508.79
499.38	46944.12
499.56	47047.11
499.73	47456.70
499.91	47657.99
500.08	47625.22
500.26	47473.09
500.44	47978.64
500.61	48121.41
500.79	48191.63
500.97	48360.15
501.14	48739.32
501.32	48973.37
501.49	48814.21
501.67	48758.04
501.84	48875.07
502.02	48811.87
502.20	49312.75
502.37	49319.77
502.55	49595.95
502.72	49523.40
502.90	49446.16
503.07	49546.80
503.25	49872.14
503.43	49635.74
503.60	50059.38
503.78	50492.38
503.95	50263.00
504.13	50319.18
504.30	50866.86
504.48	50602.38
504.65	50813.03
504.83	51143.05
505.01	51269.43
505.18	51377.10
505.36	51349.01
505.53	51210.92
505.71	51468.38
505.88	51796.06
506.06	51608.81
506.23	52060.54
506.41	51924.78
506.58	52325.02
506.76	52133.09
506.93	52170.54
507.11	52261.82
507.28	52282.89
507.46	52589.50
507.63	52786.10
507.81	52755.68
507.98	52512.26
508.16	52846.96
508.33	53202.72
508.50	53071.65
508.68	53317.40
508.85	53609.97
509.03	53396.98
509.20	53661.46
509.38	53918.92
509.55	53661.46
509.73	53925.94
509.90	53982.12
510.08	53879.13
510.25	53794.87
510.42	54082.76
510.60	54358.94
510.77	54309.79
510.95	54480.65
511.12	54344.90
511.30	54445.54
511.47	54637.47
511.64	54635.13
511.82	54986.21
511.99	55009.61
512.17	55346.65
512.34	54724.07
512.51	55077.49
512.69	55372.39
512.86	55260.05
513.04	55489.42
513.21	55508.14
513.38	55749.22
513.56	55569.00
513.73	55569.00
513.90	55679.00
514.08	55440.27
514.25	55957.53
514.43	55987.95
514.60	56030.08
514.77	56222.01
514.95	56203.28
515.12	55962.21
515.29	56018.38
515.47	56376.48
515.64	56575.43
515.81	56629.26
515.99	56519.26
516.16	56786.08
516.33	56889.06
516.51	57013.11
516.68	56793.10
516.85	56851.61
517.03	56832.89
517.20	56800.12
517.37	57144.18
517.54	57282.27
517.72	57216.74
517.89	57146.52
518.06	57219.08
518.24	57160.56
518.41	57237.80
518.58	57506.96
518.75	57368.87
518.93	57661.44
519.10	57642.71
519.27	57979.75
519.45	57696.55
519.62	57874.43
519.79	57932.94
519.96	57893.15
520.14	58234.87
520.31	58099.12
520.48	57970.39
520.65	58157.63
520.83	58351.90
521.00	58408.07
521.17	58106.14
521.34	58265.30
521.52	58265.30
521.69	58590.63
521.86	58609.35
522.03	58721.70
522.20	58735.74
522.38	58660.85
522.55	58541.48
522.72	58749.79
522.89	58789.58
523.07	59199.17
523.24	59241.30
523.41	59208.53
523.58	59077.46
523.75	59344.28
523.92	59093.85
524.10	59112.57
524.27	59355.99
524.44	59388.75
524.61	59828.77
524.78	59522.16
524.96	59554.93
525.13	59536.21
525.30	59622.81
525.47	59805.37
525.64	59508.12
525.81	59880.27
525.98	59749.20
526.16	60062.83
526.33	59997.29
526.50	60083.89
526.67	59690.68
526.84	59915.37
527.01	59938.78
527.18	60170.49
527.36	60205.60
527.53	60317.95
527.70	60434.97
527.87	60367.10
528.04	60161.13
528.21	60282.84
528.38	60329.65
528.55	60502.85
528.72	60470.08
528.89	60561.36
529.07	60563.70
529.24	60434.97
529.41	60727.54
529.58	60491.15
529.75	60591.79
529.92	60823.50
530.09	60804.78
530.26	60935.85
530.43	60917.12
530.60	60931.17
530.77	60828.18
530.94	61020.11
531.11	60952.23
531.28	61055.21
531.46	61336.08
531.63	61106.71
531.80	61188.63
531.97	61410.98
532.14	61378.21
532.31	61216.71
532.48	61343.10
532.65	61467.15
532.82	61286.93
532.99	61490.55
533.16	61228.41
533.33	61621.62
533.50	61900.15
533.67	61539.71
533.84	61481.19
534.01	61481.19
534.18	61361.82
534.35	61705.88
534.52	61703.54
534.69	61932.92
534.86	61975.05
535.03	61858.02
535.20	62005.47
535.37	62159.95
535.54	62159.95
535.71	61827.59
535.88	61881.42
536.05	62237.19
536.22	62244.21
536.38	62391.66
536.55	62136.54
536.72	62284.00
536.89	62288.68
537.06	62337.83
537.23	62370.60
537.40	62237.19
537.57	62302.72
537.74	62389.32
537.91	62578.90
538.08	62628.05
538.25	62328.47
538.42	62361.23
538.59	62536.77
538.75	62372.94
538.92	62616.35
539.09	62967.43
539.26	62857.43
539.43	62653.80
539.60	62953.39
539.77	62803.59
539.94	62932.32
540.11	62831.68
540.28	62768.49
540.44	62688.91
540.61	62733.38
540.78	62941.69
540.95	62979.14
541.12	62993.18
541.29	63128.93
541.46	63054.03
541.62	62958.07
541.79	63121.91
541.96	62932.32
542.13	63061.05
542.30	63196.80
542.47	63449.58
542.63	63290.43
542.80	63391.07
542.97	63543.20
543.14	63646.19
543.31	63639.17
543.48	63538.52
543.64	63791.30
543.81	63751.51
543.98	63810.03
544.15	63882.58
544.32	63908.33
544.48	63971.52
544.65	63636.83
544.82	63749.17
544.99	63657.89
545.16	63931.73
545.32	63655.55
545.49	64023.01
545.66	64126.00
545.83	63978.54
546.00	64224.30
546.16	63994.93
546.33	63828.75
546.50	63884.92
546.67	64147.06
546.83	63660.23
547.00	64044.08
547.17	64015.99
547.34	64189.19
547.50	64390.48
547.67	64219.62
547.84	64231.32
548.00	64200.89
548.17	64371.75
548.34	64252.39
548.51	64470.06
548.67	64486.44
548.84	64404.52
549.01	64381.12
549.18	64514.53
549.34	64467.72
549.51	64615.17
549.68	64486.44
549.84	64397.50
550.01	64697.09
550.18	64460.69
550.34	64793.05
550.51	64809.43
550.68	64779.01
550.84	64664.32
551.01	64842.20
551.18	64640.92
551.34	64711.13
551.51	64753.26
551.68	64987.31
551.84	64917.10
552.01	64746.24
552.18	65055.19
552.34	64867.95
552.51	64893.69
552.68	64687.73
552.84	64947.53
553.01	65139.45
553.18	65069.23
553.34	65090.30
553.51	65003.70
553.67	65066.89
553.84	65406.27
554.01	65289.24
554.17	65118.38
554.34	65055.19
554.51	65219.03
554.67	65272.86
554.84	65329.03
555.00	65247.11
555.17	65434.36
555.33	65307.97
555.50	65310.31
555.67	65279.88
555.83	65212.01
556.00	65289.24
556.16	65481.17
556.33	65378.18
556.50	65476.49
556.66	65464.78
556.83	65511.59
556.99	65492.87
557.16	65535.00
557.32	65535.00
557.49	65535.00
557.65	65474.15
557.82	65535.00
557.98	65535.00
558.15	65535.00
558.32	65535.00
558.48	65535.00
558.65	65535.00
558.81	65535.00
558.98	65535.00
559.14	65535.00
559.31	65535.00
559.47	65535.00
559.64	65535.00
559.80	65535.00
559.97	65535.00
560.13	65535.00
560.30	65535.00
560.46	65535.00
560.63	65535.00
560.79	65535.00
560.96	65535.00
561.12	65535.00
561.29	65535.00
561.45	65535.00
561.61	65535.00
561.78	65535.00
561.94	65535.00
562.11	65535.00
562.27	65535.00
562.44	65535.00
562.60	65535.00
562.77	65535.00
562.93	65535.00
563.10	65535.00
563.26	65535.00
563.42	65535.00
563.59	65535.00
563.75	65535.00
563.92	65535.00
564.08	65535.00
564.24	65535.00
564.41	65535.00
564.57	65535.00
564.74	65535.00
564.90	65535.00
565.07	65535.00
565.23	65535.00
565.39	65535.00
565.56	65535.00
565.72	65535.00
565.88	65535.00
566.05	65535.00
566.21	65535.00
566.38	65535.00
566.54	65535.00
566.70	65535.00
566.87	65535.00
567.03	65535.00
567.19	65535.00
567.36	65535.00
567.52	65535.00
567.68	65535.00
567.85	65535.00
568.01	65535.00
568.17	65535.00
568.34	65535.00
568.50	65535.00
568.66	65535.00
568.83	65535.00
568.99	65535.00
569.15	65535.00
569.32	65535.00
569.48	65535.00
569.64	65535.00
569.81	65535.00
569.97	65535.00
570.13	65535.00
570.30	65535.00
570.46	65535.00
570.62	65535.00
570.78	65535.00
570.95	65535.00
571.11	65535.00
571.27	65535.00
571.43	65535.00
571.60	65535.00
571.76	65535.00
571.92	65535.00
572.09	65535.00
572.25	65535.00
572.41	65535.00
572.57	65535.00
572.74	65535.00
572.90	65535.00
573.06	65535.00
573.22	65535.00
573.38	65535.00
573.55	65535.00
573.71	65535.00
573.87	65535.00
574.03	65535.00
574.20	65535.00
574.36	65535.00
574.52	65535.00
574.68	65535.00
574.84	65535.00
575.01	65535.00
575.17	65535.00
575.33	65535.00
575.49	65535.00
575.65	65535.00
575.82	65535.00
575.98	65535.00
576.14	65535.00
576.30	65535.00
576.46	65535.00
576.62	65535.00
576.79	65535.00
576.95	65535.00
577.11	65535.00
577.27	65535.00
577.43	65535.00
577.59	65535.00
577.75	65535.00
577.92	65535.00
578.08	65535.00
578.24	65535.00
578.40	65535.00
578.56	65535.00
578.72	65535.00
578.88	65535.00
579.04	65535.00
579.21	65535.00
579.37	65535.00
579.53	65535.00
579.69	65535.00
579.85	65535.00
580.01	65535.00
580.17	65535.00
580.33	65535.00
580.49	65535.00
580.65	65535.00
580.82	65535.00
580.98	65535.00
581.14	65535.00
581.30	65535.00
581.46	65535.00
581.62	65535.00
581.78	65535.00
581.94	65535.00
582.10	65535.00
582.26	65535.00
582.42	65535.00
582.58	65535.00
582.74	65535.00
582.90	65535.00
583.06	65535.00
583.22	65535.00
583.38	65535.00
583.54	65535.00
583.70	65535.00
583.86	65535.00
584.02	65535.00
584.18	65535.00
584.34	65535.00
584.50	65535.00
584.66	65535.00
584.82	65535.00
584.98	65535.00
585.14	65535.00
585.30	65535.00
585.46	65535.00
585.62	65535.00
585.78	65535.00
585.94	65535.00
586.10	65535.00
586.26	65535.00
586.42	65535.00
586.58	65535.00
586.74	65535.00
586.90	65535.00
587.06	65535.00
587.22	65535.00
587.38	65535.00
587.54	65535.00
587.70	65535.00
587.86	65535.00
588.02	65535.00
