SpectraSuite Data File
++++++++++++++++++++++++++++++++++++
Date: Fri Oct 04 11:48:25 GMT-05:00 2013
User: price-jones
Dark Spectrum Present: No
Reference Spectrum Present: No
Number of Sampled Component Spectra: 1
Spectrometers: USB2+H05261
Integration Time (usec): 100000 (USB2+H05261)
Spectra Averaged: 1 (USB2+H05261)
Boxcar Smoothing: 0 (USB2+H05261)
Correct for Electrical Dark: No (USB2+H05261)
Strobe/Lamp Enabled: No (USB2+H05261)
Correct for Detector Non-linearity: No (USB2+H05261)
Correct for Stray Light: No (USB2+H05261)
Number of Pixels in Processed Spectrum: 2048
>>>>>Begin Processed Spectral Data<<<<<
365.73	0.00
365.92	0.00
366.12	0.00
366.32	0.00
366.52	0.00
366.72	25.75
366.91	0.00
367.11	0.00
367.31	0.00
367.51	0.00
367.70	0.00
367.90	0.00
368.10	0.00
368.30	0.00
368.49	0.00
368.69	0.00
368.89	0.00
369.09	0.00
369.28	0.00
369.48	0.00
369.68	0.00
369.87	0.00
370.07	9.36
370.27	0.00
370.47	63.19
370.66	212.99
370.86	231.71
371.06	297.25
371.25	332.36
371.45	318.31
371.65	388.53
371.84	390.87
372.04	290.23
372.24	245.76
372.44	266.82
372.63	308.95
372.83	365.12
373.03	308.95
373.22	280.86
373.42	365.12
373.62	358.10
373.81	344.06
374.01	416.62
374.21	372.15
374.40	451.72
374.60	400.23
374.79	414.27
374.99	374.49
375.19	404.91
375.38	454.06
375.58	360.44
375.78	390.87
375.97	397.89
376.17	470.45
376.37	463.43
376.56	479.81
376.76	418.96
376.95	458.74
377.15	433.00
377.35	416.62
377.54	486.83
377.74	440.02
377.93	449.38
378.13	461.09
378.33	500.87
378.52	458.74
378.72	479.81
378.91	489.17
379.11	477.47
379.31	411.93
379.50	442.36
379.70	533.64
379.89	547.69
380.09	425.98
380.28	479.81
380.48	444.70
380.68	496.19
380.87	461.09
381.07	440.02
381.26	552.37
381.46	559.39
381.65	540.66
381.85	601.52
382.04	557.05
382.24	486.83
382.43	496.19
382.63	585.13
382.83	514.92
383.02	482.15
383.22	587.47
383.41	526.62
383.61	535.98
383.80	580.45
384.00	543.00
384.19	578.11
384.39	587.47
384.58	575.77
384.78	655.35
384.97	620.24
385.17	601.52
385.36	627.26
385.56	573.43
385.75	573.43
385.95	678.76
386.14	594.50
386.34	585.13
386.53	608.54
386.72	622.58
386.92	660.03
387.11	575.77
387.31	543.00
387.50	613.22
387.70	648.33
387.89	645.99
388.09	592.16
388.28	629.60
388.48	613.22
388.67	681.10
388.86	650.67
389.06	709.18
389.25	674.07
389.45	699.82
389.64	676.41
389.84	718.54
390.03	669.39
390.22	730.25
390.42	741.95
390.61	685.78
390.81	718.54
391.00	739.61
391.19	730.25
391.39	779.40
391.58	763.01
391.78	741.95
391.97	748.97
392.16	746.63
392.36	833.23
392.55	866.00
392.75	786.42
392.94	819.19
393.13	844.93
393.33	809.83
393.52	748.97
393.71	844.93
393.91	821.53
394.10	807.48
394.29	858.98
394.49	877.70
394.68	931.53
394.88	844.93
395.07	978.34
395.26	954.94
395.46	915.15
395.65	847.27
395.84	903.45
396.04	924.51
396.23	985.37
396.42	959.62
396.62	1027.50
396.81	994.73
397.00	903.45
397.19	964.30
397.39	1067.28
397.58	1029.84
397.77	1069.62
397.97	987.71
398.16	992.39
398.35	1095.37
398.55	936.21
398.74	1125.80
398.93	1048.56
399.12	1071.97
399.32	1100.05
399.51	1060.26
399.70	1041.54
399.90	1053.24
400.09	1160.91
400.28	1153.88
400.47	1135.16
400.67	1200.69
400.86	1226.44
401.05	1181.97
401.24	1245.16
401.44	1245.16
401.63	1205.38
401.82	1212.40
402.01	1146.86
402.21	1263.89
402.40	1240.48
402.59	1284.95
402.78	1259.21
402.97	1280.27
403.17	1282.61
403.36	1366.87
403.55	1228.78
403.74	1348.15
403.93	1444.11
404.13	1341.13
404.32	1465.18
404.51	1331.76
404.70	1390.28
404.89	1380.92
405.09	1392.62
405.28	1493.26
405.47	1495.60
405.66	1535.39
405.85	1434.75
406.05	1451.13
406.24	1502.62
406.43	1598.59
406.62	1549.43
406.81	1699.23
407.00	1420.71
407.20	1603.27
407.39	1612.63
407.58	1645.40
407.77	1652.42
407.96	1755.40
408.15	1685.19
408.34	1661.78
408.54	1647.74
408.73	1659.44
408.92	1732.00
409.11	1839.66
409.30	1685.19
409.49	1720.29
409.68	1792.85
409.87	1760.08
410.07	1933.28
410.26	1792.85
410.45	1823.28
410.64	1905.20
410.83	1879.45
411.02	1888.81
411.21	2045.63
411.40	2062.01
411.59	1865.41
411.78	1914.56
411.98	1961.37
412.17	1994.14
412.36	2033.93
412.55	2066.69
412.74	2097.12
412.93	2113.50
413.12	2115.84
413.31	2146.27
413.50	2118.18
413.69	2139.25
413.88	2235.21
414.07	2122.87
414.26	2200.10
414.45	2331.17
414.64	2277.34
414.83	2403.73
415.02	2363.94
415.22	2352.24
415.41	2462.24
415.60	2476.29
415.79	2565.23
415.98	2478.63
416.17	2499.69
416.36	2532.46
416.55	2476.29
416.74	2675.23
416.93	2607.36
417.12	2717.36
417.31	2640.12
417.50	2663.53
417.69	2747.79
417.88	2668.21
418.07	2731.41
418.26	2733.75
418.45	2689.28
418.64	2785.24
418.83	2850.77
419.02	2715.02
419.21	2747.79
419.39	2899.92
419.58	2799.28
419.77	2951.42
419.96	2822.69
420.15	3009.93
420.34	2883.54
420.53	2944.39
420.72	3000.57
420.91	3014.61
421.10	3061.42
421.29	3117.59
421.48	3012.27
421.67	3087.17
421.86	3084.83
422.05	3084.83
422.24	3115.25
422.43	3185.47
422.61	3026.31
422.80	3115.25
422.99	3105.89
423.18	3145.68
423.37	3251.00
423.56	3162.06
423.75	3098.87
423.94	3192.49
424.13	2977.16
424.32	3063.76
424.50	3126.96
424.69	3183.13
424.88	3150.36
425.07	3150.36
425.26	3187.81
425.45	3136.32
425.64	3239.30
425.83	3199.51
426.01	3300.16
426.20	3180.79
426.39	3201.85
426.58	3040.36
426.77	3169.09
426.96	3269.73
427.15	3283.77
427.33	3445.27
427.52	3295.47
427.71	3218.24
427.90	3480.38
428.09	3372.71
428.28	3435.91
428.46	3466.33
428.65	3440.59
428.84	3503.78
429.03	3520.17
429.22	3419.52
429.40	3506.12
429.59	3398.46
429.78	3382.07
429.97	3344.63
430.16	3379.73
430.34	3522.51
430.53	3520.17
430.72	3583.36
430.91	3592.72
431.10	3625.49
431.28	3585.70
431.47	3716.77
431.66	3782.31
431.85	3529.53
432.03	3777.62
432.22	3730.81
432.41	3707.41
432.60	3838.48
432.79	3786.99
432.97	3833.80
433.16	3857.20
433.35	3857.20
433.54	3843.16
433.72	3976.57
433.91	3735.50
434.10	4042.11
434.28	3868.91
434.47	3913.38
434.66	3946.14
434.85	4081.89
435.03	4028.06
435.22	3995.29
435.41	4308.93
435.59	4067.85
435.78	4135.73
435.97	4212.96
436.16	4039.76
436.34	4117.00
436.53	4042.11
436.72	4100.62
436.90	4205.94
437.09	4280.84
437.28	4119.34
437.46	4273.82
437.65	4252.75
437.84	4278.50
438.02	4318.29
438.21	4383.82
438.40	4278.50
438.58	4372.12
438.77	4493.83
438.96	4297.22
439.14	4575.75
439.33	4416.59
439.52	4606.17
439.70	4615.54
439.89	4706.82
440.08	4643.62
440.26	4713.84
440.45	4683.41
440.63	4784.06
440.82	4739.58
441.01	4819.16
441.19	4821.50
441.38	4915.12
441.57	4938.53
441.75	4912.78
441.94	5069.60
442.12	5043.85
442.31	5076.62
442.50	5135.14
442.68	5114.07
442.87	5008.75
443.05	5130.45
443.24	5146.84
443.43	5256.84
443.61	5114.07
443.80	5331.74
443.98	5102.37
444.17	5050.88
444.35	5472.17
444.54	5284.93
444.73	5132.79
444.91	5275.57
445.10	5350.46
445.28	5369.19
445.47	5125.77
445.65	5282.59
445.84	5310.68
446.02	5359.83
446.21	5345.78
446.39	5277.91
446.58	5336.42
446.77	5233.44
446.95	5343.44
447.14	5261.52
447.32	5418.34
447.51	5345.78
447.69	5341.10
447.88	5392.59
448.06	5392.59
448.25	5495.58
448.43	5455.79
448.62	5434.72
448.80	5572.82
448.99	5399.62
449.17	5582.18
449.36	5586.86
449.54	5521.32
449.73	5490.90
449.91	5563.45
450.10	5776.44
450.28	5839.64
450.46	5706.23
450.65	5741.33
450.83	5846.66
451.02	5834.96
451.20	5638.35
451.39	5706.23
451.57	5799.85
451.76	5895.81
451.94	5970.71
452.13	5926.24
452.31	5935.60
452.49	5792.83
452.68	5886.45
452.86	5935.60
453.05	5968.37
453.23	6078.37
453.42	5942.62
453.60	5956.66
453.78	6139.23
453.97	5970.71
454.15	6008.16
454.34	6113.48
454.52	6139.23
454.70	6104.12
454.89	6169.65
455.07	6143.91
455.26	6244.55
455.44	6251.57
455.62	6235.19
455.81	6225.82
455.99	6242.21
456.17	6333.49
456.36	6272.64
456.54	6471.58
456.73	6384.98
456.91	6583.93
457.09	6600.31
457.28	6511.37
457.46	6595.63
457.64	6832.02
457.83	6583.93
458.01	6513.71
458.19	6782.87
458.38	6619.04
458.56	6726.70
458.74	6693.93
458.93	6726.70
459.11	6878.83
459.29	6853.09
459.48	6874.15
459.66	6743.08
459.84	6951.39
460.03	6937.35
460.21	7063.74
460.39	7056.72
460.57	6782.87
460.76	7028.63
460.94	7173.74
461.12	7112.89
461.31	7091.82
461.49	7056.72
461.67	7040.33
461.85	7028.63
462.04	7138.63
462.22	7709.72
462.40	7262.68
462.59	7157.36
462.77	7337.58
462.95	7309.49
463.13	7274.38
463.32	7346.94
463.50	7360.98
463.68	7431.20
463.86	7370.35
464.05	7470.99
464.23	7501.42
464.41	7414.82
464.59	7414.82
464.78	7583.34
464.96	7456.95
465.14	7503.76
465.32	7648.87
465.50	7805.69
465.69	7557.59
465.87	7438.22
466.05	7712.07
466.23	7531.84
466.41	7789.30
466.60	7801.01
466.78	7749.51
466.96	7702.70
467.14	7630.15
467.32	7908.67
467.51	7843.14
467.69	7700.36
467.87	7885.26
468.05	7939.10
468.23	7721.43
468.41	7819.73
468.60	8046.76
468.78	7868.88
468.96	7936.76
469.14	7995.27
469.32	8088.89
469.50	7969.52
469.69	8131.02
469.87	8355.71
470.05	8222.30
470.23	8154.43
470.41	8142.72
470.59	8196.56
470.77	8557.00
470.95	8236.35
471.14	8489.12
471.32	8400.18
471.50	8751.26
471.68	8517.21
471.86	8367.42
472.04	8554.66
472.22	8554.66
472.40	8524.23
472.58	8690.41
472.77	8681.05
472.95	8847.22
473.13	9097.66
473.31	8854.25
473.49	8858.93
473.67	8896.38
473.85	8870.63
474.03	9231.07
474.21	9085.96
474.39	9186.60
474.57	9322.35
474.75	9369.16
474.93	9523.64
475.12	9348.10
475.30	9586.83
475.48	9497.89
475.66	9528.32
475.84	9451.08
476.02	9563.43
476.20	9834.93
476.38	9738.97
476.56	9900.47
476.74	10015.15
476.92	9912.17
477.10	10122.82
477.28	10157.92
477.46	9961.32
477.64	10108.77
477.82	10190.69
478.00	10389.64
478.18	10410.70
478.36	10787.53
478.54	10532.41
478.72	10546.45
478.90	10906.90
479.08	11044.99
479.26	10949.03
479.44	11131.59
479.62	11059.03
479.80	11124.57
479.98	11176.06
480.16	11328.19
480.34	11445.22
480.52	11709.70
480.70	11662.89
480.88	11651.19
481.06	11686.29
481.24	11536.50
481.41	12051.42
481.59	12255.04
481.77	12322.92
481.95	12229.30
482.13	12088.87
482.31	12475.06
482.49	12585.06
482.67	12575.70
482.85	12814.43
483.03	12601.44
483.21	13069.55
483.39	13114.02
483.57	12849.54
483.74	13153.81
483.92	13301.26
484.10	13289.56
484.28	13434.68
484.46	13544.68
484.64	13900.44
484.82	13598.51
485.00	13877.04
485.18	14153.22
485.35	14380.25
485.53	14031.51
485.71	14321.74
485.89	14523.02
486.07	14490.26
486.25	14548.77
486.43	14621.33
486.61	14986.45
486.78	15089.43
486.96	14860.06
487.14	15360.94
487.32	15302.42
487.50	15323.49
487.68	15442.85
487.85	15484.98
488.03	15903.94
488.21	16046.71
488.39	16201.19
488.57	16086.50
488.75	15955.43
488.92	16500.78
489.10	16568.65
489.28	16615.46
489.46	17069.53
489.64	16872.92
489.81	17146.76
489.99	17371.46
490.17	17130.38
490.35	17291.88
490.53	17441.67
490.70	17657.00
490.88	18143.83
491.06	17788.07
491.24	17879.35
491.41	17980.00
491.59	18043.19
491.77	18066.60
491.95	18434.06
492.13	18478.53
492.30	18455.12
492.48	18963.02
492.66	18607.26
492.84	18555.77
493.01	18937.27
493.19	19318.78
493.37	19438.15
493.54	19262.61
493.72	19583.26
493.90	19414.74
494.08	19896.89
494.25	20144.99
494.43	20137.97
494.61	20037.33
494.79	20224.57
494.96	19913.28
495.14	20369.68
495.32	20467.98
495.49	20596.71
495.67	20706.72
495.85	20751.19
496.02	21010.99
496.20	20905.66
496.38	21170.15
496.55	21259.09
496.73	21666.34
496.91	21228.66
497.09	21731.87
497.26	21635.91
497.44	21565.70
497.62	21876.99
497.79	21954.22
497.97	22134.45
498.14	22080.61
498.32	22504.25
498.50	22230.41
498.67	22590.85
498.85	22525.32
499.03	22824.90
499.20	22881.08
499.38	22815.54
499.56	22848.31
499.73	23073.00
499.91	23281.31
500.08	23662.82
500.26	23126.83
500.44	23330.46
500.61	23379.61
500.79	23534.09
500.97	23789.20
501.14	24121.56
501.32	23990.49
501.49	23768.14
501.67	23737.71
501.84	24205.82
502.02	24187.10
502.20	24451.58
502.37	24687.97
502.55	24470.30
502.72	24538.18
502.90	24615.41
503.07	24369.66
503.25	24826.06
503.43	24596.69
503.60	24861.17
503.78	24898.62
503.95	25399.49
504.13	24989.90
504.30	25427.58
504.48	25081.18
504.65	25699.08
504.83	25694.40
505.01	25741.21
505.18	25511.84
505.36	26080.59
505.53	25827.81
505.71	25841.85
505.88	26223.36
506.06	25986.97
506.23	26218.68
506.41	26190.59
506.58	26094.63
506.76	26328.69
506.93	26515.93
507.11	26059.52
507.28	26504.23
507.46	26480.82
507.63	27096.38
507.81	27264.90
507.98	26658.70
508.16	26714.87
508.33	26752.32
508.50	27335.12
508.68	27316.39
508.85	27363.20
509.03	27744.71
509.20	28020.89
509.38	27597.26
509.55	27702.58
509.73	28116.86
509.90	27887.48
510.08	27744.71
510.25	27960.04
510.42	27995.15
510.60	28315.80
510.77	28428.15
510.95	28400.06
511.12	28191.75
511.30	28226.86
511.47	28379.00
511.64	28912.64
511.82	29130.31
511.99	28540.49
512.17	28577.94
512.34	29120.95
512.51	29062.43
512.69	28678.58
512.86	29233.29
513.04	29308.19
513.21	29542.24
513.38	29406.49
513.56	29586.71
513.73	29521.18
513.90	29769.27
514.08	29645.23
514.25	29802.04
514.43	30359.09
514.60	30293.55
514.77	29469.69
514.95	30017.37
515.12	30057.16
515.29	30146.10
515.47	30139.08
515.64	30473.78
515.81	30562.72
515.99	30529.95
516.16	30522.93
516.33	30951.24
516.51	30705.49
516.68	30153.12
516.85	30609.53
517.03	30862.30
517.20	30946.56
517.37	31012.10
517.54	31363.18
517.72	31082.31
517.89	30771.02
518.06	31311.69
518.24	31409.99
518.41	31262.54
518.58	31447.44
518.75	31330.41
518.93	31721.28
519.10	31515.31
519.27	31594.89
519.45	31543.40
519.62	31597.23
519.79	31770.43
519.96	31889.80
520.14	31784.48
520.31	31948.31
520.48	32706.65
520.65	32130.87
520.83	32449.19
521.00	31992.78
521.17	32266.63
521.34	32245.56
521.52	32575.58
521.69	32774.52
521.86	33001.55
522.03	32769.84
522.20	32940.70
522.38	32786.22
522.55	33029.64
522.72	33048.36
522.89	33083.47
523.07	33455.62
523.24	33223.90
523.41	33464.98
523.58	32959.42
523.75	33539.88
523.92	33172.41
524.10	33497.75
524.27	33673.29
524.44	34012.66
524.61	34132.03
524.78	33497.75
524.96	33682.65
525.13	33907.34
525.30	34054.79
525.47	33942.45
525.64	34066.50
525.81	34012.66
525.98	34567.37
526.16	34239.70
526.33	34298.21
526.50	34581.42
526.67	33787.97
526.84	34377.79
527.01	34319.28
527.18	34700.78
527.36	34890.37
527.53	34370.77
527.70	34794.40
527.87	35007.39
528.04	34803.77
528.21	34972.28
528.38	35110.38
528.55	35117.40
528.72	35033.14
528.89	34857.60
529.07	34937.18
529.24	34998.03
529.41	35159.53
529.58	35026.12
529.75	35079.95
529.92	35445.07
530.09	35449.75
530.26	35438.05
530.43	35332.73
530.60	35194.64
530.77	35189.95
530.94	35328.05
531.11	35133.78
531.28	35744.66
531.46	35793.81
531.63	36140.21
531.80	36282.98
531.97	35936.59
532.14	36369.58
532.31	35814.88
532.48	36011.48
532.65	35917.86
532.82	35927.22
532.99	36219.79
533.16	36184.68
533.33	36533.42
533.50	36795.56
533.67	36421.08
533.84	36130.85
534.01	36107.44
534.18	36217.45
534.35	36847.05
534.52	36617.68
534.69	36776.84
534.86	36446.82
535.03	36540.44
535.20	36498.31
535.37	37020.25
535.54	36931.31
535.71	36910.25
535.88	37322.18
536.05	37020.25
536.22	37184.09
536.38	37350.27
536.55	37181.75
536.72	37404.10
536.89	36914.93
537.06	36961.74
537.23	37724.75
537.40	37338.57
537.57	37380.70
537.74	37652.20
537.91	37326.86
538.08	37886.25
538.25	37357.29
538.42	37483.68
538.59	37846.46
538.75	37535.17
538.92	37563.26
539.09	37886.25
539.26	38110.94
539.43	37989.24
539.60	37972.85
539.77	38085.20
539.94	38534.58
540.11	37818.38
540.28	38143.71
540.44	38071.15
540.61	38033.71
540.78	37991.58
540.95	38401.17
541.12	38604.80
541.29	38546.28
541.46	38391.81
541.62	37940.08
541.79	38216.27
541.96	37940.08
542.13	38242.01
542.30	38988.64
542.47	38782.68
542.63	38941.83
542.80	38721.82
542.97	39313.98
543.14	39192.27
543.31	39168.87
543.48	39096.31
543.64	39402.92
543.81	39693.15
543.98	39372.49
544.15	38979.28
544.32	39538.67
544.48	39723.57
544.65	39229.72
544.82	39356.11
544.99	39218.02
545.16	39533.99
545.32	39431.01
545.49	39945.92
545.66	39978.69
545.83	39913.16
546.00	39761.02
546.16	39725.91
546.33	39601.86
546.50	39402.92
546.67	39831.24
546.83	39541.01
547.00	39838.26
547.17	39934.22
547.34	40062.95
547.50	39885.07
547.67	40048.91
547.84	40275.94
548.00	40549.78
548.17	40392.97
548.34	40275.94
548.51	40526.38
548.67	40678.51
548.84	40453.82
549.01	40306.37
549.18	40250.19
549.34	40414.03
549.51	40491.27
549.68	40730.00
549.84	40088.70
550.01	40568.51
550.18	40390.62
550.34	40453.82
550.51	41006.19
550.68	40753.41
550.84	40399.99
551.01	41118.53
551.18	40617.66
551.34	40545.10
551.51	40650.42
551.68	40797.88
551.84	40942.99
552.01	40392.97
552.18	40774.47
552.34	40708.94
552.51	41055.34
552.68	41153.64
552.84	41017.89
553.01	41184.07
553.18	40975.76
553.34	41141.94
553.51	41160.66
553.67	41214.49
553.84	41511.74
554.01	41212.15
554.17	41294.07
554.34	41799.63
554.51	40950.01
554.67	41521.10
554.84	41022.57
555.00	41368.97
555.17	41422.80
555.33	41731.75
555.50	41457.91
555.67	41186.41
555.83	41268.33
556.00	41284.71
556.16	41820.69
556.33	41371.31
556.50	41757.50
556.66	41689.62
556.83	41553.87
556.99	41757.50
557.16	41928.36
557.32	42047.72
557.49	42029.00
557.65	41694.30
557.82	41804.31
557.98	42017.30
558.15	42033.68
558.32	41942.40
558.48	42054.75
558.65	42153.05
558.81	42033.68
558.98	42071.13
559.14	41998.57
559.31	41773.88
559.47	42141.35
559.64	42164.75
559.80	42246.67
559.97	42302.84
560.13	42174.11
560.30	42398.80
560.46	42234.97
560.63	42024.32
560.79	42284.12
560.96	42380.08
561.12	42450.30
561.29	42410.51
561.45	42169.43
561.61	41907.29
561.78	42450.30
561.94	42054.75
562.11	42508.81
562.27	42274.76
562.44	42258.37
562.60	42167.09
562.77	42492.43
562.93	42546.26
563.10	42852.87
563.26	42728.82
563.42	42876.27
563.59	42286.46
563.75	43189.91
563.92	42574.34
564.08	41855.80
564.24	42508.81
564.41	42667.97
564.57	42476.04
564.74	42885.64
564.90	42899.68
565.07	42522.85
565.23	42869.25
565.39	42588.39
565.56	42937.13
565.72	42155.39
565.88	43021.39
566.05	42686.69
566.21	42604.77
566.38	42899.68
566.54	42920.74
566.70	42937.13
566.87	43196.93
567.03	43009.68
567.19	43571.41
567.36	42265.39
567.52	42117.94
567.68	42794.36
567.85	42714.78
568.01	42967.55
568.17	42824.78
568.34	42808.40
568.50	43119.69
568.66	42862.23
568.83	42532.22
568.99	42967.55
569.15	42820.10
569.32	42691.37
569.48	42974.58
569.64	43035.43
569.81	42735.84
569.97	42920.74
570.13	42995.64
570.30	42724.14
570.46	43264.80
570.62	43192.25
570.78	42780.31
570.95	42934.79
571.11	42749.88
571.27	42862.23
571.43	42789.67
571.60	42682.01
571.76	43119.69
571.92	43136.07
572.09	43281.19
572.25	43496.52
572.41	43154.80
572.57	43007.34
572.74	43192.25
572.90	42660.94
573.06	43051.81
573.22	43278.85
573.38	43405.23
573.55	42925.42
573.71	43791.42
573.87	43278.85
574.03	42665.63
574.20	42895.00
574.36	43079.90
574.52	43126.71
574.68	42897.34
574.84	42958.19
575.01	43393.53
575.17	43323.32
575.33	43405.23
575.49	43278.85
575.65	43203.95
575.82	43105.65
575.98	43489.49
576.14	43426.30
576.30	43007.34
576.46	42918.40
576.62	43215.65
576.79	43100.97
576.95	43199.27
577.11	43421.62
577.27	42801.38
577.43	43653.33
577.59	43213.31
577.75	43283.53
577.92	43079.90
578.08	42684.35
578.24	43225.01
578.40	43159.48
578.56	43215.65
578.72	43360.76
578.88	43428.64
579.04	42976.92
579.21	43243.74
579.37	43543.33
579.53	43234.38
579.69	42829.46
579.85	43428.64
580.01	43274.16
580.17	43297.57
580.33	43288.21
580.49	43309.27
580.65	43566.73
580.82	43512.90
580.98	43056.50
581.14	43274.16
581.30	43665.03
581.46	43328.00
581.62	43124.37
581.78	42995.64
581.94	43515.24
582.10	43227.35
582.26	43086.92
582.42	43339.70
582.58	43475.45
582.74	43695.46
582.90	43435.66
583.06	43269.48
583.22	42972.24
583.38	43140.75
583.54	43159.48
583.70	43346.72
583.86	43573.75
584.02	42916.06
584.18	43414.60
584.34	43313.95
584.50	43342.04
584.66	43253.10
584.82	43267.14
584.98	43414.60
585.14	43552.69
585.30	43051.81
585.46	43143.09
585.62	43419.28
585.78	43454.39
585.94	43107.99
586.10	43290.55
586.26	43107.99
586.42	43765.68
586.58	43962.28
586.74	43203.95
586.90	43077.56
587.06	43012.02
587.22	43543.33
587.38	43005.00
587.54	43573.75
587.70	43770.36
587.86	43587.80
588.02	43447.36
588.18	43381.83
588.34	43182.88
588.49	43283.53
588.65	43526.94
588.81	43056.50
588.97	43372.47
589.13	43697.80
589.29	43133.73
589.45	43655.67
589.61	43522.26
589.77	43564.39
589.93	43519.92
590.08	43470.77
590.24	43648.65
590.40	43529.28
590.56	43863.98
590.72	43459.07
590.88	43562.05
