SpectraSuite Data File
++++++++++++++++++++++++++++++++++++
Date: Fri Oct 04 11:48:23 GMT-05:00 2013
User: price-jones
Dark Spectrum Present: No
Reference Spectrum Present: No
Number of Sampled Component Spectra: 1
Spectrometers: USB2+H05261
Integration Time (usec): 100000 (USB2+H05261)
Spectra Averaged: 1 (USB2+H05261)
Boxcar Smoothing: 0 (USB2+H05261)
Correct for Electrical Dark: No (USB2+H05261)
Strobe/Lamp Enabled: No (USB2+H05261)
Correct for Detector Non-linearity: No (USB2+H05261)
Correct for Stray Light: No (USB2+H05261)
Number of Pixels in Processed Spectrum: 2048
>>>>>Begin Processed Spectral Data<<<<<
365.73	35.11
365.92	35.11
366.12	35.11
366.32	0.00
366.52	0.00
366.72	0.00
366.91	0.00
367.11	0.00
367.31	0.00
367.51	0.00
367.70	0.00
367.90	0.00
368.10	0.00
368.30	0.00
368.49	0.00
368.69	0.00
368.89	0.00
369.09	0.00
369.28	0.00
369.48	0.00
369.68	0.00
369.87	0.00
370.07	16.38
370.27	0.00
370.47	161.50
370.66	535.98
370.86	620.24
371.06	594.50
371.25	653.01
371.45	594.50
371.65	561.73
371.84	592.16
372.04	610.88
372.24	702.16
372.44	669.39
372.63	704.50
372.83	704.50
373.03	657.69
373.22	725.57
373.42	760.67
373.62	730.25
373.81	812.17
374.01	840.25
374.21	847.27
374.40	837.91
374.60	880.04
374.79	784.08
374.99	849.61
375.19	812.17
375.38	868.34
375.58	779.40
375.78	863.66
375.97	922.17
376.17	924.51
376.37	887.06
376.56	905.79
376.76	896.43
376.95	936.21
377.15	882.38
377.35	929.19
377.54	814.51
377.74	891.74
377.93	947.92
378.13	966.64
378.33	933.87
378.52	985.37
378.72	933.87
378.91	971.32
379.11	971.32
379.31	943.24
379.50	971.32
379.70	1071.97
379.89	1048.56
380.09	1135.16
380.28	1067.28
380.48	1036.86
380.68	1125.80
380.87	1144.52
381.07	1177.29
381.26	1193.67
381.46	1118.78
381.65	1114.10
381.85	1233.46
382.04	1104.73
382.24	1121.12
382.43	1050.90
382.63	1118.78
382.83	1191.33
383.02	1221.76
383.22	1263.89
383.41	1156.22
383.61	1207.72
383.80	1203.04
384.00	1212.40
384.19	1231.12
384.39	1303.68
384.58	1270.91
384.78	1254.53
384.97	1284.95
385.17	1231.12
385.36	1228.78
385.56	1270.91
385.75	1341.13
385.95	1266.23
386.14	1390.28
386.34	1282.61
386.53	1324.74
386.72	1324.74
386.92	1390.28
387.11	1462.83
387.31	1441.77
387.50	1406.66
387.70	1366.87
387.89	1401.98
388.09	1453.47
388.28	1434.75
388.48	1523.69
388.67	1469.86
388.86	1511.99
389.06	1549.43
389.25	1483.90
389.45	1570.50
389.64	1514.33
389.84	1565.82
390.03	1547.09
390.22	1584.54
390.42	1605.61
390.61	1570.50
390.81	1451.13
391.00	1689.87
391.19	1624.33
391.39	1736.68
391.58	1720.29
391.78	1638.38
391.97	1757.74
392.16	1741.36
392.36	1767.10
392.55	1689.87
392.75	1755.40
392.94	1753.06
393.13	1834.98
393.33	1802.21
393.52	1830.30
393.71	1898.17
393.91	1886.47
394.10	1926.26
394.29	1977.75
394.49	1834.98
394.68	1853.70
394.88	1844.34
395.07	1874.77
395.26	1888.81
395.46	1968.39
395.65	1914.56
395.84	2038.61
396.04	2146.27
396.23	1991.80
396.42	2099.46
396.62	2090.10
396.81	2181.38
397.00	2078.40
397.19	2129.89
397.39	2211.81
397.58	2312.45
397.77	2279.68
397.97	2218.83
398.16	2148.61
398.35	2265.64
398.55	2251.60
398.74	2340.54
398.93	2331.17
399.12	2349.90
399.32	2251.60
399.51	2251.60
399.70	2377.98
399.90	2450.54
400.09	2413.09
400.28	2649.49
400.47	2525.44
400.67	2495.01
400.86	2569.91
401.05	2558.21
401.24	2574.59
401.44	2609.70
401.63	2520.76
401.82	2626.08
402.01	2579.27
402.21	2579.27
402.40	2670.55
402.59	2626.08
402.78	2616.72
402.97	2796.94
403.17	2775.88
403.36	2759.49
403.55	2829.71
403.74	2920.99
403.93	2871.84
404.13	2881.20
404.32	2897.58
404.51	3028.65
404.70	3033.33
404.89	2998.23
405.09	3117.59
405.28	2965.46
405.47	2986.52
405.66	2965.46
405.85	3080.14
406.05	3033.33
406.24	2998.23
406.43	3119.93
406.62	3197.17
406.81	3173.77
407.00	3133.98
407.20	3101.21
407.39	3316.54
407.58	3269.73
407.77	3300.16
407.96	3379.73
408.15	3606.77
408.34	3309.52
408.54	3307.18
408.73	3496.76
408.92	3424.20
409.11	3625.49
409.30	3541.23
409.49	3559.95
409.68	3641.87
409.87	3625.49
410.07	3693.37
410.26	3714.43
410.45	3756.56
410.64	3808.05
410.83	3714.43
411.02	3791.67
411.21	3880.61
411.40	3915.72
411.59	4004.66
411.78	4004.66
411.98	3999.98
412.17	3985.93
412.36	4074.87
412.55	4234.03
412.74	4198.92
412.93	4128.70
413.12	4196.58
413.31	4376.80
413.50	4397.87
413.69	4339.35
413.88	4421.27
414.07	4332.33
414.26	4648.30
414.45	4638.94
414.64	4535.96
414.83	4636.60
415.02	4748.95
415.22	4690.43
415.41	4697.46
415.60	4531.28
415.79	4971.30
415.98	4961.94
416.17	4966.62
416.36	4919.81
416.55	4851.93
416.74	5156.20
416.93	4936.19
417.12	5188.97
417.31	5195.99
417.50	5226.42
417.69	5336.42
417.88	5390.25
418.07	5289.61
418.26	5270.89
418.45	5373.87
418.64	5554.09
418.83	5383.23
419.02	5486.22
419.21	5486.22
419.39	5671.12
419.58	5488.56
419.77	5530.69
419.96	5715.59
420.15	5664.10
420.34	5619.63
420.53	5668.78
420.72	6078.37
420.91	5771.76
421.10	6052.63
421.29	6069.01
421.48	5757.72
421.67	6054.97
421.86	5989.43
422.05	6029.22
422.24	5930.92
422.43	5994.11
422.61	6246.89
422.80	6101.78
422.99	6197.74
423.18	6122.84
423.37	6195.40
423.56	6244.55
423.75	6085.39
423.94	6197.74
424.13	5650.05
424.32	6022.20
424.50	6050.28
424.69	6422.43
424.88	6218.80
425.07	6228.17
425.26	6274.98
425.45	6094.76
425.64	6174.33
425.83	6209.44
426.01	6235.19
426.20	6183.70
426.39	6340.51
426.58	6221.14
426.77	6338.17
426.96	6312.42
427.15	6326.47
427.33	6354.55
427.52	6368.60
427.71	6506.69
427.90	6471.58
428.09	6532.44
428.28	6525.41
428.46	6539.46
428.65	6616.69
428.84	6717.34
429.03	7101.19
429.22	6647.12
429.40	6864.79
429.59	6911.60
429.78	6555.84
429.97	6530.09
430.16	6853.09
430.34	6827.34
430.53	7040.33
430.72	7007.56
430.91	7007.56
431.10	6972.46
431.28	7265.02
431.47	7302.47
431.66	7290.77
431.85	7110.55
432.03	7229.91
432.22	7449.93
432.41	7475.67
432.60	7398.43
432.79	7389.07
432.97	7506.10
433.16	7559.93
433.35	7550.57
433.54	7573.97
433.72	7597.38
433.91	7719.09
434.10	7812.71
434.28	7765.90
434.47	7854.84
434.66	7894.63
434.85	7978.89
435.03	7793.98
435.22	7903.99
435.41	8362.73
435.59	8109.96
435.78	8156.77
435.97	8016.33
436.16	8140.38
436.34	8201.24
436.53	8198.90
436.72	8379.12
436.90	8189.53
437.09	8271.45
437.28	8212.94
437.46	8259.75
437.65	8196.56
437.84	8519.55
438.02	8329.97
438.21	8578.06
438.40	8444.65
438.58	8676.37
438.77	8819.14
438.96	8896.38
439.14	9022.77
439.33	8889.35
439.52	8957.23
439.70	9064.89
439.89	9291.93
440.08	9254.48
440.26	9460.45
440.45	9181.92
440.63	9401.93
440.82	9380.87
441.01	9373.85
441.19	9682.80
441.38	9650.03
441.57	9757.69
441.75	9848.97
441.94	10090.05
442.12	10019.83
442.31	10003.45
442.50	9926.21
442.68	9973.02
442.87	10293.68
443.05	10122.82
443.24	10281.97
443.43	10410.70
443.61	10361.55
443.80	10717.31
443.98	10183.67
444.17	10221.12
444.35	10527.73
444.54	10501.98
444.73	10377.94
444.91	10494.96
445.10	10450.49
445.28	10562.84
445.47	10544.11
445.65	10438.79
445.84	10717.31
446.02	10946.69
446.21	10883.49
446.39	10532.41
446.58	10689.23
446.77	10916.26
446.95	10654.12
447.14	10677.52
447.32	10876.47
447.51	10731.36
447.69	10920.94
447.88	10937.32
448.06	10794.55
448.25	10871.79
448.43	10839.02
448.62	10810.93
448.80	10860.09
448.99	10906.90
449.17	11019.24
449.36	10869.45
449.54	11365.64
449.73	11342.24
449.91	11477.99
450.10	11363.30
450.28	11414.79
450.46	11300.11
450.65	11672.25
450.83	11564.59
451.02	11435.86
451.20	11566.93
451.39	11485.01
451.57	11686.29
451.76	11665.23
451.94	11782.26
452.13	11920.35
452.31	11808.00
452.49	11702.68
452.68	12028.01
452.86	11934.39
453.05	12081.85
453.23	12025.67
453.42	11688.64
453.60	11929.71
453.78	12088.87
453.97	12081.85
454.15	11896.94
454.34	12217.60
454.52	12468.03
454.70	12329.94
454.89	12358.03
455.07	12423.56
455.26	12688.04
455.44	12685.70
455.62	12699.75
455.81	12666.98
455.99	12784.01
456.17	12767.62
456.36	12868.27
456.54	12896.35
456.73	12999.34
456.91	13385.52
457.09	13160.83
457.28	13355.10
457.46	13048.49
457.64	13429.99
457.83	13591.49
458.01	13291.90
458.19	13554.04
458.38	13460.42
458.56	13818.52
458.74	13624.26
458.93	13760.01
459.11	13668.73
459.29	13628.94
459.48	13996.40
459.66	13778.73
459.84	14136.84
460.03	14108.75
460.21	14211.73
460.39	14120.45
460.57	13846.61
460.76	14307.69
460.94	14228.12
461.12	14188.33
461.31	14494.94
461.49	14310.04
461.67	14324.08
461.85	15122.20
462.04	14239.82
462.22	15215.82
462.40	15101.14
462.59	14663.46
462.77	14909.21
462.95	14829.63
463.13	14768.78
463.32	15059.01
463.50	15187.74
463.68	15051.99
463.86	15211.14
464.05	14867.08
464.23	15201.78
464.41	15197.10
464.59	14906.87
464.78	15562.22
464.96	15499.03
465.14	15136.24
465.32	15459.24
465.50	15712.02
465.69	15824.36
465.87	15503.71
466.05	15353.91
466.23	15609.03
466.41	15941.39
466.60	16170.76
466.78	15817.34
466.96	15704.99
467.14	15751.81
467.32	15800.96
467.51	16060.76
467.69	15452.22
467.87	15878.19
468.05	16264.38
468.23	16044.37
468.41	15836.06
468.60	16219.91
468.78	16418.86
468.96	16322.90
469.14	16292.47
469.32	16786.32
469.50	16212.89
469.69	16800.37
469.87	16720.79
470.05	16943.14
470.23	16652.91
470.41	16936.12
470.59	17317.62
470.77	17018.04
470.95	17280.18
471.14	17186.55
471.32	17048.46
471.50	17568.06
471.68	17334.01
471.86	17673.39
472.04	17834.88
472.22	17958.93
472.40	17551.68
472.58	17958.93
472.77	17771.69
472.95	18422.36
473.13	18731.31
473.31	18045.53
473.49	18169.58
473.67	18565.13
473.85	18530.02
474.03	18473.85
474.21	19012.17
474.39	19040.26
474.57	19035.58
474.75	19630.07
474.93	19220.48
475.12	18956.00
475.30	19770.51
475.48	19367.93
475.66	19545.81
475.84	19527.09
476.02	20135.63
476.20	19770.51
476.38	20032.65
476.56	20673.95
476.74	20507.77
476.92	20521.82
477.10	20304.15
477.28	20568.63
477.46	21018.01
477.64	21245.04
477.82	21495.48
478.00	21750.60
478.18	21631.23
478.36	22148.49
478.54	22352.12
478.72	22015.08
478.90	22513.61
479.08	22632.98
479.26	22883.42
479.44	22911.50
479.62	23145.56
479.80	23220.45
479.98	23377.27
480.16	24002.19
480.34	23683.88
480.52	24056.03
480.70	24353.27
480.88	24058.37
481.06	24264.33
481.24	24327.53
481.41	24957.13
481.59	24875.21
481.77	25142.03
481.95	25111.61
482.13	25860.58
482.31	25380.77
482.49	26354.43
482.67	26087.61
482.85	26476.14
483.03	27065.96
483.21	27096.38
483.39	27175.96
483.57	27030.85
483.74	27351.50
483.92	27875.78
484.10	27892.16
484.28	27892.16
484.46	28521.77
484.64	29214.57
484.82	28388.36
485.00	29036.69
485.18	29411.17
485.35	29869.92
485.53	29516.50
485.71	29982.26
485.89	30684.42
486.07	30480.80
486.25	30555.69
486.43	30534.63
486.61	31054.23
486.78	31852.35
486.96	31906.18
487.14	31859.37
487.32	32088.74
487.50	32481.95
487.68	32369.61
487.85	32840.06
488.03	33186.46
488.21	33802.02
488.39	33717.76
488.57	33804.36
488.75	33970.54
488.92	34501.84
489.10	34630.57
489.28	34991.01
489.46	35629.98
489.64	35288.26
489.81	36088.72
489.99	35826.58
490.17	36030.21
490.35	36421.08
490.53	36697.26
490.70	36875.14
490.88	36772.16
491.06	37752.84
491.24	37050.68
491.41	37771.57
491.59	38199.88
491.77	38220.95
491.95	38721.82
492.13	39093.97
492.30	38880.98
492.48	38965.24
492.66	39161.84
492.84	39344.41
493.01	40034.86
493.19	40179.98
493.37	40580.21
493.54	40460.84
493.72	41083.42
493.90	41099.81
494.08	40947.67
494.25	41628.77
494.43	41691.96
494.61	41841.76
494.79	42096.88
494.96	42684.35
495.14	42307.52
495.32	42705.41
495.49	43049.47
495.67	42944.15
495.85	43936.54
496.02	43590.14
496.20	43641.63
496.38	43852.28
496.55	44009.09
496.73	44861.05
496.91	44786.15
497.09	44758.06
497.26	45420.44
497.44	45134.89
497.62	45153.62
497.79	45794.92
497.97	45886.20
498.14	46611.77
498.32	46562.62
498.50	46391.76
498.67	47150.09
498.85	46871.57
499.03	46532.19
499.20	46939.44
499.38	47285.84
499.56	47838.21
499.73	47875.66
499.91	48238.44
500.08	48083.97
500.26	47648.63
500.44	48193.97
500.61	48149.50
500.79	48411.64
500.97	48966.35
501.14	49081.03
501.32	49102.10
501.49	48952.30
501.67	49090.40
501.84	49277.64
502.02	49443.82
502.20	49853.41
502.37	49881.50
502.55	49935.33
502.72	49982.14
502.90	49883.84
503.07	50263.00
503.25	50174.06
503.43	50412.80
503.60	50873.88
503.78	50454.93
503.95	50901.97
504.13	50955.80
504.30	50897.29
504.48	50843.46
504.65	51257.73
504.83	51503.49
505.01	51742.22
505.18	51714.14
505.36	51915.42
505.53	51805.42
505.71	51800.74
505.88	51999.68
506.06	51782.01
506.23	52435.02
506.41	52172.88
506.58	52566.09
506.76	52706.52
506.93	52528.64
507.11	52505.24
507.28	52692.48
507.46	52870.36
507.63	53209.74
507.81	53176.97
507.98	52917.17
508.16	53230.80
508.33	53467.20
508.50	53336.13
508.68	53553.80
508.85	53893.18
509.03	53549.12
509.20	54007.86
509.38	54152.97
509.55	54164.68
509.73	54071.06
509.90	54169.36
510.08	54443.20
510.25	54422.14
510.42	54525.12
510.60	54560.23
510.77	54836.41
510.95	55056.42
511.12	54569.59
511.30	54773.22
511.47	54972.16
511.64	55503.46
511.82	55281.11
511.99	55227.28
512.17	55339.63
512.34	55351.33
512.51	55798.37
512.69	55327.92
512.86	55660.28
513.04	55889.65
513.21	56023.06
513.38	55798.37
513.56	56119.02
513.73	55955.19
513.90	56348.40
514.08	56044.13
514.25	56254.78
514.43	56303.93
514.60	56308.61
514.77	56458.40
514.95	56498.19
515.12	56477.13
515.29	56425.64
515.47	56666.71
515.64	56942.89
515.81	56884.38
515.99	57020.13
516.16	56952.26
516.33	57088.01
516.51	57301.00
516.68	57298.65
516.85	57144.18
517.03	57247.16
517.20	57396.96
517.37	57476.54
517.54	57511.64
517.72	57542.07
517.89	57483.56
518.06	57556.11
518.24	57504.62
518.41	57666.12
518.58	57649.74
518.75	57822.93
518.93	58085.07
519.10	57946.98
519.27	58021.88
519.45	58010.18
519.62	58305.09
519.79	58087.42
519.96	58241.89
520.14	58375.30
520.31	58536.80
520.48	58499.35
520.65	58436.16
520.83	58447.86
521.00	58618.72
521.17	58550.84
521.34	58583.61
521.52	58752.13
521.69	58930.01
521.86	59138.32
522.03	59150.02
522.20	58995.54
522.38	59124.27
522.55	59217.89
522.72	59000.22
522.89	59288.11
523.07	59283.43
523.24	59344.28
523.41	59561.95
523.58	59157.04
523.75	59505.78
523.92	59302.15
524.10	59461.31
524.27	59641.53
524.44	59697.70
524.61	60107.30
524.78	59924.74
524.96	59774.94
525.13	59842.82
525.30	59924.74
525.47	59994.95
525.64	60051.12
525.81	60144.75
525.98	60196.24
526.16	60324.97
526.33	60149.43
526.50	60392.84
526.67	60240.71
526.84	60280.50
527.01	60423.27
527.18	60493.49
527.36	60626.90
527.53	60638.60
527.70	60823.50
527.87	60699.45
528.04	60451.36
528.21	60729.88
528.38	60591.79
528.55	60867.97
528.72	60818.82
528.89	60889.04
529.07	60818.82
529.24	60640.94
529.41	61078.62
529.58	60933.51
529.75	60994.36
529.92	61214.37
530.09	61137.13
530.26	61165.22
530.43	61172.24
530.60	61092.66
530.77	61352.46
530.94	61476.51
531.11	61029.47
531.28	61338.42
531.46	61375.87
531.63	61471.83
531.80	61310.33
531.97	61703.54
532.14	61623.96
532.31	61490.55
532.48	61752.69
532.65	61755.03
532.82	61829.93
532.99	61813.55
533.16	61750.35
533.33	62017.17
533.50	62113.14
533.67	62040.58
533.84	61888.45
534.01	61708.22
534.18	61939.94
534.35	62106.12
534.52	62152.93
534.69	62223.14
534.86	62344.85
535.03	62300.38
535.20	62195.06
535.37	62436.13
535.54	62340.17
535.71	62040.58
535.88	62316.76
536.05	62494.64
536.22	62702.95
536.38	62546.14
536.55	62709.97
536.72	62482.94
536.89	62415.07
537.06	62422.09
537.23	62588.27
537.40	62606.99
537.57	62677.21
537.74	62663.16
537.91	62920.62
538.08	62995.52
538.25	62688.91
538.42	62798.91
538.59	62848.06
538.75	62702.95
538.92	62869.13
539.09	62920.62
539.26	63018.92
539.43	63002.54
539.60	63171.06
539.77	63114.89
539.94	63152.33
540.11	63210.85
540.28	63147.65
540.44	63161.70
540.61	63142.97
540.78	63224.89
540.95	63456.60
541.12	63283.40
541.29	63463.63
541.46	63327.87
541.62	63316.17
541.79	63615.76
541.96	63290.43
542.13	63442.56
542.30	63395.75
542.47	63573.63
542.63	63599.38
542.80	63716.40
542.97	63781.94
543.14	63859.18
543.31	63898.97
543.48	63700.02
543.64	64076.85
543.81	64001.95
543.98	63994.93
544.15	64154.08
544.32	64207.92
544.48	64313.24
544.65	64067.48
544.82	64058.12
544.99	63917.69
545.16	64111.95
545.32	64240.68
545.49	64348.35
545.66	64516.87
545.83	64437.29
546.00	64540.27
546.16	64418.56
546.33	64067.48
546.50	63938.75
546.67	64418.56
546.83	64114.29
547.00	64343.67
547.17	64467.72
547.34	64451.33
547.50	64619.85
547.67	64842.20
547.84	64591.76
548.00	64537.93
548.17	64664.32
548.34	64727.52
548.51	64755.60
548.67	64718.15
548.84	64973.27
549.01	64743.90
549.18	64793.05
549.34	64996.68
549.51	64718.15
549.68	64942.84
549.84	64821.14
550.01	64987.31
550.18	64774.33
550.34	64874.97
550.51	65113.70
550.68	65130.09
550.84	64919.44
551.01	65048.17
551.18	65055.19
551.34	64832.84
551.51	65050.51
551.68	65343.08
551.84	65272.86
552.01	65263.50
552.18	65394.57
552.34	65340.74
552.51	65387.55
552.68	65141.79
552.84	65272.86
553.01	65392.23
553.18	65406.27
553.34	65434.36
553.51	65446.06
553.67	65485.85
553.84	65535.00
554.01	65535.00
554.17	65535.00
554.34	65535.00
554.51	65535.00
554.67	65535.00
554.84	65535.00
555.00	65535.00
555.17	65535.00
555.33	65535.00
555.50	65535.00
555.67	65535.00
555.83	65535.00
556.00	65535.00
556.16	65535.00
556.33	65535.00
556.50	65535.00
556.66	65535.00
556.83	65535.00
556.99	65535.00
557.16	65535.00
557.32	65535.00
557.49	65535.00
557.65	65535.00
557.82	65535.00
557.98	65535.00
558.15	65535.00
558.32	65535.00
558.48	65535.00
558.65	65535.00
558.81	65535.00
558.98	65535.00
559.14	65535.00
559.31	65535.00
559.47	65535.00
559.64	65535.00
559.80	65535.00
559.97	65535.00
560.13	65535.00
560.30	65535.00
560.46	65535.00
560.63	65535.00
560.79	65535.00
560.96	65535.00
561.12	65535.00
561.29	65535.00
561.45	65535.00
561.61	65535.00
561.78	65535.00
561.94	65535.00
562.11	65535.00
562.27	65535.00
562.44	65535.00
562.60	65535.00
562.77	65535.00
562.93	65535.00
563.10	65535.00
563.26	65535.00
563.42	65535.00
563.59	65535.00
563.75	65535.00
563.92	65535.00
564.08	65535.00
564.24	65535.00
564.41	65535.00
564.57	65535.00
564.74	65535.00
564.90	65535.00
565.07	65535.00
565.23	65535.00
565.39	65535.00
565.56	65535.00
565.72	65535.00
565.88	65535.00
566.05	65535.00
566.21	65535.00
566.38	65535.00
566.54	65535.00
566.70	65535.00
566.87	65535.00
567.03	65535.00
567.19	65535.00
567.36	65535.00
567.52	65535.00
567.68	65535.00
567.85	65535.00
568.01	65535.00
568.17	65535.00
568.34	65535.00
568.50	65535.00
568.66	65535.00
568.83	65535.00
568.99	65535.00
569.15	65535.00
569.32	65535.00
569.48	65535.00
569.64	65535.00
569.81	65535.00
569.97	65535.00
570.13	65535.00
570.30	65535.00
570.46	65535.00
570.62	65535.00
570.78	65535.00
570.95	65535.00
571.11	65535.00
571.27	65535.00
571.43	65535.00
571.60	65535.00
571.76	65535.00
571.92	65535.00
572.09	65535.00
572.25	65535.00
572.41	65535.00
572.57	65535.00
572.74	65535.00
572.90	65535.00
573.06	65535.00
573.22	65535.00
573.38	65535.00
573.55	65535.00
573.71	65535.00
573.87	65535.00
574.03	65535.00
574.20	65535.00
574.36	65535.00
574.52	65535.00
574.68	65535.00
574.84	65535.00
575.01	65535.00
575.17	65535.00
575.33	65535.00
575.49	65535.00
575.65	65535.00
575.82	65535.00
575.98	65535.00
576.14	65535.00
576.30	65535.00
576.46	65535.00
576.62	65535.00
576.79	65535.00
576.95	65535.00
577.11	65535.00
577.27	65535.00
577.43	65535.00
577.59	65535.00
577.75	65535.00
577.92	65535.00
578.08	65535.00
578.24	65535.00
578.40	65535.00
578.56	65535.00
578.72	65535.00
578.88	65535.00
579.04	65535.00
579.21	65535.00
579.37	65535.00
579.53	65535.00
579.69	65535.00
579.85	65535.00
580.01	65535.00
580.17	65535.00
580.33	65535.00
580.49	65535.00
580.65	65535.00
580.82	65535.00
580.98	65535.00
581.14	65535.00
581.30	65535.00
581.46	65535.00
581.62	65535.00
581.78	65535.00
581.94	65535.00
582.10	65535.00
582.26	65535.00
582.42	65535.00
582.58	65535.00
582.74	65535.00
582.90	65535.00
583.06	65535.00
583.22	65535.00
583.38	65535.00
583.54	65535.00
583.70	65535.00
583.86	65535.00
584.02	65535.00
584.18	65535.00
584.34	65535.00
584.50	65535.00
584.66	65535.00
584.82	65535.00
584.98	65535.00
585.14	65535.00
585.30	65535.00
585.46	65535.00
585.62	65535.00
585.78	65535.00
585.94	65535.00
586.10	65535.00
586.26	65535.00
586.42	65535.00
586.58	65535.00
586.74	65535.00
586.90	65535.00
587.06	65535.00
587.22	65535.00
587.38	65535.00
587.54	65535.00
587.70	65535.00
587.86	65535.00
588.02	65535.00
