SpectraSuite Data File
++++++++++++++++++++++++++++++++++++
Date: Fri Oct 04 11:48:29 GMT-05:00 2013
User: price-jones
Dark Spectrum Present: No
Reference Spectrum Present: No
Number of Sampled Component Spectra: 1
Spectrometers: USB2+H05261
Integration Time (usec): 100000 (USB2+H05261)
Spectra Averaged: 1 (USB2+H05261)
Boxcar Smoothing: 0 (USB2+H05261)
Correct for Electrical Dark: No (USB2+H05261)
Strobe/Lamp Enabled: No (USB2+H05261)
Correct for Detector Non-linearity: No (USB2+H05261)
Correct for Stray Light: No (USB2+H05261)
Number of Pixels in Processed Spectrum: 2048
>>>>>Begin Processed Spectral Data<<<<<
365.73	21.06
365.92	21.06
366.12	21.06
366.32	0.00
366.52	0.00
366.72	0.00
366.91	0.00
367.11	0.00
367.31	0.00
367.51	0.00
367.70	0.00
367.90	0.00
368.10	0.00
368.30	0.00
368.49	0.00
368.69	0.00
368.89	0.00
369.09	0.00
369.28	0.00
369.48	0.00
369.68	0.00
369.87	0.00
370.07	0.00
370.27	0.00
370.47	126.39
370.66	388.53
370.86	500.87
371.06	519.60
371.25	557.05
371.45	507.90
371.65	496.19
371.84	498.53
372.04	582.79
372.24	526.62
372.44	559.39
372.63	573.43
372.83	552.37
373.03	531.30
373.22	664.71
373.42	610.88
373.62	594.50
373.81	674.07
374.01	645.99
374.21	650.67
374.40	671.73
374.60	704.50
374.79	631.94
374.99	594.50
375.19	730.25
375.38	643.65
375.58	695.14
375.78	739.61
375.97	690.46
376.17	734.93
376.37	725.57
376.56	737.27
376.76	709.18
376.95	688.12
377.15	779.40
377.35	809.83
377.54	711.52
377.74	763.01
377.93	786.42
378.13	849.61
378.33	978.34
378.52	863.66
378.72	777.06
378.91	739.61
379.11	791.10
379.31	823.87
379.50	802.80
379.70	784.08
379.89	922.17
380.09	816.85
380.28	863.66
380.48	781.74
380.68	891.74
380.87	774.72
381.07	929.19
381.26	938.55
381.46	910.47
381.65	1022.81
381.85	926.85
382.04	952.60
382.24	903.45
382.43	880.04
382.63	889.40
382.83	978.34
383.02	954.94
383.22	957.28
383.41	954.94
383.61	1074.31
383.80	915.15
384.00	926.85
384.19	1060.26
384.39	1018.13
384.58	1071.97
384.78	1055.58
384.97	1034.52
385.17	1020.47
385.36	973.66
385.56	1057.92
385.75	985.37
385.95	1088.35
386.14	1107.07
386.34	1043.88
386.53	1132.82
386.72	999.41
386.92	1156.22
387.11	1102.39
387.31	1158.57
387.50	1196.01
387.70	1158.57
387.89	1086.01
388.09	1212.40
388.28	1111.75
388.48	1069.62
388.67	1125.80
388.86	1203.04
389.06	1266.23
389.25	1287.29
389.45	1254.53
389.64	1245.16
389.84	1226.44
390.03	1289.64
390.22	1287.29
390.42	1310.70
390.61	1350.49
390.81	1369.21
391.00	1317.72
391.19	1383.26
391.39	1315.38
391.58	1401.98
391.78	1362.19
391.97	1352.83
392.16	1385.60
392.36	1373.89
392.55	1411.34
392.75	1446.45
392.94	1432.41
393.13	1378.58
393.33	1404.32
393.52	1390.28
393.71	1540.07
393.91	1504.96
394.10	1413.68
394.29	1507.30
394.49	1401.98
394.68	1504.96
394.88	1481.56
395.07	1619.65
395.26	1526.03
395.46	1579.86
395.65	1764.76
395.84	1673.48
396.04	1671.14
396.23	1724.97
396.42	1668.80
396.62	1673.48
396.81	1685.19
397.00	1710.93
397.19	1661.78
397.39	1722.63
397.58	1715.61
397.77	1664.12
397.97	1729.66
398.16	1701.57
398.35	1806.89
398.55	1802.21
398.74	1802.21
398.93	1980.09
399.12	1891.15
399.32	1830.30
399.51	1884.13
399.70	1919.24
399.90	1966.05
400.09	1952.01
400.28	1933.28
400.47	1968.39
400.67	2019.88
400.86	2033.93
401.05	1846.68
401.24	1984.77
401.44	2064.35
401.63	2108.82
401.82	2214.15
402.01	2054.99
402.21	2017.54
402.40	2211.81
402.59	2186.06
402.78	2172.02
402.97	2188.40
403.17	2174.36
403.36	2230.53
403.55	2183.72
403.74	2282.02
403.93	2333.51
404.13	2293.72
404.32	2347.56
404.51	2300.75
404.70	2441.18
404.89	2441.18
405.09	2401.39
405.28	2424.80
405.47	2359.26
405.66	2527.78
405.85	2471.61
406.05	2555.86
406.24	2523.10
406.43	2558.21
406.62	2523.10
406.81	2813.32
407.00	2562.89
407.20	2579.27
407.39	2539.48
407.58	2630.76
407.77	2724.38
407.96	2743.11
408.15	2778.22
408.34	2724.38
408.54	2764.17
408.73	2843.75
408.92	2808.64
409.11	2810.98
409.30	2843.75
409.49	2913.97
409.68	2925.67
409.87	2888.22
410.07	2967.80
410.26	2984.18
410.45	2944.39
410.64	3014.61
410.83	3068.44
411.02	3045.04
411.21	3141.00
411.40	3126.96
411.59	3197.17
411.78	3171.43
411.98	3094.19
412.17	3262.71
412.36	3274.41
412.55	3262.71
412.74	3356.33
412.93	3426.54
413.12	3379.73
413.31	3527.19
413.50	3487.40
413.69	3438.25
413.88	3623.15
414.07	3529.53
414.26	3618.47
414.45	3602.08
414.64	3740.18
414.83	3707.41
415.02	3817.41
415.22	3864.22
415.41	3735.50
415.60	3878.27
415.79	3943.80
415.98	3934.44
416.17	3894.65
416.36	3943.80
416.55	4058.49
416.74	4004.66
416.93	4032.74
417.12	4177.86
417.31	4053.81
417.50	4063.17
417.69	4348.72
417.88	4374.46
418.07	4210.62
418.26	4334.67
418.45	4271.48
418.64	4540.64
418.83	4461.06
419.02	4358.08
419.21	4498.51
419.39	4482.13
419.58	4498.51
419.77	4442.34
419.96	4580.43
420.15	4676.39
420.34	4589.79
420.53	4524.26
420.72	4690.43
420.91	4592.13
421.10	4772.35
421.29	4786.40
421.48	4622.56
421.67	4856.61
421.86	4828.53
422.05	4936.19
422.24	4781.71
422.43	4681.07
422.61	4847.25
422.80	4798.10
422.99	4779.37
423.18	4891.72
423.37	4961.94
423.56	4943.21
423.75	4912.78
423.94	4718.52
424.13	4657.67
424.32	4685.75
424.50	4990.02
424.69	5097.69
424.88	5025.13
425.07	5004.07
425.26	5036.83
425.45	4844.91
425.64	5022.79
425.83	4943.21
426.01	5128.11
426.20	4999.38
426.39	4975.98
426.58	4912.78
426.77	5142.16
426.96	5053.22
427.15	5135.14
427.33	5128.11
427.52	5156.20
427.71	5231.10
427.90	5350.46
428.09	5268.55
428.28	5221.74
428.46	5448.77
428.65	5362.17
428.84	5467.49
429.03	5528.35
429.22	5493.24
429.40	5408.98
429.59	5584.52
429.78	5294.29
429.97	5357.49
430.16	5249.82
430.34	5617.29
430.53	5687.50
430.72	5715.59
430.91	5495.58
431.10	5558.77
431.28	5650.05
431.47	5701.54
431.66	5968.37
431.85	5942.62
432.03	6054.97
432.22	6104.12
432.41	5823.25
432.60	6104.12
432.79	5886.45
432.97	6108.80
433.16	6061.99
433.35	5994.11
433.54	6125.18
433.72	6214.12
433.91	6225.82
434.10	6249.23
434.28	6237.53
434.47	6164.97
434.66	6249.23
434.85	6389.66
435.03	6256.25
435.22	6282.00
435.41	6480.94
435.59	6333.49
435.78	6394.34
435.97	6490.31
436.16	6499.67
436.34	6525.41
436.53	6658.82
436.72	6633.08
436.90	6480.94
437.09	6567.54
437.28	6548.82
437.46	6623.72
437.65	6724.36
437.84	6775.85
438.02	6883.52
438.21	6778.19
438.40	6761.81
438.58	7063.74
438.77	7108.21
438.96	7075.44
439.14	7578.65
439.33	7311.83
439.52	7243.96
439.70	7250.98
439.89	7506.10
440.08	7407.80
440.26	7470.99
440.45	7417.16
440.63	7517.80
440.82	7716.75
441.01	7499.08
441.19	7667.60
441.38	7908.67
441.57	7822.07
441.75	7721.43
441.94	7988.25
442.12	8060.80
442.31	8196.56
442.50	8102.93
442.68	8234.00
442.87	8278.47
443.05	8311.24
443.24	8479.76
443.43	8266.77
443.61	8173.15
443.80	8674.03
443.98	8107.62
444.17	8119.32
444.35	8299.54
444.54	8547.64
444.73	8479.76
444.91	8379.12
445.10	8287.84
445.28	8475.08
445.47	8475.08
445.65	8411.89
445.84	8573.38
446.02	8547.64
446.21	8557.00
446.39	8758.28
446.58	8634.24
446.77	8837.86
446.95	8329.97
447.14	8285.50
447.32	8526.57
447.51	8669.34
447.69	8458.70
447.88	8917.44
448.06	8718.50
448.25	8336.99
448.43	8805.10
448.62	8648.28
448.80	8725.52
448.99	8765.31
449.17	8975.95
449.36	8755.94
449.54	9107.02
449.73	9296.61
449.91	9233.41
450.10	9097.66
450.28	9348.10
450.46	9069.58
450.65	9170.22
450.83	9167.88
451.02	9334.06
451.20	9240.44
451.39	9437.04
451.57	9200.65
451.76	9263.84
451.94	9551.73
452.13	9554.07
452.31	9448.74
452.49	9535.34
452.68	9383.21
452.86	9423.00
453.05	9404.27
453.23	9638.33
453.42	9591.52
453.60	9570.45
453.78	9816.21
453.97	9483.85
454.15	9750.67
454.34	9748.33
454.52	9804.50
454.70	9834.93
454.89	9940.26
455.07	10207.08
455.26	10108.77
455.44	10113.45
455.62	9998.77
455.81	9961.32
455.99	10221.12
456.17	10338.15
456.36	10132.18
456.54	10506.66
456.73	10579.22
456.91	10593.26
457.09	10471.56
457.28	10740.72
457.46	10572.20
457.64	10745.40
457.83	10883.49
458.01	10459.85
458.19	11007.54
458.38	10740.72
458.56	10956.05
458.74	10927.96
458.93	10794.55
459.11	11098.82
459.29	10817.96
459.48	10904.56
459.66	11019.24
459.84	11370.32
460.03	11171.38
460.21	11152.65
460.39	11267.34
460.57	11398.41
460.76	11349.26
460.94	11538.84
461.12	11339.90
461.31	11396.07
461.49	11276.70
461.67	11398.41
461.85	11768.21
462.04	11676.93
462.22	11964.82
462.40	11641.82
462.59	11716.72
462.77	11962.48
462.95	11950.78
463.13	11793.96
463.32	12098.23
463.50	12070.14
463.68	11974.18
463.86	12042.06
464.05	12060.78
464.23	12065.46
464.41	12123.98
464.59	11934.39
464.78	12353.35
464.96	12294.83
465.14	11983.54
465.32	12372.07
465.50	12545.27
465.69	12524.21
465.87	12343.99
466.05	12269.09
466.23	12390.80
466.41	12578.04
466.60	12989.97
466.78	12334.62
466.96	12437.61
467.14	12414.20
467.32	12449.31
467.51	12961.89
467.69	12397.82
467.87	12624.85
468.05	12641.23
468.23	12940.82
468.41	12975.93
468.60	12819.11
468.78	13060.19
468.96	12896.35
469.14	13289.56
469.32	13249.77
469.50	12975.93
469.69	13319.99
469.87	13558.72
470.05	13692.13
470.23	13467.44
470.41	13429.99
470.59	13811.50
470.77	13331.69
470.95	13823.20
471.14	14080.66
471.32	13334.03
471.50	13881.72
471.68	13944.91
471.86	14019.81
472.04	14104.07
472.22	14373.23
472.40	14167.26
472.58	14342.80
472.77	14090.02
472.95	14359.19
473.13	14874.10
473.31	14406.00
473.49	14532.39
473.67	14588.56
473.85	14623.67
474.03	14965.39
474.21	15033.26
474.39	15122.20
474.57	15279.02
474.75	15283.70
474.93	15236.89
475.12	15185.40
475.30	15475.62
475.48	15330.51
475.66	15756.49
475.84	15625.42
476.02	16013.95
476.20	15756.49
476.38	16166.08
476.56	16493.76
476.74	16465.67
476.92	16451.63
477.10	16313.53
477.28	16526.52
477.46	16521.84
477.64	16985.27
477.82	16849.52
478.00	17446.35
478.18	17516.57
478.36	17582.10
478.54	17441.67
478.72	17703.81
478.90	17879.35
479.08	18260.86
479.26	18288.95
479.44	18735.99
479.62	18387.25
479.80	18920.89
479.98	19082.39
480.16	19286.01
480.34	18916.21
480.52	19199.41
480.70	19239.20
480.88	18970.04
481.06	19372.61
481.24	19381.98
481.41	19578.58
481.59	19910.94
481.77	20084.14
481.95	20685.65
482.13	20166.06
482.31	20360.32
482.49	20872.90
482.67	20964.18
482.85	20898.64
483.03	21635.91
483.21	21724.85
483.39	21486.12
483.57	21465.05
483.74	21769.32
483.92	22104.02
484.10	21905.07
484.28	22635.32
484.46	22499.57
484.64	23520.04
484.82	22691.49
485.00	22967.68
485.18	23370.25
485.35	23929.64
485.53	23838.36
485.71	23868.78
485.89	24205.82
486.07	24102.84
486.25	24226.89
486.43	24421.15
486.61	24739.46
486.78	24975.86
486.96	25324.60
487.14	25577.37
487.32	25596.10
487.50	25818.45
487.68	26118.04
487.85	26190.59
488.03	26206.98
488.21	26916.16
488.39	26953.61
488.57	27346.82
488.75	27234.47
488.92	27218.09
489.10	27737.69
489.28	28067.70
489.46	28315.80
489.64	27835.99
489.81	28826.04
489.99	28760.50
490.17	29071.79
490.35	29408.83
490.53	29226.27
490.70	29434.58
490.88	29532.88
491.06	29675.65
491.24	29518.84
491.41	29926.09
491.59	30221.00
491.77	30773.36
491.95	30916.14
492.13	31033.16
492.30	31192.32
492.48	31388.92
492.66	31426.37
492.84	31489.57
493.01	31927.25
493.19	31927.25
493.37	32388.33
493.54	32142.58
493.72	32519.40
493.90	32767.50
494.08	32905.59
494.25	33205.18
494.43	33603.07
494.61	33851.17
494.79	33795.00
494.96	33806.70
495.14	34153.10
495.32	34281.83
495.49	33902.66
495.67	34810.79
495.85	34792.06
496.02	35651.04
496.20	35091.65
496.38	35185.27
496.55	35761.05
496.73	35852.33
496.91	36175.32
497.09	36439.80
497.26	36407.03
497.44	36524.06
497.62	36472.57
497.79	36776.84
497.97	36708.96
498.14	37125.58
498.32	37797.31
498.50	38066.47
498.67	38101.58
498.85	37823.06
499.03	37539.85
499.20	38005.62
499.38	38354.36
499.56	38998.01
499.73	38749.91
499.91	38979.28
500.08	39105.67
500.26	38850.55
500.44	39047.16
500.61	39168.87
500.79	39185.25
500.97	39831.24
501.14	40121.46
501.32	40224.45
501.49	39597.18
501.67	40308.71
501.84	40655.11
502.02	40369.56
502.20	40495.95
502.37	41053.00
502.55	40781.49
502.72	40917.25
502.90	41483.66
503.07	41305.77
503.25	41401.74
503.43	41308.11
503.60	41577.28
503.78	41989.21
503.95	41958.78
504.13	41921.34
504.30	42258.37
504.48	42249.01
504.65	42454.98
504.83	42768.61
505.01	42759.25
505.18	42738.18
505.36	43260.12
505.53	42979.26
505.71	43346.72
505.88	43320.98
506.06	43089.26
506.23	43545.67
506.41	43730.57
506.58	43894.41
506.76	43592.48
506.93	43959.94
507.11	43856.96
507.28	44299.32
507.46	44095.69
507.63	44484.22
507.81	45050.63
507.98	44734.66
508.16	44734.66
508.33	45137.23
508.50	44961.69
508.68	45134.89
508.85	45680.24
509.03	45773.86
509.20	45544.48
509.38	45909.61
509.55	46227.92
509.73	46005.57
509.90	46328.56
510.08	45958.76
510.25	46061.74
510.42	46492.40
510.60	46934.76
510.77	46962.85
510.95	47035.41
511.12	46871.57
511.30	47112.64
511.47	47349.04
511.64	47330.31
511.82	47634.58
511.99	47552.66
512.17	47660.33
512.34	47669.69
512.51	47789.06
512.69	48079.28
512.86	47936.51
513.04	48516.96
513.21	48432.71
513.38	48645.69
513.56	48727.61
513.73	48292.27
513.90	48652.72
514.08	48416.32
514.25	49277.64
514.43	48697.19
514.60	49099.76
514.77	48914.86
514.95	49720.00
515.12	48949.96
515.29	49319.77
515.47	49743.41
515.64	49916.61
515.81	49855.75
515.99	49928.31
516.16	50103.85
516.33	50117.89
516.51	50277.05
516.68	50096.83
516.85	50380.03
517.03	50115.55
517.20	50312.16
517.37	50501.74
517.54	50562.59
517.72	50536.85
517.89	50658.56
518.06	50976.87
518.24	50794.31
518.41	50983.89
518.58	51023.68
518.75	50906.65
518.93	51346.67
519.10	51033.04
519.27	51632.22
519.45	51711.80
519.62	51267.09
519.79	51730.52
519.96	51845.21
520.14	51732.86
520.31	51489.45
520.48	52149.48
520.65	51636.90
520.83	52090.96
521.00	52048.83
521.17	51742.22
521.34	51934.15
521.52	52317.99
521.69	52542.69
521.86	52729.93
522.03	52381.19
522.20	52788.44
522.38	52566.09
522.55	52767.38
522.72	52788.44
522.89	52802.49
523.07	53027.18
523.24	52779.08
523.41	52912.49
523.58	53006.11
523.75	52954.62
523.92	52931.22
524.10	53148.88
524.27	53624.01
524.44	53659.12
524.61	53764.45
524.78	53851.05
524.96	53867.43
525.13	53766.79
525.30	53755.08
525.47	53167.61
525.64	53790.19
525.81	53944.67
525.98	54035.95
526.16	53935.30
526.33	54101.48
526.50	54113.19
526.67	54150.63
526.84	54396.39
527.01	54120.21
527.18	54380.01
527.36	54588.31
527.53	54515.76
527.70	54724.07
527.87	54440.86
528.04	54394.05
528.21	54695.98
528.38	54621.08
528.55	54761.51
528.72	54555.55
528.89	54763.85
529.07	54747.47
529.24	54742.79
529.41	54941.74
529.58	54927.69
529.75	54761.51
529.92	54834.07
530.09	54901.95
530.26	55346.65
530.43	55246.00
530.60	55098.55
530.77	55360.69
530.94	55274.09
531.11	55213.24
531.28	55295.16
531.46	55061.10
531.63	55501.12
531.80	55669.64
531.97	55849.86
532.14	55650.92
532.31	55501.12
532.48	55587.72
532.65	55639.22
532.82	55508.14
532.99	55683.69
533.16	56116.68
533.33	56020.72
533.50	55997.32
533.67	55770.28
533.84	56032.42
534.01	56062.85
534.18	56023.06
534.35	56212.65
534.52	56247.75
534.69	56369.46
534.86	56467.76
535.03	56278.18
535.20	56310.95
535.37	56523.94
535.54	56463.08
535.71	56575.43
535.88	56659.69
536.05	56383.51
536.22	56772.03
536.38	56980.34
536.55	56659.69
536.72	56687.78
536.89	56818.84
537.06	56938.21
537.23	57031.83
537.40	57008.43
537.57	56978.00
537.74	56772.03
537.91	57066.94
538.08	57200.35
538.25	57020.13
538.42	57076.30
538.59	57249.50
538.75	56966.30
538.92	57427.38
539.09	57104.39
539.26	57387.60
539.43	57361.85
539.60	57504.62
539.77	57471.85
539.94	57499.94
540.11	57425.04
540.28	57366.53
540.44	57591.22
540.61	57336.10
540.78	57450.79
540.95	57783.15
541.12	57736.34
541.29	57532.71
541.46	57724.63
541.62	57710.59
541.79	57663.78
541.96	57457.81
542.13	57759.74
542.30	58000.82
542.47	58211.46
542.63	58145.93
542.80	58017.20
542.97	58085.07
543.14	58223.17
543.31	58202.10
543.48	58183.38
543.64	58536.80
543.81	58574.25
543.98	58571.91
544.15	58433.81
544.32	58337.85
544.48	58679.57
544.65	58522.76
544.82	58520.41
544.99	58141.25
545.16	58571.91
545.32	58590.63
545.49	58937.03
545.66	58677.23
545.83	58749.79
546.00	58979.16
546.16	58763.83
546.33	58548.50
546.50	58515.73
546.67	58733.40
546.83	58513.39
547.00	58747.45
547.17	58614.04
547.34	58798.94
547.50	58922.99
547.67	59112.57
547.84	59121.93
548.00	59220.23
548.17	59243.64
548.34	59121.93
548.51	59367.69
548.67	59323.22
548.84	59463.65
549.01	59416.84
549.18	59238.96
549.34	59121.93
549.51	59217.89
549.68	59283.43
549.84	59260.02
550.01	59576.00
550.18	59484.72
550.34	59435.56
550.51	59671.96
550.68	59505.78
550.84	59274.07
551.01	59508.12
551.18	59608.76
551.34	59540.89
551.51	59451.95
551.68	59655.57
551.84	59854.52
552.01	59531.53
552.18	59725.79
552.34	59590.04
552.51	59990.27
552.68	59730.47
552.84	59543.23
553.01	59863.88
553.18	59786.64
553.34	59814.73
553.51	59824.09
553.67	60170.49
553.84	60016.02
554.01	60044.10
554.17	59854.52
554.34	59962.18
554.51	59929.42
554.67	60165.81
554.84	60133.04
555.00	60041.76
555.17	60191.56
555.33	60217.30
555.50	60212.62
555.67	60154.11
555.83	60151.77
556.00	60018.36
556.16	60502.85
556.33	60292.20
556.50	60324.97
556.66	60495.83
556.83	60069.85
556.99	60563.70
557.16	60430.29
557.32	60472.42
557.49	60563.70
557.65	60111.98
557.82	60299.22
557.98	60444.33
558.15	60458.38
558.32	60633.92
558.48	60633.92
558.65	60544.98
558.81	60769.67
558.98	60652.64
559.14	60523.91
559.31	60484.12
559.47	60477.10
559.64	60748.60
559.80	60547.32
559.97	60872.65
560.13	60718.18
560.30	60835.20
560.46	60762.65
560.63	60830.52
560.79	60874.99
560.96	60959.25
561.12	61036.49
561.29	60764.99
561.45	60947.55
561.61	60903.08
561.78	60734.56
561.94	61017.77
562.11	60893.72
562.27	60757.97
562.44	60966.27
562.60	60772.01
562.77	61169.90
562.93	60963.93
563.10	61237.78
563.26	60877.33
563.42	61256.50
563.59	61076.28
563.75	60898.40
563.92	61244.80
564.08	60853.93
564.24	61024.79
564.41	60865.63
564.57	60903.08
564.74	61048.19
564.90	61216.71
565.07	61300.97
565.23	61242.46
565.39	61188.63
565.56	61111.39
565.72	60942.87
565.88	61057.56
566.05	61080.96
566.21	60980.32
566.38	61193.31
566.54	61408.64
566.70	61574.81
566.87	61630.99
567.03	61272.88
567.19	61694.18
567.36	61137.13
567.52	61247.14
567.68	61427.36
567.85	61254.16
568.01	61326.72
568.17	61333.74
568.34	61275.22
568.50	61537.36
568.66	61535.02
568.83	61553.75
568.99	61319.70
569.15	61389.91
569.32	61469.49
569.48	61312.67
569.64	61556.09
569.81	61499.92
569.97	61572.47
570.13	61558.43
570.30	61654.39
570.46	61476.51
570.62	61347.78
570.78	61616.94
570.95	61352.46
571.11	61368.85
571.27	61322.04
571.43	61418.00
571.60	61766.74
571.76	61656.73
571.92	61771.42
572.09	61455.45
572.25	61630.99
572.41	61666.09
572.57	61701.20
572.74	61567.79
572.90	61626.31
573.06	61455.45
573.22	61600.56
573.38	61853.34
573.55	61755.03
573.71	62007.81
573.87	61860.36
574.03	61670.78
574.20	61492.89
574.36	61502.26
574.52	61570.13
574.68	61748.01
574.84	61640.35
575.01	61834.61
575.17	61752.69
575.33	61834.61
575.49	61902.49
575.65	61815.89
575.82	61944.62
575.98	61897.81
576.14	62054.62
576.30	61652.05
576.46	61843.98
576.62	61815.89
576.79	61652.05
576.95	61652.05
577.11	61797.16
577.27	61717.59
577.43	61759.72
577.59	61698.86
577.75	61893.13
577.92	61675.46
578.08	61722.27
578.24	61649.71
578.40	61881.42
578.56	61895.47
578.72	61865.04
578.88	62078.03
579.04	62169.31
579.21	61808.87
579.37	61769.08
579.53	61769.08
579.69	61595.88
579.85	61787.80
580.01	61748.01
580.17	61661.41
580.33	61993.77
580.49	62035.90
580.65	62054.62
580.82	62073.35
580.98	61900.15
581.14	61935.26
581.30	62195.06
581.46	61715.25
581.62	62038.24
581.78	61710.56
581.94	61886.10
582.10	61939.94
582.26	62019.52
582.42	61785.46
582.58	62056.96
582.74	62078.03
582.90	62117.82
583.06	61986.75
583.22	61904.83
583.38	62183.35
583.54	62063.99
583.70	61965.68
583.86	61883.76
584.02	62031.22
584.18	62078.03
584.34	62209.10
584.50	62248.89
584.66	62164.63
584.82	62054.62
584.98	61965.68
585.14	61993.77
585.30	61968.02
585.46	62019.52
585.62	61975.05
585.78	62166.97
585.94	62007.81
586.10	61958.66
586.26	61996.11
586.42	62152.93
586.58	62157.61
586.74	62017.17
586.90	61977.39
587.06	62136.54
587.22	62134.20
587.38	62188.03
587.54	62232.50
587.70	62225.48
587.86	62340.17
588.02	62136.54
588.18	62138.88
588.34	62260.59
588.49	62246.55
588.65	61989.09
588.81	62157.61
588.97	62206.76
