SpectraSuite Data File
++++++++++++++++++++++++++++++++++++
Date: Fri Oct 04 11:48:32 GMT-05:00 2013
User: price-jones
Dark Spectrum Present: No
Reference Spectrum Present: No
Number of Sampled Component Spectra: 1
Spectrometers: USB2+H05261
Integration Time (usec): 100000 (USB2+H05261)
Spectra Averaged: 1 (USB2+H05261)
Boxcar Smoothing: 0 (USB2+H05261)
Correct for Electrical Dark: No (USB2+H05261)
Strobe/Lamp Enabled: No (USB2+H05261)
Correct for Detector Non-linearity: No (USB2+H05261)
Correct for Stray Light: No (USB2+H05261)
Number of Pixels in Processed Spectrum: 2048
>>>>>Begin Processed Spectral Data<<<<<
365.73	14.04
365.92	14.04
366.12	14.04
366.32	0.00
366.52	0.00
366.72	0.00
366.91	0.00
367.11	0.00
367.31	0.00
367.51	0.00
367.70	0.00
367.90	0.00
368.10	0.00
368.30	0.00
368.49	0.00
368.69	0.00
368.89	0.00
369.09	0.00
369.28	0.00
369.48	0.00
369.68	0.00
369.87	18.72
370.07	0.00
370.27	0.00
370.47	88.94
370.66	334.70
370.86	388.53
371.06	411.93
371.25	440.02
371.45	393.21
371.65	395.55
371.84	397.89
372.04	313.63
372.24	440.02
372.44	416.62
372.63	411.93
372.83	638.97
373.03	435.34
373.22	472.79
373.42	517.26
373.62	519.60
373.81	456.40
374.01	540.66
374.21	482.15
374.40	531.30
374.60	582.79
374.79	557.05
374.99	613.22
375.19	528.96
375.38	561.73
375.58	580.45
375.78	608.54
375.97	594.50
376.17	650.67
376.37	636.63
376.56	599.18
376.76	587.47
376.95	528.96
377.15	592.16
377.35	596.84
377.54	620.24
377.74	720.88
377.93	660.03
378.13	573.43
378.33	620.24
378.52	615.56
378.72	709.18
378.91	688.12
379.11	638.97
379.31	573.43
379.50	629.60
379.70	685.78
379.89	678.76
380.09	638.97
380.28	711.52
380.48	718.54
380.68	716.20
380.87	718.54
381.07	674.07
381.26	779.40
381.46	634.29
381.65	681.10
381.85	770.04
382.04	741.95
382.24	784.08
382.43	746.63
382.63	727.91
382.83	765.36
383.02	793.44
383.22	744.29
383.41	774.72
383.61	727.91
383.80	657.69
384.00	791.10
384.19	828.55
384.39	779.40
384.58	861.32
384.78	795.78
384.97	875.36
385.17	868.34
385.36	866.00
385.56	880.04
385.75	863.66
385.95	851.96
386.14	844.93
386.34	856.64
386.53	812.17
386.72	847.27
386.92	966.64
387.11	950.26
387.31	903.45
387.50	795.78
387.70	833.23
387.89	959.62
388.09	964.30
388.28	964.30
388.48	961.96
388.67	973.66
388.86	924.51
389.06	978.34
389.25	1004.09
389.45	1055.58
389.64	1039.20
389.84	1046.22
390.03	971.32
390.22	1029.84
390.42	1039.20
390.61	1039.20
390.81	1048.56
391.00	983.02
391.19	1046.22
391.39	1015.79
391.58	1177.29
391.78	1100.05
391.97	1104.73
392.16	1081.33
392.36	1123.46
392.55	1118.78
392.75	1090.69
392.94	1116.44
393.13	1177.29
393.33	1128.14
393.52	1144.52
393.71	1231.12
393.91	1132.82
394.10	1074.31
394.29	1186.65
394.49	1163.25
394.68	1313.04
394.88	1233.46
395.07	1256.87
395.26	1226.44
395.46	1203.04
395.65	1299.00
395.84	1334.11
396.04	1439.43
396.23	1320.06
396.42	1273.25
396.62	1392.62
396.81	1385.60
397.00	1296.66
397.19	1303.68
397.39	1511.99
397.58	1488.58
397.77	1383.26
397.97	1385.60
398.16	1500.28
398.35	1481.56
398.55	1343.47
398.74	1507.30
398.93	1551.78
399.12	1500.28
399.32	1462.83
399.51	1493.26
399.70	1582.20
399.90	1610.29
400.09	1619.65
400.28	1638.38
400.47	1582.20
400.67	1701.57
400.86	1636.03
401.05	1661.78
401.24	1533.05
401.44	1621.99
401.63	1757.74
401.82	1743.70
402.01	1624.33
402.21	1685.19
402.40	1727.32
402.59	1811.57
402.78	1783.49
402.97	1753.06
403.17	1720.29
403.36	1804.55
403.55	1818.60
403.74	1870.09
403.93	1912.22
404.13	1853.70
404.32	1858.39
404.51	1813.92
404.70	1914.56
404.89	1975.41
405.09	1961.37
405.28	1998.82
405.47	2012.86
405.66	2045.63
405.85	1954.35
406.05	2073.71
406.24	2085.42
406.43	2078.40
406.62	2165.00
406.81	2176.70
407.00	2078.40
407.20	1994.14
407.39	2155.63
407.58	2120.53
407.77	2342.88
407.96	2218.83
408.15	2235.21
408.34	2237.55
408.54	2401.39
408.73	2267.98
408.92	2282.02
409.11	2420.11
409.30	2366.28
409.49	2286.70
409.68	2361.60
409.87	2387.35
410.07	2394.37
410.26	2527.78
410.45	2445.86
410.64	2476.29
410.83	2607.36
411.02	2502.03
411.21	2609.70
411.40	2553.52
411.59	2691.62
411.78	2539.48
411.98	2602.68
412.17	2644.81
412.36	2771.19
412.55	2857.79
412.74	2775.88
412.93	2808.64
413.12	2794.60
413.31	2911.63
413.50	2820.35
413.69	2862.48
413.88	2949.08
414.07	2935.03
414.26	3084.83
414.45	3056.74
414.64	3052.06
414.83	3049.72
415.02	3218.24
415.22	3220.58
415.41	3173.77
415.60	3115.25
415.79	3241.64
415.98	3286.11
416.17	3332.92
416.36	3276.75
416.55	3358.67
416.74	3412.50
416.93	3452.29
417.12	3534.21
417.31	3459.31
417.50	3592.72
417.69	3775.28
417.88	3651.24
418.07	3583.36
418.26	3517.83
418.45	3543.57
418.64	3772.94
418.83	3875.93
419.02	3583.36
419.21	3843.16
419.39	3859.54
419.58	3810.39
419.77	3749.54
419.96	3843.16
420.15	3779.97
420.34	3794.01
420.53	3981.25
420.72	4124.02
420.91	4030.40
421.10	4091.26
421.29	4142.75
421.48	3969.55
421.67	3988.27
421.86	3896.99
422.05	3999.98
422.24	3904.01
422.43	3936.78
422.61	4119.34
422.80	4126.36
422.99	4149.77
423.18	4187.22
423.37	4283.18
423.56	4159.13
423.75	4180.20
423.94	4093.60
424.13	3889.97
424.32	3908.69
424.50	4224.67
424.69	4245.73
424.88	4217.65
425.07	4028.06
425.26	4086.58
425.45	4283.18
425.64	4273.82
425.83	4241.05
426.01	4297.22
426.20	4191.90
426.39	4414.25
426.58	4285.52
426.77	4318.29
426.96	4318.29
427.15	4322.97
427.33	4294.88
427.52	4454.04
427.71	4383.82
427.90	4327.65
428.09	4362.76
428.28	4456.38
428.46	4484.47
428.65	4503.19
428.84	4596.81
429.03	4709.16
429.22	4402.55
429.40	4676.39
429.59	4615.54
429.78	4542.98
429.97	4461.06
430.16	4671.71
430.34	4643.62
430.53	4894.06
430.72	4779.37
430.91	4819.16
431.10	4917.47
431.28	4861.29
431.47	5102.37
431.66	5004.07
431.85	4889.38
432.03	4985.34
432.22	5116.41
432.41	4912.78
432.60	5008.75
432.79	4908.10
432.97	5018.11
433.16	5076.62
433.35	5132.79
433.54	5025.13
433.72	5081.30
433.91	5102.37
434.10	5149.18
434.28	5158.54
434.47	5294.29
434.66	5198.33
434.85	5287.27
435.03	5444.09
435.22	5418.34
435.41	5542.39
435.59	5645.37
435.78	5341.10
435.97	5504.94
436.16	5476.85
436.34	5444.09
436.53	5378.55
436.72	5474.51
436.90	5441.75
437.09	5544.73
437.28	5619.63
437.46	5636.01
437.65	5755.38
437.84	5912.19
438.02	5654.73
438.21	5858.36
438.40	5626.65
438.58	6033.90
438.77	6066.67
438.96	5834.96
439.14	5865.38
439.33	6043.26
439.52	5933.26
439.70	6174.33
439.89	6167.31
440.08	6214.12
440.26	6197.74
440.45	6361.58
440.63	6464.56
440.82	6333.49
441.01	6413.07
441.19	6399.02
441.38	6560.52
441.57	6609.67
441.75	6752.45
441.94	6480.94
442.12	6647.12
442.31	6675.21
442.50	6745.42
442.68	6808.62
442.87	6846.07
443.05	6920.96
443.24	6860.11
443.43	6960.75
443.61	6979.48
443.80	6979.48
443.98	6747.76
444.17	6803.94
444.35	7075.44
444.54	7002.88
444.73	7129.27
444.91	7012.24
445.10	7122.25
445.28	7222.89
445.47	7119.91
445.65	7047.35
445.84	7136.29
446.02	7061.40
446.21	7098.84
446.39	7243.96
446.58	7272.04
446.77	7129.27
446.95	7059.06
447.14	6967.77
447.32	7176.08
447.51	7148.00
447.69	7115.23
447.88	7253.32
448.06	7363.33
448.25	7204.17
448.43	7368.01
448.62	7232.26
448.80	7419.50
448.99	7433.54
449.17	7452.27
449.36	7400.77
449.54	7632.49
449.73	7435.88
449.91	7613.76
450.10	7737.81
450.28	7653.55
450.46	7721.43
450.65	7583.34
450.83	7786.96
451.02	7658.23
451.20	7873.56
451.39	7803.35
451.57	7531.84
451.76	7868.88
451.94	7761.22
452.13	8035.06
452.31	7801.01
452.49	7920.37
452.68	7885.26
452.86	8086.55
453.05	8077.19
453.23	8226.98
453.42	8028.04
453.60	7990.59
453.78	8124.00
453.97	8084.21
454.15	8145.06
454.34	8112.30
454.52	8241.03
454.70	8126.34
454.89	8245.71
455.07	8322.94
455.26	8287.84
455.44	8416.57
455.62	8283.16
455.81	8458.70
455.99	8294.86
456.17	8629.56
456.36	8465.72
456.54	8826.16
456.73	8723.18
456.91	8922.12
457.09	8833.18
457.28	9144.47
457.46	8833.18
457.64	8966.59
457.83	8795.73
458.01	8767.65
458.19	9008.72
458.38	9092.98
458.56	9123.41
458.74	9071.92
458.93	9116.39
459.11	9039.15
459.29	9193.62
459.48	9163.20
459.66	9200.65
459.84	9394.91
460.03	9568.11
460.21	9205.33
460.39	9249.80
460.57	9378.53
460.76	9448.74
460.94	9415.98
461.12	9596.20
461.31	9551.73
461.49	9528.32
461.67	9390.23
461.85	9825.57
462.04	9575.13
462.22	10202.40
462.40	9584.49
462.59	9645.35
462.77	9715.56
462.95	9919.19
463.13	9926.21
463.32	9870.04
463.50	9909.83
463.68	9863.02
463.86	10104.09
464.05	9944.94
464.23	9687.48
464.41	9989.41
464.59	9741.31
464.78	10235.16
464.96	9987.07
465.14	10129.84
465.32	10270.27
465.50	10555.82
465.69	10305.38
465.87	10211.76
466.05	10218.78
466.23	10230.48
466.41	10534.75
466.60	10707.95
466.78	10115.80
466.96	10340.49
467.14	10289.00
467.32	10469.22
467.51	10768.80
467.69	10462.19
467.87	10525.39
468.05	10642.42
468.23	10251.55
468.41	10719.65
468.60	10677.52
468.78	10876.47
468.96	10558.16
469.14	10853.06
469.32	10932.64
469.50	10600.29
469.69	10916.26
469.87	11037.97
470.05	11389.05
470.23	11073.07
470.41	11257.98
470.59	11239.25
470.77	11131.59
470.95	11229.89
471.14	11417.13
471.32	11386.71
471.50	11473.31
471.68	11747.15
471.86	11534.16
472.04	11637.14
472.22	11908.65
472.40	11873.54
472.58	11791.62
472.77	11859.49
472.95	12098.23
473.13	12306.54
473.31	11894.60
473.49	11803.32
473.67	12154.40
473.85	12028.01
474.03	12231.64
474.21	12086.53
474.39	12327.60
474.57	12306.54
474.75	12879.97
474.93	12748.90
475.12	12599.10
475.30	12652.94
475.48	12587.40
475.66	13221.69
475.84	12945.50
476.02	12884.65
476.20	13362.12
476.38	13219.35
476.56	13493.19
476.74	13516.59
476.92	13561.06
477.10	13394.89
477.28	13722.56
477.46	13879.38
477.64	13870.01
477.82	14354.51
478.00	14174.28
478.18	14335.78
478.36	14368.55
478.54	14527.71
478.72	14473.87
478.90	14654.09
479.08	14656.43
479.26	14904.53
479.44	15124.54
479.62	15283.70
479.80	15365.62
479.98	15428.81
480.16	15672.23
480.34	15452.22
480.52	15740.10
480.70	15864.15
480.88	15438.17
481.06	16035.01
481.24	15932.03
481.41	16353.32
481.59	16423.54
481.77	16713.77
481.95	16688.02
482.13	16620.14
482.31	16730.15
482.49	17097.61
482.67	16999.31
482.85	17245.07
483.03	17612.53
483.21	17582.10
483.39	17820.84
483.57	17694.45
483.74	17752.96
483.92	17902.76
484.10	17916.80
484.28	18583.85
484.46	18747.69
484.64	18658.75
484.82	18698.54
485.00	18625.98
485.18	19220.48
485.35	19426.45
485.53	19534.11
485.71	19393.68
485.89	19775.19
486.07	19831.36
486.25	19637.09
486.43	19997.54
486.61	20554.58
486.78	20210.53
486.96	20753.53
487.14	21177.17
487.32	20964.18
487.50	20886.94
487.68	21448.67
487.85	21378.45
488.03	21872.31
488.21	22085.30
488.39	21865.28
488.57	22019.76
488.75	22359.14
488.92	22522.98
489.10	22923.21
489.28	22852.99
489.46	23049.60
489.64	23159.60
489.81	23522.38
489.99	23498.98
490.17	23693.24
490.35	23667.50
490.53	24297.10
490.70	23981.13
490.88	24100.50
491.06	24496.05
491.24	24027.94
491.41	25125.65
491.59	24915.00
491.77	24964.15
491.95	25090.54
492.13	25598.44
492.30	25544.61
492.48	25397.15
492.66	25619.50
492.84	25940.16
493.01	26452.73
493.19	26298.26
493.37	26412.95
493.54	26586.15
493.72	26529.97
493.90	26356.77
494.08	27014.46
494.25	27288.31
494.43	27269.58
494.61	27782.16
494.79	27627.68
494.96	27613.64
495.14	27761.09
495.32	28308.78
495.49	28226.86
495.67	28423.47
495.85	28795.61
496.02	28947.75
496.20	28844.76
496.38	29198.18
496.55	29223.93
496.73	29785.66
496.91	29680.33
497.09	29450.96
497.26	29528.20
497.44	29912.05
497.62	29930.77
497.79	30508.88
497.97	30075.88
498.14	30689.10
498.32	30754.64
498.50	30693.79
498.67	30995.71
498.85	31260.20
499.03	31527.02
499.20	31611.28
499.38	31314.03
499.56	31999.80
499.73	32084.06
499.91	32128.53
500.08	32240.88
500.26	31922.57
500.44	32273.65
500.61	32168.32
500.79	32229.18
500.97	32404.72
501.14	32814.31
501.32	32938.36
501.49	32734.73
501.67	32720.69
501.84	33088.15
502.02	33081.13
502.20	33270.72
502.37	33743.50
502.55	33340.93
502.72	33457.96
502.90	33708.40
503.07	33783.29
503.25	34038.41
503.43	33825.42
503.60	34707.80
503.78	34265.44
503.95	34321.62
504.13	34450.35
504.30	34855.26
504.48	34946.54
504.65	35332.73
504.83	34885.68
505.01	35377.20
505.18	35480.18
505.36	35178.25
505.53	35126.76
505.71	35480.18
505.88	35955.31
506.06	35377.20
506.23	36102.76
506.41	35871.05
506.58	36720.66
506.76	36449.16
506.93	36601.30
507.11	36091.06
507.28	36538.10
507.46	36786.20
507.63	36779.18
507.81	37387.72
507.98	36861.10
508.16	37062.38
508.33	37247.29
508.50	37331.54
508.68	37387.72
508.85	37963.49
509.03	37642.84
509.20	37654.54
509.38	38036.05
509.55	37914.34
509.73	37797.31
509.90	38000.94
510.08	38134.35
510.25	38277.12
510.42	38258.40
510.60	38759.27
510.77	39056.52
510.95	39058.86
511.12	38714.80
511.30	39065.88
511.47	39229.72
511.64	39091.63
511.82	39903.79
511.99	39105.67
512.17	39529.31
512.34	39311.64
512.51	39992.73
512.69	39636.97
512.86	40278.28
513.04	40105.08
513.21	40041.88
513.38	40381.26
513.56	40722.98
513.73	40332.11
513.90	40526.38
514.08	40465.52
514.25	40655.11
514.43	41305.77
514.60	40849.37
514.77	41078.74
514.95	41387.69
515.12	41163.00
515.29	40758.09
515.47	41223.86
515.64	41914.31
515.81	41493.02
515.99	41581.96
516.16	41996.23
516.33	42237.31
516.51	41954.10
516.68	41930.70
516.85	42108.58
517.03	42197.52
517.20	42574.34
517.37	42628.18
517.54	42483.06
517.72	42738.18
517.89	42696.05
518.06	42658.60
518.24	42721.80
518.41	42768.61
518.58	43363.11
518.75	43079.90
518.93	43122.03
519.10	43129.05
519.27	43384.17
519.45	43129.05
519.62	43629.93
519.79	43611.20
519.96	43744.61
520.14	43840.57
520.31	44051.22
520.48	44430.39
520.65	44100.37
520.83	43957.60
521.00	44156.55
521.17	44381.24
521.34	44245.49
521.52	44119.10
521.69	44474.86
521.86	44964.03
522.03	45209.79
522.20	45221.49
522.38	45050.63
522.55	44989.78
522.72	45144.25
522.89	45048.29
523.07	45380.65
523.24	45666.19
523.41	45212.13
523.58	45324.47
523.75	45471.93
523.92	45605.34
524.10	45647.47
524.27	46019.61
524.44	46174.09
524.61	46202.18
524.78	46110.89
524.96	46382.40
525.13	46361.33
525.30	46061.74
525.47	46108.55
525.64	46494.74
525.81	46562.62
525.98	46663.26
526.16	47107.96
526.33	46279.41
526.50	47285.84
526.67	46546.23
526.84	46677.30
527.01	46639.86
527.18	46752.20
527.36	47058.81
527.53	47000.30
527.70	47629.90
527.87	47814.80
528.04	46869.23
528.21	47414.57
528.38	47384.15
528.55	47274.14
528.72	47412.23
528.89	47957.58
529.07	47517.56
529.24	47346.70
529.41	48074.60
529.58	47723.52
529.75	47749.27
529.92	47828.85
530.09	48172.91
530.26	47803.10
530.43	48442.07
530.60	48523.99
530.77	48254.82
530.94	48418.66
531.11	48212.70
531.28	48303.98
531.46	48303.98
531.63	48554.41
531.80	49118.48
531.97	49195.72
532.14	49109.12
532.31	48856.34
532.48	48931.24
532.65	48931.24
532.82	48704.21
532.99	48964.01
533.16	48985.07
533.33	49188.70
533.50	49530.42
533.67	49471.90
533.84	49158.27
534.01	49179.34
534.18	49045.93
534.35	49301.04
534.52	49216.78
534.69	50141.30
534.86	50045.33
535.03	49415.73
535.20	49631.06
535.37	49820.64
535.54	50017.25
535.71	49619.36
535.88	50148.32
536.05	50021.93
536.22	50103.85
536.38	50183.43
536.55	50195.13
536.72	50436.20
536.89	50115.55
537.06	50328.54
537.23	50333.22
537.40	50101.51
537.57	50461.95
537.74	50150.66
537.91	50798.99
538.08	50621.11
538.25	50529.83
538.42	50394.07
538.59	50473.65
538.75	50688.98
538.92	50649.19
539.09	50637.49
539.26	50586.00
539.43	51110.28
539.60	50993.25
539.77	50890.27
539.94	50878.57
540.11	50899.63
540.28	51229.65
540.44	51185.18
540.61	50962.82
540.78	51306.88
540.95	51229.65
541.12	51229.65
541.29	51269.43
541.46	51297.52
541.62	51213.26
541.79	51409.87
541.96	51058.79
542.13	51227.31
542.30	51529.23
542.47	51531.57
542.63	51643.92
542.80	51683.71
542.97	51880.31
543.14	52095.64
543.31	52170.54
543.48	52158.84
543.64	52397.57
543.81	52355.44
543.98	52474.81
544.15	52350.76
544.32	52409.28
544.48	52727.59
544.65	52233.74
544.82	52399.91
544.99	52121.39
545.16	52367.15
545.32	52299.27
545.49	52947.60
545.66	52734.61
545.83	52556.73
546.00	52617.58
546.16	52519.28
546.33	52285.23
546.50	51978.62
546.67	52706.52
546.83	52416.30
547.00	52978.03
547.17	52753.33
547.34	53038.88
547.50	52821.21
547.67	53396.98
547.84	53017.82
548.00	52947.60
548.17	53057.60
548.34	53102.07
548.51	53448.47
548.67	52971.00
548.84	53221.44
549.01	53111.44
549.18	52975.69
549.34	52985.05
549.51	53141.86
549.68	53193.36
549.84	53446.13
550.01	53497.62
550.18	53169.95
550.34	53310.38
550.51	53237.83
550.68	53432.09
550.84	53385.28
551.01	53453.15
551.18	53310.38
551.34	53476.56
551.51	53497.62
551.68	53771.47
551.84	53748.06
552.01	53792.53
552.18	53453.15
552.34	53535.07
552.51	53682.53
552.68	53394.64
552.84	53551.46
553.01	54108.50
553.18	53989.14
553.34	54092.12
553.51	54117.87
553.67	53996.16
553.84	54539.16
554.01	53996.16
554.17	54061.69
554.34	54265.32
554.51	53876.79
554.67	54401.07
554.84	54253.62
555.00	53900.20
555.17	54218.51
555.33	54466.61
555.50	54244.26
555.67	54227.87
555.83	54131.91
556.00	54085.10
556.16	54314.47
556.33	54181.06
556.50	54260.64
556.66	54433.84
556.83	54408.09
556.99	54597.68
557.16	54628.10
557.32	54529.80
557.49	54777.90
557.65	54485.33
557.82	54522.78
557.98	54585.97
558.15	54621.08
558.32	54728.75
558.48	54564.91
558.65	54752.15
558.81	54906.63
558.98	54520.44
559.14	54749.81
559.31	54450.22
559.47	54585.97
559.64	54822.37
559.80	55011.95
559.97	54735.77
560.13	54581.29
560.30	54813.01
560.46	55014.29
560.63	55018.97
560.79	54794.28
560.96	54845.77
561.12	54983.86
561.29	54810.67
561.45	54789.60
561.61	54927.69
561.78	55063.44
561.94	55323.24
562.11	55140.68
562.27	55430.91
562.44	54930.03
562.60	55070.46
562.77	54995.57
562.93	55023.65
563.10	55178.13
563.26	54894.92
563.42	55423.89
563.59	55119.62
563.75	55065.78
563.92	55283.45
564.08	55136.00
564.24	55348.99
564.41	55152.38
564.57	55260.05
564.74	55121.96
564.90	55229.62
565.07	55379.42
565.23	55433.25
565.39	55068.12
565.56	55327.92
565.72	55215.58
565.88	55281.11
566.05	55112.59
566.21	55288.13
566.38	55136.00
566.54	55540.91
566.70	55550.27
566.87	55676.66
567.03	55473.04
567.19	55796.03
567.36	55622.83
567.52	55388.78
567.68	55426.23
567.85	55304.52
568.01	55419.20
568.17	55402.82
568.34	55519.85
568.50	55622.83
568.66	55470.70
568.83	55870.93
568.99	55215.58
569.15	55253.03
569.32	55348.99
569.48	55356.01
569.64	55690.71
569.81	55618.15
569.97	55379.42
570.13	55552.62
570.30	55653.26
570.46	55576.02
570.62	55693.05
570.78	55828.80
570.95	55671.98
571.11	55550.27
571.27	55444.95
571.43	55540.91
571.60	55880.29
571.76	55604.11
571.92	55985.61
572.09	55716.45
572.25	55739.86
572.41	55917.74
572.57	55592.40
572.74	55629.85
572.90	55604.11
573.06	55739.86
573.22	55842.84
573.38	55943.48
573.55	55793.69
573.71	56102.64
573.87	55786.67
574.03	55683.69
574.20	55578.36
574.36	55732.84
574.52	55615.81
574.68	55547.93
574.84	55826.46
575.01	55777.31
575.17	55784.33
575.33	55749.22
575.49	55639.22
575.65	56051.15
575.82	55978.59
575.98	55894.33
576.14	56123.71
576.30	55849.86
576.46	55906.04
576.62	55571.34
576.79	55803.05
576.95	55824.12
577.11	56264.14
577.27	55875.61
577.43	55962.21
577.59	55936.46
577.75	55959.87
577.92	55587.72
578.08	55580.70
578.24	55863.91
578.40	55781.99
578.56	55824.12
578.72	55770.28
578.88	56257.12
579.04	56020.72
579.21	56154.13
579.37	55980.93
579.53	55957.53
579.69	55613.47
579.85	55868.59
580.01	55884.97
580.17	55877.95
580.33	55760.92
580.49	56055.83
580.65	56217.33
580.82	56126.05
580.98	55894.33
581.14	56044.13
581.30	56168.18
581.46	55910.72
581.62	55899.01
581.78	55814.76
581.94	56104.98
582.10	55791.35
582.26	56041.79
582.42	56378.82
582.58	55899.01
582.74	56025.40
582.90	56292.22
583.06	56238.39
583.22	56093.28
583.38	55849.86
583.54	56100.30
583.70	56205.62
583.86	56172.86
584.02	56126.05
584.18	56037.11
584.34	56060.51
584.50	56282.86
584.66	56046.47
584.82	56011.36
584.98	55992.64
585.14	56257.12
585.30	55831.14
585.46	55985.61
585.62	55927.10
585.78	56367.12
585.94	55987.95
586.10	56018.38
586.26	56095.62
586.42	56404.57
586.58	56172.86
586.74	56149.45
586.90	56109.66
587.06	55992.64
587.22	56219.67
587.38	55838.16
587.54	56226.69
587.70	56502.87
587.86	56289.88
588.02	56226.69
588.18	56362.44
588.34	56500.53
588.49	56032.42
588.65	55955.19
588.81	56027.74
588.97	56224.35
589.13	56112.00
589.29	56076.90
589.45	56406.91
589.61	56357.76
589.77	56488.83
