SpectraSuite Data File
++++++++++++++++++++++++++++++++++++
Date: Fri Oct 04 11:48:42 GMT-05:00 2013
User: price-jones
Dark Spectrum Present: No
Reference Spectrum Present: No
Number of Sampled Component Spectra: 1
Spectrometers: USB2+H05261
Integration Time (usec): 100000 (USB2+H05261)
Spectra Averaged: 1 (USB2+H05261)
Boxcar Smoothing: 0 (USB2+H05261)
Correct for Electrical Dark: No (USB2+H05261)
Strobe/Lamp Enabled: No (USB2+H05261)
Correct for Detector Non-linearity: No (USB2+H05261)
Correct for Stray Light: No (USB2+H05261)
Number of Pixels in Processed Spectrum: 2048
>>>>>Begin Processed Spectral Data<<<<<
365.73	86.60
365.92	86.60
366.12	86.60
366.32	0.00
366.52	0.00
366.72	0.00
366.91	0.00
367.11	0.00
367.31	0.00
367.51	0.00
367.70	0.00
367.90	0.00
368.10	0.00
368.30	0.00
368.49	0.00
368.69	0.00
368.89	0.00
369.09	0.00
369.28	0.00
369.48	0.00
369.68	0.00
369.87	0.00
370.07	0.00
370.27	37.45
370.47	112.35
370.66	51.49
370.86	72.56
371.06	60.85
371.25	128.73
371.45	86.60
371.65	231.71
371.84	170.86
372.04	102.98
372.24	117.03
372.44	194.26
372.63	163.84
372.83	259.80
373.03	161.50
373.22	119.37
373.42	128.73
373.62	121.71
373.81	147.45
374.01	250.44
374.21	175.54
374.40	131.07
374.60	163.84
374.79	142.77
374.99	189.58
375.19	205.97
375.38	114.69
375.58	147.45
375.78	198.95
375.97	184.90
376.17	248.10
376.37	161.50
376.56	201.29
376.76	198.95
376.95	170.86
377.15	205.97
377.35	187.24
377.54	194.26
377.74	170.86
377.93	187.24
378.13	194.26
378.33	222.35
378.52	133.41
378.72	212.99
378.91	196.60
379.11	180.22
379.31	217.67
379.50	140.43
379.70	208.31
379.89	203.63
380.09	201.29
380.28	161.50
380.48	220.01
380.68	208.31
380.87	152.13
381.07	128.73
381.26	224.69
381.46	175.54
381.65	184.90
381.85	140.43
382.04	180.22
382.24	142.77
382.43	241.08
382.63	173.20
382.83	194.26
383.02	283.20
383.22	208.31
383.41	222.35
383.61	182.56
383.80	280.86
384.00	215.33
384.19	250.44
384.39	196.60
384.58	262.14
384.78	168.52
384.97	241.08
385.17	238.73
385.36	224.69
385.56	201.29
385.75	159.16
385.95	170.86
386.14	234.05
386.34	189.58
386.53	241.08
386.72	280.86
386.92	294.91
387.11	236.39
387.31	248.10
387.50	241.08
387.70	220.01
387.89	290.23
388.09	201.29
388.28	299.59
388.48	276.18
388.67	250.44
388.86	285.55
389.06	315.97
389.25	292.57
389.45	236.39
389.64	301.93
389.84	299.59
390.03	308.95
390.22	276.18
390.42	250.44
390.61	306.61
390.81	147.45
391.00	257.46
391.19	234.05
391.39	320.65
391.58	285.55
391.78	322.99
391.97	262.14
392.16	231.71
392.36	290.23
392.55	397.89
392.75	330.02
392.94	304.27
393.13	294.91
393.33	344.06
393.52	266.82
393.71	311.29
393.91	280.86
394.10	311.29
394.29	332.36
394.49	341.72
394.68	379.17
394.88	325.33
395.07	374.49
395.26	320.65
395.46	397.89
395.65	297.25
395.84	341.72
396.04	465.77
396.23	344.06
396.42	285.55
396.62	421.30
396.81	409.59
397.00	369.80
397.19	454.06
397.39	451.72
397.58	421.30
397.77	400.23
397.97	360.44
398.16	411.93
398.35	444.70
398.55	379.17
398.74	383.85
398.93	435.34
399.12	428.32
399.32	372.15
399.51	465.77
399.70	423.64
399.90	496.19
400.09	545.34
400.28	517.26
400.47	454.06
400.67	489.17
400.86	535.98
401.05	526.62
401.24	587.47
401.44	500.87
401.63	533.64
401.82	526.62
402.01	463.43
402.21	538.32
402.40	554.71
402.59	543.00
402.78	615.56
402.97	533.64
403.17	524.28
403.36	624.92
403.55	669.39
403.74	571.09
403.93	660.03
404.13	638.97
404.32	608.54
404.51	594.50
404.70	690.46
404.89	681.10
405.09	667.05
405.28	833.23
405.47	709.18
405.66	730.25
405.85	697.48
406.05	758.33
406.24	725.57
406.43	664.71
406.62	755.99
406.81	826.21
407.00	802.80
407.20	823.87
407.39	816.85
407.58	730.25
407.77	961.96
407.96	901.11
408.15	910.47
408.34	866.00
408.54	849.61
408.73	826.21
408.92	950.26
409.11	877.70
409.30	926.85
409.49	931.53
409.68	1015.79
409.87	973.66
410.07	915.15
410.26	926.85
410.45	950.26
410.64	961.96
410.83	873.02
411.02	1074.31
411.21	1078.99
411.40	999.41
411.59	1086.01
411.78	1076.65
411.98	1088.35
412.17	1107.07
412.36	1200.69
412.55	1036.86
412.74	1128.14
412.93	1144.52
413.12	1163.25
413.31	1245.16
413.50	1203.04
413.69	1212.40
413.88	1301.34
414.07	1308.36
414.26	1254.53
414.45	1387.94
414.64	1322.40
414.83	1413.68
415.02	1301.34
415.22	1439.43
415.41	1380.92
415.60	1364.53
415.79	1291.98
415.98	1394.96
416.17	1399.64
416.36	1448.79
416.55	1451.13
416.74	1535.39
416.93	1540.07
417.12	1579.86
417.31	1497.94
417.50	1439.43
417.69	1488.58
417.88	1596.25
418.07	1502.62
418.26	1530.71
418.45	1621.99
418.64	1666.46
418.83	1549.43
419.02	1610.29
419.21	1657.10
419.39	1661.78
419.58	1678.16
419.77	1741.36
419.96	1722.63
420.15	1781.15
420.34	1746.04
420.53	1701.57
420.72	1741.36
420.91	1713.27
421.10	1689.87
421.29	1774.13
421.48	1727.32
421.67	1708.59
421.86	1788.17
422.05	1713.27
422.24	1802.21
422.43	1813.92
422.61	1797.53
422.80	1870.09
422.99	1907.54
423.18	1856.04
423.37	1802.21
423.56	1842.00
423.75	1844.34
423.94	1696.89
424.13	1685.19
424.32	1785.83
424.50	1825.62
424.69	1834.98
424.88	1984.77
425.07	1849.02
425.26	1959.03
425.45	1872.43
425.64	1923.92
425.83	1926.26
426.01	1909.88
426.20	1949.67
426.39	1973.07
426.58	1944.99
426.77	1970.73
426.96	1940.30
427.15	1989.46
427.33	1905.20
427.52	1991.80
427.71	1942.64
427.90	1926.26
428.09	1884.13
428.28	2010.52
428.46	1968.39
428.65	2062.01
428.84	2080.74
429.03	2083.08
429.22	1991.80
429.40	2019.88
429.59	2069.03
429.78	2022.22
429.97	2012.86
430.16	2031.58
430.34	2129.89
430.53	2270.32
430.72	2160.31
430.91	2071.37
431.10	2054.99
431.28	2134.57
431.47	2167.34
431.66	2127.55
431.85	2120.53
432.03	2279.68
432.22	2181.38
432.41	2134.57
432.60	2296.07
432.79	2216.49
432.97	2221.17
433.16	2314.79
433.35	2146.27
433.54	2324.15
433.72	2385.01
433.91	2342.88
434.10	2298.41
434.28	2375.64
434.47	2495.01
434.66	2317.13
434.85	2438.84
435.03	2373.30
435.22	2382.67
435.41	2396.71
435.59	2483.31
435.78	2511.39
435.97	2445.86
436.16	2551.18
436.34	2422.45
436.53	2464.58
436.72	2574.59
436.90	2555.86
437.09	2602.68
437.28	2502.03
437.46	2548.84
437.65	2593.31
437.84	2609.70
438.02	2483.31
438.21	2633.10
438.40	2534.80
438.58	2583.95
438.77	2656.51
438.96	2616.72
439.14	2654.17
439.33	2743.11
439.52	2787.58
439.70	2679.91
439.89	2628.42
440.08	2785.24
440.26	2810.98
440.45	2857.79
440.63	2871.84
440.82	2860.13
441.01	2913.97
441.19	2902.26
441.38	2923.33
441.57	2909.29
441.75	2995.89
441.94	2972.48
442.12	3014.61
442.31	3038.02
442.50	3000.57
442.68	3045.04
442.87	3014.61
443.05	3040.36
443.24	3192.49
443.43	3108.23
443.61	3091.85
443.80	3145.68
443.98	3077.80
444.17	2960.78
444.35	3094.19
444.54	3262.71
444.73	3194.83
444.91	3141.00
445.10	3220.58
445.28	3215.90
445.47	3119.93
445.65	3096.53
445.84	3262.71
446.02	3192.49
446.21	3159.72
446.39	3026.31
446.58	3227.60
446.77	3396.12
446.95	3021.63
447.14	3220.58
447.32	3349.31
447.51	3325.90
447.69	3297.81
447.88	3157.38
448.06	3281.43
448.25	3222.92
448.43	3307.18
448.62	3328.24
448.80	3253.34
448.99	3265.05
449.17	3325.90
449.36	3330.58
449.54	3307.18
449.73	3389.10
449.91	3412.50
450.10	3307.18
450.28	3304.84
450.46	3391.44
450.65	3449.95
450.83	3358.67
451.02	3424.20
451.20	3571.66
451.39	3489.74
451.57	3384.41
451.76	3445.27
451.94	3414.84
452.13	3503.78
452.31	3513.14
452.49	3482.72
452.68	3471.01
452.86	3550.59
453.05	3487.40
453.23	3655.92
453.42	3566.98
453.60	3578.68
453.78	3585.70
453.97	3501.44
454.15	3637.19
454.34	3421.86
454.52	3510.80
454.70	3606.77
454.89	3655.92
455.07	3674.64
455.26	3684.00
455.44	3639.53
455.62	3662.94
455.81	3662.94
455.99	3730.81
456.17	3786.99
456.36	3770.60
456.54	3775.28
456.73	3847.84
456.91	3985.93
457.09	3922.74
457.28	4014.02
457.46	3915.72
457.64	4039.76
457.83	4007.00
458.01	3887.63
458.19	4074.87
458.38	3808.05
458.56	4056.15
458.74	3960.19
458.93	4014.02
459.11	4072.53
459.29	4142.75
459.48	4009.34
459.66	3985.93
459.84	4124.02
460.03	4248.07
460.21	4121.68
460.39	4067.85
460.57	4077.21
460.76	4222.33
460.94	4100.62
461.12	3990.61
461.31	4252.75
461.49	4194.24
461.67	4114.66
461.85	4283.18
462.04	4208.28
462.22	4706.82
462.40	4322.97
462.59	4379.14
462.77	4362.76
462.95	4409.57
463.13	4498.51
463.32	4299.56
463.50	4308.93
463.68	4290.20
463.86	4475.10
464.05	4280.84
464.23	4486.81
464.41	4451.70
464.59	4475.10
464.78	4575.75
464.96	4353.40
465.14	4418.93
465.32	4470.42
465.50	4510.21
465.69	4559.36
465.87	4381.48
466.05	4489.15
466.23	4297.22
466.41	4503.19
466.60	4737.24
466.78	4538.30
466.96	4599.15
467.14	4610.86
467.32	4676.39
467.51	4725.54
467.69	4461.06
467.87	4650.64
468.05	4587.45
468.23	4608.51
468.41	4655.33
468.60	4699.80
468.78	4737.24
468.96	4638.94
469.14	4924.49
469.32	4795.76
469.50	4636.60
469.69	4809.80
469.87	4856.61
470.05	4873.00
470.23	5011.09
470.41	4805.12
470.59	4997.04
470.77	4898.74
470.95	4765.33
471.14	5029.81
471.32	5071.94
471.50	5100.03
471.68	5095.35
471.86	5146.84
472.04	5125.77
472.22	5277.91
472.40	5046.20
472.58	5153.86
472.77	5088.32
472.95	5383.23
473.13	5334.08
473.31	5301.31
473.49	5270.89
473.67	5111.73
473.85	5289.61
474.03	5392.59
474.21	5291.95
474.39	5462.81
474.57	5317.70
474.75	5507.28
474.93	5413.66
475.12	5526.00
475.30	5518.98
475.48	5486.22
475.66	5614.95
475.84	5633.67
476.02	5668.78
476.20	5729.63
476.38	5804.53
476.56	5963.68
476.74	5884.11
476.92	6012.84
477.10	5879.43
477.28	5886.45
477.46	5914.53
477.64	6003.47
477.82	6169.65
478.00	6256.25
478.18	6242.21
478.36	6242.21
478.54	6366.26
478.72	6340.51
478.90	6267.95
479.08	6548.82
479.26	6445.84
479.44	6693.93
479.62	6649.46
479.80	6628.40
479.98	6630.74
480.16	6775.85
480.34	6843.73
480.52	7047.35
480.70	7075.44
480.88	6806.28
481.06	6817.98
481.24	6782.87
481.41	7014.59
481.59	7077.78
481.77	7269.70
481.95	7269.70
482.13	7262.68
482.31	7201.83
482.49	7506.10
482.67	7335.24
482.85	7604.40
483.03	7510.78
483.21	7747.17
483.39	7550.57
483.57	7606.74
483.74	7599.72
483.92	7721.43
484.10	7772.92
484.28	7985.91
484.46	8107.62
484.64	8168.47
484.82	8084.21
485.00	8112.30
485.18	8383.80
485.35	8468.06
485.53	8400.18
485.71	8374.44
485.89	8566.36
486.07	8482.10
486.25	8566.36
486.43	8578.06
486.61	8627.21
486.78	8901.06
486.96	8725.52
487.14	9341.08
487.32	8821.48
487.50	9088.30
487.68	9102.34
487.85	9287.25
488.03	9525.98
488.21	9490.87
488.39	9327.03
488.57	9525.98
488.75	9446.40
488.92	9579.81
489.10	9621.94
489.28	9661.73
489.46	9682.80
489.64	9504.92
489.81	9961.32
489.99	10097.07
490.17	9872.38
490.35	10289.00
490.53	10345.17
490.70	10237.50
490.88	10228.14
491.06	10359.21
491.24	10181.33
491.41	10532.41
491.59	10523.05
491.77	10569.86
491.95	10778.17
492.13	10675.18
492.30	10576.88
492.48	10881.15
492.66	10834.34
492.84	10881.15
493.01	11044.99
493.19	11250.96
493.37	11077.76
493.54	11194.78
493.72	11173.72
493.90	11124.57
494.08	11382.03
494.25	11426.50
494.43	11616.08
494.61	11660.55
494.79	11747.15
494.96	11566.93
495.14	11808.00
495.32	11824.39
495.49	11880.56
495.67	12100.57
495.85	11903.96
496.02	12397.82
496.20	12189.51
496.38	12257.39
496.55	12414.20
496.73	12549.95
496.91	12301.86
497.09	12617.83
497.26	12772.30
497.44	12662.30
497.62	12636.55
497.79	12973.59
497.97	12769.96
498.14	12760.60
498.32	13142.11
498.50	13043.81
498.67	13212.32
498.85	13015.72
499.03	13193.60
499.20	13369.14
499.38	13390.20
499.56	13483.83
499.73	13516.59
499.91	13422.97
500.08	13338.71
500.26	13221.69
500.44	13467.44
500.61	13495.53
500.79	13848.95
500.97	13696.82
501.14	13755.33
501.32	13701.50
501.49	13886.40
501.67	13823.20
501.84	13947.25
502.02	13888.74
502.20	14436.42
502.37	14183.65
502.55	14080.66
502.72	14197.69
502.90	14359.19
503.07	14073.64
503.25	14228.12
503.43	14303.01
503.60	14520.68
503.78	14581.54
503.95	14555.79
504.13	14562.81
504.30	14705.59
504.48	14562.81
504.65	15033.26
504.83	15115.18
505.01	14958.36
505.18	15138.58
505.36	15077.73
505.53	14991.13
505.71	15119.86
505.88	15171.35
506.06	14897.51
506.23	15314.13
506.41	15482.64
506.58	15314.13
506.76	15152.63
506.93	15377.32
507.11	15248.59
507.28	15360.94
507.46	15620.74
507.63	15756.49
507.81	15763.51
507.98	15604.35
508.16	15674.57
508.33	15857.13
508.50	15742.44
508.68	15798.62
508.85	15941.39
509.03	15950.75
509.20	15981.18
509.38	16290.13
509.55	16166.08
509.73	16217.57
509.90	16475.03
510.08	16346.30
510.25	16397.79
510.42	16395.45
510.60	16301.83
510.77	16376.73
510.95	16460.99
511.12	16585.04
511.30	16638.87
511.47	16702.06
511.64	16791.00
511.82	16812.07
511.99	16992.29
512.17	17050.80
512.34	16713.77
512.51	16964.20
512.69	17036.76
512.86	17121.02
513.04	17050.80
513.21	17106.98
513.38	17156.13
513.56	17242.73
513.73	17315.28
513.90	17476.78
514.08	17355.07
514.25	17390.18
514.43	17399.54
514.60	17795.09
514.77	17561.04
514.95	17699.13
515.12	17624.23
515.29	17692.11
515.47	17998.72
515.64	17539.97
515.81	17612.53
515.99	17893.40
516.16	17813.82
516.33	18108.72
516.51	18017.44
516.68	17568.06
516.85	18207.03
517.03	18202.35
517.20	18256.18
517.37	18345.12
517.54	18223.41
517.72	18143.83
517.89	18331.08
518.06	18256.18
518.24	18478.53
518.41	18443.42
518.58	18174.26
518.75	18441.08
518.93	18382.57
519.10	18504.28
519.27	18663.43
519.45	18696.20
519.62	18548.75
519.79	18693.86
519.96	18789.82
520.14	18963.02
520.31	18640.03
520.48	19112.81
520.65	18927.91
520.83	19117.50
521.00	19002.81
521.17	19002.81
521.34	19138.56
521.52	19133.88
521.69	19054.30
521.86	19119.84
522.03	19508.37
522.20	19405.38
522.38	19314.10
522.55	19442.83
522.72	19655.82
522.89	19300.06
523.07	19517.73
523.24	19243.88
523.41	19857.10
523.58	19328.14
523.75	19613.69
523.92	19473.26
524.10	19676.88
524.27	19742.42
524.44	19864.13
524.61	19939.02
524.78	19943.70
524.96	20013.92
525.13	19908.60
525.30	19859.45
525.47	19910.94
525.64	20006.90
525.81	20013.92
525.98	20465.64
526.16	20210.53
526.33	20086.48
526.50	20233.93
526.67	20098.18
526.84	19992.86
527.01	20229.25
527.18	20093.50
527.36	20587.35
527.53	20570.97
527.70	20252.66
527.87	20505.43
528.04	20613.10
528.21	20540.54
528.38	20451.60
528.55	20575.65
528.72	20645.87
528.89	20938.43
529.07	20350.96
529.24	20542.88
529.41	20741.83
529.58	20753.53
529.75	20769.91
529.92	20666.93
530.09	20554.58
530.26	20821.41
530.43	21046.10
530.60	21001.63
530.77	21069.50
530.94	21081.21
531.11	20905.66
531.28	20830.77
531.46	21273.13
531.63	21057.80
531.80	20978.22
531.97	21493.14
532.14	21231.00
532.31	21294.19
532.48	21458.03
532.65	21551.65
532.82	21188.87
532.99	21158.44
533.16	21364.41
533.33	21500.16
533.50	21837.20
533.67	21668.68
533.84	21362.07
534.01	21804.43
534.18	21064.82
534.35	21652.30
534.52	21748.26
534.69	21640.59
534.86	21788.05
535.03	21708.47
535.20	21710.81
535.37	21867.63
535.54	21832.52
535.71	21542.29
535.88	21912.10
536.05	22178.92
536.22	21748.26
536.38	22066.57
536.55	21996.35
536.72	21776.34
536.89	22064.23
537.06	21994.01
537.23	21933.16
537.40	21757.62
537.57	22452.76
537.74	21886.35
537.91	22068.91
538.08	22122.74
538.25	22099.34
538.42	22286.58
538.59	22419.99
538.75	22216.36
538.92	22150.83
539.09	22476.16
539.26	22249.13
539.43	22396.59
539.60	22398.93
539.77	22387.22
539.94	22740.64
540.11	22654.05
540.28	22888.10
540.44	22473.82
540.61	22396.59
540.78	22469.14
540.95	22604.89
541.12	22546.38
541.29	22455.10
541.46	22576.81
541.62	22668.09
541.79	22436.38
541.96	22712.56
542.13	22532.34
542.30	22925.55
542.47	22721.92
542.63	23019.17
542.80	23204.07
542.97	23211.09
543.14	23400.68
543.31	23033.21
543.48	22874.06
543.64	23484.94
543.81	23339.82
543.98	23124.49
544.15	23761.12
544.32	23295.35
544.48	23325.78
544.65	22848.31
544.82	22923.21
544.99	23073.00
545.16	23374.93
545.32	23150.24
545.49	23641.75
545.66	23604.30
545.83	23419.40
546.00	23878.15
546.16	23108.11
546.33	23307.05
546.50	22869.37
546.67	23323.44
546.83	23159.60
547.00	23281.31
547.17	23634.73
547.34	23470.89
547.50	23714.31
547.67	23868.78
547.84	23569.19
548.00	23606.64
548.17	23817.29
548.34	23770.48
548.51	23981.13
548.67	23843.04
548.84	23810.27
549.01	23721.33
549.18	23744.73
549.34	23901.55
549.51	23695.58
549.68	23833.68
549.84	23632.39
550.01	23917.93
550.18	24140.29
550.34	24081.77
550.51	23899.21
550.68	24414.13
550.84	24056.03
551.01	24180.07
551.18	23901.55
551.34	23887.51
551.51	24102.84
551.68	24240.93
551.84	24308.80
552.01	24109.86
552.18	24500.73
552.34	23955.38
552.51	23917.93
552.68	24016.24
552.84	24058.37
553.01	24020.92
553.18	23934.32
553.34	24102.84
553.51	24421.15
553.67	24437.53
553.84	24489.03
554.01	24510.09
554.17	24306.46
554.34	24400.08
554.51	24116.88
554.67	24484.34
554.84	24397.74
555.00	24467.96
555.17	24577.97
555.33	24526.47
555.50	24348.59
555.67	24400.08
555.83	24084.11
556.00	24404.77
556.16	24790.95
556.33	24472.64
556.50	24343.91
556.66	24444.56
556.83	24247.95
556.99	24566.26
557.16	24739.46
557.32	24706.70
557.49	24435.19
557.65	24025.60
557.82	24393.06
557.98	24531.15
558.15	24327.53
558.32	24870.53
558.48	24687.97
558.65	24638.82
558.81	24489.03
558.98	24671.59
559.14	24931.39
559.31	24484.34
559.47	24456.26
559.64	24872.87
559.80	24734.78
559.97	25113.95
560.13	24685.63
560.30	24996.92
560.46	24931.39
560.63	24781.59
560.79	24463.28
560.96	24753.51
561.12	24795.64
561.29	24847.13
561.45	24706.70
561.61	24697.33
561.78	24758.19
561.94	24786.27
562.11	24624.78
562.27	24554.56
562.44	24716.06
562.60	24690.31
562.77	24772.23
562.93	24793.29
563.10	24929.05
563.26	25364.39
563.42	25071.82
563.59	25020.33
563.75	24917.34
563.92	25146.72
564.08	24929.05
564.24	24753.51
564.41	24826.06
564.57	24659.88
564.74	24706.70
564.90	25022.67
565.07	25043.73
565.23	25027.35
565.39	25137.35
565.56	25165.44
565.72	25060.12
565.88	25111.61
566.05	24797.98
566.21	24861.17
566.38	24893.94
566.54	24830.74
566.70	25027.35
566.87	25029.69
567.03	25172.46
567.19	25132.67
567.36	24847.13
567.52	24893.94
567.68	25095.22
567.85	24577.97
568.01	24870.53
568.17	24931.39
568.34	24884.58
568.50	24922.02
568.66	25191.19
568.83	25422.90
568.99	25067.14
569.15	25043.73
569.32	25020.33
569.48	25139.69
569.64	25256.72
569.81	24947.77
569.97	25177.14
570.13	25076.50
570.30	25383.11
570.46	25060.12
570.62	24922.02
570.78	24924.36
570.95	24812.02
571.11	24788.61
571.27	24837.76
571.43	25071.82
571.60	25350.34
571.76	25289.49
571.92	25053.09
572.09	24952.45
572.25	24999.26
572.41	25188.85
572.57	25006.28
572.74	25579.71
572.90	25081.18
573.06	25146.72
573.22	25165.44
573.38	25167.78
573.55	25191.19
573.71	25518.86
573.87	25352.68
574.03	24879.89
574.20	24971.18
574.36	25401.83
574.52	24989.90
574.68	24872.87
574.84	25261.40
575.01	25013.31
575.17	25270.76
575.33	25338.64
575.49	25132.67
575.65	25228.63
575.82	24971.18
575.98	25256.72
576.14	25191.19
576.30	25221.61
576.46	25127.99
576.62	25151.40
576.79	25628.87
576.95	25509.50
577.11	25050.75
577.27	25474.39
577.43	25167.78
577.59	25104.59
577.75	25235.66
577.92	25273.10
578.08	25263.74
578.24	24968.84
578.40	25167.78
578.56	24975.86
578.72	25539.93
578.88	25472.05
579.04	25043.73
579.21	25448.64
579.37	25240.34
579.53	25230.98
579.69	25359.70
579.85	24755.85
580.01	25235.66
580.17	25181.82
580.33	25331.62
580.49	25207.57
580.65	25441.62
580.82	25633.55
580.98	25095.22
581.14	25142.03
581.30	25294.17
581.46	25188.85
581.62	25212.25
581.78	24938.41
581.94	25387.79
582.10	25259.06
582.26	25441.62
582.42	25621.84
582.58	25448.64
582.74	25247.36
582.90	25294.17
583.06	25504.82
583.22	25427.58
583.38	25359.70
583.54	25369.07
583.70	25179.48
583.86	25181.82
584.02	25420.56
584.18	25050.75
584.34	25338.64
584.50	25427.58
584.66	25376.09
584.82	24989.90
584.98	25364.39
585.14	25331.62
585.30	25092.88
585.46	25376.09
585.62	25413.54
585.78	25521.20
585.94	25331.62
586.10	25521.20
586.26	25493.12
586.42	25209.91
586.58	25481.41
586.74	25497.80
586.90	25266.08
587.06	24851.81
587.22	25427.58
587.38	25399.49
587.54	25401.83
587.70	25652.27
587.86	25291.83
588.02	25474.39
588.18	25694.40
588.34	25277.79
588.49	25343.32
588.65	25331.62
588.81	25205.23
588.97	25315.23
589.13	25338.64
589.29	25362.04
589.45	25397.15
589.61	25495.46
589.77	25699.08
589.93	25652.27
590.08	25532.90
590.24	25755.26
590.40	25565.67
590.56	25668.66
590.72	25371.41
590.88	25160.76
591.04	25404.17
591.20	25678.02
591.35	25734.19
591.51	25970.58
591.67	25724.83
591.83	25319.92
591.99	25530.56
592.15	25488.43
592.31	25589.08
