SpectraSuite Data File
++++++++++++++++++++++++++++++++++++
Date: Fri Oct 04 11:48:47 GMT-05:00 2013
User: price-jones
Dark Spectrum Present: No
Reference Spectrum Present: No
Number of Sampled Component Spectra: 1
Spectrometers: USB2+H05261
Integration Time (usec): 100000 (USB2+H05261)
Spectra Averaged: 1 (USB2+H05261)
Boxcar Smoothing: 0 (USB2+H05261)
Correct for Electrical Dark: No (USB2+H05261)
Strobe/Lamp Enabled: No (USB2+H05261)
Correct for Detector Non-linearity: No (USB2+H05261)
Correct for Stray Light: No (USB2+H05261)
Number of Pixels in Processed Spectrum: 2048
>>>>>Begin Processed Spectral Data<<<<<
365.73	0.00
365.92	0.00
366.12	0.00
366.32	0.00
366.52	0.00
366.72	0.00
366.91	0.00
367.11	0.00
367.31	0.00
367.51	0.00
367.70	0.00
367.90	0.00
368.10	0.00
368.30	0.00
368.49	0.00
368.69	0.00
368.89	0.00
369.09	0.00
369.28	0.00
369.48	0.00
369.68	0.00
369.87	0.00
370.07	25.75
370.27	0.00
370.47	16.38
370.66	241.08
370.86	355.76
371.06	397.89
371.25	465.77
371.45	346.40
371.65	414.27
371.84	325.33
372.04	409.59
372.24	416.62
372.44	479.81
372.63	491.51
372.83	465.77
373.03	437.68
373.22	503.22
373.42	456.40
373.62	461.09
373.81	526.62
374.01	587.47
374.21	507.90
374.40	489.17
374.60	526.62
374.79	519.60
374.99	561.73
375.19	613.22
375.38	451.72
375.58	521.94
375.78	531.30
375.97	568.75
376.17	564.07
376.37	543.00
376.56	573.43
376.76	512.58
376.95	566.41
377.15	545.34
377.35	634.29
377.54	587.47
377.74	533.64
377.93	568.75
378.13	648.33
378.33	629.60
378.52	578.11
378.72	594.50
378.91	580.45
379.11	641.31
379.31	610.88
379.50	601.52
379.70	716.20
379.89	755.99
380.09	641.31
380.28	594.50
380.48	653.01
380.68	622.58
380.87	645.99
381.07	662.37
381.26	706.84
381.46	603.86
381.65	767.70
381.85	671.73
382.04	683.44
382.24	760.67
382.43	662.37
382.63	692.80
382.83	716.20
383.02	802.80
383.22	739.61
383.41	730.25
383.61	643.65
383.80	716.20
384.00	730.25
384.19	791.10
384.39	793.44
384.58	770.04
384.78	720.88
384.97	788.76
385.17	770.04
385.36	800.46
385.56	835.57
385.75	788.76
385.95	903.45
386.14	868.34
386.34	800.46
386.53	784.08
386.72	840.25
386.92	915.15
387.11	884.72
387.31	856.64
387.50	835.57
387.70	901.11
387.89	950.26
388.09	924.51
388.28	971.32
388.48	854.30
388.67	880.04
388.86	954.94
389.06	903.45
389.25	945.58
389.45	943.24
389.64	931.53
389.84	1081.33
390.03	915.15
390.22	959.62
390.42	959.62
390.61	971.32
390.81	964.30
391.00	966.64
391.19	1111.75
391.39	905.79
391.58	1029.84
391.78	1137.50
391.97	1064.94
392.16	1102.39
392.36	1142.18
392.55	1104.73
392.75	1008.77
392.94	1067.28
393.13	1104.73
393.33	1013.45
393.52	1039.20
393.71	1156.22
393.91	1212.40
394.10	1088.35
394.29	1170.27
394.49	1151.54
394.68	1214.74
394.88	1280.27
395.07	1078.99
395.26	1200.69
395.46	1287.29
395.65	1235.80
395.84	1256.87
396.04	1320.06
396.23	1266.23
396.42	1224.10
396.62	1270.91
396.81	1287.29
397.00	1308.36
397.19	1397.30
397.39	1275.59
397.58	1380.92
397.77	1343.47
397.97	1364.53
398.16	1385.60
398.35	1465.18
398.55	1383.26
398.74	1537.73
398.93	1409.00
399.12	1481.56
399.32	1425.39
399.51	1416.02
399.70	1430.07
399.90	1437.09
400.09	1591.56
400.28	1495.60
400.47	1453.47
400.67	1502.62
400.86	1591.56
401.05	1547.09
401.24	1575.18
401.44	1584.54
401.63	1502.62
401.82	1687.53
402.01	1645.40
402.21	1668.80
402.40	1678.16
402.59	1699.23
402.78	1696.89
402.97	1664.12
403.17	1755.40
403.36	1760.08
403.55	1666.46
403.74	1802.21
403.93	1825.62
404.13	1849.02
404.32	1891.15
404.51	1792.85
404.70	2024.56
404.89	1937.96
405.09	1914.56
405.28	2022.22
405.47	1905.20
405.66	1977.75
405.85	1959.03
406.05	1959.03
406.24	1900.52
406.43	2022.22
406.62	2069.03
406.81	2078.40
407.00	2176.70
407.20	2069.03
407.39	2071.37
407.58	2057.33
407.77	2120.53
407.96	2125.21
408.15	2232.87
408.34	2284.36
408.54	2214.15
408.73	2368.62
408.92	2375.64
409.11	2354.58
409.30	2352.24
409.49	2387.35
409.68	2394.37
409.87	2352.24
410.07	2471.61
410.26	2354.58
410.45	2485.65
410.64	2473.95
410.83	2422.45
411.02	2532.46
411.21	2621.40
411.40	2576.93
411.59	2511.39
411.78	2656.51
411.98	2658.85
412.17	2663.53
412.36	2661.19
412.55	2679.91
412.74	2801.62
412.93	2782.90
413.12	2743.11
413.31	2946.73
413.50	2775.88
413.69	3035.67
413.88	2965.46
414.07	2979.50
414.26	3033.33
414.45	3047.38
414.64	3028.65
414.83	3183.13
415.02	3190.15
415.22	3166.74
415.41	3316.54
415.60	3267.39
415.79	3295.47
415.98	3396.12
416.17	3328.24
416.36	3269.73
416.55	3379.73
416.74	3346.97
416.93	3403.14
417.12	3365.69
417.31	3541.23
417.50	3574.00
417.69	3557.61
417.88	3478.04
418.07	3555.27
418.26	3562.30
418.45	3723.79
418.64	3786.99
418.83	4018.70
419.02	3709.75
419.21	3882.95
419.39	3777.62
419.58	3686.34
419.77	3611.45
419.96	3904.01
420.15	3915.72
420.34	3864.22
420.53	3831.46
420.72	3929.76
420.91	3967.21
421.10	3962.53
421.29	3992.95
421.48	3899.33
421.67	3997.64
421.86	4016.36
422.05	4163.81
422.24	3925.08
422.43	4121.68
422.61	4095.94
422.80	4037.42
422.99	4182.54
423.18	4175.52
423.37	4283.18
423.56	4407.23
423.75	4234.03
423.94	4175.52
424.13	3843.16
424.32	4007.00
424.50	4248.07
424.69	4311.27
424.88	4315.95
425.07	4175.52
425.26	4198.92
425.45	4142.75
425.64	4152.11
425.83	4159.13
426.01	4306.59
426.20	4227.01
426.39	4170.83
426.58	4297.22
426.77	4315.95
426.96	4437.66
427.15	4304.25
427.33	4409.57
427.52	4255.09
427.71	4381.48
427.90	4367.44
428.09	4400.21
428.28	4571.07
428.46	4662.35
428.65	4606.17
428.84	4720.86
429.03	4891.72
429.22	4566.39
429.40	4720.86
429.59	4643.62
429.78	4430.63
429.97	4486.81
430.16	4573.41
430.34	4720.86
430.53	4751.29
430.72	4727.88
430.91	4636.60
431.10	4816.82
431.28	4929.17
431.47	4856.61
431.66	4868.31
431.85	5001.72
432.03	5027.47
432.22	5095.35
432.41	5055.56
432.60	5121.09
432.79	4889.38
432.97	5083.64
433.16	5123.43
433.35	5055.56
433.54	5109.39
433.72	5294.29
433.91	5109.39
434.10	5310.68
434.28	5254.50
434.47	5287.27
434.66	5364.51
434.85	5174.92
435.03	5413.66
435.22	5544.73
435.41	5626.65
435.59	5425.36
435.78	5533.03
435.97	5268.55
436.16	5397.28
436.34	5437.06
436.53	5486.22
436.72	5746.02
436.90	5633.67
437.09	5673.46
437.28	5593.88
437.46	5570.48
437.65	5657.07
437.84	5612.60
438.02	5846.66
438.21	5753.04
438.40	5624.31
438.58	5778.78
438.77	5858.36
438.96	6033.90
439.14	6031.56
439.33	6111.14
439.52	6104.12
439.70	6272.64
439.89	6174.33
440.08	6328.81
440.26	6230.51
440.45	6326.47
440.63	6286.68
440.82	6530.09
441.01	6242.21
441.19	6497.33
441.38	6630.74
441.57	6703.29
441.75	6651.80
441.94	6668.19
442.12	6743.08
442.31	7021.61
442.50	6829.68
442.68	6981.82
442.87	7000.54
443.05	6998.20
443.24	7119.91
443.43	6860.11
443.61	6988.84
443.80	7148.00
443.98	7068.42
444.17	6820.32
444.35	7080.12
444.54	7260.34
444.73	7122.25
444.91	6984.16
445.10	7016.93
445.28	7192.47
445.47	7229.91
445.65	7131.61
445.84	7126.93
446.02	7208.85
446.21	7105.87
446.39	7112.89
446.58	7199.49
446.77	7353.96
446.95	7098.84
447.14	7178.42
447.32	7332.90
447.51	7199.49
447.69	7241.62
447.88	7412.48
448.06	7279.07
448.25	7459.29
448.43	7033.31
448.62	7304.81
448.80	7351.62
448.99	7428.86
449.17	7543.55
449.36	7353.96
449.54	7499.08
449.73	7611.42
449.91	7653.55
450.10	7747.17
450.28	7632.49
450.46	7583.34
450.65	7705.04
450.83	7819.73
451.02	7653.55
451.20	7948.46
451.39	7964.84
451.57	7918.03
451.76	7899.31
451.94	7939.10
452.13	7985.91
452.31	7873.56
452.49	7896.97
452.68	7997.61
452.86	8170.81
453.05	7826.75
453.23	8070.17
453.42	8060.80
453.60	7950.80
453.78	8126.34
453.97	7992.93
454.15	7997.61
454.34	8112.30
454.52	8276.13
454.70	8528.91
454.89	8285.50
455.07	8203.58
455.26	8222.30
455.44	8479.76
455.62	8580.40
455.81	8266.77
455.99	8449.33
456.17	8678.71
456.36	8685.73
456.54	8697.43
456.73	8631.90
456.91	9022.77
457.09	8753.60
457.28	8957.23
457.46	8828.50
457.64	8957.23
457.83	8964.25
458.01	8884.67
458.19	9076.60
458.38	8959.57
458.56	9364.48
458.74	9167.88
458.93	9123.41
459.11	9179.58
459.29	9387.89
459.48	9198.31
459.66	9238.09
459.84	9308.31
460.03	9551.73
460.21	9458.10
460.39	9476.83
460.57	9261.50
460.76	9685.14
460.94	9577.47
461.12	9434.70
461.31	9488.53
461.49	9621.94
461.67	9600.88
461.85	9933.23
462.04	9673.43
462.22	10125.16
462.40	9926.21
462.59	9844.29
462.77	9928.55
462.95	9975.36
463.13	10008.13
463.32	10094.73
463.50	10141.54
463.68	9877.06
463.86	10108.77
464.05	9994.09
464.23	9839.61
464.41	10073.67
464.59	9612.58
464.78	10256.23
464.96	10097.07
465.14	10162.61
465.32	10216.44
465.50	10249.21
465.69	10576.88
465.87	10354.53
466.05	10272.61
466.23	10251.55
466.41	10553.48
466.60	10813.28
466.78	10668.16
466.96	10263.25
467.14	10532.41
467.32	10546.45
467.51	10778.17
467.69	10579.22
467.87	10696.25
468.05	10644.76
468.23	10766.46
468.41	10801.57
468.60	10736.04
468.78	11089.46
468.96	10586.24
469.14	10972.43
469.32	11157.33
469.50	10724.33
469.69	11117.54
469.87	11323.51
470.05	11250.96
470.23	11215.85
470.41	11122.23
470.59	11276.70
470.77	11007.54
470.95	11250.96
471.14	11573.95
471.32	11159.67
471.50	11569.27
471.68	11597.35
471.86	11810.34
472.04	11646.51
472.22	11714.38
472.40	11527.14
472.58	11719.06
472.77	11840.77
472.95	11906.31
473.13	12489.10
473.31	11988.22
473.49	11836.09
473.67	12184.83
473.85	11868.86
474.03	12489.10
474.21	12430.59
474.39	12486.76
474.57	12482.08
474.75	12578.04
474.93	12994.65
475.12	12858.90
475.30	12746.56
475.48	12793.37
475.66	13027.42
475.84	12917.42
476.02	13256.79
476.20	12957.21
476.38	13444.04
476.56	13619.58
476.74	13657.03
476.92	13273.18
477.10	13432.33
477.28	13696.82
477.46	13944.91
477.64	13973.00
477.82	14157.90
478.00	14600.26
478.18	14340.46
478.36	14532.39
478.54	14719.63
478.72	14801.55
478.90	14822.61
479.08	14988.79
479.26	15136.24
479.44	14979.43
479.62	15176.03
479.80	15403.07
479.98	15484.98
480.16	15555.20
480.34	15517.75
480.52	15873.51
480.70	15829.04
480.88	16121.61
481.06	16016.29
481.24	15709.68
481.41	16067.78
481.59	16283.11
481.77	16847.18
481.95	16746.53
482.13	16851.86
482.31	17011.01
482.49	17359.75
482.67	16912.71
482.85	17516.57
483.03	17818.50
483.21	17996.38
483.39	18085.32
483.57	18043.19
483.74	18038.51
483.92	18295.97
484.10	17984.68
484.28	18508.96
484.46	19026.21
484.64	19206.44
484.82	18745.35
485.00	19173.67
485.18	19239.20
485.35	19412.40
485.53	19807.95
485.71	19653.48
485.89	20168.40
486.07	19957.75
486.25	19702.63
486.43	20219.89
486.61	20421.17
486.78	20692.68
486.96	20783.96
487.14	21322.28
487.32	21006.31
487.50	21022.69
487.68	21163.12
487.85	21530.59
488.03	21982.31
488.21	21921.46
488.39	22153.17
488.57	22288.92
488.75	22274.88
488.92	23056.62
489.10	22941.93
489.28	23061.30
489.46	23241.52
489.64	23119.81
489.81	23267.27
489.99	23461.53
490.17	23711.97
490.35	24226.89
490.53	24112.20
490.70	24435.19
490.88	24500.73
491.06	24947.77
491.24	24711.38
491.41	24964.15
491.59	25083.52
491.77	24978.20
491.95	25268.42
492.13	25509.50
492.30	25369.07
492.48	26064.21
492.66	25748.23
492.84	25919.09
493.01	26487.84
493.19	26441.03
493.37	26705.51
493.54	26656.36
493.72	26801.47
493.90	26689.13
494.08	27084.68
494.25	27054.25
494.43	27484.91
494.61	27711.94
494.79	27983.44
494.96	27615.98
495.14	28144.94
495.32	28577.94
495.49	28599.01
495.67	28510.07
495.85	29085.84
496.02	29071.79
496.20	29296.49
496.38	28985.19
496.55	29006.26
496.73	29846.51
496.91	29284.78
497.09	29830.13
497.26	30054.82
497.44	30143.76
497.62	30319.30
497.79	30359.09
497.97	30684.42
498.14	30649.32
498.32	31047.21
498.50	31194.66
498.67	31527.02
498.85	31166.57
499.03	31496.59
499.20	31145.51
499.38	31604.25
499.56	32027.89
499.73	32128.53
499.91	31899.16
500.08	32194.07
500.26	32027.89
500.44	31798.52
500.61	32442.17
500.79	32439.82
500.97	33076.45
501.14	33113.90
501.32	33472.00
501.49	33071.77
501.67	33219.22
501.84	33563.28
502.02	33572.64
502.20	33457.96
502.37	33713.08
502.55	33792.65
502.72	33919.04
502.90	33640.52
503.07	33872.23
503.25	33989.26
503.43	34295.87
503.60	34539.29
503.78	34410.56
503.95	34515.88
504.13	34838.87
504.30	35086.97
504.48	34579.07
504.65	35058.88
504.83	35292.94
505.01	35646.36
505.18	35737.64
505.36	35391.24
505.53	35564.44
505.71	35807.86
505.88	35917.86
506.06	35416.99
506.23	36212.77
506.41	36285.33
506.58	35934.24
506.76	35995.10
506.93	36341.50
507.11	36133.19
507.28	36533.42
507.46	36680.88
507.63	37027.28
507.81	37289.42
507.98	36751.09
508.16	37156.00
508.33	37347.93
508.50	37399.42
508.68	37439.21
508.85	37919.02
509.03	37993.92
509.20	38387.13
509.38	38183.50
509.55	38270.10
509.73	38068.81
509.90	38394.15
510.08	38040.73
510.25	38190.52
510.42	38768.63
510.60	38569.69
510.77	39033.11
510.95	39402.92
511.12	38747.57
511.30	38714.80
511.47	39658.04
511.64	39414.62
511.82	39672.08
511.99	39852.30
512.17	39423.98
512.34	39613.57
512.51	40095.72
512.69	40245.51
512.86	40053.59
513.04	40362.54
513.21	40470.20
513.38	40154.23
513.56	40694.89
513.73	40671.49
513.90	40720.64
514.08	41153.64
514.25	40989.80
514.43	41373.65
514.60	41010.87
514.77	41170.02
514.95	41474.29
515.12	41432.16
515.29	41038.95
515.47	42019.64
515.64	41752.82
515.81	41670.90
515.99	41940.06
516.16	42382.42
516.33	42457.32
516.51	42440.93
516.68	42096.88
516.85	41818.35
517.03	42256.03
517.20	42794.36
517.37	42705.41
517.54	42892.66
517.72	42733.50
517.89	42644.56
518.06	42890.32
518.24	42986.28
518.41	42831.80
518.58	43405.23
518.75	43234.38
518.93	43281.19
519.10	43276.51
519.27	43723.55
519.45	43564.39
519.62	43995.05
519.79	44088.67
519.96	44123.78
520.14	44421.03
520.31	43807.81
520.48	44388.26
520.65	44196.34
520.83	44453.79
521.00	44666.78
521.17	44147.18
521.34	44760.40
521.52	44596.57
521.69	45130.21
521.86	45027.23
522.03	45244.90
522.20	45525.76
522.38	45132.55
522.55	45247.24
522.72	45511.72
522.89	45462.57
523.07	46122.60
523.24	45698.96
523.41	45815.99
523.58	45127.87
523.75	45830.03
523.92	45914.29
524.10	45858.12
524.27	46410.48
524.44	46557.94
524.61	46574.32
524.78	46326.22
524.96	46579.00
525.13	46696.03
525.30	46401.12
525.47	46410.48
525.64	46735.82
525.81	46564.96
525.98	47014.34
526.16	46909.02
526.33	46913.70
526.50	46782.63
526.67	47133.71
526.84	47131.37
527.01	46958.17
527.18	47157.11
527.36	47445.00
527.53	47562.03
527.70	47791.40
527.87	47674.37
528.04	47629.90
528.21	47943.53
528.38	47676.71
528.55	47732.89
528.72	47821.83
528.89	48278.23
529.07	47990.34
529.24	48189.29
529.41	48292.27
529.58	48072.26
529.75	48273.55
529.92	48135.46
530.09	48325.04
530.26	48341.42
530.43	48645.69
530.60	48299.30
530.77	48278.23
530.94	48751.02
531.11	48645.69
531.28	48502.92
531.46	48938.26
531.63	48641.01
531.80	48898.47
531.97	48802.51
532.14	48561.44
532.31	48903.15
532.48	48797.83
532.65	49113.80
532.82	48823.58
532.99	49324.45
533.16	49378.28
533.33	49450.84
533.50	49792.56
533.67	49729.36
533.84	49272.96
534.01	49581.91
534.18	49399.35
534.35	49701.28
534.52	49799.58
534.69	49956.39
534.86	50190.45
535.03	49464.88
535.20	50309.82
535.37	49579.57
535.54	50169.38
535.71	49619.36
535.88	50263.00
536.05	50162.36
536.22	50490.04
536.38	50190.45
536.55	50354.29
536.72	50658.56
536.89	49888.52
537.06	50422.16
537.23	50473.65
537.40	50829.41
537.57	50602.38
537.74	50649.19
537.91	50960.48
538.08	51072.83
538.25	50635.15
538.42	50817.71
538.59	50815.37
538.75	50923.04
538.92	50597.70
539.09	50679.62
539.26	51004.95
539.43	51157.09
539.60	51103.26
539.77	51220.28
539.94	51547.96
540.11	51196.88
540.28	51498.81
540.44	51267.09
540.61	51185.18
540.78	51192.20
540.95	51517.53
541.12	51522.21
541.29	51433.27
541.46	51363.06
541.62	51700.09
541.79	51311.56
541.96	50958.14
542.13	51583.07
542.30	51814.78
542.47	51995.00
542.63	51992.66
542.80	51863.93
542.97	52247.78
543.14	52268.84
543.31	52154.16
543.48	52205.65
543.64	52369.49
543.81	52591.84
543.98	52804.83
544.15	52402.25
544.32	52390.55
544.48	52804.83
544.65	52624.60
544.82	52605.88
544.99	52437.36
545.16	52650.35
545.32	52465.45
545.49	52905.47
545.66	52795.46
545.83	52825.89
546.00	53031.86
546.16	52928.87
546.33	52413.96
546.50	52432.68
546.67	52849.30
546.83	52690.14
547.00	52804.83
547.17	52788.44
547.34	52767.38
547.50	52884.40
547.67	53106.76
547.84	53071.65
548.00	53265.91
548.17	53249.53
548.34	52973.34
548.51	53183.99
548.67	53521.03
548.84	53605.29
549.01	53296.34
549.18	53102.07
549.34	53001.43
549.51	53221.44
549.68	53305.70
549.84	53453.15
550.01	53506.99
550.18	53525.71
550.34	53532.73
550.51	53682.53
550.68	53598.27
550.84	53631.04
551.01	53504.65
551.18	53352.51
551.34	53584.22
551.51	53612.31
551.68	53717.64
551.84	53923.60
552.01	53932.96
552.18	53986.80
552.34	53914.24
552.51	54113.19
552.68	53743.38
552.84	53743.38
553.01	54087.44
553.18	54124.89
553.34	54260.64
553.51	53787.85
553.67	54209.15
553.84	54447.88
554.01	54396.39
554.17	54190.42
554.34	54223.19
554.51	54244.26
554.67	54578.95
554.84	54529.80
555.00	54515.76
555.17	54202.13
555.33	54466.61
555.50	54274.68
555.67	54181.06
555.83	54372.99
556.00	54461.93
556.16	54642.15
556.33	54218.51
556.50	54424.48
556.66	54754.49
556.83	54522.78
556.99	54869.18
557.16	54817.69
557.32	54885.56
557.49	54768.54
557.65	54197.44
557.82	54578.95
557.98	54529.80
558.15	54766.20
558.32	54574.27
558.48	54588.31
558.65	54958.12
558.81	55023.65
558.98	54515.76
559.14	54850.45
559.31	54637.47
559.47	54796.62
559.64	54878.54
559.80	55091.53
559.97	55119.62
560.13	54883.22
560.30	55040.04
560.46	55290.48
560.63	55096.21
560.79	55206.22
560.96	55365.37
561.12	54906.63
561.29	54810.67
561.45	55145.36
561.61	55274.09
561.78	54911.31
561.94	55238.98
562.11	54941.74
562.27	55175.79
562.44	55100.89
562.60	55117.28
562.77	55168.77
562.93	55264.73
563.10	55545.59
563.26	55093.87
563.42	55463.67
563.59	55182.81
563.75	55248.35
563.92	55573.68
564.08	55049.40
564.24	55192.17
564.41	55224.94
564.57	55248.35
564.74	55299.84
564.90	55505.80
565.07	55587.72
565.23	55849.86
565.39	55466.02
565.56	55639.22
565.72	55360.69
565.88	55653.26
566.05	55288.13
566.21	55437.93
566.38	55292.82
566.54	55185.15
566.70	55669.64
566.87	55669.64
567.03	55547.93
567.19	55789.01
567.36	55405.16
567.52	55379.42
567.68	55381.76
567.85	55655.60
568.01	55569.00
568.17	55370.05
568.34	55810.07
568.50	55943.48
568.66	55545.59
568.83	55835.82
568.99	55671.98
569.15	55480.06
569.32	55580.70
569.48	55367.71
569.64	55569.00
569.81	55679.00
569.97	55608.79
570.13	55657.94
570.30	55814.76
570.46	55716.45
570.62	55695.39
570.78	55854.54
570.95	55463.67
571.11	55660.28
571.27	55531.55
571.43	55681.34
571.60	55683.69
571.76	55606.45
571.92	55793.69
572.09	55524.53
572.25	55749.22
572.41	55746.88
572.57	55962.21
572.74	55868.59
572.90	55641.56
573.06	55753.90
573.22	55667.30
573.38	56030.08
573.55	56044.13
573.71	56039.45
573.87	56172.86
574.03	56067.53
574.20	55938.80
574.36	55777.31
574.52	55938.80
574.68	55978.59
574.84	55817.10
575.01	56128.39
575.17	56090.94
575.33	55915.40
575.49	55810.07
575.65	56025.40
575.82	56074.55
575.98	55835.82
576.14	56023.06
576.30	55774.97
576.46	55957.53
576.62	55891.99
576.79	55943.48
576.95	55917.74
577.11	55899.01
577.27	55882.63
577.43	56074.55
577.59	55966.89
577.75	55889.65
577.92	55688.37
578.08	55929.44
578.24	55969.23
578.40	55887.31
578.56	56018.38
578.72	56037.11
578.88	56261.80
579.04	56114.34
579.21	55760.92
579.37	55833.48
579.53	56088.60
579.69	55999.66
579.85	56016.04
580.01	56184.56
580.17	56016.04
580.33	56041.79
580.49	56062.85
580.65	56406.91
580.82	56261.80
580.98	56161.15
581.14	56240.73
581.30	56130.73
581.46	56116.68
581.62	55875.61
581.78	55875.61
581.94	56023.06
582.10	56079.24
582.26	56067.53
582.42	55985.61
582.58	56577.77
582.74	56032.42
582.90	56140.09
583.06	56332.01
583.22	56058.17
583.38	56301.59
583.54	56165.84
583.70	56142.43
583.86	56205.62
584.02	56243.07
584.18	56175.20
584.34	56217.33
584.50	56289.88
584.66	56385.85
584.82	55957.53
584.98	56374.14
585.14	56266.48
585.30	56079.24
585.46	56203.28
585.62	56044.13
585.78	56390.53
585.94	56041.79
586.10	56226.69
586.26	56535.64
586.42	56430.32
586.58	56437.34
586.74	56222.01
586.90	55877.95
587.06	56088.60
587.22	56128.39
587.38	55976.25
587.54	56383.51
587.70	56465.42
587.86	56624.58
588.02	56472.45
588.18	56547.34
588.34	56193.92
588.49	56343.72
588.65	56013.70
588.81	56500.53
588.97	56299.25
589.13	56310.95
589.29	56207.97
589.45	56430.32
589.61	56376.48
589.77	56825.87
