SpectraSuite Data File
++++++++++++++++++++++++++++++++++++
Date: Fri Oct 04 11:48:25 GMT-05:00 2013
User: price-jones
Dark Spectrum Present: No
Reference Spectrum Present: No
Number of Sampled Component Spectra: 1
Spectrometers: USB2+H05261
Integration Time (usec): 100000 (USB2+H05261)
Spectra Averaged: 1 (USB2+H05261)
Boxcar Smoothing: 0 (USB2+H05261)
Correct for Electrical Dark: No (USB2+H05261)
Strobe/Lamp Enabled: No (USB2+H05261)
Correct for Detector Non-linearity: No (USB2+H05261)
Correct for Stray Light: No (USB2+H05261)
Number of Pixels in Processed Spectrum: 2048
>>>>>Begin Processed Spectral Data<<<<<
365.73	77.24
365.92	77.24
366.12	77.24
366.32	0.00
366.52	0.00
366.72	0.00
366.91	0.00
367.11	0.00
367.31	0.00
367.51	0.00
367.70	0.00
367.90	0.00
368.10	0.00
368.30	0.00
368.49	0.00
368.69	0.00
368.89	0.00
369.09	0.00
369.28	0.00
369.48	0.00
369.68	0.00
369.87	0.00
370.07	0.00
370.27	4.68
370.47	67.88
370.66	252.78
370.86	236.39
371.06	369.80
371.25	348.74
371.45	266.82
371.65	290.23
371.84	264.48
372.04	257.46
372.24	306.61
372.44	376.83
372.63	374.49
372.83	404.91
373.03	440.02
373.22	388.53
373.42	353.42
373.62	421.30
373.81	369.80
374.01	416.62
374.21	360.44
374.40	404.91
374.60	390.87
374.79	430.66
374.99	376.83
375.19	400.23
375.38	437.68
375.58	411.93
375.78	456.40
375.97	423.64
376.17	435.34
376.37	395.55
376.56	500.87
376.76	407.25
376.95	447.04
377.15	496.19
377.35	454.06
377.54	444.70
377.74	444.70
377.93	428.32
378.13	512.58
378.33	491.51
378.52	486.83
378.72	454.06
378.91	463.43
379.11	479.81
379.31	465.77
379.50	524.28
379.70	514.92
379.89	512.58
380.09	454.06
380.28	395.55
380.48	496.19
380.68	500.87
380.87	521.94
381.07	454.06
381.26	592.16
381.46	456.40
381.65	472.79
381.85	440.02
382.04	533.64
382.24	552.37
382.43	510.24
382.63	505.56
382.83	552.37
383.02	571.09
383.22	580.45
383.41	507.90
383.61	512.58
383.80	528.96
384.00	535.98
384.19	482.15
384.39	578.11
384.58	589.82
384.78	580.45
384.97	627.26
385.17	620.24
385.36	540.66
385.56	594.50
385.75	622.58
385.95	678.76
386.14	657.69
386.34	538.32
386.53	552.37
386.72	585.13
386.92	603.86
387.11	613.22
387.31	685.78
387.50	669.39
387.70	674.07
387.89	702.16
388.09	690.46
388.28	655.35
388.48	615.56
388.67	697.48
388.86	751.31
389.06	741.95
389.25	671.73
389.45	732.59
389.64	760.67
389.84	746.63
390.03	699.82
390.22	641.31
390.42	774.72
390.61	674.07
390.81	763.01
391.00	788.76
391.19	779.40
391.39	765.36
391.58	851.96
391.78	706.84
391.97	812.17
392.16	767.70
392.36	802.80
392.55	830.89
392.75	767.70
392.94	809.83
393.13	678.76
393.33	905.79
393.52	866.00
393.71	842.59
393.91	915.15
394.10	889.40
394.29	793.44
394.49	894.08
394.68	868.34
394.88	880.04
395.07	952.60
395.26	858.98
395.46	983.02
395.65	961.96
395.84	903.45
396.04	987.71
396.23	978.34
396.42	990.05
396.62	976.00
396.81	924.51
397.00	950.26
397.19	891.74
397.39	964.30
397.58	1048.56
397.77	1011.11
397.97	1076.65
398.16	999.41
398.35	1008.77
398.55	1055.58
398.74	997.07
398.93	1032.18
399.12	1036.86
399.32	1095.37
399.51	1114.10
399.70	1198.35
399.90	1205.38
400.09	1160.91
400.28	1266.23
400.47	1116.44
400.67	1160.91
400.86	1151.54
401.05	1240.48
401.24	1249.85
401.44	1207.72
401.63	1252.19
401.82	1207.72
402.01	1266.23
402.21	1247.51
402.40	1203.04
402.59	1245.16
402.78	1299.00
402.97	1313.04
403.17	1266.23
403.36	1263.89
403.55	1217.08
403.74	1404.32
403.93	1399.64
404.13	1401.98
404.32	1289.64
404.51	1451.13
404.70	1427.73
404.89	1416.02
405.09	1394.96
405.28	1479.22
405.47	1469.86
405.66	1547.09
405.85	1359.85
406.05	1554.12
406.24	1425.39
406.43	1516.67
406.62	1631.35
406.81	1661.78
407.00	1533.05
407.20	1568.16
407.39	1565.82
407.58	1764.76
407.77	1645.40
407.96	1703.91
408.15	1629.01
408.34	1640.72
408.54	1743.70
408.73	1706.25
408.92	1727.32
409.11	1760.08
409.30	1743.70
409.49	1760.08
409.68	1818.60
409.87	1839.66
410.07	1820.94
410.26	1916.90
410.45	1863.07
410.64	1846.68
410.83	1952.01
411.02	1968.39
411.21	1912.22
411.40	1895.83
411.59	1928.60
411.78	1980.09
411.98	2029.24
412.17	1984.77
412.36	2038.61
412.55	2139.25
412.74	2190.74
412.93	2216.49
413.12	2186.06
413.31	2232.87
413.50	2193.08
413.69	2176.70
413.88	2310.11
414.07	2363.94
414.26	2310.11
414.45	2242.23
414.64	2298.41
414.83	2459.90
415.02	2457.56
415.22	2420.11
415.41	2387.35
415.60	2476.29
415.79	2492.67
415.98	2478.63
416.17	2525.44
416.36	2373.30
416.55	2445.86
416.74	2427.14
416.93	2506.71
417.12	2532.46
417.31	2569.91
417.50	2738.43
417.69	2808.64
417.88	2773.53
418.07	2794.60
418.26	2700.98
418.45	2897.58
418.64	2862.48
418.83	2832.05
419.02	2813.32
419.21	2810.98
419.39	2841.41
419.58	2946.73
419.77	2906.95
419.96	2899.92
420.15	3021.63
420.34	2904.60
420.53	3080.14
420.72	2897.58
420.91	3089.51
421.10	3000.57
421.29	3061.42
421.48	2986.52
421.67	3040.36
421.86	3105.89
422.05	3185.47
422.24	3047.38
422.43	3026.31
422.61	3218.24
422.80	3080.14
422.99	3199.51
423.18	3115.25
423.37	3145.68
423.56	3148.02
423.75	3133.98
423.94	3124.62
424.13	3108.23
424.32	2963.12
424.50	3178.45
424.69	3279.09
424.88	3351.65
425.07	3098.87
425.26	3141.00
425.45	3169.09
425.64	3084.83
425.83	3262.71
426.01	3295.47
426.20	3126.96
426.39	3243.98
426.58	3309.52
426.77	3267.39
426.96	3295.47
427.15	3180.79
427.33	3351.65
427.52	3433.57
427.71	3389.10
427.90	3344.63
428.09	3368.03
428.28	3424.20
428.46	3384.41
428.65	3335.26
428.84	3475.70
429.03	3585.70
429.22	3353.99
429.40	3581.02
429.59	3646.55
429.78	3290.79
429.97	3440.59
430.16	3344.63
430.34	3569.32
430.53	3695.71
430.72	3637.19
430.91	3548.25
431.10	3679.32
431.28	3634.85
431.47	3754.22
431.66	3772.94
431.85	3669.96
432.03	3744.86
432.22	3887.63
432.41	3646.55
432.60	3817.41
432.79	3723.79
432.97	3822.09
433.16	3873.59
433.35	3770.60
433.54	3894.65
433.72	3925.08
433.91	3999.98
434.10	3875.93
434.28	3896.99
434.47	3805.71
434.66	4053.81
434.85	3995.29
435.03	4109.98
435.22	3948.48
435.41	4126.36
435.59	4060.83
435.78	4189.56
435.97	4241.05
436.16	4248.07
436.34	4173.18
436.53	4009.34
436.72	4086.58
436.90	4276.16
437.09	4252.75
437.28	4245.73
437.46	4348.72
437.65	4243.39
437.84	4266.80
438.02	4423.61
438.21	4264.46
438.40	4208.28
438.58	4472.76
438.77	4395.53
438.96	4475.10
439.14	4395.53
439.33	4662.35
439.52	4615.54
439.70	4608.51
439.89	4695.11
440.08	4732.56
440.26	4660.01
440.45	4880.02
440.63	4957.25
440.82	4952.57
441.01	4821.50
441.19	4819.16
441.38	4891.72
441.57	4936.19
441.75	5029.81
441.94	5268.55
442.12	5200.67
442.31	5114.07
442.50	5074.28
442.68	5170.24
442.87	5062.58
443.05	5247.48
443.24	5441.75
443.43	5226.42
443.61	5282.59
443.80	5416.00
443.98	5156.20
444.17	4997.04
444.35	5378.55
444.54	5301.31
444.73	5500.26
444.91	5305.99
445.10	5273.23
445.28	5298.97
445.47	5287.27
445.65	5249.82
445.84	5341.10
446.02	5511.96
446.21	5437.06
446.39	5310.68
446.58	5481.53
446.77	5434.72
446.95	5341.10
447.14	5460.47
447.32	5598.56
447.51	5310.68
447.69	5401.96
447.88	5540.05
448.06	5472.17
448.25	5345.78
448.43	5469.83
448.62	5516.64
448.80	5540.05
448.99	5593.88
449.17	5507.28
449.36	5408.98
449.54	5614.95
449.73	5685.16
449.91	5767.08
450.10	5610.26
450.28	5680.48
450.46	5722.61
450.65	5778.78
450.83	5928.58
451.02	5884.11
451.20	6045.60
451.39	6040.92
451.57	5795.17
451.76	5659.42
451.94	5886.45
452.13	6153.27
452.31	5900.49
452.49	5774.10
452.68	5926.24
452.86	6022.20
453.05	6087.73
453.23	6017.52
453.42	6125.18
453.60	6022.20
453.78	6193.06
453.97	6015.18
454.15	5980.07
454.34	6064.33
454.52	6235.19
454.70	6129.86
454.89	6129.86
455.07	6244.55
455.26	6209.44
455.44	6314.77
455.62	6377.96
455.81	6291.36
455.99	6410.73
456.17	6590.95
456.36	6272.64
456.54	6612.01
456.73	6684.57
456.91	6602.65
457.09	6523.07
457.28	6789.89
457.46	6492.65
457.64	6759.47
457.83	6752.45
458.01	6722.02
458.19	6836.70
458.38	6665.85
458.56	6846.07
458.74	6661.16
458.93	6759.47
459.11	6817.98
459.29	6768.83
459.48	6972.46
459.66	6890.54
459.84	6986.50
460.03	7082.46
460.21	7007.56
460.39	6909.26
460.57	6888.20
460.76	7084.80
460.94	7073.10
461.12	6930.33
461.31	7126.93
461.49	7096.50
461.67	7096.50
461.85	7276.73
462.04	7213.53
462.22	7681.64
462.40	7279.07
462.59	7258.00
462.77	7171.40
462.95	7382.05
463.13	7470.99
463.32	7524.82
463.50	7480.35
463.68	7480.35
463.86	7463.97
464.05	7342.26
464.23	7454.61
464.41	7630.15
464.59	7407.80
464.78	7665.25
464.96	7634.83
465.14	7522.48
465.32	7698.02
465.50	7754.19
465.69	7616.10
465.87	7733.13
466.05	7676.96
466.23	7662.91
466.41	7789.30
466.60	7913.35
466.78	7756.54
466.96	7950.80
467.14	7808.03
467.32	7819.73
467.51	7918.03
467.69	7934.42
467.87	7875.90
468.05	7854.84
468.23	7864.20
468.41	7955.48
468.60	7873.56
468.78	7955.48
468.96	7925.05
469.14	8205.92
469.32	8234.00
469.50	8039.74
469.69	8224.64
469.87	8280.82
470.05	8404.86
470.23	8311.24
470.41	8308.90
470.59	8491.46
470.77	8465.72
470.95	8339.33
471.14	8486.78
471.32	8271.45
471.50	8667.00
471.68	8454.02
471.86	8318.26
472.04	8777.01
472.22	8805.10
472.40	8603.81
472.58	8741.90
472.77	8767.65
472.95	8980.64
473.13	9240.44
473.31	9015.74
473.49	8898.72
473.67	8772.33
473.85	8915.10
474.03	9181.92
474.21	9013.40
474.39	9151.49
474.57	9343.42
474.75	9312.99
474.93	9439.38
475.12	9387.89
475.30	9523.64
475.48	9556.41
475.66	9465.13
475.84	9544.70
476.02	9696.84
476.20	9947.28
476.38	9837.27
476.56	10080.69
476.74	9916.85
476.92	10174.31
477.10	9987.07
477.28	10148.56
477.46	10169.63
477.64	10494.96
477.82	10471.56
478.00	10394.32
478.18	10635.39
478.36	10860.09
478.54	10663.48
478.72	10810.93
478.90	10916.26
479.08	11056.69
479.26	11021.58
479.44	11302.45
479.62	11346.92
479.80	11255.64
479.98	11089.46
480.16	11501.39
480.34	11618.42
480.52	11473.31
480.70	11627.78
480.88	11735.45
481.06	11730.76
481.24	11744.81
481.41	12067.80
481.59	12123.98
481.77	12374.41
481.95	12184.83
482.13	12704.43
482.31	12400.16
482.49	12402.50
482.67	12547.61
482.85	12833.16
483.03	12922.10
483.21	12816.77
483.39	13064.87
483.57	13212.32
483.74	13310.63
483.92	13448.72
484.10	13078.91
484.28	13465.10
484.46	14115.77
484.64	13921.51
484.82	13722.56
485.00	13642.98
485.18	13872.36
485.35	14640.05
485.53	14518.34
485.71	14403.66
485.89	14483.24
486.07	14223.44
486.25	14431.74
486.43	14738.35
486.61	14946.66
486.78	15129.22
486.96	15138.58
487.14	15456.90
487.32	15370.30
487.50	15473.28
487.68	15719.04
487.85	15875.85
488.03	16023.31
488.21	16098.20
488.39	16016.29
488.57	16257.36
488.75	16315.87
488.92	16791.00
489.10	16620.14
489.28	16798.02
489.46	17116.34
489.64	16823.77
489.81	17329.33
489.99	17247.41
490.17	17455.72
490.35	17621.89
490.53	17490.82
490.70	17855.95
490.88	17916.80
491.06	18033.83
491.24	17912.12
491.41	18260.86
491.59	18263.20
491.77	18389.59
491.95	18405.97
492.13	18597.90
492.30	18705.56
492.48	18682.16
492.66	18925.57
492.84	18972.38
493.01	19229.84
493.19	19349.21
493.37	19286.01
493.54	19585.60
493.72	19627.73
493.90	19555.18
494.08	20013.92
494.25	20161.37
494.43	20264.36
494.61	20425.86
494.79	20257.34
494.96	20016.26
495.14	20510.11
495.32	20788.64
495.49	20432.88
495.67	21032.05
495.85	21102.27
496.02	21383.13
496.20	21348.03
496.38	21266.11
496.55	21022.69
496.73	21750.60
496.91	21858.26
497.09	22052.53
497.26	21902.73
497.44	21958.91
497.62	21935.50
497.79	21832.52
497.97	21991.67
498.14	22427.01
498.32	22607.23
498.50	22431.69
498.67	22501.91
498.85	22462.12
499.03	22670.43
499.20	22995.76
499.38	22752.35
499.56	23288.33
499.73	23566.85
499.91	23147.90
500.08	23524.72
500.26	23274.29
500.44	23524.72
500.61	23644.09
500.79	23438.12
500.97	23796.23
501.14	23805.59
501.32	23866.44
501.49	23924.96
501.67	24086.45
501.84	24343.91
502.02	24149.65
502.20	24584.99
502.37	24790.95
502.55	24641.16
502.72	25003.94
502.90	24685.63
503.07	24573.28
503.25	24886.92
503.43	24741.80
503.60	25055.43
503.78	25062.46
503.95	25003.94
504.13	25390.13
504.30	24786.27
504.48	25364.39
504.65	25465.03
504.83	25895.69
505.01	25694.40
505.18	25792.70
505.36	26256.13
505.53	25734.19
505.71	26075.91
505.88	26185.91
506.06	26005.69
506.23	26214.00
506.41	26235.06
506.58	26431.67
506.76	26707.85
506.93	26834.24
507.11	26375.50
507.28	26391.88
507.46	27164.26
507.63	27246.18
507.81	26937.23
507.98	26745.30
508.16	27056.59
508.33	27356.18
508.50	27175.96
508.68	27363.20
508.85	27630.02
509.03	27784.50
509.20	27798.54
509.38	27754.07
509.55	28079.41
509.73	27988.13
509.90	28322.82
510.08	27861.74
510.25	27803.22
510.42	28290.06
510.60	28732.42
510.77	29160.73
510.95	28634.11
511.12	28409.42
511.30	28615.39
511.47	28549.85
511.64	28772.21
511.82	29010.94
511.99	29092.86
512.17	29298.83
512.34	29212.23
512.51	29193.50
512.69	29579.69
512.86	29266.06
513.04	29593.73
513.21	29830.13
513.38	29345.64
513.56	29832.47
513.73	29350.32
513.90	29553.94
514.08	29919.07
514.25	30178.87
514.43	30335.68
514.60	30038.44
514.77	30066.52
514.95	30242.06
515.12	30087.59
515.29	29989.28
515.47	30616.55
515.64	30665.70
515.81	30352.07
515.99	31124.44
516.16	31220.41
516.33	30614.21
516.51	31110.40
516.68	30703.15
516.85	30625.91
517.03	31192.32
517.20	31030.82
517.37	31077.63
517.54	31468.50
517.72	31276.58
517.89	31454.46
518.06	31229.77
518.24	31592.55
518.41	31314.03
518.58	31740.00
518.75	31395.95
518.93	31585.53
519.10	31559.78
519.27	32013.85
519.45	31960.02
519.62	31718.94
519.79	32224.50
519.96	32170.66
520.14	32362.59
520.31	31943.63
520.48	32458.55
520.65	32491.32
520.83	32561.53
521.00	32720.69
521.17	32622.39
521.34	32561.53
521.52	33134.96
521.69	33151.35
521.86	33132.62
522.03	33027.30
522.20	33076.45
522.38	32893.89
522.55	33326.89
522.72	33329.23
522.89	33310.50
523.07	33811.38
523.24	33497.75
523.41	33663.93
523.58	33284.76
523.75	33537.54
523.92	33621.80
524.10	33542.22
524.27	33663.93
524.44	33862.87
524.61	33991.60
524.78	33982.24
524.96	33652.22
525.13	34108.63
525.30	34469.07
525.47	34115.65
525.64	34059.48
525.81	34424.60
525.98	34274.80
526.16	34555.67
526.33	34466.73
526.50	34934.84
526.67	34609.50
526.84	34539.29
527.01	34649.29
527.18	34820.15
527.36	34836.53
527.53	34972.28
527.70	35402.94
527.87	35243.79
528.04	35264.85
528.21	35065.91
528.38	35290.60
528.55	35283.58
528.72	35384.22
528.89	35398.26
529.07	35452.09
529.24	35569.12
529.41	35896.80
529.58	35484.86
529.75	35672.10
529.92	35461.46
530.09	35974.03
530.26	35541.03
530.43	35807.86
530.60	35281.24
530.77	36128.51
530.94	36208.09
531.11	35828.92
531.28	35517.63
531.46	36465.55
531.63	35962.33
531.80	36388.31
531.97	36156.60
532.14	36669.17
532.31	36463.21
532.48	36149.57
532.65	36407.03
532.82	36217.45
532.99	36666.83
533.16	36769.82
533.33	36928.97
533.50	36315.75
533.67	36655.13
533.84	36814.29
534.01	36671.51
534.18	36383.63
534.35	37106.85
534.52	36673.85
534.69	36816.63
534.86	37212.18
535.03	37027.28
535.20	37092.81
535.37	37104.51
535.54	37092.81
535.71	36978.12
535.88	37219.20
536.05	37174.73
536.22	37291.76
536.38	37523.47
536.55	37794.97
536.72	37610.07
536.89	37408.78
537.06	37390.06
537.23	37844.12
537.40	37673.26
537.57	37687.31
537.74	37340.91
537.91	38251.38
538.08	38019.66
538.25	37542.19
538.42	37921.36
538.59	38298.19
538.75	37823.06
538.92	37916.68
539.09	37895.61
539.26	38181.16
539.43	37947.11
539.60	38543.94
539.77	38129.67
539.94	38363.72
540.11	38176.48
540.28	38366.06
540.44	38316.91
540.61	38085.20
540.78	38586.07
540.95	38595.43
541.12	38888.00
541.29	38447.98
541.46	38560.33
541.62	38646.93
541.79	39051.84
541.96	38988.64
542.13	38335.63
542.30	38932.47
542.47	38845.87
542.63	39330.36
542.80	39367.81
542.97	39260.15
543.14	39339.72
543.31	39227.38
543.48	39257.81
543.64	39543.35
543.81	39779.74
543.98	40062.95
544.15	39636.97
544.32	39934.22
544.48	40051.25
544.65	39840.60
544.82	39709.53
544.99	39810.17
545.16	39583.14
545.32	39555.05
545.49	39988.05
545.66	40388.28
545.83	40128.48
546.00	40432.75
546.16	39927.20
546.33	40020.82
546.50	40107.42
546.67	40027.84
546.83	39913.16
547.00	40137.85
547.17	39922.52
547.34	40062.95
547.50	40453.82
547.67	40580.21
547.84	40201.04
548.00	40596.59
548.17	40556.80
548.34	40575.53
548.51	40636.38
548.67	40570.85
548.84	40704.26
549.01	40285.30
549.18	40704.26
549.34	40697.24
549.51	40739.36
549.68	40491.27
549.84	40596.59
550.01	40921.93
550.18	40308.71
550.34	40355.52
550.51	40919.59
550.68	41045.97
550.84	40477.22
551.01	40556.80
551.18	40818.94
551.34	41137.26
551.51	40891.50
551.68	41478.97
551.84	41312.80
552.01	41235.56
552.18	41233.22
552.34	41338.54
552.51	41486.00
552.68	40961.72
552.84	41219.17
553.01	41202.79
553.18	41483.66
553.34	41579.62
553.51	41296.41
553.67	41820.69
553.84	41986.87
554.01	41647.49
554.17	41631.11
554.34	41397.06
554.51	41687.28
554.67	41827.71
554.84	41820.69
555.00	41450.89
555.17	41942.40
555.33	41996.23
555.50	41663.88
555.67	41855.80
555.83	42244.33
556.00	42108.58
556.16	42181.13
556.33	42007.94
556.50	41841.76
556.66	41991.55
556.83	41886.23
556.99	42433.91
557.16	42454.98
557.32	42375.40
557.49	42330.93
557.65	42204.54
557.82	42043.04
557.98	41813.67
558.15	42197.52
558.32	42539.24
558.48	42274.76
558.65	42532.22
558.81	42239.65
558.98	42286.46
559.14	42576.69
559.31	42281.78
559.47	42464.34
559.64	42677.33
559.80	42234.97
559.97	42960.53
560.13	42611.79
560.30	42321.57
560.46	42557.96
560.63	42590.73
560.79	42213.90
560.96	42780.31
561.12	42588.39
561.29	42281.78
561.45	42431.57
561.61	42354.33
561.78	43147.78
561.94	42747.54
562.11	42653.92
562.27	42792.01
562.44	42768.61
562.60	42876.27
562.77	42670.31
562.93	42700.73
563.10	43126.71
563.26	42885.64
563.42	43559.71
563.59	42920.74
563.75	43241.40
563.92	43215.65
564.08	42911.38
564.24	42682.01
564.41	42646.90
564.57	42696.05
564.74	42993.30
564.90	42958.19
565.07	42871.59
565.23	43012.02
565.39	43093.94
565.56	43173.52
565.72	42639.88
565.88	42665.63
566.05	42616.47
566.21	42876.27
566.38	42972.24
566.54	43117.35
566.70	43035.43
566.87	42965.21
567.03	43217.99
567.19	43564.39
567.36	43477.79
567.52	42829.46
567.68	43089.26
567.85	42600.09
568.01	43051.81
568.17	43014.37
568.34	43311.61
568.50	43772.70
568.66	43503.54
568.83	43571.41
568.99	42869.25
569.15	42759.25
569.32	43042.45
569.48	43143.09
569.64	43077.56
569.81	43019.05
569.97	43484.81
570.13	43426.30
570.30	43131.39
570.46	43805.47
570.62	43360.76
570.78	43304.59
570.95	43318.64
571.11	43210.97
571.27	42953.51
571.43	43349.06
571.60	43386.51
571.76	43082.24
571.92	43311.61
572.09	43653.33
572.25	43519.92
572.41	43569.07
572.57	43636.95
572.74	43636.95
572.90	43693.12
573.06	43171.18
573.22	43426.30
573.38	43512.90
573.55	43339.70
573.71	44006.75
573.87	44004.41
574.03	43241.40
574.20	42937.13
574.36	43110.33
574.52	43206.29
574.68	42958.19
574.84	43505.88
575.01	43381.83
575.17	43768.02
575.33	43566.73
575.49	43302.25
575.65	43447.36
575.82	43438.00
575.98	43430.98
576.14	44009.09
576.30	43363.11
576.46	43674.40
576.62	43138.41
576.79	43480.13
576.95	43606.52
577.11	43342.04
577.27	43786.74
577.43	43611.20
577.59	43489.49
577.75	43168.84
577.92	43037.77
578.08	43512.90
578.24	43601.84
578.40	43587.80
578.56	43423.96
578.72	43798.44
578.88	44076.97
579.04	43761.00
579.21	43267.14
579.37	44304.00
579.53	43688.44
579.69	43494.18
579.85	43246.08
580.01	43920.15
580.17	43222.67
580.33	43889.73
580.49	43789.08
580.65	43906.11
580.82	43639.29
580.98	43852.28
581.14	43555.03
581.30	43796.10
581.46	43550.35
581.62	43311.61
581.78	43356.08
581.94	43753.97
582.10	43320.98
582.26	43714.19
582.42	43779.72
582.58	43629.93
582.74	43959.94
582.90	43585.46
583.06	43716.53
583.22	43992.71
583.38	43349.06
583.54	43363.11
583.70	43620.56
583.86	43639.29
584.02	43246.08
584.18	44128.46
584.34	43952.92
584.50	43475.45
584.66	43653.33
584.82	43569.07
584.98	43655.67
585.14	43700.14
585.30	43299.91
585.46	43164.16
585.62	43395.87
585.78	43711.84
585.94	43248.42
586.10	43676.74
586.26	44182.29
586.42	43751.63
586.58	43768.02
586.74	43730.57
586.90	43634.61
587.06	43557.37
587.22	43519.92
587.38	43901.43
587.54	43772.70
587.70	44048.88
587.86	43868.66
588.02	43941.22
588.18	44046.54
588.34	43772.70
588.49	43842.92
588.65	43597.16
588.81	43571.41
588.97	43461.41
589.13	43810.15
589.29	43351.40
589.45	43627.59
589.61	43992.71
589.77	43992.71
589.93	44126.12
590.08	43856.96
590.24	43737.59
590.40	44210.38
590.56	43871.00
590.72	43803.13
590.88	43833.55
