SpectraSuite Data File
++++++++++++++++++++++++++++++++++++
Date: Fri Oct 04 11:48:40 GMT-05:00 2013
User: price-jones
Dark Spectrum Present: No
Reference Spectrum Present: No
Number of Sampled Component Spectra: 1
Spectrometers: USB2+H05261
Integration Time (usec): 100000 (USB2+H05261)
Spectra Averaged: 1 (USB2+H05261)
Boxcar Smoothing: 0 (USB2+H05261)
Correct for Electrical Dark: No (USB2+H05261)
Strobe/Lamp Enabled: No (USB2+H05261)
Correct for Detector Non-linearity: No (USB2+H05261)
Correct for Stray Light: No (USB2+H05261)
Number of Pixels in Processed Spectrum: 2048
>>>>>Begin Processed Spectral Data<<<<<
365.73	28.09
365.92	28.09
366.12	28.09
366.32	0.00
366.52	0.00
366.72	0.00
366.91	0.00
367.11	0.00
367.31	0.00
367.51	0.00
367.70	0.00
367.90	0.00
368.10	0.00
368.30	0.00
368.49	0.00
368.69	0.00
368.89	0.00
369.09	0.00
369.28	0.00
369.48	0.00
369.68	0.00
369.87	0.00
370.07	0.00
370.27	70.22
370.47	131.07
370.66	346.40
370.86	276.18
371.06	369.80
371.25	489.17
371.45	348.74
371.65	465.77
371.84	346.40
372.04	374.49
372.24	435.34
372.44	575.77
372.63	428.32
372.83	533.64
373.03	535.98
373.22	514.92
373.42	564.07
373.62	500.87
373.81	451.72
374.01	559.39
374.21	564.07
374.40	526.62
374.60	634.29
374.79	582.79
374.99	643.65
375.19	580.45
375.38	622.58
375.58	575.77
375.78	496.19
375.97	599.18
376.17	592.16
376.37	573.43
376.56	545.34
376.76	543.00
376.95	596.84
377.15	608.54
377.35	653.01
377.54	535.98
377.74	634.29
377.93	622.58
378.13	660.03
378.33	564.07
378.52	634.29
378.72	671.73
378.91	660.03
379.11	751.31
379.31	615.56
379.50	744.29
379.70	660.03
379.89	645.99
380.09	716.20
380.28	629.60
380.48	741.95
380.68	727.91
380.87	624.92
381.07	730.25
381.26	732.59
381.46	763.01
381.65	739.61
381.85	795.78
382.04	709.18
382.24	821.53
382.43	669.39
382.63	755.99
382.83	781.74
383.02	718.54
383.22	880.04
383.41	767.70
383.61	791.10
383.80	884.72
384.00	812.17
384.19	837.91
384.39	821.53
384.58	894.08
384.78	837.91
384.97	882.38
385.17	840.25
385.36	800.46
385.56	844.93
385.75	858.98
385.95	863.66
386.14	959.62
386.34	842.59
386.53	915.15
386.72	858.98
386.92	830.89
387.11	849.61
387.31	938.55
387.50	854.30
387.70	990.05
387.89	959.62
388.09	931.53
388.28	931.53
388.48	915.15
388.67	1004.09
388.86	1055.58
389.06	987.71
389.25	1067.28
389.45	936.21
389.64	1013.45
389.84	1057.92
390.03	964.30
390.22	1027.50
390.42	896.43
390.61	922.17
390.81	1078.99
391.00	1032.18
391.19	1088.35
391.39	1142.18
391.58	1128.14
391.78	1142.18
391.97	1153.88
392.16	1050.90
392.36	1200.69
392.55	1172.61
392.75	1004.09
392.94	1081.33
393.13	1167.93
393.33	1191.33
393.52	1186.65
393.71	1289.64
393.91	1299.00
394.10	1221.76
394.29	1284.95
394.49	1170.27
394.68	1329.42
394.88	1306.02
395.07	1247.51
395.26	1306.02
395.46	1277.93
395.65	1289.64
395.84	1355.17
396.04	1350.49
396.23	1327.08
396.42	1409.00
396.62	1392.62
396.81	1425.39
397.00	1493.26
397.19	1397.30
397.39	1465.18
397.58	1472.20
397.77	1507.30
397.97	1476.88
398.16	1413.68
398.35	1500.28
398.55	1448.79
398.74	1481.56
398.93	1558.80
399.12	1446.45
399.32	1425.39
399.51	1462.83
399.70	1650.08
399.90	1563.48
400.09	1561.14
400.28	1645.40
400.47	1626.67
400.67	1624.33
400.86	1638.38
401.05	1614.97
401.24	1640.72
401.44	1732.00
401.63	1668.80
401.82	1685.19
402.01	1727.32
402.21	1694.55
402.40	1764.76
402.59	1863.07
402.78	1900.52
402.97	1680.50
403.17	1809.23
403.36	1795.19
403.55	1832.64
403.74	1886.47
403.93	1937.96
404.13	1921.58
404.32	1893.49
404.51	1811.57
404.70	2031.58
404.89	1998.82
405.09	1968.39
405.28	1849.02
405.47	2092.44
405.66	2003.50
405.85	2073.71
406.05	2099.46
406.24	2012.86
406.43	2080.74
406.62	2169.68
406.81	2232.87
407.00	2148.61
407.20	2104.14
407.39	2211.81
407.58	2204.78
407.77	2279.68
407.96	2230.53
408.15	2352.24
408.34	2181.38
408.54	2218.83
408.73	2300.75
408.92	2359.26
409.11	2324.15
409.30	2448.20
409.49	2363.94
409.68	2438.84
409.87	2356.92
410.07	2469.27
410.26	2443.52
410.45	2366.28
410.64	2427.14
410.83	2459.90
411.02	2555.86
411.21	2600.34
411.40	2502.03
411.59	2567.57
411.78	2698.64
411.98	2705.66
412.17	2572.25
412.36	2682.25
412.55	2836.73
412.74	2832.05
412.93	2841.41
413.12	2747.79
413.31	2862.48
413.50	2705.66
413.69	2958.44
413.88	2963.12
414.07	3000.57
414.26	3141.00
414.45	3056.74
414.64	3061.42
414.83	3180.79
415.02	3131.64
415.22	3112.91
415.41	3194.83
415.60	3201.85
415.79	3243.98
415.98	3311.86
416.17	3318.88
416.36	3335.26
416.55	3356.33
416.74	3321.22
416.93	3480.38
417.12	3482.72
417.31	3487.40
417.50	3527.19
417.69	3590.38
417.88	3583.36
418.07	3522.51
418.26	3616.13
418.45	3637.19
418.64	3667.62
418.83	3749.54
419.02	3728.47
419.21	3700.39
419.39	3693.37
419.58	3796.35
419.77	3728.47
419.96	3864.22
420.15	3775.28
420.34	3789.33
420.53	3892.31
420.72	4133.39
420.91	4023.38
421.10	3885.29
421.29	4028.06
421.48	4037.42
421.67	4056.15
421.86	4079.55
422.05	4023.38
422.24	4007.00
422.43	3985.93
422.61	4138.07
422.80	4074.87
422.99	4222.33
423.18	4058.49
423.37	4257.43
423.56	4009.34
423.75	4088.92
423.94	4077.21
424.13	3957.85
424.32	3906.35
424.50	4100.62
424.69	4278.50
424.88	4280.84
425.07	4088.92
425.26	4042.11
425.45	4100.62
425.64	4102.96
425.83	4166.15
426.01	4156.79
426.20	4126.36
426.39	4262.12
426.58	4236.37
426.77	4262.12
426.96	4156.79
427.15	4320.63
427.33	4264.46
427.52	4379.14
427.71	4402.55
427.90	4367.44
428.09	4404.89
428.28	4514.89
428.46	4397.87
428.65	4376.80
428.84	4568.73
429.03	4599.15
429.22	4547.66
429.40	4617.88
429.59	4617.88
429.78	4456.38
429.97	4383.82
430.16	4458.72
430.34	4533.62
430.53	4760.65
430.72	4695.11
430.91	4535.96
431.10	4652.98
431.28	4723.20
431.47	4816.82
431.66	4891.72
431.85	4882.36
432.03	4898.74
432.22	4987.68
432.41	5022.79
432.60	4961.94
432.79	5111.73
432.97	4980.66
433.16	5043.85
433.35	5034.49
433.54	5123.43
433.72	5111.73
433.91	5123.43
434.10	5203.01
434.28	5111.73
434.47	5275.57
434.66	5322.38
434.85	5305.99
435.03	5348.12
435.22	5275.57
435.41	5413.66
435.59	5439.40
435.78	5331.74
435.97	5357.49
436.16	5490.90
436.34	5467.49
436.53	5467.49
436.72	5713.25
436.90	5556.43
437.09	5650.05
437.28	5469.83
437.46	5509.62
437.65	5516.64
437.84	5687.50
438.02	5839.64
438.21	5806.87
438.40	5593.88
438.58	5724.95
438.77	5858.36
438.96	5867.72
439.14	5937.94
439.33	6047.94
439.52	6244.55
439.70	5998.79
439.89	6204.76
440.08	6396.68
440.26	6277.32
440.45	6406.05
440.63	6291.36
440.82	6490.31
441.01	6162.63
441.19	6534.78
441.38	6548.82
441.57	6396.68
441.75	6436.47
441.94	6689.25
442.12	6670.53
442.31	6904.58
442.50	6796.92
442.68	6768.83
442.87	6731.38
443.05	6679.89
443.24	7056.72
443.43	6810.96
443.61	6911.60
443.80	7042.67
443.98	7033.31
444.17	6644.78
444.35	6972.46
444.54	7119.91
444.73	6984.16
444.91	7014.59
445.10	6970.12
445.28	7052.03
445.47	7037.99
445.65	7061.40
445.84	7164.38
446.02	7164.38
446.21	7169.06
446.39	7199.49
446.58	7037.99
446.77	7234.60
446.95	7035.65
447.14	7187.79
447.32	7283.75
447.51	7239.28
447.69	7456.95
447.88	7297.79
448.06	7283.75
448.25	7386.73
448.43	7164.38
448.62	7159.70
448.80	7206.51
448.99	7295.45
449.17	7407.80
449.36	7377.37
449.54	7555.25
449.73	7508.44
449.91	7620.78
450.10	7686.32
450.28	7634.83
450.46	7410.14
450.65	7782.28
450.83	7808.03
451.02	7880.58
451.20	7894.63
451.39	7726.11
451.57	7843.14
451.76	7595.04
451.94	7978.89
452.13	7908.67
452.31	7957.82
452.49	7730.79
452.68	7957.82
452.86	7833.77
453.05	8028.04
453.23	8255.07
453.42	8067.83
453.60	7868.88
453.78	8191.88
453.97	7974.21
454.15	8257.41
454.34	8021.02
454.52	8243.37
454.70	8215.28
454.89	8269.11
455.07	8271.45
455.26	8327.63
455.44	8489.12
455.62	8182.51
455.81	8318.26
455.99	8531.25
456.17	8542.96
456.36	8592.11
456.54	8798.07
456.73	8713.81
456.91	8709.13
457.09	8648.28
457.28	8938.51
457.46	8781.69
457.64	9057.87
457.83	8985.32
458.01	8807.44
458.19	8933.82
458.38	9015.74
458.56	8971.27
458.74	9013.40
458.93	9057.87
459.11	9284.91
459.29	9158.52
459.48	9331.72
459.66	9174.90
459.84	9245.12
460.03	9387.89
460.21	9413.63
460.39	9343.42
460.57	9214.69
460.76	9451.08
460.94	9671.09
461.12	9589.17
461.31	9561.09
461.49	9525.98
461.67	9380.87
461.85	9582.15
462.04	9556.41
462.22	10104.09
462.40	10012.81
462.59	9863.02
462.77	9579.81
462.95	9846.63
463.13	9825.57
463.32	9703.86
463.50	9942.60
463.68	9907.49
463.86	9914.51
464.05	9806.84
464.23	9900.47
464.41	9987.07
464.59	9867.70
464.78	10214.10
464.96	10038.56
465.14	9989.41
465.32	10293.68
465.50	10045.58
465.69	10424.75
465.87	10097.07
466.05	10197.71
466.23	10289.00
466.41	10340.49
466.60	10684.55
466.78	10279.63
466.96	10349.85
467.14	10127.50
467.32	10387.30
467.51	11030.94
467.69	10525.39
467.87	10944.34
468.05	10644.76
468.23	10434.11
468.41	10551.14
468.60	10810.93
468.78	10649.44
468.96	10733.70
469.14	10801.57
469.32	11225.21
469.50	10752.42
469.69	11274.36
469.87	11183.08
470.05	11199.46
470.23	11052.01
470.41	11541.18
470.59	11194.78
470.77	11386.71
470.95	11349.26
471.14	11424.15
471.32	11288.40
471.50	11728.42
471.68	11559.91
471.86	11597.35
472.04	11829.07
472.22	11864.18
472.40	11576.29
472.58	11815.02
472.77	11847.79
472.95	12116.95
473.13	12301.86
473.31	12149.72
473.49	11962.48
473.67	12175.47
473.85	12053.76
474.03	12351.01
474.21	12318.24
474.39	12582.72
474.57	12381.43
474.75	12943.16
474.93	12795.71
475.12	12620.17
475.30	12954.87
475.48	12999.34
475.66	13081.25
475.84	12992.31
476.02	13067.21
476.20	13179.56
476.38	13399.57
476.56	13551.70
476.74	13640.64
476.92	13427.65
477.10	13261.48
477.28	13469.78
477.46	13764.69
477.64	14038.53
477.82	14139.18
478.00	14457.49
478.18	14132.15
478.36	14298.33
478.54	14424.72
478.72	14586.22
478.90	14663.46
479.08	14970.07
479.26	14867.08
479.44	15236.89
479.62	15431.15
479.80	15440.51
479.98	15328.17
480.16	15480.30
480.34	15391.36
480.52	15723.72
480.70	15775.21
480.88	15796.28
481.06	16095.86
481.24	15922.66
481.41	16320.56
481.59	16407.16
481.77	16702.06
481.95	16594.40
482.13	16980.59
482.31	16713.77
482.49	17219.32
482.67	17277.83
482.85	17263.79
483.03	17362.09
483.21	17750.62
483.39	17928.50
483.57	17989.36
483.74	17972.97
483.92	18352.14
484.10	18115.75
484.28	18534.70
484.46	18970.04
484.64	19143.24
484.82	18803.86
485.00	19136.22
485.18	19356.23
485.35	19721.35
485.53	19550.49
485.71	19768.16
485.89	20451.60
486.07	20105.20
486.25	19974.13
486.43	20056.05
486.61	20276.06
486.78	20664.59
486.96	20812.04
487.14	21111.63
487.32	21057.80
487.50	21612.51
487.68	21570.38
487.85	21731.87
488.03	21406.54
488.21	22178.92
488.39	22326.37
488.57	22146.15
488.75	22286.58
488.92	22806.18
489.10	22991.08
489.28	23197.05
489.46	23365.57
489.64	23234.50
489.81	23648.77
489.99	23498.98
490.17	23833.68
490.35	23917.93
490.53	23791.55
490.70	24446.90
490.88	24372.00
491.06	24587.33
491.24	24517.11
491.41	24900.96
491.59	24819.04
491.77	24898.62
491.95	25528.22
492.13	25675.68
492.30	25949.52
492.48	25907.39
492.66	25773.98
492.84	25799.73
493.01	26279.54
493.19	26326.35
493.37	27030.85
493.54	26576.78
493.72	26883.39
493.90	27250.86
494.08	27260.22
494.25	27606.62
494.43	27421.72
494.61	27592.58
494.79	27789.18
494.96	27969.40
495.14	28048.98
495.32	28254.95
495.49	28713.69
495.67	28877.53
495.85	28886.89
496.02	29102.22
496.20	29301.17
496.38	29214.57
496.55	29376.06
496.73	30143.76
496.91	29457.98
497.09	30291.21
497.26	30302.92
497.44	29893.32
497.62	30223.34
497.79	30478.46
497.97	30267.81
498.14	31290.62
498.32	31152.53
498.50	31452.12
498.67	31419.35
498.85	31330.41
499.03	31590.21
499.20	32058.32
499.38	31658.09
499.56	31988.10
499.73	32135.56
499.91	32105.13
500.08	32900.91
500.26	32105.13
500.44	31985.76
500.61	32549.83
500.79	32510.04
500.97	33092.83
501.14	33237.95
501.32	33357.32
501.49	33156.03
501.67	33146.67
501.84	33237.95
502.02	33605.41
502.20	33694.35
502.37	34019.69
502.55	33996.28
502.72	33853.51
502.90	34232.68
503.07	33806.70
503.25	34536.94
503.43	34370.77
503.60	34742.91
503.78	34773.34
503.95	34438.64
504.13	34639.93
504.30	35070.59
504.48	35042.50
504.65	35058.88
504.83	35236.77
505.01	35634.66
505.18	35398.26
505.36	36055.95
505.53	35817.22
505.71	35707.21
505.88	36268.94
506.06	35789.13
506.23	36392.99
506.41	36608.32
506.58	36259.58
506.76	36589.59
506.93	36975.78
507.11	36739.39
507.28	36814.29
507.46	36816.63
507.63	36856.42
507.81	37347.93
507.98	36945.36
508.16	37015.57
508.33	37411.12
508.50	37832.42
508.68	37642.84
508.85	37982.21
509.03	37668.58
509.20	38574.37
509.38	38335.63
509.55	38443.30
509.73	38267.76
509.90	38974.60
510.08	38902.04
510.25	38944.17
510.42	38916.09
510.60	39047.16
510.77	39543.35
510.95	39152.48
511.12	39433.35
511.30	39232.06
511.47	39807.83
511.64	39360.79
511.82	40168.27
511.99	39908.47
512.17	40301.68
512.34	39896.77
512.51	40442.12
512.69	40292.32
512.86	40350.84
513.04	40783.83
513.21	40914.90
513.38	40795.54
513.56	40645.74
513.73	40311.05
513.90	41188.75
514.08	41221.52
514.25	41069.38
514.43	41219.17
514.60	41216.83
514.77	41897.93
514.95	41507.06
515.12	41752.82
515.29	41680.26
515.47	41696.64
515.64	42548.60
515.81	42197.52
515.99	41881.55
516.16	42588.39
516.33	42321.57
516.51	42752.23
516.68	42583.71
516.85	42366.04
517.03	42539.24
517.20	43295.23
517.37	43077.56
517.54	43161.82
517.72	43234.38
517.89	43035.43
518.06	42962.87
518.24	43002.66
518.41	43323.32
518.58	43248.42
518.75	43749.29
518.93	43697.80
519.10	43711.84
519.27	43793.76
519.45	43728.23
519.62	43817.17
519.79	43943.56
519.96	43718.87
520.14	44362.51
520.31	44016.11
520.48	44371.88
520.65	44570.82
520.83	44083.99
521.00	44540.39
521.17	45027.23
521.34	44935.95
521.52	45069.36
521.69	45167.66
521.86	45373.63
522.03	45263.62
522.20	45556.19
522.38	45263.62
522.55	45607.68
522.72	45488.31
522.89	45497.67
523.07	46227.92
523.24	45741.09
523.41	45743.43
523.58	45614.70
523.75	46211.54
523.92	46036.00
524.10	46106.21
524.27	45837.05
524.44	46155.36
524.61	46944.12
524.78	46340.27
524.96	46616.45
525.13	46560.28
525.30	46768.58
525.47	46728.80
525.64	46864.55
525.81	47196.90
525.98	47166.48
526.16	47147.75
526.33	47065.83
526.50	47667.35
526.67	47285.84
526.84	47409.89
527.01	47208.61
527.18	47735.23
527.36	47906.08
527.53	47903.74
527.70	48081.63
527.87	47894.38
528.04	47878.00
528.21	48051.20
528.38	47983.32
528.55	48009.07
528.72	48259.51
528.89	48561.44
529.07	48226.74
529.24	48184.61
529.41	48446.75
529.58	48364.83
529.75	48554.41
529.92	48285.25
530.09	48762.72
530.26	48765.06
530.43	48507.60
530.60	48680.80
530.77	48678.46
530.94	49373.60
531.11	48825.92
531.28	48795.49
531.46	48657.40
531.63	49294.02
531.80	49104.44
531.97	49752.77
532.14	49343.17
532.31	48844.64
532.48	49181.68
532.65	49418.07
532.82	49324.45
532.99	49457.86
533.16	49542.12
533.33	49930.65
533.50	50068.74
533.67	49998.52
533.84	49979.80
534.01	49820.64
534.18	49790.22
534.35	50131.93
534.52	50026.61
534.69	50227.90
534.86	50541.53
535.03	49776.17
535.20	50312.16
535.37	50522.80
535.54	50244.28
535.71	49813.62
535.88	50387.05
536.05	49968.10
536.22	50672.60
536.38	50794.31
536.55	50798.99
536.72	50616.43
536.89	50752.18
537.06	50267.69
537.23	50794.31
537.40	50810.69
537.57	50714.73
537.74	50614.08
537.91	51419.23
538.08	51243.69
538.25	51269.43
538.42	51437.95
538.59	51206.24
538.75	51061.13
538.92	51049.42
539.09	51473.06
539.26	51641.58
539.43	51349.01
539.60	51648.60
539.77	51349.01
539.94	51679.03
540.11	51428.59
540.28	51751.59
540.44	51922.44
540.61	51849.89
540.78	51831.16
540.95	51765.63
541.12	52016.07
541.29	51922.44
541.46	51770.31
541.62	51531.57
541.79	51721.16
541.96	51587.75
542.13	51753.93
542.30	52023.09
542.47	52247.78
542.63	52076.92
542.80	52439.70
542.97	52643.33
543.14	52463.11
543.31	52467.79
543.48	52287.57
543.64	52781.42
543.81	53123.14
543.98	53055.26
544.15	52774.40
544.32	52907.81
544.48	53144.20
544.65	52631.63
544.82	52978.03
544.99	52486.51
545.16	53139.52
545.32	52828.23
545.49	53125.48
545.66	53453.15
545.83	53261.23
546.00	53497.62
546.16	53216.76
546.33	52708.86
546.50	52872.70
546.67	53294.00
546.83	53113.78
547.00	53343.15
547.17	53062.29
547.34	53305.70
547.50	53427.41
547.67	53621.67
547.84	53319.74
548.00	53694.23
548.17	53762.11
548.34	53691.89
548.51	53801.89
548.67	53839.34
548.84	53785.51
549.01	53759.76
549.18	53675.51
549.34	53439.11
549.51	53909.56
549.68	53963.39
549.84	53914.24
550.01	54014.88
550.18	53762.11
550.34	53951.69
550.51	54108.50
550.68	54162.34
550.84	53446.13
551.01	54038.29
551.18	54239.57
551.34	53869.77
551.51	54326.17
551.68	54408.09
551.84	54382.35
552.01	54277.02
552.18	54279.36
552.34	54337.88
552.51	54199.79
552.68	54251.28
552.84	54377.67
553.01	54583.63
553.18	54333.20
553.34	54546.18
553.51	54485.33
553.67	54644.49
553.84	54932.37
554.01	54557.89
554.17	54700.66
554.34	54714.70
554.51	54798.96
554.67	54693.64
554.84	54745.13
555.00	54740.45
555.17	55023.65
555.33	54665.55
555.50	54553.21
555.67	55025.99
555.83	55086.85
556.00	54930.03
556.16	54993.23
556.33	55014.29
556.50	55023.65
556.66	55264.73
556.83	54590.66
556.99	55044.72
557.16	55004.93
557.32	55105.57
557.49	55409.84
557.65	55114.94
557.82	54883.22
557.98	55283.45
558.15	55295.16
558.32	55292.82
558.48	55182.81
558.65	55435.59
558.81	55283.45
558.98	55505.80
559.14	55374.73
559.31	55426.23
559.47	55426.23
559.64	55508.14
559.80	55515.17
559.97	55592.40
560.13	55395.80
560.30	55267.07
560.46	55393.46
560.63	55508.14
560.79	55592.40
560.96	55641.56
561.12	55388.78
561.29	55592.40
561.45	55688.37
561.61	55810.07
561.78	55559.64
561.94	55718.79
562.11	55739.86
562.27	55798.37
562.44	55414.52
562.60	55751.56
562.77	55950.51
562.93	55632.19
563.10	55899.01
563.26	55842.84
563.42	55814.76
563.59	55957.53
563.75	55910.72
563.92	55877.95
564.08	55590.06
564.24	55838.16
564.41	55587.72
564.57	55566.66
564.74	55781.99
564.90	55941.14
565.07	55980.93
565.23	56023.06
565.39	56062.85
565.56	55847.52
565.72	55791.35
565.88	55807.73
566.05	55899.01
566.21	55819.44
566.38	55814.76
566.54	56025.40
566.70	56254.78
566.87	56282.86
567.03	55899.01
567.19	56184.56
567.36	56250.09
567.52	55922.42
567.68	56189.24
567.85	55702.41
568.01	55927.10
568.17	55866.25
568.34	56104.98
568.50	56233.71
568.66	55938.80
568.83	56292.22
568.99	56053.49
569.15	55884.97
569.32	55599.43
569.48	56102.64
569.64	56355.42
569.81	56135.41
569.97	56259.46
570.13	56285.20
570.30	56193.92
570.46	56072.21
570.62	56198.60
570.78	56090.94
570.95	56287.54
571.11	56339.04
571.27	56175.20
571.43	56285.20
571.60	56383.51
571.76	56413.93
571.92	56397.55
572.09	56486.49
572.25	56507.55
572.41	56463.08
572.57	56341.38
572.74	56563.73
572.90	56437.34
573.06	56109.66
573.22	56296.91
573.38	56217.33
573.55	56477.13
573.71	56952.26
573.87	56453.72
574.03	56175.20
574.20	56598.83
574.36	56545.00
574.52	56495.85
574.68	56355.42
574.84	56406.91
575.01	56561.39
575.17	56498.19
575.33	56582.45
575.49	56746.29
575.65	56563.73
575.82	56563.73
575.98	56430.32
576.14	56727.56
576.30	56603.52
576.46	56294.56
576.62	56582.45
576.79	56444.36
576.95	56395.21
577.11	56743.95
577.27	56589.47
577.43	56540.32
577.59	56832.89
577.75	56484.15
577.92	56308.61
578.08	56512.23
578.24	56294.56
578.40	56449.04
578.56	56582.45
578.72	56732.25
578.88	56769.69
579.04	56760.33
579.21	56645.65
579.37	56587.13
579.53	56722.88
579.69	56423.29
579.85	56500.53
580.01	56708.84
580.17	56505.21
580.33	56889.06
580.49	56783.74
580.65	56690.12
580.82	56624.58
580.98	56697.14
581.14	56587.13
581.30	56676.07
581.46	56561.39
581.62	56402.23
581.78	56540.32
581.94	56952.26
582.10	56631.60
582.26	56704.16
582.42	56821.19
582.58	56743.95
582.74	56804.80
582.90	56746.29
583.06	56793.10
583.22	56767.35
583.38	56577.77
583.54	56645.65
583.70	56802.46
583.86	56769.69
584.02	56671.39
584.18	56830.55
584.34	56809.48
584.50	56935.87
584.66	56746.29
584.82	56844.59
584.98	56741.61
585.14	56914.81
585.30	56502.87
585.46	56755.65
585.62	56463.08
585.78	56825.87
585.94	56594.15
586.10	56956.94
586.26	56779.06
586.42	56809.48
586.58	56992.04
586.74	56804.80
586.90	56856.29
587.06	56708.84
587.22	56748.63
587.38	56968.64
587.54	57052.90
587.70	57099.71
587.86	56889.06
588.02	56823.53
588.18	56996.73
588.34	56928.85
588.49	57029.49
588.65	56734.59
588.81	56917.15
588.97	56973.32
589.13	56856.29
589.29	57073.96
589.45	56985.02
589.61	56924.17
589.77	57097.37
