SpectraSuite Data File
++++++++++++++++++++++++++++++++++++
Date: Fri Oct 04 11:48:35 GMT-05:00 2013
User: price-jones
Dark Spectrum Present: No
Reference Spectrum Present: No
Number of Sampled Component Spectra: 1
Spectrometers: USB2+H05261
Integration Time (usec): 100000 (USB2+H05261)
Spectra Averaged: 1 (USB2+H05261)
Boxcar Smoothing: 0 (USB2+H05261)
Correct for Electrical Dark: No (USB2+H05261)
Strobe/Lamp Enabled: No (USB2+H05261)
Correct for Detector Non-linearity: No (USB2+H05261)
Correct for Stray Light: No (USB2+H05261)
Number of Pixels in Processed Spectrum: 2048
>>>>>Begin Processed Spectral Data<<<<<
365.73	23.41
365.92	23.41
366.12	23.41
366.32	0.00
366.52	0.00
366.72	0.00
366.91	0.00
367.11	0.00
367.31	0.00
367.51	0.00
367.70	0.00
367.90	0.00
368.10	0.00
368.30	0.00
368.49	0.00
368.69	0.00
368.89	0.00
369.09	0.00
369.28	0.00
369.48	0.00
369.68	0.00
369.87	0.00
370.07	0.00
370.27	0.00
370.47	79.58
370.66	191.92
370.86	248.10
371.06	313.63
371.25	273.84
371.45	215.33
371.65	243.42
371.84	245.76
372.04	201.29
372.24	273.84
372.44	327.68
372.63	367.46
372.83	381.51
373.03	407.25
373.22	351.08
373.42	264.48
373.62	348.74
373.81	369.80
374.01	322.99
374.21	337.04
374.40	374.49
374.60	383.85
374.79	341.72
374.99	346.40
375.19	344.06
375.38	393.21
375.58	449.38
375.78	404.91
375.97	372.15
376.17	496.19
376.37	463.43
376.56	407.25
376.76	383.85
376.95	456.40
377.15	421.30
377.35	493.85
377.54	458.74
377.74	458.74
377.93	433.00
378.13	454.06
378.33	456.40
378.52	414.27
378.72	500.87
378.91	491.51
379.11	400.23
379.31	421.30
379.50	528.96
379.70	435.34
379.89	493.85
380.09	479.81
380.28	475.13
380.48	447.04
380.68	428.32
380.87	395.55
381.07	498.53
381.26	671.73
381.46	486.83
381.65	503.22
381.85	454.06
382.04	519.60
382.24	573.43
382.43	507.90
382.63	491.51
382.83	517.26
383.02	526.62
383.22	535.98
383.41	486.83
383.61	526.62
383.80	615.56
384.00	496.19
384.19	610.88
384.39	559.39
384.58	514.92
384.78	643.65
384.97	528.96
385.17	615.56
385.36	507.90
385.56	543.00
385.75	608.54
385.95	713.86
386.14	575.77
386.34	519.60
386.53	519.60
386.72	657.69
386.92	599.18
387.11	617.90
387.31	547.69
387.50	571.09
387.70	624.92
387.89	667.05
388.09	617.90
388.28	615.56
388.48	688.12
388.67	699.82
388.86	702.16
389.06	657.69
389.25	615.56
389.45	690.46
389.64	664.71
389.84	732.59
390.03	648.33
390.22	657.69
390.42	678.76
390.61	641.31
390.81	664.71
391.00	697.48
391.19	758.33
391.39	662.37
391.58	784.08
391.78	765.36
391.97	718.54
392.16	702.16
392.36	795.78
392.55	779.40
392.75	748.97
392.94	774.72
393.13	840.25
393.33	786.42
393.52	830.89
393.71	730.25
393.91	814.51
394.10	915.15
394.29	774.72
394.49	784.08
394.68	828.55
394.88	856.64
395.07	882.38
395.26	856.64
395.46	741.95
395.65	943.24
395.84	917.49
396.04	985.37
396.23	971.32
396.42	903.45
396.62	898.77
396.81	922.17
397.00	976.00
397.19	877.70
397.39	1032.18
397.58	968.98
397.77	933.87
397.97	1053.24
398.16	973.66
398.35	952.60
398.55	1036.86
398.74	971.32
398.93	1083.67
399.12	966.64
399.32	1078.99
399.51	1041.54
399.70	1116.44
399.90	1046.22
400.09	1107.07
400.28	1151.54
400.47	1125.80
400.67	1100.05
400.86	1151.54
401.05	1163.25
401.24	1245.16
401.44	1149.20
401.63	1226.44
401.82	1219.42
402.01	1114.10
402.21	1191.33
402.40	1240.48
402.59	1352.83
402.78	1289.64
402.97	1306.02
403.17	1256.87
403.36	1284.95
403.55	1315.38
403.74	1366.87
403.93	1284.95
404.13	1350.49
404.32	1301.34
404.51	1394.96
404.70	1334.11
404.89	1334.11
405.09	1430.07
405.28	1359.85
405.47	1448.79
405.66	1474.54
405.85	1591.56
406.05	1596.25
406.24	1481.56
406.43	1570.50
406.62	1591.56
406.81	1638.38
407.00	1568.16
407.20	1533.05
407.39	1736.68
407.58	1755.40
407.77	1778.81
407.96	1659.44
408.15	1703.91
408.34	1633.69
408.54	1813.92
408.73	1774.13
408.92	1710.93
409.11	1795.19
409.30	1846.68
409.49	1820.94
409.68	1764.76
409.87	1713.27
410.07	1760.08
410.26	1863.07
410.45	1811.57
410.64	1823.28
410.83	1987.11
411.02	2010.52
411.21	1905.20
411.40	2024.56
411.59	1998.82
411.78	2104.14
411.98	2043.29
412.17	2050.31
412.36	2040.95
412.55	2153.29
412.74	2235.21
412.93	2216.49
413.12	2265.64
413.31	2396.71
413.50	2172.02
413.69	2232.87
413.88	2314.79
414.07	2394.37
414.26	2345.22
414.45	2487.99
414.64	2459.90
414.83	2464.58
415.02	2333.51
415.22	2356.92
415.41	2635.44
415.60	2530.12
415.79	2527.78
415.98	2623.74
416.17	2693.96
416.36	2527.78
416.55	2654.17
416.74	2700.98
416.93	2789.92
417.12	2839.07
417.31	2656.51
417.50	2754.81
417.69	2909.29
417.88	2818.00
418.07	2874.18
418.26	2895.24
418.45	2801.62
418.64	2960.78
418.83	2909.29
419.02	2944.39
419.21	3047.38
419.39	2963.12
419.58	2888.22
419.77	3038.02
419.96	3012.27
420.15	3169.09
420.34	3035.67
420.53	3108.23
420.72	3155.04
420.91	3133.98
421.10	3068.44
421.29	3201.85
421.48	3091.85
421.67	3150.36
421.86	3176.11
422.05	3225.26
422.24	3054.40
422.43	3180.79
422.61	3323.56
422.80	3361.01
422.99	3281.43
423.18	3248.66
423.37	3314.20
423.56	3283.77
423.75	3225.26
423.94	3335.26
424.13	3131.64
424.32	3192.49
424.50	3400.80
424.69	3330.58
424.88	3346.97
425.07	3342.28
425.26	3351.65
425.45	3328.24
425.64	3255.69
425.83	3283.77
426.01	3480.38
426.20	3459.31
426.39	3314.20
426.58	3330.58
426.77	3309.52
426.96	3494.42
427.15	3375.05
427.33	3496.76
427.52	3552.93
427.71	3611.45
427.90	3506.12
428.09	3548.25
428.28	3529.53
428.46	3705.07
428.65	3744.86
428.84	3763.58
429.03	3730.81
429.22	3501.44
429.40	3545.91
429.59	3602.08
429.78	3529.53
429.97	3651.24
430.16	3623.15
430.34	3644.21
430.53	3850.18
430.72	3852.52
430.91	3737.84
431.10	3712.09
431.28	3934.44
431.47	3988.27
431.66	3964.87
431.85	3878.27
432.03	3922.74
432.22	3915.72
432.41	4004.66
432.60	4009.34
432.79	3875.93
432.97	4016.36
433.16	4128.70
433.35	4098.28
433.54	4198.92
433.72	4032.74
433.91	4112.32
434.10	4037.42
434.28	4109.98
434.47	4105.30
434.66	4191.90
434.85	4156.79
435.03	4152.11
435.22	4327.65
435.41	4458.72
435.59	4334.67
435.78	4334.67
435.97	4248.07
436.16	4428.29
436.34	4322.97
436.53	4411.91
436.72	4477.44
436.90	4353.40
437.09	4395.53
437.28	4493.83
437.46	4402.55
437.65	4510.21
437.84	4557.02
438.02	4519.57
438.21	4753.63
438.40	4468.08
438.58	4671.71
438.77	4664.69
438.96	4734.90
439.14	4812.14
439.33	4844.91
439.52	4784.06
439.70	4830.87
439.89	4917.47
440.08	4990.02
440.26	4999.38
440.45	5006.41
440.63	5057.90
440.82	5130.45
441.01	4908.10
441.19	5203.01
441.38	5139.82
441.57	5385.57
441.75	5109.39
441.94	5355.15
442.12	5329.40
442.31	5296.63
442.50	5315.36
442.68	5467.49
442.87	5420.68
443.05	5495.58
443.24	5516.64
443.43	5385.57
443.61	5626.65
443.80	5596.22
443.98	5612.60
444.17	5376.21
444.35	5598.56
444.54	5643.03
444.73	5591.54
444.91	5607.92
445.10	5621.97
445.28	5518.98
445.47	5481.53
445.65	5589.20
445.84	5701.54
446.02	5678.14
446.21	5638.35
446.39	5727.29
446.58	5729.63
446.77	5673.46
446.95	5565.79
447.14	5781.12
447.32	5720.27
447.51	5626.65
447.69	5746.02
447.88	5776.44
448.06	5795.17
448.25	5633.67
448.43	5727.29
448.62	5827.93
448.80	5792.83
448.99	5980.07
449.17	5963.68
449.36	5907.51
449.54	6094.76
449.73	5951.98
449.91	5996.45
450.10	5865.38
450.28	6099.44
450.46	6022.20
450.65	6195.40
450.83	6136.88
451.02	6038.58
451.20	6146.25
451.39	6113.48
451.57	6218.80
451.76	6279.66
451.94	6188.38
452.13	6382.64
452.31	6420.09
452.49	6232.85
452.68	6246.89
452.86	6272.64
453.05	6497.33
453.23	6396.68
453.42	6190.72
453.60	6207.10
453.78	6272.64
453.97	6197.74
454.15	6406.05
454.34	6410.73
454.52	6541.80
454.70	6511.37
454.89	6513.71
455.07	6539.46
455.26	6551.16
455.44	6719.68
455.62	6888.20
455.81	6609.67
455.99	6738.40
456.17	6717.34
456.36	6567.54
456.54	6810.96
456.73	6817.98
456.91	7096.50
457.09	6841.39
457.28	7056.72
457.46	6857.77
457.64	7150.34
457.83	7066.08
458.01	7080.12
458.19	7211.19
458.38	7077.78
458.56	7234.60
458.74	7164.38
458.93	7218.21
459.11	7414.82
459.29	7143.32
459.48	7288.43
459.66	7426.52
459.84	7155.02
460.03	7426.52
460.21	7300.13
460.39	7321.20
460.57	7440.56
460.76	7452.27
460.94	7496.74
461.12	7578.65
461.31	7517.80
461.49	7482.69
461.67	7592.70
461.85	7604.40
462.04	7536.52
462.22	7967.18
462.40	7714.41
462.59	7712.07
462.77	7803.35
462.95	7854.84
463.13	7719.09
463.32	7901.65
463.50	7889.95
463.68	7812.71
463.86	7887.61
464.05	7775.26
464.23	7681.64
464.41	8124.00
464.59	7857.18
464.78	8180.17
464.96	7817.39
465.14	7700.36
465.32	8070.17
465.50	8140.38
465.69	8212.94
465.87	7964.84
466.05	8009.31
466.23	7978.89
466.41	8098.25
466.60	8241.03
466.78	8285.50
466.96	8201.24
467.14	8121.66
467.32	8266.77
467.51	8294.86
467.69	8145.06
467.87	8369.76
468.05	8355.71
468.23	8386.14
468.41	8322.94
468.60	8491.46
468.78	8624.87
468.96	8301.88
469.14	8475.08
469.32	8652.96
469.50	8365.07
469.69	8582.74
469.87	8669.34
470.05	8816.80
470.23	8667.00
470.41	8741.90
470.59	8868.29
470.77	8748.92
470.95	8964.25
471.14	8865.95
471.32	8800.41
471.50	9046.17
471.68	9097.66
471.86	9067.24
472.04	9191.28
472.22	9373.85
472.40	9116.39
472.58	9160.86
472.77	9385.55
472.95	9411.29
473.13	9694.50
473.31	9350.44
473.49	9149.15
473.67	9392.57
473.85	9453.42
474.03	9760.03
474.21	9624.28
474.39	9722.59
474.57	9982.38
474.75	9935.57
474.93	9961.32
475.12	10022.17
475.30	9956.64
475.48	10003.45
475.66	10223.46
475.84	10125.16
476.02	10092.39
476.20	10246.87
476.38	10530.07
476.56	10649.44
476.74	10682.20
476.92	10501.98
477.10	10602.63
477.28	10717.31
477.46	10754.76
477.64	10707.95
477.82	10815.62
478.00	11290.74
478.18	11206.48
478.36	11377.34
478.54	11190.10
478.72	11475.65
478.90	11442.88
479.08	11719.06
479.26	11569.27
479.44	11866.52
479.62	11716.72
479.80	11824.39
479.98	11964.82
480.16	12051.42
480.34	12184.83
480.52	12194.19
480.70	12257.39
480.88	11967.16
481.06	12266.75
481.24	12343.99
481.41	12650.60
481.59	12992.31
481.77	12884.65
481.95	12812.09
482.13	13170.19
482.31	12760.60
482.49	13202.96
482.67	13376.16
482.85	13488.51
483.03	13774.05
483.21	13741.29
483.39	13928.53
483.57	13731.92
483.74	14113.43
483.92	14244.50
484.10	14244.50
484.28	14324.08
484.46	14305.35
484.64	14855.38
484.82	14752.40
485.00	14644.73
485.18	14881.13
485.35	15185.40
485.53	15288.38
485.71	15014.54
485.89	15501.37
486.07	15332.85
486.25	15463.92
486.43	15693.29
486.61	15676.91
486.78	15936.71
486.96	15913.30
487.14	16194.17
487.32	15728.40
487.50	16397.79
487.68	16510.14
487.85	16444.60
488.03	16940.80
488.21	17102.29
488.39	17111.66
488.57	17270.81
488.75	17170.17
488.92	17654.66
489.10	17752.96
489.28	17455.72
489.46	17713.17
489.64	17958.93
489.81	18207.03
489.99	18541.72
490.17	18080.64
490.35	18541.72
490.53	18511.30
490.70	18686.84
490.88	18623.64
491.06	19159.63
491.24	18834.29
491.41	19138.56
491.59	19297.72
491.77	19447.51
491.95	19674.54
492.13	19700.29
492.30	19632.41
492.48	19517.73
492.66	20144.99
492.84	19527.09
493.01	19817.32
493.19	19939.02
493.37	20524.16
493.54	20683.31
493.72	20823.75
493.90	20809.70
494.08	20695.02
494.25	21020.35
494.43	21067.16
494.61	21476.76
494.79	21518.89
494.96	21390.16
495.14	21762.30
495.32	21851.24
495.49	21659.32
495.67	22113.38
495.85	22307.65
496.02	22291.26
496.20	22352.12
496.38	22143.81
496.55	22230.41
496.73	22670.43
496.91	22827.24
497.09	23009.81
497.26	23089.38
497.44	22869.37
497.62	22913.84
497.79	23566.85
497.97	23358.55
498.14	24044.32
498.32	23990.49
498.50	24011.56
498.67	24006.87
498.85	23915.59
499.03	23920.28
499.20	23943.68
499.38	24130.92
499.56	24437.53
499.73	24746.48
499.91	24617.75
500.08	25025.01
500.26	24194.12
500.44	24673.93
500.61	24737.12
500.79	25331.62
500.97	24762.87
501.14	25425.24
501.32	25467.37
501.49	25453.33
501.67	25701.42
501.84	25720.15
502.02	25380.77
502.20	25701.42
502.37	26312.30
502.55	25891.01
502.72	25942.50
502.90	26012.71
503.07	25883.98
503.25	26452.73
503.43	26232.72
503.60	26494.86
503.78	26663.38
503.95	26625.93
504.13	26581.46
504.30	26836.58
504.48	26647.00
504.65	27005.10
504.83	27014.46
505.01	27381.93
505.18	27321.07
505.36	27559.81
505.53	27300.01
505.71	27700.24
505.88	27346.82
506.06	27611.30
506.23	27896.85
506.41	27915.57
506.58	28051.32
506.76	27854.72
506.93	27997.49
507.11	28100.47
507.28	28238.56
507.46	28301.76
507.63	28519.43
507.81	28830.72
507.98	28381.34
508.16	28854.12
508.33	28582.62
508.50	28999.24
508.68	29125.63
508.85	29319.89
509.03	29076.48
509.20	29081.16
509.38	29254.36
509.55	29453.30
509.73	29640.54
509.90	29605.44
510.08	29661.61
510.25	29584.37
510.42	29727.14
510.60	30057.16
510.77	30005.67
510.95	30213.98
511.12	29507.13
511.30	30230.36
511.47	30113.33
511.64	30586.12
511.82	30895.07
511.99	30813.15
512.17	30724.21
512.34	30595.48
512.51	30712.51
512.69	30960.61
512.86	31297.64
513.04	30995.71
513.21	31445.10
513.38	31019.12
513.56	31175.94
513.73	31042.53
513.90	31613.62
514.08	31496.59
514.25	31810.22
514.43	31721.28
514.60	32013.85
514.77	31735.32
514.95	32357.91
515.12	31688.51
515.29	31936.61
515.47	32301.73
515.64	32311.10
515.81	32505.36
515.99	32257.26
516.16	32587.28
516.33	32741.75
516.51	32610.68
516.68	32528.77
516.85	32498.34
517.03	32863.46
517.20	33022.62
517.37	33041.34
517.54	33448.60
517.72	33214.54
517.89	33001.55
518.06	33280.08
518.24	32783.88
518.41	33221.56
518.58	33137.30
518.75	33481.36
518.93	33317.53
519.10	33551.58
519.27	33799.68
519.45	33687.33
519.62	33769.25
519.79	34092.24
519.96	34249.06
520.14	33993.94
520.31	34239.70
520.48	34127.35
520.65	34607.16
520.83	34520.56
521.00	34333.32
521.17	34955.90
521.34	33970.54
521.52	34698.44
521.69	34703.12
521.86	35044.84
522.03	34560.35
522.20	34663.33
522.38	34866.96
522.55	35000.37
522.72	35445.07
522.89	35494.22
523.07	35599.55
523.24	35171.23
523.41	35644.02
523.58	35323.36
523.75	35068.25
523.92	35426.35
524.10	35688.49
524.27	35531.67
524.44	35791.47
524.61	36491.29
524.78	36215.11
524.96	36371.92
525.13	35796.15
525.30	36119.15
525.47	36158.94
525.64	36500.65
525.81	36439.80
525.98	36524.06
526.16	36444.48
526.33	36175.32
526.50	36711.30
526.67	36271.28
526.84	36407.03
527.01	36924.29
527.18	36987.49
527.36	36786.20
527.53	36837.69
527.70	37443.89
527.87	36889.18
528.04	36947.70
528.21	37289.42
528.38	36891.52
528.55	37471.98
528.72	37223.88
528.89	37455.59
529.07	37488.36
529.24	37261.33
529.41	37432.19
529.58	37315.16
529.75	37486.02
529.92	37661.56
530.09	37745.82
530.26	37577.30
530.43	37785.61
530.60	37649.86
530.77	37551.56
530.94	37855.82
531.11	37680.28
531.28	37993.92
531.46	38014.98
531.63	38274.78
531.80	38543.94
531.97	38185.84
532.14	38347.34
532.31	38059.45
532.48	38281.80
532.65	38134.35
532.82	38307.55
532.99	38799.06
533.16	38553.30
533.33	38892.68
533.50	38902.04
533.67	38944.17
533.84	38675.01
534.01	38562.67
534.18	38857.57
534.35	38698.42
534.52	39143.12
534.69	39342.06
534.86	39496.54
535.03	39154.82
535.20	39351.43
535.37	39812.51
535.54	39309.30
535.71	39012.05
535.88	39250.78
536.05	39667.40
536.22	39501.22
536.38	39955.29
536.55	40091.04
536.72	39744.64
536.89	39466.11
537.06	39723.57
537.23	40385.94
537.40	39496.54
537.57	39688.46
537.74	40030.18
537.91	40149.55
538.08	40091.04
538.25	39957.63
538.42	40463.18
538.59	40465.52
538.75	39974.01
538.92	40297.00
539.09	40339.13
539.26	40484.25
539.43	40233.81
539.60	40156.57
539.77	40690.21
539.94	40631.70
540.11	40615.32
540.28	40535.74
540.44	40589.57
540.61	40304.02
540.78	40273.60
540.95	40732.34
541.12	40662.13
541.29	40966.40
541.46	40802.56
541.62	40652.76
541.79	40776.81
541.96	41041.29
542.13	41165.34
542.30	41249.60
542.47	41617.07
542.63	41088.10
542.80	41462.59
542.97	41841.76
543.14	41668.56
543.31	41638.13
543.48	41801.97
543.64	42071.13
543.81	41497.70
543.98	42340.29
544.15	42164.75
544.32	41741.11
544.48	42693.71
544.65	42038.36
544.82	42160.07
544.99	41654.51
545.16	42447.96
545.32	42066.45
545.49	42054.75
545.66	42562.64
545.83	42834.14
546.00	42679.67
546.16	42579.03
546.33	42174.11
546.50	41752.82
546.67	42632.86
546.83	41888.57
547.00	42146.03
547.17	42452.64
547.34	42504.13
547.50	42539.24
547.67	42960.53
547.84	42693.71
548.00	42628.18
548.17	42937.13
548.34	42899.68
548.51	42969.90
548.67	43023.73
548.84	43262.46
549.01	42913.72
549.18	42803.72
549.34	42766.27
549.51	42501.79
549.68	43234.38
549.84	43299.91
550.01	43056.50
550.18	43210.97
550.34	43419.28
550.51	43503.54
550.68	43454.39
550.84	43267.14
551.01	43426.30
551.18	43445.02
551.34	43166.50
551.51	42916.06
551.68	43217.99
551.84	43988.03
552.01	43627.59
552.18	44039.52
552.34	43676.74
552.51	43772.70
552.68	43821.85
552.84	43189.91
553.01	43859.30
553.18	43632.27
553.34	43871.00
553.51	43981.01
553.67	44154.21
553.84	43866.32
554.01	44182.29
554.17	44428.05
554.34	43983.35
554.51	43695.46
554.67	43770.36
554.84	44088.67
555.00	43910.79
555.17	44397.62
555.33	44130.80
555.50	44074.63
555.67	44170.59
555.83	43510.56
556.00	44149.53
556.16	44715.93
556.33	44076.97
556.50	43828.87
556.66	44126.12
556.83	44315.70
556.99	44624.65
557.16	44404.64
557.32	44236.12
557.49	44573.16
557.65	44449.11
557.82	44296.98
557.98	44364.85
558.15	44615.29
558.32	44896.16
558.48	44720.62
558.65	44715.93
558.81	44957.01
558.98	44664.44
559.14	44470.18
559.31	44486.56
559.47	44308.68
559.64	44325.07
559.80	44938.29
559.97	45081.06
560.13	44755.72
560.30	44715.93
560.46	44751.04
560.63	45153.62
560.79	45233.19
560.96	44711.25
561.12	44608.27
561.29	44802.53
561.45	45144.25
561.61	45029.57
561.78	44987.44
561.94	44954.67
562.11	44957.01
562.27	45162.98
562.44	44968.71
562.60	44856.37
562.77	44765.09
562.93	44772.11
563.10	45769.18
563.26	44711.25
563.42	45752.79
563.59	45338.52
563.75	45301.07
563.92	45705.98
564.08	45111.49
564.24	45177.02
564.41	45420.44
564.57	44973.39
564.74	45287.03
564.90	44751.04
565.07	45284.68
565.23	45399.37
565.39	45345.54
565.56	44921.90
565.72	44952.33
565.88	45354.90
566.05	45036.59
566.21	45319.79
566.38	45422.78
566.54	45443.84
566.70	45462.57
566.87	46113.23
567.03	45387.67
567.19	45605.34
567.36	45308.09
567.52	45577.25
567.68	45537.46
567.85	45020.20
568.01	45303.41
568.17	45347.88
568.34	45532.78
568.50	45956.42
568.66	45736.41
568.83	45684.92
568.99	45418.10
569.15	45722.37
569.32	45951.74
569.48	44931.26
569.64	45085.74
569.81	45979.82
569.97	45914.29
570.13	45607.68
570.30	45621.72
570.46	45565.55
570.62	45876.84
570.78	45535.12
570.95	45502.35
571.11	45322.13
571.27	45579.59
571.43	45715.34
571.60	45659.17
571.76	45530.44
571.92	45785.56
572.09	46157.70
572.25	45886.20
572.41	45649.81
572.57	45338.52
572.74	45923.65
572.90	45443.84
573.06	45858.12
573.22	45897.91
573.38	45897.91
573.55	46082.81
573.71	46457.29
573.87	45930.67
574.03	45874.50
574.20	45476.61
574.36	45670.87
574.52	45804.28
574.68	45921.31
574.84	45390.01
575.01	46068.76
575.17	45832.37
575.33	45680.24
575.49	45787.90
575.65	45762.15
575.82	45743.43
575.98	45577.25
576.14	45895.56
576.30	45993.87
576.46	45563.21
576.62	45591.30
576.79	45759.81
576.95	45940.04
577.11	45776.20
577.27	45949.40
577.43	45933.01
577.59	45731.73
577.75	45755.13
577.92	45535.12
578.08	45694.28
578.24	45715.34
578.40	45869.82
578.56	46160.05
578.72	45661.51
578.88	46333.24
579.04	46284.09
579.21	45710.66
579.37	46160.05
579.53	46047.70
579.69	45834.71
579.85	45769.18
580.01	46066.42
580.17	45787.90
580.33	46295.80
580.49	46286.43
580.65	46288.77
580.82	46057.06
580.98	46026.63
581.14	45792.58
581.30	46351.97
581.46	45645.13
581.62	45738.75
581.78	45764.49
581.94	45815.99
582.10	45890.88
582.26	46181.11
582.42	46408.14
582.58	45848.75
582.74	46167.07
582.90	46223.24
583.06	46248.99
583.22	46199.83
583.38	46244.30
583.54	46010.25
583.70	46333.24
583.86	46361.33
584.02	46138.98
584.18	46047.70
584.34	46403.46
584.50	46326.22
584.66	46134.30
584.82	45755.13
584.98	46389.42
585.14	46162.39
585.30	45930.67
585.46	46305.16
585.62	46153.02
585.78	45986.85
585.94	45577.25
586.10	45773.86
586.26	46012.59
586.42	46546.23
586.58	46396.44
586.74	45708.32
586.90	45989.19
587.06	45827.69
587.22	46204.52
587.38	46146.00
587.54	46258.35
587.70	46164.73
587.86	46560.28
588.02	45989.19
588.18	46302.82
588.34	46300.48
588.49	46101.53
588.65	45916.63
588.81	46199.83
588.97	46244.30
589.13	46094.51
589.29	46256.01
589.45	46354.31
589.61	46171.75
589.77	46803.69
589.93	46464.32
590.08	46681.98
590.24	46410.48
590.40	46396.44
590.56	46415.16
590.72	45937.69
