SpectraSuite Data File
++++++++++++++++++++++++++++++++++++
Date: Fri Oct 04 11:48:35 GMT-05:00 2013
User: price-jones
Dark Spectrum Present: No
Reference Spectrum Present: No
Number of Sampled Component Spectra: 1
Spectrometers: USB2+H05261
Integration Time (usec): 100000 (USB2+H05261)
Spectra Averaged: 1 (USB2+H05261)
Boxcar Smoothing: 0 (USB2+H05261)
Correct for Electrical Dark: No (USB2+H05261)
Strobe/Lamp Enabled: No (USB2+H05261)
Correct for Detector Non-linearity: No (USB2+H05261)
Correct for Stray Light: No (USB2+H05261)
Number of Pixels in Processed Spectrum: 2048
>>>>>Begin Processed Spectral Data<<<<<
365.73	30.43
365.92	30.43
366.12	30.43
366.32	0.00
366.52	0.00
366.72	0.00
366.91	0.00
367.11	0.00
367.31	0.00
367.51	0.00
367.70	0.00
367.90	0.00
368.10	0.00
368.30	0.00
368.49	0.00
368.69	0.00
368.89	0.00
369.09	0.00
369.28	0.00
369.48	0.00
369.68	0.00
369.87	0.00
370.07	0.00
370.27	42.13
370.47	49.15
370.66	325.33
370.86	322.99
371.06	400.23
371.25	458.74
371.45	348.74
371.65	418.96
371.84	395.55
372.04	395.55
372.24	376.83
372.44	454.06
372.63	472.79
372.83	449.38
373.03	489.17
373.22	425.98
373.42	454.06
373.62	491.51
373.81	475.13
374.01	505.56
374.21	510.24
374.40	524.28
374.60	566.41
374.79	561.73
374.99	437.68
375.19	540.66
375.38	533.64
375.58	496.19
375.78	500.87
375.97	613.22
376.17	538.32
376.37	545.34
376.56	571.09
376.76	557.05
376.95	505.56
377.15	587.47
377.35	578.11
377.54	533.64
377.74	571.09
377.93	554.71
378.13	657.69
378.33	648.33
378.52	538.32
378.72	587.47
378.91	641.31
379.11	601.52
379.31	599.18
379.50	681.10
379.70	702.16
379.89	685.78
380.09	683.44
380.28	585.13
380.48	594.50
380.68	664.71
380.87	645.99
381.07	674.07
381.26	739.61
381.46	720.88
381.65	688.12
381.85	720.88
382.04	699.82
382.24	667.05
382.43	667.05
382.63	699.82
382.83	739.61
383.02	725.57
383.22	718.54
383.41	720.88
383.61	793.44
383.80	704.50
384.00	732.59
384.19	770.04
384.39	681.10
384.58	755.99
384.78	894.08
384.97	772.38
385.17	657.69
385.36	779.40
385.56	746.63
385.75	746.63
385.95	840.25
386.14	805.14
386.34	753.65
386.53	870.68
386.72	692.80
386.92	791.10
387.11	777.06
387.31	781.74
387.50	812.17
387.70	791.10
387.89	753.65
388.09	887.06
388.28	800.46
388.48	856.64
388.67	966.64
388.86	809.83
389.06	999.41
389.25	976.00
389.45	926.85
389.64	910.47
389.84	971.32
390.03	854.30
390.22	929.19
390.42	880.04
390.61	854.30
390.81	978.34
391.00	1027.50
391.19	992.39
391.39	973.66
391.58	1018.13
391.78	1053.24
391.97	973.66
392.16	945.58
392.36	1008.77
392.55	1153.88
392.75	1088.35
392.94	1125.80
393.13	1121.12
393.33	1050.90
393.52	1071.97
393.71	1184.31
393.91	1123.46
394.10	1132.82
394.29	1095.37
394.49	1015.79
394.68	1046.22
394.88	1231.12
395.07	1114.10
395.26	1165.59
395.46	1146.86
395.65	1184.31
395.84	1205.38
396.04	1378.58
396.23	1135.16
396.42	1268.57
396.62	1203.04
396.81	1343.47
397.00	1275.59
397.19	1266.23
397.39	1289.64
397.58	1291.98
397.77	1282.61
397.97	1373.89
398.16	1313.04
398.35	1397.30
398.55	1455.81
398.74	1437.09
398.93	1458.15
399.12	1329.42
399.32	1444.11
399.51	1394.96
399.70	1516.67
399.90	1451.13
400.09	1502.62
400.28	1584.54
400.47	1399.64
400.67	1575.18
400.86	1507.30
401.05	1490.92
401.24	1563.48
401.44	1729.66
401.63	1727.32
401.82	1598.59
402.01	1547.09
402.21	1678.16
402.40	1612.63
402.59	1645.40
402.78	1891.15
402.97	1703.91
403.17	1771.79
403.36	1809.23
403.55	1741.36
403.74	1877.11
403.93	1858.39
404.13	1912.22
404.32	1799.87
404.51	1781.15
404.70	1881.79
404.89	1870.09
405.09	1928.60
405.28	1921.58
405.47	1912.22
405.66	2047.97
405.85	1977.75
406.05	2038.61
406.24	2017.54
406.43	2071.37
406.62	1975.41
406.81	2165.00
407.00	2087.76
407.20	2148.61
407.39	2099.46
407.58	2073.71
407.77	2162.66
407.96	2265.64
408.15	2204.78
408.34	2256.28
408.54	2197.76
408.73	2253.94
408.92	2326.49
409.11	2352.24
409.30	2335.85
409.49	2436.50
409.68	2359.26
409.87	2373.30
410.07	2392.03
410.26	2495.01
410.45	2466.92
410.64	2385.01
410.83	2586.29
411.02	2546.50
411.21	2619.06
411.40	2616.72
411.59	2757.15
411.78	2583.95
411.98	2665.87
412.17	2651.83
412.36	2747.79
412.55	2829.71
412.74	2869.50
412.93	2862.48
413.12	2808.64
413.31	2890.56
413.50	2839.07
413.69	2855.45
413.88	2963.12
414.07	3030.99
414.26	2991.20
414.45	3091.85
414.64	3080.14
414.83	3148.02
415.02	3047.38
415.22	3206.53
415.41	3241.64
415.60	3211.22
415.79	3262.71
415.98	3318.88
416.17	3314.20
416.36	3365.69
416.55	3438.25
416.74	3426.54
416.93	3358.67
417.12	3471.01
417.31	3548.25
417.50	3522.51
417.69	3627.83
417.88	3709.75
418.07	3599.74
418.26	3637.19
418.45	3588.04
418.64	3815.07
418.83	3859.54
419.02	3761.24
419.21	3854.86
419.39	3714.43
419.58	3761.24
419.77	3709.75
419.96	3786.99
420.15	3880.61
420.34	3822.09
420.53	3922.74
420.72	4004.66
420.91	3915.72
421.10	4042.11
421.29	4032.74
421.48	3948.48
421.67	4140.41
421.86	4093.60
422.05	4175.52
422.24	4074.87
422.43	4002.32
422.61	4131.05
422.80	4138.07
422.99	4266.80
423.18	4327.65
423.37	4138.07
423.56	4184.88
423.75	4105.30
423.94	4154.45
424.13	4053.81
424.32	4088.92
424.50	4283.18
424.69	4407.23
424.88	4393.19
425.07	4180.20
425.26	4222.33
425.45	4248.07
425.64	4255.09
425.83	4285.52
426.01	4402.55
426.20	4273.82
426.39	4346.37
426.58	4280.84
426.77	4339.35
426.96	4414.25
427.15	4325.31
427.33	4477.44
427.52	4489.15
427.71	4528.94
427.90	4468.08
428.09	4540.64
428.28	4465.74
428.46	4608.51
428.65	4573.41
428.84	4835.55
429.03	4664.69
429.22	4542.98
429.40	4685.75
429.59	4641.28
429.78	4475.10
429.97	4451.70
430.16	4596.81
430.34	4809.80
430.53	4868.31
430.72	4826.18
430.91	4629.58
431.10	4847.25
431.28	4990.02
431.47	4835.55
431.66	4999.38
431.85	5064.92
432.03	5104.71
432.22	5191.31
432.41	5067.26
432.60	4997.04
432.79	5249.82
432.97	5184.29
433.16	5149.18
433.35	5146.84
433.54	5263.86
433.72	5343.44
433.91	5125.77
434.10	5275.57
434.28	5212.37
434.47	5308.34
434.66	5526.00
434.85	5404.30
435.03	5455.79
435.22	5385.57
435.41	5685.16
435.59	5607.92
435.78	5570.48
435.97	5558.77
436.16	5661.76
436.34	5554.09
436.53	5476.85
436.72	5678.14
436.90	5584.52
437.09	5748.36
437.28	5554.09
437.46	5654.73
437.65	5720.27
437.84	5893.47
438.02	5591.54
438.21	5851.34
438.40	5769.42
438.58	6071.35
438.77	6078.37
438.96	6031.56
439.14	6024.54
439.33	6155.61
439.52	6125.18
439.70	6363.92
439.89	6424.77
440.08	6305.40
440.26	6317.11
440.45	6366.26
440.63	6457.54
440.82	6494.99
441.01	6452.86
441.19	6497.33
441.38	6693.93
441.57	6649.46
441.75	6733.72
441.94	6710.32
442.12	6787.55
442.31	6967.77
442.50	6834.36
442.68	6857.77
442.87	7052.03
443.05	6991.18
443.24	7084.80
443.43	6920.96
443.61	7068.42
443.80	7351.62
443.98	7089.48
444.17	6794.58
444.35	7318.86
444.54	7281.41
444.73	7145.66
444.91	7073.10
445.10	7117.57
445.28	7311.83
445.47	7155.02
445.65	7286.09
445.84	7131.61
446.02	7386.73
446.21	7403.11
446.39	7274.38
446.58	7192.47
446.77	7363.33
446.95	7183.10
447.14	7325.88
447.32	7328.22
447.51	7243.96
447.69	7370.35
447.88	7330.56
448.06	7248.64
448.25	7363.33
448.43	7304.81
448.62	7335.24
448.80	7386.73
448.99	7627.81
449.17	7538.87
449.36	7351.62
449.54	7681.64
449.73	7714.41
449.91	7630.15
450.10	7721.43
450.28	7915.69
450.46	7681.64
450.65	7735.47
450.83	7756.54
451.02	7779.94
451.20	8032.72
451.39	8021.02
451.57	7868.88
451.76	7833.77
451.94	8035.06
452.13	8006.97
452.31	8021.02
452.49	7810.37
452.68	8067.83
452.86	8028.04
453.05	8116.98
453.23	8086.55
453.42	8154.43
453.60	8138.04
453.78	8177.83
453.97	8086.55
454.15	8243.37
454.34	8187.19
454.52	8442.31
454.70	8241.03
454.89	8329.97
455.07	8271.45
455.26	8386.14
455.44	8652.96
455.62	8512.53
455.81	8482.10
455.99	8503.17
456.17	8655.30
456.36	8519.55
456.54	8648.28
456.73	8753.60
456.91	8973.61
457.09	9172.56
457.28	9001.70
457.46	8861.27
457.64	9011.06
457.83	9202.99
458.01	9032.13
458.19	9135.11
458.38	9111.71
458.56	9254.48
458.74	9064.89
458.93	9275.54
459.11	9130.43
459.29	9165.54
459.48	9160.86
459.66	9305.97
459.84	9465.13
460.03	9638.33
460.21	9469.81
460.39	9345.76
460.57	9586.83
460.76	9554.07
460.94	9617.26
461.12	9549.39
461.31	9659.39
461.49	9774.08
461.67	9715.56
461.85	9839.61
462.04	9621.94
462.22	10202.40
462.40	9851.31
462.59	9799.82
462.77	9942.60
462.95	9944.94
463.13	9987.07
463.32	9898.13
463.50	10045.58
463.68	10207.08
463.86	10071.33
464.05	10005.79
464.23	10076.01
464.41	10387.30
464.59	9937.91
464.78	10186.01
464.96	10209.42
465.14	10328.78
465.32	10188.35
465.50	10300.70
465.69	10436.45
465.87	10101.75
466.05	10506.66
466.23	10298.36
466.41	10586.24
466.60	10867.11
466.78	10413.04
466.96	10289.00
467.14	10483.26
467.32	10600.29
467.51	10705.61
467.69	10396.66
467.87	10785.19
468.05	10775.83
468.23	10754.76
468.41	10560.50
468.60	10874.13
468.78	10920.94
468.96	10911.58
469.14	10862.43
469.32	10895.19
469.50	10796.89
469.69	11000.52
469.87	11243.93
470.05	11243.93
470.23	11248.61
470.41	11281.38
470.59	11206.48
470.77	11356.28
470.95	11536.50
471.14	11683.95
471.32	11349.26
471.50	11688.64
471.68	11742.47
471.86	11768.21
472.04	11742.47
472.22	11845.45
472.40	11901.62
472.58	11707.36
472.77	11836.09
472.95	12217.60
473.13	12463.35
473.31	12098.23
473.49	12009.29
473.67	12166.10
473.85	12039.72
474.03	12484.42
474.21	12432.93
474.39	12718.47
474.57	12496.12
474.75	12709.11
474.93	12793.37
475.12	12681.02
475.30	13074.23
475.48	13015.72
475.66	12973.59
475.84	13046.15
476.02	13025.08
476.20	13174.88
476.38	13621.92
476.56	13720.22
476.74	13453.40
476.92	13710.86
477.10	13727.24
477.28	13776.39
477.46	13584.47
477.64	13912.14
477.82	14162.58
478.00	14342.80
478.18	14501.96
478.36	14497.28
478.54	14480.89
478.72	14745.38
478.90	14923.26
479.08	14972.41
479.26	15187.74
479.44	15267.31
479.62	15049.64
479.80	15332.85
479.98	15564.56
480.16	15782.23
480.34	15922.66
480.52	15960.11
480.70	16159.06
480.88	15793.94
481.06	15962.45
481.24	15976.50
481.41	16453.97
481.59	16662.27
481.77	16805.05
481.95	16868.24
482.13	16844.84
482.31	16931.44
482.49	17455.72
482.67	17114.00
482.85	17448.69
483.03	17834.88
483.21	17734.24
483.39	17949.57
483.57	17923.82
483.74	18068.94
483.92	18267.88
484.10	18197.67
484.28	18710.24
484.46	18677.48
484.64	19068.34
484.82	18881.10
485.00	19112.81
485.18	19321.12
485.35	19679.22
485.53	19871.15
485.71	19749.44
485.89	20320.53
486.07	19971.79
486.25	20166.06
486.43	19992.86
486.61	20299.47
486.78	20615.44
486.96	20798.00
487.14	21106.95
487.32	21205.25
487.50	21343.35
487.68	21303.56
487.85	21472.07
488.03	21806.77
488.21	22122.74
488.39	22483.19
488.57	22342.75
488.75	22401.27
488.92	22738.30
489.10	22754.69
489.28	22824.90
489.46	23105.77
489.64	23239.18
489.81	23597.28
489.99	23463.87
490.17	23735.37
490.35	24058.37
490.53	23957.72
490.70	24570.94
490.88	24308.80
491.06	24549.88
491.24	24779.25
491.41	24847.13
491.59	25071.82
491.77	24975.86
491.95	25523.54
492.13	25380.77
492.30	25752.91
492.48	25827.81
492.66	25710.78
492.84	25642.91
493.01	26384.86
493.19	26410.60
493.37	26265.49
493.54	26944.25
493.72	26932.54
493.90	27264.90
494.08	27026.17
494.25	27449.80
494.43	27381.93
494.61	27824.29
494.79	27786.84
494.96	27627.68
495.14	28194.09
495.32	28444.53
495.49	28346.23
495.67	28278.35
495.85	29013.28
496.02	29235.63
496.20	29345.64
496.38	28950.09
496.55	28734.76
496.73	30101.63
496.91	29476.71
497.09	29790.34
497.26	29921.41
497.44	29596.07
497.62	30092.27
497.79	30181.21
497.97	30331.00
498.14	30445.69
498.32	31056.57
498.50	31091.68
498.67	31311.69
498.85	30920.82
499.03	31435.74
499.20	31405.31
499.38	31611.28
499.56	31597.23
499.73	31936.61
499.91	32119.17
500.08	32283.01
500.26	32105.13
500.44	31952.99
500.61	32037.25
500.79	32694.94
500.97	32844.74
501.14	33113.90
501.32	32720.69
501.49	32961.76
501.67	32994.53
501.84	33383.06
502.02	33516.47
502.20	33434.55
502.37	33687.33
502.55	33909.68
502.72	34082.88
502.90	33596.05
503.07	34017.35
503.25	33816.06
503.43	34059.48
503.60	34244.38
503.78	34387.15
503.95	34703.12
504.13	34448.00
504.30	34506.52
504.48	34705.46
504.65	35028.46
504.83	35463.80
505.01	35847.64
505.18	35218.04
505.36	35438.05
505.53	35702.53
505.71	35508.27
505.88	35634.66
506.06	35454.44
506.23	35948.29
506.41	35618.27
506.58	36259.58
506.76	36535.76
506.93	36208.09
507.11	36233.83
507.28	36744.07
507.46	36575.55
507.63	37013.23
507.81	37422.83
507.98	36961.74
508.16	37118.56
508.33	37263.67
508.50	37399.42
508.68	37521.13
508.85	37509.43
509.03	37415.80
509.20	38108.60
509.38	38101.58
509.55	38199.88
509.73	38204.56
509.90	38204.56
510.08	38155.41
510.25	38677.35
510.42	38719.48
510.60	38590.75
510.77	38651.61
510.95	38979.28
511.12	39061.20
511.30	39267.17
511.47	39257.81
511.64	39309.30
511.82	39519.95
511.99	39629.95
512.17	39660.38
512.34	39285.89
512.51	40041.88
512.69	40137.85
512.86	39852.30
513.04	40154.23
513.21	40240.83
513.38	40423.39
513.56	40648.08
513.73	40133.17
513.90	40383.60
514.08	40676.17
514.25	40849.37
514.43	40840.01
514.60	40945.33
514.77	40978.10
514.95	41326.84
515.12	41443.87
515.29	41155.98
515.47	41478.97
515.64	42080.49
515.81	41928.36
515.99	41956.44
516.16	42033.68
516.33	41879.21
516.51	42429.23
516.68	42146.03
516.85	42298.16
517.03	42232.63
517.20	42513.49
517.37	42501.79
517.54	42546.26
517.72	42375.40
517.89	42541.58
518.06	42445.62
518.24	43016.71
518.41	42651.58
518.58	43454.39
518.75	42880.95
518.93	43580.78
519.10	42925.42
519.27	43414.60
519.45	43414.60
519.62	43562.05
519.79	43498.86
519.96	43728.23
520.14	44030.16
520.31	43606.52
520.48	44531.03
520.65	44186.97
520.83	44261.87
521.00	44299.32
521.17	43973.98
521.34	44575.50
521.52	44229.10
521.69	44919.56
521.86	44924.24
522.03	44893.82
522.20	45027.23
522.38	45109.14
522.55	45174.68
522.72	45127.87
522.89	45165.32
523.07	45364.26
523.24	45233.19
523.41	45572.57
523.58	45404.05
523.75	45626.40
523.92	45450.86
524.10	45556.19
524.27	46061.74
524.44	46007.91
524.61	45944.72
524.78	46492.40
524.96	46162.39
525.13	46333.24
525.30	46026.63
525.47	46300.48
525.64	46422.19
525.81	46333.24
525.98	46424.53
526.16	46904.34
526.33	46747.52
526.50	46564.96
526.67	46635.17
526.84	46761.56
527.01	46974.55
527.18	47189.88
527.36	47199.24
527.53	47683.73
527.70	47592.45
527.87	47468.40
528.04	47051.79
528.21	47662.67
528.38	47512.88
528.55	47906.08
528.72	47793.74
528.89	48034.81
529.07	47751.61
529.24	47847.57
529.41	48184.61
529.58	47522.24
529.75	47910.77
529.92	48076.94
530.09	48025.45
530.26	47917.79
530.43	48481.86
530.60	48215.04
530.77	48086.31
530.94	48542.71
531.11	48238.44
531.28	48280.57
531.46	48170.57
531.63	48830.60
531.80	48734.63
531.97	48982.73
532.14	48800.17
532.31	48643.35
532.48	48779.10
532.65	49148.91
532.82	48392.92
532.99	49193.38
533.16	48601.22
533.33	49364.24
533.50	49614.68
533.67	49216.78
533.84	49265.94
534.01	49195.72
534.18	49127.84
534.35	49771.49
534.52	49242.53
534.69	49392.33
534.86	49698.94
535.03	49464.88
535.20	49439.14
535.37	49930.65
535.54	50014.91
535.71	49712.98
535.88	49453.18
536.05	49755.11
536.22	50230.24
536.38	50298.11
536.55	50174.06
536.72	50241.94
536.89	49916.61
537.06	50178.75
537.23	50160.02
537.40	49773.83
537.57	50314.50
537.74	50382.37
537.91	50621.11
538.08	50630.47
538.25	50323.86
538.42	50782.60
538.59	50475.99
538.75	50450.25
538.92	50539.19
539.09	51107.94
539.26	50850.48
539.43	50604.72
539.60	50536.85
539.77	50733.45
539.94	51037.72
540.11	50719.41
540.28	50981.55
540.44	51290.50
540.61	50869.20
540.78	50873.88
540.95	51133.68
541.12	50864.52
541.29	50894.95
541.46	51019.00
541.62	51210.92
541.79	51194.54
541.96	50972.19
542.13	51536.26
542.30	51489.45
542.47	51800.74
542.63	51423.91
542.80	51742.22
542.97	51540.94
543.14	51828.82
543.31	51774.99
543.48	51852.23
543.64	52378.85
543.81	52172.88
543.98	52088.62
544.15	52093.30
544.32	52175.22
544.48	52357.78
544.65	51917.76
544.82	51826.48
544.99	52023.09
545.16	52327.36
545.32	52072.24
545.49	52577.79
545.66	52694.82
545.83	52645.67
546.00	52732.27
546.16	52467.79
546.33	52074.58
546.50	51856.91
546.67	52303.95
546.83	52133.09
547.00	52584.82
547.17	52608.22
547.34	52371.83
547.50	52743.97
547.67	53001.43
547.84	52900.79
548.00	52963.98
548.17	52917.17
548.34	52971.00
548.51	53017.82
548.67	52811.85
548.84	52907.81
549.01	52856.32
549.18	52933.56
549.34	53043.56
549.51	52790.78
549.68	53055.26
549.84	52966.32
550.01	52910.15
550.18	52938.24
550.34	53418.05
550.51	53214.42
550.68	53179.31
550.84	52968.66
551.01	53343.15
551.18	53151.23
551.34	53134.84
551.51	53261.23
551.68	53345.49
551.84	53429.75
552.01	53682.53
552.18	53703.59
552.34	53303.36
552.51	53750.40
552.68	53556.14
552.84	53872.11
553.01	53422.73
553.18	53394.64
553.34	53832.32
553.51	53504.65
553.67	53722.32
553.84	53783.17
554.01	53815.94
554.17	54000.84
554.34	53982.12
554.51	53867.43
554.67	53855.73
554.84	54066.38
555.00	53993.82
555.17	54082.76
555.33	53984.46
555.50	53925.94
555.67	53991.48
555.83	53745.72
556.00	54131.91
556.16	54302.77
556.33	54042.97
556.50	53848.71
556.66	54057.01
556.83	54049.99
556.99	54576.61
557.16	54375.33
557.32	54401.07
557.49	54092.12
557.65	53834.66
557.82	54239.57
557.98	54033.61
558.15	54302.77
558.32	54466.61
558.48	54473.63
558.65	54532.14
558.81	54436.18
558.98	54602.36
559.14	54260.64
559.31	54541.50
559.47	54204.47
559.64	54602.36
559.80	54571.93
559.97	54628.10
560.13	54468.95
560.30	54766.20
560.46	54621.08
560.63	54700.66
560.79	54658.53
560.96	54492.35
561.12	54480.65
561.29	54695.98
561.45	54770.88
561.61	54930.03
561.78	54932.37
561.94	54621.08
562.11	54866.84
562.27	54543.84
562.44	54501.71
562.60	54754.49
562.77	54897.27
562.93	54803.64
563.10	55011.95
563.26	54775.56
563.42	55103.23
563.59	54777.90
563.75	55037.70
563.92	54944.08
564.08	54934.71
564.24	54899.61
564.41	54906.63
564.57	54871.52
564.74	54894.92
564.90	54915.99
565.07	54836.41
565.23	55072.81
565.39	55054.08
565.56	54883.22
565.72	54871.52
565.88	55117.28
566.05	55035.36
566.21	54852.80
566.38	54988.55
566.54	54920.67
566.70	55047.06
566.87	55313.88
567.03	55054.08
567.19	55238.98
567.36	55007.27
567.52	54965.14
567.68	55238.98
567.85	54965.14
568.01	55117.28
568.17	55159.41
568.34	55100.89
568.50	54948.76
568.66	55075.15
568.83	55379.42
568.99	54927.69
569.15	55058.76
569.32	55222.60
569.48	54808.32
569.64	55082.17
569.81	55180.47
569.97	55229.62
570.13	55323.24
570.30	55220.26
570.46	55496.44
570.62	55173.45
570.78	55033.02
570.95	55114.94
571.11	55360.69
571.27	55040.04
571.43	55208.56
571.60	55372.39
571.76	55224.94
571.92	55543.25
572.09	55639.22
572.25	55131.32
572.41	55421.55
572.57	55456.65
572.74	55739.86
572.90	55311.54
573.06	55112.59
573.22	55238.98
573.38	55253.03
573.55	55271.75
573.71	55702.41
573.87	55686.03
574.03	55365.37
574.20	55604.11
574.36	55529.21
574.52	55402.82
574.68	55470.70
574.84	55484.74
575.01	55566.66
575.17	55749.22
575.33	55426.23
575.49	55351.33
575.65	55718.79
575.82	55781.99
575.98	55313.88
576.14	55657.94
576.30	55606.45
576.46	55580.70
576.62	55374.73
576.79	55442.61
576.95	55257.71
577.11	55341.97
577.27	55585.38
577.43	55714.11
577.59	55636.87
577.75	55442.61
577.92	55543.25
578.08	55466.02
578.24	55442.61
578.40	55510.49
578.56	55491.76
578.72	55515.17
578.88	55945.83
579.04	55585.38
579.21	55693.05
579.37	55569.00
579.53	55606.45
579.69	55393.46
579.85	55522.19
580.01	55393.46
580.17	55522.19
580.33	55643.90
580.49	55533.89
580.65	55807.73
580.82	55536.23
580.98	55686.03
581.14	55753.90
581.30	55634.53
581.46	55559.64
581.62	55487.08
581.78	55430.91
581.94	55484.74
582.10	55332.60
582.26	55620.49
582.42	55573.68
582.58	55721.13
582.74	55781.99
582.90	55594.74
583.06	55702.41
583.22	55480.06
583.38	55749.22
583.54	55536.23
583.70	55690.71
583.86	55842.84
584.02	55650.92
584.18	55884.97
584.34	55803.05
584.50	55955.19
584.66	55758.58
584.82	55547.93
584.98	55952.85
585.14	55730.50
585.30	55491.76
585.46	55772.63
585.62	55470.70
585.78	55908.38
585.94	55419.20
586.10	55627.51
586.26	55484.74
586.42	55674.32
586.58	55566.66
586.74	55615.81
586.90	55510.49
587.06	55096.21
587.22	55793.69
587.38	55643.90
587.54	55882.63
587.70	55994.98
587.86	55906.04
588.02	55849.86
588.18	56004.34
588.34	55814.76
588.49	55852.20
588.65	55657.94
588.81	55444.95
588.97	55927.10
589.13	55655.60
589.29	55906.04
589.45	55891.99
589.61	55943.48
589.77	56222.01
