SpectraSuite Data File
++++++++++++++++++++++++++++++++++++
Date: Fri Oct 04 11:48:31 GMT-05:00 2013
User: price-jones
Dark Spectrum Present: No
Reference Spectrum Present: No
Number of Sampled Component Spectra: 1
Spectrometers: USB2+H05261
Integration Time (usec): 100000 (USB2+H05261)
Spectra Averaged: 1 (USB2+H05261)
Boxcar Smoothing: 0 (USB2+H05261)
Correct for Electrical Dark: No (USB2+H05261)
Strobe/Lamp Enabled: No (USB2+H05261)
Correct for Detector Non-linearity: No (USB2+H05261)
Correct for Stray Light: No (USB2+H05261)
Number of Pixels in Processed Spectrum: 2048
>>>>>Begin Processed Spectral Data<<<<<
365.73	4.68
365.92	4.68
366.12	4.68
366.32	0.00
366.52	0.00
366.72	23.41
366.91	0.00
367.11	2.34
367.31	0.00
367.51	0.00
367.70	0.00
367.90	0.00
368.10	0.00
368.30	0.00
368.49	0.00
368.69	11.70
368.89	0.00
369.09	0.00
369.28	0.00
369.48	0.00
369.68	0.00
369.87	0.00
370.07	0.00
370.27	35.11
370.47	133.41
370.66	346.40
370.86	454.06
371.06	440.02
371.25	521.94
371.45	411.93
371.65	533.64
371.84	538.32
372.04	416.62
372.24	484.49
372.44	582.79
372.63	526.62
372.83	545.34
373.03	582.79
373.22	596.84
373.42	535.98
373.62	664.71
373.81	594.50
374.01	645.99
374.21	674.07
374.40	667.05
374.60	643.65
374.79	575.77
374.99	627.26
375.19	634.29
375.38	683.44
375.58	664.71
375.78	741.95
375.97	725.57
376.17	725.57
376.37	601.52
376.56	671.73
376.76	678.76
376.95	772.38
377.15	716.20
377.35	690.46
377.54	744.29
377.74	737.27
377.93	746.63
378.13	702.16
378.33	662.37
378.52	816.85
378.72	835.57
378.91	772.38
379.11	753.65
379.31	802.80
379.50	765.36
379.70	858.98
379.89	851.96
380.09	798.12
380.28	823.87
380.48	807.48
380.68	791.10
380.87	837.91
381.07	840.25
381.26	908.13
381.46	781.74
381.65	877.70
381.85	870.68
382.04	952.60
382.24	947.92
382.43	880.04
382.63	896.43
382.83	868.34
383.02	894.08
383.22	994.73
383.41	997.07
383.61	971.32
383.80	978.34
384.00	910.47
384.19	961.96
384.39	1008.77
384.58	1029.84
384.78	1043.88
384.97	1046.22
385.17	1055.58
385.36	1039.20
385.56	943.24
385.75	1001.75
385.95	1050.90
386.14	1004.09
386.34	943.24
386.53	1097.71
386.72	1046.22
386.92	1069.62
387.11	1153.88
387.31	1053.24
387.50	1086.01
387.70	1057.92
387.89	1158.57
388.09	1153.88
388.28	1015.79
388.48	1123.46
388.67	1217.08
388.86	1165.59
389.06	1086.01
389.25	1219.42
389.45	1291.98
389.64	1259.21
389.84	1284.95
390.03	1245.16
390.22	1338.79
390.42	1226.44
390.61	1165.59
390.81	1315.38
391.00	1280.27
391.19	1282.61
391.39	1254.53
391.58	1245.16
391.78	1256.87
391.97	1425.39
392.16	1336.45
392.36	1497.94
392.55	1369.21
392.75	1458.15
392.94	1373.89
393.13	1448.79
393.33	1434.75
393.52	1369.21
393.71	1423.05
393.91	1469.86
394.10	1495.60
394.29	1610.29
394.49	1514.33
394.68	1586.88
394.88	1418.36
395.07	1596.25
395.26	1483.90
395.46	1479.22
395.65	1533.05
395.84	1554.12
396.04	1682.85
396.23	1661.78
396.42	1593.90
396.62	1664.12
396.81	1682.85
397.00	1614.97
397.19	1710.93
397.39	1586.88
397.58	1717.95
397.77	1629.01
397.97	1739.02
398.16	1722.63
398.35	1689.87
398.55	1729.66
398.74	1727.32
398.93	1856.04
399.12	1790.51
399.32	1830.30
399.51	1921.58
399.70	1797.53
399.90	1926.26
400.09	1895.83
400.28	1895.83
400.47	1980.09
400.67	1989.46
400.86	1980.09
401.05	1952.01
401.24	1984.77
401.44	1998.82
401.63	1987.11
401.82	2045.63
402.01	2019.88
402.21	2017.54
402.40	2122.87
402.59	2047.97
402.78	2111.16
402.97	2181.38
403.17	2073.71
403.36	2253.94
403.55	2118.18
403.74	2232.87
403.93	2244.57
404.13	2253.94
404.32	2237.55
404.51	2244.57
404.70	2354.58
404.89	2361.60
405.09	2363.94
405.28	2303.09
405.47	2413.09
405.66	2520.76
405.85	2317.13
406.05	2354.58
406.24	2562.89
406.43	2436.50
406.62	2616.72
406.81	2555.86
407.00	2513.74
407.20	2511.39
407.39	2537.14
407.58	2637.78
407.77	2768.85
407.96	2581.61
408.15	2682.25
408.34	2731.41
408.54	2656.51
408.73	2605.02
408.92	2670.55
409.11	2768.85
409.30	2792.26
409.49	2766.51
409.68	2904.60
409.87	2839.07
410.07	2876.52
410.26	2965.46
410.45	2909.29
410.64	2951.42
410.83	2899.92
411.02	2937.37
411.21	3066.10
411.40	3084.83
411.59	3089.51
411.78	3026.31
411.98	3122.27
412.17	3222.92
412.36	3232.28
412.55	3243.98
412.74	3178.45
412.93	3290.79
413.12	3251.00
413.31	3499.10
413.50	3300.16
413.69	3599.74
413.88	3372.71
414.07	3576.34
414.26	3569.32
414.45	3447.61
414.64	3454.63
414.83	3651.24
415.02	3639.53
415.22	3599.74
415.41	3735.50
415.60	3772.94
415.79	3786.99
415.98	3843.16
416.17	3794.01
416.36	3878.27
416.55	3758.90
416.74	3948.48
416.93	4114.66
417.12	3852.52
417.31	4126.36
417.50	4084.23
417.69	4201.26
417.88	4135.73
418.07	4109.98
418.26	4212.96
418.45	4191.90
418.64	4304.25
418.83	4430.63
419.02	4269.14
419.21	4332.33
419.39	4400.21
419.58	4327.65
419.77	4491.49
419.96	4477.44
420.15	4461.06
420.34	4418.93
420.53	4540.64
420.72	4566.39
420.91	4627.24
421.10	4610.86
421.29	4542.98
421.48	4465.74
421.67	4587.45
421.86	4734.90
422.05	4772.35
422.24	4629.58
422.43	4727.88
422.61	4819.16
422.80	4765.33
422.99	4734.90
423.18	4800.44
423.37	4777.03
423.56	4882.36
423.75	4833.21
423.94	4723.20
424.13	4365.10
424.32	4505.53
424.50	4882.36
424.69	4905.76
424.88	4882.36
425.07	4788.74
425.26	4767.67
425.45	4926.83
425.64	4753.63
425.83	5006.41
426.01	4880.02
426.20	4901.08
426.39	4884.70
426.58	4936.19
426.77	5043.85
426.96	5074.28
427.15	4858.95
427.33	5224.08
427.52	5130.45
427.71	4943.21
427.90	5029.81
428.09	5172.58
428.28	5121.09
428.46	5198.33
428.65	5266.21
428.84	5413.66
429.03	5341.10
429.22	5184.29
429.40	5406.64
429.59	5364.51
429.78	5100.03
429.97	5144.50
430.16	5268.55
430.34	5366.85
430.53	5399.62
430.72	5509.62
430.91	5350.46
431.10	5390.25
431.28	5584.52
431.47	5486.22
431.66	5696.86
431.85	5675.80
432.03	6012.84
432.22	5916.87
432.41	5781.12
432.60	5860.70
432.79	5743.67
432.97	5881.77
433.16	5970.71
433.35	5865.38
433.54	5975.39
433.72	6076.03
433.91	6003.47
434.10	5856.02
434.28	5970.71
434.47	6036.24
434.66	6001.13
434.85	6164.97
435.03	6195.40
435.22	6303.06
435.41	6113.48
435.59	6167.31
435.78	6312.42
435.97	6389.66
436.16	6377.96
436.34	6401.37
436.53	6380.30
436.72	6569.88
436.90	6335.83
437.09	6518.39
437.28	6291.36
437.46	6497.33
437.65	6609.67
437.84	6593.29
438.02	6715.00
438.21	6722.02
438.40	6675.21
438.58	6771.17
438.77	6888.20
438.96	6771.17
439.14	6855.43
439.33	6855.43
439.52	7162.04
439.70	7148.00
439.89	7246.30
440.08	7035.65
440.26	7241.62
440.45	7337.58
440.63	7403.11
440.82	7412.48
441.01	7398.43
441.19	7527.16
441.38	7754.19
441.57	7595.04
441.75	7733.13
441.94	7669.94
442.12	7889.95
442.31	7852.50
442.50	7768.24
442.68	7815.05
442.87	7990.59
443.05	7932.08
443.24	8046.76
443.43	8149.75
443.61	8030.38
443.80	8191.88
443.98	7999.95
444.17	7620.78
444.35	8009.31
444.54	8245.71
444.73	8287.84
444.91	8128.68
445.10	8248.05
445.28	8142.72
445.47	8147.40
445.65	8252.73
445.84	8138.04
446.02	8376.78
446.21	8280.82
446.39	8273.79
446.58	8489.12
446.77	8503.17
446.95	8348.69
447.14	8278.47
447.32	8477.42
447.51	8187.19
447.69	8430.61
447.88	8526.57
448.06	8456.36
448.25	8458.70
448.43	8713.81
448.62	8381.46
448.80	8482.10
448.99	8573.38
449.17	8519.55
449.36	8489.12
449.54	8816.80
449.73	8685.73
449.91	8816.80
450.10	8985.32
450.28	9032.13
450.46	8917.44
450.65	8992.34
450.83	9151.49
451.02	8805.10
451.20	9104.68
451.39	8833.18
451.57	9053.19
451.76	9022.77
451.94	9177.24
452.13	9338.74
452.31	9291.93
452.49	9111.71
452.68	9289.59
452.86	9186.60
453.05	9423.00
453.23	9511.94
453.42	9483.85
453.60	9149.15
453.78	9212.35
453.97	9158.52
454.15	9240.44
454.34	9408.95
454.52	9551.73
454.70	9558.75
454.89	9734.29
455.07	9820.89
455.26	9846.63
455.44	9816.21
455.62	9877.06
455.81	9586.83
455.99	9813.87
456.17	9802.16
456.36	10005.79
456.54	10188.35
456.73	10296.02
456.91	10382.62
457.09	10178.99
457.28	10544.11
457.46	10043.24
457.64	10331.12
457.83	10476.24
458.01	10256.23
458.19	10476.24
458.38	10441.13
458.56	10450.49
458.74	10633.05
458.93	10560.50
459.11	10644.76
459.29	10602.63
459.48	10703.27
459.66	10787.53
459.84	10684.55
460.03	10916.26
460.21	10820.30
460.39	10909.24
460.57	10822.64
460.76	11037.97
460.94	11220.53
461.12	11042.65
461.31	11059.03
461.49	11220.53
461.67	11096.48
461.85	11250.96
462.04	11215.85
462.22	11971.84
462.40	11679.27
462.59	11412.45
462.77	11487.35
462.95	11803.32
463.13	11463.94
463.32	11634.80
463.50	11726.08
463.68	11550.54
463.86	11737.79
464.05	11169.04
464.23	11784.60
464.41	11889.92
464.59	11447.56
464.78	11810.34
464.96	11889.92
465.14	11559.91
465.32	12121.63
465.50	12114.61
465.69	12051.42
465.87	12081.85
466.05	12116.95
466.23	12065.46
466.41	12369.73
466.60	12587.40
466.78	12060.78
466.96	12102.91
467.14	12004.61
467.32	12414.20
467.51	12306.54
467.69	12053.76
467.87	12320.58
468.05	12690.38
468.23	12456.33
468.41	12503.14
468.60	12236.32
468.78	12652.94
468.96	12545.27
469.14	12610.81
469.32	12634.21
469.50	12535.91
469.69	12828.48
469.87	13064.87
470.05	13217.01
470.23	13055.51
470.41	13053.17
470.59	13114.02
470.77	13165.51
470.95	13029.76
471.14	13327.01
471.32	13057.85
471.50	13682.77
471.68	13540.00
471.86	13420.63
472.04	13762.35
472.22	13961.30
472.40	13668.73
472.58	13799.80
472.77	13881.72
472.95	13923.85
473.13	14420.04
473.31	13951.93
473.49	13930.87
473.67	13921.51
473.85	14333.44
474.03	14806.23
474.21	14644.73
474.39	14895.17
474.57	14829.63
474.75	15143.27
474.93	14895.17
475.12	14672.82
475.30	14932.62
475.48	14951.34
475.66	15030.92
475.84	15267.31
476.02	15548.18
476.20	15524.77
476.38	15639.46
476.56	15990.54
476.74	16086.50
476.92	15871.17
477.10	15658.18
477.28	16116.93
477.46	16112.25
477.64	16435.24
477.82	16468.01
478.00	16767.60
478.18	16727.81
478.36	16922.07
478.54	16980.59
478.72	16910.37
478.90	17322.30
479.08	17488.48
479.26	17799.77
479.44	17867.65
479.62	17982.34
479.80	18101.70
479.98	18155.54
480.16	18181.28
480.34	18618.96
480.52	18691.52
480.70	18551.09
480.88	18565.13
481.06	18740.67
481.24	18874.08
481.41	19009.83
481.59	19342.19
481.77	19543.47
481.95	19798.59
482.13	19609.01
482.31	19852.42
482.49	20173.08
482.67	20278.40
482.85	20152.01
483.03	20910.35
483.21	20940.77
483.39	21032.05
483.57	21336.32
483.74	21261.43
483.92	21509.52
484.10	21362.07
484.28	21528.25
484.46	22043.17
484.64	22387.22
484.82	21994.01
485.00	22195.30
485.18	22892.78
485.35	23065.98
485.53	23241.52
485.71	23154.92
485.89	23630.05
486.07	23536.43
486.25	23309.40
486.43	23756.44
486.61	23845.38
486.78	24334.55
486.96	24332.21
487.14	24645.84
487.32	24924.36
487.50	25266.08
487.68	24753.51
487.85	25331.62
488.03	25518.86
488.21	25951.86
488.39	25982.29
488.57	26171.87
488.75	26665.72
488.92	26843.60
489.10	26775.73
489.28	26890.41
489.46	27094.04
489.64	26941.91
489.81	27807.90
489.99	27772.80
490.17	27934.29
490.35	28025.57
490.53	28435.17
490.70	28673.90
490.88	28793.27
491.06	28819.02
491.24	28725.39
491.41	29397.13
491.59	29340.96
491.77	29617.14
491.95	30080.56
492.13	30073.54
492.30	30036.09
492.48	30286.53
492.66	30185.89
492.84	30466.75
493.01	31082.31
493.19	31297.64
493.37	31433.39
493.54	31194.66
493.72	31658.09
493.90	31353.82
494.08	31824.26
494.25	32430.46
494.43	32147.26
494.61	32809.63
494.79	32643.45
494.96	32793.25
495.14	33184.12
495.32	33132.62
495.49	33369.02
495.67	33359.66
495.85	34066.50
496.02	34384.81
496.20	34171.82
496.38	34043.09
496.55	34230.33
496.73	34731.21
496.91	34677.38
497.09	34991.01
497.26	35452.09
497.44	35129.10
497.62	35370.18
497.79	36402.35
497.97	35770.41
498.14	36250.22
498.32	36708.96
498.50	36294.69
498.67	36877.48
498.85	36753.43
499.03	36788.54
499.20	36552.15
499.38	37359.63
499.56	37156.00
499.73	37612.41
499.91	37853.48
500.08	38033.71
500.26	37593.68
500.44	37900.29
500.61	38153.07
500.79	38305.21
500.97	38234.99
501.14	39028.43
501.32	39199.29
501.49	38859.91
501.67	38817.78
501.84	39189.93
502.02	39381.85
502.20	39779.74
502.37	39431.01
502.55	39585.48
502.72	39618.25
502.90	39927.20
503.07	39913.16
503.25	40622.34
503.43	40182.32
503.60	40437.44
503.78	40383.60
503.95	40505.31
504.13	40498.29
504.30	40947.67
504.48	41254.28
504.65	40877.46
504.83	41881.55
505.01	41741.11
505.18	41642.81
505.36	41858.14
505.53	41385.35
505.71	42380.08
505.88	42342.63
506.06	41776.22
506.23	42454.98
506.41	42597.75
506.58	42822.44
506.76	42663.28
506.93	43222.67
507.11	42417.53
507.28	42990.96
507.46	43590.14
507.63	43295.23
507.81	43536.30
507.98	43489.49
508.16	43274.16
508.33	43737.59
508.50	43751.63
508.68	44126.12
508.85	44582.52
509.03	44264.21
509.20	44411.67
509.38	44982.76
509.55	44676.15
509.73	45118.51
509.90	45125.53
510.08	45134.89
510.25	44781.47
510.42	45256.60
510.60	45556.19
510.77	45584.27
510.95	45598.32
511.12	45457.88
511.30	45420.44
511.47	45961.10
511.64	46026.63
511.82	46525.17
511.99	46309.84
512.17	46457.29
512.34	46293.46
512.51	46775.61
512.69	46527.51
512.86	46691.35
513.04	47168.82
513.21	47026.04
513.38	47487.13
513.56	47480.11
513.73	47002.64
513.90	47356.06
514.08	47349.04
514.25	47859.27
514.43	47760.97
514.60	47819.49
514.77	47870.98
514.95	48114.39
515.12	47906.08
515.29	48062.90
515.47	48877.41
515.64	48493.56
515.81	48463.13
515.99	48477.18
516.16	48673.78
516.33	48879.75
516.51	48868.05
516.68	48701.87
516.85	48575.48
517.03	49181.68
517.20	49375.94
517.37	49415.73
517.54	49123.16
517.72	49301.04
517.89	49485.95
518.06	49668.51
518.24	49436.80
518.41	49462.54
518.58	49476.58
518.75	49830.01
518.93	50099.17
519.10	50155.34
519.27	50183.43
519.45	50281.73
519.62	50267.69
519.79	50003.20
519.96	50705.37
520.14	50892.61
520.31	50433.86
520.48	51180.49
520.65	50920.70
520.83	50845.80
521.00	50756.86
521.17	50763.88
521.34	51072.83
521.52	51297.52
521.69	51409.87
521.86	51634.56
522.03	51309.22
522.20	51323.27
522.38	51910.74
522.55	51480.08
522.72	51269.43
522.89	51831.16
523.07	52090.96
523.24	51927.13
523.41	51892.02
523.58	52097.98
523.75	52287.57
523.92	51997.34
524.10	52189.27
524.27	52353.10
524.44	52514.60
524.61	52626.95
524.78	52818.87
524.96	52278.21
525.13	52573.11
525.30	52839.93
525.47	52577.79
525.64	52746.31
525.81	52865.68
525.98	53083.35
526.16	53312.72
526.33	52858.66
526.50	53389.96
526.67	53158.25
526.84	53134.84
527.01	53085.69
527.18	53277.61
527.36	53422.73
527.53	53626.35
527.70	53797.21
527.87	53710.61
528.04	53556.14
528.21	53565.50
528.38	53666.14
528.55	53965.73
528.72	53886.15
528.89	54031.27
529.07	53893.18
529.24	53902.54
529.41	54106.16
529.58	53883.81
529.75	54122.55
529.92	53858.07
530.09	54045.31
530.26	54293.41
530.43	54410.43
530.60	54049.99
530.77	54312.13
530.94	54588.31
531.11	54038.29
531.28	54356.60
531.46	54543.84
531.63	54506.40
531.80	54571.93
531.97	54974.50
532.14	54738.11
532.31	54670.23
532.48	54796.62
532.65	54707.68
532.82	54660.87
532.99	55014.29
533.16	54878.54
533.33	55271.75
533.50	55398.14
533.67	55164.09
533.84	55075.15
534.01	55348.99
534.18	54960.46
534.35	55337.29
534.52	55042.38
534.69	55391.12
534.86	55442.61
535.03	55732.84
535.20	55451.97
535.37	55564.32
535.54	55655.60
535.71	55615.81
535.88	55615.81
536.05	55636.87
536.22	55826.46
536.38	55976.25
536.55	55987.95
536.72	55891.99
536.89	55742.20
537.06	56109.66
537.23	56121.37
537.40	55847.52
537.57	55950.51
537.74	56137.75
537.91	56357.76
538.08	56114.34
538.25	56149.45
538.42	56112.00
538.59	56481.81
538.75	56254.78
538.92	56226.69
539.09	56463.08
539.26	56362.44
539.43	56343.72
539.60	56692.46
539.77	56591.81
539.94	56835.23
540.11	56509.89
540.28	56629.26
540.44	56369.46
540.61	56753.31
540.78	56818.84
540.95	56835.23
541.12	56793.10
541.29	56903.10
541.46	56809.48
541.62	56643.30
541.79	57003.75
541.96	56528.62
542.13	56891.40
542.30	57066.94
542.47	57214.40
542.63	57031.83
542.80	57141.84
542.97	57464.83
543.14	57336.10
543.31	57394.62
543.48	57411.00
543.64	57537.39
543.81	57705.91
543.98	57317.38
544.15	57631.01
544.32	57827.62
544.48	57752.72
544.65	57851.02
544.82	57607.61
544.99	57483.56
545.16	57961.03
545.32	57719.95
545.49	58066.35
545.66	58042.95
545.83	58033.58
546.00	58045.29
546.16	57848.68
546.33	57602.92
546.50	57633.35
546.67	57925.92
546.83	57794.85
547.00	58141.25
547.17	57902.51
547.34	58040.60
547.50	58166.99
547.67	58492.33
547.84	58171.67
548.00	58248.91
548.17	58274.66
548.34	58197.42
548.51	58394.03
548.67	58576.59
548.84	58298.06
549.01	58328.49
549.18	58176.36
549.34	58356.58
549.51	58412.75
549.68	58494.67
549.84	58300.40
550.01	58728.72
550.18	58518.07
550.34	58649.14
550.51	58632.76
550.68	58651.48
550.84	58445.52
551.01	58749.79
551.18	58677.23
551.34	58377.64
551.51	58665.53
551.68	58946.39
551.84	58953.41
552.01	58642.12
552.18	58803.62
552.34	58738.08
552.51	58986.18
552.68	58789.58
552.84	58777.87
553.01	59070.44
553.18	59150.02
553.34	58883.20
553.51	59248.32
553.67	59355.99
553.84	59468.33
554.01	59206.19
554.17	59028.31
554.34	59093.85
554.51	59180.45
554.67	59346.62
554.84	59206.19
555.00	59358.33
555.17	59241.30
555.33	59363.01
555.50	59267.05
555.67	59416.84
555.83	59323.22
556.00	59358.33
556.16	59629.83
556.33	59496.42
556.50	59571.32
556.66	59498.76
556.83	59423.86
556.99	59648.55
557.16	59887.29
557.32	59781.96
557.49	59632.17
557.65	59419.18
557.82	59384.07
557.98	59615.79
558.15	59756.22
558.32	59693.02
558.48	59938.78
558.65	59910.69
558.81	59688.34
558.98	59870.90
559.14	59847.50
559.31	59852.18
559.47	59833.46
559.64	59948.14
559.80	59969.21
559.97	60013.68
560.13	59948.14
560.30	60081.55
560.46	59931.76
560.63	59880.27
560.79	59964.52
560.96	60097.94
561.12	60137.72
561.29	59831.11
561.45	60191.56
561.61	60350.71
561.78	60044.10
561.94	60083.89
562.11	60104.96
562.27	59915.37
562.44	60254.75
562.60	60161.13
562.77	60245.39
562.93	60236.03
563.10	60285.18
563.26	60133.04
563.42	60397.52
563.59	60182.19
563.75	60278.16
563.92	60301.56
564.08	60264.11
564.24	60502.85
564.41	60240.71
564.57	60097.94
564.74	60104.96
564.90	60406.89
565.07	60392.84
565.23	60631.58
565.39	60530.93
565.56	60341.35
565.72	60111.98
565.88	60348.37
566.05	60285.18
566.21	60207.94
566.38	60390.50
566.54	60519.23
566.70	60605.83
566.87	60683.07
567.03	60722.86
567.19	60706.47
567.36	60486.46
567.52	60350.71
567.68	60568.38
567.85	60383.48
568.01	60591.79
568.17	60385.82
568.34	60629.24
568.50	60662.00
568.66	60708.82
568.83	60769.67
568.99	60383.48
569.15	60477.10
569.32	60509.87
569.48	60605.83
569.64	60860.95
569.81	60516.89
569.97	60598.81
570.13	60779.03
570.30	60919.46
570.46	60589.45
570.62	60736.90
570.78	60776.69
570.95	60624.56
571.11	60767.33
571.27	60690.09
571.43	60786.05
571.60	60779.03
571.76	60905.42
571.92	60704.13
572.09	60884.36
572.25	60767.33
572.41	60786.05
572.57	60809.46
572.74	60802.44
572.90	60530.93
573.06	60678.39
573.22	60774.35
573.38	60907.76
573.55	60788.39
573.71	61006.06
573.87	61174.58
574.03	60711.16
574.20	60994.36
574.36	60846.91
574.52	60779.03
574.68	60701.79
574.84	61066.92
575.01	60917.12
575.17	60905.42
575.33	61127.77
575.49	60956.91
575.65	61092.66
575.82	61078.62
575.98	60816.48
576.14	60940.53
576.30	60973.30
576.46	60872.65
576.62	60917.12
576.79	60835.20
576.95	60975.64
577.11	61029.47
577.27	61024.79
577.43	61125.43
577.59	61120.75
577.75	61066.92
577.92	60917.12
578.08	60872.65
578.24	60821.16
578.40	61027.13
578.56	60870.31
578.72	61132.45
578.88	61146.50
579.04	61095.00
579.21	61069.26
579.37	61010.74
579.53	61080.96
579.69	61029.47
579.85	61092.66
580.01	61118.41
580.17	60973.30
580.33	61045.85
580.49	61272.88
580.65	61160.54
580.82	61165.22
580.98	61095.00
581.14	61076.28
581.30	61027.13
581.46	61120.75
581.62	61162.88
581.78	60935.85
581.94	61202.67
582.10	61073.94
582.26	61347.78
582.42	61109.05
582.58	61343.10
582.74	61310.33
582.90	61265.86
583.06	61300.97
583.22	61289.27
583.38	61193.31
583.54	61230.75
583.70	61127.77
583.86	61158.20
584.02	61073.94
584.18	61310.33
584.34	61153.52
584.50	61240.12
584.66	61317.35
584.82	61188.63
584.98	61387.57
585.14	61141.81
585.30	60966.27
585.46	61137.13
585.62	60935.85
585.78	61226.07
585.94	60996.70
586.10	61205.01
586.26	61176.92
586.42	61602.90
586.58	61539.71
586.74	61284.59
586.90	61174.58
587.06	61106.71
587.22	61155.86
587.38	61055.21
587.54	61324.38
587.70	61373.53
587.86	61460.13
588.02	61361.82
588.18	61509.28
588.34	61172.24
588.49	61434.38
588.65	61319.70
588.81	61329.06
588.97	61305.65
