SpectraSuite Data File
++++++++++++++++++++++++++++++++++++
Date: Fri Oct 04 11:48:39 GMT-05:00 2013
User: price-jones
Dark Spectrum Present: No
Reference Spectrum Present: No
Number of Sampled Component Spectra: 1
Spectrometers: USB2+H05261
Integration Time (usec): 100000 (USB2+H05261)
Spectra Averaged: 1 (USB2+H05261)
Boxcar Smoothing: 0 (USB2+H05261)
Correct for Electrical Dark: No (USB2+H05261)
Strobe/Lamp Enabled: No (USB2+H05261)
Correct for Detector Non-linearity: No (USB2+H05261)
Correct for Stray Light: No (USB2+H05261)
Number of Pixels in Processed Spectrum: 2048
>>>>>Begin Processed Spectral Data<<<<<
365.73	51.49
365.92	51.49
366.12	51.49
366.32	0.00
366.52	0.00
366.72	0.00
366.91	0.00
367.11	0.00
367.31	0.00
367.51	0.00
367.70	0.00
367.90	0.00
368.10	0.00
368.30	0.00
368.49	0.00
368.69	0.00
368.89	0.00
369.09	0.00
369.28	0.00
369.48	0.00
369.68	0.00
369.87	0.00
370.07	4.68
370.27	4.68
370.47	128.73
370.66	341.72
370.86	447.04
371.06	477.47
371.25	554.71
371.45	610.88
371.65	519.60
371.84	475.13
372.04	531.30
372.24	526.62
372.44	521.94
372.63	528.96
372.83	617.90
373.03	496.19
373.22	578.11
373.42	571.09
373.62	622.58
373.81	699.82
374.01	725.57
374.21	606.20
374.40	660.03
374.60	641.31
374.79	648.33
374.99	624.92
375.19	755.99
375.38	601.52
375.58	711.52
375.78	770.04
375.97	760.67
376.17	725.57
376.37	678.76
376.56	669.39
376.76	741.95
376.95	688.12
377.15	765.36
377.35	802.80
377.54	866.00
377.74	795.78
377.93	791.10
378.13	842.59
378.33	835.57
378.52	732.59
378.72	868.34
378.91	816.85
379.11	875.36
379.31	788.76
379.50	791.10
379.70	795.78
379.89	844.93
380.09	847.27
380.28	833.23
380.48	851.96
380.68	873.02
380.87	884.72
381.07	854.30
381.26	868.34
381.46	922.17
381.65	898.77
381.85	835.57
382.04	933.87
382.24	819.19
382.43	929.19
382.63	905.79
382.83	952.60
383.02	1062.60
383.22	926.85
383.41	936.21
383.61	966.64
383.80	943.24
384.00	943.24
384.19	994.73
384.39	994.73
384.58	1034.52
384.78	1006.43
384.97	1172.61
385.17	1062.60
385.36	1100.05
385.56	1071.97
385.75	1046.22
385.95	1071.97
386.14	1156.22
386.34	1123.46
386.53	1188.99
386.72	1130.48
386.92	1121.12
387.11	1093.03
387.31	1081.33
387.50	1163.25
387.70	1083.67
387.89	1196.01
388.09	1146.86
388.28	1142.18
388.48	1022.81
388.67	1261.55
388.86	1196.01
389.06	1268.57
389.25	1210.06
389.45	1114.10
389.64	1210.06
389.84	1348.15
390.03	1259.21
390.22	1371.55
390.42	1275.59
390.61	1357.51
390.81	1287.29
391.00	1324.74
391.19	1301.34
391.39	1188.99
391.58	1226.44
391.78	1394.96
391.97	1444.11
392.16	1394.96
392.36	1425.39
392.55	1432.41
392.75	1397.30
392.94	1451.13
393.13	1439.43
393.33	1490.92
393.52	1472.20
393.71	1502.62
393.91	1507.30
394.10	1444.11
394.29	1448.79
394.49	1558.80
394.68	1593.90
394.88	1589.22
395.07	1605.61
395.26	1549.43
395.46	1563.48
395.65	1687.53
395.84	1638.38
396.04	1755.40
396.23	1682.85
396.42	1689.87
396.62	1696.89
396.81	1699.23
397.00	1687.53
397.19	1727.32
397.39	1771.79
397.58	1820.94
397.77	1781.15
397.97	1816.26
398.16	1760.08
398.35	1853.70
398.55	1750.72
398.74	1952.01
398.93	1834.98
399.12	1926.26
399.32	1863.07
399.51	1968.39
399.70	2069.03
399.90	1937.96
400.09	1987.11
400.28	1980.09
400.47	1991.80
400.67	2022.22
400.86	2078.40
401.05	2078.40
401.24	2005.84
401.44	2157.97
401.63	2216.49
401.82	2120.53
402.01	2150.95
402.21	2143.93
402.40	2211.81
402.59	2115.84
402.78	2155.63
402.97	2209.47
403.17	2249.25
403.36	2230.53
403.55	2172.02
403.74	2328.83
403.93	2399.05
404.13	2452.88
404.32	2352.24
404.51	2438.84
404.70	2436.50
404.89	2483.31
405.09	2413.09
405.28	2478.63
405.47	2588.63
405.66	2532.46
405.85	2525.44
406.05	2597.99
406.24	2633.10
406.43	2696.30
406.62	2736.09
406.81	2715.02
407.00	2635.44
407.20	2689.28
407.39	2712.68
407.58	2787.58
407.77	2787.58
407.96	2920.99
408.15	2923.33
408.34	2839.07
408.54	2888.22
408.73	2899.92
408.92	2958.44
409.11	2888.22
409.30	2988.86
409.49	2991.20
409.68	2972.48
409.87	3042.70
410.07	3143.34
410.26	3040.36
410.45	3080.14
410.64	3103.55
410.83	3105.89
411.02	3251.00
411.21	3377.39
411.40	3290.79
411.59	3323.56
411.78	3307.18
411.98	3262.71
412.17	3508.46
412.36	3410.16
412.55	3391.44
412.74	3571.66
412.93	3365.69
413.12	3562.30
413.31	3646.55
413.50	3548.25
413.69	3641.87
413.88	3728.47
414.07	3637.19
414.26	3761.24
414.45	3777.62
414.64	3833.80
414.83	3941.46
415.02	3861.88
415.22	4028.06
415.41	4098.28
415.60	4074.87
415.79	4051.47
415.98	4093.60
416.17	4114.66
416.36	4131.05
416.55	4241.05
416.74	4276.16
416.93	4280.84
417.12	4390.84
417.31	4484.47
417.50	4428.29
417.69	4519.57
417.88	4486.81
418.07	4435.32
418.26	4575.75
418.45	4585.11
418.64	4751.29
418.83	4709.16
419.02	4470.42
419.21	4823.84
419.39	4943.21
419.58	4716.18
419.77	4770.01
419.96	4772.35
420.15	4744.27
420.34	4755.97
420.53	4964.28
420.72	4999.38
420.91	4915.12
421.10	5039.17
421.29	5245.14
421.48	5130.45
421.67	5149.18
421.86	5022.79
422.05	5048.54
422.24	5088.32
422.43	5022.79
422.61	5214.71
422.80	5254.50
422.99	5130.45
423.18	5266.21
423.37	5287.27
423.56	5357.49
423.75	5341.10
423.94	5149.18
424.13	4891.72
424.32	5060.24
424.50	5153.86
424.69	5423.02
424.88	5371.53
425.07	5254.50
425.26	5273.23
425.45	5308.34
425.64	5254.50
425.83	5303.65
426.01	5245.14
426.20	5298.97
426.39	5231.10
426.58	5289.61
426.77	5399.62
426.96	5418.34
427.15	5434.72
427.33	5343.44
427.52	5455.79
427.71	5397.28
427.90	5638.35
428.09	5769.42
428.28	5633.67
428.46	5680.48
428.65	5830.27
428.84	5746.02
429.03	5865.38
429.22	5441.75
429.40	5928.58
429.59	5961.34
429.78	5638.35
429.97	5746.02
430.16	5598.56
430.34	5785.80
430.53	5921.56
430.72	6045.60
430.91	5898.15
431.10	5802.19
431.28	6043.26
431.47	5994.11
431.66	6197.74
431.85	6157.95
432.03	6249.23
432.22	6389.66
432.41	6328.81
432.60	6279.66
432.79	6186.04
432.97	6363.92
433.16	6310.08
433.35	6270.30
433.54	6504.35
433.72	6483.28
433.91	6597.97
434.10	6647.12
434.28	6443.49
434.47	6579.25
434.66	6670.53
434.85	6649.46
435.03	6817.98
435.22	6642.44
435.41	6827.34
435.59	6892.88
435.78	6834.36
435.97	6979.48
436.16	6771.17
436.34	6951.39
436.53	6956.07
436.72	6960.75
436.90	6869.47
437.09	6970.12
437.28	7030.97
437.46	7084.80
437.65	7007.56
437.84	7192.47
438.02	7084.80
438.21	7056.72
438.40	7054.37
438.58	7258.00
438.77	7667.60
438.96	7365.67
439.14	7536.52
439.33	7672.28
439.52	7599.72
439.70	7623.12
439.89	7751.85
440.08	7782.28
440.26	7803.35
440.45	7765.90
440.63	7850.16
440.82	7868.88
441.01	7824.41
441.19	8166.13
441.38	8248.05
441.57	8273.79
441.75	8344.01
441.94	8629.56
442.12	8484.44
442.31	8535.93
442.50	8535.93
442.68	8435.29
442.87	8542.96
443.05	8835.52
443.24	8676.37
443.43	8711.47
443.61	8851.91
443.80	8973.61
443.98	8769.99
444.17	8540.61
444.35	8903.40
444.54	8992.34
444.73	8837.86
444.91	8800.41
445.10	8865.95
445.28	8847.22
445.47	8638.92
445.65	8985.32
445.84	9074.26
446.02	8975.95
446.21	9128.09
446.39	8784.03
446.58	9184.26
446.77	9015.74
446.95	9114.05
447.14	9020.42
447.32	8891.70
447.51	9212.35
447.69	9298.95
447.88	9179.58
448.06	9128.09
448.25	8954.89
448.43	9210.01
448.62	9184.26
448.80	9195.96
448.99	9376.19
449.17	9205.33
449.36	9284.91
449.54	9493.21
449.73	9497.89
449.91	9544.70
450.10	9774.08
450.28	9678.12
450.46	9710.88
450.65	9596.20
450.83	9563.43
451.02	9954.30
451.20	9652.37
451.39	10047.92
451.57	9900.47
451.76	9848.97
451.94	9940.26
452.13	10118.14
452.31	9863.02
452.49	9928.55
452.68	10113.45
452.86	10164.95
453.05	10183.67
453.23	10338.15
453.42	10001.11
453.60	10237.50
453.78	10139.20
453.97	10061.96
454.15	10235.16
454.34	10211.76
454.52	10424.75
454.70	10469.22
454.89	10256.23
455.07	10527.73
455.26	10761.78
455.44	10686.89
455.62	10558.16
455.81	10511.35
455.99	10668.16
456.17	10810.93
456.36	10740.72
456.54	10995.84
456.73	10892.85
456.91	11143.29
457.09	11323.51
457.28	11389.05
457.46	11166.70
457.64	11604.38
457.83	11300.11
458.01	11309.47
458.19	11360.96
458.38	11417.13
458.56	11461.60
458.74	11550.54
458.93	11494.37
459.11	11459.26
459.29	11470.97
459.48	11585.65
459.66	11672.25
459.84	11754.17
460.03	12100.57
460.21	11836.09
460.39	11889.92
460.57	12058.44
460.76	11798.64
460.94	11978.86
461.12	11936.73
461.31	12081.85
461.49	11967.16
461.67	11978.86
461.85	12248.02
462.04	12184.83
462.22	12711.45
462.40	12475.06
462.59	12306.54
462.77	12201.21
462.95	12348.67
463.13	12461.01
463.32	12489.10
463.50	12681.02
463.68	12519.53
463.86	12627.19
464.05	12521.87
464.23	12688.04
464.41	12858.90
464.59	12400.16
464.78	12966.57
464.96	12943.16
465.14	12666.98
465.32	13181.90
465.50	13231.05
465.69	12987.63
465.87	12917.42
466.05	12882.31
466.23	13156.15
466.41	13078.91
466.60	13760.01
466.78	13350.42
466.96	13252.11
467.14	13369.14
467.32	13369.14
467.51	13514.25
467.69	12788.69
467.87	13322.33
468.05	13884.06
468.23	13383.18
468.41	13544.68
468.60	13731.92
468.78	13757.67
468.96	13460.42
469.14	13710.86
469.32	13912.14
469.50	13612.56
469.69	14024.49
469.87	14087.68
470.05	14195.35
470.23	14038.53
470.41	14169.60
470.59	14551.11
470.77	14111.09
470.95	14326.42
471.14	14445.79
471.32	14188.33
471.50	14808.57
471.68	14663.46
471.86	14860.06
472.04	14857.72
472.22	15192.42
472.40	14960.70
472.58	14778.14
472.77	15044.96
472.95	15183.06
473.13	15470.94
473.31	15112.84
473.49	15255.61
473.67	15180.71
473.85	15276.68
474.03	15857.13
474.21	15618.39
474.39	16013.95
474.57	16030.33
474.75	16322.90
474.93	16334.60
475.12	16240.98
475.30	16269.06
475.48	16276.09
475.66	16292.47
475.84	16671.64
476.02	16758.24
476.20	16631.85
476.38	16798.02
476.56	17252.09
476.74	17310.60
476.92	17099.95
477.10	17193.58
477.28	17495.50
477.46	17291.88
477.64	17869.99
477.82	18064.25
478.00	18314.69
478.18	18211.71
478.36	18490.23
478.54	18174.26
478.72	18394.27
478.90	18810.89
479.08	18930.25
479.26	19145.58
479.44	19082.39
479.62	19215.80
479.80	19531.77
479.98	19826.68
480.16	19899.23
480.34	20044.35
480.52	20116.90
480.70	19988.18
480.88	20081.80
481.06	20601.40
481.24	20393.09
481.41	20505.43
481.59	20893.96
481.77	21081.21
481.95	21172.49
482.13	21132.70
482.31	21654.64
482.49	21851.24
482.67	21640.59
482.85	21862.94
483.03	22459.78
483.21	22457.44
483.39	22696.17
483.57	22508.93
483.74	22745.33
483.92	23030.87
484.10	22892.78
484.28	23447.49
484.46	23782.18
484.64	24350.93
484.82	23864.10
485.00	24166.03
485.18	24765.21
485.35	24786.27
485.53	25111.61
485.71	24858.83
485.89	25144.38
486.07	25207.57
486.25	25282.47
486.43	25600.78
486.61	25757.60
486.78	26232.72
486.96	25970.58
487.14	26661.04
487.32	26686.79
487.50	27131.49
487.68	26962.97
487.85	27370.22
488.03	28079.41
488.21	28245.58
488.39	28231.54
488.57	28102.81
488.75	28318.14
488.92	29029.66
489.10	29017.96
489.28	28905.62
489.46	29488.41
489.64	29493.09
489.81	29898.00
489.99	29874.60
490.17	30167.16
490.35	30438.67
490.53	30506.54
490.70	30925.50
490.88	30899.75
491.06	31049.55
491.24	31126.78
491.41	31482.55
491.59	31742.35
491.77	31845.33
491.95	32147.26
492.13	32268.97
492.30	32444.51
492.48	32645.79
492.66	32996.87
492.84	32868.14
493.01	33315.19
493.19	33472.00
493.37	33989.26
493.54	33809.04
493.72	33701.37
493.90	33745.84
494.08	34211.61
494.25	34684.40
494.43	34948.88
494.61	35002.71
494.79	35454.44
494.96	35161.87
495.14	35428.69
495.32	35896.80
495.49	36095.74
495.67	36229.15
495.85	36573.21
496.02	36811.95
496.20	36807.26
496.38	36580.23
496.55	36727.69
496.73	38085.20
496.91	37420.48
497.09	37954.13
497.26	38073.49
497.44	37809.01
497.62	38216.27
497.79	38562.67
497.97	38698.42
498.14	39288.23
498.32	39145.46
498.50	39122.05
498.67	39407.60
498.85	39423.98
499.03	39538.67
499.20	40034.86
499.38	39887.41
499.56	40491.27
499.73	40521.69
499.91	40797.88
500.08	40634.04
500.26	40451.48
500.44	40926.61
500.61	41214.49
500.79	40840.01
500.97	41329.18
501.14	42092.19
501.32	41549.19
501.49	41420.46
501.67	41605.36
501.84	41907.29
502.02	42066.45
502.20	42370.72
502.37	42405.83
502.55	42274.76
502.72	42511.15
502.90	42883.30
503.07	42663.28
503.25	43049.47
503.43	42775.63
503.60	43779.72
503.78	43758.66
503.95	43484.81
504.13	43290.55
504.30	43533.96
504.48	43784.40
504.65	44093.35
504.83	44411.67
505.01	44760.40
505.18	44514.65
505.36	44669.12
505.53	44414.01
505.71	45008.50
505.88	44900.84
506.06	44797.85
506.23	45350.22
506.41	45359.58
506.58	45516.40
506.76	45900.25
506.93	45998.55
507.11	45265.96
507.28	46012.59
507.46	45799.60
507.63	46335.59
507.81	46274.73
507.98	46241.96
508.16	46536.87
508.33	46677.30
508.50	47019.02
508.68	46614.11
508.85	47147.75
509.03	47208.61
509.20	47653.31
509.38	47945.87
509.55	47709.48
509.73	47964.60
509.90	47704.80
510.08	47992.68
510.25	48060.56
510.42	48093.33
510.60	48411.64
510.77	48488.88
510.95	48959.33
511.12	48303.98
511.30	48479.52
511.47	48816.55
511.64	48928.90
511.82	49031.88
511.99	48849.32
512.17	49221.47
512.34	49338.49
512.51	49722.34
512.69	49539.78
512.86	49354.88
513.04	49734.04
513.21	50115.55
513.38	49930.65
513.56	49925.97
513.73	49532.76
513.90	50267.69
514.08	50064.06
514.25	50417.48
514.43	50183.43
514.60	50541.53
514.77	50901.97
514.95	50721.75
515.12	50506.42
515.29	50632.81
515.47	51276.46
515.64	51236.67
515.81	50995.59
515.99	51154.75
516.16	51636.90
516.33	51187.52
516.51	51421.57
516.68	51330.29
516.85	51409.87
517.03	51793.71
517.20	51936.49
517.37	52051.17
517.54	52048.83
517.72	51948.19
517.89	51880.31
518.06	51800.74
518.24	51625.20
518.41	52198.63
518.58	52444.38
518.75	52357.78
518.93	52715.89
519.10	52727.59
519.27	52666.73
519.45	52640.99
519.62	52453.75
519.79	52680.78
519.96	52629.29
520.14	53088.03
520.31	53158.25
520.48	53399.32
520.65	52949.94
520.83	53088.03
521.00	53310.38
521.17	53263.57
521.34	53476.56
521.52	53593.59
521.69	53607.63
521.86	53312.72
522.03	53832.32
522.20	54031.27
522.38	54262.98
522.55	53996.16
522.72	53958.71
522.89	53909.56
523.07	54218.51
523.24	54129.57
523.41	54358.94
523.58	54122.55
523.75	54412.77
523.92	54202.13
524.10	54284.04
524.27	54614.06
524.44	54674.91
524.61	54714.70
524.78	54632.78
524.96	54707.68
525.13	54834.07
525.30	54749.81
525.47	54831.73
525.64	54740.45
525.81	55021.31
525.98	55196.85
526.16	55236.64
526.33	55150.04
526.50	55213.24
526.67	55089.19
526.84	55524.53
527.01	55227.28
527.18	55327.92
527.36	55636.87
527.53	55543.25
527.70	55777.31
527.87	55868.59
528.04	55419.20
528.21	55540.91
528.38	55648.58
528.55	56062.85
528.72	55781.99
528.89	55838.16
529.07	55896.67
529.24	55770.28
529.41	55920.08
529.58	55868.59
529.75	56135.41
529.92	56100.30
530.09	56193.92
530.26	56341.38
530.43	56523.94
530.60	56315.63
530.77	56175.20
530.94	56324.99
531.11	56243.07
531.28	56116.68
531.46	56465.42
531.63	56563.73
531.80	56811.82
531.97	56736.93
532.14	56683.09
532.31	56589.47
532.48	56626.92
532.65	56788.42
532.82	56582.45
532.99	56905.44
533.16	56736.93
533.33	57141.84
533.50	57151.20
533.67	57003.75
533.84	56818.84
534.01	56921.83
534.18	56886.72
534.35	57329.08
534.52	57317.38
534.69	57504.62
534.86	57619.31
535.03	57368.87
535.20	57448.45
535.37	57570.16
535.54	57605.26
535.71	57446.11
535.88	57401.64
536.05	57385.25
536.22	57588.88
536.38	57897.83
536.55	57694.21
536.72	57572.50
536.89	57570.16
537.06	57649.74
537.23	57818.25
537.40	57642.71
537.57	57684.84
537.74	57731.65
537.91	58085.07
538.08	57904.85
538.25	58042.95
538.42	57939.96
538.59	58237.21
538.75	57888.47
538.92	57986.77
539.09	58272.32
539.26	58286.36
539.43	58258.27
539.60	58370.62
539.77	58370.62
539.94	58536.80
540.11	58358.92
540.28	58337.85
540.44	58363.60
540.61	58387.00
540.78	58288.70
540.95	58688.93
541.12	58422.11
541.29	58609.35
541.46	58562.54
541.62	58562.54
541.79	58635.10
541.96	58464.24
542.13	58639.78
542.30	58944.05
542.47	58679.57
542.63	58838.73
542.80	58955.75
542.97	59107.89
543.14	59121.93
543.31	59077.46
543.48	59000.22
543.64	59531.53
543.81	59173.42
543.98	59386.41
544.15	59545.57
544.32	59253.00
544.48	59533.87
544.65	59245.98
544.82	59143.00
544.99	59250.66
545.16	59529.19
545.32	59583.02
545.49	59831.11
545.66	59859.20
545.83	59913.03
546.00	59880.27
546.16	59760.90
546.33	59428.54
546.50	59227.26
546.67	59728.13
546.83	59412.16
547.00	59721.11
547.17	59646.21
547.34	59746.86
547.50	59903.67
547.67	60093.25
547.84	59774.94
548.00	59847.50
548.17	60116.66
548.34	59948.14
548.51	59994.95
548.67	60095.60
548.84	60001.97
549.01	60285.18
549.18	60039.42
549.34	59831.11
549.51	60184.54
549.68	60168.15
549.84	60067.51
550.01	60257.09
550.18	60151.77
550.34	60413.91
550.51	60411.57
550.68	60315.61
550.84	60144.75
551.01	60336.67
551.18	60144.75
551.34	60226.66
551.51	60177.51
551.68	60357.74
551.84	60563.70
552.01	60381.14
552.18	60643.28
552.34	60383.48
552.51	60453.70
552.68	60495.83
552.84	60535.62
553.01	60568.38
553.18	60736.90
553.34	60669.03
553.51	60467.74
553.67	60809.46
553.84	61099.68
554.01	60973.30
554.17	60830.52
554.34	60690.09
554.51	60914.78
554.67	60924.14
554.84	60938.19
555.00	60924.14
555.17	61034.15
555.33	60980.32
555.50	60928.83
555.67	60989.68
555.83	61095.00
556.00	60931.17
556.16	61207.35
556.33	60999.04
556.50	60884.36
556.66	61200.33
556.83	61139.47
556.99	61240.12
557.16	61240.12
557.32	61193.31
557.49	61139.47
557.65	60985.00
557.82	61052.87
557.98	61085.64
558.15	61291.61
558.32	61343.10
558.48	61207.35
558.65	61432.04
558.81	61551.41
558.98	61277.57
559.14	61305.65
559.31	61202.67
559.47	61307.99
559.64	61460.13
559.80	61497.58
559.97	61516.30
560.13	61340.76
560.30	61422.68
560.46	61572.47
560.63	61481.19
560.79	61518.64
560.96	61509.28
561.12	61467.15
561.29	61574.81
561.45	61535.02
561.61	61701.20
561.78	61717.59
561.94	61715.25
562.11	61549.07
562.27	61485.87
562.44	61516.30
562.60	61654.39
562.77	61731.63
562.93	61471.83
563.10	61930.58
563.26	61680.14
563.42	61893.13
563.59	61858.02
563.75	61799.50
563.92	61818.23
564.08	61717.59
564.24	61801.85
564.41	61701.20
564.57	61766.74
564.74	61595.88
564.90	61740.99
565.07	61977.39
565.23	62049.94
565.39	61963.34
565.56	62052.28
565.72	61953.98
565.88	61853.34
566.05	61834.61
566.21	61846.32
566.38	61834.61
566.54	61951.64
566.70	62241.87
566.87	62166.97
567.03	61939.94
567.19	62391.66
567.36	62017.17
567.52	61776.10
567.68	62096.75
567.85	61909.51
568.01	62021.86
568.17	61982.07
568.34	62000.79
568.50	62223.14
568.66	62190.37
568.83	62246.55
568.99	61958.66
569.15	61930.58
569.32	62010.15
569.48	61815.89
569.64	62115.48
569.81	62169.31
569.97	61942.28
570.13	62204.42
570.30	62078.03
570.46	62063.99
570.62	62010.15
570.78	61928.23
570.95	62047.60
571.11	62150.59
571.27	61956.32
571.43	61972.70
571.60	62157.61
571.76	62117.82
571.92	62195.06
572.09	62314.42
572.25	62305.06
572.41	62330.81
572.57	62181.01
572.74	62424.43
572.90	62159.95
573.06	62148.24
573.22	62337.83
573.38	62202.08
573.55	62340.17
573.71	62550.82
573.87	62424.43
574.03	62323.78
574.20	62305.06
574.36	62204.42
574.52	62499.33
574.68	62181.01
574.84	62532.09
575.01	62459.54
575.17	62485.28
575.33	62307.40
575.49	62276.97
575.65	62602.31
575.82	62457.20
575.98	62445.49
576.14	62499.33
576.30	62265.27
576.46	62576.56
576.62	62501.67
576.79	62443.15
576.95	62188.03
577.11	62354.21
577.27	62431.45
577.43	62522.73
577.59	62436.13
577.75	62234.84
577.92	62319.10
578.08	62342.51
578.24	62284.00
578.40	62396.34
578.56	62272.29
578.72	62302.72
578.88	62658.48
579.04	62539.11
579.21	62557.84
579.37	62468.90
579.53	62492.30
579.69	62197.40
579.85	62316.76
580.01	62377.62
580.17	62389.32
580.33	62548.48
580.49	62609.33
580.65	62712.31
580.82	62724.02
580.98	62597.63
581.14	62534.43
581.30	62515.71
581.46	62459.54
581.62	62681.89
581.78	62527.41
581.94	62550.82
582.10	62588.27
582.26	62410.38
582.42	62443.15
582.58	62583.58
582.74	62532.09
582.90	62695.93
583.06	62693.59
583.22	62665.50
583.38	62616.35
583.54	62695.93
583.70	62550.82
583.86	62651.46
584.02	62635.08
584.18	62625.71
584.34	62796.57
584.50	62927.64
584.66	62569.54
584.82	62386.98
584.98	62616.35
585.14	62646.78
585.30	62386.98
585.46	62578.90
585.62	62557.84
585.78	62805.94
585.94	62672.52
586.10	62574.22
586.26	62695.93
586.42	62651.46
586.58	62859.77
586.74	62398.68
586.90	62618.69
587.06	62454.86
587.22	62658.48
587.38	62492.30
587.54	62721.68
587.70	62761.47
587.86	62798.91
588.02	62709.97
588.18	62862.11
588.34	62791.89
588.49	62803.59
588.65	62508.69
588.81	62644.44
