SpectraSuite Data File
++++++++++++++++++++++++++++++++++++
Date: Fri Oct 04 11:48:41 GMT-05:00 2013
User: price-jones
Dark Spectrum Present: No
Reference Spectrum Present: No
Number of Sampled Component Spectra: 1
Spectrometers: USB2+H05261
Integration Time (usec): 100000 (USB2+H05261)
Spectra Averaged: 1 (USB2+H05261)
Boxcar Smoothing: 0 (USB2+H05261)
Correct for Electrical Dark: No (USB2+H05261)
Strobe/Lamp Enabled: No (USB2+H05261)
Correct for Detector Non-linearity: No (USB2+H05261)
Correct for Stray Light: No (USB2+H05261)
Number of Pixels in Processed Spectrum: 2048
>>>>>Begin Processed Spectral Data<<<<<
365.73	9.36
365.92	9.36
366.12	9.36
366.32	0.00
366.52	0.00
366.72	9.36
366.91	0.00
367.11	11.70
367.31	0.00
367.51	0.00
367.70	0.00
367.90	0.00
368.10	0.00
368.30	0.00
368.49	0.00
368.69	0.00
368.89	0.00
369.09	0.00
369.28	0.00
369.48	35.11
369.68	0.00
369.87	0.00
370.07	0.00
370.27	14.04
370.47	117.03
370.66	367.46
370.86	351.08
371.06	449.38
371.25	409.59
371.45	491.51
371.65	468.11
371.84	393.21
372.04	360.44
372.24	458.74
372.44	517.26
372.63	451.72
372.83	578.11
373.03	503.22
373.22	496.19
373.42	571.09
373.62	547.69
373.81	552.37
374.01	538.32
374.21	587.47
374.40	606.20
374.60	550.03
374.79	594.50
374.99	580.45
375.19	589.82
375.38	660.03
375.58	690.46
375.78	620.24
375.97	589.82
376.17	699.82
376.37	674.07
376.56	580.45
376.76	596.84
376.95	624.92
377.15	711.52
377.35	683.44
377.54	706.84
377.74	690.46
377.93	622.58
378.13	641.31
378.33	678.76
378.52	730.25
378.72	692.80
378.91	650.67
379.11	685.78
379.31	699.82
379.50	641.31
379.70	758.33
379.89	716.20
380.09	674.07
380.28	734.93
380.48	650.67
380.68	711.52
380.87	692.80
381.07	744.29
381.26	854.30
381.46	784.08
381.65	753.65
381.85	809.83
382.04	805.14
382.24	723.23
382.43	741.95
382.63	821.53
382.83	753.65
383.02	755.99
383.22	844.93
383.41	889.40
383.61	863.66
383.80	774.72
384.00	901.11
384.19	840.25
384.39	877.70
384.58	924.51
384.78	861.32
384.97	837.91
385.17	835.57
385.36	823.87
385.56	847.27
385.75	842.59
385.95	919.83
386.14	959.62
386.34	919.83
386.53	912.81
386.72	894.08
386.92	992.39
387.11	910.47
387.31	915.15
387.50	950.26
387.70	966.64
387.89	936.21
388.09	999.41
388.28	950.26
388.48	945.58
388.67	1027.50
388.86	1086.01
389.06	954.94
389.25	1076.65
389.45	1083.67
389.64	1034.52
389.84	1081.33
390.03	1071.97
390.22	1076.65
390.42	1036.86
390.61	1029.84
390.81	1067.28
391.00	1053.24
391.19	1158.57
391.39	1153.88
391.58	1188.99
391.78	1228.78
391.97	1221.76
392.16	1144.52
392.36	1128.14
392.55	1163.25
392.75	1228.78
392.94	1282.61
393.13	1186.65
393.33	1261.55
393.52	1170.27
393.71	1245.16
393.91	1123.46
394.10	1219.42
394.29	1306.02
394.49	1238.14
394.68	1352.83
394.88	1301.34
395.07	1409.00
395.26	1259.21
395.46	1275.59
395.65	1409.00
395.84	1462.83
396.04	1500.28
396.23	1331.76
396.42	1357.51
396.62	1350.49
396.81	1380.92
397.00	1481.56
397.19	1397.30
397.39	1432.41
397.58	1504.96
397.77	1530.71
397.97	1526.03
398.16	1460.49
398.35	1647.74
398.55	1577.52
398.74	1577.52
398.93	1610.29
399.12	1600.93
399.32	1523.69
399.51	1465.18
399.70	1678.16
399.90	1612.63
400.09	1710.93
400.28	1685.19
400.47	1757.74
400.67	1727.32
400.86	1748.38
401.05	1715.61
401.24	1748.38
401.44	1696.89
401.63	1694.55
401.82	1834.98
402.01	1867.75
402.21	1706.25
402.40	1820.94
402.59	1849.02
402.78	1734.34
402.97	1692.21
403.17	1966.05
403.36	1863.07
403.55	1858.39
403.74	1895.83
403.93	2005.84
404.13	2078.40
404.32	2029.24
404.51	1907.54
404.70	1987.11
404.89	1935.62
405.09	2078.40
405.28	1923.92
405.47	1963.71
405.66	2150.95
405.85	2136.91
406.05	2174.36
406.24	2218.83
406.43	2160.31
406.62	2132.23
406.81	2242.23
407.00	2157.97
407.20	2216.49
407.39	2174.36
407.58	2218.83
407.77	2270.32
407.96	2282.02
408.15	2310.11
408.34	2352.24
408.54	2307.77
408.73	2326.49
408.92	2420.11
409.11	2466.92
409.30	2490.33
409.49	2413.09
409.68	2450.54
409.87	2422.45
410.07	2389.69
410.26	2569.91
410.45	2464.58
410.64	2614.38
410.83	2729.06
411.02	2586.29
411.21	2672.89
411.40	2679.91
411.59	2703.32
411.78	2796.94
411.98	2745.45
412.17	2789.92
412.36	2825.03
412.55	2855.45
412.74	2890.56
412.93	2991.20
413.12	2827.37
413.31	3038.02
413.50	2925.67
413.69	2977.16
413.88	3133.98
414.07	2972.48
414.26	3157.38
414.45	3075.46
414.64	3173.77
414.83	3255.69
415.02	3112.91
415.22	3119.93
415.41	3274.41
415.60	3370.37
415.79	3330.58
415.98	3417.18
416.17	3428.88
416.36	3398.46
416.55	3445.27
416.74	3492.08
416.93	3543.57
417.12	3548.25
417.31	3473.36
417.50	3611.45
417.69	3597.40
417.88	3789.33
418.07	3644.21
418.26	3707.41
418.45	3632.51
418.64	3794.01
418.83	3838.48
419.02	3719.11
419.21	3885.29
419.39	3880.61
419.58	3932.10
419.77	3812.73
419.96	3901.67
420.15	4004.66
420.34	3899.33
420.53	4060.83
420.72	4014.02
420.91	4095.94
421.10	4217.65
421.29	4166.15
421.48	4030.40
421.67	4238.71
421.86	4032.74
422.05	4133.39
422.24	4145.09
422.43	4086.58
422.61	4147.43
422.80	4198.92
422.99	4208.28
423.18	4276.16
423.37	4292.54
423.56	4170.83
423.75	4152.11
423.94	4245.73
424.13	3974.23
424.32	4056.15
424.50	4311.27
424.69	4421.27
424.88	4301.90
425.07	4287.86
425.26	4259.78
425.45	4346.37
425.64	4128.70
425.83	4334.67
426.01	4325.31
426.20	4430.63
426.39	4332.33
426.58	4367.44
426.77	4383.82
426.96	4372.12
427.15	4252.75
427.33	4500.85
427.52	4451.70
427.71	4547.66
427.90	4521.92
428.09	4510.21
428.28	4629.58
428.46	4664.69
428.65	4660.01
428.84	4718.52
429.03	4697.46
429.22	4699.80
429.40	4753.63
429.59	4777.03
429.78	4716.18
429.97	4461.06
430.16	4573.41
430.34	4596.81
430.53	4828.53
430.72	4880.02
430.91	4812.14
431.10	4711.50
431.28	5135.14
431.47	5053.22
431.66	5090.67
431.85	4943.21
432.03	5027.47
432.22	5193.65
432.41	5097.69
432.60	5039.17
432.79	5032.15
432.97	5160.88
433.16	5160.88
433.35	5191.31
433.54	5221.74
433.72	5095.35
433.91	5266.21
434.10	5383.23
434.28	5327.06
434.47	5242.80
434.66	5455.79
434.85	5441.75
435.03	5308.34
435.22	5495.58
435.41	5523.66
435.59	5530.69
435.78	5474.51
435.97	5577.50
436.16	5483.88
436.34	5652.39
436.53	5746.02
436.72	5853.68
436.90	5497.92
437.09	5706.23
437.28	5577.50
437.46	5675.80
437.65	5607.92
437.84	5907.51
438.02	5778.78
438.21	6003.47
438.40	5944.96
438.58	6031.56
438.77	6083.05
438.96	6038.58
439.14	6244.55
439.33	6270.30
439.52	6312.42
439.70	6235.19
439.89	6317.11
440.08	6431.79
440.26	6272.64
440.45	6427.11
440.63	6516.05
440.82	6523.07
441.01	6527.75
441.19	6513.71
441.38	6752.45
441.57	6722.02
441.75	6813.30
441.94	6956.07
442.12	6789.89
442.31	7014.59
442.50	6939.69
442.68	7000.54
442.87	6890.54
443.05	6909.26
443.24	7279.07
443.43	7098.84
443.61	7094.16
443.80	7262.68
443.98	6974.80
444.17	6937.35
444.35	7192.47
444.54	7215.87
444.73	7260.34
444.91	7143.32
445.10	7225.23
445.28	7169.06
445.47	7246.30
445.65	7140.97
445.84	7246.30
446.02	7234.60
446.21	7342.26
446.39	7033.31
446.58	7412.48
446.77	7517.80
446.95	7239.28
447.14	7143.32
447.32	7330.56
447.51	7372.69
447.69	7461.63
447.88	7536.52
448.06	7400.77
448.25	7396.09
448.43	7515.46
448.62	7316.51
448.80	7414.82
448.99	7793.98
449.17	7681.64
449.36	7578.65
449.54	7775.26
449.73	7665.25
449.91	7829.09
450.10	7742.49
450.28	8030.38
450.46	7859.52
450.65	7943.78
450.83	8035.06
451.02	7702.70
451.20	7960.16
451.39	8084.21
451.57	7948.46
451.76	8039.74
451.94	8016.33
452.13	8128.68
452.31	8259.75
452.49	8219.96
452.68	8112.30
452.86	8016.33
453.05	8264.43
453.23	8269.11
453.42	8053.78
453.60	8086.55
453.78	8339.33
453.97	8229.32
454.15	8182.51
454.34	8177.83
454.52	8461.04
454.70	8643.60
454.89	8554.66
455.07	8315.92
455.26	8655.30
455.44	8674.03
455.62	8435.29
455.81	8421.25
455.99	8685.73
456.17	8760.63
456.36	8587.43
456.54	8980.64
456.73	8858.93
456.91	9046.17
457.09	9060.21
457.28	9254.48
457.46	9186.60
457.64	9170.22
457.83	9013.40
458.01	9053.19
458.19	9261.50
458.38	9205.33
458.56	9495.55
458.74	9275.54
458.93	9383.21
459.11	9338.74
459.29	9455.76
459.48	9495.55
459.66	9427.68
459.84	9528.32
460.03	9867.70
460.21	9614.92
460.39	9783.44
460.57	9528.32
460.76	9788.12
460.94	9825.57
461.12	9650.03
461.31	9757.69
461.49	9710.88
461.67	9816.21
461.85	10008.13
462.04	9909.83
462.22	10492.62
462.40	9853.66
462.59	10047.92
462.77	10099.41
462.95	10141.54
463.13	10071.33
463.32	10235.16
463.50	10125.16
463.68	10253.89
463.86	10265.59
464.05	10265.59
464.23	10122.82
464.41	10417.72
464.59	10167.29
464.78	10487.94
464.96	10289.00
465.14	10183.67
465.32	10647.10
465.50	10576.88
465.69	10672.84
465.87	10553.48
466.05	10602.63
466.23	10546.45
466.41	10721.99
466.60	10869.45
466.78	10721.99
466.96	10586.24
467.14	10541.77
467.32	10906.90
467.51	10988.82
467.69	10574.54
467.87	10876.47
468.05	10909.24
468.23	10761.78
468.41	10897.53
468.60	11171.38
468.78	11215.85
468.96	10867.11
469.14	11438.20
469.32	11204.14
469.50	10881.15
469.69	11311.81
469.87	11407.77
470.05	11393.73
470.23	11351.60
470.41	11665.23
470.59	11665.23
470.77	11489.69
470.95	11522.46
471.14	11995.25
471.32	11452.24
471.50	11749.49
471.68	12025.67
471.86	11859.49
472.04	11978.86
472.22	12189.51
472.40	11817.36
472.58	12109.93
472.77	12358.03
472.95	12395.48
473.13	12716.13
473.31	12262.07
473.49	12360.37
473.67	12336.96
473.85	12554.63
474.03	12468.03
474.21	12905.71
474.39	12940.82
474.57	12936.14
474.75	13118.70
474.93	13104.66
475.12	12954.87
475.30	13348.08
475.48	13074.23
475.66	13460.42
475.84	13411.27
476.02	13568.09
476.20	13298.92
476.38	13944.91
476.56	13891.08
476.74	13862.99
476.92	13783.41
477.10	14188.33
477.28	14562.81
477.46	14066.62
477.64	14352.16
477.82	14581.54
478.00	14558.13
478.18	15080.07
478.36	14960.70
478.54	15096.46
478.72	15110.50
478.90	15396.04
479.08	15669.89
479.26	15578.61
479.44	15428.81
479.62	15557.54
479.80	15669.89
479.98	15943.73
480.16	15981.18
480.34	16287.79
480.52	16542.91
480.70	16283.11
480.88	16147.36
481.06	16589.72
481.24	16484.39
481.41	16961.86
481.59	17076.55
481.77	17167.83
481.95	17247.41
482.13	17308.26
482.31	16964.20
482.49	17556.36
482.67	17493.16
482.85	17818.50
483.03	18284.26
483.21	18345.12
483.39	18682.16
483.57	18335.76
483.74	18520.66
483.92	18820.25
484.10	18759.39
484.28	18855.36
484.46	19513.05
484.64	19573.90
484.82	19101.11
485.00	19580.92
485.18	19756.46
485.35	20074.77
485.53	20290.10
485.71	19932.00
485.89	20489.05
486.07	20673.95
486.25	20519.48
486.43	20601.40
486.61	20959.50
486.78	21195.89
486.96	21406.54
487.14	21598.46
487.32	21720.17
487.50	21745.92
487.68	22199.98
487.85	21935.50
488.03	22562.76
488.21	22759.37
488.39	22647.02
488.57	22558.08
488.75	23054.28
488.92	23786.86
489.10	23501.32
489.28	23843.04
489.46	23681.54
489.64	24170.71
489.81	24414.13
489.99	24259.65
490.17	24315.83
490.35	24884.58
490.53	24844.79
490.70	24975.86
490.88	25074.16
491.06	25184.16
491.24	25324.60
491.41	25434.60
491.59	25652.27
491.77	25811.43
491.95	26202.30
492.13	26291.24
492.30	26410.60
492.48	26555.72
492.66	26611.89
492.84	26410.60
493.01	26796.79
493.19	27182.98
493.37	27115.11
493.54	27550.45
493.72	27697.90
493.90	28210.48
494.08	27953.02
494.25	28386.02
494.43	28402.40
494.61	28294.74
494.79	28849.44
494.96	28690.29
495.14	28999.24
495.32	29062.43
495.49	29312.87
495.67	29425.22
495.85	29898.00
496.02	29825.45
496.20	30174.19
496.38	29895.66
496.55	30087.59
496.73	30829.54
496.91	30511.22
497.09	30595.48
497.26	31033.16
497.44	30778.04
497.62	30881.03
497.79	31150.19
497.97	31229.77
498.14	31952.99
498.32	32362.59
498.50	31892.14
498.67	32584.94
498.85	32383.65
499.03	32723.03
499.20	32816.65
499.38	32706.65
499.56	33055.39
499.73	33144.33
499.91	32655.15
500.08	33450.94
500.26	33083.47
500.44	33652.22
500.61	33076.45
500.79	33593.71
500.97	33968.19
501.14	34113.31
501.32	33989.26
501.49	33986.92
501.67	34204.59
501.84	34162.46
502.02	34433.96
502.20	34883.34
502.37	35007.39
502.55	34646.95
502.72	34930.16
502.90	35037.82
503.07	35182.93
503.25	35182.93
503.43	35229.74
503.60	35332.73
503.78	35536.35
503.95	35335.07
504.13	35791.47
504.30	35894.46
504.48	35777.43
504.65	36285.33
504.83	36341.50
505.01	36095.74
505.18	36507.68
505.36	36891.52
505.53	36959.40
505.71	36816.63
505.88	37244.94
506.06	37031.96
506.23	36982.80
506.41	36865.78
506.58	37256.65
506.76	38007.96
506.93	38148.39
507.11	37413.46
507.28	37748.16
507.46	37998.60
507.63	37912.00
507.81	38256.06
507.98	38190.52
508.16	38185.84
508.33	38473.73
508.50	38581.39
508.68	38447.98
508.85	38972.26
509.03	39115.03
509.20	39234.40
509.38	39660.38
509.55	39519.95
509.73	39709.53
509.90	39449.73
510.08	39559.73
510.25	39653.36
510.42	39629.95
510.60	40404.67
510.77	40376.58
510.95	40172.96
511.12	40257.21
511.30	39950.60
511.47	41076.40
511.64	41123.21
511.82	41153.64
511.99	41462.59
512.17	40957.03
512.34	40978.10
512.51	41471.95
512.69	41198.11
512.86	41570.25
513.04	41762.18
513.21	42040.70
513.38	42064.11
513.56	42169.43
513.73	41762.18
513.90	41963.46
514.08	42019.64
514.25	42511.15
514.43	42642.22
514.60	42401.14
514.77	42462.00
514.95	42735.84
515.12	42752.23
515.29	42658.60
515.47	42951.17
515.64	43522.26
515.81	43047.13
515.99	43061.18
516.16	43714.19
516.33	43981.01
516.51	43409.92
516.68	43592.48
516.85	43690.78
517.03	44336.77
517.20	44011.43
517.37	44236.12
517.54	43924.83
517.72	43861.64
517.89	44240.81
518.06	43896.75
518.24	44355.49
518.41	44327.41
518.58	44760.40
518.75	44507.63
518.93	44931.26
519.10	44952.33
519.27	45013.18
519.45	44835.30
519.62	44275.91
519.79	45162.98
519.96	45586.61
520.14	45710.66
520.31	45504.70
520.48	45586.61
520.65	45659.17
520.83	45600.66
521.00	46010.25
521.17	45818.33
521.34	46047.70
521.52	46373.03
521.69	45949.40
521.86	46536.87
522.03	46457.29
522.20	46394.10
522.38	46454.95
522.55	46614.11
522.72	46913.70
522.89	46387.08
523.07	47367.76
523.24	46796.67
523.41	47150.09
523.58	46848.16
523.75	47445.00
523.92	46972.21
524.10	47433.30
524.27	47716.50
524.44	47852.25
524.61	47828.85
524.78	47702.46
524.96	47665.01
525.13	47962.26
525.30	48020.77
525.47	47746.93
525.64	47941.19
525.81	48369.51
525.98	48828.26
526.16	48428.02
526.33	48573.14
526.50	48690.16
526.67	47880.34
526.84	48734.63
527.01	48140.14
527.18	48484.20
527.36	48896.13
527.53	49029.54
527.70	49050.61
527.87	48900.81
528.04	48877.41
528.21	48851.66
528.38	48910.17
528.55	49141.89
528.72	49006.14
528.89	49270.62
529.07	49118.48
529.24	49261.26
529.41	49322.11
529.58	49460.20
529.75	49338.49
529.92	49485.95
530.09	49600.63
530.26	49464.88
530.43	50190.45
530.60	49394.67
530.77	49916.61
530.94	50028.95
531.11	49640.42
531.28	49916.61
531.46	49954.05
531.63	50241.94
531.80	50270.03
531.97	50637.49
532.14	50466.63
532.31	50412.80
532.48	50141.30
532.65	50504.08
532.82	50475.99
532.99	50759.20
533.16	50644.51
533.33	51009.64
533.50	51077.51
533.67	50897.29
533.84	50567.27
534.01	50728.77
534.18	51147.73
534.35	50932.40
534.52	51063.47
534.69	51021.34
534.86	51323.27
535.03	50951.12
535.20	51426.25
535.37	51517.53
535.54	51473.06
535.71	51058.79
535.88	51452.00
536.05	51531.57
536.22	51704.77
536.38	51681.37
536.55	51611.15
536.72	51840.53
536.89	51384.12
537.06	51679.03
537.23	51803.08
537.40	51571.36
537.57	51657.96
537.74	51945.85
537.91	52397.57
538.08	52402.25
538.25	51763.29
538.42	51987.98
538.59	52161.18
538.75	51882.66
538.92	52144.80
539.09	52767.38
539.26	52388.21
539.43	52636.31
539.60	52509.92
539.77	52535.66
539.94	52514.60
540.11	52683.12
540.28	52547.37
540.44	52598.86
540.61	52753.33
540.78	52882.06
540.95	52905.47
541.12	53104.41
541.29	53116.12
541.46	52741.63
541.62	52538.01
541.79	52783.76
541.96	52610.56
542.13	52875.04
542.30	52736.95
542.47	52975.69
542.63	53368.90
542.80	53015.47
542.97	53511.67
543.14	53333.79
543.31	53361.87
543.48	53158.25
543.64	53736.36
543.81	53867.43
543.98	53701.25
544.15	53778.49
544.32	53858.07
544.48	53867.43
544.65	53858.07
544.82	53631.04
544.99	53668.48
545.16	53769.13
545.32	53619.33
545.49	54223.19
545.66	54424.48
545.83	53989.14
546.00	54433.84
546.16	53867.43
546.33	53865.09
546.50	53734.02
546.67	54087.44
546.83	54040.63
547.00	54251.28
547.17	53979.78
547.34	54120.21
547.50	54293.41
547.67	54623.42
547.84	54389.37
548.00	54670.23
548.17	54506.40
548.34	54333.20
548.51	54897.27
548.67	54548.53
548.84	54855.14
549.01	54663.21
549.18	54464.27
549.34	54775.56
549.51	54534.48
549.68	54618.74
549.84	54656.19
550.01	54621.08
550.18	54560.23
550.34	54815.35
550.51	54932.37
550.68	54979.18
550.84	54588.31
551.01	55058.76
551.18	54759.17
551.34	54651.51
551.51	55033.02
551.68	55136.00
551.84	55316.22
552.01	54939.39
552.18	55407.50
552.34	54951.10
552.51	55388.78
552.68	55220.26
552.84	54939.39
553.01	55405.16
553.18	55489.42
553.34	55440.27
553.51	55526.87
553.67	55487.08
553.84	55690.71
554.01	55533.89
554.17	55234.30
554.34	55592.40
554.51	55517.51
554.67	55470.70
554.84	55744.54
555.00	55739.86
555.17	55826.46
555.33	55622.83
555.50	55660.28
555.67	55599.43
555.83	55702.41
556.00	55826.46
556.16	55877.95
556.33	55751.56
556.50	55863.91
556.66	55929.44
556.83	55725.81
556.99	56168.18
557.16	55901.36
557.32	55952.85
557.49	56006.68
557.65	55803.05
557.82	55817.10
557.98	55847.52
558.15	56175.20
558.32	56217.33
558.48	56030.08
558.65	56332.01
558.81	56275.84
558.98	56011.36
559.14	56243.07
559.31	56229.03
559.47	56104.98
559.64	56285.20
559.80	56514.58
559.97	56570.75
560.13	56172.86
560.30	56416.27
560.46	56437.34
560.63	56226.69
560.79	55976.25
560.96	56563.73
561.12	56212.65
561.29	56341.38
561.45	56442.02
561.61	56437.34
561.78	56809.48
561.94	56587.13
562.11	56456.06
562.27	56456.06
562.44	56390.53
562.60	56673.73
562.77	56371.80
562.93	56521.60
563.10	56949.92
563.26	56727.56
563.42	56865.66
563.59	56362.44
563.75	56774.37
563.92	56685.43
564.08	56659.69
564.24	56453.72
564.41	56552.02
564.57	56814.16
564.74	56676.07
564.90	56963.96
565.07	57071.62
565.23	57050.56
565.39	56690.12
565.56	56959.28
565.72	56610.54
565.88	56788.42
566.05	56556.70
566.21	56886.72
566.38	56865.66
566.54	56842.25
566.70	57172.27
566.87	56970.98
567.03	57153.54
567.19	57200.35
567.36	57132.48
567.52	56699.48
567.68	57022.47
567.85	56875.02
568.01	57050.56
568.17	57027.15
568.34	57097.37
568.50	57036.51
568.66	57256.53
568.83	56921.83
568.99	56926.51
569.15	56928.85
569.32	57071.62
569.48	56875.02
569.64	57158.22
569.81	57055.24
569.97	57127.80
570.13	57249.50
570.30	57043.54
570.46	57146.52
570.62	57181.63
570.78	57207.37
570.95	57162.90
571.11	57034.17
571.27	57038.86
571.43	57088.01
571.60	57254.18
571.76	57099.71
571.92	57338.44
572.09	57268.23
572.25	57200.35
572.41	56994.39
572.57	57104.39
572.74	57350.15
572.90	57099.71
573.06	57301.00
573.22	57261.21
573.38	57380.57
573.55	57132.48
573.71	57621.65
573.87	57293.97
574.03	57176.95
574.20	57347.81
574.36	57244.82
574.52	57153.54
574.68	57209.71
574.84	57352.49
575.01	57319.72
575.17	57427.38
575.33	57502.28
575.49	57343.12
575.65	57715.27
575.82	57471.85
575.98	57516.32
576.14	57619.31
576.30	57614.63
576.46	57279.93
576.62	57162.90
576.79	57312.70
576.95	57228.44
577.11	57347.81
577.27	57432.07
577.43	57485.90
577.59	57595.90
577.75	57495.26
577.92	57202.69
578.08	57350.15
578.24	57282.27
578.40	57455.47
578.56	57371.21
578.72	57308.02
578.88	57684.84
579.04	57640.37
579.21	57420.36
579.37	57455.47
579.53	57694.21
579.69	57336.10
579.85	57392.28
580.01	57502.28
580.17	57378.23
580.33	57495.26
580.49	57705.91
580.65	57364.19
580.82	57626.33
580.98	57584.20
581.14	57659.10
581.30	57612.29
581.46	57553.77
581.62	57387.60
581.78	57422.70
581.94	57525.69
582.10	57677.82
582.26	57808.89
582.42	57537.39
582.58	57649.74
582.74	57804.21
582.90	57591.22
583.06	57787.83
583.22	57570.16
583.38	57516.32
583.54	57478.88
583.70	57687.18
583.86	57755.06
584.02	57439.09
584.18	57661.44
584.34	57666.12
584.50	57663.78
584.66	57584.20
584.82	57425.04
584.98	57752.72
585.14	57474.20
585.30	57506.96
585.46	57572.50
585.62	57502.28
585.78	57780.81
585.94	57432.07
586.10	57762.08
586.26	57668.46
586.42	57867.40
586.58	57900.17
586.74	57680.16
586.90	57689.52
587.06	57780.81
587.22	57684.84
587.38	57712.93
587.54	57738.68
587.70	57790.17
587.86	57612.29
588.02	58145.93
588.18	57902.51
588.34	57876.77
588.49	57752.72
588.65	57783.15
588.81	57949.32
588.97	58014.86
589.13	57839.32
589.29	57673.14
589.45	57844.00
589.61	57944.64
