SpectraSuite Data File
++++++++++++++++++++++++++++++++++++
Date: Fri Oct 04 11:48:25 GMT-05:00 2013
User: price-jones
Dark Spectrum Present: No
Reference Spectrum Present: No
Number of Sampled Component Spectra: 1
Spectrometers: USB2+H05261
Integration Time (usec): 100000 (USB2+H05261)
Spectra Averaged: 1 (USB2+H05261)
Boxcar Smoothing: 0 (USB2+H05261)
Correct for Electrical Dark: No (USB2+H05261)
Strobe/Lamp Enabled: No (USB2+H05261)
Correct for Detector Non-linearity: No (USB2+H05261)
Correct for Stray Light: No (USB2+H05261)
Number of Pixels in Processed Spectrum: 2048
>>>>>Begin Processed Spectral Data<<<<<
365.73	0.00
365.92	0.00
366.12	0.00
366.32	0.00
366.52	0.00
366.72	0.00
366.91	0.00
367.11	0.00
367.31	0.00
367.51	0.00
367.70	0.00
367.90	0.00
368.10	0.00
368.30	0.00
368.49	0.00
368.69	0.00
368.89	0.00
369.09	0.00
369.28	0.00
369.48	0.00
369.68	0.00
369.87	30.43
370.07	0.00
370.27	0.00
370.47	91.28
370.66	252.78
370.86	313.63
371.06	325.33
371.25	355.76
371.45	360.44
371.65	372.15
371.84	376.83
372.04	421.30
372.24	372.15
372.44	484.49
372.63	425.98
372.83	465.77
373.03	447.04
373.22	444.70
373.42	400.23
373.62	498.53
373.81	402.57
374.01	428.32
374.21	456.40
374.40	430.66
374.60	409.59
374.79	517.26
374.99	585.13
375.19	435.34
375.38	540.66
375.58	482.15
375.78	507.90
375.97	486.83
376.17	547.69
376.37	491.51
376.56	498.53
376.76	472.79
376.95	496.19
377.15	671.73
377.35	461.09
377.54	528.96
377.74	454.06
377.93	547.69
378.13	573.43
378.33	566.41
378.52	524.28
378.72	568.75
378.91	620.24
379.11	575.77
379.31	587.47
379.50	533.64
379.70	580.45
379.89	580.45
380.09	585.13
380.28	507.90
380.48	681.10
380.68	655.35
380.87	589.82
381.07	603.86
381.26	650.67
381.46	613.22
381.65	645.99
381.85	564.07
382.04	638.97
382.24	599.18
382.43	653.01
382.63	702.16
382.83	603.86
383.02	613.22
383.22	791.10
383.41	575.77
383.61	725.57
383.80	631.94
384.00	744.29
384.19	720.88
384.39	723.23
384.58	763.01
384.78	763.01
384.97	699.82
385.17	727.91
385.36	725.57
385.56	638.97
385.75	713.86
385.95	718.54
386.14	685.78
386.34	702.16
386.53	777.06
386.72	770.04
386.92	793.44
387.11	809.83
387.31	830.89
387.50	737.27
387.70	840.25
387.89	748.97
388.09	793.44
388.28	795.78
388.48	786.42
388.67	830.89
388.86	812.17
389.06	812.17
389.25	849.61
389.45	814.51
389.64	873.02
389.84	919.83
390.03	812.17
390.22	828.55
390.42	908.13
390.61	938.55
390.81	786.42
391.00	924.51
391.19	894.08
391.39	898.77
391.58	884.72
391.78	844.93
391.97	968.98
392.16	908.13
392.36	1027.50
392.55	950.26
392.75	1062.60
392.94	952.60
393.13	997.07
393.33	1055.58
393.52	959.62
393.71	1114.10
393.91	1057.92
394.10	978.34
394.29	1097.71
394.49	1076.65
394.68	1139.84
394.88	1107.07
395.07	1158.57
395.26	1046.22
395.46	1137.50
395.65	1053.24
395.84	1186.65
396.04	1170.27
396.23	1172.61
396.42	1128.14
396.62	1121.12
396.81	1158.57
397.00	1097.71
397.19	1071.97
397.39	1193.67
397.58	1221.76
397.77	1310.70
397.97	1224.10
398.16	1235.80
398.35	1247.51
398.55	1191.33
398.74	1313.04
398.93	1261.55
399.12	1315.38
399.32	1324.74
399.51	1306.02
399.70	1362.19
399.90	1385.60
400.09	1418.36
400.28	1500.28
400.47	1369.21
400.67	1526.03
400.86	1472.20
401.05	1404.32
401.24	1448.79
401.44	1530.71
401.63	1479.22
401.82	1507.30
402.01	1481.56
402.21	1462.83
402.40	1418.36
402.59	1416.02
402.78	1514.33
402.97	1551.78
403.17	1598.59
403.36	1607.95
403.55	1441.77
403.74	1680.50
403.93	1699.23
404.13	1659.44
404.32	1591.56
404.51	1692.21
404.70	1762.42
404.89	1633.69
405.09	1762.42
405.28	1717.95
405.47	1774.13
405.66	1755.40
405.85	1783.49
406.05	1736.68
406.24	1788.17
406.43	1933.28
406.62	1895.83
406.81	1933.28
407.00	1832.64
407.20	1813.92
407.39	1944.99
407.58	1944.99
407.77	2031.58
407.96	1935.62
408.15	2022.22
408.34	1987.11
408.54	2043.29
408.73	2052.65
408.92	2024.56
409.11	2101.80
409.30	2155.63
409.49	2078.40
409.68	2153.29
409.87	2204.78
410.07	2172.02
410.26	2125.21
410.45	2190.74
410.64	2193.08
410.83	2141.59
411.02	2263.30
411.21	2347.56
411.40	2328.83
411.59	2368.62
411.78	2506.71
411.98	2197.76
412.17	2370.96
412.36	2319.47
412.55	2478.63
412.74	2345.22
412.93	2588.63
413.12	2382.67
413.31	2633.10
413.50	2628.42
413.69	2740.77
413.88	2682.25
414.07	2670.55
414.26	2719.70
414.45	2715.02
414.64	2736.09
414.83	2862.48
415.02	2750.13
415.22	2876.52
415.41	2890.56
415.60	2895.24
415.79	2923.33
415.98	2960.78
416.17	2892.90
416.36	2995.89
416.55	2995.89
416.74	2981.84
416.93	3117.59
417.12	3040.36
417.31	3103.55
417.50	3056.74
417.69	3309.52
417.88	3180.79
418.07	3138.66
418.26	3208.87
418.45	3225.26
418.64	3286.11
418.83	3335.26
419.02	3229.94
419.21	3211.22
419.39	3332.92
419.58	3351.65
419.77	3414.84
419.96	3461.65
420.15	3433.57
420.34	3353.99
420.53	3508.46
420.72	3489.74
420.91	3520.17
421.10	3609.11
421.29	3513.14
421.48	3517.83
421.67	3634.85
421.86	3555.27
422.05	3466.33
422.24	3545.91
422.43	3564.64
422.61	3623.15
422.80	3555.27
422.99	3742.52
423.18	3581.02
423.37	3735.50
423.56	3569.32
423.75	3665.28
423.94	3644.21
424.13	3403.14
424.32	3602.08
424.50	3691.02
424.69	3843.16
424.88	3857.20
425.07	3744.86
425.26	3693.37
425.45	3684.00
425.64	3754.22
425.83	3672.30
426.01	3824.44
426.20	3763.58
426.39	3929.76
426.58	3754.22
426.77	3815.07
426.96	3885.29
427.15	3627.83
427.33	3864.22
427.52	3833.80
427.71	3981.25
427.90	3992.95
428.09	3822.09
428.28	3981.25
428.46	4009.34
428.65	3971.89
428.84	4077.21
429.03	3988.27
429.22	4084.23
429.40	4067.85
429.59	4205.94
429.78	3836.14
429.97	3889.97
430.16	4173.18
430.34	4098.28
430.53	4315.95
430.72	4313.61
430.91	4091.26
431.10	4180.20
431.28	4170.83
431.47	4248.07
431.66	4362.76
431.85	4250.41
432.03	4407.23
432.22	4547.66
432.41	4285.52
432.60	4505.53
432.79	4334.67
432.97	4437.66
433.16	4505.53
433.35	4489.15
433.54	4491.49
433.72	4641.28
433.91	4503.19
434.10	4482.13
434.28	4620.22
434.47	4592.13
434.66	4709.16
434.85	4582.77
435.03	4685.75
435.22	4706.82
435.41	4865.97
435.59	4800.44
435.78	4816.82
435.97	4819.16
436.16	4971.30
436.34	4961.94
436.53	4910.44
436.72	4912.78
436.90	4873.00
437.09	5006.41
437.28	4901.08
437.46	4858.95
437.65	5013.43
437.84	5069.60
438.02	4884.70
438.21	5032.15
438.40	5085.98
438.58	5125.77
438.77	5177.26
438.96	5188.97
439.14	5256.84
439.33	5231.10
439.52	5301.31
439.70	5593.88
439.89	5413.66
440.08	5570.48
440.26	5556.43
440.45	5657.07
440.63	5591.54
440.82	5673.46
441.01	5687.50
441.19	5657.07
441.38	5884.11
441.57	5762.40
441.75	5818.57
441.94	5874.74
442.12	5853.68
442.31	6181.35
442.50	5846.66
442.68	5980.07
442.87	6017.52
443.05	5947.30
443.24	6211.78
443.43	6251.57
443.61	6207.10
443.80	6335.83
443.98	6106.46
444.17	6108.80
444.35	6277.32
444.54	6307.74
444.73	6359.24
444.91	6195.40
445.10	6061.99
445.28	6202.42
445.47	6235.19
445.65	6171.99
445.84	6190.72
446.02	6218.80
446.21	6349.87
446.39	6312.42
446.58	6464.56
446.77	6314.77
446.95	6218.80
447.14	6181.35
447.32	6588.61
447.51	6326.47
447.69	6471.58
447.88	6319.45
448.06	6361.58
448.25	6382.64
448.43	6361.58
448.62	6469.24
448.80	6462.22
448.99	6511.37
449.17	6321.79
449.36	6558.18
449.54	6492.65
449.73	6590.95
449.91	6628.40
450.10	6909.26
450.28	6836.70
450.46	6637.76
450.65	6726.70
450.83	6883.52
451.02	6677.55
451.20	7030.97
451.39	7075.44
451.57	6792.23
451.76	6710.32
451.94	6892.88
452.13	6920.96
452.31	7101.19
452.49	6944.37
452.68	7056.72
452.86	6881.18
453.05	7131.61
453.23	7073.10
453.42	7098.84
453.60	6993.52
453.78	7248.64
453.97	6939.69
454.15	7110.55
454.34	7124.59
454.52	7133.95
454.70	7262.68
454.89	7353.96
455.07	7309.49
455.26	7403.11
455.44	7243.96
455.62	7377.37
455.81	7375.03
455.99	7447.58
456.17	7419.50
456.36	7510.78
456.54	7655.89
456.73	7719.09
456.91	7934.42
457.09	7859.52
457.28	7906.33
457.46	7915.69
457.64	7978.89
457.83	7873.56
458.01	7829.09
458.19	7995.27
458.38	7911.01
458.56	7969.52
458.74	8063.15
458.93	8086.55
459.11	7927.39
459.29	8053.78
459.48	8222.30
459.66	8182.51
459.84	8084.21
460.03	8259.75
460.21	8259.75
460.39	8126.34
460.57	8219.96
460.76	8308.90
460.94	8306.56
461.12	8454.02
461.31	8344.01
461.49	8248.05
461.67	8341.67
461.85	8720.84
462.04	8404.86
462.22	9130.43
462.40	8688.07
462.59	8589.77
462.77	8535.93
462.95	8601.47
463.13	8643.60
463.32	8514.87
463.50	8683.39
463.68	8912.76
463.86	8744.24
464.05	8760.63
464.23	8777.01
464.41	8952.55
464.59	9032.13
464.78	8968.93
464.96	8863.61
465.14	8821.48
465.32	8994.68
465.50	8990.00
465.69	9001.70
465.87	8952.55
466.05	8854.25
466.23	9043.83
466.41	9083.62
466.60	9500.23
466.78	9067.24
466.96	9006.38
467.14	9022.77
467.32	9210.01
467.51	9146.81
467.69	9036.81
467.87	9137.45
468.05	9284.91
468.23	9214.69
468.41	9210.01
468.60	9420.66
468.78	9706.20
468.96	9336.40
469.14	9483.85
469.32	9507.26
469.50	9437.04
469.69	9886.42
469.87	9738.97
470.05	9781.10
470.23	9479.17
470.41	9736.63
470.59	10083.03
470.77	9837.27
470.95	9963.66
471.14	9987.07
471.32	9942.60
471.50	10083.03
471.68	10214.10
471.86	10375.59
472.04	10090.05
472.22	10452.83
472.40	10190.69
472.58	10333.47
472.77	10289.00
472.95	10647.10
473.13	10808.59
473.31	10431.77
473.49	10436.45
473.67	10822.64
473.85	10572.20
474.03	10888.17
474.21	10724.33
474.39	10972.43
474.57	10927.96
474.75	11014.56
474.93	11185.42
475.12	10923.28
475.30	11311.81
475.48	11068.39
475.66	11309.47
475.84	11468.62
476.02	11611.40
476.20	11452.24
476.38	11690.98
476.56	11733.11
476.74	11667.57
476.92	11604.38
477.10	11545.86
477.28	12112.27
477.46	11962.48
477.64	12053.76
477.82	12393.14
478.00	12571.02
478.18	12629.53
478.36	12807.41
478.54	12989.97
478.72	12671.66
478.90	12886.99
479.08	13088.28
479.26	12896.35
479.44	13188.92
479.62	13273.18
479.80	13135.09
479.98	13472.12
480.16	13481.49
480.34	13752.99
480.52	13818.52
480.70	14012.79
480.88	13802.14
481.06	13872.36
481.24	14029.17
481.41	14338.12
481.59	14413.02
481.77	14450.47
481.95	14806.23
482.13	14504.30
482.31	14916.23
482.49	14820.27
482.67	14932.62
482.85	14946.66
483.03	15302.42
483.21	15632.44
483.39	15594.99
483.57	15428.81
483.74	15733.08
483.92	15976.50
484.10	15517.75
484.28	16060.76
484.46	16570.99
484.64	16884.62
484.82	16397.79
485.00	16407.16
485.18	16760.58
485.35	16758.24
485.53	16915.05
485.71	17039.10
485.89	17675.73
486.07	17291.88
486.25	17387.84
486.43	17511.89
486.61	17703.81
486.78	18090.00
486.96	17785.73
487.14	18171.92
487.32	18672.79
487.50	18654.07
487.68	18691.52
487.85	18845.99
488.03	19243.88
488.21	19091.75
488.39	19489.64
488.57	19321.12
488.75	19314.10
488.92	19674.54
489.10	19812.63
489.28	19524.75
489.46	20072.43
489.64	19866.47
489.81	20676.29
489.99	20678.63
490.17	20519.48
490.35	20812.04
490.53	21109.29
490.70	21027.37
490.88	20950.14
491.06	21352.71
491.24	21357.39
491.41	21750.60
491.59	21788.05
491.77	21652.30
491.95	21855.92
492.13	22171.89
492.30	22427.01
492.48	22178.92
492.66	22387.22
492.84	22581.49
493.01	22764.05
493.19	22728.94
493.37	23028.53
493.54	22995.76
493.72	23651.11
493.90	23328.12
494.08	23688.56
494.25	23934.32
494.43	23981.13
494.61	23882.83
494.79	23889.85
494.96	24041.98
495.14	24325.19
495.32	24606.05
495.49	24311.14
495.67	24790.95
495.85	24720.74
496.02	25319.92
496.20	25343.32
496.38	25259.06
496.55	25649.93
496.73	25891.01
496.91	25303.53
497.09	25923.77
497.26	25935.48
497.44	25853.56
497.62	25956.54
497.79	26635.30
497.97	26403.58
498.14	26895.10
498.32	27087.02
498.50	26874.03
498.67	26721.90
498.85	27023.83
499.03	27117.45
499.20	27391.29
499.38	27456.82
499.56	27618.32
499.73	27796.20
499.91	27604.28
500.08	27894.50
500.26	27878.12
500.44	27838.33
500.61	28446.87
500.79	28346.23
500.97	28627.09
501.14	28655.18
501.32	28479.64
501.49	28811.99
501.67	28755.82
501.84	28875.19
502.02	28987.53
502.20	29216.91
502.37	29589.05
502.55	29043.71
502.72	29626.50
502.90	29813.74
503.07	29528.20
503.25	29567.99
503.43	29525.86
503.60	29685.01
503.78	30235.04
503.95	29820.77
504.13	30352.07
504.30	30148.44
504.48	30237.38
504.65	30672.72
504.83	30586.12
505.01	30717.19
505.18	30780.39
505.36	30995.71
505.53	31077.63
505.71	31042.53
505.88	31342.11
506.06	31168.91
506.23	31161.89
506.41	31428.71
506.58	31505.95
506.76	31662.77
506.93	31489.57
507.11	31693.19
507.28	31988.10
507.46	31740.00
507.63	32215.13
507.81	32390.67
507.98	31999.80
508.16	32168.32
508.33	32161.30
508.50	32638.77
508.68	32472.59
508.85	32999.21
509.03	32884.53
509.20	33221.56
509.38	33418.17
509.55	33642.86
509.73	33186.46
509.90	33160.71
510.08	33167.73
510.25	33263.69
510.42	33876.91
510.60	34019.69
510.77	34185.86
510.95	34188.21
511.12	33610.09
511.30	33989.26
511.47	33977.56
511.64	34693.76
511.82	34843.56
511.99	34572.05
512.17	34696.10
512.34	34335.66
512.51	34808.45
512.69	34726.53
512.86	34768.66
513.04	35552.74
513.21	35466.14
513.38	35075.27
513.56	35482.52
513.73	34740.57
513.90	35243.79
514.08	35538.69
514.25	35515.29
514.43	36149.57
514.60	35988.08
514.77	35948.29
514.95	35714.23
515.12	35861.69
515.29	35929.56
515.47	36095.74
515.64	36556.83
515.81	36517.04
515.99	36573.21
516.16	36877.48
516.33	36678.54
516.51	37013.23
516.68	36486.61
516.85	36924.29
517.03	37013.23
517.20	37191.11
517.37	37289.42
517.54	37326.86
517.72	37099.83
517.89	37221.54
518.06	37642.84
518.24	37273.03
518.41	37443.89
518.58	37603.05
518.75	37422.83
518.93	37897.95
519.10	37549.21
519.27	37415.80
519.45	37909.66
519.62	38094.56
519.79	37834.76
519.96	38171.80
520.14	38375.42
520.31	38272.44
520.48	38607.14
520.65	38258.40
520.83	38410.53
521.00	38541.60
521.17	38838.85
521.34	38852.89
521.52	38951.20
521.69	39110.35
521.86	39416.96
522.03	39264.83
522.20	39051.84
522.38	39145.46
522.55	39435.69
522.72	39358.45
522.89	39768.04
523.07	39903.79
523.24	39798.47
523.41	39676.76
523.58	39515.26
523.75	40114.44
523.92	39814.85
524.10	40109.76
524.27	40402.33
524.44	40414.03
524.61	41036.61
524.78	40353.18
524.96	40727.66
525.13	40261.90
525.30	40603.61
525.47	40411.69
525.64	40811.92
525.81	40765.11
525.98	40912.56
526.16	40645.74
526.33	40989.80
526.50	41537.49
526.67	41184.07
526.84	40959.38
527.01	41270.67
527.18	41696.64
527.36	41343.22
527.53	41439.18
527.70	41923.68
527.87	41546.85
528.04	41881.55
528.21	41874.52
528.38	41642.81
528.55	41720.05
528.72	42038.36
528.89	42258.37
529.07	41942.40
529.24	41853.46
529.41	42223.26
529.58	42017.30
529.75	42003.25
529.92	42464.34
530.09	42513.49
530.26	42031.34
530.43	42625.84
530.60	42492.43
530.77	42436.25
530.94	42691.37
531.11	42621.16
531.28	42803.72
531.46	42684.35
531.63	42656.26
531.80	43012.02
531.97	43278.85
532.14	43213.31
532.31	43484.81
532.48	43023.73
532.65	43477.79
532.82	42855.21
532.99	43297.57
533.16	43501.20
533.33	43625.25
533.50	43885.04
533.67	43903.77
533.84	43608.86
534.01	43653.33
534.18	43332.68
534.35	44072.29
534.52	43786.74
534.69	43894.41
534.86	44406.98
535.03	44058.24
535.20	43873.34
535.37	44346.13
535.54	44439.75
535.71	43835.89
535.88	43978.67
536.05	44411.67
536.22	44797.85
536.38	44949.99
536.55	44608.27
536.72	44360.17
536.89	44231.44
537.06	44512.31
537.23	44617.63
537.40	44519.33
537.57	44664.44
537.74	44952.33
537.91	45132.55
538.08	45010.84
538.25	44905.52
538.42	44629.34
538.59	44626.99
538.75	44615.29
538.92	45064.67
539.09	45015.52
539.26	45184.04
539.43	45406.39
539.60	45558.53
539.77	45137.23
539.94	45427.46
540.11	45450.86
540.28	45645.13
540.44	45867.48
540.61	45315.11
540.78	45439.16
540.95	45806.62
541.12	45614.70
541.29	45949.40
541.46	45815.99
541.62	45897.91
541.79	46115.58
541.96	45390.01
542.13	45893.22
542.30	46092.17
542.47	46248.99
542.63	46204.52
542.80	46494.74
542.97	46700.71
543.14	46506.44
543.31	46298.14
543.48	46312.18
543.64	46864.55
543.81	47178.18
543.98	46906.68
544.15	46813.05
544.32	46864.55
544.48	47292.86
544.65	46787.31
544.82	47274.14
544.99	46693.69
545.16	47009.66
545.32	46436.23
545.49	47632.24
545.66	47480.11
545.83	47105.62
546.00	47650.97
546.16	47192.22
546.33	47306.91
546.50	46403.46
546.67	47592.45
546.83	47173.50
547.00	47562.03
547.17	47494.15
547.34	47503.51
547.50	47681.39
547.67	47973.96
547.84	47681.39
548.00	47849.91
548.17	48128.44
548.34	47765.65
548.51	48133.12
548.67	48126.10
548.84	47910.77
549.01	47887.36
549.18	47866.30
549.34	48282.91
549.51	48296.95
549.68	48231.42
549.84	47826.51
550.01	48252.48
550.18	48315.68
550.34	48416.32
550.51	48601.22
550.68	48149.50
550.84	47924.81
551.01	48626.97
551.18	48339.08
551.34	48273.55
551.51	47578.41
551.68	48795.49
551.84	48465.47
552.01	48533.35
552.18	48250.14
552.34	48528.67
552.51	48655.06
552.68	48399.94
552.84	48350.79
553.01	48987.41
553.18	49090.40
553.34	48900.81
553.51	48753.36
553.67	48821.23
553.84	49279.98
554.01	48858.68
554.17	48985.07
554.34	48905.49
554.51	49074.01
554.67	48889.11
554.84	49064.65
555.00	49226.15
555.17	48795.49
555.33	49279.98
555.50	49083.37
555.67	49387.64
555.83	49162.95
556.00	49481.27
556.16	49577.23
556.33	49345.51
556.50	49366.58
556.66	49532.76
556.83	49544.46
556.99	49600.63
557.16	49436.80
557.32	50007.89
557.49	49841.71
557.65	49488.29
557.82	49422.75
557.98	49874.48
558.15	49443.82
558.32	49745.75
558.48	49471.90
558.65	49909.58
558.81	49593.61
558.98	49963.42
559.14	49954.05
559.31	49839.37
559.47	49778.51
559.64	49666.17
559.80	49626.38
559.97	50085.12
560.13	49808.94
560.30	50248.96
560.46	50192.79
560.63	49851.07
560.79	49612.34
560.96	50246.62
561.12	50042.99
561.29	50014.91
561.45	49832.35
561.61	50267.69
561.78	50124.91
561.94	50270.03
562.11	50461.95
562.27	50241.94
562.44	50010.23
562.60	50403.44
562.77	50270.03
562.93	50326.20
563.10	50410.46
563.26	50157.68
563.42	50820.05
563.59	50351.94
563.75	50475.99
563.92	50408.12
564.08	50417.48
564.24	50155.34
564.41	50511.10
564.57	50255.98
564.74	50424.50
564.90	50368.33
565.07	50609.40
565.23	50628.13
565.39	50672.60
565.56	50635.15
565.72	50239.60
565.88	50117.89
566.05	50302.79
566.21	50277.05
566.38	50429.18
566.54	50564.93
566.70	50834.10
566.87	50894.95
567.03	50358.97
567.19	50810.69
567.36	50684.30
567.52	50553.23
567.68	50836.44
567.85	50190.45
568.01	50246.62
568.17	50361.31
568.34	50506.42
568.50	50726.43
568.66	50679.62
568.83	50892.61
568.99	50475.99
569.15	50674.94
569.32	50600.04
569.48	50791.97
569.64	50677.28
569.81	50794.31
569.97	50679.62
570.13	50848.14
570.30	50607.06
570.46	51192.20
570.62	50890.27
570.78	50962.82
570.95	50782.60
571.11	50677.28
571.27	50461.95
571.43	50827.07
571.60	50518.12
571.76	50798.99
571.92	50941.76
572.09	50829.41
572.25	51072.83
572.41	51075.17
572.57	50770.90
572.74	50997.93
572.90	50707.71
573.06	50602.38
573.22	50663.24
573.38	50873.88
573.55	50864.52
573.71	50857.50
573.87	50969.85
574.03	50803.67
574.20	50684.30
574.36	50616.43
574.52	51009.64
574.68	50611.74
574.84	50780.26
575.01	51044.74
575.17	51075.17
575.33	51089.21
575.49	51033.04
575.65	51208.58
575.82	51147.73
575.98	51138.36
576.14	51129.00
576.30	50913.67
576.46	50995.59
576.62	50656.21
576.79	51114.96
576.95	50815.37
577.11	50838.78
577.27	50927.72
577.43	51086.87
577.59	51079.85
577.75	50712.39
577.92	50733.45
578.08	50412.80
578.24	51276.46
578.40	51131.34
578.56	51299.86
578.72	50997.93
578.88	51318.59
579.04	51337.31
579.21	51033.04
579.37	51194.54
579.53	51274.12
579.69	50820.05
579.85	51145.39
580.01	50859.84
580.17	50869.20
580.33	51152.41
580.49	51222.62
580.65	51253.05
580.82	51423.91
580.98	51597.11
581.14	51016.66
581.30	51248.37
581.46	50831.75
581.62	51065.81
581.78	50438.54
581.94	51100.92
582.10	51079.85
582.26	51107.94
582.42	50927.72
582.58	51409.87
582.74	51358.38
582.90	51311.56
583.06	51159.43
583.22	51068.15
583.38	51138.36
583.54	51234.33
583.70	50911.33
583.86	51224.96
584.02	51126.66
584.18	51316.25
584.34	51187.52
584.50	51409.87
584.66	51138.36
584.82	51182.84
584.98	51341.99
585.14	51255.39
585.30	51019.00
585.46	51154.75
585.62	50820.05
585.78	51136.02
585.94	51077.51
586.10	51166.45
586.26	51608.81
586.42	51540.94
586.58	51772.65
586.74	51482.42
586.90	51166.45
587.06	50817.71
587.22	51002.61
587.38	51157.09
587.54	51531.57
587.70	51868.61
587.86	51168.79
588.02	51339.65
588.18	51377.10
588.34	51437.95
588.49	50967.51
588.65	50913.67
588.81	51236.67
588.97	51086.87
589.13	51391.14
589.29	50972.19
589.45	51215.60
589.61	51442.63
589.77	51625.20
589.93	51681.37
590.08	51379.44
590.24	51475.40
