SpectraSuite Data File
++++++++++++++++++++++++++++++++++++
Date: Fri Oct 04 11:48:40 GMT-05:00 2013
User: price-jones
Dark Spectrum Present: No
Reference Spectrum Present: No
Number of Sampled Component Spectra: 1
Spectrometers: USB2+H05261
Integration Time (usec): 100000 (USB2+H05261)
Spectra Averaged: 1 (USB2+H05261)
Boxcar Smoothing: 0 (USB2+H05261)
Correct for Electrical Dark: No (USB2+H05261)
Strobe/Lamp Enabled: No (USB2+H05261)
Correct for Detector Non-linearity: No (USB2+H05261)
Correct for Stray Light: No (USB2+H05261)
Number of Pixels in Processed Spectrum: 2048
>>>>>Begin Processed Spectral Data<<<<<
365.73	51.49
365.92	51.49
366.12	51.49
366.32	0.00
366.52	0.00
366.72	0.00
366.91	0.00
367.11	0.00
367.31	0.00
367.51	0.00
367.70	0.00
367.90	0.00
368.10	0.00
368.30	0.00
368.49	0.00
368.69	0.00
368.89	0.00
369.09	0.00
369.28	0.00
369.48	0.00
369.68	0.00
369.87	9.36
370.07	0.00
370.27	25.75
370.47	18.72
370.66	208.31
370.86	231.71
371.06	227.03
371.25	264.48
371.45	257.46
371.65	248.10
371.84	292.57
372.04	280.86
372.24	341.72
372.44	362.78
372.63	315.97
372.83	423.64
373.03	311.29
373.22	318.31
373.42	332.36
373.62	358.10
373.81	320.65
374.01	348.74
374.21	369.80
374.40	365.12
374.60	416.62
374.79	355.76
374.99	341.72
375.19	381.51
375.38	369.80
375.58	402.57
375.78	404.91
375.97	400.23
376.17	519.60
376.37	355.76
376.56	437.68
376.76	381.51
376.95	365.12
377.15	468.11
377.35	386.19
377.54	423.64
377.74	449.38
377.93	339.38
378.13	397.89
378.33	435.34
378.52	388.53
378.72	402.57
378.91	433.00
379.11	456.40
379.31	442.36
379.50	379.17
379.70	482.15
379.89	503.22
380.09	367.46
380.28	447.04
380.48	550.03
380.68	433.00
380.87	444.70
381.07	416.62
381.26	496.19
381.46	400.23
381.65	458.74
381.85	606.20
382.04	479.81
382.24	472.79
382.43	489.17
382.63	451.72
382.83	531.30
383.02	517.26
383.22	486.83
383.41	491.51
383.61	475.13
383.80	470.45
384.00	491.51
384.19	496.19
384.39	458.74
384.58	533.64
384.78	568.75
384.97	521.94
385.17	538.32
385.36	491.51
385.56	514.92
385.75	477.47
385.95	613.22
386.14	514.92
386.34	526.62
386.53	566.41
386.72	606.20
386.92	596.84
387.11	599.18
387.31	568.75
387.50	521.94
387.70	545.34
387.89	580.45
388.09	538.32
388.28	559.39
388.48	674.07
388.67	676.41
388.86	641.31
389.06	592.16
389.25	617.90
389.45	638.97
389.64	608.54
389.84	683.44
390.03	678.76
390.22	660.03
390.42	606.20
390.61	603.86
390.81	603.86
391.00	669.39
391.19	718.54
391.39	631.94
391.58	681.10
391.78	725.57
391.97	671.73
392.16	685.78
392.36	784.08
392.55	704.50
392.75	690.46
392.94	786.42
393.13	737.27
393.33	690.46
393.52	725.57
393.71	734.93
393.91	835.57
394.10	748.97
394.29	692.80
394.49	734.93
394.68	798.12
394.88	887.06
395.07	784.08
395.26	805.14
395.46	763.01
395.65	844.93
395.84	861.32
396.04	922.17
396.23	826.21
396.42	875.36
396.62	858.98
396.81	791.10
397.00	851.96
397.19	929.19
397.39	959.62
397.58	908.13
397.77	889.40
397.97	964.30
398.16	936.21
398.35	922.17
398.55	870.68
398.74	917.49
398.93	1067.28
399.12	1048.56
399.32	945.58
399.51	926.85
399.70	945.58
399.90	1029.84
400.09	994.73
400.28	1053.24
400.47	985.37
400.67	1067.28
400.86	1062.60
401.05	1107.07
401.24	1086.01
401.44	1156.22
401.63	1135.16
401.82	1053.24
402.01	1177.29
402.21	1107.07
402.40	1203.04
402.59	1181.97
402.78	1118.78
402.97	1128.14
403.17	1149.20
403.36	1191.33
403.55	1177.29
403.74	1170.27
403.93	1266.23
404.13	1184.31
404.32	1235.80
404.51	1308.36
404.70	1322.40
404.89	1322.40
405.09	1399.64
405.28	1362.19
405.47	1165.59
405.66	1427.73
405.85	1439.43
406.05	1392.62
406.24	1394.96
406.43	1507.30
406.62	1390.28
406.81	1411.34
407.00	1357.51
407.20	1409.00
407.39	1378.58
407.58	1526.03
407.77	1439.43
407.96	1593.90
408.15	1568.16
408.34	1533.05
408.54	1533.05
408.73	1605.61
408.92	1509.65
409.11	1572.84
409.30	1636.03
409.49	1575.18
409.68	1682.85
409.87	1699.23
410.07	1687.53
410.26	1680.50
410.45	1713.27
410.64	1692.21
410.83	1617.31
411.02	1724.97
411.21	1760.08
411.40	1877.11
411.59	1830.30
411.78	1877.11
411.98	1849.02
412.17	1867.75
412.36	1930.94
412.55	1879.45
412.74	1973.07
412.93	1966.05
413.12	1933.28
413.31	2188.40
413.50	1961.37
413.69	2104.14
413.88	2047.97
414.07	2001.16
414.26	2122.87
414.45	2097.12
414.64	2157.97
414.83	2190.74
415.02	2183.72
415.22	2377.98
415.41	2284.36
415.60	2275.00
415.79	2310.11
415.98	2312.45
416.17	2296.07
416.36	2363.94
416.55	2389.69
416.74	2413.09
416.93	2387.35
417.12	2373.30
417.31	2457.56
417.50	2490.33
417.69	2576.93
417.88	2480.97
418.07	2518.42
418.26	2656.51
418.45	2614.38
418.64	2729.06
418.83	2698.64
419.02	2696.30
419.21	2679.91
419.39	2715.02
419.58	2686.94
419.77	2581.61
419.96	2775.88
420.15	2759.49
420.34	2635.44
420.53	2665.87
420.72	2885.88
420.91	2878.86
421.10	2780.56
421.29	2881.20
421.48	2792.26
421.67	2834.39
421.86	2925.67
422.05	2988.86
422.24	2885.88
422.43	2726.72
422.61	2949.08
422.80	2892.90
422.99	2939.71
423.18	2944.39
423.37	2944.39
423.56	2942.05
423.75	2918.65
423.94	2834.39
424.13	2829.71
424.32	2789.92
424.50	2799.28
424.69	2956.10
424.88	2998.23
425.07	2925.67
425.26	2960.78
425.45	3016.95
425.64	3035.67
425.83	2881.20
426.01	2925.67
426.20	2995.89
426.39	3091.85
426.58	2935.03
426.77	3133.98
426.96	3014.61
427.15	3133.98
427.33	3215.90
427.52	3110.57
427.71	3211.22
427.90	3133.98
428.09	3234.62
428.28	3187.81
428.46	3255.69
428.65	3148.02
428.84	3356.33
429.03	3372.71
429.22	3332.92
429.40	3337.60
429.59	3288.45
429.78	3201.85
429.97	3234.62
430.16	3173.77
430.34	3225.26
430.53	3384.41
430.72	3487.40
430.91	3379.73
431.10	3239.30
431.28	3421.86
431.47	3466.33
431.66	3508.46
431.85	3496.76
432.03	3613.79
432.22	3632.51
432.41	3550.59
432.60	3414.84
432.79	3496.76
432.97	3548.25
433.16	3658.26
433.35	3585.70
433.54	3655.92
433.72	3653.58
433.91	3749.54
434.10	3564.64
434.28	3686.34
434.47	3904.01
434.66	3772.94
434.85	3826.78
435.03	3768.26
435.22	3754.22
435.41	3763.58
435.59	3899.33
435.78	3892.31
435.97	3892.31
436.16	3978.91
436.34	3948.48
436.53	3843.16
436.72	3981.25
436.90	3878.27
437.09	4067.85
437.28	4018.70
437.46	3995.29
437.65	3969.55
437.84	4044.45
438.02	4032.74
438.21	4063.17
438.40	4142.75
438.58	4210.62
438.77	4208.28
438.96	4297.22
439.14	4231.69
439.33	4152.11
439.52	4353.40
439.70	4374.46
439.89	4400.21
440.08	4512.55
440.26	4379.14
440.45	4493.83
440.63	4524.26
440.82	4538.30
441.01	4437.66
441.19	4573.41
441.38	4638.94
441.57	4613.20
441.75	4713.84
441.94	4781.71
442.12	4865.97
442.31	4994.70
442.50	4798.10
442.68	4854.27
442.87	4844.91
443.05	4847.25
443.24	4990.02
443.43	5111.73
443.61	5043.85
443.80	5032.15
443.98	4999.38
444.17	4767.67
444.35	5018.11
444.54	5050.88
444.73	5069.60
444.91	4964.28
445.10	5090.67
445.28	5083.64
445.47	4924.49
445.65	5109.39
445.84	5046.20
446.02	5142.16
446.21	4865.97
446.39	4987.68
446.58	5167.90
446.77	5181.95
446.95	4966.62
447.14	5102.37
447.32	5149.18
447.51	5132.79
447.69	5053.22
447.88	5116.41
448.06	5132.79
448.25	5217.05
448.43	5249.82
448.62	5256.84
448.80	5205.35
448.99	5315.36
449.17	5352.81
449.36	5228.76
449.54	5268.55
449.73	5373.87
449.91	5383.23
450.10	5469.83
450.28	5397.28
450.46	5444.09
450.65	5394.93
450.83	5315.36
451.02	5465.15
451.20	5673.46
451.39	5586.86
451.57	5547.07
451.76	5584.52
451.94	5631.33
452.13	5511.96
452.31	5591.54
452.49	5511.96
452.68	5598.56
452.86	5708.57
453.05	5589.20
453.23	5783.46
453.42	5537.71
453.60	5722.61
453.78	5771.76
453.97	5738.99
454.15	5762.40
454.34	5799.85
454.52	5851.34
454.70	5841.98
454.89	6024.54
455.07	5764.74
455.26	5654.73
455.44	5926.24
455.62	5930.92
455.81	5954.32
455.99	6087.73
456.17	6143.91
456.36	5989.43
456.54	6111.14
456.73	6132.20
456.91	6195.40
457.09	6347.53
457.28	6342.85
457.46	6171.99
457.64	6274.98
457.83	6356.90
458.01	6209.44
458.19	6267.95
458.38	6270.30
458.56	6424.77
458.74	6476.26
458.93	6579.25
459.11	6399.02
459.29	6506.69
459.48	6715.00
459.66	6399.02
459.84	6583.93
460.03	6829.68
460.21	6696.27
460.39	6548.82
460.57	6719.68
460.76	6532.44
460.94	6600.31
461.12	6698.61
461.31	6731.38
461.49	6691.59
461.67	6696.27
461.85	6829.68
462.04	6789.89
462.22	7290.77
462.40	6972.46
462.59	6810.96
462.77	6874.15
462.95	6939.69
463.13	6984.16
463.32	6862.45
463.50	7239.28
463.68	6923.30
463.86	6927.99
464.05	6958.41
464.23	6906.92
464.41	7075.44
464.59	6960.75
464.78	7105.87
464.96	7201.83
465.14	7145.66
465.32	7187.79
465.50	7290.77
465.69	7152.68
465.87	7229.91
466.05	7108.21
466.23	7110.55
466.41	7302.47
466.60	7384.39
466.78	7344.60
466.96	7463.97
467.14	7356.30
467.32	7461.63
467.51	7679.30
467.69	7307.15
467.87	7541.21
468.05	7581.00
468.23	7428.86
468.41	7445.24
468.60	7630.15
468.78	7606.74
468.96	7473.33
469.14	7754.19
469.32	7639.51
469.50	7616.10
469.69	7599.72
469.87	7880.58
470.05	7749.51
470.23	8006.97
470.41	7967.18
470.59	7911.01
470.77	7700.36
470.95	8028.04
471.14	8067.83
471.32	7836.11
471.50	8124.00
471.68	8234.00
471.86	8224.64
472.04	8159.11
472.22	8269.11
472.40	8255.07
472.58	8168.47
472.77	8287.84
472.95	8362.73
473.13	8601.47
473.31	8388.48
473.49	8559.34
473.67	8528.91
473.85	8540.61
474.03	8788.71
474.21	8699.77
474.39	8788.71
474.57	8875.31
474.75	8884.67
474.93	8985.32
475.12	8805.10
475.30	9149.15
475.48	8884.67
475.66	9088.30
475.84	9015.74
476.02	9205.33
476.20	9320.01
476.38	9275.54
476.56	9493.21
476.74	9701.52
476.92	9469.81
477.10	9467.47
477.28	9706.20
477.46	9488.53
477.64	9788.12
477.82	9846.63
478.00	9853.66
478.18	10026.86
478.36	10125.16
478.54	10443.47
478.72	10148.56
478.90	10239.84
479.08	10565.18
479.26	10469.22
479.44	10389.64
479.62	10714.97
479.80	10892.85
479.98	10581.56
480.16	10719.65
480.34	11176.06
480.52	11063.71
480.70	10960.73
480.88	10995.84
481.06	11243.93
481.24	11185.42
481.41	11187.76
481.59	11714.38
481.77	11637.14
481.95	11672.25
482.13	11609.06
482.31	11569.27
482.49	11932.05
482.67	11789.28
482.85	12049.08
483.03	12119.29
483.21	12556.97
483.39	12379.09
483.57	12512.50
483.74	12383.77
483.92	12592.08
484.10	12709.11
484.28	12891.67
484.46	12879.97
484.64	13050.83
484.82	12868.27
485.00	12938.48
485.18	13310.63
485.35	13497.87
485.53	13511.91
485.71	13614.90
485.89	13853.63
486.07	13731.92
486.25	14059.60
486.43	14033.85
486.61	14083.00
486.78	14036.19
486.96	14693.88
487.14	14317.06
487.32	14679.84
487.50	14600.26
487.68	14815.59
487.85	14932.62
488.03	15096.46
488.21	15257.95
488.39	15311.78
488.57	15407.75
488.75	15449.88
488.92	15796.28
489.10	15676.91
489.28	15871.17
489.46	16081.82
489.64	16266.72
489.81	16299.49
489.99	16180.12
490.17	16601.42
490.35	16737.17
490.53	16638.87
490.70	17081.23
490.88	17006.33
491.06	17270.81
491.24	17233.36
491.41	17027.40
491.59	17329.33
491.77	17296.56
491.95	17481.46
492.13	17820.84
492.30	17516.57
492.48	17727.22
492.66	17806.80
492.84	17809.14
493.01	18307.67
493.19	18281.92
493.37	18478.53
493.54	18607.26
493.72	18628.32
493.90	18644.71
494.08	18867.06
494.25	19367.93
494.43	18796.84
494.61	19096.43
494.79	19335.17
494.96	19103.45
495.14	19307.08
495.32	19674.54
495.49	19730.72
495.67	19578.58
495.85	19892.21
496.02	20006.90
496.20	19990.52
496.38	20240.95
496.55	20255.00
496.73	20713.74
496.91	20840.13
497.09	20954.82
497.26	20987.58
497.44	20723.10
497.62	20842.47
497.79	20800.34
497.97	21043.76
498.14	21502.50
498.32	21399.52
498.50	21535.27
498.67	21766.98
498.85	21401.86
499.03	21734.21
499.20	21696.77
499.38	21942.52
499.56	22097.00
499.73	22389.56
499.91	21970.61
500.08	22321.69
500.26	21972.95
500.44	22532.34
500.61	22338.07
500.79	22244.45
500.97	22686.81
501.14	22817.88
501.32	22654.05
501.49	22981.72
501.67	23082.36
501.84	23204.07
502.02	23030.87
502.20	23255.56
502.37	23545.79
502.55	23222.80
502.72	23243.86
502.90	23625.37
503.07	23693.24
503.25	23737.71
503.43	23798.57
503.60	23758.78
503.78	23747.08
503.95	23873.46
504.13	23920.28
504.30	24079.43
504.48	24276.04
504.65	24720.74
504.83	24498.39
505.01	24533.50
505.18	24816.70
505.36	24781.59
505.53	24348.59
505.71	24725.42
505.88	25046.07
506.06	24919.68
506.23	25350.34
506.41	25127.99
506.58	24917.34
506.76	24861.17
506.93	25371.41
507.11	25228.63
507.28	25394.81
507.46	25479.07
507.63	25586.74
507.81	25809.09
507.98	25589.08
508.16	25804.41
508.33	25626.53
508.50	26206.98
508.68	26169.53
508.85	26153.15
509.03	25951.86
509.20	26167.19
509.38	26471.46
509.55	26368.48
509.73	26656.36
509.90	26820.20
510.08	26726.58
510.25	26810.84
510.42	26616.57
510.60	27292.99
510.77	26874.03
510.95	26977.01
511.12	26984.04
511.30	27056.59
511.47	27339.80
511.64	27498.95
511.82	27260.22
511.99	27466.19
512.17	28105.15
512.34	27742.37
512.51	27674.49
512.69	27913.23
512.86	28009.19
513.04	28456.23
513.21	28217.50
513.38	28322.82
513.56	28135.58
513.73	28095.79
513.90	28383.68
514.08	28395.38
514.25	28823.70
514.43	28477.30
514.60	28547.51
514.77	28699.65
514.95	29347.98
515.12	28755.82
515.29	28788.59
515.47	28872.85
515.64	29249.67
515.81	29202.86
515.99	29345.64
516.16	29287.12
516.33	29013.28
516.51	29558.63
516.68	29399.47
516.85	29745.87
517.03	29933.11
517.20	29355.00
517.37	30157.80
517.54	30096.95
517.72	29881.62
517.89	30202.27
518.06	29930.77
518.24	30508.88
518.41	29834.81
518.58	30256.11
518.75	30246.74
518.93	30319.30
519.10	30197.59
519.27	30555.69
519.45	30522.93
519.62	30312.28
519.79	30302.92
519.96	30558.03
520.14	30906.77
520.31	30448.03
520.48	30874.01
520.65	30827.20
520.83	30822.51
521.00	31166.57
521.17	31360.84
521.34	31157.21
521.52	31564.46
521.69	31531.70
521.86	31496.59
522.03	31285.94
522.20	31786.82
522.38	31452.12
522.55	31716.60
522.72	31971.72
522.89	31819.58
523.07	32496.00
523.24	32175.34
523.41	32348.54
523.58	32065.34
523.75	32308.76
523.92	32240.88
524.10	32444.51
524.27	32400.04
524.44	32624.73
524.61	32788.56
524.78	32594.30
524.96	33057.73
525.13	32821.33
525.30	32240.88
525.47	33015.60
525.64	32474.93
525.81	33076.45
525.98	33118.58
526.16	33048.36
526.33	33130.28
526.50	33284.76
526.67	33127.94
526.84	33383.06
527.01	32999.21
527.18	33280.08
527.36	33642.86
527.53	33734.14
527.70	33837.12
527.87	33659.24
528.04	33542.22
528.21	33652.22
528.38	33654.56
528.55	33677.97
528.72	34223.31
528.89	34120.33
529.07	33762.23
529.24	33635.84
529.41	33832.44
529.58	34169.48
529.75	33949.47
529.92	33738.82
530.09	34017.35
530.26	34277.15
530.43	34335.66
530.60	34129.69
530.77	34181.18
530.94	34450.35
531.11	34508.86
531.28	34555.67
531.46	34263.10
531.63	35049.52
531.80	34756.96
531.97	34965.26
532.14	35342.09
532.31	34895.05
532.48	34574.39
532.65	34824.83
532.82	34672.70
532.99	34923.13
533.16	34789.72
533.33	35435.71
533.50	35632.32
533.67	35548.06
533.84	35138.46
534.01	35290.60
534.18	35241.45
534.35	35468.48
534.52	35529.33
534.69	35700.19
534.86	35730.62
535.03	35185.27
535.20	35669.76
535.37	35772.75
535.54	36168.30
535.71	35484.86
535.88	36006.80
536.05	35721.26
536.22	36217.45
536.38	36481.93
536.55	35835.94
536.72	36170.64
536.89	35985.74
537.06	36093.40
537.23	36325.11
537.40	36355.54
537.57	36292.35
537.74	36290.01
537.91	36423.42
538.08	36872.80
538.25	36189.36
538.42	36732.37
538.59	36877.48
538.75	36196.38
538.92	36751.09
539.09	36783.86
539.26	36769.82
539.43	36566.19
539.60	36463.21
539.77	36755.77
539.94	36928.97
540.11	36730.03
540.28	37123.24
540.44	36727.69
540.61	36919.61
540.78	36814.29
540.95	36877.48
541.12	37144.30
541.29	36957.06
541.46	37418.14
541.62	37069.40
541.79	37329.20
541.96	37593.68
542.13	37177.07
542.30	37464.96
542.47	37525.81
542.63	37699.01
542.80	37666.24
542.97	37743.48
543.14	37947.11
543.31	37289.42
543.48	37450.91
543.64	38085.20
543.81	38529.90
543.98	38480.75
544.15	38230.31
544.32	38447.98
544.48	38749.91
544.65	38141.37
544.82	38178.82
544.99	37912.00
545.16	38117.96
545.32	38555.64
545.49	38473.73
545.66	38597.77
545.83	38602.46
546.00	38775.66
546.16	38356.70
546.33	38258.40
546.50	38047.75
546.67	38780.34
546.83	38160.09
547.00	39084.61
547.17	38721.82
547.34	38560.33
547.50	39145.46
547.67	39203.97
547.84	39225.04
548.00	38960.56
548.17	39180.57
548.34	39328.02
548.51	39393.56
548.67	39522.29
548.84	39222.70
549.01	38958.22
549.18	38763.95
549.34	39077.58
549.51	38918.43
549.68	39196.95
549.84	38862.26
550.01	39323.34
550.18	39934.22
550.34	39496.54
550.51	39218.02
550.68	39835.92
550.84	39009.71
551.01	39660.38
551.18	39414.62
551.34	39723.57
551.51	39508.24
551.68	39828.90
551.84	39721.23
552.01	39484.84
552.18	40091.04
552.34	39981.03
552.51	39814.85
552.68	39431.01
552.84	39845.28
553.01	40203.38
553.18	39821.87
553.34	40322.75
553.51	40528.72
553.67	40203.38
553.84	40900.86
554.01	40285.30
554.17	40133.17
554.34	39634.63
554.51	40236.15
554.67	40273.60
554.84	40399.99
555.00	39983.37
555.17	40430.41
555.33	40849.37
555.50	40353.18
555.67	40449.14
555.83	39910.82
556.00	40460.84
556.16	40374.24
556.33	40491.27
556.50	40634.04
556.66	40804.90
556.83	40676.17
556.99	40905.54
557.16	40942.99
557.32	40561.48
557.49	41081.08
557.65	40325.09
557.82	40217.43
557.98	40718.30
558.15	40212.74
558.32	40872.78
558.48	40877.46
558.65	40765.11
558.81	41104.49
558.98	40945.33
559.14	40722.98
559.31	40730.00
559.47	40762.77
559.64	40942.99
559.80	40975.76
559.97	41099.81
560.13	41195.77
560.30	40788.52
560.46	40978.10
560.63	41308.11
560.79	41144.28
560.96	41439.18
561.12	41422.80
561.29	41151.30
561.45	41191.09
561.61	41462.59
561.78	41551.53
561.94	41247.26
562.11	41235.56
562.27	41078.74
562.44	41062.36
562.60	41530.47
562.77	41233.22
562.93	41666.22
563.10	41448.55
563.26	40994.48
563.42	41612.38
563.59	41509.40
563.75	41659.20
563.92	41275.35
564.08	41331.52
564.24	41600.68
564.41	41226.20
564.57	41214.49
564.74	41481.31
564.90	41769.20
565.07	41794.95
565.23	41986.87
565.39	41640.47
565.56	41240.24
565.72	41275.35
565.88	41495.36
566.05	41303.43
566.21	41170.02
566.38	41773.88
566.54	41191.09
566.70	41778.56
566.87	41511.74
567.03	41626.43
567.19	42644.56
567.36	41418.12
567.52	41511.74
567.68	41659.20
567.85	41375.99
568.01	42021.98
568.17	41490.68
568.34	41572.60
568.50	42036.02
568.66	41937.72
568.83	42337.95
568.99	41415.78
569.15	42120.28
569.32	41684.94
569.48	41909.63
569.64	42211.56
569.81	41759.84
569.97	41902.61
570.13	42185.82
570.30	41713.03
570.46	42129.64
570.62	42225.60
570.78	41745.80
570.95	41949.42
571.11	41862.82
571.27	42019.64
571.43	41947.08
571.60	42096.88
571.76	41879.21
571.92	42047.72
572.09	42239.65
572.25	42401.14
572.41	41584.30
572.57	41972.83
572.74	42167.09
572.90	41668.56
573.06	42216.24
573.22	41914.31
573.38	42284.12
573.55	42412.85
573.71	42574.34
573.87	42532.22
574.03	42164.75
574.20	42096.88
574.36	41909.63
574.52	42101.56
574.68	41933.04
574.84	42094.53
575.01	42239.65
575.17	42246.67
575.33	42181.13
575.49	42171.77
575.65	42375.40
575.82	42038.36
575.98	41970.49
576.14	42281.78
576.30	42604.77
576.46	41720.05
576.62	41942.40
576.79	41935.38
576.95	42003.25
577.11	42230.29
577.27	42518.17
577.43	42433.91
577.59	42192.84
577.75	42300.50
577.92	42073.47
578.08	41942.40
578.24	41923.68
578.40	42122.62
578.56	42319.23
578.72	42330.93
578.88	42508.81
579.04	42775.63
579.21	42323.91
579.37	42122.62
579.53	42511.15
579.69	42000.91
579.85	42560.30
580.01	42478.38
580.17	42246.67
580.33	42333.27
580.49	42408.17
580.65	42209.22
580.82	42593.07
580.98	42279.44
581.14	42270.08
581.30	42344.97
581.46	41888.57
581.62	42040.70
581.78	42143.69
581.94	42417.53
582.10	42366.04
582.26	42099.22
582.42	42213.90
582.58	42572.00
582.74	42731.16
582.90	42665.63
583.06	42195.18
583.22	42529.87
583.38	41954.10
583.54	42583.71
583.70	42469.02
583.86	42309.86
584.02	42148.37
584.18	42454.98
584.34	42281.78
584.50	43119.69
584.66	42389.44
584.82	42227.95
584.98	42574.34
585.14	42249.01
585.30	42328.59
585.46	42424.55
585.62	42314.55
585.78	42635.20
585.94	42295.82
586.10	42401.14
586.26	42532.22
586.42	42480.72
586.58	42127.30
586.74	42323.91
586.90	42361.36
587.06	42010.28
587.22	42373.06
587.38	42663.28
587.54	42703.07
587.70	42749.88
587.86	42611.79
588.02	42714.78
588.18	42656.26
588.34	42218.58
588.49	42660.94
588.65	42445.62
588.81	42766.27
588.97	42473.70
589.13	42127.30
589.29	42703.07
589.45	43009.68
589.61	42958.19
589.77	43005.00
589.93	42955.85
590.08	42822.44
590.24	43187.56
590.40	42504.13
590.56	42546.26
590.72	42862.23
590.88	42146.03
591.04	42162.41
