SpectraSuite Data File
++++++++++++++++++++++++++++++++++++
Date: Fri Oct 04 11:48:37 GMT-05:00 2013
User: price-jones
Dark Spectrum Present: No
Reference Spectrum Present: No
Number of Sampled Component Spectra: 1
Spectrometers: USB2+H05261
Integration Time (usec): 100000 (USB2+H05261)
Spectra Averaged: 1 (USB2+H05261)
Boxcar Smoothing: 0 (USB2+H05261)
Correct for Electrical Dark: No (USB2+H05261)
Strobe/Lamp Enabled: No (USB2+H05261)
Correct for Detector Non-linearity: No (USB2+H05261)
Correct for Stray Light: No (USB2+H05261)
Number of Pixels in Processed Spectrum: 2048
>>>>>Begin Processed Spectral Data<<<<<
365.73	39.79
365.92	39.79
366.12	39.79
366.32	0.00
366.52	0.00
366.72	0.00
366.91	0.00
367.11	0.00
367.31	0.00
367.51	0.00
367.70	0.00
367.90	0.00
368.10	0.00
368.30	0.00
368.49	0.00
368.69	0.00
368.89	0.00
369.09	0.00
369.28	0.00
369.48	0.00
369.68	0.00
369.87	0.00
370.07	32.77
370.27	0.00
370.47	7.02
370.66	74.90
370.86	145.11
371.06	117.03
371.25	189.58
371.45	95.96
371.65	145.11
371.84	168.52
372.04	126.39
372.24	159.16
372.44	119.37
372.63	189.58
372.83	114.69
373.03	161.50
373.22	159.16
373.42	201.29
373.62	138.09
373.81	119.37
374.01	224.69
374.21	205.97
374.40	161.50
374.60	222.35
374.79	175.54
374.99	184.90
375.19	234.05
375.38	196.60
375.58	189.58
375.78	220.01
375.97	212.99
376.17	273.84
376.37	131.07
376.56	236.39
376.76	250.44
376.95	175.54
377.15	154.48
377.35	273.84
377.54	257.46
377.74	161.50
377.93	212.99
378.13	177.88
378.33	245.76
378.52	238.73
378.72	131.07
378.91	210.65
379.11	231.71
379.31	215.33
379.50	201.29
379.70	194.26
379.89	264.48
380.09	229.37
380.28	173.20
380.48	278.52
380.68	184.90
380.87	163.84
381.07	208.31
381.26	280.86
381.46	234.05
381.65	250.44
381.85	224.69
382.04	252.78
382.24	212.99
382.43	175.54
382.63	210.65
382.83	287.89
383.02	266.82
383.22	273.84
383.41	238.73
383.61	271.50
383.80	269.16
384.00	142.77
384.19	198.95
384.39	203.63
384.58	191.92
384.78	271.50
384.97	269.16
385.17	259.80
385.36	217.67
385.56	313.63
385.75	236.39
385.95	215.33
386.14	252.78
386.34	299.59
386.53	259.80
386.72	283.20
386.92	355.76
387.11	322.99
387.31	292.57
387.50	170.86
387.70	220.01
387.89	318.31
388.09	203.63
388.28	266.82
388.48	301.93
388.67	322.99
388.86	280.86
389.06	315.97
389.25	271.50
389.45	250.44
389.64	407.25
389.84	376.83
390.03	341.72
390.22	299.59
390.42	231.71
390.61	222.35
390.81	304.27
391.00	416.62
391.19	290.23
391.39	306.61
391.58	344.06
391.78	320.65
391.97	322.99
392.16	315.97
392.36	362.78
392.55	423.64
392.75	358.10
392.94	437.68
393.13	393.21
393.33	264.48
393.52	393.21
393.71	358.10
393.91	341.72
394.10	308.95
394.29	301.93
394.49	372.15
394.68	388.53
394.88	397.89
395.07	346.40
395.26	428.32
395.46	334.70
395.65	477.47
395.84	468.11
396.04	470.45
396.23	442.36
396.42	411.93
396.62	475.13
396.81	486.83
397.00	458.74
397.19	346.40
397.39	449.38
397.58	472.79
397.77	514.92
397.97	461.09
398.16	477.47
398.35	461.09
398.55	468.11
398.74	512.58
398.93	543.00
399.12	531.30
399.32	564.07
399.51	414.27
399.70	592.16
399.90	559.39
400.09	561.73
400.28	599.18
400.47	496.19
400.67	564.07
400.86	538.32
401.05	568.75
401.24	606.20
401.44	585.13
401.63	739.61
401.82	685.78
402.01	610.88
402.21	596.84
402.40	643.65
402.59	599.18
402.78	580.45
402.97	622.58
403.17	683.44
403.36	631.94
403.55	667.05
403.74	622.58
403.93	671.73
404.13	695.14
404.32	669.39
404.51	791.10
404.70	683.44
404.89	748.97
405.09	781.74
405.28	833.23
405.47	739.61
405.66	851.96
405.85	896.43
406.05	875.36
406.24	840.25
406.43	835.57
406.62	791.10
406.81	1025.15
407.00	823.87
407.20	919.83
407.39	884.72
407.58	877.70
407.77	889.40
407.96	940.90
408.15	1039.20
408.34	957.28
408.54	1027.50
408.73	1043.88
408.92	980.68
409.11	1055.58
409.30	1046.22
409.49	1055.58
409.68	1067.28
409.87	1151.54
410.07	1008.77
410.26	1046.22
410.45	1053.24
410.64	1102.39
410.83	1139.84
411.02	1198.35
411.21	1203.04
411.40	1219.42
411.59	1306.02
411.78	1277.93
411.98	1200.69
412.17	1355.17
412.36	1387.94
412.55	1231.12
412.74	1299.00
412.93	1275.59
413.12	1345.81
413.31	1317.72
413.50	1371.55
413.69	1369.21
413.88	1423.05
414.07	1409.00
414.26	1434.75
414.45	1476.88
414.64	1516.67
414.83	1474.54
415.02	1509.65
415.22	1495.60
415.41	1563.48
415.60	1605.61
415.79	1533.05
415.98	1640.72
416.17	1631.35
416.36	1598.59
416.55	1710.93
416.74	1603.27
416.93	1598.59
417.12	1717.95
417.31	1771.79
417.50	1797.53
417.69	1811.57
417.88	1788.17
418.07	1743.70
418.26	1832.64
418.45	1846.68
418.64	1886.47
418.83	1827.96
419.02	1762.42
419.21	1811.57
419.39	1834.98
419.58	1818.60
419.77	1853.70
419.96	1872.43
420.15	1947.33
420.34	1912.22
420.53	2040.95
420.72	1942.64
420.91	1989.46
421.10	2076.06
421.29	2045.63
421.48	1991.80
421.67	2054.99
421.86	2080.74
422.05	1984.77
422.24	2064.35
422.43	1994.14
422.61	1989.46
422.80	2043.29
422.99	2097.12
423.18	2052.65
423.37	2139.25
423.56	2165.00
423.75	1980.09
423.94	1949.67
424.13	1989.46
424.32	2097.12
424.50	2225.85
424.69	2127.55
424.88	2239.89
425.07	2059.67
425.26	1994.14
425.45	2195.42
425.64	2204.78
425.83	2165.00
426.01	2094.78
426.20	2090.10
426.39	2113.50
426.58	2172.02
426.77	2139.25
426.96	2162.66
427.15	2176.70
427.33	2160.31
427.52	2230.53
427.71	2296.07
427.90	2153.29
428.09	2296.07
428.28	2239.89
428.46	2190.74
428.65	2335.85
428.84	2319.47
429.03	2399.05
429.22	2172.02
429.40	2373.30
429.59	2303.09
429.78	2232.87
429.97	2277.34
430.16	2237.55
430.34	2436.50
430.53	2345.22
430.72	2410.75
430.91	2361.60
431.10	2272.66
431.28	2478.63
431.47	2464.58
431.66	2431.82
431.85	2544.16
432.03	2485.65
432.22	2551.18
432.41	2595.65
432.60	2516.08
432.79	2565.23
432.97	2558.21
433.16	2483.31
433.35	2509.05
433.54	2572.25
433.72	2649.49
433.91	2633.10
434.10	2572.25
434.28	2504.37
434.47	2619.06
434.66	2616.72
434.85	2656.51
435.03	2670.55
435.22	2708.00
435.41	2792.26
435.59	2722.04
435.78	2684.59
435.97	2794.60
436.16	2710.34
436.34	2635.44
436.53	2754.81
436.72	2801.62
436.90	2780.56
437.09	2815.66
437.28	2822.69
437.46	2818.00
437.65	2803.96
437.84	2855.45
438.02	3007.59
438.21	3023.97
438.40	2869.50
438.58	2963.12
438.77	3087.17
438.96	2949.08
439.14	3019.29
439.33	3094.19
439.52	3206.53
439.70	3108.23
439.89	2991.20
440.08	3101.21
440.26	3075.46
440.45	3166.74
440.63	3232.28
440.82	3283.77
441.01	3248.66
441.19	3260.37
441.38	3365.69
441.57	3269.73
441.75	3321.22
441.94	3353.99
442.12	3428.88
442.31	3496.76
442.50	3372.71
442.68	3361.01
442.87	3323.56
443.05	3417.18
443.24	3496.76
443.43	3583.36
443.61	3522.51
443.80	3508.46
443.98	3489.74
444.17	3433.57
444.35	3496.76
444.54	3541.23
444.73	3433.57
444.91	3625.49
445.10	3531.87
445.28	3595.06
445.47	3435.91
445.65	3562.30
445.84	3653.58
446.02	3520.17
446.21	3569.32
446.39	3702.73
446.58	3754.22
446.77	3632.51
446.95	3536.55
447.14	3634.85
447.32	3719.11
447.51	3714.43
447.69	3616.13
447.88	3662.94
448.06	3602.08
448.25	3684.00
448.43	3653.58
448.62	3749.54
448.80	3562.30
448.99	3695.71
449.17	3728.47
449.36	3674.64
449.54	3777.62
449.73	3831.46
449.91	3974.23
450.10	3833.80
450.28	3838.48
450.46	3927.42
450.65	3833.80
450.83	3953.16
451.02	3791.67
451.20	3906.35
451.39	3866.56
451.57	3889.97
451.76	3896.99
451.94	3847.84
452.13	3896.99
452.31	3960.19
452.49	3824.44
452.68	3964.87
452.86	4098.28
453.05	3985.93
453.23	3939.12
453.42	3948.48
453.60	3981.25
453.78	4039.76
453.97	3950.82
454.15	4063.17
454.34	4037.42
454.52	4109.98
454.70	4023.38
454.89	4142.75
455.07	4084.23
455.26	4133.39
455.44	4271.48
455.62	4114.66
455.81	4156.79
455.99	4259.78
456.17	4159.13
456.36	4339.35
456.54	4376.80
456.73	4344.03
456.91	4437.66
457.09	4465.74
457.28	4496.17
457.46	4507.87
457.64	4500.85
457.83	4526.60
458.01	4514.89
458.19	4622.56
458.38	4505.53
458.56	4550.00
458.74	4638.94
458.93	4610.86
459.11	4568.73
459.29	4505.53
459.48	4498.51
459.66	4585.11
459.84	4641.28
460.03	4760.65
460.21	4662.35
460.39	4615.54
460.57	4568.73
460.76	4704.48
460.94	4762.99
461.12	4800.44
461.31	4699.80
461.49	4816.82
461.67	4603.83
461.85	4954.91
462.04	4877.68
462.22	5408.98
462.40	4987.68
462.59	4837.89
462.77	4905.76
462.95	4952.57
463.13	4873.00
463.32	4863.63
463.50	4861.29
463.68	5008.75
463.86	5004.07
464.05	4826.18
464.23	4891.72
464.41	4959.60
464.59	5116.41
464.78	5259.18
464.96	5032.15
465.14	4964.28
465.32	5142.16
465.50	5078.96
465.69	5083.64
465.87	4978.32
466.05	5015.77
466.23	5053.22
466.41	5200.67
466.60	5284.93
466.78	5132.79
466.96	5329.40
467.14	5013.43
467.32	5188.97
467.51	5231.10
467.69	5001.72
467.87	5102.37
468.05	5203.01
468.23	5284.93
468.41	5242.80
468.60	5301.31
468.78	5291.95
468.96	5315.36
469.14	5406.64
469.32	5495.58
469.50	5259.18
469.69	5636.01
469.87	5631.33
470.05	5598.56
470.23	5462.81
470.41	5495.58
470.59	5359.83
470.77	5619.63
470.95	5530.69
471.14	5647.71
471.32	5488.56
471.50	5703.89
471.68	5650.05
471.86	5678.14
472.04	5626.65
472.22	5834.96
472.40	5612.60
472.58	5877.09
472.77	5785.80
472.95	5832.62
473.13	5951.98
473.31	5856.02
473.49	5788.14
473.67	6043.26
473.85	5781.12
474.03	6061.99
474.21	6052.63
474.39	6118.16
474.57	6214.12
474.75	6235.19
474.93	6279.66
475.12	6134.54
475.30	6377.96
475.48	6150.93
475.66	6265.61
475.84	6296.04
476.02	6314.77
476.20	6342.85
476.38	6686.91
476.56	6689.25
476.74	6642.44
476.92	6700.95
477.10	6579.25
477.28	6630.74
477.46	6600.31
477.64	6862.45
477.82	6808.62
478.00	7056.72
478.18	7077.78
478.36	6993.52
478.54	7155.02
478.72	7117.57
478.90	7045.01
479.08	7353.96
479.26	7155.02
479.44	7243.96
479.62	7449.93
479.80	7346.94
479.98	7609.08
480.16	7548.23
480.34	7602.06
480.52	7590.36
480.70	7906.33
480.88	7653.55
481.06	7681.64
481.24	7791.64
481.41	7901.65
481.59	8023.36
481.77	8131.02
481.95	8067.83
482.13	8138.04
482.31	8170.81
482.49	8311.24
482.67	8402.52
482.85	8421.25
483.03	8416.57
483.21	8638.92
483.39	8671.68
483.57	8685.73
483.74	8657.64
483.92	8861.27
484.10	8762.97
484.28	9011.06
484.46	9088.30
484.64	8997.02
484.82	9090.64
485.00	8898.72
485.18	9238.09
485.35	9334.06
485.53	9266.18
485.71	9390.23
485.89	9643.01
486.07	9631.30
486.25	9579.81
486.43	9745.99
486.61	9741.31
486.78	9940.26
486.96	9834.93
487.14	10033.88
487.32	9966.00
487.50	9975.36
487.68	10312.40
487.85	10312.40
488.03	10679.86
488.21	10717.31
488.39	10626.03
488.57	10551.14
488.75	10836.68
488.92	10899.87
489.10	10822.64
489.28	10892.85
489.46	10920.94
489.64	11028.60
489.81	11124.57
489.99	11157.33
490.17	11367.98
490.35	11410.11
490.53	11520.12
490.70	11552.88
490.88	11328.19
491.06	11695.66
491.24	11782.26
491.41	11679.27
491.59	11772.89
491.77	11929.71
491.95	12116.95
492.13	12098.23
492.30	12161.42
492.48	12245.68
492.66	12304.20
492.84	12334.62
493.01	12489.10
493.19	12362.71
493.37	12762.94
493.54	12313.56
493.72	12774.64
493.90	12835.50
494.08	12915.08
494.25	13062.53
494.43	12931.46
494.61	13046.15
494.79	13156.15
494.96	13034.44
495.14	13249.77
495.32	13317.65
495.49	13642.98
495.67	13497.87
495.85	13734.26
496.02	13841.93
496.20	13811.50
496.38	13748.31
496.55	13685.11
496.73	14122.79
496.91	13923.85
497.09	14111.09
497.26	14246.84
497.44	14071.30
497.62	14083.00
497.79	14476.21
497.97	14115.77
498.14	14635.37
498.32	14857.72
498.50	14548.77
498.67	14736.01
498.85	14696.22
499.03	14956.02
499.20	14721.97
499.38	14979.43
499.56	14862.40
499.73	15028.58
499.91	15166.67
500.08	15159.65
500.26	15047.30
500.44	15176.03
500.61	15353.91
500.79	15414.77
500.97	15389.02
501.14	15793.94
501.32	15543.50
501.49	15826.70
501.67	15740.10
501.84	15796.28
502.02	15920.32
502.20	15775.21
502.37	16238.64
502.55	15721.38
502.72	16065.44
502.90	16418.86
503.07	15866.49
503.25	16098.20
503.43	16257.36
503.60	16243.32
503.78	16304.17
503.95	16269.06
504.13	16559.29
504.30	16655.25
504.48	16367.37
504.65	16744.19
504.83	16606.10
505.01	16992.29
505.18	16933.78
505.36	16943.14
505.53	16465.67
505.71	16772.28
505.88	16987.61
506.06	16629.51
506.23	17228.68
506.41	17202.94
506.58	17348.05
506.76	17312.94
506.93	17357.41
507.11	17282.52
507.28	17357.41
507.46	17362.09
507.63	17572.74
507.81	17322.30
507.98	17312.94
508.16	17568.06
508.33	17551.68
508.50	17830.20
508.68	17944.89
508.85	18024.47
509.03	17869.99
509.20	18015.10
509.38	18141.49
509.55	18295.97
509.73	18317.03
509.90	18490.23
510.08	18153.20
510.25	18530.02
510.42	18333.42
510.60	18492.57
510.77	18618.96
510.95	18668.11
511.12	18705.56
511.30	18312.35
511.47	18583.85
511.64	18743.01
511.82	18750.03
511.99	18970.04
512.17	19056.64
512.34	19042.60
512.51	19016.85
512.69	19026.21
512.86	19208.78
513.04	18995.79
513.21	19461.55
513.38	19215.80
513.56	19503.68
513.73	19246.23
513.90	19150.26
514.08	19452.19
514.25	19669.86
514.43	19484.96
514.60	19616.03
514.77	19859.45
514.95	19983.49
515.12	19683.91
515.29	19648.80
515.47	19901.58
515.64	19915.62
515.81	20044.35
515.99	20187.12
516.16	20184.78
516.33	20313.51
516.51	19957.75
516.68	19875.83
516.85	19908.60
517.03	20301.81
517.20	20325.21
517.37	20112.22
517.54	20477.35
517.72	20269.04
517.89	20290.10
518.06	20652.89
518.24	20259.68
518.41	20472.67
518.58	20783.96
518.75	20552.24
518.93	20786.30
519.10	20767.57
519.27	21043.76
519.45	20844.81
519.62	21034.39
519.79	21085.89
519.96	20994.61
520.14	21195.89
520.31	21221.64
520.48	21296.53
520.65	21144.40
520.83	21277.81
521.00	21481.44
521.17	21301.22
521.34	21493.14
521.52	21231.00
521.69	21539.95
521.86	21509.52
522.03	21593.78
522.20	21696.77
522.38	21771.66
522.55	21916.78
522.72	21682.72
522.89	21986.99
523.07	21876.99
523.24	21933.16
523.41	21909.75
523.58	21867.63
523.75	22113.38
523.92	21661.66
524.10	22164.87
524.27	22164.87
524.44	22265.52
524.61	22590.85
524.78	22373.18
524.96	22298.28
525.13	22246.79
525.30	22530.00
525.47	22431.69
525.64	22321.69
525.81	22534.68
525.98	23042.57
526.16	22607.23
526.33	22602.55
526.50	22717.24
526.67	22354.46
526.84	22679.79
527.01	22366.16
527.18	22640.00
527.36	22911.50
527.53	22707.88
527.70	23241.52
527.87	23159.60
528.04	22934.91
528.21	23044.91
528.38	23117.47
528.55	23391.31
528.72	23168.96
528.89	22789.80
529.07	23108.11
529.24	23016.83
529.41	23365.57
529.58	23281.31
529.75	23133.86
529.92	23138.54
530.09	23658.14
530.26	23660.48
530.43	23702.61
530.60	23075.34
530.77	23604.30
530.94	23403.02
531.11	23454.51
531.28	23513.02
531.46	23789.20
531.63	23604.30
531.80	23721.33
531.97	23735.37
532.14	23714.31
532.31	23791.55
532.48	23522.38
532.65	23688.56
532.82	23597.28
532.99	23817.29
533.16	23882.83
533.33	24020.92
533.50	24147.31
533.67	24301.78
533.84	23908.57
534.01	23667.50
534.18	23847.72
534.35	24395.40
534.52	23939.00
534.69	24472.64
534.86	24290.08
535.03	24041.98
535.20	24175.39
535.37	24596.69
535.54	24390.72
535.71	24449.24
535.88	24774.57
536.05	24386.04
536.22	24561.58
536.38	24833.08
536.55	24964.15
536.72	24577.97
536.89	24313.48
537.06	24580.31
537.23	24739.46
537.40	24491.37
537.57	24711.38
537.74	24580.31
537.91	25376.09
538.08	25006.28
538.25	24952.45
538.42	24980.54
538.59	25439.28
538.75	24938.41
538.92	24809.68
539.09	24774.57
539.26	24961.81
539.43	25184.16
539.60	25069.48
539.77	24861.17
539.94	25076.50
540.11	25184.16
540.28	25369.07
540.44	25275.45
540.61	25188.85
540.78	25116.29
540.95	24950.11
541.12	25458.01
541.29	25167.78
541.46	25322.26
541.62	25551.63
541.79	25465.03
541.96	25481.41
542.13	25294.17
542.30	25675.68
542.47	25703.76
542.63	25769.30
542.80	25570.35
542.97	26139.10
543.14	25769.30
543.31	25781.00
543.48	25891.01
543.64	26232.72
543.81	26232.72
543.98	26139.10
544.15	25947.18
544.32	26232.72
544.48	26040.80
544.65	25771.64
544.82	25706.10
544.99	25839.51
545.16	26043.14
545.32	26043.14
545.49	26316.98
545.66	26291.24
545.83	26307.62
546.00	26689.13
546.16	26099.31
546.33	25928.45
546.50	25825.47
546.67	26113.36
546.83	26139.10
547.00	26469.12
547.17	26190.59
547.34	26305.28
547.50	26373.16
547.67	26906.80
547.84	26546.36
548.00	26705.51
548.17	26466.78
548.34	26696.15
548.51	26771.05
548.67	26693.81
548.84	26670.40
549.01	26614.23
549.18	26611.89
549.34	26604.87
549.51	26719.56
549.68	26682.11
549.84	26632.96
550.01	26796.79
550.18	26817.86
550.34	27250.86
550.51	26649.34
550.68	26689.13
550.84	26256.13
551.01	26754.66
551.18	26576.78
551.34	26651.68
551.51	26831.90
551.68	26675.09
551.84	26918.50
552.01	26796.79
552.18	26979.36
552.34	26981.70
552.51	27084.68
552.68	27056.59
552.84	27016.80
553.01	27143.19
553.18	26944.25
553.34	27082.34
553.51	27489.59
553.67	27229.79
553.84	27374.91
554.01	27426.40
554.17	27349.16
554.34	27040.21
554.51	27297.67
554.67	27246.18
554.84	27267.24
555.00	26995.74
555.17	27328.10
555.33	27227.45
555.50	27337.46
555.67	27082.34
555.83	27068.30
556.00	27253.20
556.16	27566.83
556.33	26988.72
556.50	27463.85
556.66	27475.55
556.83	27129.15
556.99	27615.98
557.16	27316.39
557.32	27255.54
557.49	27756.41
557.65	27028.51
557.82	27608.96
557.98	27143.19
558.15	27608.96
558.32	27637.05
558.48	27679.18
558.65	27173.62
558.81	27791.52
558.98	27496.61
559.14	27679.18
559.31	27410.01
559.47	27807.90
559.64	27814.93
559.80	27627.68
559.97	27737.69
560.13	27438.10
560.30	27927.27
560.46	27782.16
560.63	27587.89
560.79	27988.13
560.96	27850.03
561.12	27557.47
561.29	27901.53
561.45	27758.75
561.61	27885.14
561.78	27838.33
561.94	27730.67
562.11	27651.09
562.27	27676.83
562.44	27702.58
562.60	27807.90
562.77	27742.37
562.93	28095.79
563.10	27852.38
563.26	27611.30
563.42	28439.85
563.59	27826.63
563.75	28182.39
563.92	27782.16
564.08	27639.39
564.24	27800.88
564.41	27517.68
564.57	27725.99
564.74	27524.70
564.90	27630.02
565.07	28418.78
565.23	28414.10
565.39	27840.67
565.56	28231.54
565.72	27843.01
565.88	27772.80
566.05	27585.55
566.21	27929.61
566.38	27789.18
566.54	27838.33
566.70	28081.75
566.87	28060.68
567.03	28149.62
567.19	28072.39
567.36	28189.41
567.52	27871.10
567.68	27868.76
567.85	27847.69
568.01	27941.32
568.17	27854.72
568.34	28027.92
568.50	27828.97
568.66	27845.35
568.83	28364.95
568.99	28018.55
569.15	28119.20
569.32	27948.34
569.48	27697.90
569.64	27831.31
569.81	27976.42
569.97	27707.26
570.13	27899.19
570.30	28065.36
570.46	27894.50
570.62	27845.35
570.78	28320.48
570.95	27763.43
571.11	27960.04
571.27	28093.45
571.43	28004.51
571.60	28170.69
571.76	27988.13
571.92	28212.82
572.09	28147.28
572.25	28271.33
572.41	27992.81
572.57	28088.77
572.74	28196.43
572.90	27646.41
573.06	28044.30
573.22	28079.41
573.38	27960.04
573.55	27604.28
573.71	28999.24
573.87	28489.00
574.03	28158.99
574.20	27735.35
574.36	28189.41
574.52	27988.13
574.68	28098.13
574.84	28149.62
575.01	28163.67
575.17	28158.99
575.33	28379.00
575.49	28187.07
575.65	28706.67
575.82	28261.97
575.98	28250.27
576.14	28329.84
576.30	28489.00
576.46	27723.65
576.62	28009.19
576.79	28170.69
576.95	28109.83
577.11	28325.16
577.27	28074.73
577.43	27983.44
577.59	28257.29
577.75	28238.56
577.92	27875.78
578.08	28252.61
578.24	27615.98
578.40	28177.71
578.56	28369.63
578.72	28233.88
578.88	28247.93
579.04	28374.31
579.21	28259.63
579.37	28374.31
579.53	27852.38
579.69	27852.38
579.85	28163.67
580.01	28212.82
580.17	27974.08
580.33	28086.43
580.49	28184.73
580.65	28121.54
580.82	28320.48
580.98	28320.48
581.14	28411.76
581.30	28535.81
581.46	28018.55
581.62	28273.67
581.78	27946.00
581.94	28203.46
582.10	27931.95
582.26	28240.90
582.42	28432.83
582.58	28584.96
582.74	28081.75
582.90	28163.67
583.06	28212.82
583.22	28425.81
583.38	28224.52
583.54	27964.72
583.70	28477.30
583.86	28105.15
584.02	28353.25
584.18	28320.48
584.34	28147.28
584.50	28343.89
584.66	28041.96
584.82	28276.01
584.98	28306.44
585.14	28264.31
585.30	28020.89
585.46	28191.75
585.62	28177.71
585.78	28081.75
585.94	28381.34
586.10	28491.34
586.26	28070.04
586.42	28453.89
586.58	28517.09
586.74	28229.20
586.90	28252.61
587.06	27859.40
587.22	28379.00
587.38	28467.94
587.54	28205.80
587.70	28699.65
587.86	28671.56
588.02	28175.37
588.18	28650.50
588.34	28556.88
588.49	28088.77
588.65	28353.25
588.81	28273.67
588.97	28294.74
589.13	27974.08
589.29	28268.99
589.45	28620.07
589.61	28360.27
589.77	28617.73
589.93	28463.25
590.08	28308.78
590.24	28765.18
590.40	28556.88
590.56	28446.87
590.72	28336.87
590.88	28315.80
591.04	28168.35
591.20	28701.99
591.35	28807.31
591.51	28959.45
591.67	28521.77
591.83	28645.82
591.99	28397.72
