SpectraSuite Data File
++++++++++++++++++++++++++++++++++++
Date: Fri Oct 04 11:48:32 GMT-05:00 2013
User: price-jones
Dark Spectrum Present: No
Reference Spectrum Present: No
Number of Sampled Component Spectra: 1
Spectrometers: USB2+H05261
Integration Time (usec): 100000 (USB2+H05261)
Spectra Averaged: 1 (USB2+H05261)
Boxcar Smoothing: 0 (USB2+H05261)
Correct for Electrical Dark: No (USB2+H05261)
Strobe/Lamp Enabled: No (USB2+H05261)
Correct for Detector Non-linearity: No (USB2+H05261)
Correct for Stray Light: No (USB2+H05261)
Number of Pixels in Processed Spectrum: 2048
>>>>>Begin Processed Spectral Data<<<<<
365.73	0.00
365.92	0.00
366.12	0.00
366.32	0.00
366.52	0.00
366.72	0.00
366.91	0.00
367.11	0.00
367.31	0.00
367.51	0.00
367.70	0.00
367.90	0.00
368.10	0.00
368.30	0.00
368.49	0.00
368.69	0.00
368.89	0.00
369.09	0.00
369.28	0.00
369.48	0.00
369.68	0.00
369.87	0.00
370.07	46.81
370.27	67.88
370.47	121.71
370.66	374.49
370.86	421.30
371.06	454.06
371.25	479.81
371.45	456.40
371.65	503.22
371.84	463.43
372.04	447.04
372.24	528.96
372.44	519.60
372.63	507.90
372.83	547.69
373.03	662.37
373.22	521.94
373.42	510.24
373.62	578.11
373.81	627.26
374.01	620.24
374.21	620.24
374.40	627.26
374.60	634.29
374.79	699.82
374.99	624.92
375.19	711.52
375.38	650.67
375.58	716.20
375.78	730.25
375.97	613.22
376.17	702.16
376.37	648.33
376.56	690.46
376.76	725.57
376.95	608.54
377.15	676.41
377.35	753.65
377.54	697.48
377.74	683.44
377.93	709.18
378.13	751.31
378.33	706.84
378.52	770.04
378.72	748.97
378.91	695.14
379.11	734.93
379.31	739.61
379.50	812.17
379.70	851.96
379.89	856.64
380.09	858.98
380.28	741.95
380.48	788.76
380.68	802.80
380.87	840.25
381.07	800.46
381.26	896.43
381.46	835.57
381.65	823.87
381.85	880.04
382.04	875.36
382.24	807.48
382.43	933.87
382.63	809.83
382.83	840.25
383.02	875.36
383.22	924.51
383.41	873.02
383.61	891.74
383.80	997.07
384.00	966.64
384.19	919.83
384.39	931.53
384.58	980.68
384.78	973.66
384.97	997.07
385.17	1041.54
385.36	1011.11
385.56	957.28
385.75	985.37
385.95	1034.52
386.14	961.96
386.34	971.32
386.53	1100.05
386.72	983.02
386.92	1071.97
387.11	1062.60
387.31	1093.03
387.50	1025.15
387.70	1048.56
387.89	1081.33
388.09	1060.26
388.28	1036.86
388.48	1174.95
388.67	1137.50
388.86	1083.67
389.06	1142.18
389.25	1146.86
389.45	1153.88
389.64	1125.80
389.84	1203.04
390.03	1214.74
390.22	1224.10
390.42	1231.12
390.61	1289.64
390.81	1137.50
391.00	1306.02
391.19	1355.17
391.39	1261.55
391.58	1214.74
391.78	1336.45
391.97	1259.21
392.16	1345.81
392.36	1366.87
392.55	1308.36
392.75	1338.79
392.94	1261.55
393.13	1343.47
393.33	1315.38
393.52	1413.68
393.71	1420.71
393.91	1474.54
394.10	1380.92
394.29	1369.21
394.49	1392.62
394.68	1404.32
394.88	1540.07
395.07	1516.67
395.26	1490.92
395.46	1425.39
395.65	1502.62
395.84	1645.40
396.04	1661.78
396.23	1563.48
396.42	1504.96
396.62	1575.18
396.81	1584.54
397.00	1551.78
397.19	1593.90
397.39	1661.78
397.58	1685.19
397.77	1565.82
397.97	1685.19
398.16	1708.59
398.35	1727.32
398.55	1673.48
398.74	1741.36
398.93	1743.70
399.12	1701.57
399.32	1675.82
399.51	1797.53
399.70	1802.21
399.90	1806.89
400.09	1776.47
400.28	1961.37
400.47	1811.57
400.67	1799.87
400.86	1926.26
401.05	1949.67
401.24	1886.47
401.44	1994.14
401.63	2019.88
401.82	2106.48
402.01	2087.76
402.21	2029.24
402.40	2024.56
402.59	2143.93
402.78	2104.14
402.97	2019.88
403.17	2118.18
403.36	2092.44
403.55	2172.02
403.74	2169.68
403.93	2157.97
404.13	2174.36
404.32	2305.43
404.51	2190.74
404.70	2223.51
404.89	2183.72
405.09	2415.43
405.28	2361.60
405.47	2328.83
405.66	2338.20
405.85	2317.13
406.05	2305.43
406.24	2349.90
406.43	2427.14
406.62	2394.37
406.81	2499.69
407.00	2377.98
407.20	2504.37
407.39	2504.37
407.58	2546.50
407.77	2504.37
407.96	2551.18
408.15	2759.49
408.34	2544.16
408.54	2705.66
408.73	2677.57
408.92	2583.95
409.11	2562.89
409.30	2766.51
409.49	2708.00
409.68	2665.87
409.87	2691.62
410.07	2829.71
410.26	2869.50
410.45	2853.11
410.64	2867.16
410.83	2799.28
411.02	2806.30
411.21	2909.29
411.40	2862.48
411.59	3054.40
411.78	3087.17
411.98	3108.23
412.17	3014.61
412.36	3148.02
412.55	3180.79
412.74	3164.40
412.93	3124.62
413.12	3162.06
413.31	3332.92
413.50	3267.39
413.69	3384.41
413.88	3482.72
414.07	3286.11
414.26	3417.18
414.45	3375.05
414.64	3454.63
414.83	3651.24
415.02	3676.98
415.22	3585.70
415.41	3581.02
415.60	3648.90
415.79	3646.55
415.98	3901.67
416.17	3705.07
416.36	3840.82
416.55	3875.93
416.74	3775.28
416.93	3918.06
417.12	3997.64
417.31	4046.79
417.50	4032.74
417.69	4070.19
417.88	4056.15
418.07	3918.06
418.26	4079.55
418.45	4196.58
418.64	4414.25
418.83	4297.22
419.02	4095.94
419.21	4236.37
419.39	4280.84
419.58	4212.96
419.77	4264.46
419.96	4255.09
420.15	4402.55
420.34	4353.40
420.53	4346.37
420.72	4491.49
420.91	4447.02
421.10	4542.98
421.29	4585.11
421.48	4379.14
421.67	4528.94
421.86	4542.98
422.05	4713.84
422.24	4566.39
422.43	4636.60
422.61	4505.53
422.80	4557.02
422.99	4636.60
423.18	4641.28
423.37	4828.53
423.56	4802.78
423.75	4685.75
423.94	4671.71
424.13	4372.12
424.32	4512.55
424.50	4507.87
424.69	4755.97
424.88	4858.95
425.07	4610.86
425.26	4767.67
425.45	4648.30
425.64	4786.40
425.83	4842.57
426.01	4896.40
426.20	4662.35
426.39	4753.63
426.58	4732.56
426.77	4774.69
426.96	5027.47
427.15	4830.87
427.33	5043.85
427.52	4898.74
427.71	4973.64
427.90	5074.28
428.09	5097.69
428.28	4980.66
428.46	5076.62
428.65	5144.50
428.84	5125.77
429.03	5207.69
429.22	5022.79
429.40	5107.05
429.59	5238.12
429.78	5095.35
429.97	4891.72
430.16	5121.09
430.34	5240.46
430.53	5373.87
430.72	5287.27
430.91	5458.13
431.10	5334.08
431.28	5387.91
431.47	5661.76
431.66	5657.07
431.85	5336.42
432.03	5614.95
432.22	5785.80
432.41	5572.82
432.60	5526.00
432.79	5549.41
432.97	5764.74
433.16	5631.33
433.35	5710.91
433.54	5834.96
433.72	5973.05
433.91	5797.51
434.10	5888.79
434.28	5900.49
434.47	5865.38
434.66	6033.90
434.85	5942.62
435.03	6115.82
435.22	5935.60
435.41	6125.18
435.59	6143.91
435.78	6246.89
435.97	6052.63
436.16	6207.10
436.34	6050.28
436.53	6122.84
436.72	6319.45
436.90	6129.86
437.09	6349.87
437.28	6331.15
437.46	6141.57
437.65	6345.19
437.84	6487.96
438.02	6532.44
438.21	6469.24
438.40	6504.35
438.58	6665.85
438.77	6850.75
438.96	6623.72
439.14	6775.85
439.33	6785.21
439.52	6892.88
439.70	7033.31
439.89	7272.04
440.08	7019.27
440.26	7143.32
440.45	7066.08
440.63	6995.86
440.82	7419.50
441.01	7328.22
441.19	7269.70
441.38	7325.88
441.57	7480.35
441.75	7534.18
441.94	7634.83
442.12	7630.15
442.31	7709.72
442.50	7674.62
442.68	7754.19
442.87	7712.07
443.05	7662.91
443.24	7896.97
443.43	7852.50
443.61	7810.37
443.80	8161.45
443.98	7733.13
444.17	7686.32
444.35	8021.02
444.54	8138.04
444.73	7918.03
444.91	7798.66
445.10	7756.54
445.28	7955.48
445.47	7950.80
445.65	8023.36
445.84	8074.85
446.02	8100.59
446.21	8018.68
446.39	8201.24
446.58	8147.40
446.77	8102.93
446.95	8173.15
447.14	8142.72
447.32	8276.13
447.51	8152.09
447.69	8224.64
447.88	8203.58
448.06	8135.70
448.25	8217.62
448.43	7997.61
448.62	8229.32
448.80	8285.50
448.99	8306.56
449.17	8542.96
449.36	8292.52
449.54	8760.63
449.73	8641.26
449.91	8659.98
450.10	8683.39
450.28	8678.71
450.46	8514.87
450.65	8599.13
450.83	8875.31
451.02	8809.78
451.20	8877.65
451.39	9046.17
451.57	8882.33
451.76	8765.31
451.94	8769.99
452.13	9013.40
452.31	9081.28
452.49	8957.23
452.68	8964.25
452.86	9111.71
453.05	9212.35
453.23	9149.15
453.42	8980.64
453.60	9151.49
453.78	9116.39
453.97	9184.26
454.15	9280.22
454.34	9198.31
454.52	9348.10
454.70	9423.00
454.89	9357.46
455.07	9399.59
455.26	9598.54
455.44	9650.03
455.62	9533.00
455.81	9385.55
455.99	9577.47
456.17	9806.84
456.36	9879.40
456.54	9696.84
456.73	10073.67
456.91	10139.20
457.09	10059.62
457.28	10207.08
457.46	9806.84
457.64	10104.09
457.83	10181.33
458.01	10052.60
458.19	10380.28
458.38	10284.31
458.56	10537.09
458.74	10263.25
458.93	10354.53
459.11	10270.27
459.29	10167.29
459.48	10340.49
459.66	10319.42
459.84	10602.63
460.03	10789.87
460.21	10569.86
460.39	10663.48
460.57	10382.62
460.76	10721.99
460.94	11061.37
461.12	10855.40
461.31	10993.50
461.49	10864.77
461.67	10942.00
461.85	11236.91
462.04	10930.30
462.22	11337.56
462.40	11108.18
462.59	11115.20
462.77	11176.06
462.95	11286.06
463.13	11145.63
463.32	11328.19
463.50	11351.60
463.68	11487.35
463.86	11545.86
464.05	11091.80
464.23	11576.29
464.41	11541.18
464.59	11122.23
464.78	11850.13
464.96	11445.22
465.14	11503.73
465.32	11489.69
465.50	11866.52
465.69	11716.72
465.87	11709.70
466.05	11690.98
466.23	11585.65
466.41	11971.84
466.60	12219.94
466.78	11707.36
466.96	11871.20
467.14	11873.54
467.32	11896.94
467.51	12030.35
467.69	11845.45
467.87	12002.27
468.05	12194.19
468.23	12074.82
468.41	12147.38
468.60	12189.51
468.78	12294.83
468.96	12156.74
469.14	12411.86
469.32	12599.10
469.50	12248.02
469.69	12524.21
469.87	12608.47
470.05	12753.58
470.23	12863.58
470.41	12769.96
470.59	12620.17
470.77	12706.77
470.95	12879.97
471.14	13205.30
471.32	12793.37
471.50	13256.79
471.68	13125.72
471.86	13193.60
472.04	13305.95
472.22	13462.76
472.40	13226.37
472.58	13540.00
472.77	13575.11
472.95	13661.71
473.13	13951.93
473.31	13537.66
473.49	13813.84
473.67	13839.59
473.85	13696.82
474.03	14185.99
474.21	14249.18
474.39	14195.35
474.57	14303.01
474.75	14300.67
474.93	14541.75
475.12	14618.99
475.30	14738.35
475.48	14651.75
475.66	15110.50
475.84	14979.43
476.02	14728.99
476.20	15087.09
476.38	15300.08
476.56	15517.75
476.74	15555.20
476.92	15522.43
477.10	15297.74
477.28	15761.17
477.46	15616.05
477.64	15908.62
477.82	16093.52
478.00	16456.31
478.18	16255.02
478.36	16524.18
478.54	16833.13
478.72	17074.21
478.90	16924.41
479.08	16725.47
479.26	17165.49
479.44	17200.60
479.62	17514.23
479.80	17326.99
479.98	17422.95
480.16	17771.69
480.34	17671.04
480.52	18099.36
480.70	18017.44
480.88	17823.18
481.06	18057.23
481.24	18307.67
481.41	18527.68
481.59	18836.63
481.77	18972.38
481.95	18782.80
482.13	19318.78
482.31	19096.43
482.49	19529.43
482.67	19688.59
482.85	19768.16
483.03	20152.01
483.21	20439.90
483.39	20332.23
483.57	20346.28
483.74	20678.63
483.92	20699.70
484.10	20844.81
484.28	21170.15
484.46	21509.52
484.64	21799.75
484.82	21591.44
485.00	21776.34
485.18	22412.97
485.35	22405.95
485.53	22558.08
485.71	22478.50
485.89	23028.53
486.07	22948.95
486.25	22827.24
486.43	22707.88
486.61	23190.03
486.78	23538.77
486.96	23711.97
487.14	23878.15
487.32	24114.54
487.50	24205.82
487.68	24341.57
487.85	24870.53
488.03	24912.66
488.21	25310.55
488.39	25280.13
488.57	25509.50
488.75	25666.31
488.92	25963.56
489.10	26094.63
489.28	26190.59
489.46	26541.68
489.64	26497.20
489.81	27325.75
489.99	26754.66
490.17	26948.93
490.35	27569.17
490.53	27440.44
490.70	27639.39
490.88	28116.86
491.06	28051.32
491.24	28119.20
491.41	28348.57
491.59	28863.49
491.77	28910.30
491.95	29186.48
492.13	29338.62
492.30	29404.15
492.48	29413.51
492.66	29319.89
492.84	29546.92
493.01	29820.77
493.19	30052.48
493.37	30632.93
493.54	30377.81
493.72	30944.22
493.90	30478.46
494.08	31285.94
494.25	31201.68
494.43	31501.27
494.61	31934.27
494.79	32215.13
494.96	31938.95
495.14	32275.99
495.32	32299.39
495.49	32053.64
495.67	32624.73
495.85	33158.37
496.02	33443.91
496.20	33263.69
496.38	33303.48
496.55	33455.62
496.73	33993.94
496.91	33893.30
497.09	34094.58
497.26	34286.51
497.44	33816.06
497.62	34466.73
497.79	34925.47
497.97	34834.19
498.14	35339.75
498.32	35398.26
498.50	35534.01
498.67	35878.07
498.85	35632.32
499.03	35988.08
499.20	36243.20
499.38	36383.63
499.56	35906.16
499.73	36620.02
499.91	36727.69
500.08	36945.36
500.26	36692.58
500.44	37134.94
500.61	36924.29
500.79	37141.96
500.97	37612.41
501.14	37500.06
501.32	38080.52
501.49	37649.86
501.67	37961.15
501.84	38096.90
502.02	38209.25
502.20	38274.78
502.37	38883.32
502.55	38850.55
502.72	38876.30
502.90	39643.99
503.07	38637.56
503.25	39019.07
503.43	39466.11
503.60	39276.53
503.78	39658.04
503.95	39042.48
504.13	39543.35
504.30	39524.63
504.48	39777.40
504.65	40149.55
504.83	40683.19
505.01	40594.25
505.18	40369.56
505.36	40931.29
505.53	40582.55
505.71	40816.60
505.88	40814.26
506.06	40900.86
506.23	41375.99
506.41	40914.90
506.58	41380.67
506.76	41708.35
506.93	41872.18
507.11	41888.57
507.28	41797.29
507.46	41879.21
507.63	42176.45
507.81	42387.10
507.98	42075.81
508.16	42927.77
508.33	42564.98
508.50	42525.19
508.68	42845.85
508.85	43028.41
509.03	43070.54
509.20	43426.30
509.38	43625.25
509.55	43632.27
509.73	43789.08
509.90	43775.04
510.08	43973.98
510.25	43510.56
510.42	44095.69
510.60	44271.23
510.77	44699.55
510.95	44729.98
511.12	44603.59
511.30	44406.98
511.47	45099.78
511.64	45017.86
511.82	45565.55
511.99	45247.24
512.17	45488.31
512.34	45354.90
512.51	45317.45
512.69	45525.76
512.86	46040.68
513.04	46052.38
513.21	46260.69
513.38	46398.78
513.56	46246.65
513.73	46270.05
513.90	46358.99
514.08	45841.73
514.25	46466.66
514.43	46789.65
514.60	46766.24
514.77	46780.29
514.95	47033.07
515.12	47145.41
515.29	46808.37
515.47	47030.72
515.64	47351.38
515.81	47374.78
515.99	47620.54
516.16	47770.33
516.33	47585.43
516.51	48144.82
516.68	48058.22
516.85	48018.43
517.03	47962.26
517.20	48367.17
517.37	48598.88
517.54	48591.86
517.72	48430.36
517.89	48135.46
518.06	48170.57
518.24	48690.16
518.41	48587.18
518.58	48664.42
518.75	48779.10
518.93	49310.41
519.10	49008.48
519.27	48643.35
519.45	48999.12
519.62	48999.12
519.79	49467.22
519.96	49436.80
520.14	49574.89
520.31	49659.15
520.48	49876.82
520.65	49869.79
520.83	49645.10
521.00	49535.10
521.17	49631.06
521.34	49972.78
521.52	50358.97
521.69	50199.81
521.86	50454.93
522.03	50461.95
522.20	50616.43
522.38	50665.58
522.55	50204.49
522.72	50686.64
522.89	50876.22
523.07	51014.32
523.24	50862.18
523.41	50967.51
523.58	50880.91
523.75	51110.28
523.92	50974.53
524.10	51110.28
524.27	51234.33
524.44	51349.01
524.61	51767.97
524.78	51426.25
524.96	51639.24
525.13	51339.65
525.30	51760.95
525.47	51667.33
525.64	51941.17
525.81	52076.92
525.98	52296.93
526.16	52126.07
526.33	52123.73
526.50	52420.98
526.67	51810.10
526.84	52245.44
527.01	51842.87
527.18	52484.17
527.36	52608.22
527.53	52889.09
527.70	52762.70
527.87	52928.87
528.04	52472.47
528.21	52734.61
528.38	52940.58
528.55	52755.68
528.72	52755.68
528.89	53216.76
529.07	52978.03
529.24	52875.04
529.41	53366.55
529.58	52992.07
529.75	52889.09
529.92	52825.89
530.09	53326.77
530.26	53151.23
530.43	53188.67
530.60	53191.01
530.77	53406.34
530.94	53673.16
531.11	53207.40
531.28	53591.25
531.46	53366.55
531.63	53652.10
531.80	53977.43
531.97	54021.90
532.14	53991.48
532.31	53668.48
532.48	53874.45
532.65	53748.06
532.82	53932.96
532.99	54131.91
533.16	53855.73
533.33	54253.62
533.50	54497.03
533.67	54251.28
533.84	54485.33
534.01	54305.11
534.18	54593.00
534.35	54356.60
534.52	54321.49
534.69	54644.49
534.86	54850.45
535.03	54775.56
535.20	54541.50
535.37	54738.11
535.54	54773.22
535.71	54569.59
535.88	54834.07
536.05	54988.55
536.22	55096.21
536.38	55168.77
536.55	55339.63
536.72	54965.14
536.89	54721.72
537.06	54951.10
537.23	55192.17
537.40	55241.32
537.57	55201.53
537.74	55297.50
537.91	55634.53
538.08	55318.56
538.25	55337.29
538.42	55531.55
538.59	55463.67
538.75	55086.85
538.92	55295.16
539.09	55950.51
539.26	55615.81
539.43	55742.20
539.60	55906.04
539.77	55777.31
539.94	55863.91
540.11	56004.34
540.28	55915.40
540.44	55786.67
540.61	55800.71
540.78	55803.05
540.95	55880.29
541.12	56119.02
541.29	56135.41
541.46	56191.58
541.62	56182.22
541.79	56083.92
541.96	55899.01
542.13	56147.11
542.30	56332.01
542.47	56444.36
542.63	56385.85
542.80	56535.64
542.97	56587.13
543.14	56605.86
543.31	56575.43
543.48	56591.81
543.64	56877.36
543.81	56818.84
543.98	57027.15
544.15	56828.21
544.32	57172.27
544.48	57048.22
544.65	57088.01
544.82	56683.09
544.99	56849.27
545.16	56980.34
545.32	56921.83
545.49	56982.68
545.66	57443.77
545.83	57080.98
546.00	57221.42
546.16	57172.27
546.33	56919.49
546.50	56736.93
546.67	57045.88
546.83	56692.46
547.00	57277.59
547.17	57293.97
547.34	57172.27
547.50	57453.13
547.67	57565.48
547.84	57254.18
548.00	57450.79
548.17	57528.03
548.34	57635.69
548.51	57832.30
548.67	57677.82
548.84	57822.93
549.01	57785.49
549.18	57776.12
549.34	57544.41
549.51	57553.77
549.68	57710.59
549.84	57790.17
550.01	57719.95
550.18	57670.80
550.34	57881.45
550.51	57921.24
550.68	57827.62
550.84	57876.77
551.01	58038.26
551.18	57944.64
551.34	57872.09
551.51	58045.29
551.68	58197.42
551.84	58202.10
552.01	58251.25
552.18	58157.63
552.34	58096.78
552.51	58272.32
552.68	57949.32
552.84	58031.24
553.01	58391.68
553.18	58293.38
553.34	58344.87
553.51	58412.75
553.67	58398.71
553.84	58506.37
554.01	58555.52
554.17	58309.77
554.34	58459.56
554.51	58391.68
554.67	58492.33
554.84	58649.14
555.00	58497.01
555.17	58562.54
555.33	58691.27
555.50	58534.46
555.67	58614.04
555.83	58581.27
556.00	58845.75
556.16	58820.00
556.33	58581.27
556.50	58899.58
556.66	58585.95
556.83	58677.23
556.99	58876.18
557.16	59007.25
557.32	58808.30
557.49	58990.86
557.65	58609.35
557.82	58937.03
557.98	58759.15
558.15	58976.82
558.32	58969.80
558.48	59189.81
558.65	59166.40
558.81	58962.78
558.98	58990.86
559.14	59030.65
559.31	59063.42
559.47	59194.49
559.64	59255.34
559.80	59243.64
559.97	59245.98
560.13	59093.85
560.30	59196.83
560.46	59128.95
560.63	59157.04
560.79	59145.34
560.96	59110.23
561.12	59082.14
561.29	59320.88
561.45	59344.28
561.61	59344.28
561.78	59327.90
561.94	59292.79
562.11	59306.83
562.27	59330.24
562.44	59449.61
562.60	59367.69
562.77	59402.80
562.93	59510.46
563.10	59634.51
563.26	59557.27
563.42	59463.65
563.59	59524.50
563.75	59531.53
563.92	59746.86
564.08	59496.42
564.24	59494.08
564.41	59377.05
564.57	59531.53
564.74	59615.79
564.90	59587.70
565.07	59561.95
565.23	59723.45
565.39	59650.89
565.56	59866.22
565.72	59615.79
565.88	59475.35
566.05	59599.40
566.21	59540.89
566.38	59498.76
566.54	59896.65
566.70	59854.52
566.87	59817.07
567.03	59913.03
567.19	59983.25
567.36	59749.20
567.52	59660.26
567.68	60030.06
567.85	59433.22
568.01	59639.19
568.17	59781.96
568.34	59863.88
568.50	60179.85
568.66	59990.27
568.83	59861.54
568.99	59690.68
569.15	59753.88
569.32	59810.05
569.48	59643.87
569.64	59891.97
569.81	59894.31
569.97	59903.67
570.13	59819.41
570.30	59917.71
570.46	60072.19
570.62	59934.10
570.78	59978.57
570.95	59723.45
571.11	59931.76
571.27	59784.30
571.43	59997.29
571.60	59922.40
571.76	60088.57
571.92	60245.39
572.09	60128.36
572.25	59957.50
572.41	60044.10
572.57	59861.54
572.74	60130.70
572.90	59936.44
573.06	60055.81
573.22	60090.91
573.38	60315.61
573.55	60168.15
573.71	60474.76
573.87	60343.69
574.03	59983.25
574.20	60236.03
574.36	59992.61
574.52	59849.84
574.68	60116.66
574.84	60238.37
575.01	60245.39
575.17	60292.20
575.33	60184.54
575.49	60245.39
575.65	60264.11
575.82	60346.03
575.98	60093.25
576.14	60327.31
576.30	60350.71
576.46	60189.22
576.62	60217.30
576.79	60055.81
576.95	59971.55
577.11	60069.85
577.27	60088.57
577.43	60303.90
577.59	60259.43
577.75	60271.14
577.92	60257.09
578.08	60111.98
578.24	60301.56
578.40	60044.10
578.56	60165.81
578.72	60247.73
578.88	60477.10
579.04	60512.21
579.21	60273.48
579.37	60294.54
579.53	60126.02
579.69	60135.38
579.85	60362.42
580.01	60189.22
580.17	60343.69
580.33	60364.76
580.49	60526.25
580.65	60582.43
580.82	60498.17
580.98	60500.51
581.14	60226.66
581.30	60575.40
581.46	60233.69
581.62	60175.17
581.78	60179.85
581.94	60470.08
582.10	60413.91
582.26	60556.68
582.42	60336.67
582.58	60601.15
582.74	60362.42
582.90	60603.49
583.06	60603.49
583.22	60514.55
583.38	60477.10
583.54	60481.78
583.70	60331.99
583.86	60603.49
584.02	60395.18
584.18	60608.17
584.34	60458.38
584.50	60624.56
584.66	60404.55
584.82	60353.05
584.98	60446.68
585.14	60374.12
585.30	60465.40
585.46	60315.61
585.62	60299.22
585.78	60491.15
585.94	60142.41
586.10	60355.39
586.26	60544.98
586.42	60645.62
586.58	60598.81
586.74	60589.45
586.90	60491.15
587.06	60486.46
587.22	60631.58
587.38	60434.97
587.54	60746.26
587.70	60732.22
587.86	60552.00
588.02	60720.52
588.18	60685.41
588.34	60608.17
588.49	60559.02
588.65	60570.72
588.81	60659.66
588.97	60732.22
589.13	60615.19
