SpectraSuite Data File
++++++++++++++++++++++++++++++++++++
Date: Fri Oct 04 11:48:46 GMT-05:00 2013
User: price-jones
Dark Spectrum Present: No
Reference Spectrum Present: No
Number of Sampled Component Spectra: 1
Spectrometers: USB2+H05261
Integration Time (usec): 100000 (USB2+H05261)
Spectra Averaged: 1 (USB2+H05261)
Boxcar Smoothing: 0 (USB2+H05261)
Correct for Electrical Dark: No (USB2+H05261)
Strobe/Lamp Enabled: No (USB2+H05261)
Correct for Detector Non-linearity: No (USB2+H05261)
Correct for Stray Light: No (USB2+H05261)
Number of Pixels in Processed Spectrum: 2048
>>>>>Begin Processed Spectral Data<<<<<
365.73	0.00
365.92	0.00
366.12	0.00
366.32	0.00
366.52	0.00
366.72	0.00
366.91	0.00
367.11	0.00
367.31	0.00
367.51	0.00
367.70	0.00
367.90	0.00
368.10	0.00
368.30	9.36
368.49	0.00
368.69	37.45
368.89	0.00
369.09	0.00
369.28	0.00
369.48	0.00
369.68	0.00
369.87	0.00
370.07	0.00
370.27	60.85
370.47	147.45
370.66	266.82
370.86	259.80
371.06	425.98
371.25	470.45
371.45	444.70
371.65	374.49
371.84	411.93
372.04	505.56
372.24	388.53
372.44	482.15
372.63	484.49
372.83	435.34
373.03	456.40
373.22	510.24
373.42	503.22
373.62	491.51
373.81	479.81
374.01	538.32
374.21	540.66
374.40	463.43
374.60	575.77
374.79	561.73
374.99	475.13
375.19	531.30
375.38	561.73
375.58	587.47
375.78	566.41
375.97	557.05
376.17	601.52
376.37	678.76
376.56	606.20
376.76	557.05
376.95	617.90
377.15	573.43
377.35	650.67
377.54	606.20
377.74	610.88
377.93	596.84
378.13	575.77
378.33	641.31
378.52	667.05
378.72	695.14
378.91	596.84
379.11	594.50
379.31	676.41
379.50	648.33
379.70	739.61
379.89	688.12
380.09	657.69
380.28	557.05
380.48	674.07
380.68	685.78
380.87	657.69
381.07	741.95
381.26	671.73
381.46	718.54
381.65	828.55
381.85	795.78
382.04	751.31
382.24	826.21
382.43	695.14
382.63	713.86
382.83	826.21
383.02	772.38
383.22	713.86
383.41	748.97
383.61	767.70
383.80	755.99
384.00	720.88
384.19	753.65
384.39	734.93
384.58	880.04
384.78	840.25
384.97	781.74
385.17	823.87
385.36	814.51
385.56	896.43
385.75	898.77
385.95	858.98
386.14	912.81
386.34	786.42
386.53	870.68
386.72	760.67
386.92	781.74
387.11	891.74
387.31	912.81
387.50	819.19
387.70	891.74
387.89	915.15
388.09	964.30
388.28	891.74
388.48	980.68
388.67	922.17
388.86	971.32
389.06	940.90
389.25	985.37
389.45	1060.26
389.64	999.41
389.84	1036.86
390.03	1048.56
390.22	1022.81
390.42	1008.77
390.61	887.06
390.81	905.79
391.00	1027.50
391.19	1062.60
391.39	990.05
391.58	1039.20
391.78	1060.26
391.97	1069.62
392.16	1104.73
392.36	1135.16
392.55	1158.57
392.75	1249.85
392.94	1076.65
393.13	1198.35
393.33	1046.22
393.52	1142.18
393.71	1249.85
393.91	1242.82
394.10	1275.59
394.29	1210.06
394.49	1249.85
394.68	1252.19
394.88	1179.63
395.07	1221.76
395.26	1233.46
395.46	1233.46
395.65	1284.95
395.84	1331.76
396.04	1390.28
396.23	1383.26
396.42	1263.89
396.62	1329.42
396.81	1249.85
397.00	1399.64
397.19	1212.40
397.39	1273.25
397.58	1322.40
397.77	1394.96
397.97	1359.85
398.16	1348.15
398.35	1547.09
398.55	1416.02
398.74	1563.48
398.93	1579.86
399.12	1469.86
399.32	1380.92
399.51	1413.68
399.70	1537.73
399.90	1516.67
400.09	1540.07
400.28	1586.88
400.47	1554.12
400.67	1600.93
400.86	1626.67
401.05	1706.25
401.24	1633.69
401.44	1722.63
401.63	1589.22
401.82	1713.27
402.01	1687.53
402.21	1699.23
402.40	1678.16
402.59	1699.23
402.78	1748.38
402.97	1832.64
403.17	1811.57
403.36	1783.49
403.55	1806.89
403.74	1893.49
403.93	1893.49
404.13	1870.09
404.32	1842.00
404.51	1881.79
404.70	1963.71
404.89	1872.43
405.09	1923.92
405.28	1961.37
405.47	1923.92
405.66	1935.62
405.85	2078.40
406.05	2015.20
406.24	2078.40
406.43	2085.42
406.62	2101.80
406.81	2010.52
407.00	2132.23
407.20	2143.93
407.39	2104.14
407.58	2193.08
407.77	2169.68
407.96	2321.81
408.15	2279.68
408.34	2167.34
408.54	2345.22
408.73	2286.70
408.92	2303.09
409.11	2345.22
409.30	2530.12
409.49	2300.75
409.68	2457.56
409.87	2476.29
410.07	2558.21
410.26	2530.12
410.45	2541.82
410.64	2487.99
410.83	2466.92
411.02	2490.33
411.21	2583.95
411.40	2684.59
411.59	2750.13
411.78	2670.55
411.98	2642.46
412.17	2722.04
412.36	2700.98
412.55	2775.88
412.74	2857.79
412.93	2892.90
413.12	2869.50
413.31	2958.44
413.50	3012.27
413.69	3094.19
413.88	3162.06
414.07	3075.46
414.26	3190.15
414.45	3030.99
414.64	3126.96
414.83	3098.87
415.02	3124.62
415.22	3199.51
415.41	3295.47
415.60	3335.26
415.79	3314.20
415.98	3377.39
416.17	3382.07
416.36	3379.73
416.55	3351.65
416.74	3433.57
416.93	3574.00
417.12	3536.55
417.31	3548.25
417.50	3679.32
417.69	3634.85
417.88	3555.27
418.07	3632.51
418.26	3623.15
418.45	3676.98
418.64	3775.28
418.83	3815.07
419.02	3791.67
419.21	3885.29
419.39	3845.50
419.58	3847.84
419.77	3983.59
419.96	3906.35
420.15	3948.48
420.34	3981.25
420.53	3915.72
420.72	4088.92
420.91	4044.45
421.10	4044.45
421.29	4109.98
421.48	4032.74
421.67	4095.94
421.86	4140.41
422.05	4194.24
422.24	3997.64
422.43	4058.49
422.61	4180.20
422.80	4212.96
422.99	4292.54
423.18	4294.88
423.37	4315.95
423.56	4170.83
423.75	4346.37
423.94	4205.94
424.13	3943.80
424.32	4070.19
424.50	4177.86
424.69	4374.46
424.88	4388.50
425.07	4222.33
425.26	4180.20
425.45	4318.29
425.64	4109.98
425.83	4374.46
426.01	4416.59
426.20	4243.39
426.39	4407.23
426.58	4365.10
426.77	4224.67
426.96	4322.97
427.15	4283.18
427.33	4432.97
427.52	4521.92
427.71	4531.28
427.90	4568.73
428.09	4390.84
428.28	4566.39
428.46	4716.18
428.65	4535.96
428.84	4606.17
429.03	4760.65
429.22	4610.86
429.40	4727.88
429.59	4788.74
429.78	4440.00
429.97	4622.56
430.16	4552.34
430.34	4844.91
430.53	4858.95
430.72	4903.42
430.91	4786.40
431.10	4854.27
431.28	4997.04
431.47	5013.43
431.66	5135.14
431.85	4929.17
432.03	4938.53
432.22	5071.94
432.41	5139.82
432.60	5144.50
432.79	4985.34
432.97	5172.58
433.16	5284.93
433.35	5088.32
433.54	5284.93
433.72	5373.87
433.91	5158.54
434.10	5273.23
434.28	5359.83
434.47	5434.72
434.66	5401.96
434.85	5432.38
435.03	5408.98
435.22	5582.18
435.41	5547.07
435.59	5631.33
435.78	5511.96
435.97	5514.30
436.16	5575.16
436.34	5495.58
436.53	5680.48
436.72	5750.70
436.90	5621.97
437.09	5841.98
437.28	5619.63
437.46	5713.25
437.65	5722.61
437.84	5617.29
438.02	5975.39
438.21	5841.98
438.40	5767.08
438.58	6015.18
438.77	6040.92
438.96	6066.67
439.14	6054.97
439.33	6036.24
439.52	6307.74
439.70	6277.32
439.89	6335.83
440.08	6267.95
440.26	6331.15
440.45	6408.39
440.63	6499.67
440.82	6651.80
441.01	6429.45
441.19	6450.52
441.38	6834.36
441.57	6675.21
441.75	6733.72
441.94	6792.23
442.12	6801.60
442.31	6925.65
442.50	6923.30
442.68	6963.09
442.87	6981.82
443.05	7082.46
443.24	7117.57
443.43	7028.63
443.61	7080.12
443.80	7302.47
443.98	7225.23
444.17	6918.62
444.35	7052.03
444.54	7232.26
444.73	7012.24
444.91	7246.30
445.10	7148.00
445.28	7082.46
445.47	6998.20
445.65	7330.56
445.84	7199.49
446.02	7452.27
446.21	7417.16
446.39	7227.57
446.58	7342.26
446.77	7368.01
446.95	7272.04
447.14	7290.77
447.32	7386.73
447.51	7346.94
447.69	7318.86
447.88	7555.25
448.06	7492.05
448.25	7281.41
448.43	7337.58
448.62	7461.63
448.80	7447.58
448.99	7588.02
449.17	7824.41
449.36	7613.76
449.54	7836.11
449.73	7789.30
449.91	7700.36
450.10	7768.24
450.28	7866.54
450.46	7850.16
450.65	7913.35
450.83	7988.25
451.02	7918.03
451.20	8084.21
451.39	8006.97
451.57	8051.44
451.76	7779.94
451.94	7976.55
452.13	8432.95
452.31	7997.61
452.49	7857.18
452.68	8336.99
452.86	8180.17
453.05	8266.77
453.23	8173.15
453.42	8163.79
453.60	8208.26
453.78	8147.40
453.97	8053.78
454.15	8360.39
454.34	8280.82
454.52	8636.58
454.70	8229.32
454.89	8496.14
455.07	8538.27
455.26	8596.79
455.44	8549.98
455.62	8311.24
455.81	8652.96
455.99	8599.13
456.17	8929.14
456.36	8791.05
456.54	9015.74
456.73	9008.72
456.91	9041.49
457.09	8982.98
457.28	9268.52
457.46	8833.18
457.64	9177.24
457.83	8978.30
458.01	9057.87
458.19	9268.52
458.38	9102.34
458.56	9315.33
458.74	9231.07
458.93	9207.67
459.11	9312.99
459.29	9294.27
459.48	9493.21
459.66	9303.63
459.84	9528.32
460.03	9469.81
460.21	9472.15
460.39	9748.33
460.57	9425.34
460.76	9572.79
460.94	9809.19
461.12	9551.73
461.31	9916.85
461.49	9638.33
461.67	9542.36
461.85	10078.35
462.04	9987.07
462.22	10511.35
462.40	9671.09
462.59	9900.47
462.77	10022.17
462.95	9977.70
463.13	9926.21
463.32	10054.94
463.50	10181.33
463.68	10050.26
463.86	10232.82
464.05	10150.90
464.23	10108.77
464.41	10352.19
464.59	10296.02
464.78	10382.62
464.96	10284.31
465.14	10321.76
465.32	10281.97
465.50	10597.95
465.69	10574.54
465.87	10583.90
466.05	10511.35
466.23	10420.06
466.41	10621.35
466.60	10773.49
466.78	10768.80
466.96	10513.69
467.14	10698.59
467.32	10958.39
467.51	10946.69
467.69	10698.59
467.87	10853.06
468.05	10949.03
468.23	10923.28
468.41	10796.89
468.60	11007.54
468.78	11197.12
468.96	10883.49
469.14	10991.16
469.32	11110.52
469.50	10787.53
469.69	11218.19
469.87	11454.58
470.05	11426.50
470.23	11375.00
470.41	11154.99
470.59	11440.54
470.77	11438.20
470.95	11754.17
471.14	11833.75
471.32	11541.18
471.50	12018.65
471.68	11803.32
471.86	11653.53
472.04	11779.92
472.22	12222.28
472.40	11840.77
472.58	12006.95
472.77	12348.67
472.95	12180.15
473.13	12587.40
473.31	12437.61
473.49	12437.61
473.67	12355.69
473.85	12458.67
474.03	12690.38
474.21	12479.74
474.39	12725.49
474.57	12826.14
474.75	13191.26
474.93	13174.88
475.12	12762.94
475.30	13102.32
475.48	12924.44
475.66	13235.73
475.84	13228.71
476.02	13376.16
476.20	13303.60
476.38	13488.51
476.56	13757.67
476.74	13837.25
476.92	13818.52
477.10	13792.78
477.28	14080.66
477.46	13958.96
477.64	14368.55
477.82	14167.26
478.00	14572.18
478.18	14750.06
478.36	14876.44
478.54	14911.55
478.72	14995.81
478.90	15068.37
479.08	15262.63
479.26	15435.83
479.44	15332.85
479.62	15454.56
479.80	15396.04
479.98	15442.85
480.16	15737.76
480.34	15758.83
480.52	16339.28
480.70	15939.05
480.88	16219.91
481.06	16184.80
481.24	16102.89
481.41	16711.42
481.59	16748.87
481.77	17151.45
481.95	17001.65
482.13	17029.74
482.31	16985.27
482.49	17460.40
482.67	17600.83
482.85	17799.77
483.03	17972.97
483.21	18047.87
483.39	18340.44
483.57	18129.79
483.74	18501.93
483.92	18494.91
484.10	18808.54
484.28	19058.98
484.46	19176.01
484.64	19543.47
484.82	19061.32
485.00	19293.04
485.18	20086.48
485.35	20264.36
485.53	19971.79
485.71	19875.83
485.89	20278.40
486.07	20229.25
486.25	20247.97
486.43	20325.21
486.61	20910.35
486.78	20996.95
486.96	21205.25
487.14	21216.96
487.32	21500.16
487.50	21420.58
487.68	21635.91
487.85	22202.32
488.03	22532.34
488.21	22515.95
488.39	22497.23
488.57	22576.81
488.75	22742.99
488.92	23428.76
489.10	23192.37
489.28	23234.50
489.46	23735.37
489.64	23356.21
489.81	24058.37
489.99	23910.91
490.17	24250.29
490.35	24690.31
490.53	24718.40
490.70	24856.49
490.88	24393.06
491.06	25186.50
491.24	24917.34
491.41	25324.60
491.59	25261.40
491.77	25799.73
491.95	25809.09
492.13	25947.18
492.30	26103.99
492.48	26176.55
492.66	26164.85
492.84	26136.76
493.01	27264.90
493.19	27129.15
493.37	27168.94
493.54	27063.61
493.72	27473.21
493.90	27318.73
494.08	27672.15
494.25	27934.29
494.43	27948.34
494.61	28421.13
494.79	28386.02
494.96	28472.62
495.14	28608.37
495.32	28989.88
495.49	29343.30
495.67	28936.04
495.85	29364.36
496.02	29951.84
496.20	29729.48
496.38	29626.50
496.55	29488.41
496.73	30349.73
496.91	30085.25
497.09	30277.17
497.26	30632.93
497.44	30197.59
497.62	30625.91
497.79	30614.21
497.97	30916.14
498.14	31267.22
498.32	31328.07
498.50	31730.64
498.67	31835.97
498.85	31604.25
499.03	31969.38
499.20	31943.63
499.38	32620.05
499.56	32400.04
499.73	32252.58
499.91	32456.21
500.08	32870.48
500.26	32606.00
500.44	32706.65
500.61	32968.79
500.79	32842.40
500.97	33146.67
501.14	33624.14
501.32	33844.15
501.49	33448.60
501.67	33577.33
501.84	34007.98
502.02	33862.87
502.20	34632.91
502.37	34553.33
502.55	34345.02
502.72	33956.49
502.90	34738.23
503.07	34094.58
503.25	34567.37
503.43	34852.92
503.60	35253.15
503.78	34976.97
503.95	35271.87
504.13	35454.44
504.30	35140.80
504.48	35325.71
504.65	35562.10
504.83	36187.02
505.01	36439.80
505.18	35798.49
505.36	36376.61
505.53	36397.67
505.71	36313.41
505.88	36645.77
506.06	36327.45
506.23	36982.80
506.41	36849.39
506.58	37198.13
506.76	37294.10
506.93	37336.23
507.11	37141.96
507.28	36926.63
507.46	37298.78
507.63	37471.98
507.81	37942.42
507.98	37631.13
508.16	37904.98
508.33	38230.31
508.50	38014.98
508.68	38132.01
508.85	38728.84
509.03	38698.42
509.20	38733.53
509.38	38778.00
509.55	39220.36
509.73	39079.92
509.90	39086.95
510.08	38990.98
510.25	39271.85
510.42	39449.73
510.60	39864.00
510.77	39978.69
510.95	39526.97
511.12	39676.76
511.30	39782.09
511.47	39803.15
511.64	39962.31
511.82	40191.68
511.99	40109.76
512.17	40531.06
512.34	40308.71
512.51	41111.51
512.69	40584.89
512.86	40982.78
513.04	40882.14
513.21	40891.50
513.38	41179.39
513.56	41074.06
513.73	41844.10
513.90	41359.61
514.08	41294.07
514.25	41890.91
514.43	42005.59
514.60	41780.90
514.77	42096.88
514.95	42277.10
515.12	42361.36
515.29	42213.90
515.47	42574.34
515.64	42792.01
515.81	42691.37
515.99	42665.63
516.16	43056.50
516.33	43129.05
516.51	42934.79
516.68	42873.93
516.85	42787.33
517.03	42958.19
517.20	43529.28
517.37	43320.98
517.54	43627.59
517.72	43819.51
517.89	43187.56
518.06	43871.00
518.24	43435.66
518.41	43643.97
518.58	43641.63
518.75	43990.37
518.93	44451.45
519.10	44456.14
519.27	44477.20
519.45	43924.83
519.62	44755.72
519.79	44374.22
519.96	44542.74
520.14	45272.98
520.31	44615.29
520.48	45310.43
520.65	44795.51
520.83	45209.79
521.00	45350.22
521.17	45109.14
521.34	45368.94
521.52	45792.58
521.69	45418.10
521.86	45495.33
522.03	46263.03
522.20	45811.31
522.38	46153.02
522.55	46291.12
522.72	46302.82
522.89	46557.94
523.07	46859.87
523.24	46101.53
523.41	46698.37
523.58	46176.43
523.75	46686.67
523.92	46319.20
524.10	46583.68
524.27	46981.57
524.44	47187.54
524.61	47030.72
524.78	47234.35
524.96	46983.91
525.13	47372.44
525.30	47372.44
525.47	47358.40
525.64	47566.71
525.81	47714.16
525.98	47533.94
526.16	47657.99
526.33	47044.77
526.50	48095.67
526.67	47875.66
526.84	48039.50
527.01	47674.37
527.18	47866.30
527.36	48168.22
527.53	48404.62
527.70	48430.36
527.87	48250.14
528.04	48203.33
528.21	48533.35
528.38	48610.59
528.55	48655.06
528.72	48474.84
528.89	49165.29
529.07	48807.19
529.24	48598.88
529.41	48744.00
529.58	48528.67
529.75	48774.42
529.92	48938.26
530.09	49052.95
530.26	49162.95
530.43	48729.95
530.60	49198.06
530.77	49289.34
530.94	49450.84
531.11	49429.77
531.28	49312.75
531.46	49333.81
531.63	49499.99
531.80	49762.13
531.97	50174.06
532.14	49485.95
532.31	49830.01
532.48	49467.22
532.65	49607.65
532.82	49635.74
532.99	49792.56
533.16	50019.59
533.33	50316.84
533.50	50358.97
533.67	50206.83
533.84	49888.52
534.01	50094.49
534.18	49780.85
534.35	50300.45
534.52	49940.01
534.69	50784.94
534.86	50672.60
535.03	50494.72
535.20	51000.27
535.37	50674.94
535.54	50670.26
535.71	50794.31
535.88	50946.44
536.05	51037.72
536.22	51119.64
536.38	51121.98
536.55	51145.39
536.72	51260.07
536.89	51093.89
537.06	51007.29
537.23	51271.78
537.40	51304.54
537.57	51107.94
537.74	51189.86
537.91	51753.93
538.08	51533.92
538.25	51341.99
538.42	51447.32
538.59	51562.00
538.75	51341.99
538.92	51735.20
539.09	51667.33
539.26	51760.95
539.43	51662.64
539.60	51767.97
539.77	51707.12
539.94	51789.03
540.11	51800.74
540.28	51690.73
540.44	51786.69
540.61	51955.21
540.78	51952.87
540.95	52051.17
541.12	52189.27
541.29	52102.67
541.46	52133.09
541.62	52238.42
541.79	52374.17
541.96	52198.63
542.13	52516.94
542.30	52474.81
542.47	52556.73
542.63	52215.01
542.80	52828.23
542.97	53010.79
543.14	52776.74
543.31	52966.32
543.48	52825.89
543.64	52975.69
543.81	53251.87
543.98	53162.93
544.15	53268.25
544.32	53258.89
544.48	53607.63
544.65	52956.96
544.82	53125.48
544.99	52896.11
545.16	53385.28
545.32	53176.97
545.49	53387.62
545.66	53588.91
545.83	53609.97
546.00	53794.87
546.16	53336.13
546.33	53207.40
546.50	52893.77
546.67	53769.13
546.83	53090.37
547.00	53296.34
547.17	53439.11
547.34	53535.07
547.50	53759.76
547.67	54021.90
547.84	53448.47
548.00	53923.60
548.17	53762.11
548.34	53949.35
548.51	54024.25
548.67	54059.35
548.84	54103.82
549.01	54045.31
549.18	53612.31
549.34	54047.65
549.51	54155.32
549.68	53893.18
549.84	53626.35
550.01	53879.13
550.18	54035.95
550.34	54047.65
550.51	54284.04
550.68	54190.42
550.84	54045.31
551.01	54239.57
551.18	54307.45
551.34	54113.19
551.51	54232.55
551.68	54506.40
551.84	54817.69
552.01	54651.51
552.18	54628.10
552.34	54525.12
552.51	54843.43
552.68	54452.56
552.84	54815.35
553.01	54756.83
553.18	54733.43
553.34	54850.45
553.51	54714.70
553.67	54965.14
553.84	55187.49
554.01	54990.89
554.17	54635.13
554.34	54721.72
554.51	55021.31
554.67	54904.29
554.84	54958.12
555.00	54983.86
555.17	55009.61
555.33	54887.90
555.50	54988.55
555.67	54738.11
555.83	55124.30
556.00	54906.63
556.16	55100.89
556.33	54988.55
556.50	55100.89
556.66	55246.00
556.83	55185.15
556.99	55561.98
557.16	55353.67
557.32	55384.10
557.49	55262.39
557.65	54969.82
557.82	55150.04
557.98	55430.91
558.15	55234.30
558.32	55327.92
558.48	55323.24
558.65	55341.97
558.81	55339.63
558.98	55407.50
559.14	55407.50
559.31	55423.89
559.47	55407.50
559.64	55550.27
559.80	55627.51
559.97	55739.86
560.13	55447.29
560.30	55475.38
560.46	55812.41
560.63	55688.37
560.79	55594.74
560.96	55856.88
561.12	55437.93
561.29	55299.84
561.45	55887.31
561.61	55641.56
561.78	55728.16
561.94	55585.38
562.11	55770.28
562.27	55774.97
562.44	55770.28
562.60	55592.40
562.77	55838.16
562.93	55690.71
563.10	55877.95
563.26	55473.04
563.42	56268.82
563.59	55756.24
563.75	55646.24
563.92	55980.93
564.08	55737.52
564.24	55723.47
564.41	55866.25
564.57	55781.99
564.74	55714.11
564.90	56048.81
565.07	56128.39
565.23	56423.29
565.39	56046.47
565.56	56037.11
565.72	56104.98
565.88	56016.04
566.05	55948.17
566.21	55948.17
566.38	55917.74
566.54	56093.28
566.70	56149.45
566.87	56343.72
567.03	56182.22
567.19	56383.51
567.36	56062.85
567.52	55908.38
567.68	56584.79
567.85	55964.55
568.01	56156.47
568.17	56247.75
568.34	56390.53
568.50	56264.14
568.66	56238.39
568.83	56266.48
568.99	56130.73
569.15	56081.58
569.32	56067.53
569.48	56285.20
569.64	55959.87
569.81	56348.40
569.97	56296.91
570.13	56299.25
570.30	56210.31
570.46	56266.48
570.62	56245.41
570.78	56236.05
570.95	56268.82
571.11	56116.68
571.27	56296.91
571.43	56219.67
571.60	56383.51
571.76	56341.38
571.92	56336.69
572.09	56456.06
572.25	56383.51
572.41	56409.25
572.57	56327.33
572.74	56573.09
572.90	56191.58
573.06	56350.74
573.22	56310.95
573.38	56692.46
573.55	56505.21
573.71	56664.37
573.87	56692.46
574.03	56280.52
574.20	56692.46
574.36	56530.96
574.52	56643.30
574.68	56479.47
574.84	56280.52
575.01	56521.60
575.17	56718.20
575.33	56446.70
575.49	56444.36
575.65	56818.84
575.82	56502.87
575.98	56507.55
576.14	56622.24
576.30	56488.83
576.46	56535.64
576.62	56484.15
576.79	56385.85
576.95	56299.25
577.11	56835.23
577.27	56591.81
577.43	56741.61
577.59	56449.04
577.75	56596.49
577.92	56200.94
578.08	56355.42
578.24	56500.53
578.40	56481.81
578.56	56505.21
578.72	56573.09
578.88	56793.10
579.04	56722.88
579.21	56650.33
579.37	56545.00
579.53	56638.62
579.69	56545.00
579.85	56608.20
580.01	56795.44
580.17	56435.00
580.33	56729.90
580.49	56657.35
580.65	56912.47
580.82	56795.44
580.98	56769.69
581.14	56650.33
581.30	56732.25
581.46	56692.46
581.62	56765.01
581.78	56385.85
581.94	56786.08
582.10	56872.68
582.26	56643.30
582.42	56835.23
582.58	56825.87
582.74	56769.69
582.90	56786.08
583.06	57090.35
583.22	56755.65
583.38	56765.01
583.54	56704.16
583.70	56575.43
583.86	56694.80
584.02	56755.65
584.18	56746.29
584.34	57008.43
584.50	57069.28
584.66	56762.67
584.82	56545.00
584.98	56952.26
585.14	56722.88
585.30	56669.05
585.46	56853.95
585.62	56849.27
585.78	56999.07
585.94	56500.53
586.10	56959.28
586.26	56575.43
586.42	56896.08
586.58	56963.96
586.74	57080.98
586.90	56884.38
587.06	56853.95
587.22	57031.83
587.38	56924.17
587.54	56978.00
587.70	57085.67
587.86	56982.68
588.02	56708.84
588.18	57153.54
588.34	56999.07
588.49	56652.67
588.65	56718.20
588.81	56816.50
588.97	56931.19
589.13	56547.34
589.29	56935.87
589.45	56928.85
589.61	57116.09
