SpectraSuite Data File
++++++++++++++++++++++++++++++++++++
Date: Fri Oct 04 11:48:43 GMT-05:00 2013
User: price-jones
Dark Spectrum Present: No
Reference Spectrum Present: No
Number of Sampled Component Spectra: 1
Spectrometers: USB2+H05261
Integration Time (usec): 100000 (USB2+H05261)
Spectra Averaged: 1 (USB2+H05261)
Boxcar Smoothing: 0 (USB2+H05261)
Correct for Electrical Dark: No (USB2+H05261)
Strobe/Lamp Enabled: No (USB2+H05261)
Correct for Detector Non-linearity: No (USB2+H05261)
Correct for Stray Light: No (USB2+H05261)
Number of Pixels in Processed Spectrum: 2048
>>>>>Begin Processed Spectral Data<<<<<
365.73	35.11
365.92	35.11
366.12	35.11
366.32	0.00
366.52	0.00
366.72	0.00
366.91	0.00
367.11	0.00
367.31	0.00
367.51	0.00
367.70	0.00
367.90	0.00
368.10	0.00
368.30	0.00
368.49	0.00
368.69	0.00
368.89	0.00
369.09	0.00
369.28	0.00
369.48	0.00
369.68	0.00
369.87	9.36
370.07	0.00
370.27	0.00
370.47	86.60
370.66	98.30
370.86	208.31
371.06	285.55
371.25	271.50
371.45	283.20
371.65	236.39
371.84	252.78
372.04	283.20
372.24	308.95
372.44	287.89
372.63	257.46
372.83	367.46
373.03	339.38
373.22	332.36
373.42	227.03
373.62	337.04
373.81	346.40
374.01	376.83
374.21	414.27
374.40	367.46
374.60	376.83
374.79	339.38
374.99	379.17
375.19	376.83
375.38	437.68
375.58	351.08
375.78	362.78
375.97	428.32
376.17	383.85
376.37	337.04
376.56	327.68
376.76	440.02
376.95	383.85
377.15	411.93
377.35	362.78
377.54	393.21
377.74	458.74
377.93	374.49
378.13	374.49
378.33	355.76
378.52	355.76
378.72	484.49
378.91	414.27
379.11	353.42
379.31	390.87
379.50	339.38
379.70	423.64
379.89	440.02
380.09	379.17
380.28	344.06
380.48	374.49
380.68	362.78
380.87	400.23
381.07	390.87
381.26	514.92
381.46	390.87
381.65	390.87
381.85	400.23
382.04	414.27
382.24	479.81
382.43	468.11
382.63	411.93
382.83	418.96
383.02	456.40
383.22	463.43
383.41	482.15
383.61	449.38
383.80	374.49
384.00	482.15
384.19	449.38
384.39	430.66
384.58	528.96
384.78	472.79
384.97	528.96
385.17	498.53
385.36	463.43
385.56	484.49
385.75	498.53
385.95	589.82
386.14	554.71
386.34	421.30
386.53	510.24
386.72	465.77
386.92	486.83
387.11	538.32
387.31	566.41
387.50	535.98
387.70	526.62
387.89	545.34
388.09	571.09
388.28	594.50
388.48	517.26
388.67	554.71
388.86	617.90
389.06	550.03
389.25	517.26
389.45	524.28
389.64	662.37
389.84	683.44
390.03	662.37
390.22	601.52
390.42	671.73
390.61	500.87
390.81	610.88
391.00	711.52
391.19	688.12
391.39	645.99
391.58	671.73
391.78	690.46
391.97	657.69
392.16	667.05
392.36	676.41
392.55	622.58
392.75	603.86
392.94	622.58
393.13	683.44
393.33	739.61
393.52	678.76
393.71	713.86
393.91	770.04
394.10	711.52
394.29	718.54
394.49	732.59
394.68	772.38
394.88	751.31
395.07	842.59
395.26	758.33
395.46	718.54
395.65	800.46
395.84	830.89
396.04	847.27
396.23	807.48
396.42	781.74
396.62	856.64
396.81	800.46
397.00	702.16
397.19	851.96
397.39	793.44
397.58	870.68
397.77	887.06
397.97	793.44
398.16	940.90
398.35	990.05
398.55	947.92
398.74	889.40
398.93	943.24
399.12	870.68
399.32	933.87
399.51	830.89
399.70	980.68
399.90	936.21
400.09	933.87
400.28	987.71
400.47	990.05
400.67	1020.47
400.86	961.96
401.05	1046.22
401.24	1025.15
401.44	1102.39
401.63	1090.69
401.82	1132.82
402.01	1048.56
402.21	1083.67
402.40	1097.71
402.59	1137.50
402.78	1132.82
402.97	1142.18
403.17	1048.56
403.36	1100.05
403.55	1170.27
403.74	1174.95
403.93	1235.80
404.13	1235.80
404.32	1245.16
404.51	1287.29
404.70	1266.23
404.89	1231.12
405.09	1320.06
405.28	1247.51
405.47	1282.61
405.66	1350.49
405.85	1446.45
406.05	1394.96
406.24	1394.96
406.43	1430.07
406.62	1430.07
406.81	1472.20
407.00	1493.26
407.20	1490.92
407.39	1469.86
407.58	1486.24
407.77	1453.47
407.96	1460.49
408.15	1537.73
408.34	1547.09
408.54	1647.74
408.73	1638.38
408.92	1563.48
409.11	1727.32
409.30	1610.29
409.49	1699.23
409.68	1621.99
409.87	1603.27
410.07	1664.12
410.26	1769.44
410.45	1685.19
410.64	1720.29
410.83	1865.41
411.02	1825.62
411.21	1874.77
411.40	1893.49
411.59	1769.44
411.78	1853.70
411.98	2036.27
412.17	1888.81
412.36	1886.47
412.55	2015.20
412.74	1905.20
412.93	1930.94
413.12	1996.48
413.31	2146.27
413.50	2090.10
413.69	2120.53
413.88	2162.66
414.07	2155.63
414.26	2270.32
414.45	2183.72
414.64	2167.34
414.83	2289.04
415.02	2211.81
415.22	2352.24
415.41	2190.74
415.60	2312.45
415.79	2251.60
415.98	2399.05
416.17	2373.30
416.36	2263.30
416.55	2349.90
416.74	2539.48
416.93	2492.67
417.12	2506.71
417.31	2595.65
417.50	2583.95
417.69	2635.44
417.88	2497.35
418.07	2487.99
418.26	2626.08
418.45	2621.40
418.64	2759.49
418.83	2813.32
419.02	2698.64
419.21	2731.41
419.39	2928.01
419.58	2633.10
419.77	2698.64
419.96	2722.04
420.15	2773.53
420.34	2972.48
420.53	2942.05
420.72	2939.71
420.91	2860.13
421.10	2988.86
421.29	2965.46
421.48	2946.73
421.67	3047.38
421.86	2977.16
422.05	3045.04
422.24	2885.88
422.43	3056.74
422.61	3098.87
422.80	3075.46
422.99	2998.23
423.18	3152.70
423.37	3110.57
423.56	3035.67
423.75	3103.55
423.94	3007.59
424.13	2958.44
424.32	2883.54
424.50	2972.48
424.69	3248.66
424.88	3110.57
425.07	3002.91
425.26	3038.02
425.45	3119.93
425.64	3169.09
425.83	3014.61
426.01	3274.41
426.20	3124.62
426.39	3133.98
426.58	3094.19
426.77	3211.22
426.96	3267.39
427.15	3204.19
427.33	3108.23
427.52	3187.81
427.71	3309.52
427.90	3267.39
428.09	3265.05
428.28	3328.24
428.46	3290.79
428.65	3438.25
428.84	3569.32
429.03	3417.18
429.22	3370.37
429.40	3391.44
429.59	3344.63
429.78	3431.23
429.97	3379.73
430.16	3400.80
430.34	3321.22
430.53	3592.72
430.72	3454.63
430.91	3466.33
431.10	3332.92
431.28	3674.64
431.47	3712.09
431.66	3672.30
431.85	3588.04
432.03	3618.47
432.22	3829.12
432.41	3777.62
432.60	3735.50
432.79	3712.09
432.97	3676.98
433.16	3794.01
433.35	3707.41
433.54	3805.71
433.72	3735.50
433.91	3850.18
434.10	3871.25
434.28	3812.73
434.47	3936.78
434.66	3808.05
434.85	3838.48
435.03	3976.57
435.22	3969.55
435.41	4067.85
435.59	4035.08
435.78	3946.14
435.97	4032.74
436.16	4065.51
436.34	4002.32
436.53	3976.57
436.72	4224.67
436.90	4100.62
437.09	4292.54
437.28	4002.32
437.46	4245.73
437.65	4159.13
437.84	4163.81
438.02	4184.88
438.21	4238.71
438.40	4248.07
438.58	4290.20
438.77	4283.18
438.96	4355.74
439.14	4440.00
439.33	4451.70
439.52	4566.39
439.70	4582.77
439.89	4521.92
440.08	4519.57
440.26	4568.73
440.45	4709.16
440.63	4697.46
440.82	4629.58
441.01	4493.83
441.19	4704.48
441.38	4858.95
441.57	4755.97
441.75	4889.38
441.94	4695.11
442.12	4980.66
442.31	5055.56
442.50	5015.77
442.68	5039.17
442.87	4933.85
443.05	5078.96
443.24	5142.16
443.43	5247.48
443.61	5266.21
443.80	5210.03
443.98	5097.69
444.17	5036.83
444.35	5259.18
444.54	5298.97
444.73	5224.08
444.91	5111.73
445.10	5252.16
445.28	5214.71
445.47	5174.92
445.65	5214.71
445.84	5350.46
446.02	5334.08
446.21	5249.82
446.39	5261.52
446.58	5376.21
446.77	5385.57
446.95	5298.97
447.14	5231.10
447.32	5289.61
447.51	5268.55
447.69	5245.14
447.88	5336.42
448.06	5317.70
448.25	5397.28
448.43	5343.44
448.62	5308.34
448.80	5380.89
448.99	5329.40
449.17	5320.04
449.36	5476.85
449.54	5713.25
449.73	5600.90
449.91	5488.56
450.10	5547.07
450.28	5760.06
450.46	5586.86
450.65	5664.10
450.83	5666.44
451.02	5675.80
451.20	5778.78
451.39	5708.57
451.57	5717.93
451.76	5652.39
451.94	5748.36
452.13	5912.19
452.31	5959.00
452.49	5802.19
452.68	5694.52
452.86	5790.49
453.05	5841.98
453.23	5870.06
453.42	5853.68
453.60	5877.09
453.78	5830.27
453.97	5991.77
454.15	6005.81
454.34	6106.46
454.52	6181.35
454.70	5951.98
454.89	6146.25
455.07	6038.58
455.26	6188.38
455.44	6279.66
455.62	6225.82
455.81	6181.35
455.99	6033.90
456.17	6251.57
456.36	6162.63
456.54	6324.13
456.73	6394.34
456.91	6333.49
457.09	6359.24
457.28	6640.10
457.46	6354.55
457.64	6705.63
457.83	6651.80
458.01	6520.73
458.19	6588.61
458.38	6616.69
458.56	6726.70
458.74	6581.59
458.93	6621.38
459.11	6567.54
459.29	6637.76
459.48	6707.98
459.66	6679.89
459.84	6593.29
460.03	6878.83
460.21	6892.88
460.39	6834.36
460.57	6855.43
460.76	7019.27
460.94	6918.62
461.12	7049.69
461.31	6953.73
461.49	6909.26
461.67	6846.07
461.85	7026.29
462.04	6946.71
462.22	7517.80
462.40	7295.45
462.59	7323.54
462.77	7068.42
462.95	7131.61
463.13	7171.40
463.32	7241.62
463.50	7084.80
463.68	7346.94
463.86	7321.20
464.05	7152.68
464.23	7253.32
464.41	7316.51
464.59	7283.75
464.78	7562.27
464.96	7143.32
465.14	7351.62
465.32	7379.71
465.50	7365.67
465.69	7548.23
465.87	7365.67
466.05	7599.72
466.23	7475.67
466.41	7506.10
466.60	7606.74
466.78	7513.12
466.96	7468.65
467.14	7463.97
467.32	7758.88
467.51	7660.57
467.69	7330.56
467.87	7637.17
468.05	7588.02
468.23	7681.64
468.41	7815.05
468.60	7566.95
468.78	7669.94
468.96	7730.79
469.14	8018.68
469.32	7899.31
469.50	7873.56
469.69	8013.99
469.87	8217.62
470.05	8168.47
470.23	8018.68
470.41	7985.91
470.59	8198.90
470.77	8140.38
470.95	8051.44
471.14	8346.35
471.32	8142.72
471.50	8381.46
471.68	8339.33
471.86	8252.73
472.04	8339.33
472.22	8475.08
472.40	8390.82
472.58	8442.31
472.77	8702.11
472.95	8746.58
473.13	8987.66
473.31	8610.83
473.49	8706.79
473.67	8716.16
473.85	8676.37
474.03	8971.27
474.21	8844.88
474.39	9109.36
474.57	9144.47
474.75	9214.69
474.93	9401.93
475.12	9174.90
475.30	9338.74
475.48	9088.30
475.66	9359.80
475.84	9202.99
476.02	9446.40
476.20	9582.15
476.38	9645.35
476.56	9764.72
476.74	9860.68
476.92	9664.07
477.10	9748.33
477.28	9958.98
477.46	9745.99
477.64	9937.91
477.82	10106.43
478.00	10319.42
478.18	10270.27
478.36	10452.83
478.54	10485.60
478.72	10569.86
478.90	10726.68
479.08	10768.80
479.26	10864.77
479.44	10890.51
479.62	10843.70
479.80	10789.87
479.98	10988.82
480.16	11147.97
480.34	11171.38
480.52	11328.19
480.70	11159.67
480.88	11396.07
481.06	11269.68
481.24	11606.72
481.41	11833.75
481.59	11899.28
481.77	12018.65
481.95	11786.94
482.13	12086.53
482.31	12135.68
482.49	12198.87
482.67	12329.94
482.85	12449.31
483.03	12809.75
483.21	12802.73
483.39	12638.89
483.57	12791.03
483.74	12879.97
483.92	12957.21
484.10	12989.97
484.28	13252.11
484.46	13268.50
484.64	13228.71
484.82	13514.25
485.00	13547.02
485.18	13771.71
485.35	13994.06
485.53	13963.64
485.71	13994.06
485.89	14038.53
486.07	14232.80
486.25	14246.84
486.43	14314.72
486.61	14541.75
486.78	14665.80
486.96	14637.71
487.14	14817.93
487.32	14705.59
487.50	15321.15
487.68	15183.06
487.85	15239.23
488.03	15492.01
488.21	15653.50
488.39	15742.44
488.57	15845.43
488.75	15765.85
488.92	16116.93
489.10	16367.37
489.28	16297.15
489.46	16423.54
489.64	16662.27
489.81	16819.09
489.99	16718.45
490.17	16781.64
490.35	17334.01
490.53	17060.16
490.70	17282.52
490.88	17207.62
491.06	17338.69
491.24	17589.13
491.41	17701.47
491.59	17759.98
491.77	18181.28
491.95	17942.55
492.13	18059.57
492.30	17926.16
492.48	18342.78
492.66	18279.58
492.84	18265.54
493.01	18302.99
493.19	18778.12
493.37	18801.52
493.54	18885.78
493.72	19311.76
493.90	18890.46
494.08	19180.69
494.25	19681.56
494.43	19777.53
494.61	19700.29
494.79	19969.45
494.96	19714.33
495.14	20020.94
495.32	20472.67
495.49	20044.35
495.67	20233.93
495.85	20493.73
496.02	20561.61
496.20	20641.18
496.38	20470.33
496.55	20599.05
496.73	20917.37
496.91	21057.80
497.09	21207.59
497.26	21495.48
497.44	21303.56
497.62	21275.47
497.79	21607.83
497.97	21469.73
498.14	22061.89
498.32	21991.67
498.50	22122.74
498.67	22387.22
498.85	22080.61
499.03	22251.47
499.20	22431.69
499.38	22097.00
499.56	22508.93
499.73	22675.11
499.91	22829.59
500.08	22892.78
500.26	22843.63
500.44	22855.33
500.61	22965.34
500.79	22946.61
500.97	23281.31
501.14	23545.79
501.32	23843.04
501.49	23468.55
501.67	23697.92
501.84	23585.58
502.02	23601.96
502.20	23681.54
502.37	23702.61
502.55	23747.08
502.72	23723.67
502.90	23917.93
503.07	24135.60
503.25	24320.51
503.43	24449.24
503.60	24297.10
503.78	24484.34
503.95	24430.51
504.13	24603.71
504.30	24687.97
504.48	24570.94
504.65	24734.78
504.83	24823.72
505.01	25139.69
505.18	25102.25
505.36	25149.06
505.53	25404.17
505.71	25209.91
505.88	25441.62
506.06	25312.89
506.23	25685.04
506.41	25617.16
506.58	25851.22
506.76	25586.74
506.93	25626.53
507.11	25970.58
507.28	26043.14
507.46	26047.82
507.63	26183.57
507.81	26155.49
507.98	26118.04
508.16	26319.32
508.33	26295.92
508.50	26214.00
508.68	26630.62
508.85	26857.65
509.03	26740.62
509.20	26972.33
509.38	26843.60
509.55	27070.64
509.73	27140.85
509.90	27241.50
510.08	27304.69
510.25	27454.48
510.42	27288.31
510.60	27728.33
510.77	27613.64
510.95	27978.76
511.12	27599.60
511.30	28158.99
511.47	27686.20
511.64	28449.21
511.82	28264.31
511.99	27894.50
512.17	28091.11
512.34	27950.68
512.51	28645.82
512.69	28189.41
512.86	28100.47
513.04	28823.70
513.21	29111.58
513.38	28786.25
513.56	28844.76
513.73	28856.46
513.90	29127.97
514.08	29160.73
514.25	29043.71
514.43	28793.27
514.60	29244.99
514.77	29254.36
514.95	29008.60
515.12	29399.47
515.29	29195.84
515.47	29806.72
515.64	29509.47
515.81	29769.27
515.99	30300.58
516.16	29909.71
516.33	29928.43
516.51	30345.05
516.68	30045.46
516.85	30216.32
517.03	30352.07
517.20	30455.05
517.37	30410.58
517.54	30483.14
517.72	30551.01
517.89	30464.41
518.06	30562.72
518.24	30529.95
518.41	30799.11
518.58	30740.60
518.75	30775.70
518.93	30911.46
519.10	30976.99
519.27	31194.66
519.45	31131.47
519.62	31218.07
519.79	31173.60
519.96	31634.68
520.14	31611.28
520.31	31302.32
520.48	31405.31
520.65	31489.57
520.83	31768.09
521.00	31913.20
521.17	31686.17
521.34	32009.17
521.52	32084.06
521.69	32198.75
521.86	32425.78
522.03	32369.61
522.20	32137.90
522.38	32245.56
522.55	32304.07
522.72	32580.26
522.89	32755.80
523.07	32634.09
523.24	32542.81
523.41	32865.80
523.58	32545.15
523.75	32577.92
523.92	32701.96
524.10	32905.59
524.27	33092.83
524.44	33233.27
524.61	33200.50
524.78	33172.41
524.96	32903.25
525.13	33259.01
525.30	33387.74
525.47	33308.16
525.64	33708.40
525.81	33394.76
525.98	33642.86
526.16	33769.25
526.33	33366.68
526.50	34178.84
526.67	33755.21
526.84	33844.15
527.01	33933.09
527.18	33809.04
527.36	34134.37
527.53	34115.65
527.70	34593.12
527.87	34183.52
528.04	34309.91
528.21	34251.40
528.38	34080.54
528.55	34679.72
528.72	34576.73
528.89	34504.18
529.07	34068.84
529.24	33951.81
529.41	34499.50
529.58	34401.19
529.75	34457.37
529.92	34635.25
530.09	35093.99
530.26	34878.66
530.43	35009.73
530.60	35014.41
530.77	34864.62
530.94	34974.63
531.11	34665.67
531.28	34969.94
531.46	35285.92
531.63	35379.54
531.80	35360.81
531.97	35747.00
532.14	35365.49
532.31	35264.85
532.48	35522.31
532.65	35725.94
532.82	35557.42
532.99	35517.63
533.16	35503.59
533.33	36119.15
533.50	35861.69
533.67	35716.58
533.84	35695.51
534.01	35962.33
534.18	35747.00
534.35	36245.54
534.52	35859.35
534.69	36084.04
534.86	36250.22
535.03	35976.37
535.20	36062.97
535.37	36493.63
535.54	36282.98
535.71	35807.86
535.88	35924.88
536.05	36062.97
536.22	36629.38
536.38	36711.30
536.55	36634.06
536.72	36917.27
536.89	36257.24
537.06	36648.11
537.23	36928.97
537.40	36935.99
537.57	36336.82
537.74	36882.16
537.91	36940.68
538.08	36999.19
538.25	37041.32
538.42	37013.23
538.59	37275.37
538.75	37104.51
538.92	36905.57
539.09	37605.39
539.26	37132.60
539.43	37247.29
539.60	37275.37
539.77	37191.11
539.94	37392.40
540.11	37565.60
540.28	37310.48
540.44	37488.36
540.61	37331.54
540.78	37280.05
540.95	37528.15
541.12	37633.47
541.29	37586.66
541.46	37778.59
541.62	37312.82
541.79	37832.42
541.96	37619.43
542.13	37689.65
542.30	38216.27
542.47	37944.76
542.63	38265.42
542.80	38389.47
542.97	38438.62
543.14	38391.81
543.31	38630.54
543.48	38286.48
543.64	38569.69
543.81	38827.15
543.98	38780.34
544.15	37977.53
544.32	38663.31
544.48	39222.70
544.65	38431.60
544.82	38485.43
544.99	38473.73
545.16	38895.02
545.32	38728.84
545.49	38981.62
545.66	39150.14
545.83	39321.00
546.00	39342.06
546.16	39454.41
546.33	38689.06
546.50	38536.92
546.67	39313.98
546.83	38763.95
547.00	39543.35
547.17	38979.28
547.34	39047.16
547.50	39220.36
547.67	39416.96
547.84	39304.62
548.00	39611.23
548.17	39651.02
548.34	39569.10
548.51	39831.24
548.67	40135.51
548.84	39665.06
549.01	39618.25
549.18	39271.85
549.34	39611.23
549.51	39686.12
549.68	39690.80
549.84	39608.89
550.01	39775.06
550.18	39765.70
550.34	39880.39
550.51	39842.94
550.68	40238.49
550.84	39599.52
551.01	40313.39
551.18	39400.58
551.34	40226.79
551.51	40217.43
551.68	40292.32
551.84	40589.57
552.01	39969.33
552.18	39936.56
552.34	40135.51
552.51	40292.32
552.68	40322.75
552.84	40271.26
553.01	40596.59
553.18	40748.73
553.34	40390.62
553.51	40460.84
553.67	40294.66
553.84	40662.13
554.01	40430.41
554.17	40533.40
554.34	40346.15
554.51	40299.34
554.67	40687.87
554.84	41041.29
555.00	40636.38
555.17	40734.68
555.33	40552.12
555.50	40566.16
555.67	40507.65
555.83	40659.79
556.00	40985.12
556.16	40961.72
556.33	40692.55
556.50	40610.64
556.66	40957.03
556.83	40921.93
556.99	41326.84
557.16	41071.72
557.32	41392.37
557.49	41148.96
557.65	40622.34
557.82	41034.27
557.98	41268.33
558.15	41062.36
558.32	41619.41
558.48	40994.48
558.65	41918.99
558.81	41291.73
558.98	41071.72
559.14	41610.04
559.31	41219.17
559.47	41099.81
559.64	41556.21
559.80	41816.01
559.97	41434.50
560.13	41532.81
560.30	41200.45
560.46	41591.32
560.63	41312.80
560.79	41439.18
560.96	41244.92
561.12	41158.32
561.29	41743.45
561.45	41223.86
561.61	41930.70
561.78	41869.84
561.94	41792.61
562.11	41610.04
562.27	41486.00
562.44	41326.84
562.60	41654.51
562.77	41514.08
562.93	41684.94
563.10	42059.43
563.26	41375.99
563.42	41741.11
563.59	41837.08
563.75	42047.72
563.92	41918.99
564.08	41876.86
564.24	41745.80
564.41	41474.29
564.57	41902.61
564.74	41263.64
564.90	41820.69
565.07	42005.59
565.23	41764.52
565.39	41539.83
565.56	42094.53
565.72	41455.57
565.88	41907.29
566.05	41727.07
566.21	41404.08
566.38	42113.26
566.54	41998.57
566.70	42328.59
566.87	41963.46
567.03	41979.85
567.19	41893.25
567.36	41633.45
567.52	42012.62
567.68	42038.36
567.85	41525.78
568.01	41968.15
568.17	41874.52
568.34	41785.58
568.50	42040.70
568.66	42026.66
568.83	42106.24
568.99	42066.45
569.15	41996.23
569.32	42061.77
569.48	42167.09
569.64	42115.60
569.81	42021.98
569.97	41902.61
570.13	41649.83
570.30	41544.51
570.46	41860.48
570.62	41926.02
570.78	41991.55
570.95	42080.49
571.11	42333.27
571.27	41860.48
571.43	42188.16
571.60	42532.22
571.76	42209.22
571.92	42216.24
572.09	42267.73
572.25	42403.49
572.41	42852.87
572.57	42064.11
572.74	42527.53
572.90	42115.60
573.06	42113.26
573.22	42256.03
573.38	42667.97
573.55	42293.48
573.71	42892.66
573.87	42625.84
574.03	42188.16
574.20	42534.56
574.36	42263.05
574.52	42068.79
574.68	42213.90
574.84	42646.90
575.01	42649.24
575.17	42129.64
575.33	42232.63
575.49	42092.19
575.65	42684.35
575.82	42515.83
575.98	42127.30
576.14	42227.95
576.30	42117.94
576.46	42258.37
576.62	42419.87
576.79	42014.96
576.95	42249.01
577.11	42717.12
577.27	42431.57
577.43	42319.23
577.59	42859.89
577.75	42522.85
577.92	42195.18
578.08	42223.26
578.24	41949.42
578.40	42059.43
578.56	42279.44
578.72	42195.18
578.88	42480.72
579.04	42878.61
579.21	42171.77
579.37	42033.68
579.53	42637.54
579.69	42122.62
579.85	42344.97
580.01	42576.69
580.17	42017.30
580.33	42892.66
580.49	42464.34
580.65	42497.11
580.82	42794.36
580.98	42162.41
581.14	42239.65
581.30	42590.73
581.46	42284.12
581.62	42146.03
581.78	42143.69
581.94	42284.12
582.10	42611.79
582.26	42670.31
582.42	42843.51
582.58	42501.79
582.74	42431.57
582.90	42717.12
583.06	42609.45
583.22	42218.58
583.38	42515.83
583.54	42513.49
583.70	42447.96
583.86	42286.46
584.02	42146.03
584.18	42497.11
584.34	43042.45
584.50	42981.60
584.66	42576.69
584.82	42227.95
584.98	42410.51
585.14	42792.01
585.30	42518.17
585.46	42553.28
585.62	42642.22
585.78	42780.31
585.94	42370.72
586.10	42686.69
586.26	42595.41
586.42	42740.52
586.58	42651.58
586.74	42546.26
586.90	42529.87
587.06	42284.12
587.22	42539.24
587.38	42632.86
587.54	42581.37
587.70	42784.99
587.86	42869.25
588.02	42909.04
588.18	42857.55
588.34	42642.22
588.49	42630.52
588.65	42204.54
588.81	42873.93
588.97	42665.63
589.13	42518.17
589.29	42880.95
589.45	42621.16
589.61	42815.42
589.77	42546.26
589.93	42906.70
590.08	42665.63
590.24	42691.37
590.40	42780.31
590.56	42909.04
590.72	42955.85
590.88	42567.32
591.04	42770.95
