SpectraSuite Data File
++++++++++++++++++++++++++++++++++++
Date: Fri Oct 04 11:48:40 GMT-05:00 2013
User: price-jones
Dark Spectrum Present: No
Reference Spectrum Present: No
Number of Sampled Component Spectra: 1
Spectrometers: USB2+H05261
Integration Time (usec): 100000 (USB2+H05261)
Spectra Averaged: 1 (USB2+H05261)
Boxcar Smoothing: 0 (USB2+H05261)
Correct for Electrical Dark: No (USB2+H05261)
Strobe/Lamp Enabled: No (USB2+H05261)
Correct for Detector Non-linearity: No (USB2+H05261)
Correct for Stray Light: No (USB2+H05261)
Number of Pixels in Processed Spectrum: 2048
>>>>>Begin Processed Spectral Data<<<<<
365.73	86.60
365.92	86.60
366.12	86.60
366.32	0.00
366.52	0.00
366.72	0.00
366.91	0.00
367.11	0.00
367.31	0.00
367.51	0.00
367.70	0.00
367.90	0.00
368.10	0.00
368.30	0.00
368.49	0.00
368.69	0.00
368.89	0.00
369.09	0.00
369.28	0.00
369.48	0.00
369.68	0.00
369.87	0.00
370.07	0.00
370.27	79.58
370.47	70.22
370.66	227.03
370.86	301.93
371.06	301.93
371.25	344.06
371.45	318.31
371.65	395.55
371.84	313.63
372.04	220.01
372.24	362.78
372.44	341.72
372.63	318.31
372.83	339.38
373.03	404.91
373.22	346.40
373.42	339.38
373.62	353.42
373.81	383.85
374.01	425.98
374.21	451.72
374.40	344.06
374.60	465.77
374.79	418.96
374.99	416.62
375.19	440.02
375.38	449.38
375.58	390.87
375.78	486.83
375.97	456.40
376.17	440.02
376.37	496.19
376.56	397.89
376.76	458.74
376.95	390.87
377.15	491.51
377.35	465.77
377.54	463.43
377.74	479.81
377.93	435.34
378.13	456.40
378.33	535.98
378.52	430.66
378.72	489.17
378.91	573.43
379.11	411.93
379.31	514.92
379.50	397.89
379.70	468.11
379.89	557.05
380.09	503.22
380.28	489.17
380.48	386.19
380.68	411.93
380.87	521.94
381.07	580.45
381.26	580.45
381.46	505.56
381.65	517.26
381.85	491.51
382.04	564.07
382.24	601.52
382.43	524.28
382.63	543.00
382.83	535.98
383.02	547.69
383.22	571.09
383.41	418.96
383.61	636.63
383.80	571.09
384.00	638.97
384.19	557.05
384.39	655.35
384.58	580.45
384.78	526.62
384.97	617.90
385.17	634.29
385.36	552.37
385.56	660.03
385.75	660.03
385.95	681.10
386.14	648.33
386.34	631.94
386.53	650.67
386.72	671.73
386.92	713.86
387.11	638.97
387.31	554.71
387.50	664.71
387.70	662.37
387.89	638.97
388.09	711.52
388.28	631.94
388.48	699.82
388.67	695.14
388.86	678.76
389.06	667.05
389.25	692.80
389.45	718.54
389.64	697.48
389.84	660.03
390.03	800.46
390.22	732.59
390.42	695.14
390.61	653.01
390.81	732.59
391.00	774.72
391.19	791.10
391.39	753.65
391.58	716.20
391.78	723.23
391.97	844.93
392.16	772.38
392.36	805.14
392.55	692.80
392.75	758.33
392.94	833.23
393.13	866.00
393.33	802.80
393.52	870.68
393.71	917.49
393.91	943.24
394.10	842.59
394.29	891.74
394.49	896.43
394.68	912.81
394.88	828.55
395.07	983.02
395.26	931.53
395.46	887.06
395.65	964.30
395.84	901.11
396.04	1055.58
396.23	971.32
396.42	1013.45
396.62	990.05
396.81	976.00
397.00	978.34
397.19	861.32
397.39	1008.77
397.58	1032.18
397.77	1046.22
397.97	1083.67
398.16	1034.52
398.35	999.41
398.55	1029.84
398.74	1071.97
398.93	1165.59
399.12	1090.69
399.32	1053.24
399.51	1076.65
399.70	1107.07
399.90	1142.18
400.09	1170.27
400.28	1198.35
400.47	1135.16
400.67	1226.44
400.86	1214.74
401.05	1205.38
401.24	1179.63
401.44	1275.59
401.63	1146.86
401.82	1331.76
402.01	1254.53
402.21	1240.48
402.40	1296.66
402.59	1327.08
402.78	1291.98
402.97	1371.55
403.17	1313.04
403.36	1338.79
403.55	1317.72
403.74	1322.40
403.93	1401.98
404.13	1371.55
404.32	1420.71
404.51	1343.47
404.70	1465.18
404.89	1502.62
405.09	1509.65
405.28	1516.67
405.47	1511.99
405.66	1509.65
405.85	1619.65
406.05	1511.99
406.24	1593.90
406.43	1582.20
406.62	1607.95
406.81	1668.80
407.00	1540.07
407.20	1671.14
407.39	1636.03
407.58	1621.99
407.77	1586.88
407.96	1771.79
408.15	1682.85
408.34	1750.72
408.54	1856.04
408.73	1849.02
408.92	1762.42
409.11	1762.42
409.30	1877.11
409.49	1764.76
409.68	1846.68
409.87	1771.79
410.07	1839.66
410.26	1921.58
410.45	1905.20
410.64	1874.77
410.83	2064.35
411.02	2015.20
411.21	1987.11
411.40	2094.78
411.59	2038.61
411.78	2026.90
411.98	2005.84
412.17	2059.67
412.36	2136.91
412.55	2190.74
412.74	2242.23
412.93	2092.44
413.12	2160.31
413.31	2209.47
413.50	2228.19
413.69	2246.91
413.88	2293.72
414.07	2392.03
414.26	2338.20
414.45	2370.96
414.64	2471.61
414.83	2305.43
415.02	2473.95
415.22	2635.44
415.41	2518.42
415.60	2401.39
415.79	2569.91
415.98	2675.23
416.17	2708.00
416.36	2480.97
416.55	2661.19
416.74	2672.89
416.93	2590.97
417.12	2745.45
417.31	2712.68
417.50	2726.72
417.69	2832.05
417.88	2874.18
418.07	2815.66
418.26	2930.35
418.45	2928.01
418.64	2944.39
418.83	2942.05
419.02	2834.39
419.21	2977.16
419.39	2864.82
419.58	2951.42
419.77	2827.37
419.96	3009.93
420.15	3049.72
420.34	3126.96
420.53	3049.72
420.72	3183.13
420.91	3108.23
421.10	3176.11
421.29	3112.91
421.48	3169.09
421.67	3030.99
421.86	3068.44
422.05	3122.27
422.24	3084.83
422.43	3171.43
422.61	3295.47
422.80	3365.69
422.99	3342.28
423.18	3318.88
423.37	3353.99
423.56	3253.34
423.75	3365.69
423.94	3143.34
424.13	3035.67
424.32	3096.53
424.50	3220.58
424.69	3283.77
424.88	3386.76
425.07	3283.77
425.26	3251.00
425.45	3267.39
425.64	3353.99
425.83	3379.73
426.01	3433.57
426.20	3356.33
426.39	3398.46
426.58	3225.26
426.77	3410.16
426.96	3468.67
427.15	3349.31
427.33	3456.97
427.52	3433.57
427.71	3522.51
427.90	3456.97
428.09	3604.42
428.28	3557.61
428.46	3562.30
428.65	3768.26
428.84	3751.88
429.03	3665.28
429.22	3566.98
429.40	3733.15
429.59	3714.43
429.78	3492.08
429.97	3435.91
430.16	3735.50
430.34	3700.39
430.53	3873.59
430.72	3817.41
430.91	3641.87
431.10	3850.18
431.28	3988.27
431.47	3782.31
431.66	3934.44
431.85	3868.91
432.03	3983.59
432.22	4131.05
432.41	4025.72
432.60	3922.74
432.79	3936.78
432.97	4128.70
433.16	4058.49
433.35	3946.14
433.54	4037.42
433.72	4095.94
433.91	4093.60
434.10	4060.83
434.28	4009.34
434.47	4109.98
434.66	4257.43
434.85	4234.03
435.03	4301.90
435.22	4292.54
435.41	4346.37
435.59	4325.31
435.78	4184.88
435.97	4283.18
436.16	4194.24
436.34	4217.65
436.53	4390.84
436.72	4592.13
436.90	4217.65
437.09	4547.66
437.28	4510.21
437.46	4344.03
437.65	4449.36
437.84	4585.11
438.02	4477.44
438.21	4683.41
438.40	4599.15
438.58	4592.13
438.77	4762.99
438.96	4720.86
439.14	4737.24
439.33	4777.03
439.52	4849.59
439.70	4762.99
439.89	4812.14
440.08	4847.25
440.26	4844.91
440.45	5022.79
440.63	4908.10
440.82	5046.20
441.01	5100.03
441.19	5188.97
441.38	5245.14
441.57	5167.90
441.75	5207.69
441.94	5296.63
442.12	5310.68
442.31	5423.02
442.50	5448.77
442.68	5392.59
442.87	5406.64
443.05	5425.36
443.24	5549.41
443.43	5394.93
443.61	5720.27
443.80	5636.01
443.98	5401.96
444.17	5380.89
444.35	5533.03
444.54	5549.41
444.73	5465.15
444.91	5458.13
445.10	5654.73
445.28	5533.03
445.47	5579.84
445.65	5678.14
445.84	5720.27
446.02	5589.20
446.21	5563.45
446.39	5682.82
446.58	5689.84
446.77	5654.73
446.95	5638.35
447.14	5558.77
447.32	5654.73
447.51	5760.06
447.69	5547.07
447.88	5818.57
448.06	5851.34
448.25	5673.46
448.43	5790.49
448.62	5781.12
448.80	5804.53
448.99	5877.09
449.17	5900.49
449.36	5809.21
449.54	6059.65
449.73	5888.79
449.91	6059.65
450.10	6129.86
450.28	6104.12
450.46	5968.37
450.65	6029.22
450.83	6012.84
451.02	6179.01
451.20	6162.63
451.39	6085.39
451.57	6249.23
451.76	6073.69
451.94	6171.99
452.13	6256.25
452.31	6174.33
452.49	6122.84
452.68	6160.29
452.86	6179.01
453.05	6265.61
453.23	6380.30
453.42	6270.30
453.60	6232.85
453.78	6551.16
453.97	6473.92
454.15	6293.70
454.34	6347.53
454.52	6527.75
454.70	6420.09
454.89	6635.42
455.07	6516.05
455.26	6633.08
455.44	6684.57
455.62	6693.93
455.81	6497.33
455.99	6647.12
456.17	6829.68
456.36	6825.00
456.54	6604.99
456.73	6787.55
456.91	6991.18
457.09	6876.49
457.28	7262.68
457.46	7005.22
457.64	7023.95
457.83	7208.85
458.01	7056.72
458.19	7398.43
458.38	6998.20
458.56	7157.36
458.74	7126.93
458.93	7239.28
459.11	7293.11
459.29	7267.36
459.48	7272.04
459.66	7241.62
459.84	7211.19
460.03	7419.50
460.21	7265.02
460.39	7651.21
460.57	7166.72
460.76	7248.64
460.94	7447.58
461.12	7403.11
461.31	7463.97
461.49	7412.48
461.67	7541.21
461.85	7653.55
462.04	7543.55
462.22	8156.77
462.40	7655.89
462.59	7857.18
462.77	7719.09
462.95	7662.91
463.13	7887.61
463.32	7810.37
463.50	7864.20
463.68	7880.58
463.86	7716.75
464.05	7719.09
464.23	7866.54
464.41	7934.42
464.59	7885.26
464.78	7995.27
464.96	7960.16
465.14	8013.99
465.32	8088.89
465.50	8002.29
465.69	8168.47
465.87	8028.04
466.05	8002.29
466.23	8004.63
466.41	8163.79
466.60	8372.10
466.78	8236.35
466.96	8109.96
467.14	8053.78
467.32	8231.66
467.51	8313.58
467.69	8243.37
467.87	8376.78
468.05	8269.11
468.23	8215.28
468.41	8208.26
468.60	8461.04
468.78	8388.48
468.96	8414.23
469.14	8650.62
469.32	8725.52
469.50	8652.96
469.69	8781.69
469.87	8823.82
470.05	8725.52
470.23	8690.41
470.41	8781.69
470.59	8711.47
470.77	8774.67
470.95	8926.80
471.14	8959.57
471.32	8702.11
471.50	9331.72
471.68	9081.28
471.86	8861.27
472.04	9074.26
472.22	9191.28
472.40	9123.41
472.58	9392.57
472.77	9481.51
472.95	9352.78
473.13	9699.18
473.31	9247.46
473.49	9444.06
473.67	9453.42
473.85	9596.20
474.03	9631.30
474.21	9607.90
474.39	9802.16
474.57	9895.78
474.75	10132.18
474.93	10010.47
475.12	9937.91
475.30	9968.34
475.48	9949.62
475.66	10057.28
475.84	10207.08
476.02	10150.90
476.20	10340.49
476.38	10462.19
476.56	10654.12
476.74	10518.37
476.92	10450.49
477.10	10832.00
477.28	10761.78
477.46	10766.46
477.64	11037.97
477.82	10960.73
478.00	11328.19
478.18	11183.08
478.36	11510.75
478.54	11246.27
478.72	11337.56
478.90	11501.39
479.08	11648.85
479.26	11660.55
479.44	11625.44
479.62	11873.54
479.80	12133.34
479.98	12138.02
480.16	12145.04
480.34	12156.74
480.52	12334.62
480.70	12608.47
480.88	12170.79
481.06	12409.52
481.24	12311.22
481.41	12809.75
481.59	12882.31
481.77	12779.32
481.95	12868.27
482.13	13097.64
482.31	12989.97
482.49	13371.48
482.67	13448.72
482.85	13490.85
483.03	13870.01
483.21	13944.91
483.39	13984.70
483.57	13858.31
483.74	14033.85
483.92	13942.57
484.10	13963.64
484.28	14279.61
484.46	14551.11
484.64	14890.49
484.82	14490.26
485.00	14492.60
485.18	14897.51
485.35	15152.63
485.53	15169.01
485.71	15138.58
485.89	15452.22
486.07	15543.50
486.25	15534.14
486.43	15564.56
486.61	15667.55
486.78	15896.92
486.96	16098.20
487.14	16210.55
487.32	16320.56
487.50	16348.64
487.68	16388.43
487.85	16589.72
488.03	16978.25
488.21	17357.41
488.39	17085.91
488.57	17261.45
488.75	17495.50
488.92	17647.64
489.10	17568.06
489.28	17855.95
489.46	17907.44
489.64	17874.67
489.81	18225.75
489.99	18338.10
490.17	18675.13
490.35	18511.30
490.53	18644.71
490.70	19054.30
490.88	18991.11
491.06	19339.85
491.24	18845.99
491.41	19419.42
491.59	19096.43
491.77	19403.04
491.95	19648.80
492.13	19477.94
492.30	19971.79
492.48	19927.32
492.66	19922.64
492.84	20039.67
493.01	20554.58
493.19	20346.28
493.37	20318.19
493.54	20631.82
493.72	20641.18
493.90	20587.35
494.08	20879.92
494.25	21415.90
494.43	21366.75
494.61	21490.80
494.79	21689.74
494.96	21310.58
495.14	21757.62
495.32	21876.99
495.49	21944.86
495.67	22047.85
495.85	22483.19
496.02	22548.72
496.20	22359.14
496.38	22424.67
496.55	22654.05
496.73	23276.63
496.91	23035.55
497.09	23213.43
497.26	23021.51
497.44	22948.95
497.62	22963.00
497.79	23555.15
497.97	23213.43
498.14	23861.76
498.32	23892.19
498.50	23967.09
498.67	24119.22
498.85	24133.26
499.03	24470.30
499.20	24437.53
499.38	24357.96
499.56	24657.54
499.73	24854.15
499.91	24748.82
500.08	25010.96
500.26	24781.59
500.44	25053.09
500.61	24968.84
500.79	25170.12
500.97	24957.13
501.14	25687.38
501.32	25827.81
501.49	25607.80
501.67	26008.03
501.84	25635.89
502.02	25553.97
502.20	26164.85
502.37	26223.36
502.55	25879.30
502.72	26515.93
502.90	26249.11
503.07	26185.91
503.25	26647.00
503.43	26529.97
503.60	26609.55
503.78	26649.34
503.95	26546.36
504.13	26773.39
504.30	26920.84
504.48	26913.82
504.65	27068.30
504.83	27192.34
505.01	27447.46
505.18	27714.28
505.36	27524.70
505.53	27377.25
505.71	27953.02
505.88	28109.83
506.06	27674.49
506.23	28250.27
506.41	28184.73
506.58	28388.36
506.76	28107.49
506.93	28467.94
507.11	28189.41
507.28	28243.24
507.46	28355.59
507.63	28697.31
507.81	28854.12
507.98	28875.19
508.16	28655.18
508.33	28910.30
508.50	28884.55
508.68	29001.58
508.85	29324.57
509.03	29408.83
509.20	29575.01
509.38	30125.04
509.55	30040.78
509.73	29717.78
509.90	29720.12
510.08	29596.07
510.25	30120.35
510.42	29968.22
510.60	30359.09
510.77	30408.24
510.95	30391.86
511.12	30043.12
511.30	30218.66
511.47	30558.03
511.64	31000.40
511.82	30787.41
511.99	30705.49
512.17	31098.70
512.34	30792.09
512.51	31234.45
512.69	31351.48
512.86	31285.94
513.04	31512.97
513.21	31653.40
513.38	31683.83
513.56	31578.51
513.73	31335.09
513.90	31548.08
514.08	31658.09
514.25	31805.54
514.43	32142.58
514.60	32100.45
514.77	31974.06
514.95	32259.60
515.12	32126.19
515.29	31978.74
515.47	32275.99
515.64	32570.90
515.81	32531.11
515.99	32542.81
516.16	32910.27
516.33	32891.55
516.51	33043.68
516.68	32388.33
516.85	33221.56
517.03	33160.71
517.20	33415.83
517.37	33340.93
517.54	33605.41
517.72	33193.48
517.89	33235.61
518.06	33455.62
518.24	33144.33
518.41	33591.37
518.58	33769.25
518.75	34108.63
518.93	33979.90
519.10	33785.63
519.27	34293.53
519.45	33984.58
519.62	33968.19
519.79	34101.61
519.96	34218.63
520.14	34464.39
520.31	34195.23
520.48	34281.83
520.65	34653.97
520.83	34363.75
521.00	34904.41
521.17	34742.91
521.34	35159.53
521.52	35496.56
521.69	35379.54
521.86	34983.99
522.03	34998.03
522.20	35126.76
522.38	35138.46
522.55	35314.00
522.72	35424.01
522.89	35519.97
523.07	35807.86
523.24	35412.31
523.41	35377.20
523.58	35173.57
523.75	35948.29
523.92	35555.08
524.10	35744.66
524.27	36327.45
524.44	36477.25
524.61	36495.97
524.78	36280.64
524.96	36446.82
525.13	36486.61
525.30	36016.16
525.47	36308.73
525.64	36648.11
525.81	36809.61
525.98	37202.82
526.16	37233.24
526.33	36362.56
526.50	37034.30
526.67	36762.79
526.84	37205.16
527.01	36954.72
527.18	37263.67
527.36	37228.56
527.53	37219.20
527.70	37418.14
527.87	37483.68
528.04	37516.45
528.21	37486.02
528.38	37598.37
528.55	37689.65
528.72	37809.01
528.89	37532.83
529.07	37244.94
529.24	37900.29
529.41	38178.82
529.58	37867.53
529.75	37631.13
529.92	37996.26
530.09	37926.04
530.26	38188.18
530.43	38363.72
530.60	38272.44
530.77	38251.38
530.94	38298.19
531.11	38314.57
531.28	38527.56
531.46	38387.13
531.63	38457.34
531.80	38670.33
531.97	39012.05
532.14	38653.95
532.31	38333.29
532.48	38794.38
532.65	38621.18
532.82	38878.64
532.99	39098.65
533.16	38726.50
533.33	39194.61
533.50	39742.30
533.67	39255.46
533.84	39508.24
534.01	39381.85
534.18	39400.58
534.35	39398.24
534.52	39620.59
534.69	39620.59
534.86	39840.60
535.03	39569.10
535.20	39615.91
535.37	39700.17
535.54	40383.60
535.71	39885.07
535.88	39791.45
536.05	39835.92
536.22	39892.09
536.38	40119.12
536.55	39892.09
536.72	40299.34
536.89	39817.19
537.06	40098.06
537.23	40423.39
537.40	40184.66
537.57	40252.53
537.74	40273.60
537.91	41170.02
538.08	40669.15
538.25	40334.45
538.42	40491.27
538.59	40545.10
538.75	40367.22
538.92	40467.86
539.09	40825.96
539.26	41298.75
539.43	40900.86
539.60	40802.56
539.77	40971.08
539.94	41127.89
540.11	40561.48
540.28	40870.43
540.44	41340.88
540.61	40751.07
540.78	41289.39
540.95	41956.44
541.12	41298.75
541.29	41436.84
541.46	41270.67
541.62	41425.14
541.79	41516.42
541.96	41371.31
542.13	41268.33
542.30	42185.82
542.47	41937.72
542.63	41343.22
542.80	42211.56
542.97	42316.89
543.14	41947.08
543.31	41783.24
543.48	42288.80
543.64	42380.08
543.81	42321.57
543.98	42354.33
544.15	42408.17
544.32	42946.49
544.48	42579.03
544.65	42667.97
544.82	42300.50
544.99	42450.30
545.16	42754.57
545.32	42471.36
545.49	43323.32
545.66	43056.50
545.83	42883.30
546.00	43072.88
546.16	42850.53
546.33	42330.93
546.50	42497.11
546.67	42728.82
546.83	42457.32
547.00	42866.91
547.17	43016.71
547.34	43159.48
547.50	42990.96
547.67	43557.37
547.84	42780.31
548.00	43061.18
548.17	43501.20
548.34	43260.12
548.51	43543.33
548.67	43765.68
548.84	43398.21
549.01	43292.89
549.18	43599.50
549.34	43426.30
549.51	43470.77
549.68	43430.98
549.84	43573.75
550.01	43606.52
550.18	43662.69
550.34	43985.69
550.51	43777.38
550.68	44060.58
550.84	43063.52
551.01	43702.48
551.18	43761.00
551.34	43711.84
551.51	44196.34
551.68	44315.70
551.84	44423.37
552.01	44009.09
552.18	44257.19
552.34	44039.52
552.51	44655.08
552.68	44004.41
552.84	44168.25
553.01	44367.20
553.18	44261.87
553.34	44545.08
553.51	44339.11
553.67	44142.50
553.84	44903.18
554.01	44753.38
554.17	44779.13
554.34	44334.43
554.51	44465.50
554.67	45130.21
554.84	44982.76
555.00	44811.90
555.17	44767.43
555.33	45034.25
555.50	44762.75
555.67	44657.42
555.83	44732.32
556.00	44760.40
556.16	44999.14
556.33	44615.29
556.50	44872.75
556.66	45301.07
556.83	44957.01
556.99	45287.03
557.16	45102.12
557.32	45200.43
557.49	45233.19
557.65	44940.63
557.82	44933.60
557.98	45123.19
558.15	45106.80
558.32	45268.30
558.48	45132.55
558.65	45155.96
558.81	45237.87
558.98	45228.51
559.14	45378.31
559.31	45137.23
559.47	45703.64
559.64	45558.53
559.80	45670.87
559.97	45759.81
560.13	45521.08
560.30	45268.30
560.46	45179.36
560.63	45705.98
560.79	45481.29
560.96	45684.92
561.12	45631.08
561.29	45345.54
561.45	45495.33
561.61	45872.16
561.78	45666.19
561.94	45521.08
562.11	45759.81
562.27	45698.96
562.44	45757.47
562.60	45567.89
562.77	45851.09
562.93	45701.30
563.10	45855.78
563.26	45785.56
563.42	46026.63
563.59	45773.86
563.75	45975.14
563.92	46117.92
564.08	45757.47
564.24	46061.74
564.41	46274.73
564.57	46202.18
564.74	45792.58
564.90	46171.75
565.07	46326.22
565.23	46511.13
565.39	46485.38
565.56	45911.95
565.72	45956.42
565.88	45801.94
566.05	45986.85
566.21	46340.27
566.38	45921.31
566.54	46349.63
566.70	46433.89
566.87	46457.29
567.03	46595.38
567.19	46834.12
567.36	46380.06
567.52	45879.18
567.68	46419.84
567.85	46153.02
568.01	46066.42
568.17	46248.99
568.34	46534.53
568.50	46415.16
568.66	46541.55
568.83	46461.97
568.99	46286.43
569.15	46366.01
569.32	46703.05
569.48	45944.72
569.64	46202.18
569.81	46007.91
569.97	46429.21
570.13	46452.61
570.30	46143.66
570.46	46433.89
570.62	46028.98
570.78	46281.75
570.95	46209.20
571.11	46043.02
571.27	46209.20
571.43	46387.08
571.60	46916.04
571.76	46712.41
571.92	46569.64
572.09	46483.04
572.25	46639.86
572.41	46501.76
572.57	46663.26
572.74	46962.85
572.90	46368.35
573.06	46436.23
573.22	46534.53
573.38	46717.09
573.55	46689.01
573.71	46623.47
573.87	47117.32
574.03	46518.15
574.20	46593.04
574.36	46431.55
574.52	46515.81
574.68	46256.01
574.84	46539.21
575.01	46777.95
575.17	46602.41
575.33	46930.08
575.49	46541.55
575.65	46431.55
575.82	46520.49
575.98	46494.74
576.14	46834.12
576.30	46731.14
576.46	46684.33
576.62	46447.93
576.79	46866.89
576.95	46363.67
577.11	46611.77
577.27	46738.16
577.43	46930.08
577.59	46930.08
577.75	46803.69
577.92	46323.88
578.08	46670.28
578.24	46813.05
578.40	46777.95
578.56	46731.14
578.72	46958.17
578.88	46953.49
579.04	46857.52
579.21	46887.95
579.37	46838.80
579.53	46906.68
579.69	46642.20
579.85	46284.09
580.01	47145.41
580.17	46518.15
580.33	46373.03
580.49	46831.78
580.65	47082.22
580.82	46766.24
580.98	47646.29
581.14	46621.13
581.30	46712.41
581.46	46789.65
581.62	46735.82
581.78	46644.54
581.94	46693.69
582.10	47049.45
582.26	46649.22
582.42	46902.00
582.58	46974.55
582.74	47185.20
582.90	47192.22
583.06	46887.95
583.22	46691.35
583.38	46988.60
583.54	46927.74
583.70	46773.27
583.86	46958.17
584.02	46733.48
584.18	46775.61
584.34	47224.99
584.50	47318.61
584.66	47342.02
584.82	46827.10
584.98	46834.12
585.14	46703.05
585.30	46431.55
585.46	46897.31
585.62	46728.80
585.78	47264.78
585.94	46953.49
586.10	47049.45
586.26	46934.76
586.42	47019.02
586.58	47082.22
586.74	46944.12
586.90	46684.33
587.06	46887.95
587.22	47257.76
587.38	46836.46
587.54	47112.64
587.70	47316.27
587.86	47274.14
588.02	47171.16
588.18	47147.75
588.34	47318.61
588.49	46941.78
588.65	46813.05
588.81	46951.15
588.97	47051.79
589.13	46981.57
589.29	47068.17
589.45	47290.52
589.61	46855.18
589.77	47440.32
589.93	47281.16
590.08	47688.42
590.24	47033.07
590.40	47728.20
590.56	47332.65
590.72	46815.40
