SpectraSuite Data File
++++++++++++++++++++++++++++++++++++
Date: Fri Oct 04 11:48:22 GMT-05:00 2013
User: price-jones
Dark Spectrum Present: No
Reference Spectrum Present: No
Number of Sampled Component Spectra: 1
Spectrometers: USB2+H05261
Integration Time (usec): 100000 (USB2+H05261)
Spectra Averaged: 1 (USB2+H05261)
Boxcar Smoothing: 0 (USB2+H05261)
Correct for Electrical Dark: No (USB2+H05261)
Strobe/Lamp Enabled: No (USB2+H05261)
Correct for Detector Non-linearity: No (USB2+H05261)
Correct for Stray Light: No (USB2+H05261)
Number of Pixels in Processed Spectrum: 2048
>>>>>Begin Processed Spectral Data<<<<<
365.73	0.00
365.92	0.00
366.12	0.00
366.32	0.00
366.52	0.00
366.72	0.00
366.91	0.00
367.11	0.00
367.31	0.00
367.51	0.00
367.70	0.00
367.90	0.00
368.10	0.00
368.30	0.00
368.49	0.00
368.69	0.00
368.89	0.00
369.09	0.00
369.28	30.43
369.48	0.00
369.68	0.00
369.87	0.00
370.07	0.00
370.27	46.81
370.47	4.68
370.66	51.49
370.86	128.73
371.06	138.09
371.25	170.86
371.45	142.77
371.65	98.30
371.84	117.03
372.04	117.03
372.24	182.56
372.44	159.16
372.63	194.26
372.83	269.16
373.03	168.52
373.22	168.52
373.42	145.11
373.62	238.73
373.81	180.22
374.01	243.42
374.21	159.16
374.40	187.24
374.60	264.48
374.79	252.78
374.99	269.16
375.19	280.86
375.38	231.71
375.58	238.73
375.78	189.58
375.97	212.99
376.17	243.42
376.37	180.22
376.56	276.18
376.76	180.22
376.95	184.90
377.15	245.76
377.35	234.05
377.54	180.22
377.74	210.65
377.93	236.39
378.13	269.16
378.33	248.10
378.52	210.65
378.72	238.73
378.91	182.56
379.11	245.76
379.31	234.05
379.50	152.13
379.70	210.65
379.89	276.18
380.09	187.24
380.28	236.39
380.48	290.23
380.68	271.50
380.87	201.29
381.07	210.65
381.26	238.73
381.46	273.84
381.65	231.71
381.85	182.56
382.04	201.29
382.24	250.44
382.43	262.14
382.63	266.82
382.83	252.78
383.02	264.48
383.22	297.25
383.41	222.35
383.61	285.55
383.80	182.56
384.00	250.44
384.19	322.99
384.39	238.73
384.58	229.37
384.78	196.60
384.97	327.68
385.17	271.50
385.36	276.18
385.56	421.30
385.75	224.69
385.95	287.89
386.14	278.52
386.34	264.48
386.53	306.61
386.72	313.63
386.92	231.71
387.11	304.27
387.31	315.97
387.50	348.74
387.70	248.10
387.89	311.29
388.09	297.25
388.28	271.50
388.48	294.91
388.67	332.36
388.86	290.23
389.06	297.25
389.25	257.46
389.45	313.63
389.64	311.29
389.84	381.51
390.03	234.05
390.22	358.10
390.42	287.89
390.61	327.68
390.81	332.36
391.00	374.49
391.19	327.68
391.39	325.33
391.58	327.68
391.78	362.78
391.97	351.08
392.16	332.36
392.36	428.32
392.55	411.93
392.75	498.53
392.94	334.70
393.13	376.83
393.33	402.57
393.52	381.51
393.71	374.49
393.91	400.23
394.10	376.83
394.29	372.15
394.49	362.78
394.68	482.15
394.88	493.85
395.07	472.79
395.26	423.64
395.46	379.17
395.65	461.09
395.84	482.15
396.04	402.57
396.23	381.51
396.42	418.96
396.62	472.79
396.81	440.02
397.00	482.15
397.19	465.77
397.39	500.87
397.58	425.98
397.77	465.77
397.97	465.77
398.16	503.22
398.35	505.56
398.55	430.66
398.74	512.58
398.93	517.26
399.12	615.56
399.32	552.37
399.51	582.79
399.70	514.92
399.90	645.99
400.09	573.43
400.28	599.18
400.47	538.32
400.67	578.11
400.86	608.54
401.05	557.05
401.24	634.29
401.44	594.50
401.63	606.20
401.82	662.37
402.01	638.97
402.21	669.39
402.40	732.59
402.59	617.90
402.78	638.97
402.97	676.41
403.17	744.29
403.36	725.57
403.55	741.95
403.74	688.12
403.93	748.97
404.13	720.88
404.32	720.88
404.51	788.76
404.70	699.82
404.89	723.23
405.09	910.47
405.28	835.57
405.47	751.31
405.66	802.80
405.85	858.98
406.05	837.91
406.24	863.66
406.43	943.24
406.62	898.77
406.81	915.15
407.00	980.68
407.20	968.98
407.39	983.02
407.58	912.81
407.77	912.81
407.96	1006.43
408.15	1083.67
408.34	987.71
408.54	1057.92
408.73	1128.14
408.92	1048.56
409.11	1128.14
409.30	1081.33
409.49	1020.47
409.68	1100.05
409.87	1071.97
410.07	1132.82
410.26	1139.84
410.45	1184.31
410.64	1128.14
410.83	1277.93
411.02	1329.42
411.21	1212.40
411.40	1179.63
411.59	1235.80
411.78	1170.27
411.98	1263.89
412.17	1313.04
412.36	1299.00
412.55	1284.95
412.74	1413.68
412.93	1359.85
413.12	1406.66
413.31	1441.77
413.50	1437.09
413.69	1390.28
413.88	1563.48
414.07	1462.83
414.26	1554.12
414.45	1530.71
414.64	1535.39
414.83	1533.05
415.02	1584.54
415.22	1504.96
415.41	1610.29
415.60	1549.43
415.79	1619.65
415.98	1591.56
416.17	1596.25
416.36	1713.27
416.55	1631.35
416.74	1682.85
416.93	1687.53
417.12	1706.25
417.31	1708.59
417.50	1713.27
417.69	1844.34
417.88	1753.06
418.07	1802.21
418.26	1724.97
418.45	1797.53
418.64	1874.77
418.83	1827.96
419.02	1893.49
419.21	1849.02
419.39	1937.96
419.58	1944.99
419.77	1879.45
419.96	1940.30
420.15	1921.58
420.34	1926.26
420.53	1881.79
420.72	1956.69
420.91	2064.35
421.10	2001.16
421.29	2183.72
421.48	2104.14
421.67	2122.87
421.86	1961.37
422.05	2045.63
422.24	1994.14
422.43	2003.50
422.61	2092.44
422.80	2162.66
422.99	2057.33
423.18	2104.14
423.37	2221.17
423.56	2179.04
423.75	2204.78
423.94	2057.33
424.13	2115.84
424.32	2057.33
424.50	2083.08
424.69	2188.40
424.88	2162.66
425.07	2080.74
425.26	2216.49
425.45	2214.15
425.64	2211.81
425.83	2113.50
426.01	2066.69
426.20	2040.95
426.39	2284.36
426.58	2202.44
426.77	2153.29
426.96	2207.13
427.15	2193.08
427.33	2296.07
427.52	2183.72
427.71	2298.41
427.90	2260.96
428.09	2296.07
428.28	2251.60
428.46	2242.23
428.65	2286.70
428.84	2424.80
429.03	2317.13
429.22	2303.09
429.40	2377.98
429.59	2272.66
429.78	2253.94
429.97	2363.94
430.16	2328.83
430.34	2382.67
430.53	2382.67
430.72	2415.43
430.91	2415.43
431.10	2401.39
431.28	2462.24
431.47	2450.54
431.66	2619.06
431.85	2399.05
432.03	2619.06
432.22	2656.51
432.41	2651.83
432.60	2530.12
432.79	2579.27
432.97	2677.57
433.16	2588.63
433.35	2565.23
433.54	2520.76
433.72	2722.04
433.91	2590.97
434.10	2597.99
434.28	2686.94
434.47	2689.28
434.66	2712.68
434.85	2623.74
435.03	2759.49
435.22	2740.77
435.41	2988.86
435.59	2747.79
435.78	2768.85
435.97	2754.81
436.16	2841.41
436.34	2820.35
436.53	2771.19
436.72	2913.97
436.90	2757.15
437.09	2810.98
437.28	2743.11
437.46	2855.45
437.65	2920.99
437.84	2876.52
438.02	2747.79
438.21	2949.08
438.40	3030.99
438.58	2904.60
438.77	3016.95
438.96	3026.31
439.14	3166.74
439.33	3206.53
439.52	3047.38
439.70	3012.27
439.89	3332.92
440.08	3141.00
440.26	3239.30
440.45	3103.55
440.63	3227.60
440.82	3204.19
441.01	3316.54
441.19	3384.41
441.38	3337.60
441.57	3339.94
441.75	3314.20
441.94	3396.12
442.12	3604.42
442.31	3581.02
442.50	3468.67
442.68	3365.69
442.87	3438.25
443.05	3449.95
443.24	3613.79
443.43	3611.45
443.61	3562.30
443.80	3786.99
443.98	3585.70
444.17	3506.12
444.35	3513.14
444.54	3569.32
444.73	3754.22
444.91	3698.05
445.10	3564.64
445.28	3435.91
445.47	3693.37
445.65	3632.51
445.84	3604.42
446.02	3585.70
446.21	3529.53
446.39	3480.38
446.58	3768.26
446.77	3630.17
446.95	3693.37
447.14	3644.21
447.32	3723.79
447.51	3691.02
447.69	3723.79
447.88	3728.47
448.06	3632.51
448.25	3709.75
448.43	3712.09
448.62	3630.17
448.80	3679.32
448.99	3665.28
449.17	3761.24
449.36	3805.71
449.54	3829.12
449.73	3854.86
449.91	3911.04
450.10	3824.44
450.28	3992.95
450.46	3908.69
450.65	3894.65
450.83	3864.22
451.02	3868.91
451.20	3918.06
451.39	3920.40
451.57	3892.31
451.76	3941.46
451.94	3887.63
452.13	4088.92
452.31	4109.98
452.49	3822.09
452.68	4035.08
452.86	3992.95
453.05	4039.76
453.23	4091.26
453.42	4112.32
453.60	4060.83
453.78	4081.89
453.97	4011.68
454.15	4219.99
454.34	3983.59
454.52	4018.70
454.70	4135.73
454.89	4217.65
455.07	4203.60
455.26	4198.92
455.44	4287.86
455.62	4255.09
455.81	4320.63
455.99	4290.20
456.17	4425.95
456.36	4243.39
456.54	4294.88
456.73	4423.61
456.91	4332.33
457.09	4423.61
457.28	4711.50
457.46	4489.15
457.64	4599.15
457.83	4620.22
458.01	4503.19
458.19	4589.79
458.38	4580.43
458.56	4788.74
458.74	4709.16
458.93	4622.56
459.11	4564.04
459.29	4531.28
459.48	4748.95
459.66	4695.11
459.84	4849.59
460.03	4791.08
460.21	4734.90
460.39	4638.94
460.57	4755.97
460.76	4683.41
460.94	4765.33
461.12	4798.10
461.31	4683.41
461.49	4847.25
461.67	4802.78
461.85	4924.49
462.04	4847.25
462.22	5301.31
462.40	4924.49
462.59	5004.07
462.77	4844.91
462.95	4985.34
463.13	5090.67
463.32	4929.17
463.50	5149.18
463.68	4865.97
463.86	4950.23
464.05	5144.50
464.23	5029.81
464.41	5085.98
464.59	4940.87
464.78	5198.33
464.96	4968.96
465.14	4994.70
465.32	5163.22
465.50	5179.61
465.69	5219.39
465.87	5135.14
466.05	5188.97
466.23	5205.35
466.41	5221.74
466.60	5399.62
466.78	5273.23
466.96	5338.76
467.14	5018.11
467.32	5364.51
467.51	5411.32
467.69	5231.10
467.87	5317.70
468.05	5270.89
468.23	5268.55
468.41	5308.34
468.60	5298.97
468.78	5397.28
468.96	5338.76
469.14	5380.89
469.32	5322.38
469.50	5399.62
469.69	5619.63
469.87	5710.91
470.05	5507.28
470.23	5479.19
470.41	5675.80
470.59	5605.58
470.77	5694.52
470.95	5736.65
471.14	5671.12
471.32	5781.12
471.50	5834.96
471.68	5675.80
471.86	5956.66
472.04	5776.44
472.22	5846.66
472.40	5881.77
472.58	5921.56
472.77	5738.99
472.95	5755.38
473.13	6143.91
473.31	5795.17
473.49	6008.16
473.67	5970.71
473.85	6162.63
474.03	6293.70
474.21	6171.99
474.39	6143.91
474.57	6256.25
474.75	6284.34
474.93	6483.28
475.12	6331.15
475.30	6258.59
475.48	6394.34
475.66	6373.28
475.84	6326.47
476.02	6504.35
476.20	6485.62
476.38	6476.26
476.56	6661.16
476.74	6736.06
476.92	6712.66
477.10	6630.74
477.28	6792.23
477.46	6993.52
477.64	6820.32
477.82	7005.22
478.00	7073.10
478.18	7136.29
478.36	7103.53
478.54	6998.20
478.72	7122.25
478.90	7405.46
479.08	7529.50
479.26	7428.86
479.44	7517.80
479.62	7513.12
479.80	7552.91
479.98	7527.16
480.16	7555.25
480.34	7461.63
480.52	7623.12
480.70	7665.25
480.88	7712.07
481.06	7990.59
481.24	7850.16
481.41	8168.47
481.59	8133.36
481.77	8182.51
481.95	8180.17
482.13	8063.15
482.31	8152.09
482.49	8533.59
482.67	8320.60
482.85	8367.42
483.03	8559.34
483.21	8554.66
483.39	8652.96
483.57	8812.12
483.74	8879.99
483.92	8784.03
484.10	8940.85
484.28	9076.60
484.46	9266.18
484.64	9465.13
484.82	9062.55
485.00	9284.91
485.18	9481.51
485.35	9523.64
485.53	9423.00
485.71	9736.63
485.89	9647.69
486.07	9689.82
486.25	9694.50
486.43	9935.57
486.61	9916.85
486.78	9902.81
486.96	9832.59
487.14	10190.69
487.32	10148.56
487.50	10221.12
487.68	10286.65
487.85	10422.41
488.03	10532.41
488.21	10682.20
488.39	10656.46
488.57	10558.16
488.75	10909.24
488.92	11211.17
489.10	11007.54
489.28	11101.16
489.46	11236.91
489.64	11037.97
489.81	11412.45
489.99	11323.51
490.17	11515.44
490.35	11634.80
490.53	11660.55
490.70	11681.61
490.88	11695.66
491.06	11564.59
491.24	11864.18
491.41	11927.37
491.59	11999.93
491.77	12170.79
491.95	12212.92
492.13	12226.96
492.30	12222.28
492.48	12257.39
492.66	12535.91
492.84	12479.74
493.01	12601.44
493.19	12524.21
493.37	12496.12
493.54	12842.52
493.72	12915.08
493.90	12664.64
494.08	12840.18
494.25	13214.66
494.43	13420.63
494.61	13296.58
494.79	13284.88
494.96	13350.42
495.14	13600.85
495.32	13687.45
495.49	13551.70
495.67	13731.92
495.85	13823.20
496.02	14026.83
496.20	13937.89
496.38	14036.19
496.55	13816.18
496.73	14204.71
496.91	14087.68
497.09	14312.38
497.26	14597.92
497.44	14413.02
497.62	14300.67
497.79	14757.08
497.97	14560.47
498.14	14618.99
498.32	14881.13
498.50	14876.44
498.67	15145.61
498.85	14890.49
499.03	15061.35
499.20	15044.96
499.38	15187.74
499.56	15396.04
499.73	15218.16
499.91	15571.58
500.08	15733.08
500.26	15197.10
500.44	15536.48
500.61	15704.99
500.79	15580.95
500.97	15702.65
501.14	15784.57
501.32	15625.42
501.49	15843.09
501.67	15948.41
501.84	15861.81
502.02	15852.45
502.20	16236.30
502.37	16060.76
502.55	16065.44
502.72	16259.70
502.90	16432.90
503.07	16126.29
503.25	16353.32
503.43	16446.94
503.60	16535.88
503.78	16533.54
503.95	16196.51
504.13	16528.86
504.30	16791.00
504.48	16524.18
504.65	16922.07
504.83	16975.91
505.01	16767.60
505.18	17074.21
505.36	16999.31
505.53	16947.82
505.71	17188.89
505.88	16870.58
506.06	17097.61
506.23	17514.23
506.41	17444.01
506.58	17507.21
506.76	17305.92
506.93	17429.97
507.11	17600.83
507.28	17542.32
507.46	17577.42
507.63	17696.79
507.81	17752.96
507.98	17687.43
508.16	17958.93
508.33	17701.47
508.50	18192.98
508.68	17928.50
508.85	18183.62
509.03	18284.26
509.20	18169.58
509.38	18546.40
509.55	18607.26
509.73	18728.97
509.90	18405.97
510.08	18253.84
510.25	18672.79
510.42	18579.17
510.60	18649.39
510.77	18544.06
510.95	18864.72
511.12	18679.82
511.30	18780.46
511.47	19115.16
511.64	18813.23
511.82	19112.81
511.99	19136.22
512.17	19143.24
512.34	19110.47
512.51	19494.32
512.69	19522.41
512.86	19559.86
513.04	19398.36
513.21	19477.94
513.38	19648.80
513.56	19672.20
513.73	19339.85
513.90	19775.19
514.08	19716.67
514.25	19672.20
514.43	19623.05
514.60	19730.72
514.77	20016.26
514.95	19978.81
515.12	20077.12
515.29	19946.05
515.47	19992.86
515.64	20498.41
515.81	20159.03
515.99	20404.79
516.16	20599.05
516.33	20376.70
516.51	20556.93
516.68	20411.81
516.85	20463.30
517.03	20280.74
517.20	20673.95
517.37	20255.00
517.54	20706.72
517.72	20748.85
517.89	20643.52
518.06	20650.55
518.24	20786.30
518.41	20772.25
518.58	20732.47
518.75	20893.96
518.93	21123.33
519.10	20896.30
519.27	20922.05
519.45	21125.68
519.62	21188.87
519.79	21294.19
519.96	21387.82
520.14	21439.31
520.31	21245.04
520.48	21535.27
520.65	21106.95
520.83	21518.89
521.00	21708.47
521.17	21546.97
521.34	21802.09
521.52	21668.68
521.69	21745.92
521.86	21841.88
522.03	21923.80
522.20	21912.10
522.38	21930.82
522.55	21869.97
522.72	21942.52
522.89	22176.58
523.07	22331.05
523.24	22078.27
523.41	22054.87
523.58	22080.61
523.75	22436.38
523.92	22569.79
524.10	21968.27
524.27	22188.28
524.44	22668.09
524.61	22478.50
524.78	22422.33
524.96	22583.83
525.13	22576.81
525.30	22567.45
525.47	22597.87
525.64	22789.80
525.81	22597.87
525.98	22740.64
526.16	22916.19
526.33	22480.85
526.50	23438.12
526.67	22883.42
526.84	23103.43
527.01	22953.63
527.18	23285.99
527.36	23126.83
527.53	23264.92
527.70	23033.21
527.87	23206.41
528.04	23384.29
528.21	23012.15
528.38	23145.56
528.55	23552.81
528.72	23276.63
528.89	23367.91
529.07	23281.31
529.24	23213.43
529.41	23463.87
529.58	23695.58
529.75	23243.86
529.92	23770.48
530.09	23599.62
530.26	23845.38
530.43	23592.60
530.60	23646.43
530.77	23786.86
530.94	23758.78
531.11	23943.68
531.28	23838.36
531.46	23852.40
531.63	23868.78
531.80	24039.64
531.97	24247.95
532.14	24346.25
532.31	24320.51
532.48	23819.63
532.65	24086.45
532.82	24112.20
532.99	23943.68
533.16	23946.02
533.33	24521.79
533.50	24587.33
533.67	24219.86
533.84	23847.72
534.01	24140.29
534.18	24360.30
534.35	24692.65
534.52	24175.39
534.69	24847.13
534.86	24814.36
535.03	24528.81
535.20	24517.11
535.37	24465.62
535.54	24554.56
535.71	24613.07
535.88	24680.95
536.05	24973.52
536.22	24943.09
536.38	24678.61
536.55	24903.30
536.72	25099.90
536.89	24666.91
537.06	24889.26
537.23	24938.41
537.40	24566.26
537.57	25238.00
537.74	24999.26
537.91	25275.45
538.08	25214.59
538.25	24961.81
538.42	25245.02
538.59	25277.79
538.75	24959.47
538.92	25132.67
539.09	25355.02
539.26	25284.81
539.43	25626.53
539.60	25425.24
539.77	25348.00
539.94	25301.19
540.11	25560.99
540.28	25649.93
540.44	25806.75
540.61	25111.61
540.78	25450.99
540.95	25551.63
541.12	25568.01
541.29	25720.15
541.46	25427.58
541.62	25586.74
541.79	25673.34
541.96	25450.99
542.13	25846.54
542.30	25825.47
542.47	25778.66
542.63	26181.23
542.80	25624.18
542.97	26293.58
543.14	25998.67
543.31	26394.22
543.48	26265.49
543.64	26419.97
543.81	26452.73
543.98	26134.42
544.15	26239.75
544.32	26515.93
544.48	26436.35
544.65	26080.59
544.82	26012.71
544.99	26316.98
545.16	26354.43
545.32	26291.24
545.49	26384.86
545.66	26391.88
545.83	26534.65
546.00	26822.54
546.16	26326.35
546.33	26328.69
546.50	26778.07
546.67	26506.57
546.83	26480.82
547.00	26616.57
547.17	26459.76
547.34	26766.37
547.50	26672.74
547.67	26906.80
547.84	26654.02
548.00	26726.58
548.17	27044.89
548.34	27068.30
548.51	27246.18
548.67	26899.78
548.84	27276.60
549.01	27005.10
549.18	26864.67
549.34	26785.09
549.51	26796.79
549.68	26672.74
549.84	26857.65
550.01	26724.24
550.18	26820.20
550.34	27058.93
550.51	27332.78
550.68	27323.41
550.84	27178.30
551.01	26902.12
551.18	27211.07
551.34	26757.00
551.51	27302.35
551.68	27335.12
551.84	27119.79
552.01	26953.61
552.18	27288.31
552.34	27112.77
552.51	27281.28
552.68	27168.94
552.84	27192.34
553.01	27388.95
553.18	27513.00
553.34	27515.34
553.51	27260.22
553.67	27304.69
553.84	27880.46
554.01	27505.98
554.17	27075.32
554.34	27344.48
554.51	27374.91
554.67	27660.45
554.84	27718.96
555.00	27384.27
555.17	27604.28
555.33	27709.60
555.50	27871.10
555.67	27838.33
555.83	27576.19
556.00	27367.88
556.16	28339.21
556.33	27742.37
556.50	27625.34
556.66	27695.56
556.83	28013.87
556.99	27985.79
557.16	27592.58
557.32	27887.48
557.49	27765.78
557.65	27833.65
557.82	27515.34
557.98	27599.60
558.15	27683.86
558.32	27943.66
558.48	28088.77
558.65	27655.77
558.81	27854.72
558.98	27508.32
559.14	28222.18
559.31	27995.15
559.47	27590.24
559.64	27695.56
559.80	28009.19
559.97	28175.37
560.13	28198.77
560.30	28156.64
560.46	28027.92
560.63	28151.96
560.79	28006.85
560.96	28077.07
561.12	27999.83
561.29	28020.89
561.45	28079.41
561.61	28149.62
561.78	28208.14
561.94	28170.69
562.11	27833.65
562.27	28304.10
562.44	28301.76
562.60	28053.66
562.77	27950.68
562.93	27976.42
563.10	28290.06
563.26	28020.89
563.42	28343.89
563.59	28154.30
563.75	28446.87
563.92	28350.91
564.08	27981.10
564.24	28107.49
564.41	28072.39
564.57	28409.42
564.74	27892.16
564.90	28559.22
565.07	27995.15
565.23	27854.72
565.39	28250.27
565.56	28168.35
565.72	27908.55
565.88	28161.33
566.05	28507.72
566.21	28046.64
566.38	28198.77
566.54	28233.88
566.70	28556.88
566.87	28620.07
567.03	28325.16
567.19	28706.67
567.36	28498.36
567.52	28346.23
567.68	28357.93
567.85	27955.36
568.01	28362.61
568.17	28290.06
568.34	28376.66
568.50	28514.75
568.66	28425.81
568.83	28215.16
568.99	28264.31
569.15	28624.75
569.32	28123.88
569.48	27892.16
569.64	28318.14
569.81	28559.22
569.97	28540.49
570.13	28545.17
570.30	28140.26
570.46	28561.56
570.62	28240.90
570.78	28184.73
570.95	28308.78
571.11	28238.56
571.27	28137.92
571.43	28268.99
571.60	28484.32
571.76	28390.70
571.92	28542.83
572.09	28533.47
572.25	28699.65
572.41	28247.93
572.57	28556.88
572.74	28645.82
572.90	28205.80
573.06	28552.20
573.22	28350.91
573.38	28634.11
573.55	28753.48
573.71	28767.52
573.87	28648.16
574.03	28528.79
574.20	28128.56
574.36	28018.55
574.52	28606.03
574.68	28243.24
574.84	28620.07
575.01	28418.78
575.17	28713.69
575.33	28423.47
575.49	28835.40
575.65	28655.18
575.82	28603.69
575.98	28577.94
576.14	28769.86
576.30	28528.79
576.46	28442.19
576.62	28327.50
576.79	28563.90
576.95	28610.71
577.11	28811.99
577.27	28465.60
577.43	28666.88
577.59	28355.59
577.75	28442.19
577.92	28683.27
578.08	28402.40
578.24	28470.28
578.40	28435.17
578.56	28554.54
578.72	28203.46
578.88	28673.90
579.04	28826.04
579.21	28144.94
579.37	28383.68
579.53	28273.67
579.69	28491.34
579.85	28680.92
580.01	28444.53
580.17	28421.13
580.33	28603.69
580.49	28982.85
580.65	28720.71
580.82	28851.78
580.98	28510.07
581.14	28613.05
581.30	28739.44
581.46	28388.36
581.62	28467.94
581.78	28510.07
581.94	28531.13
582.10	28606.03
582.26	28797.95
582.42	28807.31
582.58	28753.48
582.74	28641.14
582.90	28428.15
583.06	28467.94
583.22	28760.50
583.38	28470.28
583.54	28542.83
583.70	28641.14
583.86	28727.74
584.02	28631.77
584.18	28659.86
584.34	28994.56
584.50	28414.10
584.66	28573.26
584.82	28261.97
584.98	28617.73
585.14	28641.14
585.30	28627.09
585.46	28510.07
585.62	28414.10
585.78	28886.89
585.94	28231.54
586.10	28744.12
586.26	28617.73
586.42	28950.09
586.58	28648.16
586.74	28985.19
586.90	28437.51
587.06	28474.96
587.22	28332.18
587.38	28868.17
587.54	28577.94
587.70	28954.77
587.86	29074.13
588.02	29186.48
588.18	29015.62
588.34	28091.11
588.49	28627.09
588.65	28709.01
588.81	28535.81
588.97	28683.27
589.13	28732.42
589.29	28531.13
589.45	28793.27
589.61	28645.82
589.77	29067.11
589.93	29195.84
590.08	28744.12
590.24	28746.46
590.40	28507.72
590.56	29099.88
590.72	28699.65
590.88	28744.12
591.04	28779.23
591.20	28617.73
591.35	28528.79
591.51	29125.63
591.67	28797.95
591.83	28709.01
591.99	28842.42
