SpectraSuite Data File
++++++++++++++++++++++++++++++++++++
Date: Fri Oct 04 11:48:34 GMT-05:00 2013
User: price-jones
Dark Spectrum Present: No
Reference Spectrum Present: No
Number of Sampled Component Spectra: 1
Spectrometers: USB2+H05261
Integration Time (usec): 100000 (USB2+H05261)
Spectra Averaged: 1 (USB2+H05261)
Boxcar Smoothing: 0 (USB2+H05261)
Correct for Electrical Dark: No (USB2+H05261)
Strobe/Lamp Enabled: No (USB2+H05261)
Correct for Detector Non-linearity: No (USB2+H05261)
Correct for Stray Light: No (USB2+H05261)
Number of Pixels in Processed Spectrum: 2048
>>>>>Begin Processed Spectral Data<<<<<
365.73	53.83
365.92	53.83
366.12	53.83
366.32	0.00
366.52	0.00
366.72	4.68
366.91	0.00
367.11	0.00
367.31	0.00
367.51	0.00
367.70	0.00
367.90	0.00
368.10	0.00
368.30	0.00
368.49	0.00
368.69	46.81
368.89	0.00
369.09	0.00
369.28	0.00
369.48	0.00
369.68	0.00
369.87	0.00
370.07	0.00
370.27	88.94
370.47	177.88
370.66	535.98
370.86	624.92
371.06	589.82
371.25	568.75
371.45	667.05
371.65	688.12
371.84	592.16
372.04	589.82
372.24	702.16
372.44	697.48
372.63	732.59
372.83	760.67
373.03	791.10
373.22	662.37
373.42	655.35
373.62	812.17
373.81	718.54
374.01	819.19
374.21	854.30
374.40	847.27
374.60	905.79
374.79	821.53
374.99	809.83
375.19	821.53
375.38	880.04
375.58	863.66
375.78	915.15
375.97	903.45
376.17	889.40
376.37	933.87
376.56	912.81
376.76	851.96
376.95	870.68
377.15	943.24
377.35	929.19
377.54	894.08
377.74	985.37
377.93	915.15
378.13	887.06
378.33	933.87
378.52	922.17
378.72	1022.81
378.91	1020.47
379.11	1029.84
379.31	1097.71
379.50	1048.56
379.70	1067.28
379.89	1146.86
380.09	994.73
380.28	1008.77
380.48	1076.65
380.68	1027.50
380.87	1083.67
381.07	1118.78
381.26	1170.27
381.46	1114.10
381.65	1097.71
381.85	1224.10
382.04	1158.57
382.24	1153.88
382.43	1184.31
382.63	1149.20
382.83	1247.51
383.02	1219.42
383.22	1245.16
383.41	1146.86
383.61	1181.97
383.80	1158.57
384.00	1263.89
384.19	1193.67
384.39	1245.16
384.58	1249.85
384.78	1263.89
384.97	1296.66
385.17	1228.78
385.36	1329.42
385.56	1301.34
385.75	1280.27
385.95	1308.36
386.14	1317.72
386.34	1390.28
386.53	1427.73
386.72	1322.40
386.92	1432.41
387.11	1430.07
387.31	1444.11
387.50	1495.60
387.70	1462.83
387.89	1406.66
388.09	1334.11
388.28	1488.58
388.48	1355.17
388.67	1516.67
388.86	1519.01
389.06	1617.31
389.25	1640.72
389.45	1540.07
389.64	1507.30
389.84	1519.01
390.03	1474.54
390.22	1647.74
390.42	1678.16
390.61	1650.08
390.81	1540.07
391.00	1619.65
391.19	1650.08
391.39	1701.57
391.58	1703.91
391.78	1645.40
391.97	1722.63
392.16	1664.12
392.36	1849.02
392.55	1816.26
392.75	1774.13
392.94	1776.47
393.13	1839.66
393.33	1809.23
393.52	1717.95
393.71	1813.92
393.91	1865.41
394.10	1916.90
394.29	1874.77
394.49	1788.17
394.68	1919.24
394.88	1907.54
395.07	1989.46
395.26	2101.80
395.46	2052.65
395.65	1998.82
395.84	2106.48
396.04	2008.18
396.23	2054.99
396.42	2218.83
396.62	2066.69
396.81	2132.23
397.00	2101.80
397.19	2134.57
397.39	2148.61
397.58	2300.75
397.77	2195.42
397.97	2258.62
398.16	2162.66
398.35	2354.58
398.55	2267.98
398.74	2333.51
398.93	2338.20
399.12	2441.18
399.32	2209.47
399.51	2328.83
399.70	2363.94
399.90	2389.69
400.09	2567.57
400.28	2466.92
400.47	2431.82
400.67	2530.12
400.86	2560.55
401.05	2445.86
401.24	2630.76
401.44	2619.06
401.63	2537.14
401.82	2590.97
402.01	2682.25
402.21	2668.21
402.40	2724.38
402.59	2778.22
402.78	2703.32
402.97	2656.51
403.17	2836.73
403.36	2829.71
403.55	2832.05
403.74	2839.07
403.93	2754.81
404.13	2970.14
404.32	2897.58
404.51	2906.95
404.70	2925.67
404.89	2967.80
405.09	3054.40
405.28	3035.67
405.47	2981.84
405.66	3141.00
405.85	3141.00
406.05	3185.47
406.24	3070.78
406.43	3309.52
406.62	3173.77
406.81	3365.69
407.00	3136.32
407.20	3194.83
407.39	3274.41
407.58	3454.63
407.77	3377.39
407.96	3421.86
408.15	3349.31
408.34	3456.97
408.54	3435.91
408.73	3421.86
408.92	3440.59
409.11	3634.85
409.30	3592.72
409.49	3613.79
409.68	3616.13
409.87	3585.70
410.07	3723.79
410.26	3824.44
410.45	3868.91
410.64	3747.20
410.83	3723.79
411.02	3833.80
411.21	3932.10
411.40	3896.99
411.59	3934.44
411.78	3971.89
411.98	3955.51
412.17	4093.60
412.36	4011.68
412.55	4248.07
412.74	4252.75
412.93	4287.86
413.12	4234.03
413.31	4395.53
413.50	4189.56
413.69	4280.84
413.88	4526.60
414.07	4486.81
414.26	4599.15
414.45	4650.64
414.64	4636.60
414.83	4732.56
415.02	4730.22
415.22	4887.04
415.41	4943.21
415.60	4875.34
415.79	4863.63
415.98	5057.90
416.17	4830.87
416.36	4898.74
416.55	5069.60
416.74	5050.88
416.93	5179.61
417.12	5074.28
417.31	5163.22
417.50	5109.39
417.69	5465.15
417.88	5404.30
418.07	5469.83
418.26	5479.19
418.45	5366.85
418.64	5593.88
418.83	5628.99
419.02	5509.62
419.21	5689.84
419.39	5556.43
419.58	5607.92
419.77	5708.57
419.96	5687.50
420.15	5680.48
420.34	5729.63
420.53	5825.59
420.72	5933.26
420.91	5940.28
421.10	5902.83
421.29	6050.28
421.48	5858.36
421.67	6050.28
421.86	5984.75
422.05	6235.19
422.24	6033.90
422.43	6111.14
422.61	6209.44
422.80	6195.40
422.99	6267.95
423.18	6256.25
423.37	6218.80
423.56	6179.01
423.75	6092.41
423.94	6108.80
424.13	5806.87
424.32	5991.77
424.50	6188.38
424.69	6434.13
424.88	6415.41
425.07	6270.30
425.26	6326.47
425.45	6272.64
425.64	6300.72
425.83	6452.86
426.01	6352.21
426.20	6181.35
426.39	6466.90
426.58	6345.19
426.77	6434.13
426.96	6420.09
427.15	6417.75
427.33	6511.37
427.52	6548.82
427.71	6560.52
427.90	6597.97
428.09	6785.21
428.28	6590.95
428.46	6899.90
428.65	6825.00
428.84	6932.67
429.03	6911.60
429.22	6658.82
429.40	7007.56
429.59	6785.21
429.78	6604.99
429.97	6670.53
430.16	6775.85
430.34	6984.16
430.53	7152.68
430.72	7183.10
430.91	6911.60
431.10	6951.39
431.28	7183.10
431.47	7157.36
431.66	7377.37
431.85	7314.17
432.03	7489.71
432.22	7426.52
432.41	7545.89
432.60	7513.12
432.79	7346.94
432.97	7459.29
433.16	7810.37
433.35	7630.15
433.54	7705.04
433.72	7768.24
433.91	7503.76
434.10	7920.37
434.28	7803.35
434.47	7737.81
434.66	7911.01
434.85	8044.42
435.03	7990.59
435.22	8018.68
435.41	8442.31
435.59	8152.09
435.78	8297.20
435.97	8056.12
436.16	8173.15
436.34	8210.60
436.53	8290.18
436.72	8486.78
436.90	8245.71
437.09	8573.38
437.28	8196.56
437.46	8388.48
437.65	8442.31
437.84	8582.74
438.02	8407.20
438.21	8697.43
438.40	8667.00
438.58	8814.46
438.77	8809.78
438.96	8929.14
439.14	9163.20
439.33	8952.55
439.52	9231.07
439.70	9254.48
439.89	9465.13
440.08	9254.48
440.26	9298.95
440.45	9495.55
440.63	9650.03
440.82	9724.93
441.01	9750.67
441.19	9951.96
441.38	9921.53
441.57	10052.60
441.75	9989.41
441.94	10270.27
442.12	10029.20
442.31	10394.32
442.50	10118.14
442.68	10246.87
442.87	10413.04
443.05	10448.15
443.24	10523.05
443.43	10733.70
443.61	10464.54
443.80	11030.94
443.98	10593.26
444.17	10279.63
444.35	10567.52
444.54	10773.49
444.73	10700.93
444.91	10384.96
445.10	10518.37
445.28	10668.16
445.47	10712.63
445.65	10871.79
445.84	10635.39
446.02	10633.05
446.21	10616.67
446.39	10567.52
446.58	11044.99
446.77	10775.83
446.95	10565.18
447.14	10743.06
447.32	10977.11
447.51	10871.79
447.69	10909.24
447.88	10832.00
448.06	10808.59
448.25	10925.62
448.43	10974.77
448.62	10977.11
448.80	10843.70
448.99	11145.63
449.17	11112.86
449.36	11152.65
449.54	11274.36
449.73	11571.61
449.91	11405.43
450.10	11321.17
450.28	11641.82
450.46	11417.13
450.65	11580.97
450.83	11784.60
451.02	11452.24
451.20	11721.40
451.39	11831.41
451.57	11714.38
451.76	11852.47
451.94	11889.92
452.13	12126.32
452.31	12145.04
452.49	11908.65
452.68	12084.19
452.86	11941.41
453.05	12051.42
453.23	12386.12
453.42	12072.48
453.60	11932.05
453.78	12154.40
453.97	11936.73
454.15	12271.43
454.34	12093.55
454.52	12271.43
454.70	12308.88
454.89	12505.48
455.07	12629.53
455.26	12503.14
455.44	12699.75
455.62	12718.47
455.81	12772.30
455.99	12779.32
456.17	13107.00
456.36	13029.76
456.54	13254.45
456.73	13245.09
456.91	13568.09
457.09	13614.90
457.28	13415.95
457.46	13401.91
457.64	13495.53
457.83	13458.08
458.01	13453.40
458.19	14012.79
458.38	13554.04
458.56	13713.20
458.74	13912.14
458.93	14073.64
459.11	13949.59
459.29	13664.05
459.48	14171.94
459.66	14001.08
459.84	14225.78
460.03	14328.76
460.21	13947.25
460.39	14396.64
460.57	14115.77
460.76	14356.85
460.94	14581.54
461.12	14125.13
461.31	14508.98
461.49	14607.28
461.67	14700.90
461.85	14888.15
462.04	14581.54
462.22	15157.31
462.40	14956.02
462.59	14906.87
462.77	14773.46
462.95	14951.34
463.13	14972.41
463.32	15211.14
463.50	15531.80
463.68	15014.54
463.86	15220.50
464.05	15248.59
464.23	15084.75
464.41	15424.13
464.59	15229.87
464.78	15681.59
464.96	15344.55
465.14	15269.66
465.32	15908.62
465.50	15817.34
465.69	15885.22
465.87	15826.70
466.05	15513.07
466.23	15702.65
466.41	15693.29
466.60	16049.05
466.78	15983.52
466.96	15730.74
467.14	15969.48
467.32	15950.75
467.51	16449.28
467.69	15613.71
467.87	16205.87
468.05	16386.09
468.23	16030.33
468.41	16245.66
468.60	16489.07
468.78	16388.43
468.96	16273.74
469.14	16514.82
469.32	16720.79
469.50	16306.51
469.69	17092.93
469.87	16978.25
470.05	17060.16
470.23	17184.21
470.41	16957.18
470.59	17401.88
470.77	16978.25
470.95	17312.94
471.14	17596.15
471.32	17268.47
471.50	17989.36
471.68	17743.60
471.86	17671.04
472.04	18008.08
472.22	18050.21
472.40	18001.06
472.58	18284.26
472.77	17926.16
472.95	18251.50
473.13	18845.99
473.31	18029.15
473.49	18459.81
473.67	18562.79
473.85	18427.04
474.03	19145.58
474.21	18827.27
474.39	19346.87
474.57	18981.74
474.75	19396.02
474.93	19487.30
475.12	19662.84
475.30	19592.62
475.48	19817.32
475.66	20051.37
475.84	19812.63
476.02	20074.77
476.20	19857.10
476.38	20336.91
476.56	20765.23
476.74	20842.47
476.92	20830.77
477.10	20798.00
477.28	20968.86
477.46	20989.92
477.64	21010.99
477.82	21837.20
478.00	22118.06
478.18	22244.45
478.36	22085.30
478.54	22314.67
478.72	22616.60
478.90	22637.66
479.08	22761.71
479.26	23234.50
479.44	23311.74
479.62	23466.21
479.80	23470.89
479.98	23398.34
480.16	24018.58
480.34	23873.46
480.52	24327.53
480.70	24219.86
480.88	24187.10
481.06	24238.59
481.24	24795.64
481.41	24669.25
481.59	25315.23
481.77	25603.12
481.95	25502.48
482.13	25647.59
482.31	25865.26
482.49	26150.81
482.67	26726.58
482.85	26742.96
483.03	26948.93
483.21	27056.59
483.39	27426.40
483.57	27384.27
483.74	27606.62
483.92	28004.51
484.10	27976.42
484.28	28374.31
484.46	29001.58
484.64	29275.42
484.82	28872.85
485.00	29490.75
485.18	29769.27
485.35	30188.23
485.53	29654.59
485.71	29996.31
485.89	30782.73
486.07	30714.85
486.25	30902.09
486.43	30993.37
486.61	31468.50
486.78	31824.26
486.96	31810.22
487.14	32421.10
487.32	32301.73
487.50	32669.20
487.68	32631.75
487.85	33460.30
488.03	33294.12
488.21	33949.47
488.39	33684.99
488.57	34164.80
488.75	34125.01
488.92	34902.07
489.10	34939.52
489.28	35370.18
489.46	35634.66
489.64	35679.13
489.81	36039.57
489.99	36140.21
490.17	36060.63
490.35	36561.51
490.53	36964.08
490.70	37170.05
490.88	37160.69
491.06	37923.70
491.24	37785.61
491.41	38064.13
491.59	38660.97
491.77	38340.32
491.95	39005.03
492.13	38857.57
492.30	39007.37
492.48	39140.78
492.66	39489.52
492.84	39660.38
493.01	40463.18
493.19	40287.64
493.37	40376.58
493.54	40800.22
493.72	40821.28
493.90	40989.80
494.08	41610.04
494.25	42230.29
494.43	41858.14
494.61	42426.89
494.79	42724.14
494.96	42595.41
495.14	42962.87
495.32	43166.50
495.49	43503.54
495.67	43154.80
495.85	43683.76
496.02	44025.48
496.20	44245.49
496.38	44179.95
496.55	44388.26
496.73	45537.46
496.91	45034.25
497.09	44926.58
497.26	45537.46
497.44	45404.05
497.62	45717.68
497.79	46323.88
497.97	46064.08
498.14	46604.75
498.32	47061.15
498.50	46806.03
498.67	47072.85
498.85	46969.87
499.03	47475.43
499.20	47194.56
499.38	47786.72
499.56	48289.93
499.73	47950.56
499.91	48226.74
500.08	48533.35
500.26	47964.60
500.44	48205.67
500.61	48701.87
500.79	48470.15
500.97	48877.41
501.14	49397.01
501.32	49436.80
501.49	49375.94
501.67	49223.81
501.84	49647.44
502.02	49638.08
502.20	49682.55
502.37	50237.26
502.55	50005.55
502.72	50333.22
502.90	50218.53
503.07	50422.16
503.25	50232.58
503.43	50490.04
503.60	50808.35
503.78	51061.13
503.95	51164.11
504.13	50948.78
504.30	51189.86
504.48	51098.58
504.65	51414.55
504.83	51639.24
505.01	52116.71
505.18	52086.28
505.36	52268.84
505.53	51997.34
505.71	52123.73
505.88	52310.97
506.06	51990.32
506.23	52505.24
506.41	52601.20
506.58	52687.80
506.76	52786.10
506.93	52905.47
507.11	52671.42
507.28	52954.62
507.46	52924.19
507.63	53366.55
507.81	53764.45
507.98	53277.61
508.16	53202.72
508.33	53425.07
508.50	53460.18
508.68	53860.41
508.85	54007.86
509.03	53939.99
509.20	54218.51
509.38	54277.02
509.55	54148.29
509.73	54040.63
509.90	54387.03
510.08	54426.82
510.25	54546.18
510.42	54637.47
510.60	54700.66
510.77	54672.57
510.95	54995.57
511.12	54801.30
511.30	54527.46
511.47	55241.32
511.64	55299.84
511.82	55374.73
511.99	55440.27
512.17	55482.40
512.34	55491.76
512.51	55550.27
512.69	55833.48
512.86	55739.86
513.04	55676.66
513.21	55964.55
513.38	56350.74
513.56	56109.66
513.73	55962.21
513.90	55978.59
514.08	56100.30
514.25	56406.91
514.43	56214.99
514.60	56519.26
514.77	56493.51
514.95	56704.16
515.12	56587.13
515.29	56662.03
515.47	56884.38
515.64	56975.66
515.81	57069.28
515.99	57308.02
516.16	57209.71
516.33	57146.52
516.51	57216.74
516.68	57240.14
516.85	57464.83
517.03	57609.95
517.20	57558.45
517.37	57738.68
517.54	57649.74
517.72	57677.82
517.89	57696.55
518.06	57769.10
518.24	57867.40
518.41	57839.32
518.58	57977.41
518.75	58101.46
518.93	58298.06
519.10	58181.04
519.27	58344.87
519.45	58206.78
519.62	58110.82
519.79	58377.64
519.96	58387.00
520.14	58777.87
520.31	58326.15
520.48	58585.95
520.65	58394.03
520.83	58866.81
521.00	58740.42
521.17	58719.36
521.34	58944.05
521.52	59009.59
521.69	59117.25
521.86	59154.70
522.03	59229.60
522.20	59206.19
522.38	59323.22
522.55	59304.49
522.72	59311.52
522.89	59536.21
523.07	59543.23
523.24	59550.25
523.41	59695.36
523.58	59405.14
523.75	59831.11
523.92	59522.16
524.10	59835.80
524.27	59838.14
524.44	59910.69
524.61	59971.55
524.78	60055.81
524.96	60121.34
525.13	60018.36
525.30	60027.72
525.47	60039.42
525.64	60069.85
525.81	60257.09
525.98	60397.52
526.16	60341.35
526.33	60364.76
526.50	60713.50
526.67	60280.50
526.84	60575.40
527.01	60364.76
527.18	60509.87
527.36	60519.23
527.53	60603.49
527.70	60994.36
527.87	60884.36
528.04	60776.69
528.21	60858.61
528.38	60931.17
528.55	61071.60
528.72	60884.36
528.89	61066.92
529.07	61059.90
529.24	60910.10
529.41	61242.46
529.58	60938.19
529.75	61174.58
529.92	61258.84
530.09	61162.88
530.26	61396.93
530.43	61567.79
530.60	61324.38
530.77	61359.48
530.94	61572.47
531.11	61549.07
531.28	61432.04
531.46	61586.52
531.63	61520.98
531.80	61738.65
531.97	61752.69
532.14	61935.26
532.31	61719.93
532.48	61757.38
532.65	61829.93
532.82	61792.48
532.99	61914.19
533.16	61853.34
533.33	62108.46
533.50	62113.14
533.67	62227.82
533.84	61982.07
534.01	61946.96
534.18	61843.98
534.35	62281.66
534.52	62227.82
534.69	62370.60
534.86	62489.96
535.03	62405.70
535.20	62382.30
535.37	62447.83
535.54	62543.80
535.71	62408.04
535.88	62578.90
536.05	62422.09
536.22	62672.52
536.38	62733.38
536.55	62808.28
536.72	62784.87
536.89	62770.83
537.06	62688.91
537.23	62651.46
537.40	62677.21
537.57	62768.49
537.74	62686.57
537.91	63077.44
538.08	62913.60
538.25	62805.94
538.42	63016.58
538.59	63171.06
538.75	62836.36
538.92	63096.16
539.09	63135.95
539.26	63206.17
539.43	63100.84
539.60	63213.19
539.77	63119.57
539.94	63531.50
540.11	63362.98
540.28	63325.53
540.44	63142.97
540.61	63339.58
540.78	63498.73
540.95	63341.92
541.12	63547.89
541.29	63489.37
541.46	63435.54
541.62	63465.97
541.79	63700.02
541.96	63241.28
542.13	63482.35
542.30	63737.47
542.47	63903.65
542.63	63840.45
542.80	63784.28
542.97	64065.14
543.14	63971.52
543.31	63898.97
543.48	63945.78
543.64	64301.54
543.81	64306.22
543.98	64268.77
544.15	64123.66
544.32	64198.55
544.48	64374.09
544.65	64067.48
544.82	64224.30
544.99	64102.59
545.16	64378.78
545.32	64287.49
545.49	64563.68
545.66	64619.85
545.83	64643.26
546.00	64474.74
546.16	64559.00
546.33	64367.07
546.50	64189.19
546.67	64516.87
546.83	64144.72
547.00	64559.00
547.17	64502.82
547.34	64610.49
547.50	64774.33
547.67	64797.73
547.84	64661.98
548.00	64804.75
548.17	64718.15
548.34	64626.87
548.51	64863.27
548.67	64825.82
548.84	64975.61
549.01	64769.64
549.18	64903.06
549.34	64870.29
549.51	64984.97
549.68	64989.66
549.84	65048.17
550.01	65137.11
550.18	65078.60
550.34	65200.30
550.51	65300.95
550.68	65193.28
550.84	64736.88
551.01	65111.36
551.18	64992.00
551.34	65125.41
551.51	65120.73
551.68	65249.45
551.84	65387.55
552.01	65179.24
552.18	65256.48
552.34	65263.50
552.51	65488.19
552.68	65410.95
552.84	65401.59
553.01	65453.08
553.18	65462.44
553.34	65535.00
553.51	65495.21
553.67	65535.00
553.84	65535.00
554.01	65535.00
554.17	65535.00
554.34	65535.00
554.51	65513.94
554.67	65535.00
554.84	65535.00
555.00	65535.00
555.17	65535.00
555.33	65535.00
555.50	65535.00
555.67	65535.00
555.83	65535.00
556.00	65535.00
556.16	65535.00
556.33	65535.00
556.50	65535.00
556.66	65535.00
556.83	65535.00
556.99	65535.00
557.16	65535.00
557.32	65535.00
557.49	65535.00
557.65	65535.00
557.82	65535.00
557.98	65535.00
558.15	65535.00
558.32	65535.00
558.48	65535.00
558.65	65535.00
558.81	65535.00
558.98	65535.00
559.14	65535.00
559.31	65535.00
559.47	65535.00
559.64	65535.00
559.80	65535.00
559.97	65535.00
560.13	65535.00
560.30	65535.00
560.46	65535.00
560.63	65535.00
560.79	65535.00
560.96	65535.00
561.12	65535.00
561.29	65535.00
561.45	65535.00
561.61	65535.00
561.78	65535.00
561.94	65535.00
562.11	65535.00
562.27	65535.00
562.44	65535.00
562.60	65535.00
562.77	65535.00
562.93	65535.00
563.10	65535.00
563.26	65535.00
563.42	65535.00
563.59	65535.00
563.75	65535.00
563.92	65535.00
564.08	65535.00
564.24	65535.00
564.41	65535.00
564.57	65535.00
564.74	65535.00
564.90	65535.00
565.07	65535.00
565.23	65535.00
565.39	65535.00
565.56	65535.00
565.72	65535.00
565.88	65535.00
566.05	65535.00
566.21	65535.00
566.38	65535.00
566.54	65535.00
566.70	65535.00
566.87	65535.00
567.03	65535.00
567.19	65535.00
567.36	65535.00
567.52	65535.00
567.68	65535.00
567.85	65535.00
568.01	65535.00
568.17	65535.00
568.34	65535.00
568.50	65535.00
568.66	65535.00
568.83	65535.00
568.99	65535.00
569.15	65535.00
569.32	65535.00
569.48	65535.00
569.64	65535.00
569.81	65535.00
569.97	65535.00
570.13	65535.00
570.30	65535.00
570.46	65535.00
570.62	65535.00
570.78	65535.00
570.95	65535.00
571.11	65535.00
571.27	65535.00
571.43	65535.00
571.60	65535.00
571.76	65535.00
571.92	65535.00
572.09	65535.00
572.25	65535.00
572.41	65535.00
572.57	65535.00
572.74	65535.00
572.90	65535.00
573.06	65535.00
573.22	65535.00
573.38	65535.00
573.55	65535.00
573.71	65535.00
573.87	65535.00
574.03	65535.00
574.20	65535.00
574.36	65535.00
574.52	65535.00
574.68	65535.00
574.84	65535.00
575.01	65535.00
575.17	65535.00
575.33	65535.00
575.49	65535.00
575.65	65535.00
575.82	65535.00
575.98	65535.00
576.14	65535.00
576.30	65535.00
576.46	65535.00
576.62	65535.00
576.79	65535.00
576.95	65535.00
577.11	65535.00
577.27	65535.00
577.43	65535.00
577.59	65535.00
577.75	65535.00
577.92	65535.00
578.08	65535.00
578.24	65535.00
578.40	65535.00
578.56	65535.00
578.72	65535.00
578.88	65535.00
579.04	65535.00
579.21	65535.00
579.37	65535.00
579.53	65535.00
579.69	65535.00
579.85	65535.00
580.01	65535.00
580.17	65535.00
580.33	65535.00
580.49	65535.00
580.65	65535.00
580.82	65535.00
580.98	65535.00
581.14	65535.00
581.30	65535.00
581.46	65535.00
581.62	65535.00
581.78	65535.00
581.94	65535.00
582.10	65535.00
582.26	65535.00
582.42	65535.00
582.58	65535.00
582.74	65535.00
582.90	65535.00
583.06	65535.00
583.22	65535.00
583.38	65535.00
583.54	65535.00
583.70	65535.00
583.86	65535.00
584.02	65535.00
584.18	65535.00
584.34	65535.00
584.50	65535.00
584.66	65535.00
584.82	65535.00
584.98	65535.00
585.14	65535.00
585.30	65535.00
585.46	65535.00
585.62	65535.00
585.78	65535.00
585.94	65535.00
586.10	65535.00
586.26	65535.00
586.42	65535.00
586.58	65535.00
586.74	65535.00
586.90	65535.00
587.06	65535.00
587.22	65535.00
587.38	65535.00
587.54	65535.00
587.70	65535.00
587.86	65535.00
