SpectraSuite Data File
++++++++++++++++++++++++++++++++++++
Date: Fri Oct 04 11:48:36 GMT-05:00 2013
User: price-jones
Dark Spectrum Present: No
Reference Spectrum Present: No
Number of Sampled Component Spectra: 1
Spectrometers: USB2+H05261
Integration Time (usec): 100000 (USB2+H05261)
Spectra Averaged: 1 (USB2+H05261)
Boxcar Smoothing: 0 (USB2+H05261)
Correct for Electrical Dark: No (USB2+H05261)
Strobe/Lamp Enabled: No (USB2+H05261)
Correct for Detector Non-linearity: No (USB2+H05261)
Correct for Stray Light: No (USB2+H05261)
Number of Pixels in Processed Spectrum: 2048
>>>>>Begin Processed Spectral Data<<<<<
365.73	0.00
365.92	0.00
366.12	0.00
366.32	0.00
366.52	0.00
366.72	0.00
366.91	0.00
367.11	0.00
367.31	0.00
367.51	0.00
367.70	0.00
367.90	0.00
368.10	0.00
368.30	0.00
368.49	14.04
368.69	0.00
368.89	0.00
369.09	0.00
369.28	0.00
369.48	0.00
369.68	0.00
369.87	0.00
370.07	0.00
370.27	79.58
370.47	67.88
370.66	170.86
370.86	187.24
371.06	201.29
371.25	318.31
371.45	205.97
371.65	238.73
371.84	212.99
372.04	222.35
372.24	339.38
372.44	330.02
372.63	290.23
372.83	365.12
373.03	280.86
373.22	379.17
373.42	271.50
373.62	374.49
373.81	252.78
374.01	348.74
374.21	320.65
374.40	222.35
374.60	346.40
374.79	360.44
374.99	341.72
375.19	351.08
375.38	327.68
375.58	318.31
375.78	414.27
375.97	353.42
376.17	430.66
376.37	304.27
376.56	339.38
376.76	346.40
376.95	367.46
377.15	418.96
377.35	390.87
377.54	346.40
377.74	428.32
377.93	353.42
378.13	376.83
378.33	346.40
378.52	397.89
378.72	381.51
378.91	437.68
379.11	358.10
379.31	383.85
379.50	339.38
379.70	369.80
379.89	447.04
380.09	395.55
380.28	409.59
380.48	383.85
380.68	362.78
380.87	372.15
381.07	458.74
381.26	514.92
381.46	482.15
381.65	423.64
381.85	456.40
382.04	477.47
382.24	468.11
382.43	463.43
382.63	477.47
382.83	451.72
383.02	416.62
383.22	500.87
383.41	477.47
383.61	454.06
383.80	379.17
384.00	465.77
384.19	437.68
384.39	475.13
384.58	514.92
384.78	510.24
384.97	510.24
385.17	465.77
385.36	510.24
385.56	505.56
385.75	425.98
385.95	545.34
386.14	564.07
386.34	458.74
386.53	507.90
386.72	521.94
386.92	503.22
387.11	440.02
387.31	517.26
387.50	517.26
387.70	543.00
387.89	545.34
388.09	496.19
388.28	496.19
388.48	566.41
388.67	606.20
388.86	496.19
389.06	500.87
389.25	664.71
389.45	564.07
389.64	531.30
389.84	568.75
390.03	657.69
390.22	613.22
390.42	575.77
390.61	580.45
390.81	571.09
391.00	603.86
391.19	559.39
391.39	643.65
391.58	660.03
391.78	643.65
391.97	692.80
392.16	564.07
392.36	669.39
392.55	725.57
392.75	695.14
392.94	629.60
393.13	613.22
393.33	755.99
393.52	699.82
393.71	737.27
393.91	697.48
394.10	713.86
394.29	706.84
394.49	727.91
394.68	842.59
394.88	835.57
395.07	669.39
395.26	816.85
395.46	812.17
395.65	816.85
395.84	814.51
396.04	856.64
396.23	798.12
396.42	842.59
396.62	833.23
396.81	842.59
397.00	828.55
397.19	830.89
397.39	835.57
397.58	849.61
397.77	807.48
397.97	903.45
398.16	943.24
398.35	1015.79
398.55	884.72
398.74	910.47
398.93	971.32
399.12	858.98
399.32	987.71
399.51	924.51
399.70	945.58
399.90	943.24
400.09	966.64
400.28	1032.18
400.47	1015.79
400.67	1083.67
400.86	990.05
401.05	1057.92
401.24	980.68
401.44	1048.56
401.63	1097.71
401.82	1088.35
402.01	1135.16
402.21	1146.86
402.40	1057.92
402.59	1132.82
402.78	1139.84
402.97	1170.27
403.17	1196.01
403.36	1196.01
403.55	1203.04
403.74	1247.51
403.93	1214.74
404.13	1266.23
404.32	1207.72
404.51	1228.78
404.70	1385.60
404.89	1373.89
405.09	1322.40
405.28	1268.57
405.47	1343.47
405.66	1338.79
405.85	1437.09
406.05	1416.02
406.24	1352.83
406.43	1409.00
406.62	1500.28
406.81	1509.65
407.00	1437.09
407.20	1444.11
407.39	1500.28
407.58	1561.14
407.77	1481.56
407.96	1521.35
408.15	1591.56
408.34	1650.08
408.54	1605.61
408.73	1640.72
408.92	1640.72
409.11	1680.50
409.30	1715.61
409.49	1643.06
409.68	1715.61
409.87	1795.19
410.07	1713.27
410.26	1720.29
410.45	1813.92
410.64	1802.21
410.83	1839.66
411.02	1879.45
411.21	1942.64
411.40	1823.28
411.59	1825.62
411.78	1977.75
411.98	1881.79
412.17	2080.74
412.36	1944.99
412.55	2010.52
412.74	2134.57
412.93	2026.90
413.12	2043.29
413.31	2141.59
413.50	2148.61
413.69	2139.25
413.88	2307.77
414.07	2223.51
414.26	2282.02
414.45	2279.68
414.64	2246.91
414.83	2502.03
415.02	2296.07
415.22	2324.15
415.41	2347.56
415.60	2422.45
415.79	2349.90
415.98	2403.73
416.17	2457.56
416.36	2509.05
416.55	2560.55
416.74	2530.12
416.93	2581.61
417.12	2548.84
417.31	2642.46
417.50	2670.55
417.69	2628.42
417.88	2740.77
418.07	2698.64
418.26	2715.02
418.45	2729.06
418.64	2864.82
418.83	2794.60
419.02	2878.86
419.21	2778.22
419.39	2799.28
419.58	2757.15
419.77	2775.88
419.96	2764.17
420.15	2810.98
420.34	2956.10
420.53	2930.35
420.72	2857.79
420.91	2890.56
421.10	2902.26
421.29	2979.50
421.48	3026.31
421.67	3007.59
421.86	2972.48
422.05	2993.55
422.24	2979.50
422.43	3028.65
422.61	3117.59
422.80	3042.70
422.99	3016.95
423.18	3173.77
423.37	3185.47
423.56	3141.00
423.75	3042.70
423.94	3105.89
424.13	2986.52
424.32	2935.03
424.50	3164.40
424.69	3094.19
424.88	3152.70
425.07	3068.44
425.26	3164.40
425.45	3166.74
425.64	3232.28
425.83	3288.45
426.01	3286.11
426.20	3187.81
426.39	3265.05
426.58	3218.24
426.77	3208.87
426.96	3201.85
427.15	3227.60
427.33	3300.16
427.52	3300.16
427.71	3318.88
427.90	3543.57
428.09	3358.67
428.28	3337.60
428.46	3435.91
428.65	3459.31
428.84	3499.10
429.03	3534.21
429.22	3351.65
429.40	3471.01
429.59	3454.63
429.78	3321.22
429.97	3431.23
430.16	3412.50
430.34	3482.72
430.53	3508.46
430.72	3611.45
430.91	3583.36
431.10	3566.98
431.28	3742.52
431.47	3632.51
431.66	3791.67
431.85	3712.09
432.03	3719.11
432.22	3726.13
432.41	3740.18
432.60	3843.16
432.79	3899.33
432.97	3796.35
433.16	3906.35
433.35	3665.28
433.54	3887.63
433.72	3789.33
433.91	3838.48
434.10	3775.28
434.28	3911.04
434.47	3934.44
434.66	3962.53
434.85	3915.72
435.03	3962.53
435.22	3960.19
435.41	4135.73
435.59	4060.83
435.78	4203.60
435.97	4114.66
436.16	4091.26
436.34	4051.47
436.53	4088.92
436.72	4306.59
436.90	4245.73
437.09	4283.18
437.28	4161.47
437.46	4252.75
437.65	4290.20
437.84	4271.48
438.02	4404.89
438.21	4219.99
438.40	4430.63
438.58	4416.59
438.77	4447.02
438.96	4505.53
439.14	4493.83
439.33	4503.19
439.52	4692.77
439.70	4545.32
439.89	4730.22
440.08	4685.75
440.26	4784.06
440.45	4713.84
440.63	4723.20
440.82	4898.74
441.01	4748.95
441.19	4741.93
441.38	4912.78
441.57	4903.42
441.75	4973.64
441.94	5069.60
442.12	5050.88
442.31	5011.09
442.50	4952.57
442.68	5123.43
442.87	5043.85
443.05	5341.10
443.24	5249.82
443.43	5247.48
443.61	5308.34
443.80	5357.49
443.98	5195.99
444.17	5149.18
444.35	5268.55
444.54	5214.71
444.73	5380.89
444.91	5210.03
445.10	5163.22
445.28	5287.27
445.47	5301.31
445.65	5224.08
445.84	5406.64
446.02	5467.49
446.21	5291.95
446.39	5270.89
446.58	5404.30
446.77	5411.32
446.95	5228.76
447.14	5203.01
447.32	5486.22
447.51	5401.96
447.69	5301.31
447.88	5371.53
448.06	5345.78
448.25	5364.51
448.43	5371.53
448.62	5387.91
448.80	5404.30
448.99	5504.94
449.17	5589.20
449.36	5462.81
449.54	5661.76
449.73	5628.99
449.91	5783.46
450.10	5572.82
450.28	5757.72
450.46	5827.93
450.65	5755.38
450.83	5809.21
451.02	5769.42
451.20	6078.37
451.39	5991.77
451.57	5942.62
451.76	5811.55
451.94	5853.68
452.13	5949.64
452.31	6001.13
452.49	5900.49
452.68	5998.79
452.86	5837.30
453.05	5935.60
453.23	6017.52
453.42	5912.19
453.60	6024.54
453.78	6026.88
453.97	6019.86
454.15	6094.76
454.34	5935.60
454.52	6160.29
454.70	6073.69
454.89	6396.68
455.07	6207.10
455.26	6190.72
455.44	6307.74
455.62	6279.66
455.81	6267.95
455.99	6441.15
456.17	6265.61
456.36	6380.30
456.54	6576.91
456.73	6640.10
456.91	6614.35
457.09	6455.20
457.28	6895.22
457.46	6345.19
457.64	6717.34
457.83	6726.70
458.01	6525.41
458.19	7005.22
458.38	6525.41
458.56	6834.36
458.74	6703.29
458.93	6843.73
459.11	6647.12
459.29	6832.02
459.48	6923.30
459.66	6707.98
459.84	6949.05
460.03	6862.45
460.21	7089.48
460.39	7122.25
460.57	6796.92
460.76	7138.63
460.94	7061.40
461.12	6986.50
461.31	7047.35
461.49	7117.57
461.67	7112.89
461.85	7250.98
462.04	6991.18
462.22	7674.62
462.40	7243.96
462.59	7243.96
462.77	7517.80
462.95	7506.10
463.13	7241.62
463.32	7353.96
463.50	7470.99
463.68	7213.53
463.86	7318.86
464.05	7246.30
464.23	7482.69
464.41	7644.19
464.59	7250.98
464.78	7545.89
464.96	7470.99
465.14	7438.22
465.32	7618.44
465.50	7723.77
465.69	7756.54
465.87	7660.57
466.05	7681.64
466.23	7513.12
466.41	7705.04
466.60	8013.99
466.78	7772.92
466.96	7676.96
467.14	7550.57
467.32	7620.78
467.51	7812.71
467.69	7662.91
467.87	7817.39
468.05	7758.88
468.23	7751.85
468.41	7962.50
468.60	8016.33
468.78	7901.65
468.96	7754.19
469.14	7899.31
469.32	7976.55
469.50	7871.22
469.69	8231.66
469.87	8231.66
470.05	8166.13
470.23	8119.32
470.41	8294.86
470.59	8311.24
470.77	8138.04
470.95	8367.42
471.14	8423.59
471.32	8191.88
471.50	8472.74
471.68	8400.18
471.86	8416.57
472.04	8624.87
472.22	8774.67
472.40	8561.68
472.58	8802.75
472.77	8982.98
472.95	8847.22
473.13	8980.64
473.31	8947.87
473.49	8631.90
473.67	9039.15
473.85	8690.41
474.03	9057.87
474.21	8931.48
474.39	9104.68
474.57	9254.48
474.75	9205.33
474.93	9280.22
475.12	9231.07
475.30	9373.85
475.48	9266.18
475.66	9441.72
475.84	9516.62
476.02	9771.74
476.20	9547.05
476.38	9748.33
476.56	9848.97
476.74	9881.74
476.92	9755.35
477.10	9837.27
477.28	9975.36
477.46	10164.95
477.64	10253.89
477.82	10384.96
478.00	10518.37
478.18	10300.70
478.36	10621.35
478.54	10576.88
478.72	10675.18
478.90	10836.68
479.08	10773.49
479.26	11061.37
479.44	11073.07
479.62	10934.98
479.80	11073.07
479.98	11564.59
480.16	11227.55
480.34	11501.39
480.52	11482.67
480.70	11571.61
480.88	11414.79
481.06	11442.88
481.24	11623.10
481.41	11768.21
481.59	11999.93
481.77	12138.02
481.95	12149.72
482.13	12252.70
482.31	12287.81
482.49	12582.72
482.67	12496.12
482.85	12730.17
483.03	12858.90
483.21	12973.59
483.39	12896.35
483.57	12952.52
483.74	13202.96
483.92	13305.95
484.10	13027.42
484.28	13525.96
484.46	13530.64
484.64	13799.80
484.82	13827.88
485.00	13804.48
485.18	13954.27
485.35	14085.34
485.53	14078.32
485.71	14270.25
485.89	14579.20
486.07	14452.81
486.25	14457.49
486.43	14583.88
486.61	14839.00
486.78	15007.52
486.96	14890.49
487.14	15290.72
487.32	15316.47
487.50	15318.81
487.68	15587.97
487.85	15709.68
488.03	15583.29
488.21	16016.29
488.39	15852.45
488.57	16133.31
488.75	16049.05
488.92	16617.80
489.10	16425.88
489.28	16610.78
489.46	16959.52
489.64	16313.53
489.81	17252.09
489.99	17076.55
490.17	16961.86
490.35	17399.54
490.53	17486.14
490.70	17591.47
490.88	17376.14
491.06	17741.26
491.24	17479.12
491.41	17811.48
491.59	18176.60
491.77	18141.49
491.95	18207.03
492.13	18640.03
492.30	18279.58
492.48	18658.75
492.66	18558.11
492.84	18707.90
493.01	18981.74
493.19	18991.11
493.37	19222.82
493.54	19510.71
493.72	19337.51
493.90	19428.79
494.08	19360.91
494.25	19789.23
494.43	19936.68
494.61	20161.37
494.79	19672.20
494.96	19810.29
495.14	20257.34
495.32	20643.52
495.49	20507.77
495.67	20627.14
495.85	20732.47
496.02	20695.02
496.20	20952.48
496.38	21181.85
496.55	21184.19
496.73	21561.02
496.91	21504.84
497.09	21474.42
497.26	21881.67
497.44	21364.41
497.62	21551.65
497.79	21841.88
497.97	21846.56
498.14	22164.87
498.32	22375.52
498.50	22223.39
498.67	23047.26
498.85	22597.87
499.03	22415.31
499.20	22693.83
499.38	22410.63
499.56	23166.62
499.73	23068.32
499.91	22857.67
500.08	22855.33
500.26	22768.73
500.44	23185.35
500.61	23398.34
500.79	23154.92
500.97	23625.37
501.14	24044.32
501.32	23908.57
501.49	23683.88
501.67	23765.80
501.84	23964.75
502.02	24250.29
502.20	24364.98
502.37	24280.72
502.55	24259.65
502.72	24407.11
502.90	24458.60
503.07	24154.33
503.25	24353.27
503.43	24341.57
503.60	24645.84
503.78	24823.72
503.95	24971.18
504.13	24645.84
504.30	25017.99
504.48	25127.99
504.65	25120.97
504.83	25546.95
505.01	25544.61
505.18	25331.62
505.36	25432.26
505.53	25766.96
505.71	25982.29
505.88	25811.43
506.06	25460.35
506.23	25912.07
506.41	25806.75
506.58	26328.69
506.76	26237.41
506.93	26139.10
507.11	26181.23
507.28	26160.17
507.46	26235.06
507.63	26478.48
507.81	26324.01
507.98	26253.79
508.16	26689.13
508.33	26761.69
508.50	26874.03
508.68	27016.80
508.85	27517.68
509.03	27157.24
509.20	27447.46
509.38	27599.60
509.55	27791.52
509.73	27805.56
509.90	27835.99
510.08	27651.09
510.25	27384.27
510.42	28091.11
510.60	28271.33
510.77	27924.93
510.95	28458.57
511.12	28041.96
511.30	28016.21
511.47	28470.28
511.64	28058.34
511.82	28451.55
511.99	28673.90
512.17	28751.14
512.34	28442.19
512.51	28582.62
512.69	28657.52
512.86	29266.06
513.04	29001.58
513.21	29312.87
513.38	29214.57
513.56	29462.66
513.73	29022.64
513.90	29490.75
514.08	29486.07
514.25	29207.55
514.43	29467.34
514.60	29457.98
514.77	29446.28
514.95	29827.79
515.12	29713.10
515.29	30043.12
515.47	30075.88
515.64	30218.66
515.81	29979.92
515.99	30639.95
516.16	30492.50
516.33	30162.48
516.51	30419.94
516.68	30298.23
516.85	30567.40
517.03	30576.76
517.20	30745.28
517.37	30897.41
517.54	30728.89
517.72	31101.04
517.89	30565.06
518.06	30902.09
518.24	31079.97
518.41	31164.23
518.58	31192.32
518.75	31143.17
518.93	31068.27
519.10	31601.91
519.27	31777.45
519.45	31330.41
519.62	31475.52
519.79	31819.58
519.96	31679.15
520.14	31861.71
520.31	31854.69
520.48	32362.59
520.65	32027.89
520.83	32371.95
521.00	32147.26
521.17	32025.55
521.34	31931.93
521.52	32622.39
521.69	32395.35
521.86	32723.03
522.03	32699.62
522.20	32435.14
522.38	32545.15
522.55	32987.51
522.72	32774.52
522.89	33053.05
523.07	33170.07
523.24	32938.36
523.41	33385.40
523.58	33003.89
523.75	32975.81
523.92	33244.97
524.10	33240.29
524.27	32964.10
524.44	33642.86
524.61	33745.84
524.78	33692.01
524.96	33802.02
525.13	33551.58
525.30	33603.07
525.47	33919.04
525.64	33668.61
525.81	34202.25
525.98	34125.01
526.16	34132.03
526.33	33956.49
526.50	34513.54
526.67	34089.90
526.84	34225.65
527.01	33923.72
527.18	34448.00
527.36	34396.51
527.53	34693.76
527.70	34646.95
527.87	34602.48
528.04	34148.42
528.21	34639.93
528.38	34649.29
528.55	35002.71
528.72	34761.64
528.89	35072.93
529.07	34773.34
529.24	34394.17
529.41	35086.97
529.58	34899.73
529.75	34616.52
529.92	35122.08
530.09	35185.27
530.26	35218.04
530.43	35168.89
530.60	35037.82
530.77	35351.45
530.94	35915.52
531.11	35393.58
531.28	35452.09
531.46	35665.08
531.63	35737.64
531.80	35835.94
531.97	35903.82
532.14	35735.30
532.31	35484.86
532.48	36011.48
532.65	35824.24
532.82	35735.30
532.99	36011.48
533.16	36067.66
533.33	36130.85
533.50	36435.12
533.67	36149.57
533.84	35992.76
534.01	35955.31
534.18	36203.41
534.35	36481.93
534.52	36524.06
534.69	36804.92
534.86	36804.92
535.03	36072.34
535.20	36531.08
535.37	36348.52
535.54	36589.59
535.71	36458.52
535.88	36891.52
536.05	37083.45
536.22	36914.93
536.38	36755.77
536.55	37174.73
536.72	37331.54
536.89	36903.23
537.06	36875.14
537.23	37001.53
537.40	37160.69
537.57	36577.89
537.74	37029.62
537.91	37399.42
538.08	37312.82
538.25	37249.63
538.42	37453.25
538.59	37783.27
538.75	37053.02
538.92	37020.25
539.09	37694.33
539.26	37834.76
539.43	37874.55
539.60	38101.58
539.77	37947.11
539.94	38178.82
540.11	37748.16
540.28	38080.52
540.44	37893.27
540.61	37809.01
540.78	37603.05
540.95	38115.62
541.12	37724.75
541.29	37942.42
541.46	38284.14
541.62	37860.51
541.79	38012.64
541.96	38094.56
542.13	38216.27
542.30	38380.10
542.47	38387.13
542.63	38974.60
542.80	38218.61
542.97	38820.13
543.14	39288.23
543.31	38735.87
543.48	38492.45
543.64	39096.31
543.81	39131.42
543.98	39349.09
544.15	39318.66
544.32	39257.81
544.48	39615.91
544.65	38969.92
544.82	38665.65
544.99	38824.81
545.16	39049.50
545.32	39346.75
545.49	39089.29
545.66	39517.60
545.83	39459.09
546.00	39400.58
546.16	39154.82
546.33	39054.18
546.50	39171.21
546.67	39599.52
546.83	39098.65
547.00	39660.38
547.17	39414.62
547.34	39632.29
547.50	39789.11
547.67	40006.78
547.84	39714.21
548.00	39988.05
548.17	40271.26
548.34	40030.18
548.51	40084.01
548.67	39915.50
548.84	39962.31
549.01	40170.61
549.18	40130.83
549.34	39721.23
549.51	39906.13
549.68	39995.07
549.84	39878.05
550.01	40364.88
550.18	40187.00
550.34	40023.16
550.51	40453.82
550.68	40477.22
550.84	40151.89
551.01	40133.17
551.18	40058.27
551.34	39992.73
551.51	40666.81
551.68	40708.94
551.84	40559.14
552.01	40371.90
552.18	40584.89
552.34	40781.49
552.51	40573.19
552.68	40325.09
552.84	40465.52
553.01	40877.46
553.18	40638.72
553.34	40657.45
553.51	40861.07
553.67	40851.71
553.84	41308.11
554.01	40842.35
554.17	41071.72
554.34	40390.62
554.51	40994.48
554.67	41090.44
554.84	40999.16
555.00	41216.83
555.17	41029.59
555.33	40875.12
555.50	40842.35
555.67	40671.49
555.83	40776.81
556.00	41116.19
556.16	41968.15
556.33	41022.57
556.50	41280.03
556.66	41024.91
556.83	41228.54
556.99	41715.37
557.16	41525.78
557.32	41455.57
557.49	41345.56
557.65	41001.50
557.82	41099.81
557.98	41041.29
558.15	41413.44
558.32	41392.37
558.48	41542.17
558.65	41773.88
558.81	42036.02
558.98	41500.04
559.14	41558.55
559.31	41596.00
559.47	41525.78
559.64	41631.11
559.80	41965.81
559.97	41638.13
560.13	41766.86
560.30	41647.49
560.46	41673.24
560.63	41542.17
560.79	41804.31
560.96	42026.66
561.12	41640.47
561.29	41331.52
561.45	41928.36
561.61	41996.23
561.78	41635.79
561.94	41886.23
562.11	41759.84
562.27	41942.40
562.44	41436.84
562.60	42096.88
562.77	41979.85
562.93	41865.16
563.10	42649.24
563.26	41722.39
563.42	42232.63
563.59	42068.79
563.75	42277.10
563.92	42267.73
564.08	41743.45
564.24	42000.91
564.41	42131.98
564.57	42085.17
564.74	41986.87
564.90	42380.08
565.07	42415.19
565.23	42520.51
565.39	42534.56
565.56	42139.00
565.72	42078.15
565.88	41808.99
566.05	41853.46
566.21	41961.12
566.38	42101.56
566.54	42256.03
566.70	42616.47
566.87	42256.03
567.03	42054.75
567.19	42485.40
567.36	41951.76
567.52	42267.73
567.68	42157.73
567.85	41844.10
568.01	42178.79
568.17	42335.61
568.34	42384.76
568.50	42438.59
568.66	42054.75
568.83	42522.85
568.99	42260.71
569.15	41776.22
569.32	42366.04
569.48	41914.31
569.64	42635.20
569.81	41991.55
569.97	42288.80
570.13	42838.83
570.30	42241.99
570.46	42054.75
570.62	42454.98
570.78	42190.50
570.95	42136.66
571.11	42611.79
571.27	42288.80
571.43	42103.90
571.60	42274.76
571.76	42211.56
571.92	42918.40
572.09	42579.03
572.25	42452.64
572.41	42473.70
572.57	42665.63
572.74	42990.96
572.90	42239.65
573.06	42211.56
573.22	42773.29
573.38	41930.70
573.55	42295.82
573.71	42775.63
573.87	43007.34
574.03	42351.99
574.20	42660.94
574.36	42775.63
574.52	42799.04
574.68	42501.79
574.84	42731.16
575.01	42548.60
575.17	42696.05
575.33	42305.18
575.49	42405.83
575.65	42864.57
575.82	43243.74
575.98	42515.83
576.14	42827.12
576.30	42546.26
576.46	42703.07
576.62	42366.04
576.79	42525.19
576.95	42270.08
577.11	42389.44
577.27	42806.06
577.43	42766.27
577.59	42590.73
577.75	42375.40
577.92	42040.70
578.08	42677.33
578.24	42422.21
578.40	42183.48
578.56	42485.40
578.72	42457.32
578.88	42944.15
579.04	43199.27
579.21	42244.33
579.37	42312.20
579.53	42614.13
579.69	41893.25
579.85	42122.62
580.01	42740.52
580.17	42029.00
580.33	42749.88
580.49	42583.71
580.65	42628.18
580.82	43049.47
580.98	42721.80
581.14	42682.01
581.30	42726.48
581.46	42190.50
581.62	42543.92
581.78	42234.97
581.94	42806.06
582.10	42604.77
582.26	42639.88
582.42	42878.61
582.58	42525.19
582.74	42679.67
582.90	42490.09
583.06	42593.07
583.22	43005.00
583.38	42859.89
583.54	42859.89
583.70	42649.24
583.86	42588.39
584.02	42614.13
584.18	43019.05
584.34	42389.44
584.50	42834.14
584.66	43044.79
584.82	42150.71
584.98	42454.98
585.14	42691.37
585.30	42749.88
585.46	42548.60
585.62	42518.17
585.78	42520.51
585.94	42522.85
586.10	42887.98
586.26	42534.56
586.42	43014.37
586.58	42792.01
586.74	42630.52
586.90	42529.87
587.06	42167.09
587.22	43157.14
587.38	42848.19
587.54	42939.47
587.70	43040.11
587.86	42518.17
588.02	42878.61
588.18	42766.27
588.34	42707.76
588.49	43220.33
588.65	42838.83
588.81	42485.40
588.97	43246.08
589.13	42487.74
589.29	42543.92
589.45	42944.15
589.61	42918.40
589.77	43185.22
589.93	42632.86
590.08	43299.91
590.24	43463.75
590.40	42763.93
590.56	42965.21
590.72	42845.85
590.88	42569.66
591.04	42967.55
