SpectraSuite Data File
++++++++++++++++++++++++++++++++++++
Date: Fri Oct 04 11:48:42 GMT-05:00 2013
User: price-jones
Dark Spectrum Present: No
Reference Spectrum Present: No
Number of Sampled Component Spectra: 1
Spectrometers: USB2+H05261
Integration Time (usec): 100000 (USB2+H05261)
Spectra Averaged: 1 (USB2+H05261)
Boxcar Smoothing: 0 (USB2+H05261)
Correct for Electrical Dark: No (USB2+H05261)
Strobe/Lamp Enabled: No (USB2+H05261)
Correct for Detector Non-linearity: No (USB2+H05261)
Correct for Stray Light: No (USB2+H05261)
Number of Pixels in Processed Spectrum: 2048
>>>>>Begin Processed Spectral Data<<<<<
365.73	51.49
365.92	51.49
366.12	51.49
366.32	0.00
366.52	0.00
366.72	0.00
366.91	0.00
367.11	0.00
367.31	0.00
367.51	0.00
367.70	0.00
367.90	0.00
368.10	0.00
368.30	0.00
368.49	0.00
368.69	0.00
368.89	0.00
369.09	0.00
369.28	0.00
369.48	0.00
369.68	0.00
369.87	4.68
370.07	0.00
370.27	84.26
370.47	30.43
370.66	72.56
370.86	100.64
371.06	133.41
371.25	231.71
371.45	117.03
371.65	196.60
371.84	119.37
372.04	203.63
372.24	42.13
372.44	177.88
372.63	131.07
372.83	196.60
373.03	236.39
373.22	196.60
373.42	149.79
373.62	215.33
373.81	222.35
374.01	168.52
374.21	180.22
374.40	264.48
374.60	184.90
374.79	266.82
374.99	170.86
375.19	229.37
375.38	252.78
375.58	201.29
375.78	245.76
375.97	191.92
376.17	177.88
376.37	222.35
376.56	229.37
376.76	334.70
376.95	168.52
377.15	257.46
377.35	236.39
377.54	205.97
377.74	177.88
377.93	229.37
378.13	175.54
378.33	236.39
378.52	205.97
378.72	234.05
378.91	290.23
379.11	220.01
379.31	222.35
379.50	198.95
379.70	154.48
379.89	196.60
380.09	187.24
380.28	212.99
380.48	140.43
380.68	205.97
380.87	175.54
381.07	318.31
381.26	252.78
381.46	227.03
381.65	297.25
381.85	243.42
382.04	290.23
382.24	152.13
382.43	191.92
382.63	220.01
382.83	248.10
383.02	311.29
383.22	252.78
383.41	187.24
383.61	245.76
383.80	238.73
384.00	315.97
384.19	220.01
384.39	196.60
384.58	283.20
384.78	255.12
384.97	278.52
385.17	278.52
385.36	271.50
385.56	283.20
385.75	198.95
385.95	322.99
386.14	229.37
386.34	283.20
386.53	255.12
386.72	287.89
386.92	301.93
387.11	322.99
387.31	304.27
387.50	255.12
387.70	252.78
387.89	280.86
388.09	224.69
388.28	271.50
388.48	292.57
388.67	234.05
388.86	339.38
389.06	334.70
389.25	318.31
389.45	304.27
389.64	248.10
389.84	264.48
390.03	362.78
390.22	334.70
390.42	365.12
390.61	390.87
390.81	327.68
391.00	353.42
391.19	383.85
391.39	341.72
391.58	395.55
391.78	294.91
391.97	430.66
392.16	315.97
392.36	386.19
392.55	304.27
392.75	381.51
392.94	397.89
393.13	367.46
393.33	372.15
393.52	306.61
393.71	355.76
393.91	386.19
394.10	332.36
394.29	400.23
394.49	369.80
394.68	407.25
394.88	388.53
395.07	461.09
395.26	451.72
395.46	435.34
395.65	376.83
395.84	390.87
396.04	587.47
396.23	514.92
396.42	437.68
396.62	451.72
396.81	477.47
397.00	463.43
397.19	449.38
397.39	440.02
397.58	496.19
397.77	479.81
397.97	524.28
398.16	524.28
398.35	430.66
398.55	421.30
398.74	543.00
398.93	683.44
399.12	472.79
399.32	566.41
399.51	531.30
399.70	540.66
399.90	620.24
400.09	547.69
400.28	606.20
400.47	596.84
400.67	634.29
400.86	622.58
401.05	552.37
401.24	627.26
401.44	690.46
401.63	585.13
401.82	653.01
402.01	603.86
402.21	610.88
402.40	594.50
402.59	730.25
402.78	683.44
402.97	676.41
403.17	692.80
403.36	746.63
403.55	713.86
403.74	671.73
403.93	744.29
404.13	788.76
404.32	732.59
404.51	765.36
404.70	734.93
404.89	681.10
405.09	779.40
405.28	837.91
405.47	844.93
405.66	887.06
405.85	718.54
406.05	889.40
406.24	830.89
406.43	800.46
406.62	880.04
406.81	919.83
407.00	781.74
407.20	884.72
407.39	954.94
407.58	938.55
407.77	966.64
407.96	1008.77
408.15	1090.69
408.34	896.43
408.54	994.73
408.73	1057.92
408.92	1114.10
409.11	1020.47
409.30	1102.39
409.49	1025.15
409.68	1083.67
409.87	966.64
410.07	1160.91
410.26	1123.46
410.45	1102.39
410.64	1214.74
410.83	1233.46
411.02	1177.29
411.21	1277.93
411.40	1238.14
411.59	1153.88
411.78	1149.20
411.98	1198.35
412.17	1205.38
412.36	1242.82
412.55	1345.81
412.74	1397.30
412.93	1310.70
413.12	1282.61
413.31	1373.89
413.50	1336.45
413.69	1434.75
413.88	1439.43
414.07	1511.99
414.26	1542.41
414.45	1486.24
414.64	1453.47
414.83	1533.05
415.02	1521.35
415.22	1657.10
415.41	1638.38
415.60	1619.65
415.79	1519.01
415.98	1643.06
416.17	1579.86
416.36	1727.32
416.55	1710.93
416.74	1774.13
416.93	1708.59
417.12	1680.50
417.31	1771.79
417.50	1863.07
417.69	1760.08
417.88	1853.70
418.07	1722.63
418.26	1923.92
418.45	1872.43
418.64	1989.46
418.83	1853.70
419.02	1886.47
419.21	1849.02
419.39	1947.33
419.58	1928.60
419.77	1893.49
419.96	1991.80
420.15	1966.05
420.34	1888.81
420.53	1994.14
420.72	1994.14
420.91	1961.37
421.10	2019.88
421.29	2029.24
421.48	2024.56
421.67	2111.16
421.86	1944.99
422.05	2062.01
422.24	2012.86
422.43	2127.55
422.61	2120.53
422.80	2155.63
422.99	2066.69
423.18	2066.69
423.37	2195.42
423.56	2291.38
423.75	2146.27
423.94	2129.89
424.13	1954.35
424.32	2005.84
424.50	2204.78
424.69	2326.49
424.88	2244.57
425.07	2143.93
425.26	2045.63
425.45	2197.76
425.64	2193.08
425.83	2216.49
426.01	2246.91
426.20	2172.02
426.39	2073.71
426.58	2122.87
426.77	2080.74
426.96	2277.34
427.15	2270.32
427.33	2328.83
427.52	2265.64
427.71	2275.00
427.90	2256.28
428.09	2284.36
428.28	2314.79
428.46	2282.02
428.65	2448.20
428.84	2511.39
429.03	2387.35
429.22	2314.79
429.40	2389.69
429.59	2380.32
429.78	2305.43
429.97	2338.20
430.16	2310.11
430.34	2403.73
430.53	2406.07
430.72	2399.05
430.91	2396.71
431.10	2466.92
431.28	2511.39
431.47	2518.42
431.66	2612.04
431.85	2473.95
432.03	2532.46
432.22	2602.68
432.41	2546.50
432.60	2691.62
432.79	2619.06
432.97	2670.55
433.16	2668.21
433.35	2724.38
433.54	2736.09
433.72	2726.72
433.91	2658.85
434.10	2738.43
434.28	2656.51
434.47	2722.04
434.66	2740.77
434.85	2808.64
435.03	2764.17
435.22	2808.64
435.41	2789.92
435.59	2803.96
435.78	2670.55
435.97	2906.95
436.16	2715.02
436.34	2700.98
436.53	2925.67
436.72	3033.33
436.90	2796.94
437.09	2911.63
437.28	2864.82
437.46	2857.79
437.65	2899.92
437.84	2937.37
438.02	2988.86
438.21	2871.84
438.40	2902.26
438.58	3096.53
438.77	2986.52
438.96	3124.62
439.14	3080.14
439.33	3012.27
439.52	3131.64
439.70	3229.94
439.89	3346.97
440.08	3159.72
440.26	3290.79
440.45	3176.11
440.63	3260.37
440.82	3368.03
441.01	3321.22
441.19	3414.84
441.38	3407.82
441.57	3400.80
441.75	3349.31
441.94	3452.29
442.12	3454.63
442.31	3616.13
442.50	3513.14
442.68	3459.31
442.87	3538.89
443.05	3583.36
443.24	3693.37
443.43	3646.55
443.61	3597.40
443.80	3667.62
443.98	3604.42
444.17	3618.47
444.35	3557.61
444.54	3667.62
444.73	3716.77
444.91	3824.44
445.10	3578.68
445.28	3686.34
445.47	3588.04
445.65	3583.36
445.84	3599.74
446.02	3786.99
446.21	3660.60
446.39	3466.33
446.58	3712.09
446.77	3770.60
446.95	3641.87
447.14	3581.02
447.32	3803.37
447.51	3749.54
447.69	3714.43
447.88	3660.60
448.06	3831.46
448.25	3637.19
448.43	3700.39
448.62	3623.15
448.80	3850.18
448.99	3829.12
449.17	3763.58
449.36	3817.41
449.54	3887.63
449.73	3864.22
449.91	3854.86
450.10	3927.42
450.28	3943.80
450.46	3997.64
450.65	3978.91
450.83	3971.89
451.02	3960.19
451.20	4007.00
451.39	4039.76
451.57	3962.53
451.76	3934.44
451.94	3934.44
452.13	3969.55
452.31	4009.34
452.49	3953.16
452.68	4032.74
452.86	4032.74
453.05	4100.62
453.23	3995.29
453.42	3988.27
453.60	4109.98
453.78	4196.58
453.97	4147.43
454.15	4098.28
454.34	4133.39
454.52	4124.02
454.70	4248.07
454.89	4266.80
455.07	4294.88
455.26	4243.39
455.44	4461.06
455.62	4217.65
455.81	4311.27
455.99	4386.16
456.17	4294.88
456.36	4451.70
456.54	4381.48
456.73	4477.44
456.91	4482.13
457.09	4615.54
457.28	4461.06
457.46	4489.15
457.64	4622.56
457.83	4601.49
458.01	4564.04
458.19	4622.56
458.38	4622.56
458.56	4737.24
458.74	4641.28
458.93	4629.58
459.11	4674.05
459.29	4608.51
459.48	4589.79
459.66	4601.49
459.84	4748.95
460.03	4887.04
460.21	4727.88
460.39	4767.67
460.57	4837.89
460.76	4798.10
460.94	4802.78
461.12	4819.16
461.31	4830.87
461.49	4875.34
461.67	4709.16
461.85	4943.21
462.04	4936.19
462.22	5348.12
462.40	5060.24
462.59	5013.43
462.77	5078.96
462.95	5046.20
463.13	5043.85
463.32	4997.04
463.50	5043.85
463.68	4992.36
463.86	5153.86
464.05	5053.22
464.23	5057.90
464.41	5067.26
464.59	5041.51
464.78	5111.73
464.96	5125.77
465.14	5085.98
465.32	5270.89
465.50	5172.58
465.69	5364.51
465.87	5401.96
466.05	5329.40
466.23	5238.12
466.41	5425.36
466.60	5310.68
466.78	5235.78
466.96	5317.70
467.14	5376.21
467.32	5434.72
467.51	5366.85
467.69	5294.29
467.87	5432.38
468.05	5432.38
468.23	5336.42
468.41	5336.42
468.60	5343.44
468.78	5647.71
468.96	5394.93
469.14	5394.93
469.32	5558.77
469.50	5350.46
469.69	5537.71
469.87	5715.59
470.05	5647.71
470.23	5549.41
470.41	5575.16
470.59	5551.75
470.77	5650.05
470.95	5762.40
471.14	5818.57
471.32	5645.37
471.50	5844.32
471.68	5757.72
471.86	5991.77
472.04	5792.83
472.22	6064.33
472.40	5823.25
472.58	5916.87
472.77	5891.13
472.95	6125.18
473.13	6214.12
473.31	6108.80
473.49	6054.97
473.67	6106.46
473.85	6101.78
474.03	6111.14
474.21	6066.67
474.39	6160.29
474.57	6457.54
474.75	6600.31
474.93	6506.69
475.12	6260.93
475.30	6551.16
475.48	6483.28
475.66	6551.16
475.84	6436.47
476.02	6581.59
476.20	6438.81
476.38	6628.40
476.56	6867.13
476.74	6885.86
476.92	6799.26
477.10	6801.60
477.28	6974.80
477.46	6939.69
477.64	7005.22
477.82	7042.67
478.00	7110.55
478.18	7265.02
478.36	7192.47
478.54	7220.55
478.72	7316.51
478.90	7445.24
479.08	7414.82
479.26	7522.48
479.44	7332.90
479.62	7508.44
479.80	7595.04
479.98	7721.43
480.16	7606.74
480.34	7812.71
480.52	7871.22
480.70	7983.57
480.88	7896.97
481.06	7978.89
481.24	7899.31
481.41	8044.42
481.59	8311.24
481.77	8142.72
481.95	8294.86
482.13	8336.99
482.31	8203.58
482.49	8568.70
482.67	8383.80
482.85	8662.32
483.03	8739.56
483.21	8877.65
483.39	8727.86
483.57	8812.12
483.74	8973.61
483.92	9029.79
484.10	8877.65
484.28	9128.09
484.46	9317.67
484.64	9317.67
484.82	9039.15
485.00	9404.27
485.18	9495.55
485.35	9614.92
485.53	9675.77
485.71	9493.21
485.89	9757.69
486.07	9769.40
486.25	9886.42
486.43	10057.28
486.61	9895.78
486.78	10122.82
486.96	10174.31
487.14	10249.21
487.32	10260.91
487.50	10333.47
487.68	10345.17
487.85	10595.61
488.03	10431.77
488.21	10733.70
488.39	10740.72
488.57	10946.69
488.75	10995.84
488.92	11117.54
489.10	11232.23
489.28	11276.70
489.46	11211.17
489.64	11447.56
489.81	11524.80
489.99	11463.94
490.17	11611.40
490.35	11875.88
490.53	11772.89
490.70	11913.33
490.88	11730.76
491.06	11962.48
491.24	11960.14
491.41	12095.89
491.59	12194.19
491.77	12152.06
491.95	12353.35
492.13	12315.90
492.30	12421.22
492.48	12528.89
492.66	12493.78
492.84	12599.10
493.01	12613.15
493.19	12865.92
493.37	12830.82
493.54	13029.76
493.72	13160.83
493.90	13174.88
494.08	13139.77
494.25	13282.54
494.43	13731.92
494.61	13270.84
494.79	13605.53
494.96	13532.98
495.14	13448.72
495.32	13411.27
495.49	13797.46
495.67	13790.44
495.85	13919.17
496.02	14286.63
496.20	13994.06
496.38	14141.52
496.55	13954.27
496.73	14565.15
496.91	14516.00
497.09	14527.71
497.26	14764.10
497.44	14401.32
497.62	14757.08
497.79	14700.90
497.97	14728.99
498.14	15044.96
498.32	14862.40
498.50	14958.36
498.67	15096.46
498.85	15393.70
499.03	15234.55
499.20	14979.43
499.38	15325.83
499.56	15356.25
499.73	15690.95
499.91	15658.18
500.08	15660.52
500.26	15576.27
500.44	15740.10
500.61	15669.89
500.79	15557.54
500.97	15639.46
501.14	16203.53
501.32	16030.33
501.49	16236.30
501.67	16042.03
501.84	16079.48
502.02	15981.18
502.20	16339.28
502.37	16269.06
502.55	16102.89
502.72	16269.06
502.90	16486.73
503.07	16681.00
503.25	16449.28
503.43	16409.50
503.60	16783.98
503.78	16716.11
503.95	16753.55
504.13	16837.81
504.30	16901.01
504.48	16886.97
504.65	16959.52
504.83	17177.19
505.01	16985.27
505.18	17322.30
505.36	17411.25
505.53	17247.41
505.71	17057.82
505.88	17364.43
506.06	17593.81
506.23	17523.59
506.41	17570.40
506.58	17781.05
506.76	17701.47
506.93	17731.90
507.11	17839.56
507.28	17799.77
507.46	17738.92
507.63	17671.04
507.81	18169.58
507.98	17811.48
508.16	17769.35
508.33	18090.00
508.50	18141.49
508.68	18782.80
508.85	18654.07
509.03	18361.50
509.20	18534.70
509.38	18654.07
509.55	19044.94
509.73	18820.25
509.90	18948.98
510.08	18836.63
510.25	18588.53
510.42	18555.77
510.60	18932.59
510.77	19222.82
510.95	19246.23
511.12	19051.96
511.30	19012.17
511.47	19222.82
511.64	19019.19
511.82	19480.28
511.99	19344.53
512.17	19393.68
512.34	19452.19
512.51	19122.18
512.69	19405.38
512.86	19754.12
513.04	19571.56
513.21	19803.27
513.38	20133.29
513.56	19868.81
513.73	19906.26
513.90	20006.90
514.08	19803.27
514.25	20250.32
514.43	20173.08
514.60	19859.45
514.77	20077.12
514.95	20376.70
515.12	20053.71
515.29	20332.23
515.47	20329.89
515.64	20421.17
515.81	20453.94
515.99	20678.63
516.16	20608.42
516.33	20432.88
516.51	21013.33
516.68	20744.17
516.85	20931.41
517.03	20755.87
517.20	20456.28
517.37	20898.64
517.54	21090.57
517.72	20870.56
517.89	20968.86
518.06	20926.73
518.24	20917.37
518.41	21209.93
518.58	20922.05
518.75	21106.95
518.93	21642.93
519.10	21296.53
519.27	21476.76
519.45	21717.83
519.62	21855.92
519.79	21160.78
519.96	21404.20
520.14	21846.56
520.31	21607.83
520.48	21825.50
520.65	22033.80
520.83	22176.58
521.00	21881.67
521.17	21970.61
521.34	21872.31
521.52	22167.21
521.69	22132.11
521.86	21923.80
522.03	22340.41
522.20	22143.81
522.38	22429.35
522.55	22263.18
522.72	22532.34
522.89	22251.47
523.07	22607.23
523.24	22909.16
523.41	22752.35
523.58	22415.31
523.75	22537.02
523.92	22586.17
524.10	22249.13
524.27	22817.88
524.44	23164.28
524.61	23089.38
524.78	22864.69
524.96	22761.71
525.13	23014.49
525.30	23374.93
525.47	23070.66
525.64	22923.21
525.81	23187.69
525.98	23391.31
526.16	23208.75
526.33	22794.48
526.50	23218.11
526.67	23033.21
526.84	23304.71
527.01	23309.40
527.18	23314.08
527.36	23473.23
527.53	23171.30
527.70	23601.96
527.87	23948.36
528.04	23770.48
528.21	23639.41
528.38	23379.61
528.55	23522.38
528.72	23545.79
528.89	23585.58
529.07	23845.38
529.24	23417.06
529.41	24088.79
529.58	23868.78
529.75	23538.77
529.92	23974.11
530.09	23889.85
530.26	23955.38
530.43	23917.93
530.60	23871.12
530.77	23939.00
530.94	24308.80
531.11	23758.78
531.28	24247.95
531.46	24226.89
531.63	24027.94
531.80	24194.12
531.97	24486.68
532.14	24058.37
532.31	24589.67
532.48	24435.19
532.65	24435.19
532.82	24493.71
532.99	24732.44
533.16	24549.88
533.33	24648.18
533.50	24786.27
533.67	24748.82
533.84	24615.41
534.01	24666.91
534.18	24606.05
534.35	25015.65
534.52	24538.18
534.69	24826.06
534.86	25034.37
535.03	25099.90
535.20	24877.55
535.37	24814.36
535.54	25034.37
535.71	24905.64
535.88	24875.21
536.05	24865.85
536.22	24896.28
536.38	24931.39
536.55	25230.98
536.72	25535.24
536.89	24917.34
537.06	25198.21
537.23	25766.96
537.40	25027.35
537.57	25268.42
537.74	25273.10
537.91	25694.40
538.08	25399.49
538.25	25579.71
538.42	25577.37
538.59	25502.48
538.75	25317.57
538.92	25429.92
539.09	25694.40
539.26	25397.15
539.43	25614.82
539.60	25659.29
539.77	25736.53
539.94	26068.89
540.11	25708.44
540.28	26012.71
540.44	25759.94
540.61	25432.26
540.78	25663.97
540.95	26024.42
541.12	26082.93
541.29	25778.66
541.46	26008.03
541.62	26094.63
541.79	26012.71
541.96	25776.32
542.13	25930.80
542.30	25930.80
542.47	26260.81
542.63	26043.14
542.80	26139.10
542.97	26356.77
543.14	26618.91
543.31	26307.62
543.48	26663.38
543.64	26752.32
543.81	26665.72
543.98	26597.85
544.15	26696.15
544.32	26962.97
544.48	26864.67
544.65	26778.07
544.82	26609.55
544.99	26609.55
545.16	26820.20
545.32	26838.92
545.49	27061.27
545.66	26977.01
545.83	26710.19
546.00	26967.65
546.16	27014.46
546.33	26731.26
546.50	26490.18
546.67	27028.51
546.83	26450.39
547.00	26560.40
547.17	26867.01
547.34	26988.72
547.50	26958.29
547.67	27241.50
547.84	27173.62
548.00	27314.05
548.17	27351.50
548.34	27080.00
548.51	27185.32
548.67	27190.00
548.84	27632.36
549.01	27538.74
549.18	27377.25
549.34	27002.76
549.51	27307.03
549.68	27260.22
549.84	27248.52
550.01	27358.52
550.18	27508.32
550.34	27557.47
550.51	27690.88
550.68	28044.30
550.84	27510.66
551.01	27433.42
551.18	27180.64
551.34	27421.72
551.51	27515.34
551.68	27613.64
551.84	27688.54
552.01	27300.01
552.18	27768.12
552.34	27468.53
552.51	27386.61
552.68	27718.96
552.84	27885.14
553.01	27789.18
553.18	27971.74
553.34	27639.39
553.51	27852.38
553.67	27985.79
553.84	28128.56
554.01	27756.41
554.17	27899.19
554.34	28072.39
554.51	28086.43
554.67	27508.32
554.84	27894.50
555.00	28371.97
555.17	27906.21
555.33	27985.79
555.50	27819.61
555.67	28065.36
555.83	27974.08
556.00	27955.36
556.16	28299.42
556.33	27971.74
556.50	28357.93
556.66	27878.12
556.83	27983.44
556.99	28313.46
557.16	28437.51
557.32	28311.12
557.49	28304.10
557.65	28025.57
557.82	27784.50
557.98	27943.66
558.15	28238.56
558.32	28364.95
558.48	28147.28
558.65	28606.03
558.81	28308.78
558.98	28180.05
559.14	28554.54
559.31	27765.78
559.47	28304.10
559.64	28343.89
559.80	28383.68
559.97	28732.42
560.13	28224.52
560.30	28673.90
560.46	28224.52
560.63	28283.03
560.79	28252.61
560.96	28458.57
561.12	28451.55
561.29	28229.20
561.45	28247.93
561.61	28210.48
561.78	28130.90
561.94	28369.63
562.11	28245.58
562.27	28158.99
562.44	28503.04
562.60	28280.69
562.77	28151.96
562.93	28285.37
563.10	28952.43
563.26	28414.10
563.42	28629.43
563.59	28514.75
563.75	28386.02
563.92	28657.52
564.08	28549.85
564.24	28463.25
564.41	28226.86
564.57	28493.68
564.74	28189.41
564.90	28795.61
565.07	28744.12
565.23	28645.82
565.39	28844.76
565.56	28425.81
565.72	28449.21
565.88	28540.49
566.05	28910.30
566.21	28322.82
566.38	28755.82
566.54	28554.54
566.70	28952.43
566.87	28877.53
567.03	28680.92
567.19	28940.72
567.36	28474.96
567.52	28823.70
567.68	29130.31
567.85	28573.26
568.01	28687.95
568.17	28718.37
568.34	28599.01
568.50	28856.46
568.66	29032.00
568.83	28954.77
568.99	28620.07
569.15	28800.29
569.32	28477.30
569.48	28123.88
569.64	28648.16
569.81	28615.39
569.97	28669.22
570.13	28907.96
570.30	28425.81
570.46	29303.51
570.62	28858.81
570.78	28755.82
570.95	28432.83
571.11	28753.48
571.27	28641.14
571.43	28835.40
571.60	28671.56
571.76	28922.00
571.92	28870.51
572.09	29144.35
572.25	28940.72
572.41	28851.78
572.57	28723.05
572.74	29062.43
572.90	28811.99
573.06	28891.57
573.22	28680.92
573.38	28790.93
573.55	28992.22
573.71	28929.02
573.87	28966.47
574.03	28741.78
574.20	28739.44
574.36	28669.22
574.52	28765.18
574.68	28725.39
574.84	28802.63
575.01	29071.79
575.17	29006.26
575.33	28931.36
575.49	28856.46
575.65	28898.59
575.82	28905.62
575.98	29130.31
576.14	28924.34
576.30	28940.72
576.46	28854.12
576.62	28868.17
576.79	28877.53
576.95	28767.52
577.11	29050.73
577.27	28964.13
577.43	28943.06
577.59	28819.02
577.75	28931.36
577.92	28678.58
578.08	28872.85
578.24	28676.24
578.40	29249.67
578.56	29003.92
578.72	28594.32
578.88	29228.61
579.04	29364.36
579.21	28868.17
579.37	28713.69
579.53	29221.59
579.69	28498.36
579.85	28870.51
580.01	29060.09
580.17	28826.04
580.33	28624.75
580.49	29060.09
580.65	29518.84
580.82	29294.14
580.98	29001.58
581.14	28730.08
581.30	29584.37
581.46	28854.12
581.62	28933.70
581.78	28851.78
581.94	29036.69
582.10	28758.16
582.26	29008.60
582.42	29284.78
582.58	29113.92
582.74	29170.10
582.90	28884.55
583.06	29165.42
583.22	29132.65
583.38	28683.27
583.54	28687.95
583.70	28896.25
583.86	28783.91
584.02	28989.88
584.18	28720.71
584.34	29071.79
584.50	29256.70
584.66	28985.19
584.82	28971.15
584.98	29088.18
585.14	29069.45
585.30	29003.92
585.46	28659.86
585.62	28978.17
585.78	29102.22
585.94	29015.62
586.10	28931.36
586.26	29146.69
586.42	29149.03
586.58	29186.48
586.74	29074.13
586.90	28922.00
587.06	28870.51
587.22	29268.40
587.38	28943.06
587.54	29048.39
587.70	29383.09
587.86	28980.51
588.02	29315.21
588.18	29263.72
588.34	29336.27
588.49	28905.62
588.65	28910.30
588.81	28896.25
588.97	28940.72
589.13	29244.99
589.29	29071.79
589.45	29008.60
589.61	28910.30
589.77	29387.77
589.93	29116.26
590.08	29294.14
590.24	29116.26
590.40	29214.57
590.56	29357.34
590.72	28828.38
590.88	28982.85
591.04	29170.10
591.20	29546.92
591.35	29472.03
591.51	29418.19
591.67	29315.21
591.83	29411.17
591.99	29125.63
