SpectraSuite Data File
++++++++++++++++++++++++++++++++++++
Date: Fri Oct 04 11:48:46 GMT-05:00 2013
User: price-jones
Dark Spectrum Present: No
Reference Spectrum Present: No
Number of Sampled Component Spectra: 1
Spectrometers: USB2+H05261
Integration Time (usec): 100000 (USB2+H05261)
Spectra Averaged: 1 (USB2+H05261)
Boxcar Smoothing: 0 (USB2+H05261)
Correct for Electrical Dark: No (USB2+H05261)
Strobe/Lamp Enabled: No (USB2+H05261)
Correct for Detector Non-linearity: No (USB2+H05261)
Correct for Stray Light: No (USB2+H05261)
Number of Pixels in Processed Spectrum: 2048
>>>>>Begin Processed Spectral Data<<<<<
365.73	102.98
365.92	102.98
366.12	102.98
366.32	0.00
366.52	0.00
366.72	0.00
366.91	0.00
367.11	0.00
367.31	0.00
367.51	0.00
367.70	0.00
367.90	0.00
368.10	0.00
368.30	0.00
368.49	0.00
368.69	0.00
368.89	0.00
369.09	0.00
369.28	0.00
369.48	0.00
369.68	0.00
369.87	0.00
370.07	0.00
370.27	32.77
370.47	30.43
370.66	294.91
370.86	409.59
371.06	498.53
371.25	430.66
371.45	407.25
371.65	416.62
371.84	414.27
372.04	531.30
372.24	538.32
372.44	538.32
372.63	507.90
372.83	552.37
373.03	475.13
373.22	512.58
373.42	554.71
373.62	620.24
373.81	645.99
374.01	603.86
374.21	638.97
374.40	550.03
374.60	676.41
374.79	638.97
374.99	636.63
375.19	683.44
375.38	617.90
375.58	697.48
375.78	631.94
375.97	688.12
376.17	697.48
376.37	692.80
376.56	755.99
376.76	725.57
376.95	723.23
377.15	695.14
377.35	753.65
377.54	681.10
377.74	631.94
377.93	624.92
378.13	692.80
378.33	606.20
378.52	671.73
378.72	748.97
378.91	641.31
379.11	699.82
379.31	676.41
379.50	753.65
379.70	741.95
379.89	833.23
380.09	748.97
380.28	763.01
380.48	795.78
380.68	793.44
380.87	814.51
381.07	798.12
381.26	873.02
381.46	734.93
381.65	753.65
381.85	826.21
382.04	877.70
382.24	828.55
382.43	901.11
382.63	795.78
382.83	856.64
383.02	929.19
383.22	919.83
383.41	889.40
383.61	961.96
383.80	940.90
384.00	889.40
384.19	926.85
384.39	980.68
384.58	961.96
384.78	971.32
384.97	919.83
385.17	938.55
385.36	1029.84
385.56	922.17
385.75	980.68
385.95	985.37
386.14	945.58
386.34	910.47
386.53	985.37
386.72	992.39
386.92	1022.81
387.11	1123.46
387.31	1015.79
387.50	1064.94
387.70	1078.99
387.89	1100.05
388.09	1057.92
388.28	1081.33
388.48	959.62
388.67	1130.48
388.86	1125.80
389.06	1114.10
389.25	1135.16
389.45	1153.88
389.64	1090.69
389.84	1090.69
390.03	1191.33
390.22	1224.10
390.42	1165.59
390.61	1135.16
390.81	1245.16
391.00	1214.74
391.19	1273.25
391.39	1184.31
391.58	1284.95
391.78	1380.92
391.97	1291.98
392.16	1224.10
392.36	1369.21
392.55	1336.45
392.75	1343.47
392.94	1249.85
393.13	1371.55
393.33	1383.26
393.52	1378.58
393.71	1336.45
393.91	1376.24
394.10	1273.25
394.29	1416.02
394.49	1376.24
394.68	1434.75
394.88	1425.39
395.07	1474.54
395.26	1593.90
395.46	1453.47
395.65	1401.98
395.84	1497.94
396.04	1607.95
396.23	1563.48
396.42	1610.29
396.62	1673.48
396.81	1617.31
397.00	1537.73
397.19	1701.57
397.39	1589.22
397.58	1675.82
397.77	1596.25
397.97	1659.44
398.16	1673.48
398.35	1708.59
398.55	1680.50
398.74	1736.68
398.93	1834.98
399.12	1802.21
399.32	1703.91
399.51	1764.76
399.70	1802.21
399.90	1732.00
400.09	1799.87
400.28	1811.57
400.47	1799.87
400.67	1839.66
400.86	1937.96
401.05	1832.64
401.24	1893.49
401.44	1963.71
401.63	1900.52
401.82	1977.75
402.01	1921.58
402.21	2043.29
402.40	1982.43
402.59	2052.65
402.78	1947.33
402.97	2085.42
403.17	2001.16
403.36	2113.50
403.55	2125.21
403.74	2181.38
403.93	2193.08
404.13	2305.43
404.32	2188.40
404.51	2216.49
404.70	2272.66
404.89	2267.98
405.09	2270.32
405.28	2150.95
405.47	2321.81
405.66	2174.36
405.85	2452.88
406.05	2363.94
406.24	2392.03
406.43	2567.57
406.62	2480.97
406.81	2525.44
407.00	2506.71
407.20	2368.62
407.39	2438.84
407.58	2553.52
407.77	2464.58
407.96	2581.61
408.15	2644.81
408.34	2633.10
408.54	2715.02
408.73	2684.59
408.92	2684.59
409.11	2808.64
409.30	2668.21
409.49	2764.17
409.68	2785.24
409.87	2810.98
410.07	2946.73
410.26	2862.48
410.45	2731.41
410.64	2925.67
410.83	2871.84
411.02	2965.46
411.21	3152.70
411.40	3052.06
411.59	3089.51
411.78	2984.18
411.98	3103.55
412.17	3164.40
412.36	3122.27
412.55	3288.45
412.74	3297.81
412.93	3267.39
413.12	3220.58
413.31	3456.97
413.50	3332.92
413.69	3283.77
413.88	3524.85
414.07	3368.03
414.26	3393.78
414.45	3478.04
414.64	3660.60
414.83	3618.47
415.02	3627.83
415.22	3667.62
415.41	3728.47
415.60	3742.52
415.79	3847.84
415.98	3920.40
416.17	3918.06
416.36	3777.62
416.55	3904.01
416.74	3896.99
416.93	4067.85
417.12	4035.08
417.31	4046.79
417.50	4142.75
417.69	4147.43
417.88	4102.96
418.07	4208.28
418.26	4105.30
418.45	4360.42
418.64	4379.14
418.83	4219.99
419.02	4189.56
419.21	4269.14
419.39	4367.44
419.58	4374.46
419.77	4311.27
419.96	4638.94
420.15	4582.77
420.34	4297.22
420.53	4458.72
420.72	4606.17
420.91	4720.86
421.10	4739.58
421.29	4800.44
421.48	4444.68
421.67	4660.01
421.86	4554.68
422.05	4819.16
422.24	4638.94
422.43	4711.50
422.61	4730.22
422.80	4765.33
422.99	4915.12
423.18	4720.86
423.37	4828.53
423.56	4727.88
423.75	4894.06
423.94	4720.86
424.13	4444.68
424.32	4685.75
424.50	4961.94
424.69	4924.49
424.88	4964.28
425.07	4786.40
425.26	4821.50
425.45	4835.55
425.64	4812.14
425.83	4826.18
426.01	5100.03
426.20	4898.74
426.39	5137.48
426.58	5034.49
426.77	5071.94
426.96	5036.83
427.15	5006.41
427.33	5097.69
427.52	5142.16
427.71	5118.75
427.90	5137.48
428.09	5130.45
428.28	5142.16
428.46	5305.99
428.65	5219.39
428.84	5406.64
429.03	5451.11
429.22	5268.55
429.40	5652.39
429.59	5451.11
429.78	5137.48
429.97	5261.52
430.16	5547.07
430.34	5561.11
430.53	5729.63
430.72	5493.24
430.91	5469.83
431.10	5628.99
431.28	5509.62
431.47	5724.95
431.66	5865.38
431.85	5617.29
432.03	5928.58
432.22	5888.79
432.41	5886.45
432.60	5680.48
432.79	5685.16
432.97	5893.47
433.16	5736.65
433.35	5881.77
433.54	6008.16
433.72	5905.17
433.91	5935.60
434.10	5991.77
434.28	5968.37
434.47	6200.08
434.66	6164.97
434.85	6029.22
435.03	6333.49
435.22	6260.93
435.41	6616.69
435.59	6242.21
435.78	6427.11
435.97	6509.03
436.16	6476.26
436.34	6314.77
436.53	6487.96
436.72	6607.33
436.90	6207.10
437.09	6661.16
437.28	6565.20
437.46	6457.54
437.65	6523.07
437.84	6689.25
438.02	6581.59
438.21	6771.17
438.40	6635.42
438.58	6944.37
438.77	6967.77
438.96	6736.06
439.14	7066.08
439.33	7176.08
439.52	7281.41
439.70	7068.42
439.89	7370.35
440.08	7243.96
440.26	7431.20
440.45	7325.88
440.63	7344.60
440.82	7611.42
441.01	7487.37
441.19	7646.53
441.38	7719.09
441.57	7669.94
441.75	7761.22
441.94	7873.56
442.12	7861.86
442.31	8128.68
442.50	8095.91
442.68	7798.66
442.87	8028.04
443.05	8135.70
443.24	8154.43
443.43	8222.30
443.61	8074.85
443.80	8374.44
443.98	7988.25
444.17	7861.86
444.35	8084.21
444.54	8454.02
444.73	8119.32
444.91	8252.73
445.10	8077.19
445.28	8369.76
445.47	8294.86
445.65	8334.65
445.84	8313.58
446.02	8528.91
446.21	8491.46
446.39	8409.54
446.58	8425.93
446.77	8489.12
446.95	8339.33
447.14	8404.86
447.32	8442.31
447.51	8393.16
447.69	8418.91
447.88	8669.34
448.06	8498.49
448.25	8468.06
448.43	8484.44
448.62	8512.53
448.80	8552.32
448.99	8636.58
449.17	8549.98
449.36	8566.36
449.54	8826.16
449.73	8753.60
449.91	8865.95
450.10	8968.93
450.28	8968.93
450.46	8877.65
450.65	8940.85
450.83	9097.66
451.02	8922.12
451.20	9191.28
451.39	9027.45
451.57	9116.39
451.76	8985.32
451.94	9165.54
452.13	9334.06
452.31	9277.88
452.49	9174.90
452.68	9217.03
452.86	9392.57
453.05	9570.45
453.23	9507.26
453.42	9327.03
453.60	9191.28
453.78	9481.51
453.97	9376.19
454.15	9359.80
454.34	9444.06
454.52	9591.52
454.70	9755.35
454.89	9769.40
455.07	9685.14
455.26	9635.99
455.44	10092.39
455.62	9870.04
455.81	10087.71
455.99	9877.06
456.17	9874.72
456.36	10001.11
456.54	10160.27
456.73	10167.29
456.91	10394.32
457.09	10335.81
457.28	10586.24
457.46	9989.41
457.64	10661.14
457.83	10534.75
458.01	10424.75
458.19	10534.75
458.38	10565.18
458.56	10532.41
458.74	10771.15
458.93	10621.35
459.11	10813.28
459.29	10693.91
459.48	10721.99
459.66	10731.36
459.84	10834.34
460.03	10988.82
460.21	11075.42
460.39	11054.35
460.57	10853.06
460.76	10988.82
460.94	11016.90
461.12	11211.17
461.31	11213.51
461.49	11176.06
461.67	11131.59
461.85	11405.43
462.04	11384.37
462.22	11941.41
462.40	11492.03
462.59	11536.50
462.77	11461.60
462.95	11513.10
463.13	11695.66
463.32	11688.64
463.50	11463.94
463.68	11707.36
463.86	11712.04
464.05	11658.21
464.23	11480.33
464.41	11875.88
464.59	11515.44
464.78	11981.20
464.96	11817.36
465.14	11934.39
465.32	12147.38
465.50	12123.98
465.69	12095.89
465.87	12205.89
466.05	12123.98
466.23	12145.04
466.41	12358.03
466.60	12470.37
466.78	12119.29
466.96	12278.45
467.14	12184.83
467.32	12449.31
467.51	12807.41
467.69	12376.75
467.87	12461.01
468.05	12444.63
468.23	12482.08
468.41	12510.16
468.60	12767.62
468.78	12765.28
468.96	12526.55
469.14	12985.29
469.32	12559.31
469.50	12631.87
469.69	13160.83
469.87	13137.43
470.05	13121.04
470.23	13153.81
470.41	13214.66
470.59	13013.38
470.77	13055.51
470.95	13355.10
471.14	13331.69
471.32	13352.76
471.50	13867.67
471.68	13708.52
471.86	13640.64
472.04	13729.58
472.22	14019.81
472.40	13713.20
472.58	13977.68
472.77	13752.99
472.95	14139.18
473.13	14740.69
473.31	13958.96
473.49	14012.79
473.67	14394.29
473.85	14139.18
474.03	14253.86
474.21	14338.12
474.39	14757.08
474.57	14647.07
474.75	14965.39
474.93	14970.07
475.12	14932.62
475.30	15087.09
475.48	14937.30
475.66	15220.50
475.84	15253.27
476.02	15356.25
476.20	15396.04
476.38	15805.64
476.56	15800.96
476.74	16079.48
476.92	16049.05
477.10	16084.16
477.28	16470.35
477.46	16294.81
477.64	16629.51
477.82	16809.73
478.00	16760.58
478.18	17013.35
478.36	16982.93
478.54	17050.80
478.72	17170.17
478.90	17717.86
479.08	17628.92
479.26	17628.92
479.44	17816.16
479.62	17862.97
479.80	18260.86
479.98	18092.34
480.16	18656.41
480.34	18185.96
480.52	18712.58
480.70	18881.10
480.88	18644.71
481.06	18691.52
481.24	18675.13
481.41	19080.05
481.59	19372.61
481.77	19339.85
481.95	19428.79
482.13	19910.94
482.31	19878.17
482.49	20203.50
482.67	20315.85
482.85	20648.21
483.03	20821.41
483.21	21074.18
483.39	21212.28
483.57	20599.05
483.74	21326.96
483.92	21247.38
484.10	21415.90
484.28	21909.75
484.46	22324.03
484.64	22309.99
484.82	21916.78
485.00	22483.19
485.18	22808.52
485.35	23250.88
485.53	23248.54
485.71	23026.19
485.89	23917.93
486.07	23529.41
486.25	23726.01
486.43	23704.95
486.61	24037.30
486.78	24423.49
486.96	24474.98
487.14	25092.88
487.32	24744.14
487.50	25170.12
487.68	25069.48
487.85	25350.34
488.03	25872.28
488.21	26085.27
488.39	26567.42
488.57	26087.61
488.75	26249.11
488.92	27087.02
489.10	26944.25
489.28	27030.85
489.46	27077.66
489.64	27395.97
489.81	27777.48
489.99	27929.61
490.17	28198.77
490.35	28173.03
490.53	28442.19
490.70	28919.66
490.88	28570.92
491.06	29137.33
491.24	28961.79
491.41	28947.75
491.59	29497.77
491.77	29322.23
491.95	30073.54
492.13	30015.03
492.30	29844.17
492.48	29984.60
492.66	30426.96
492.84	30597.82
493.01	31201.68
493.19	31079.97
493.37	31452.12
493.54	31489.57
493.72	31358.50
493.90	31615.96
494.08	32376.63
494.25	32044.27
494.43	32126.19
494.61	32683.24
494.79	32800.27
494.96	33010.92
495.14	33514.13
495.32	33319.87
495.49	33453.28
495.67	33631.16
495.85	34160.12
496.02	34256.08
496.20	34448.00
496.38	34054.79
496.55	34735.89
496.73	35283.58
496.91	34756.96
497.09	34913.77
497.26	35175.91
497.44	35372.52
497.62	35431.03
497.79	35906.16
497.97	35805.52
498.14	36418.74
498.32	36868.12
498.50	36493.63
498.67	37008.55
498.85	36844.71
499.03	36882.16
499.20	37006.21
499.38	37205.16
499.56	37233.24
499.73	37633.47
499.91	37830.08
500.08	38195.20
500.26	37806.67
500.44	37579.64
500.61	38019.66
500.79	38174.14
500.97	38305.21
501.14	39044.82
501.32	38731.18
501.49	39098.65
501.67	38923.11
501.84	39487.18
502.02	39147.80
502.20	39482.50
502.37	39721.23
502.55	40016.14
502.72	39931.88
502.90	39379.51
503.07	39653.36
503.25	40605.95
503.43	39690.80
503.60	40381.26
503.78	40456.16
503.95	40608.29
504.13	40580.21
504.30	41010.87
504.48	40547.44
504.65	41345.56
504.83	41748.14
505.01	41652.17
505.18	41741.11
505.36	41659.20
505.53	41605.36
505.71	41776.22
505.88	41668.56
506.06	41787.92
506.23	42822.44
506.41	42632.86
506.58	43136.07
506.76	42916.06
506.93	42572.00
507.11	42841.17
507.28	43119.69
507.46	42937.13
507.63	43292.89
507.81	43477.79
507.98	43267.14
508.16	43363.11
508.33	43704.82
508.50	43791.42
508.68	43578.43
508.85	44320.38
509.03	44442.09
509.20	44498.26
509.38	44720.62
509.55	44891.48
509.73	44868.07
509.90	44942.97
510.08	44879.77
510.25	44980.42
510.42	44900.84
510.60	45628.74
510.77	45584.27
510.95	46068.76
511.12	45691.94
511.30	45518.74
511.47	45949.40
511.64	46106.21
511.82	46564.96
511.99	46312.18
512.17	46452.61
512.34	46417.50
512.51	46447.93
512.69	46581.34
512.86	46810.71
513.04	46876.25
513.21	47154.77
513.38	47086.90
513.56	47274.14
513.73	47622.88
513.90	47339.68
514.08	47559.69
514.25	47665.01
514.43	47421.59
514.60	47980.98
514.77	47562.03
514.95	48432.71
515.12	47622.88
515.29	48055.88
515.47	48229.08
515.64	48514.62
515.81	48343.77
515.99	48657.40
516.16	48928.90
516.33	48910.17
516.51	48935.92
516.68	48486.54
516.85	48626.97
517.03	48959.33
517.20	49385.30
517.37	49104.44
517.54	49499.99
517.72	49457.86
517.89	49546.80
518.06	49464.88
518.24	49619.36
518.41	49312.75
518.58	49951.71
518.75	49724.68
518.93	50138.96
519.10	50059.38
519.27	49811.28
519.45	49755.11
519.62	50169.38
519.79	50438.54
519.96	50365.99
520.14	50398.76
520.31	50543.87
520.48	50848.14
520.65	50642.17
520.83	50724.09
521.00	50983.89
521.17	51213.26
521.34	51054.11
521.52	50642.17
521.69	51276.46
521.86	51477.74
522.03	51178.15
522.20	51749.24
522.38	51641.58
522.55	51344.33
522.72	51274.12
522.89	51814.78
523.07	52126.07
523.24	51854.57
523.41	52088.62
523.58	51838.18
523.75	51877.97
523.92	51997.34
524.10	52275.87
524.27	52465.45
524.44	52535.66
524.61	52594.18
524.78	52399.91
524.96	52374.17
525.13	52341.40
525.30	52603.54
525.47	52439.70
525.64	52851.64
525.81	52807.17
525.98	52973.34
526.16	52905.47
526.33	52921.85
526.50	53076.33
526.67	53277.61
526.84	52989.73
527.01	53069.31
527.18	53134.84
527.36	53368.90
527.53	53249.53
527.70	53750.40
527.87	53511.67
528.04	53242.51
528.21	53481.24
528.38	53230.80
528.55	53645.08
528.72	53858.07
528.89	53968.07
529.07	53689.55
529.24	53734.02
529.41	53942.33
529.58	54174.04
529.75	53904.88
529.92	53982.12
530.09	54094.46
530.26	54192.76
530.43	54358.94
530.60	54101.48
530.77	54110.85
530.94	54541.50
531.11	54068.72
531.28	54218.51
531.46	54492.35
531.63	54480.65
531.80	54894.92
531.97	55056.42
532.14	54609.38
532.31	54534.48
532.48	54326.17
532.65	54644.49
532.82	54482.99
532.99	54817.69
533.16	54862.16
533.33	55140.68
533.50	55435.59
533.67	55112.59
533.84	54915.99
534.01	54890.24
534.18	54894.92
534.35	55365.37
534.52	55037.70
534.69	55262.39
534.86	55330.26
535.03	55339.63
535.20	55304.52
535.37	55554.96
535.54	55636.87
535.71	55566.66
535.88	55323.24
536.05	55660.28
536.22	55702.41
536.38	55910.72
536.55	55758.58
536.72	55803.05
536.89	55681.34
537.06	55552.62
537.23	55760.92
537.40	55873.27
537.57	55856.88
537.74	55985.61
537.91	56240.73
538.08	55964.55
538.25	56088.60
538.42	56079.24
538.59	56278.18
538.75	56027.74
538.92	56207.97
539.09	56275.84
539.26	56378.82
539.43	56142.43
539.60	56395.21
539.77	56362.44
539.94	56582.45
540.11	56636.28
540.28	56432.66
540.44	56519.26
540.61	56470.11
540.78	56615.22
540.95	56666.71
541.12	56690.12
541.29	56596.49
541.46	56657.35
541.62	56772.03
541.79	56736.93
541.96	56755.65
542.13	56921.83
542.30	56914.81
542.47	57017.79
542.63	56830.55
542.80	57282.27
542.97	57181.63
543.14	57219.08
543.31	57188.65
543.48	57010.77
543.64	57509.30
543.81	57495.26
543.98	57595.90
544.15	57378.23
544.32	57719.95
544.48	57616.97
544.65	57478.88
544.82	57411.00
544.99	57495.26
545.16	57663.78
545.32	57684.84
545.49	57811.23
545.66	57876.77
545.83	57649.74
546.00	57944.64
546.16	57811.23
546.33	57567.82
546.50	57558.45
546.67	58007.84
546.83	57584.20
547.00	57806.55
547.17	57741.02
547.34	58071.03
547.50	58010.18
547.67	58164.65
547.84	58012.52
548.00	58141.25
548.17	58307.43
548.34	58171.67
548.51	58342.53
548.67	58141.25
548.84	58394.03
549.01	58361.26
549.18	58328.49
549.34	58131.89
549.51	57998.48
549.68	58379.98
549.84	58127.20
550.01	58368.28
550.18	58218.49
550.34	58527.44
550.51	58581.27
550.68	58396.37
550.84	58262.96
551.01	58724.04
551.18	58361.26
551.34	58326.15
551.51	58468.92
551.68	58770.85
551.84	58773.19
552.01	58642.12
552.18	58838.73
552.34	58810.64
552.51	58852.77
552.68	58604.67
552.84	58714.68
553.01	58803.62
553.18	58777.87
553.34	59002.56
553.51	58904.26
553.67	58988.52
553.84	59253.00
554.01	59025.97
554.17	59056.40
554.34	58953.41
554.51	58855.11
554.67	59185.13
554.84	59145.34
555.00	59009.59
555.17	59178.10
555.33	59192.15
555.50	58958.09
555.67	58824.68
555.83	59320.88
556.00	59110.23
556.16	59416.84
556.33	59255.34
556.50	59189.81
556.66	59236.62
556.83	59395.77
556.99	59533.87
557.16	59508.12
557.32	59395.77
557.49	59620.47
557.65	59444.93
557.82	59213.21
557.98	59316.20
558.15	59508.12
558.32	59681.32
558.48	59524.50
558.65	59632.17
558.81	59526.84
558.98	59718.77
559.14	59573.66
559.31	59393.43
559.47	59597.06
559.64	59756.22
559.80	59784.30
559.97	59744.51
560.13	59604.08
560.30	59660.26
560.46	59877.93
560.63	59760.90
560.79	59976.23
560.96	59786.64
561.12	59803.03
561.29	59798.35
561.45	60001.97
561.61	59894.31
561.78	59845.16
561.94	59833.46
562.11	59957.50
562.27	59852.18
562.44	59800.69
562.60	59894.31
562.77	60023.04
562.93	59632.17
563.10	60200.92
563.26	59817.07
563.42	60259.43
563.59	59891.97
563.75	59964.52
563.92	59985.59
564.08	60039.42
564.24	60058.15
564.41	59936.44
564.57	59828.77
564.74	60023.04
564.90	60149.43
565.07	60306.24
565.23	60322.63
565.39	60126.02
565.56	60198.58
565.72	60044.10
565.88	60233.69
566.05	60044.10
566.21	59983.25
566.38	60011.34
566.54	60027.72
566.70	60402.21
566.87	60364.76
567.03	60163.47
567.19	60465.40
567.36	60055.81
567.52	60095.60
567.68	60346.03
567.85	60245.39
568.01	60266.45
568.17	60200.92
568.34	60584.77
568.50	60280.50
568.66	60224.32
568.83	60664.35
568.99	60331.99
569.15	60252.41
569.32	60179.85
569.48	60219.64
569.64	60231.35
569.81	60212.62
569.97	60273.48
570.13	60481.78
570.30	60367.10
570.46	60402.21
570.62	60521.57
570.78	60275.82
570.95	60158.79
571.11	60369.44
571.27	60320.29
571.43	60266.45
571.60	60552.00
571.76	60425.61
571.92	60561.36
572.09	60568.38
572.25	60491.15
572.41	60388.16
572.57	60484.12
572.74	60662.00
572.90	60463.06
573.06	60416.25
573.22	60472.42
573.38	60865.63
573.55	60582.43
573.71	60970.96
573.87	60760.31
574.03	60685.41
574.20	60348.37
574.36	60355.39
574.52	60441.99
574.68	60699.45
574.84	60741.58
575.01	60622.22
575.17	60825.84
575.33	60530.93
575.49	60734.56
575.65	60654.98
575.82	60566.04
575.98	60500.51
576.14	60835.20
576.30	60685.41
576.46	60449.02
576.62	60566.04
576.79	60626.90
576.95	60596.47
577.11	60814.14
577.27	60619.88
577.43	60690.09
577.59	60884.36
577.75	60804.78
577.92	60542.64
578.08	60561.36
578.24	60741.58
578.40	60757.97
578.56	60743.92
578.72	60774.35
578.88	60870.31
579.04	61034.15
579.21	60652.64
579.37	60797.76
579.53	60992.02
579.69	60683.07
579.85	60692.43
580.01	60804.78
580.17	60779.03
580.33	60772.01
580.49	60772.01
580.65	60825.84
580.82	61078.62
580.98	60818.82
581.14	60800.10
581.30	60851.59
581.46	60863.29
581.62	60718.18
581.78	60659.66
581.94	60910.10
582.10	60739.24
582.26	60645.62
582.42	60762.65
582.58	61038.83
582.74	60912.44
582.90	60736.90
583.06	60940.53
583.22	60753.29
583.38	60884.36
583.54	61010.74
583.70	60828.18
583.86	60977.98
584.02	60846.91
584.18	61059.90
584.34	60933.51
584.50	60973.30
584.66	61027.13
584.82	60942.87
584.98	60821.16
585.14	60919.46
585.30	60790.73
585.46	60893.72
585.62	60903.08
585.78	61123.09
585.94	60772.01
586.10	60949.89
586.26	60886.70
586.42	61038.83
586.58	60924.14
586.74	61048.19
586.90	60790.73
587.06	60746.26
587.22	61102.03
587.38	60811.80
587.54	60938.19
587.70	61113.73
587.86	61027.13
588.02	60961.59
588.18	61352.46
588.34	61083.30
588.49	61020.11
588.65	60921.80
588.81	60973.30
588.97	61022.45
589.13	60982.66
