SpectraSuite Data File
++++++++++++++++++++++++++++++++++++
Date: Fri Oct 04 11:48:48 GMT-05:00 2013
User: price-jones
Dark Spectrum Present: No
Reference Spectrum Present: No
Number of Sampled Component Spectra: 1
Spectrometers: USB2+H05261
Integration Time (usec): 100000 (USB2+H05261)
Spectra Averaged: 1 (USB2+H05261)
Boxcar Smoothing: 0 (USB2+H05261)
Correct for Electrical Dark: No (USB2+H05261)
Strobe/Lamp Enabled: No (USB2+H05261)
Correct for Detector Non-linearity: No (USB2+H05261)
Correct for Stray Light: No (USB2+H05261)
Number of Pixels in Processed Spectrum: 2048
>>>>>Begin Processed Spectral Data<<<<<
365.73	23.41
365.92	23.41
366.12	23.41
366.32	0.00
366.52	0.00
366.72	25.75
366.91	0.00
367.11	0.00
367.31	0.00
367.51	0.00
367.70	0.00
367.90	0.00
368.10	0.00
368.30	0.00
368.49	0.00
368.69	0.00
368.89	0.00
369.09	0.00
369.28	0.00
369.48	0.00
369.68	0.00
369.87	28.09
370.07	0.00
370.27	0.00
370.47	86.60
370.66	198.95
370.86	315.97
371.06	290.23
371.25	299.59
371.45	180.22
371.65	198.95
371.84	292.57
372.04	266.82
372.24	250.44
372.44	327.68
372.63	330.02
372.83	346.40
373.03	325.33
373.22	266.82
373.42	351.08
373.62	231.71
373.81	404.91
374.01	461.09
374.21	351.08
374.40	367.46
374.60	337.04
374.79	344.06
374.99	322.99
375.19	421.30
375.38	402.57
375.58	369.80
375.78	390.87
375.97	423.64
376.17	463.43
376.37	365.12
376.56	369.80
376.76	393.21
376.95	311.29
377.15	376.83
377.35	407.25
377.54	372.15
377.74	369.80
377.93	414.27
378.13	463.43
378.33	418.96
378.52	407.25
378.72	477.47
378.91	433.00
379.11	379.17
379.31	381.51
379.50	407.25
379.70	416.62
379.89	519.60
380.09	381.51
380.28	519.60
380.48	484.49
380.68	404.91
380.87	444.70
381.07	449.38
381.26	447.04
381.46	430.66
381.65	491.51
381.85	470.45
382.04	461.09
382.24	521.94
382.43	528.96
382.63	470.45
382.83	409.59
383.02	477.47
383.22	561.73
383.41	451.72
383.61	383.85
383.80	568.75
384.00	484.49
384.19	489.17
384.39	566.41
384.58	458.74
384.78	521.94
384.97	517.26
385.17	442.36
385.36	580.45
385.56	559.39
385.75	510.24
385.95	543.00
386.14	596.84
386.34	496.19
386.53	528.96
386.72	578.11
386.92	615.56
387.11	655.35
387.31	624.92
387.50	622.58
387.70	571.09
387.89	550.03
388.09	645.99
388.28	596.84
388.48	606.20
388.67	615.56
388.86	645.99
389.06	617.90
389.25	648.33
389.45	622.58
389.64	699.82
389.84	596.84
390.03	627.26
390.22	561.73
390.42	606.20
390.61	662.37
390.81	648.33
391.00	683.44
391.19	763.01
391.39	643.65
391.58	601.52
391.78	648.33
391.97	669.39
392.16	653.01
392.36	744.29
392.55	746.63
392.75	730.25
392.94	692.80
393.13	706.84
393.33	674.07
393.52	732.59
393.71	744.29
393.91	781.74
394.10	674.07
394.29	755.99
394.49	732.59
394.68	807.48
394.88	781.74
395.07	741.95
395.26	793.44
395.46	781.74
395.65	807.48
395.84	854.30
396.04	880.04
396.23	875.36
396.42	774.72
396.62	971.32
396.81	954.94
397.00	889.40
397.19	800.46
397.39	866.00
397.58	858.98
397.77	997.07
397.97	978.34
398.16	870.68
398.35	976.00
398.55	947.92
398.74	997.07
398.93	978.34
399.12	922.17
399.32	992.39
399.51	943.24
399.70	1097.71
399.90	1050.90
400.09	1050.90
400.28	1069.62
400.47	1060.26
400.67	1153.88
400.86	1055.58
401.05	1053.24
401.24	992.39
401.44	1086.01
401.63	1043.88
401.82	1041.54
402.01	1142.18
402.21	1114.10
402.40	1102.39
402.59	1226.44
402.78	1219.42
402.97	1188.99
403.17	1167.93
403.36	1261.55
403.55	1203.04
403.74	1287.29
403.93	1266.23
404.13	1301.34
404.32	1224.10
404.51	1158.57
404.70	1254.53
404.89	1301.34
405.09	1385.60
405.28	1387.94
405.47	1308.36
405.66	1357.51
405.85	1390.28
406.05	1390.28
406.24	1350.49
406.43	1401.98
406.62	1416.02
406.81	1568.16
407.00	1425.39
407.20	1420.71
407.39	1420.71
407.58	1507.30
407.77	1544.75
407.96	1584.54
408.15	1554.12
408.34	1526.03
408.54	1533.05
408.73	1582.20
408.92	1605.61
409.11	1722.63
409.30	1647.74
409.49	1640.72
409.68	1687.53
409.87	1675.82
410.07	1701.57
410.26	1795.19
410.45	1774.13
410.64	1776.47
410.83	1806.89
411.02	1797.53
411.21	1919.24
411.40	1809.23
411.59	1907.54
411.78	1923.92
411.98	1844.34
412.17	1989.46
412.36	1921.58
412.55	2024.56
412.74	2036.27
412.93	1994.14
413.12	1982.43
413.31	2293.72
413.50	2031.58
413.69	2260.96
413.88	2260.96
414.07	2200.10
414.26	2267.98
414.45	2157.97
414.64	2305.43
414.83	2394.37
415.02	2408.41
415.22	2179.04
415.41	2366.28
415.60	2380.32
415.79	2359.26
415.98	2319.47
416.17	2422.45
416.36	2431.82
416.55	2691.62
416.74	2551.18
416.93	2511.39
417.12	2546.50
417.31	2516.08
417.50	2513.74
417.69	2768.85
417.88	2663.53
418.07	2731.41
418.26	2532.46
418.45	2705.66
418.64	2768.85
418.83	2757.15
419.02	2736.09
419.21	2829.71
419.39	2829.71
419.58	2731.41
419.77	2775.88
419.96	2864.82
420.15	2850.77
420.34	2906.95
420.53	2834.39
420.72	2904.60
420.91	3002.91
421.10	2988.86
421.29	2956.10
421.48	2787.58
421.67	2972.48
421.86	2946.73
422.05	3023.97
422.24	3000.57
422.43	2923.33
422.61	3038.02
422.80	3105.89
422.99	3094.19
423.18	3119.93
423.37	3077.80
423.56	3133.98
423.75	3190.15
423.94	3087.17
424.13	2972.48
424.32	3005.25
424.50	3199.51
424.69	3215.90
424.88	3101.21
425.07	3066.10
425.26	2986.52
425.45	3112.91
425.64	3164.40
425.83	3185.47
426.01	3187.81
426.20	3218.24
426.39	3232.28
426.58	3178.45
426.77	3169.09
426.96	3330.58
427.15	3218.24
427.33	3222.92
427.52	3201.85
427.71	3246.32
427.90	3391.44
428.09	3435.91
428.28	3368.03
428.46	3321.22
428.65	3370.37
428.84	3445.27
429.03	3445.27
429.22	3225.26
429.40	3463.99
429.59	3480.38
429.78	3253.34
429.97	3384.41
430.16	3522.51
430.34	3566.98
430.53	3588.04
430.72	3522.51
430.91	3344.63
431.10	3557.61
431.28	3625.49
431.47	3765.92
431.66	3604.42
431.85	3576.34
432.03	3817.41
432.22	3700.39
432.41	3751.88
432.60	3756.56
432.79	3751.88
432.97	3695.71
433.16	3779.97
433.35	3894.65
433.54	3854.86
433.72	3716.77
433.91	3688.68
434.10	3786.99
434.28	3808.05
434.47	4011.68
434.66	3871.25
434.85	3941.46
435.03	4025.72
435.22	4025.72
435.41	4205.94
435.59	4053.81
435.78	4088.92
435.97	4030.40
436.16	4114.66
436.34	4114.66
436.53	3904.01
436.72	4194.24
436.90	4063.17
437.09	4189.56
437.28	4184.88
437.46	4194.24
437.65	4245.73
437.84	4189.56
438.02	4145.09
438.21	4318.29
438.40	4191.90
438.58	4369.78
438.77	4407.23
438.96	4498.51
439.14	4561.70
439.33	4547.66
439.52	4514.89
439.70	4603.83
439.89	4648.30
440.08	4716.18
440.26	4751.29
440.45	4631.92
440.63	4767.67
440.82	4730.22
441.01	4718.52
441.19	4755.97
441.38	5011.09
441.57	4828.53
441.75	5006.41
441.94	5025.13
442.12	4971.30
442.31	5083.64
442.50	5011.09
442.68	5163.22
442.87	5020.45
443.05	5184.29
443.24	5210.03
443.43	5270.89
443.61	5291.95
443.80	5266.21
443.98	5088.32
444.17	5149.18
444.35	5107.05
444.54	5298.97
444.73	5329.40
444.91	5324.72
445.10	5212.37
445.28	5263.86
445.47	5289.61
445.65	5343.44
445.84	5268.55
446.02	5235.78
446.21	5366.85
446.39	5268.55
446.58	5446.43
446.77	5280.25
446.95	5149.18
447.14	5315.36
447.32	5371.53
447.51	5401.96
447.69	5345.78
447.88	5523.66
448.06	5373.87
448.25	5458.13
448.43	5401.96
448.62	5249.82
448.80	5458.13
448.99	5551.75
449.17	5514.30
449.36	5474.51
449.54	5652.39
449.73	5699.20
449.91	5640.69
450.10	5621.97
450.28	5769.42
450.46	5659.42
450.65	5727.29
450.83	5767.08
451.02	5818.57
451.20	5753.04
451.39	5860.70
451.57	5888.79
451.76	5872.40
451.94	5900.49
452.13	5867.72
452.31	5888.79
452.49	5813.89
452.68	5973.05
452.86	5870.06
453.05	5916.87
453.23	6031.56
453.42	5933.26
453.60	5832.62
453.78	5912.19
453.97	5792.83
454.15	5877.09
454.34	6050.28
454.52	6080.71
454.70	5940.28
454.89	6202.42
455.07	6054.97
455.26	6207.10
455.44	6307.74
455.62	6347.53
455.81	6200.08
455.99	6403.71
456.17	6410.73
456.36	6139.23
456.54	6307.74
456.73	6406.05
456.91	6438.81
457.09	6778.19
457.28	6644.78
457.46	6478.60
457.64	6665.85
457.83	6602.65
458.01	6815.64
458.19	6740.74
458.38	6511.37
458.56	6614.35
458.74	6803.94
458.93	6803.94
459.11	6572.22
459.29	6719.68
459.48	6857.77
459.66	6736.06
459.84	6843.73
460.03	6918.62
460.21	6789.89
460.39	7145.66
460.57	6834.36
460.76	7096.50
460.94	7087.14
461.12	7063.74
461.31	7101.19
461.49	7045.01
461.67	7073.10
461.85	7201.83
462.04	7215.87
462.22	7646.53
462.40	7274.38
462.59	7087.14
462.77	7314.17
462.95	7325.88
463.13	7199.49
463.32	7297.79
463.50	7351.62
463.68	7386.73
463.86	7599.72
464.05	7356.30
464.23	7431.20
464.41	7499.08
464.59	7185.44
464.78	7620.78
464.96	7412.48
465.14	7456.95
465.32	7508.44
465.50	7700.36
465.69	7562.27
465.87	7405.46
466.05	7550.57
466.23	7611.42
466.41	7679.30
466.60	7840.79
466.78	7573.97
466.96	7779.94
467.14	7611.42
467.32	7651.21
467.51	7817.39
467.69	7627.81
467.87	7892.29
468.05	7943.78
468.23	7805.69
468.41	7939.10
468.60	7812.71
468.78	8042.08
468.96	7941.44
469.14	8011.65
469.32	8091.23
469.50	7955.48
469.69	8306.56
469.87	8285.50
470.05	8292.52
470.23	8407.20
470.41	8236.35
470.59	8313.58
470.77	8168.47
470.95	8533.59
471.14	8351.03
471.32	8318.26
471.50	8468.06
471.68	8667.00
471.86	8540.61
472.04	8568.70
472.22	8786.37
472.40	8444.65
472.58	8741.90
472.77	8875.31
472.95	8648.28
473.13	9039.15
473.31	8629.56
473.49	8858.93
473.67	8793.39
473.85	8788.71
474.03	9064.89
474.21	9144.47
474.39	9163.20
474.57	9177.24
474.75	9242.78
474.93	9404.27
475.12	9186.60
475.30	9303.63
475.48	9350.44
475.66	9364.48
475.84	9387.89
476.02	9664.07
476.20	9603.22
476.38	9832.59
476.56	9921.53
476.74	9745.99
476.92	9706.20
477.10	9956.64
477.28	10071.33
477.46	10036.22
477.64	10153.24
477.82	10347.51
478.00	10609.65
478.18	10553.48
478.36	10619.01
478.54	10668.16
478.72	10827.32
478.90	10579.22
479.08	10864.77
479.26	11117.54
479.44	11028.60
479.62	11250.96
479.80	11169.04
479.98	11183.08
480.16	11475.65
480.34	11234.57
480.52	11611.40
480.70	11646.51
480.88	11468.62
481.06	11517.78
481.24	11838.43
481.41	11997.59
481.59	11957.80
481.77	12294.83
481.95	11941.41
482.13	12318.24
482.31	12187.17
482.49	12320.58
482.67	12631.87
482.85	12554.63
483.03	12805.07
483.21	13018.06
483.39	12973.59
483.57	13041.46
483.74	13097.64
483.92	13205.30
484.10	13191.26
484.28	13579.79
484.46	13540.00
484.64	13797.46
484.82	13453.40
485.00	13832.57
485.18	14026.83
485.35	13898.10
485.53	14087.68
485.71	14310.04
485.89	14731.33
486.07	14420.04
486.25	14658.78
486.43	14480.89
486.61	14560.47
486.78	14869.42
486.96	15089.43
487.14	15169.01
487.32	15047.30
487.50	15445.20
487.68	15442.85
487.85	15943.73
488.03	15831.38
488.21	16168.42
488.39	15969.48
488.57	16259.70
488.75	16133.31
488.92	16683.34
489.10	16568.65
489.28	16514.82
489.46	16889.31
489.64	16603.76
489.81	17095.27
489.99	16936.12
490.17	17179.53
490.35	17528.27
490.53	17326.99
490.70	17881.69
490.88	17804.46
491.06	17692.11
491.24	17600.83
491.41	18127.45
491.59	18281.92
491.77	18104.04
491.95	18394.27
492.13	18279.58
492.30	18225.75
492.48	18600.24
492.66	18778.12
492.84	18696.20
493.01	18956.00
493.19	19145.58
493.37	19417.08
493.54	19323.46
493.72	19260.27
493.90	19145.58
494.08	19449.85
494.25	19873.49
494.43	19941.36
494.61	20180.10
494.79	19955.41
494.96	19999.88
495.14	20360.32
495.32	20475.01
495.49	20599.05
495.67	20947.79
495.85	20367.34
496.02	20975.88
496.20	21179.51
496.38	20999.29
496.55	20868.22
496.73	21439.31
496.91	21188.87
497.09	21366.75
497.26	21832.52
497.44	21785.71
497.62	21675.70
497.79	21933.16
497.97	22127.42
498.14	22466.80
498.32	22473.82
498.50	22309.99
498.67	22307.65
498.85	22366.16
499.03	22635.32
499.20	22356.80
499.38	22515.95
499.56	23035.55
499.73	22860.01
499.91	23370.25
500.08	23407.70
500.26	23206.41
500.44	23281.31
500.61	23300.03
500.79	23934.32
500.97	23723.67
501.14	24130.92
501.32	24156.67
501.49	23793.89
501.67	23910.91
501.84	24121.56
502.02	24238.59
502.20	24559.24
502.37	24339.23
502.55	24486.68
502.72	24514.77
502.90	24198.80
503.07	24758.19
503.25	24786.27
503.43	24994.58
503.60	24940.75
503.78	25078.84
503.95	25029.69
504.13	25240.34
504.30	25235.66
504.48	25006.28
504.65	25439.28
504.83	25633.55
505.01	25898.03
505.18	25720.15
505.36	26071.23
505.53	25429.92
505.71	26038.46
505.88	25553.97
506.06	26164.85
506.23	26396.56
506.41	25949.52
506.58	26244.43
506.76	26359.11
506.93	26258.47
507.11	26338.05
507.28	26644.66
507.46	26457.42
507.63	27311.71
507.81	26789.77
507.98	26424.65
508.16	26852.97
508.33	27103.40
508.50	27232.13
508.68	27452.14
508.85	27594.92
509.03	27545.76
509.20	28048.98
509.38	27550.45
509.55	27758.75
509.73	27969.40
509.90	28060.68
510.08	27786.84
510.25	27852.38
510.42	27630.02
510.60	28032.60
510.77	27938.97
510.95	28489.00
511.12	28215.16
511.30	28151.96
511.47	28617.73
511.64	28496.02
511.82	28980.51
511.99	28959.45
512.17	29083.50
512.34	28350.91
512.51	28676.24
512.69	29275.42
512.86	29436.92
513.04	29289.46
513.21	29429.90
513.38	29521.18
513.56	29572.67
513.73	29479.05
513.90	29797.36
514.08	29282.44
514.25	29970.56
514.43	29923.75
514.60	29816.08
514.77	29795.02
514.95	30228.02
515.12	30204.61
515.29	29975.24
515.47	30286.53
515.64	30274.83
515.81	30305.26
515.99	30560.37
516.16	30588.46
516.33	30850.60
516.51	30806.13
516.68	30433.99
516.85	30813.15
517.03	30962.95
517.20	30923.16
517.37	31016.78
517.54	31239.13
517.72	31138.49
517.89	31124.44
518.06	31199.34
518.24	30817.83
518.41	31555.10
518.58	31931.93
518.75	31323.39
518.93	31782.13
519.10	31838.31
519.27	32016.19
519.45	31756.39
519.62	31929.59
519.79	31662.77
519.96	32109.81
520.14	32376.63
520.31	31793.84
520.48	32458.55
520.65	32212.79
520.83	32320.46
521.00	32783.88
521.17	32783.88
521.34	32697.28
521.52	32699.62
521.69	32701.96
521.86	32847.08
522.03	32849.42
522.20	33017.94
522.38	32865.80
522.55	32858.78
522.72	33144.33
522.89	33394.76
523.07	33509.45
523.24	33010.92
523.41	33670.95
523.58	33174.75
523.75	33474.34
523.92	33418.17
524.10	33539.88
524.27	33584.35
524.44	33722.44
524.61	33886.28
524.78	33865.21
524.96	33792.65
525.13	33832.44
525.30	33890.96
525.47	33844.15
525.64	33914.36
525.81	34242.04
525.98	34391.83
526.16	34300.55
526.33	34251.40
526.50	34675.04
526.67	34031.39
526.84	34209.27
527.01	34307.57
527.18	34668.02
527.36	34653.97
527.53	34653.97
527.70	35330.39
527.87	35096.33
528.04	35056.54
528.21	35374.86
528.38	35409.96
528.55	35285.92
528.72	34991.01
528.89	35246.13
529.07	35564.44
529.24	35243.79
529.41	35887.43
529.58	35494.22
529.75	35105.70
529.92	35639.34
530.09	35459.12
530.26	35716.58
530.43	35910.84
530.60	35639.34
530.77	35838.28
530.94	36198.73
531.11	35714.23
531.28	35524.65
531.46	36172.98
531.63	36077.02
531.80	36163.62
531.97	36060.63
532.14	36390.65
532.31	35775.09
532.48	36371.92
532.65	36299.37
532.82	36121.49
532.99	36266.60
533.16	36322.77
533.33	36669.17
533.50	36669.17
533.67	36889.18
533.84	36460.87
534.01	36861.10
534.18	36524.06
534.35	37029.62
534.52	37029.62
534.69	37486.02
534.86	37120.90
535.03	37071.75
535.20	37167.71
535.37	37057.70
535.54	37303.46
535.71	37130.26
535.88	37572.62
536.05	37553.90
536.22	37294.10
536.38	37858.17
536.55	37146.64
536.72	37184.09
536.89	37593.68
537.06	37647.52
537.23	37488.36
537.40	37511.77
537.57	37530.49
537.74	37890.93
537.91	37785.61
538.08	37912.00
538.25	37780.93
538.42	37897.95
538.59	38447.98
538.75	37801.99
538.92	37991.58
539.09	38270.10
539.26	38005.62
539.43	37956.47
539.60	38113.28
539.77	38263.08
539.94	38087.54
540.11	38099.24
540.28	38150.73
540.44	38546.28
540.61	38157.75
540.78	38518.20
540.95	38637.56
541.12	38653.95
541.29	38747.57
541.46	38888.00
541.62	38557.99
541.79	38998.01
541.96	38534.58
542.13	38536.92
542.30	38799.06
542.47	39070.56
542.63	38735.87
542.80	39126.74
542.97	39402.92
543.14	39054.18
543.31	39105.67
543.48	38773.31
543.64	39571.44
543.81	39651.02
543.98	40086.36
544.15	39950.60
544.32	39957.63
544.48	40121.46
544.65	39728.25
544.82	39908.47
544.99	39803.15
545.16	39414.62
545.32	39683.78
545.49	40098.06
545.66	40355.52
545.83	40020.82
546.00	40348.50
546.16	39945.92
546.33	39629.95
546.50	39426.32
546.67	40034.86
546.83	39676.76
547.00	40095.72
547.17	39880.39
547.34	40191.68
547.50	39913.16
547.67	40580.21
547.84	40205.72
548.00	40950.01
548.17	40776.81
548.34	40603.61
548.51	40964.06
548.67	40737.02
548.84	40942.99
549.01	40638.72
549.18	40648.08
549.34	40500.63
549.51	40549.78
549.68	40767.45
549.84	40297.00
550.01	40957.03
550.18	40889.16
550.34	40982.78
550.51	41003.85
550.68	41240.24
550.84	40692.55
551.01	40793.20
551.18	40802.56
551.34	40643.40
551.51	40730.00
551.68	40982.78
551.84	41361.95
552.01	41067.04
552.18	41345.56
552.34	40994.48
552.51	41619.41
552.68	41469.61
552.84	41558.55
553.01	41558.55
553.18	41790.27
553.34	41375.99
553.51	41647.49
553.67	41603.02
553.84	41975.17
554.01	41684.94
554.17	41755.16
554.34	41701.32
554.51	41163.00
554.67	42038.36
554.84	41649.83
555.00	41748.14
555.17	41642.81
555.33	41474.29
555.50	41598.34
555.67	42068.79
555.83	41888.57
556.00	41659.20
556.16	42169.43
556.33	42237.31
556.50	42401.14
556.66	42382.42
556.83	42003.25
556.99	42190.50
557.16	42438.59
557.32	42384.76
557.49	42321.57
557.65	41755.16
557.82	41588.98
557.98	42230.29
558.15	41757.50
558.32	42227.95
558.48	42185.82
558.65	42244.33
558.81	42293.48
558.98	42174.11
559.14	42096.88
559.31	42368.38
559.47	42768.61
559.64	42454.98
559.80	42595.41
559.97	42595.41
560.13	42534.56
560.30	42305.18
560.46	42632.86
560.63	42045.38
560.79	42375.40
560.96	42230.29
561.12	42454.98
561.29	42480.72
561.45	42436.25
561.61	43068.20
561.78	43246.08
561.94	42656.26
562.11	43084.58
562.27	42447.96
562.44	42747.54
562.60	42684.35
562.77	43063.52
562.93	42813.08
563.10	42946.49
563.26	42941.81
563.42	43248.42
563.59	42904.36
563.75	42976.92
563.92	43225.01
564.08	42923.08
564.24	42569.66
564.41	42906.70
564.57	42878.61
564.74	42761.59
564.90	42724.14
565.07	42890.32
565.23	43372.47
565.39	43292.89
565.56	43208.63
565.72	42836.48
565.88	42845.85
566.05	42672.65
566.21	42862.23
566.38	42897.34
566.54	42946.49
566.70	43412.26
566.87	43569.07
567.03	42693.71
567.19	43349.06
567.36	43147.78
567.52	42904.36
567.68	43496.52
567.85	43126.71
568.01	43178.20
568.17	42923.08
568.34	43236.72
568.50	43285.87
568.66	43049.47
568.83	43370.13
568.99	43159.48
569.15	43583.12
569.32	43140.75
569.48	42974.58
569.64	43309.27
569.81	43199.27
569.97	42958.19
570.13	43210.97
570.30	43187.56
570.46	43040.11
570.62	43264.80
570.78	42932.45
570.95	43229.69
571.11	43178.20
571.27	42838.83
571.43	43302.25
571.60	43543.33
571.76	43051.81
571.92	43278.85
572.09	43672.06
572.25	43662.69
572.41	43414.60
572.57	42993.30
572.74	43540.99
572.90	43702.48
573.06	43124.37
573.22	43540.99
573.38	43400.55
573.55	43426.30
573.71	43536.30
573.87	43580.78
574.03	43264.80
574.20	43700.14
574.36	43482.47
574.52	42997.98
574.68	43112.67
574.84	43810.15
575.01	43828.87
575.17	43522.26
575.33	43772.70
575.49	43349.06
575.65	43842.92
575.82	43494.18
575.98	43391.19
576.14	43742.27
576.30	43674.40
576.46	43210.97
576.62	43388.85
576.79	43157.14
576.95	43133.73
577.11	43803.13
577.27	43868.66
577.43	43714.19
577.59	43880.36
577.75	43845.26
577.92	43477.79
578.08	43428.64
578.24	43295.23
578.40	43480.13
578.56	43459.07
578.72	43629.93
578.88	43983.35
579.04	43737.59
579.21	43761.00
579.37	43466.09
579.53	43856.96
579.69	43700.14
579.85	43863.98
580.01	43475.45
580.17	43405.23
580.33	43875.68
580.49	43679.08
580.65	43896.75
580.82	44179.95
580.98	43896.75
581.14	43742.27
581.30	43863.98
581.46	43662.69
581.62	43796.10
581.78	43845.26
581.94	43929.51
582.10	43365.45
582.26	43784.40
582.42	43473.11
582.58	44018.46
582.74	43831.21
582.90	44161.23
583.06	43838.23
583.22	43969.30
583.38	43461.41
583.54	44032.50
583.70	43704.82
583.86	43606.52
584.02	43625.25
584.18	43917.81
584.34	43941.22
584.50	43880.36
584.66	43868.66
584.82	43402.89
584.98	43744.61
585.14	43868.66
585.30	43529.28
585.46	43599.50
585.62	43583.12
585.78	43730.57
585.94	43604.18
586.10	44069.95
586.26	44098.03
586.42	43936.54
586.58	43643.97
586.74	43744.61
586.90	43526.94
587.06	43723.55
587.22	43810.15
587.38	43775.04
587.54	44126.12
587.70	44020.80
587.86	44102.71
588.02	44074.63
588.18	44072.29
588.34	44252.51
588.49	43887.39
588.65	43709.50
588.81	44282.94
588.97	43885.04
589.13	43990.37
589.29	43737.59
589.45	44158.89
589.61	44360.17
589.77	44348.47
589.93	44116.76
590.08	44449.11
590.24	44126.12
590.40	43988.03
590.56	44114.42
590.72	43758.66
590.88	43594.82
